Data from USB4F104151__60__13-53-37-097.txt Node

Date: Thu Mar 13 13:53:37 EDT 2025
User: louis
Spectrometer: USB4F10415
Trigger mode: 4
Integration Time (sec): 1.000000E-2
Scans to average: 1
Electric dark correction enabled: true
Nonlinearity correction enabled: false
Boxcar width: 0
XAxis mode: Wavelengths
Number of Pixels in Spectrum: 3648
>>>>>Begin Spectral Data<<<<<
178.204	-109.23
178.424	-109.23
178.644	-109.23
178.864	-37.55
179.084	-25.26
179.304	-62.12
179.524	1.37
179.744	-33.45
179.964	52.56
180.184	-2.73
180.404	17.75
180.624	-0.68
180.844	79.19
181.064	-74.41
181.283	-29.35
181.503	25.94
181.723	25.94
181.943	38.23
182.163	44.37
182.383	13.65
182.602	9.56
182.822	58.71
183.042	81.24
183.262	-62.12
183.482	-6.83
183.701	1.37
183.921	21.84
184.141	-74.41
184.361	-15.02
184.58	17.75
184.8	-4.78
185.02	-4.78
185.239	62.8
185.459	-12.97
185.679	5.46
185.898	13.65
186.118	27.99
186.338	36.18
186.557	62.8
186.777	21.84
186.997	1.37
187.216	23.89
187.436	-6.83
187.655	89.43
187.875	7.51
188.095	30.04
188.314	66.9
188.534	25.94
188.753	-17.07
188.973	15.7
189.192	36.18
189.412	42.32
189.631	56.66
189.851	56.66
190.07	-31.4
190.29	-64.17
190.509	36.18
190.729	56.66
190.948	56.66
191.168	107.86
191.387	38.23
191.607	-58.03
191.826	1.37
192.045	-6.83
192.265	50.52
192.484	30.04
192.704	66.9
192.923	3.41
193.142	73.04
193.362	52.56
193.581	97.62
193.8	5.46
194.02	58.71
194.239	11.61
194.458	21.84
194.678	-8.87
194.897	-25.26
195.116	-2.73
195.335	60.76
195.555	-0.68
195.774	19.8
195.993	46.42
196.212	34.13
196.432	50.52
196.651	7.51
196.87	5.46
197.089	91.48
197.308	38.23
197.528	44.37
197.747	21.84
197.966	-27.31
198.185	7.51
198.404	-27.31
198.623	30.04
198.842	52.56
199.062	25.94
199.281	-55.98
199.5	-23.21
199.719	32.08
199.938	42.32
200.157	116.05
200.376	-39.59
200.595	27.99
200.814	-33.45
201.033	25.94
201.252	58.71
201.471	3.41
201.69	64.85
201.909	17.75
202.128	52.56
202.347	38.23
202.566	44.37
202.785	-8.87
203.004	11.61
203.223	91.48
203.442	-29.35
203.661	-8.87
203.879	36.18
204.098	79.19
204.317	-19.11
204.536	56.66
204.755	66.9
204.974	-10.92
205.193	-8.87
205.411	-2.73
205.63	-25.26
205.849	40.28
206.068	-12.97
206.287	-12.97
206.505	42.32
206.724	-8.87
206.943	13.65
207.162	-8.87
207.381	11.61
207.599	-21.16
207.818	25.94
208.037	66.9
208.255	-12.97
208.474	5.46
208.693	58.71
208.911	11.61
209.13	25.94
209.349	85.33
209.567	68.95
209.786	34.13
210.005	11.61
210.223	34.13
210.442	21.84
210.661	-35.5
210.879	73.04
211.098	-19.11
211.316	-6.83
211.535	3.41
211.753	75.09
211.972	38.23
212.191	3.41
212.409	32.08
212.628	54.61
212.846	15.7
213.065	25.94
213.283	75.09
213.502	-2.73
213.72	25.94
213.938	13.65
214.157	30.04
214.375	1.37
214.594	21.84
214.812	44.37
215.031	85.33
215.249	34.13
215.467	-55.98
215.686	107.86
215.904	-17.07
216.122	36.18
216.341	23.89
216.559	71
216.778	-0.68
216.996	71
217.214	1.37
217.432	19.8
217.651	40.28
217.869	-37.55
218.087	13.65
218.306	58.71
218.524	42.32
218.742	21.84
218.96	-0.68
219.179	77.14
219.397	13.65
219.615	44.37
219.833	7.51
220.051	11.61
220.27	-29.35
220.488	23.89
220.706	36.18
220.924	30.04
221.142	25.94
221.36	-23.21
221.578	-2.73
221.796	-31.4
222.015	64.85
222.233	36.18
222.451	40.28
222.669	60.76
222.887	105.81
223.105	-68.27
223.323	56.66
223.541	-41.64
223.759	-4.78
223.977	21.84
224.195	9.56
224.413	103.76
224.631	25.94
224.849	-15.02
225.067	7.51
225.285	46.42
225.503	25.94
225.721	-21.16
225.939	9.56
226.157	19.8
226.375	3.41
226.592	-80.55
226.81	75.09
227.028	48.47
227.246	42.32
227.464	17.75
227.682	30.04
227.9	-23.21
228.117	11.61
228.335	68.95
228.553	-12.97
228.771	27.99
228.989	54.61
229.206	9.56
229.424	50.52
229.642	52.56
229.86	32.08
230.077	79.19
230.295	19.8
230.513	17.75
230.731	23.89
230.948	42.32
231.166	68.95
231.384	-2.73
231.601	-4.78
231.819	103.76
232.037	21.84
232.254	42.32
232.472	54.61
232.689	40.28
232.907	-8.87
233.125	-23.21
233.342	105.81
233.56	3.41
233.777	46.42
233.995	36.18
234.213	-6.83
234.43	50.52
234.648	48.47
234.865	1.37
235.083	60.76
235.3	11.61
235.518	21.84
235.735	71
235.953	32.08
236.17	83.28
236.388	30.04
236.605	36.18
236.822	9.56
237.04	-4.78
237.257	-72.36
237.475	-0.68
237.692	27.99
237.909	25.94
238.127	3.41
238.344	46.42
238.562	44.37
238.779	99.67
238.996	9.56
239.214	23.89
239.431	66.9
239.648	-29.35
239.865	-33.45
240.083	25.94
240.3	25.94
240.517	-41.64
240.735	-8.87
240.952	-12.97
241.169	11.61
241.386	34.13
241.603	66.9
241.821	52.56
242.038	7.51
242.255	50.52
242.472	38.23
242.689	-19.11
242.907	66.9
243.124	9.56
243.341	58.71
243.558	17.75
243.775	42.32
243.992	91.48
244.209	27.99
244.426	64.85
244.643	77.14
244.86	34.13
245.078	-29.35
245.295	-23.21
245.512	-23.21
245.729	30.04
245.946	42.32
246.163	-17.07
246.38	17.75
246.597	73.04
246.814	138.58
247.031	-45.74
247.248	-8.87
247.464	-12.97
247.681	-17.07
247.898	-33.45
248.115	40.28
248.332	-0.68
248.549	-47.79
248.766	25.94
248.983	11.61
249.2	-17.07
249.417	9.56
249.633	30.04
249.85	21.84
250.067	52.56
250.284	1.37
250.501	85.33
250.717	9.56
250.934	-23.21
251.151	15.7
251.368	-31.4
251.585	21.84
251.801	44.37
252.018	32.08
252.235	27.99
252.451	36.18
252.668	-33.45
252.885	56.66
253.102	-27.31
253.318	38.23
253.535	48.47
253.752	75.09
253.968	27.99
254.185	46.42
254.401	34.13
254.618	46.42
254.835	40.28
255.051	34.13
255.268	9.56
255.484	36.18
255.701	30.04
255.917	11.61
256.134	27.99
256.351	-6.83
256.567	-29.35
256.784	9.56
257	19.8
257.217	60.76
257.433	-4.78
257.65	9.56
257.866	85.33
258.082	81.24
258.299	-27.31
258.515	68.95
258.732	32.08
258.948	1.37
259.165	25.94
259.381	-8.87
259.597	5.46
259.814	75.09
260.03	56.66
260.246	73.04
260.463	93.52
260.679	48.47
260.895	-17.07
261.112	30.04
261.328	5.46
261.544	58.71
261.761	54.61
261.977	-15.02
262.193	-6.83
262.409	9.56
262.626	-58.03
262.842	-23.21
263.058	38.23
263.274	64.85
263.49	44.37
263.707	3.41
263.923	3.41
264.139	-19.11
264.355	-27.31
264.571	87.38
264.787	87.38
265.004	23.89
265.22	23.89
265.436	48.47
265.652	21.84
265.868	44.37
266.084	138.58
266.3	-17.07
266.516	44.37
266.732	27.99
266.948	46.42
267.164	-39.59
267.38	-37.55
267.596	-8.87
267.812	15.7
268.028	40.28
268.244	9.56
268.46	11.61
268.676	60.76
268.892	64.85
269.108	25.94
269.324	9.56
269.54	54.61
269.756	44.37
269.972	-33.45
270.188	25.94
270.403	38.23
270.619	-0.68
270.835	5.46
271.051	97.62
271.267	15.7
271.483	17.75
271.698	105.81
271.914	32.08
272.13	-31.4
272.346	50.52
272.562	9.56
272.777	-31.4
272.993	34.13
273.209	-10.92
273.425	5.46
273.64	-31.4
273.856	42.32
274.072	40.28
274.287	48.47
274.503	30.04
274.719	38.23
274.934	50.52
275.15	-41.64
275.366	27.99
275.581	-21.16
275.797	-25.26
276.012	-19.11
276.228	-12.97
276.444	68.95
276.659	40.28
276.875	-29.35
277.09	1.37
277.306	3.41
277.521	27.99
277.737	-45.74
277.952	-2.73
278.168	-23.21
278.383	-2.73
278.599	11.61
278.814	44.37
279.03	-21.16
279.245	50.52
279.461	25.94
279.676	77.14
279.892	-6.83
280.107	48.47
280.322	19.8
280.538	-31.4
280.753	34.13
280.969	-15.02
281.184	-6.83
281.399	-37.55
281.615	-27.31
281.83	-15.02
282.045	40.28
282.26	-64.17
282.476	-55.98
282.691	118.1
282.906	-6.83
283.122	42.32
283.337	-35.5
283.552	60.76
283.767	46.42
283.983	44.37
284.198	-33.45
284.413	30.04
284.628	62.8
284.843	-2.73
285.058	34.13
285.274	32.08
285.489	23.89
285.704	66.9
285.919	27.99
286.134	60.76
286.349	32.08
286.564	-17.07
286.779	1.37
286.995	77.14
287.21	46.42
287.425	36.18
287.64	-2.73
287.855	25.94
288.07	71
288.285	-21.16
288.5	-2.73
288.715	91.48
288.93	-6.83
289.145	93.52
289.36	56.66
289.575	40.28
289.79	11.61
290.004	-19.11
290.219	-6.83
290.434	32.08
290.649	-2.73
290.864	71
291.079	97.62
291.294	23.89
291.509	52.56
291.724	9.56
291.938	-21.16
292.153	42.32
292.368	77.14
292.583	62.8
292.798	42.32
293.012	71
293.227	58.71
293.442	-0.68
293.657	-4.78
293.871	23.89
294.086	93.52
294.301	89.43
294.516	64.85
294.73	44.37
294.945	3.41
295.16	58.71
295.374	1.37
295.589	-10.92
295.804	58.71
296.018	58.71
296.233	-0.68
296.447	17.75
296.662	-21.16
296.877	52.56
297.091	25.94
297.306	-0.68
297.52	30.04
297.735	42.32
297.949	-60.07
298.164	-39.59
298.378	34.13
298.593	25.94
298.807	-29.35
299.022	73.04
299.236	-19.11
299.451	-23.21
299.665	15.7
299.88	52.56
300.094	-2.73
300.309	42.32
300.523	19.8
300.737	48.47
300.952	97.62
301.166	91.48
301.381	-19.11
301.595	-15.02
301.809	83.28
302.024	-8.87
302.238	7.51
302.452	71
302.667	-47.79
302.881	105.81
303.095	42.32
303.309	79.19
303.524	15.7
303.738	83.28
303.952	-35.5
304.166	89.43
304.381	-25.26
304.595	64.85
304.809	-15.02
305.023	46.42
305.237	15.7
305.452	30.04
305.666	-0.68
305.88	42.32
306.094	-39.59
306.308	-0.68
306.522	77.14
306.736	-0.68
306.95	3.41
307.164	32.08
307.379	-33.45
307.593	46.42
307.807	17.75
308.021	52.56
308.235	30.04
308.449	-0.68
308.663	21.84
308.877	62.8
309.091	7.51
309.305	103.76
309.519	73.04
309.733	60.76
309.947	44.37
310.161	62.8
310.374	9.56
310.588	60.76
310.802	-19.11
311.016	9.56
311.23	56.66
311.444	15.7
311.658	-0.68
311.872	40.28
312.085	64.85
312.299	52.56
312.513	1.37
312.727	95.57
312.941	42.32
313.154	64.85
313.368	-45.74
313.582	-12.97
313.796	11.61
314.009	142.68
314.223	38.23
314.437	27.99
314.651	38.23
314.864	50.52
315.078	75.09
315.292	-4.78
315.505	34.13
315.719	58.71
315.933	54.61
316.146	-29.35
316.36	30.04
316.573	30.04
316.787	-21.16
317.001	21.84
317.214	-0.68
317.428	79.19
317.641	27.99
317.855	13.65
318.068	44.37
318.282	19.8
318.495	62.8
318.709	107.86
318.922	32.08
319.136	-33.45
319.349	56.66
319.563	-4.78
319.776	3.41
319.99	7.51
320.203	21.84
320.417	19.8
320.63	85.33
320.843	15.7
321.057	62.8
321.27	68.95
321.483	36.18
321.697	58.71
321.91	71
322.124	89.43
322.337	36.18
322.55	-33.45
322.763	-25.26
322.977	54.61
323.19	42.32
323.403	75.09
323.617	1.37
323.83	38.23
324.043	32.08
324.256	-82.6
324.469	-21.16
324.683	38.23
324.896	5.46
325.109	-10.92
325.322	-2.73
325.535	23.89
325.748	58.71
325.962	101.72
326.175	36.18
326.388	-51.88
326.601	5.46
326.814	9.56
327.027	17.75
327.24	62.8
327.453	-17.07
327.666	-8.87
327.879	7.51
328.092	13.65
328.305	9.56
328.518	21.84
328.731	19.8
328.944	101.72
329.157	42.32
329.37	-21.16
329.583	122.2
329.796	21.84
330.009	-31.4
330.222	23.89
330.435	32.08
330.648	7.51
330.861	25.94
331.073	19.8
331.286	75.09
331.499	17.75
331.712	38.23
331.925	107.86
332.138	11.61
332.35	5.46
332.563	27.99
332.776	17.75
332.989	-68.27
333.202	60.76
333.414	27.99
333.627	75.09
333.84	19.8
334.053	34.13
334.265	21.84
334.478	27.99
334.691	44.37
334.903	-15.02
335.116	-27.31
335.329	99.67
335.541	42.32
335.754	13.65
335.966	71
336.179	5.46
336.392	13.65
336.604	93.52
336.817	1.37
337.029	25.94
337.242	-21.16
337.454	13.65
337.667	1.37
337.88	48.47
338.092	48.47
338.305	-10.92
338.517	-4.78
338.729	17.75
338.942	-23.21
339.154	-15.02
339.367	-4.78
339.579	52.56
339.792	48.47
340.004	36.18
340.217	13.65
340.429	77.14
340.641	-29.35
340.854	27.99
341.066	-15.02
341.278	32.08
341.491	91.48
341.703	19.8
341.915	38.23
342.128	7.51
342.34	13.65
342.552	62.8
342.764	36.18
342.977	-25.26
343.189	85.33
343.401	30.04
343.613	15.7
343.826	50.52
344.038	36.18
344.25	34.13
344.462	-27.31
344.674	64.85
344.886	48.47
345.099	1.37
345.311	66.9
345.523	107.86
345.735	7.51
345.947	21.84
346.159	1.37
346.371	34.13
346.583	75.09
346.795	-12.97
347.007	79.19
347.219	83.28
347.431	-21.16
347.643	30.04
347.855	-4.78
348.067	68.95
348.279	73.04
348.491	44.37
348.703	42.32
348.915	-33.45
349.127	40.28
349.339	-4.78
349.551	-21.16
349.763	34.13
349.975	19.8
350.187	36.18
350.399	48.47
350.61	48.47
350.822	15.7
351.034	11.61
351.246	46.42
351.458	19.8
351.669	52.56
351.881	91.48
352.093	42.32
352.305	56.66
352.517	21.84
352.728	68.95
352.94	48.47
353.152	46.42
353.363	50.52
353.575	46.42
353.787	-2.73
353.999	-19.11
354.21	-12.97
354.422	32.08
354.633	38.23
354.845	30.04
355.057	9.56
355.268	-19.11
355.48	38.23
355.692	40.28
355.903	9.56
356.115	99.67
356.326	21.84
356.538	-15.02
356.749	-8.87
356.961	81.24
357.172	9.56
357.384	11.61
357.595	44.37
357.807	5.46
358.018	-45.74
358.23	42.32
358.441	75.09
358.653	-10.92
358.864	-2.73
359.075	64.85
359.287	-15.02
359.498	79.19
359.709	50.52
359.921	11.61
360.132	27.99
360.344	48.47
360.555	54.61
360.766	52.56
360.977	7.51
361.189	81.24
361.4	25.94
361.611	56.66
361.823	120.15
362.034	30.04
362.245	-47.79
362.456	68.95
362.667	56.66
362.879	7.51
363.09	9.56
363.301	15.7
363.512	66.9
363.723	130.39
363.935	19.8
364.146	60.76
364.357	44.37
364.568	64.85
364.779	7.51
364.99	60.76
365.201	30.04
365.412	1.37
365.623	-12.97
365.834	52.56
366.045	17.75
366.256	40.28
366.467	-39.59
366.678	21.84
366.889	17.75
367.1	34.13
367.311	103.76
367.522	52.56
367.733	38.23
367.944	25.94
368.155	56.66
368.366	25.94
368.577	103.76
368.788	-12.97
368.999	13.65
369.209	-15.02
369.42	11.61
369.631	54.61
369.842	85.33
370.053	38.23
370.264	23.89
370.474	42.32
370.685	89.43
370.896	73.04
371.107	99.67
371.317	58.71
371.528	103.76
371.739	42.32
371.95	46.42
372.16	30.04
372.371	40.28
372.582	13.65
372.792	30.04
373.003	19.8
373.214	46.42
373.424	97.62
373.635	-6.83
373.846	5.46
374.056	48.47
374.267	-2.73
374.477	-2.73
374.688	89.43
374.898	73.04
375.109	91.48
375.319	46.42
375.53	1.37
375.74	50.52
375.951	40.28
376.161	44.37
376.372	44.37
376.582	21.84
376.793	75.09
377.003	5.46
377.214	52.56
377.424	54.61
377.635	73.04
377.845	-25.26
378.055	95.57
378.266	25.94
378.476	36.18
378.686	52.56
378.897	71
379.107	42.32
379.317	-15.02
379.528	15.7
379.738	93.52
379.948	-35.5
380.158	62.8
380.369	32.08
380.579	64.85
380.789	52.56
380.999	23.89
381.21	109.91
381.42	36.18
381.63	-0.68
381.84	118.1
382.05	23.89
382.261	34.13
382.471	32.08
382.681	66.9
382.891	19.8
383.101	38.23
383.311	5.46
383.521	32.08
383.731	89.43
383.941	114
384.151	34.13
384.361	60.76
384.571	66.9
384.781	48.47
384.991	71
385.201	56.66
385.411	48.47
385.621	-8.87
385.831	30.04
386.041	32.08
386.251	46.42
386.461	46.42
386.671	15.7
386.881	15.7
387.091	44.37
387.301	87.38
387.511	30.04
387.72	107.86
387.93	9.56
388.14	11.61
388.35	40.28
388.56	54.61
388.769	60.76
388.979	64.85
389.189	44.37
389.399	64.85
389.609	13.65
389.818	64.85
390.028	7.51
390.238	81.24
390.447	-19.11
390.657	107.86
390.867	54.61
391.076	38.23
391.286	34.13
391.496	54.61
391.705	-4.78
391.915	25.94
392.125	87.38
392.334	44.37
392.544	89.43
392.753	17.75
392.963	-12.97
393.172	97.62
393.382	-31.4
393.591	32.08
393.801	54.61
394.01	54.61
394.22	64.85
394.429	93.52
394.639	5.46
394.848	38.23
395.058	30.04
395.267	136.53
395.477	77.14
395.686	62.8
395.895	91.48
396.105	118.1
396.314	114
396.524	50.52
396.733	25.94
396.942	17.75
397.152	71
397.361	1.37
397.57	50.52
397.78	77.14
397.989	79.19
398.198	62.8
398.407	124.24
398.617	81.24
398.826	25.94
399.035	79.19
399.244	50.52
399.453	46.42
399.663	17.75
399.872	64.85
400.081	62.8
400.29	52.56
400.499	89.43
400.708	109.91
400.917	-29.35
401.127	52.56
401.336	77.14
401.545	75.09
401.754	101.72
401.963	87.38
402.172	77.14
402.381	83.28
402.59	134.48
402.799	81.24
403.008	101.72
403.217	152.91
403.426	118.1
403.635	66.9
403.844	109.91
404.053	91.48
404.262	140.63
404.471	122.2
404.68	95.57
404.888	118.1
405.097	107.86
405.306	81.24
405.515	109.91
405.724	103.76
405.933	91.48
406.142	128.34
406.35	118.1
406.559	122.2
406.768	140.63
406.977	93.52
407.185	73.04
407.394	120.15
407.603	183.63
407.812	181.59
408.02	132.44
408.229	210.26
408.438	181.59
408.646	111.96
408.855	122.2
409.064	189.78
409.272	214.35
409.481	214.35
409.69	200.02
409.898	218.45
410.107	255.31
410.315	255.31
410.524	247.12
410.733	290.13
410.941	316.75
411.15	304.46
411.358	210.26
411.567	290.13
411.775	222.55
411.984	320.85
412.192	359.76
412.401	267.6
412.609	320.85
412.818	277.84
413.026	333.14
413.234	318.8
413.443	415.05
413.651	333.14
413.86	402.77
414.068	361.81
414.276	429.39
414.485	437.58
414.693	425.29
414.901	494.93
415.11	435.53
415.318	445.77
415.526	458.06
415.734	533.84
415.943	615.76
416.151	505.17
416.359	503.12
416.567	566.6
416.776	494.93
416.984	621.9
417.192	621.9
417.4	611.66
417.608	589.13
417.817	761.16
418.025	671.05
418.233	720.2
418.441	671.05
418.649	767.31
418.857	820.55
419.065	816.46
419.273	929.1
419.481	902.47
419.689	925
419.897	970.05
420.105	953.67
420.313	886.09
420.521	953.67
420.729	1006.92
420.937	1105.22
421.145	1170.76
421.353	1197.38
421.561	1228.1
421.769	1199.43
421.977	1293.63
422.185	1291.59
422.393	1252.67
422.601	1383.74
422.809	1445.18
423.017	1393.98
423.224	1471.81
423.432	1525.05
423.64	1668.41
423.848	1735.99
424.056	1594.68
424.263	1803.58
424.471	1727.8
424.679	1819.96
424.887	2004.28
425.094	1914.17
425.302	1961.27
425.51	2008.37
425.718	2155.83
425.925	2184.5
426.133	2174.26
426.341	2442.54
426.548	2495.79
426.756	2489.65
426.964	2542.89
427.171	2655.53
427.379	2733.36
427.586	2723.12
427.794	2911.53
428.001	2946.34
428.209	3081.51
428.417	3099.94
428.624	3202.34
428.832	3265.83
429.039	3126.57
429.247	3181.86
429.454	3622.17
429.662	3861.79
429.869	3611.93
430.076	3824.92
430.284	3808.54
430.491	3775.77
430.699	4121.88
430.906	4097.3
431.114	4085.01
431.321	4322.58
431.528	4328.72
431.736	4592.91
431.943	4777.23
432.15	4646.16
432.358	4758.8
432.565	4885.77
432.772	4908.3
432.979	5289.22
433.187	5385.48
433.394	5373.19
433.601	5709.05
433.808	5610.75
434.016	5735.68
434.223	5938.43
434.43	6288.63
434.637	6247.67
434.844	6561.01
435.052	6618.35
435.259	6751.47
435.466	6589.68
435.673	6761.71
435.88	7087.34
436.087	7455.97
436.294	7353.57
436.501	7251.17
436.708	7636.19
436.915	7652.58
437.122	8033.5
437.329	7986.4
437.537	8439
437.743	8318.17
437.95	8129.75
438.157	8854.73
438.364	9100.49
438.571	8977.61
438.778	9233.61
438.985	9974.97
439.192	9549
439.399	9913.53
439.606	9583.81
439.813	10093.76
440.02	10642.61
440.227	10519.73
440.433	10489.01
440.64	10751.15
440.847	10661.04
441.054	11087.02
441.261	11668.64
441.467	11543.72
441.674	11844.77
441.881	12149.92
442.088	12063.9
442.294	12207.26
442.501	12536.98
442.708	12639.38
442.914	13137.04
443.121	13542.53
443.328	13474.95
443.534	14300.28
443.741	13892.74
443.948	13601.93
444.154	14746.74
444.361	14697.59
444.568	14763.12
444.774	14898.29
444.981	14873.71
445.187	15348.84
445.394	15975.52
445.6	15680.61
445.807	17466.44
446.013	16524.38
446.22	17232.97
446.426	17480.78
446.633	17493.07
446.839	18523.19
447.046	17448.01
447.252	18631.74
447.459	18500.67
447.665	18523.19
447.871	19352.62
448.078	20157.47
448.284	19063.86
448.491	19848.23
448.697	20323.36
448.903	20536.35
449.11	20950.04
449.316	20616.22
449.522	20681.75
449.728	21242.9
449.935	21507.09
450.141	21404.69
450.347	22072.32
450.553	21380.11
450.76	21447.69
450.966	21941.25
451.172	21767.18
451.378	22238.21
451.584	21916.68
451.791	22678.52
451.997	22416.38
452.203	22858.74
452.409	22723.58
452.615	22705.15
452.821	21869.58
453.027	21711.88
453.233	22772.73
453.44	21541.9
453.646	22057.99
453.852	21974.02
454.058	22580.22
454.264	21564.43
454.47	22307.84
454.676	21593.1
454.882	22457.34
455.088	20374.56
455.294	20806.68
455.5	20923.41
455.705	21296.14
455.911	20143.14
456.117	19913.77
456.323	19506.22
456.529	18805.81
456.735	19303.47
456.941	18926.64
457.147	18517.05
457.352	17704.01
457.558	17679.43
457.764	18072.64
457.97	17405
458.176	17075.28
458.381	17269.84
458.587	16432.22
458.793	16307.29
458.999	15318.12
459.204	16401.5
459.41	15932.51
459.616	15068.27
459.821	14988.4
460.027	15000.69
460.233	14599.29
460.438	14097.53
460.644	14064.77
460.85	13341.83
461.055	13018.25
461.261	13216.91
461.466	12111
461.672	11881.63
461.878	12590.23
462.083	11861.15
462.289	11707.55
462.494	11513
462.7	10966.19
462.905	10806.45
463.111	11281.58
463.316	11123.88
463.522	10935.47
463.727	10996.91
463.932	10771.63
464.138	10898.61
464.343	11068.59
464.549	10441.91
464.754	10814.64
464.959	10804.4
465.165	10611.89
465.37	10198.2
465.575	9993.4
465.781	10378.42
465.986	10548.4
466.191	9819.33
466.397	10024.12
466.602	9354.44
466.807	9741.5
467.012	10003.64
467.218	9721.02
467.423	9665.73
467.628	9776.32
467.833	9977.02
468.038	9632.96
468.244	9544.9
468.449	9981.12
468.654	9549
468.859	9407.69
469.064	9473.22
469.269	9127.11
