Data from USB4F104151__274__14-02-21-159.txt Node

Date: Thu Mar 13 14:02:21 EDT 2025
User: louis
Spectrometer: USB4F10415
Trigger mode: 4
Integration Time (sec): 1.000000E-2
Scans to average: 1
Electric dark correction enabled: true
Nonlinearity correction enabled: false
Boxcar width: 0
XAxis mode: Wavelengths
Number of Pixels in Spectrum: 3648
>>>>>Begin Spectral Data<<<<<
178.204	-46.25
178.424	-46.25
178.644	-46.25
178.864	-44.2
179.084	-56.49
179.304	-15.53
179.524	7
179.744	9.05
179.964	-60.59
180.184	-54.44
180.404	-17.58
180.624	-50.35
180.844	13.14
181.064	27.48
181.283	70.48
181.503	-15.53
181.723	86.87
181.943	0.85
182.163	90.96
182.383	43.86
182.602	66.39
182.822	41.81
183.042	13.14
183.262	68.44
183.482	39.76
183.701	21.33
183.921	37.72
184.141	-64.68
184.361	21.33
184.58	-11.43
184.8	54.1
185.02	68.44
185.239	43.86
185.459	29.52
185.679	21.33
185.898	-3.24
186.118	76.63
186.338	-19.63
186.557	90.96
186.777	2.9
186.997	4.95
187.216	19.29
187.436	86.87
187.655	45.91
187.875	31.57
188.095	-11.43
188.314	113.49
188.534	41.81
188.753	-19.63
188.973	74.58
189.192	76.63
189.412	-15.53
189.631	54.1
189.851	58.2
190.07	31.57
190.29	56.15
190.509	43.86
190.729	76.63
190.948	-23.72
191.168	29.52
191.387	35.67
191.607	-48.3
191.826	93.01
192.045	76.63
192.265	39.76
192.484	-50.35
192.704	60.24
192.923	-54.44
193.142	47.96
193.362	84.82
193.581	-5.29
193.8	54.1
194.02	70.48
194.239	-62.63
194.458	43.86
194.678	131.92
194.897	39.76
195.116	70.48
195.335	-23.72
195.555	27.48
195.774	72.53
195.993	105.3
196.212	68.44
196.432	17.24
196.651	0.85
196.87	21.33
197.089	109.4
197.308	-5.29
197.528	33.62
197.747	15.19
197.966	45.91
198.185	60.24
198.404	7
198.623	54.1
198.842	58.2
199.062	39.76
199.281	33.62
199.5	19.29
199.719	93.01
199.938	7
200.157	62.29
200.376	111.44
200.595	88.92
200.814	19.29
201.033	47.96
201.252	80.72
201.471	29.52
201.69	43.86
201.909	39.76
202.128	17.24
202.347	4.95
202.566	-25.77
202.785	45.91
203.004	54.1
203.223	62.29
203.442	74.58
203.661	-15.53
203.879	-11.43
204.098	150.36
204.317	25.43
204.536	35.67
204.755	90.96
204.974	54.1
205.193	21.33
205.411	86.87
205.63	9.05
205.849	60.24
206.068	60.24
206.287	25.43
206.505	78.68
206.724	27.48
206.943	-5.29
207.162	56.15
207.381	35.67
207.599	41.81
207.818	90.96
208.037	68.44
208.255	80.72
208.474	76.63
208.693	43.86
208.911	52.05
209.13	41.81
209.349	142.16
209.567	62.29
209.786	41.81
210.005	54.1
210.223	41.81
210.442	70.48
210.661	31.57
210.879	31.57
211.098	84.82
211.316	41.81
211.535	31.57
211.753	19.29
211.972	93.01
212.191	15.19
212.409	-1.19
212.628	43.86
212.846	11.09
213.065	74.58
213.283	72.53
213.502	80.72
213.72	68.44
213.938	2.9
214.157	86.87
214.375	21.33
214.594	66.39
214.812	-9.39
215.031	60.24
215.249	29.52
215.467	103.25
215.686	54.1
215.904	84.82
216.122	0.85
216.341	170.83
216.559	21.33
216.778	25.43
216.996	19.29
217.214	4.95
217.432	19.29
217.651	123.73
217.869	-85.16
218.087	133.97
218.306	33.62
218.524	54.1
218.742	7
218.96	35.67
219.179	58.2
219.397	72.53
219.615	58.2
219.833	19.29
220.051	-13.48
220.27	4.95
220.488	86.87
220.706	43.86
220.924	50
221.142	-9.39
221.36	25.43
221.578	35.67
221.796	39.76
222.015	64.34
222.233	37.72
222.451	111.44
222.669	76.63
222.887	60.24
223.105	80.72
223.323	0.85
223.541	-25.77
223.759	11.09
223.977	97.11
224.195	60.24
224.413	15.19
224.631	-11.43
224.849	93.01
225.067	45.91
225.285	93.01
225.503	35.67
225.721	37.72
225.939	41.81
226.157	70.48
226.375	138.07
226.592	-3.24
226.81	43.86
227.028	105.3
227.246	62.29
227.464	72.53
227.682	2.9
227.9	68.44
228.117	50
228.335	68.44
228.553	58.2
228.771	9.05
228.989	70.48
229.206	50
229.424	2.9
229.642	-3.24
229.86	27.48
230.077	39.76
230.295	117.59
230.513	31.57
230.731	78.68
230.948	39.76
231.166	50
231.384	29.52
231.601	41.81
231.819	15.19
232.037	70.48
232.254	101.2
232.472	29.52
232.689	-23.72
232.907	19.29
233.125	56.15
233.342	19.29
233.56	-29.87
233.777	72.53
233.995	93.01
234.213	70.48
234.43	4.95
234.648	74.58
234.865	88.92
235.083	-3.24
235.3	45.91
235.518	60.24
235.735	35.67
235.953	41.81
236.17	93.01
236.388	93.01
236.605	86.87
236.822	105.3
237.04	76.63
237.257	62.29
237.475	31.57
237.692	68.44
237.909	43.86
238.127	60.24
238.344	136.02
238.562	64.34
238.779	54.1
238.996	27.48
239.214	95.06
239.431	33.62
239.648	2.9
239.865	93.01
240.083	88.92
240.3	43.86
240.517	-21.67
240.735	78.68
240.952	7
241.169	43.86
241.386	78.68
241.603	-9.39
241.821	-50.35
242.038	82.77
242.255	45.91
242.472	39.76
242.689	90.96
242.907	15.19
243.124	7
243.341	58.2
243.558	17.24
243.775	-17.58
243.992	39.76
244.209	-1.19
244.426	47.96
244.643	27.48
244.86	70.48
245.078	72.53
245.295	58.2
245.512	47.96
245.729	31.57
245.946	-5.29
246.163	52.05
246.38	64.34
246.597	99.16
246.814	27.48
247.031	60.24
247.248	68.44
247.464	68.44
247.681	19.29
247.898	11.09
248.115	11.09
248.332	-17.58
248.549	66.39
248.766	68.44
248.983	68.44
249.2	47.96
249.417	90.96
249.633	111.44
249.85	13.14
250.067	-29.87
250.284	-1.19
250.501	35.67
250.717	43.86
250.934	-13.48
251.151	76.63
251.368	43.86
251.585	35.67
251.801	27.48
252.018	-5.29
252.235	37.72
252.451	68.44
252.668	76.63
252.885	45.91
253.102	82.77
253.318	105.3
253.535	-1.19
253.752	125.78
253.968	15.19
254.185	52.05
254.401	23.38
254.618	13.14
254.835	60.24
255.051	66.39
255.268	21.33
255.484	7
255.701	52.05
255.917	80.72
256.134	17.24
256.351	74.58
256.567	88.92
256.784	76.63
257	-13.48
257.217	93.01
257.433	52.05
257.65	68.44
257.866	70.48
258.082	95.06
258.299	45.91
258.515	27.48
258.732	35.67
258.948	109.4
259.165	84.82
259.381	37.72
259.597	-44.2
259.814	27.48
260.03	54.1
260.246	2.9
260.463	-9.39
260.679	2.9
260.895	-29.87
261.112	54.1
261.328	58.2
261.544	47.96
261.761	133.97
261.977	-17.58
262.193	60.24
262.409	21.33
262.626	31.57
262.842	78.68
263.058	31.57
263.274	78.68
263.49	50
263.707	54.1
263.923	64.34
264.139	43.86
264.355	17.24
264.571	37.72
264.787	29.52
265.004	29.52
265.22	9.05
265.436	45.91
265.652	2.9
265.868	39.76
266.084	64.34
266.3	129.88
266.516	-46.25
266.732	64.34
266.948	39.76
267.164	84.82
267.38	29.52
267.596	66.39
267.812	101.2
268.028	54.1
268.244	47.96
268.46	74.58
268.676	11.09
268.892	45.91
269.108	74.58
269.324	70.48
269.54	35.67
269.756	52.05
269.972	80.72
270.188	-21.67
270.403	33.62
270.619	107.35
270.835	37.72
271.051	76.63
271.267	19.29
271.483	47.96
271.698	103.25
271.914	15.19
272.13	19.29
272.346	4.95
272.562	60.24
272.777	111.44
272.993	37.72
273.209	0.85
273.425	72.53
273.64	21.33
273.856	84.82
274.072	35.67
274.287	88.92
274.503	17.24
274.719	39.76
274.934	54.1
275.15	54.1
275.366	-36.01
275.581	-13.48
275.797	56.15
276.012	4.95
276.228	19.29
276.444	90.96
276.659	111.44
276.875	21.33
277.09	80.72
277.306	2.9
277.521	78.68
277.737	-33.96
277.952	52.05
278.168	101.2
278.383	72.53
278.599	27.48
278.814	109.4
279.03	47.96
279.245	64.34
279.461	-36.01
279.676	52.05
279.892	95.06
280.107	17.24
280.322	-9.39
280.538	45.91
280.753	21.33
280.969	27.48
281.184	37.72
281.399	-19.63
281.615	2.9
281.83	56.15
282.045	90.96
282.26	21.33
282.476	27.48
282.691	97.11
282.906	99.16
283.122	47.96
283.337	15.19
283.552	90.96
283.767	31.57
283.983	70.48
284.198	74.58
284.413	-52.39
284.628	54.1
284.843	101.2
285.058	64.34
285.274	41.81
285.489	31.57
285.704	56.15
285.919	41.81
286.134	35.67
286.349	15.19
286.564	86.87
286.779	86.87
286.995	101.2
287.21	0.85
287.425	17.24
287.64	78.68
287.855	35.67
288.07	21.33
288.285	125.78
288.5	-21.67
288.715	54.1
288.93	72.53
289.145	76.63
289.36	19.29
289.575	138.07
289.79	103.25
290.004	13.14
290.219	54.1
290.434	37.72
290.649	-9.39
290.864	27.48
291.079	68.44
291.294	103.25
291.509	-5.29
291.724	11.09
291.938	-1.19
292.153	7
292.368	52.05
292.583	115.54
292.798	60.24
293.012	23.38
293.227	11.09
293.442	45.91
293.657	39.76
293.871	29.52
294.086	138.07
294.301	70.48
294.516	31.57
294.73	82.77
294.945	15.19
295.16	64.34
295.374	70.48
295.589	93.01
295.804	21.33
296.018	27.48
296.233	136.02
296.447	27.48
296.662	60.24
296.877	93.01
297.091	93.01
297.306	52.05
297.52	52.05
297.735	35.67
297.949	64.34
298.164	50
298.378	60.24
298.593	105.3
298.807	56.15
299.022	103.25
299.236	74.58
299.451	17.24
299.665	29.52
299.88	80.72
300.094	58.2
300.309	105.3
300.523	41.81
300.737	29.52
300.952	41.81
301.166	41.81
301.381	-25.77
301.595	47.96
301.809	62.29
302.024	-29.87
302.238	60.24
302.452	56.15
302.667	68.44
302.881	95.06
303.095	13.14
303.309	13.14
303.524	7
303.738	103.25
303.952	119.64
304.166	140.12
304.381	29.52
304.595	76.63
304.809	43.86
305.023	19.29
305.237	43.86
305.452	35.67
305.666	95.06
305.88	60.24
306.094	50
306.308	101.2
306.522	70.48
306.736	113.49
306.95	68.44
307.164	80.72
307.379	-40.11
307.593	95.06
307.807	33.62
308.021	103.25
308.235	97.11
308.449	-29.87
308.663	37.72
308.877	105.3
309.091	9.05
309.305	37.72
309.519	84.82
309.733	68.44
309.947	7
310.161	80.72
310.374	84.82
310.588	31.57
310.802	95.06
311.016	-27.82
311.23	-15.53
311.444	80.72
311.658	13.14
311.872	27.48
312.085	70.48
312.299	152.4
312.513	27.48
312.727	15.19
312.941	43.86
313.154	95.06
313.368	64.34
313.582	62.29
313.796	68.44
314.009	78.68
314.223	78.68
314.437	17.24
314.651	27.48
314.864	54.1
315.078	78.68
315.292	66.39
315.505	33.62
315.719	136.02
315.933	60.24
316.146	58.2
316.36	93.01
316.573	93.01
316.787	52.05
317.001	93.01
317.214	43.86
317.428	11.09
317.641	52.05
317.855	62.29
318.068	80.72
318.282	52.05
318.495	107.35
318.709	117.59
318.922	90.96
319.136	93.01
319.349	101.2
319.563	31.57
319.776	62.29
319.99	80.72
320.203	60.24
320.417	35.67
320.63	9.05
320.843	37.72
321.057	27.48
321.27	56.15
321.483	64.34
321.697	88.92
321.91	39.76
322.124	76.63
322.337	47.96
322.55	68.44
322.763	86.87
322.977	60.24
323.19	52.05
323.403	70.48
323.617	56.15
323.83	76.63
324.043	-7.34
324.256	35.67
324.469	80.72
324.683	101.2
324.896	43.86
325.109	68.44
325.322	76.63
325.535	37.72
325.748	131.92
325.962	84.82
326.175	35.67
326.388	52.05
326.601	70.48
326.814	72.53
327.027	39.76
327.24	164.69
327.453	47.96
327.666	86.87
327.879	43.86
328.092	131.92
328.305	35.67
328.518	68.44
328.731	35.67
328.944	95.06
329.157	64.34
329.37	78.68
329.583	109.4
329.796	97.11
330.009	78.68
330.222	80.72
330.435	68.44
330.648	68.44
330.861	111.44
331.073	95.06
331.286	64.34
331.499	31.57
331.712	29.52
331.925	74.58
332.138	70.48
332.35	88.92
332.563	27.48
332.776	66.39
332.989	37.72
333.202	58.2
333.414	19.29
333.627	-7.34
333.84	84.82
334.053	47.96
334.265	45.91
334.478	76.63
334.691	142.16
334.903	82.77
335.116	101.2
335.329	-27.82
335.541	109.4
335.754	13.14
335.966	35.67
336.179	95.06
336.392	27.48
336.604	70.48
336.817	15.19
337.029	117.59
337.242	27.48
337.454	-3.24
337.667	15.19
337.88	56.15
338.092	72.53
338.305	70.48
338.517	29.52
338.729	47.96
338.942	103.25
339.154	68.44
339.367	50
339.579	62.29
339.792	66.39
340.004	68.44
340.217	82.77
340.429	39.76
340.641	64.34
340.854	88.92
341.066	54.1
341.278	93.01
341.491	117.59
341.703	86.87
341.915	82.77
342.128	95.06
342.34	39.76
342.552	60.24
342.764	97.11
342.977	56.15
343.189	88.92
343.401	15.19
343.613	84.82
343.826	97.11
344.038	45.91
344.25	27.48
344.462	9.05
344.674	72.53
344.886	7
345.099	82.77
345.311	45.91
345.523	84.82
345.735	35.67
345.947	97.11
346.159	103.25
346.371	70.48
346.583	23.38
346.795	4.95
347.007	82.77
347.219	93.01
347.431	60.24
347.643	13.14
347.855	2.9
348.067	62.29
348.279	21.33
348.491	78.68
348.703	-3.24
348.915	58.2
349.127	90.96
349.339	84.82
349.551	43.86
349.763	119.64
349.975	95.06
350.187	86.87
350.399	37.72
350.61	52.05
350.822	80.72
351.034	119.64
351.246	31.57
351.458	117.59
351.669	52.05
351.881	172.88
352.093	90.96
352.305	19.29
352.517	80.72
352.728	-13.48
352.94	27.48
353.152	76.63
353.363	43.86
353.575	82.77
353.787	33.62
353.999	37.72
354.21	-5.29
354.422	93.01
354.633	39.76
354.845	62.29
355.057	-42.15
355.268	-50.35
355.48	74.58
355.692	64.34
355.903	-29.87
356.115	-27.82
356.326	66.39
356.538	95.06
356.749	78.68
356.961	97.11
357.172	64.34
357.384	60.24
357.595	62.29
357.807	68.44
358.018	35.67
358.23	80.72
358.441	47.96
358.653	111.44
358.864	80.72
359.075	31.57
359.287	101.2
359.498	97.11
359.709	90.96
359.921	52.05
360.132	43.86
360.344	35.67
360.555	74.58
360.766	103.25
360.977	45.91
361.189	74.58
361.4	4.95
361.611	150.36
361.823	111.44
362.034	58.2
362.245	37.72
362.456	52.05
362.667	9.05
362.879	54.1
363.09	84.82
363.301	-3.24
363.512	97.11
363.723	41.81
363.935	43.86
364.146	29.52
364.357	60.24
364.568	93.01
364.779	47.96
364.99	70.48
365.201	125.78
365.412	47.96
365.623	37.72
365.834	150.36
366.045	127.83
366.256	111.44
366.467	152.4
366.678	103.25
366.889	-3.24
367.1	103.25
367.311	68.44
367.522	33.62
367.733	97.11
367.944	58.2
368.155	17.24
368.366	47.96
368.577	33.62
368.788	54.1
368.999	52.05
369.209	133.97
369.42	50
369.631	27.48
369.842	29.52
370.053	123.73
370.264	113.49
370.474	95.06
370.685	27.48
370.896	162.64
371.107	109.4
371.317	84.82
371.528	64.34
371.739	99.16
371.95	84.82
372.16	84.82
372.371	43.86
372.582	4.95
372.792	11.09
373.003	93.01
373.214	140.12
373.424	97.11
373.635	4.95
373.846	129.88
374.056	76.63
374.267	52.05
374.477	37.72
374.688	80.72
374.898	82.77
375.109	131.92
375.319	-27.82
375.53	25.43
375.74	39.76
375.951	52.05
376.161	101.2
376.372	23.38
376.582	50
376.793	109.4
377.003	95.06
377.214	56.15
377.424	164.69
377.635	76.63
377.845	103.25
378.055	97.11
378.266	97.11
378.476	78.68
378.686	60.24
378.897	115.54
379.107	66.39
379.317	84.82
379.528	76.63
379.738	27.48
379.948	60.24
380.158	152.4
380.369	76.63
380.579	58.2
380.789	60.24
380.999	29.52
381.21	15.19
381.42	140.12
381.63	-31.91
381.84	97.11
382.05	95.06
382.261	27.48
382.471	54.1
382.681	54.1
382.891	131.92
383.101	52.05
383.311	52.05
383.521	93.01
383.731	93.01
383.941	138.07
384.151	84.82
384.361	113.49
384.571	47.96
384.781	103.25
384.991	82.77
385.201	68.44
385.411	88.92
385.621	123.73
385.831	109.4
386.041	45.91
386.251	62.29
386.461	76.63
386.671	115.54
386.881	15.19
387.091	117.59
387.301	72.53
387.511	52.05
387.72	50
387.93	97.11
388.14	43.86
388.35	27.48
388.56	129.88
388.769	27.48
388.979	117.59
389.189	78.68
389.399	142.16
389.609	84.82
389.818	56.15
390.028	23.38
390.238	33.62
390.447	11.09
390.657	119.64
390.867	78.68
391.076	27.48
391.286	80.72
391.496	144.21
391.705	60.24
391.915	109.4
392.125	43.86
392.334	56.15
392.544	158.55
392.753	78.68
392.963	60.24
393.172	113.49
393.382	146.26
393.591	47.96
393.801	39.76
394.01	133.97
394.22	138.07
394.429	52.05
394.639	60.24
394.848	138.07
395.058	62.29
395.267	78.68
395.477	101.2
395.686	101.2
395.895	166.74
396.105	158.55
396.314	90.96
396.524	150.36
396.733	99.16
396.942	133.97
397.152	82.77
397.361	125.78
397.57	109.4
397.78	101.2
397.989	64.34
398.198	166.74
398.407	109.4
398.617	156.5
398.826	148.31
399.035	172.88
399.244	158.55
399.453	144.21
399.663	140.12
399.872	129.88
400.081	111.44
400.29	193.36
400.499	129.88
400.708	168.79
400.917	111.44
401.127	127.83
401.336	121.68
401.545	113.49
401.754	174.93
401.963	144.21
402.172	80.72
402.381	97.11
402.59	179.03
402.799	109.4
403.008	146.26
403.217	133.97
403.426	117.59
403.635	158.55
403.844	133.97
404.053	195.41
404.262	125.78
404.471	174.93
404.68	197.46
404.888	191.31
405.097	217.94
405.306	242.51
405.515	191.31
405.724	226.13
405.933	215.89
406.142	181.07
406.35	248.66
406.559	265.04
406.768	269.14
406.977	246.61
407.185	230.23
407.394	226.13
407.603	265.04
407.812	277.33
408.02	267.09
408.229	273.23
408.438	256.85
408.646	312.14
408.855	330.58
409.064	283.47
409.272	297.81
409.481	256.85
409.69	330.58
409.898	406.35
410.107	355.15
410.315	445.26
410.524	314.19
410.733	369.49
410.941	346.96
411.15	404.3
411.358	443.21
411.567	353.1
411.775	480.08
411.984	480.08
412.192	562
412.401	490.32
412.609	541.52
412.818	504.65
413.026	551.76
413.234	506.7
413.443	559.95
413.651	529.23
413.86	602.96
414.068	699.21
414.276	672.59
414.485	615.24
414.693	686.92
414.901	762.7
415.11	744.27
415.318	774.99
415.526	777.03
415.734	801.61
415.943	815.94
416.151	883.53
416.359	924.49
416.567	938.82
416.776	1020.74
416.984	1045.32
417.192	1104.71
417.4	1127.24
417.608	1123.14
417.817	1172.29
418.025	1151.81
418.233	1317.7
418.441	1256.26
418.649	1309.51
418.857	1426.24
419.065	1483.58
419.273	1348.42
419.481	1366.85
419.689	1633.08
419.897	1637.18
420.105	1641.28
420.313	1817.4
420.521	1717.05
420.729	1780.54
420.937	1884.98
421.145	1915.7
421.353	2069.3
421.561	2091.83
421.769	2177.84
421.977	2288.43
422.185	2212.66
422.393	2446.13
422.601	2558.77
422.809	2347.83
423.017	2571.05
423.224	2566.96
423.432	2779.95
423.64	2685.74
423.848	2992.94
424.056	2886.44
424.263	3085.09
424.471	3134.25
424.679	3181.35
424.887	3302.18
425.094	3296.04
425.302	3500.83
425.51	3613.47
425.718	3681.05
425.925	3664.67
426.133	3838.75
426.341	4006.68
426.548	4369.17
426.756	4352.79
426.964	4297.49
427.171	4461.33
427.379	4614.93
427.586	4864.78
427.794	4885.26
428.001	5182.21
428.209	5286.66
428.417	5327.62
428.624	5618.43
428.832	5661.44
429.039	5548.8
429.247	5681.92
429.454	6138.62
429.662	6449.91
429.869	6081.27
430.076	6458.1
430.284	6449.91
430.491	6597.36
430.699	7107.3
430.906	7037.67
431.114	7203.56
431.321	7457.51
431.528	7518.95
431.736	7983.84
431.943	8422.1
432.15	8178.39
432.358	8182.49
432.565	8514.26
432.772	8747.73
432.979	9138.89
433.187	9138.89
433.394	9126.6
433.601	9712.32
433.808	9966.27
434.016	9835.2
434.223	10113.72
434.43	10871.47
434.637	10685.11
434.844	11348.65
435.052	11496.1
435.259	11492.01
435.466	11594.4
435.673	11522.73
435.88	12192.41
436.087	12888.72
436.294	12841.62
436.501	12452.5
436.708	12733.08
436.915	13177.48
437.122	13935.23
437.329	13800.07
437.537	14330.49
437.743	14389.88
437.95	14307.96
438.157	14903.92
438.364	15823.46
438.571	15553.13
438.778	15643.24
438.985	17107.54
439.192	16548.44
439.399	16890.45
439.606	16714.33
439.813	17609.29
440.02	18573.88
440.227	18117.18
440.433	17859.14
440.64	18813.49
440.847	18559.55
441.054	19046.96
441.261	20277.79
441.467	20191.78
441.674	20474.4
441.881	21092.88
442.088	21076.5
442.294	20871.7
442.501	21309.97
442.708	21723.66
442.914	22716.92
443.121	23439.86
443.328	23312.88
443.534	24605.15
443.741	23775.72
443.948	23593.45
444.154	25373.14
444.361	25264.6
444.568	25414.1
444.774	25311.7
444.981	25629.13
445.187	26309.06
445.394	27623.86
445.6	27204.02
445.807	29938.06
446.013	28510.63
446.22	29254.04
446.426	30009.74
446.633	30232.97
446.839	31390.07
447.046	29991.31
447.252	31308.15
447.459	31656.31
447.665	31416.69
447.871	32909.66
448.078	34361.67
448.284	32502.12
448.491	33429.85
448.697	34816.32
448.903	35559.73
449.11	35785.01
449.316	34990.4
449.522	35957.04
449.728	36540.71
449.935	36628.77
450.141	36788.52
450.347	37896.47
450.553	36155.69
450.76	36540.71
450.966	38322.44
451.172	37634.33
451.378	38142.22
451.584	37593.37
451.791	38537.48
451.997	38617.35
452.203	38934.79
452.409	38875.4
452.615	38732.04
452.821	37325.08
453.027	37079.33
453.233	39172.35
453.44	37732.63
453.646	37925.14
453.852	38166.8
454.058	38633.74
454.264	37712.15
454.47	38590.73
454.676	37171.49
454.882	39033.09
455.088	35283.26
455.294	35737.91
455.5	36190.51
455.705	37118.24
455.911	35246.4
456.117	34378.06
456.323	33823.06
456.529	32108.91
456.735	33622.36
456.941	32926.05
457.147	32289.13
457.352	31052.16
457.558	30910.85
457.764	31003
457.97	30534.02
458.176	30032.27
458.381	29911.44
458.587	28205.48
458.793	28363.17
458.999	27083.19
459.204	28649.89
459.41	27875.76
459.616	26278.34
459.821	26395.07
460.027	26227.14
460.233	25698.77
460.438	24314.34
460.644	24664.54
460.85	23439.86
461.055	23204.34
461.261	23239.15
461.466	21064.21
461.672	20785.69
461.878	22026.76
462.083	20783.64
462.289	20466.21
462.494	20152.87
462.7	19247.66
462.905	18745.91
463.111	19464.75
463.316	19601.96
463.522	19092.02
463.727	19337.77
463.932	19200.56
464.138	18768.44
464.343	18881.08
464.549	18203.2
464.754	18883.13
464.959	18735.67
465.165	18500.16
465.37	17934.92
465.575	17373.77
465.781	18164.29
465.986	18209.34
466.191	17556.04
466.397	17203.79
466.602	16364.12
466.807	17336.91
467.012	17103.44
467.218	17021.52
467.423	16669.27
467.628	16890.45
467.833	17556.04
