Data from USB4F104151__149__13-58-23-975.txt Node

Date: Thu Mar 13 13:58:23 EDT 2025
User: louis
Spectrometer: USB4F10415
Trigger mode: 4
Integration Time (sec): 1.000000E-2
Scans to average: 1
Electric dark correction enabled: true
Nonlinearity correction enabled: false
Boxcar width: 0
XAxis mode: Wavelengths
Number of Pixels in Spectrum: 3648
>>>>>Begin Spectral Data<<<<<
178.204	-105.81
178.424	-105.81
178.644	-105.81
178.864	-34.13
179.084	-25.94
179.304	6.83
179.524	-34.13
179.744	39.59
179.964	31.4
180.184	41.64
180.404	-30.04
180.624	-34.13
180.844	2.73
181.064	-56.66
181.283	21.16
181.503	-9.56
181.723	21.16
181.943	-103.76
182.163	-42.32
182.383	23.21
182.602	-32.08
182.822	25.26
183.042	76.46
183.262	25.26
183.482	35.5
183.701	-21.84
183.921	-5.46
184.141	-95.57
184.361	-15.7
184.58	35.5
184.8	-7.51
185.02	-38.23
185.239	15.02
185.459	-23.89
185.679	-7.51
185.898	2.73
186.118	6.83
186.338	-30.04
186.557	21.16
186.777	39.59
186.997	-7.51
187.216	-7.51
187.436	45.74
187.655	-52.56
187.875	2.73
188.095	-85.33
188.314	10.92
188.534	51.88
188.753	17.07
188.973	12.97
189.192	39.59
189.412	8.87
189.631	15.02
189.851	27.31
190.07	-27.99
190.29	-3.41
190.509	-34.13
190.729	31.4
190.948	8.87
191.168	27.31
191.387	8.87
191.607	53.93
191.826	29.35
192.045	-58.71
192.265	0.68
192.484	-23.89
192.704	53.93
192.923	-21.84
193.142	41.64
193.362	-54.61
193.581	17.07
193.8	-9.56
194.02	23.21
194.239	-46.42
194.458	39.59
194.678	-58.71
194.897	-42.32
195.116	-46.42
195.335	21.16
195.555	19.11
195.774	49.83
195.993	2.73
196.212	39.59
196.432	-9.56
196.651	-3.41
196.87	-13.65
197.089	60.07
197.308	17.07
197.528	-44.37
197.747	-68.95
197.966	-25.94
198.185	-13.65
198.404	21.16
198.623	-9.56
198.842	-15.7
199.062	21.16
199.281	60.07
199.5	-54.61
199.719	-25.94
199.938	-23.89
200.157	35.5
200.376	-25.94
200.595	-5.46
200.814	-13.65
201.033	-1.37
201.252	6.83
201.471	53.93
201.69	21.16
201.909	62.12
202.128	2.73
202.347	-34.13
202.566	6.83
202.785	-56.66
203.004	43.69
203.223	-21.84
203.442	49.83
203.661	19.11
203.879	25.26
204.098	27.31
204.317	-32.08
204.536	2.73
204.755	-25.94
204.974	49.83
205.193	-1.37
205.411	66.22
205.63	-46.42
205.849	-15.7
206.068	8.87
206.287	12.97
206.505	2.73
206.724	-3.41
206.943	-19.8
207.162	27.31
207.381	6.83
207.599	8.87
207.818	41.64
208.037	33.45
208.255	-19.8
208.474	49.83
208.693	-9.56
208.911	94.89
209.13	-11.61
209.349	6.83
209.567	-1.37
209.786	21.16
210.005	-40.28
210.223	-34.13
210.442	-87.38
210.661	-42.32
210.879	6.83
211.098	12.97
211.316	-66.9
211.535	-9.56
211.753	-38.23
211.972	-44.37
212.191	-50.52
212.409	-7.51
212.628	-23.89
212.846	-15.7
213.065	-54.61
213.283	49.83
213.502	31.4
213.72	58.03
213.938	19.11
214.157	49.83
214.375	-7.51
214.594	-32.08
214.812	0.68
215.031	-11.61
215.249	-11.61
215.467	10.92
215.686	-40.28
215.904	-7.51
216.122	10.92
216.341	-15.7
216.559	19.11
216.778	-118.1
216.996	10.92
217.214	-13.65
217.432	23.21
217.651	31.4
217.869	55.98
218.087	-3.41
218.306	-9.56
218.524	-15.7
218.742	-11.61
218.96	15.02
219.179	10.92
219.397	39.59
219.615	43.69
219.833	39.59
220.051	-34.13
220.27	4.78
220.488	-42.32
220.706	-54.61
220.924	-89.43
221.142	123.56
221.36	41.64
221.578	-21.84
221.796	2.73
222.015	-7.51
222.233	17.07
222.451	17.07
222.669	-3.41
222.887	-7.51
223.105	47.79
223.323	45.74
223.541	21.16
223.759	15.02
223.977	4.78
224.195	29.35
224.413	-1.37
224.631	-58.71
224.849	-7.51
225.067	39.59
225.285	6.83
225.503	66.22
225.721	-73.04
225.939	-34.13
226.157	2.73
226.375	94.89
226.592	-44.37
226.81	29.35
227.028	-40.28
227.246	-44.37
227.464	-15.7
227.682	82.6
227.9	-46.42
228.117	41.64
228.335	39.59
228.553	6.83
228.771	35.5
228.989	55.98
229.206	76.46
229.424	31.4
229.642	45.74
229.86	17.07
230.077	49.83
230.295	15.02
230.513	23.21
230.731	-48.47
230.948	94.89
231.166	4.78
231.384	2.73
231.601	49.83
231.819	19.11
232.037	-3.41
232.254	-25.94
232.472	-7.51
232.689	-62.8
232.907	6.83
233.125	0.68
233.342	53.93
233.56	-56.66
233.777	29.35
233.995	-1.37
234.213	41.64
234.43	-23.89
234.648	-5.46
234.865	35.5
235.083	27.31
235.3	10.92
235.518	-3.41
235.735	25.26
235.953	6.83
236.17	-30.04
236.388	-21.84
236.605	27.31
236.822	8.87
237.04	-19.8
237.257	-17.75
237.475	-27.99
237.692	19.11
237.909	-21.84
238.127	121.51
238.344	45.74
238.562	35.5
238.779	-3.41
238.996	25.26
239.214	-32.08
239.431	15.02
239.648	19.11
239.865	-15.7
240.083	-38.23
240.3	96.94
240.517	-48.47
240.735	45.74
240.952	6.83
241.169	19.11
241.386	12.97
241.603	8.87
241.821	-21.84
242.038	-7.51
242.255	-36.18
242.472	10.92
242.689	-42.32
242.907	-7.51
243.124	37.55
243.341	-15.7
243.558	-66.9
243.775	8.87
243.992	-19.8
244.209	43.69
244.426	15.02
244.643	-52.56
244.86	47.79
245.078	15.02
245.295	-36.18
245.512	-25.94
245.729	33.45
245.946	-46.42
246.163	-38.23
246.38	2.73
246.597	-1.37
246.814	80.55
247.031	-13.65
247.248	-38.23
247.464	64.17
247.681	41.64
247.898	-17.75
248.115	35.5
248.332	17.07
248.549	31.4
248.766	-13.65
248.983	-5.46
249.2	-32.08
249.417	23.21
249.633	-21.84
249.85	6.83
250.067	41.64
250.284	-7.51
250.501	8.87
250.717	-11.61
250.934	-19.8
251.151	-34.13
251.368	23.21
251.585	23.21
251.801	-9.56
252.018	66.22
252.235	10.92
252.451	41.64
252.668	-30.04
252.885	-3.41
253.102	17.07
253.318	-34.13
253.535	-40.28
253.752	25.26
253.968	-62.8
254.185	-5.46
254.401	31.4
254.618	-54.61
254.835	8.87
255.051	-40.28
255.268	-11.61
255.484	-58.71
255.701	-7.51
255.917	15.02
256.134	-38.23
256.351	2.73
256.567	39.59
256.784	31.4
257	-66.9
257.217	-15.7
257.433	-9.56
257.65	72.36
257.866	17.07
258.082	-5.46
258.299	-23.89
258.515	-5.46
258.732	0.68
258.948	-34.13
259.165	-32.08
259.381	2.73
259.597	-42.32
259.814	-7.51
260.03	35.5
260.246	6.83
260.463	49.83
260.679	74.41
260.895	-44.37
261.112	-38.23
261.328	-32.08
261.544	-50.52
261.761	27.31
261.977	8.87
262.193	15.02
262.409	76.46
262.626	-83.28
262.842	35.5
263.058	-81.24
263.274	35.5
263.49	-30.04
263.707	0.68
263.923	17.07
264.139	29.35
264.355	-75.09
264.571	25.26
264.787	-58.71
265.004	-36.18
265.22	74.41
265.436	-5.46
265.652	15.02
265.868	-21.84
266.084	51.88
266.3	55.98
266.516	-89.43
266.732	37.55
266.948	35.5
267.164	-58.71
267.38	15.02
267.596	39.59
267.812	25.26
268.028	-13.65
268.244	-50.52
268.46	4.78
268.676	19.11
268.892	12.97
269.108	33.45
269.324	-44.37
269.54	-27.99
269.756	-1.37
269.972	-66.9
270.188	-36.18
270.403	6.83
270.619	-77.14
270.835	33.45
271.051	-25.94
271.267	109.23
271.483	62.12
271.698	-13.65
271.914	53.93
272.13	10.92
272.346	2.73
272.562	68.27
272.777	-1.37
272.993	-79.19
273.209	37.55
273.425	27.31
273.64	-91.48
273.856	-9.56
274.072	74.41
274.287	-5.46
274.503	55.98
274.719	-3.41
274.934	-42.32
275.15	31.4
275.366	-56.66
275.581	-68.95
275.797	70.31
276.012	25.26
276.228	39.59
276.444	-62.8
276.659	19.11
276.875	33.45
277.09	-48.47
277.306	23.21
277.521	72.36
277.737	-7.51
277.952	68.27
278.168	31.4
278.383	-7.51
278.599	21.16
278.814	-23.89
279.03	-48.47
279.245	-7.51
279.461	23.21
279.676	17.07
279.892	-30.04
280.107	-9.56
280.322	-32.08
280.538	10.92
280.753	0.68
280.969	17.07
281.184	19.11
281.399	8.87
281.615	-17.75
281.83	-44.37
282.045	-13.65
282.26	-81.24
282.476	-38.23
282.691	25.26
282.906	-13.65
283.122	10.92
283.337	-15.7
283.552	43.69
283.767	12.97
283.983	-27.99
284.198	-13.65
284.413	-15.7
284.628	21.16
284.843	15.02
285.058	0.68
285.274	-17.75
285.489	-1.37
285.704	90.79
285.919	62.12
286.134	-32.08
286.349	66.22
286.564	-48.47
286.779	25.26
286.995	33.45
287.21	-44.37
287.425	31.4
287.64	19.11
287.855	41.64
288.07	4.78
288.285	31.4
288.5	-23.89
288.715	-27.99
288.93	-13.65
289.145	23.21
289.36	41.64
289.575	-44.37
289.79	-68.95
290.004	37.55
290.219	64.17
290.434	35.5
290.649	10.92
290.864	25.26
291.079	-1.37
291.294	6.83
291.509	31.4
291.724	45.74
291.938	-23.89
292.153	-13.65
292.368	45.74
292.583	41.64
292.798	-5.46
293.012	0.68
293.227	45.74
293.442	15.02
293.657	12.97
293.871	41.64
294.086	-15.7
294.301	31.4
294.516	10.92
294.73	-58.71
294.945	41.64
295.16	2.73
295.374	2.73
295.589	0.68
295.804	-36.18
296.018	2.73
296.233	4.78
296.447	29.35
296.662	-44.37
296.877	-52.56
297.091	15.02
297.306	-42.32
297.52	-13.65
297.735	0.68
297.949	-36.18
298.164	-62.8
298.378	8.87
298.593	-17.75
298.807	-71
299.022	-21.84
299.236	23.21
299.451	-11.61
299.665	-54.61
299.88	4.78
300.094	-3.41
300.309	37.55
300.523	10.92
300.737	29.35
300.952	23.21
301.166	25.26
301.381	58.03
301.595	-27.99
301.809	-7.51
302.024	39.59
302.238	-30.04
302.452	49.83
302.667	-9.56
302.881	-42.32
303.095	35.5
303.309	-15.7
303.524	78.51
303.738	0.68
303.952	17.07
304.166	-21.84
304.381	43.69
304.595	33.45
304.809	4.78
305.023	55.98
305.237	31.4
305.452	6.83
305.666	-9.56
305.88	-34.13
306.094	19.11
306.308	17.07
306.522	47.79
306.736	-1.37
306.95	39.59
307.164	0.68
307.379	21.16
307.593	2.73
307.807	-44.37
308.021	15.02
308.235	27.31
308.449	4.78
308.663	8.87
308.877	68.27
309.091	53.93
309.305	-25.94
309.519	-46.42
309.733	125.61
309.947	-19.8
310.161	15.02
310.374	2.73
310.588	43.69
310.802	0.68
311.016	41.64
311.23	25.26
311.444	-15.7
311.658	-48.47
311.872	21.16
312.085	31.4
312.299	68.27
312.513	80.55
312.727	-44.37
312.941	-46.42
313.154	31.4
313.368	-79.19
313.582	17.07
313.796	17.07
314.009	-32.08
314.223	-42.32
314.437	6.83
314.651	-21.84
314.864	4.78
315.078	27.31
315.292	12.97
315.505	-30.04
315.719	25.26
315.933	-13.65
316.146	-15.7
316.36	23.21
316.573	2.73
316.787	-36.18
317.001	15.02
317.214	37.55
317.428	25.26
317.641	-25.94
317.855	25.26
318.068	-9.56
318.282	-1.37
318.495	-32.08
318.709	53.93
318.922	12.97
319.136	8.87
319.349	23.21
319.563	23.21
319.776	0.68
319.99	35.5
320.203	12.97
320.417	33.45
320.63	-34.13
320.843	41.64
321.057	68.27
321.27	-25.94
321.483	-5.46
321.697	58.03
321.91	31.4
322.124	-56.66
322.337	121.51
322.55	-25.94
322.763	49.83
322.977	6.83
323.19	29.35
323.403	-9.56
323.617	10.92
323.83	21.16
324.043	6.83
324.256	41.64
324.469	10.92
324.683	55.98
324.896	-9.56
325.109	23.21
325.322	8.87
325.535	-38.23
325.748	39.59
325.962	-58.71
326.175	31.4
326.388	64.17
326.601	39.59
326.814	-15.7
327.027	-32.08
327.24	68.27
327.453	41.64
327.666	35.5
327.879	-23.89
328.092	25.26
328.305	53.93
328.518	64.17
328.731	8.87
328.944	-42.32
329.157	-19.8
329.37	-7.51
329.583	12.97
329.796	6.83
330.009	-13.65
330.222	21.16
330.435	-58.71
330.648	-1.37
330.861	15.02
331.073	-23.89
331.286	51.88
331.499	2.73
331.712	-52.56
331.925	21.16
332.138	35.5
332.35	-21.84
332.563	0.68
332.776	47.79
332.989	-40.28
333.202	37.55
333.414	-30.04
333.627	-32.08
333.84	-32.08
334.053	23.21
334.265	76.46
334.478	51.88
334.691	-19.8
334.903	94.89
335.116	-68.95
335.329	41.64
335.541	-11.61
335.754	29.35
335.966	0.68
336.179	23.21
336.392	-5.46
336.604	-17.75
336.817	19.11
337.029	21.16
337.242	-91.48
337.454	80.55
337.667	49.83
337.88	66.22
338.092	117.42
338.305	68.27
338.517	15.02
338.729	33.45
338.942	12.97
339.154	49.83
339.367	-64.85
339.579	51.88
339.792	27.31
340.004	39.59
340.217	-5.46
340.429	-5.46
340.641	-46.42
340.854	31.4
341.066	-1.37
341.278	17.07
341.491	23.21
341.703	-40.28
341.915	-68.95
342.128	0.68
342.34	-25.94
342.552	-23.89
342.764	-48.47
342.977	-13.65
343.189	23.21
343.401	-7.51
343.613	-36.18
343.826	72.36
344.038	17.07
344.25	17.07
344.462	35.5
344.674	-42.32
344.886	-7.51
345.099	15.02
345.311	15.02
345.523	-11.61
345.735	-25.94
345.947	8.87
346.159	15.02
346.371	10.92
346.583	-42.32
346.795	78.51
347.007	-5.46
347.219	64.17
347.431	-17.75
347.643	2.73
347.855	15.02
348.067	23.21
348.279	8.87
348.491	-3.41
348.703	17.07
348.915	-9.56
349.127	-3.41
349.339	47.79
349.551	23.21
349.763	51.88
349.975	23.21
350.187	-9.56
350.399	-68.95
350.61	62.12
350.822	-40.28
351.034	-15.7
351.246	-38.23
351.458	70.31
351.669	-17.75
351.881	25.26
352.093	60.07
352.305	47.79
352.517	6.83
352.728	35.5
352.94	-1.37
353.152	78.51
353.363	-9.56
353.575	37.55
353.787	68.27
353.999	4.78
354.21	31.4
354.422	19.11
354.633	80.55
354.845	68.27
355.057	-9.56
355.268	-17.75
355.48	-89.43
355.692	90.79
355.903	39.59
356.115	60.07
356.326	-73.04
356.538	76.46
356.749	109.23
356.961	74.41
357.172	39.59
357.384	-1.37
357.595	41.64
357.807	-73.04
358.018	45.74
358.23	27.31
358.441	45.74
358.653	33.45
358.864	-42.32
359.075	19.11
359.287	53.93
359.498	4.78
359.709	23.21
359.921	4.78
360.132	47.79
360.344	72.36
360.555	53.93
360.766	-13.65
360.977	-11.61
361.189	15.02
361.4	41.64
361.611	49.83
361.823	31.4
362.034	17.07
362.245	10.92
362.456	29.35
362.667	-23.89
362.879	-50.52
363.09	15.02
363.301	-38.23
363.512	-23.89
363.723	10.92
363.935	2.73
364.146	64.17
364.357	-60.76
364.568	80.55
364.779	-27.99
364.99	25.26
365.201	31.4
365.412	-52.56
365.623	66.22
365.834	-1.37
366.045	10.92
366.256	25.26
366.467	144.04
366.678	-23.89
366.889	-30.04
367.1	33.45
367.311	15.02
367.522	-34.13
367.733	53.93
367.944	23.21
368.155	23.21
368.366	-48.47
368.577	80.55
368.788	64.17
368.999	33.45
369.209	-79.19
369.42	25.26
369.631	31.4
369.842	8.87
370.053	58.03
370.264	25.26
370.474	17.07
370.685	-7.51
370.896	-15.7
371.107	-3.41
371.317	-9.56
371.528	25.26
371.739	41.64
371.95	25.26
372.16	43.69
372.371	-58.71
372.582	-11.61
372.792	0.68
373.003	-3.41
373.214	31.4
373.424	45.74
373.635	80.55
373.846	27.31
374.056	17.07
374.267	27.31
374.477	49.83
374.688	-56.66
374.898	60.07
375.109	-30.04
375.319	2.73
375.53	-17.75
375.74	8.87
375.951	55.98
376.161	6.83
376.372	70.31
376.582	19.11
376.793	47.79
377.003	72.36
377.214	25.26
377.424	12.97
377.635	27.31
377.845	58.03
378.055	58.03
378.266	0.68
378.476	86.7
378.686	10.92
378.897	82.6
379.107	-15.7
379.317	49.83
379.528	12.97
379.738	15.02
379.948	15.02
380.158	66.22
380.369	47.79
380.579	27.31
380.789	21.16
380.999	-11.61
381.21	4.78
381.42	47.79
381.63	43.69
381.84	74.41
382.05	55.98
382.261	131.75
382.471	10.92
382.681	33.45
382.891	27.31
383.101	41.64
383.311	15.02
383.521	29.35
383.731	-25.94
383.941	23.21
384.151	-19.8
384.361	39.59
384.571	88.75
384.781	6.83
384.991	8.87
385.201	-3.41
385.411	68.27
385.621	80.55
385.831	-9.56
386.041	84.65
386.251	45.74
386.461	101.03
386.671	55.98
386.881	-30.04
387.091	2.73
387.301	58.03
387.511	-5.46
387.72	88.75
387.93	58.03
388.14	-21.84
388.35	-1.37
388.56	64.17
388.769	10.92
388.979	-17.75
389.189	-3.41
389.399	43.69
389.609	53.93
389.818	12.97
390.028	49.83
390.238	39.59
390.447	-17.75
390.657	121.51
390.867	-25.94
391.076	51.88
391.286	33.45
391.496	-30.04
391.705	10.92
391.915	4.78
392.125	25.26
392.334	101.03
392.544	121.51
392.753	45.74
392.963	2.73
393.172	-19.8
393.382	-30.04
393.591	10.92
393.801	39.59
394.01	103.08
394.22	82.6
394.429	92.84
394.639	47.79
394.848	31.4
395.058	-60.76
395.267	23.21
395.477	27.31
395.686	25.26
395.895	27.31
396.105	33.45
396.314	84.65
396.524	55.98
396.733	35.5
396.942	12.97
397.152	109.23
397.361	113.32
397.57	-13.65
397.78	90.79
397.989	47.79
398.198	105.13
398.407	39.59
398.617	94.89
398.826	33.45
399.035	-34.13
399.244	12.97
399.453	43.69
399.663	31.4
399.872	53.93
400.081	47.79
400.29	117.42
400.499	35.5
400.708	19.11
400.917	86.7
401.127	51.88
401.336	51.88
401.545	29.35
401.754	150.18
401.963	55.98
402.172	76.46
402.381	60.07
402.59	47.79
402.799	49.83
403.008	45.74
403.217	92.84
403.426	105.13
403.635	10.92
403.844	137.9
404.053	199.34
404.262	70.31
404.471	170.66
404.68	109.23
404.888	123.56
405.097	66.22
405.306	107.18
405.515	137.9
405.724	111.27
405.933	158.38
406.142	115.37
406.35	172.71
406.559	141.99
406.768	148.14
406.977	88.75
407.185	152.23
407.394	185
407.603	105.13
407.812	125.61
408.02	170.66
408.229	213.67
408.438	137.9
408.646	137.9
408.855	156.33
409.064	203.43
409.272	146.09
409.481	146.09
409.69	170.66
409.898	174.76
410.107	205.48
410.315	285.35
410.524	203.43
410.733	248.49
410.941	205.48
411.15	311.97
411.358	273.06
411.567	268.97
411.775	246.44
411.984	340.65
412.192	297.64
412.401	264.87
412.609	328.36
412.818	340.65
413.026	379.56
413.234	342.69
413.443	303.78
413.651	354.98
413.86	434.85
414.068	311.97
414.276	434.85
414.485	475.81
414.693	490.15
414.901	473.76
415.11	434.85
415.318	506.53
415.526	457.38
415.734	604.83
415.943	520.87
416.151	563.87
416.359	586.4
416.567	559.78
416.776	641.7
416.984	641.7
417.192	692.9
417.4	670.37
417.608	631.46
417.817	813.73
418.025	682.66
418.233	834.21
418.441	805.53
418.649	811.68
418.857	905.88
419.065	899.74
419.273	887.45
419.481	996
419.689	989.85
419.897	1084.06
420.105	1145.5
420.313	1016.48
420.521	1165.98
420.729	1084.06
420.937	1180.31
421.145	1254.04
421.353	1274.52
421.561	1411.73
421.769	1399.45
421.977	1360.53
422.185	1434.26
422.393	1389.21
422.601	1616.53
422.809	1622.67
423.017	1589.91
423.224	1761.94
423.432	1747.6
423.64	1876.62
423.848	1772.18
424.056	1825.42
424.263	2056.84
424.471	2089.61
424.679	2007.69
424.887	2177.67
425.094	2292.36
425.302	2269.83
425.51	2345.61
425.718	2542.21
425.925	2437.77
426.133	2529.92
426.341	2652.8
426.548	2787.97
426.756	2785.92
426.964	2804.35
427.171	3027.58
427.379	3062.4
427.586	3062.4
427.794	3220.09
428.001	3277.43
428.209	3570.29
428.417	3297.91
428.624	3633.78
428.832	3762.8
429.039	3738.23
429.247	3637.88
429.454	4080.24
429.662	4235.88
429.869	3867.25
430.076	4186.73
430.284	4231.79
430.491	4272.75
430.699	4766.31
430.906	4487.78
431.114	4680.29
431.321	4973.15
431.528	4921.95
431.736	5149.28
431.943	5386.84
432.15	5202.52
432.358	5360.22
432.565	5546.58
432.772	5620.31
432.979	5929.55
433.187	6177.36
433.394	6046.29
433.601	6339.15
433.808	6451.78
434.016	6349.39
434.223	6787.65
434.43	7094.85
434.637	6890.05
434.844	7330.36
435.052	7526.97
435.259	7506.49
435.466	7457.34
435.673	7395.9
435.88	8024.62
436.087	8254
436.294	8432.17
436.501	8104.49
436.708	8364.59
436.915	8659.49
437.122	9060.9
437.329	8974.88
437.537	9540.12
437.743	9531.93
437.95	9347.61
438.157	9998.87
438.364	10215.95
438.571	10134.03
438.778	10295.82
438.985	11266.56
439.192	10773
439.399	11125.25
439.606	10840.58
439.813	11583.99
440.02	12136.95
440.227	11997.68
440.433	11782.65
440.64	12155.38
440.847	12087.79
441.054	12417.52
441.261	13126.11
441.467	12993
441.674	13611.48
441.881	13885.91
442.088	13564.38
442.294	13806.04
442.501	14037.46
442.708	14449.1
442.914	14756.3
443.121	15419.84
443.328	15077.83
443.534	16146.87
443.741	15727.03
443.948	15352.26
444.154	16544.17
444.361	16449.97
444.568	16763.31
444.774	16490.93
444.981	17002.92
445.187	17306.02
445.394	18018.71
445.6	17971.61
445.807	19556.74
446.013	18809.23
446.22	19038.6
446.426	19681.66
446.633	19667.33
446.839	20670.83
447.046	19634.56
447.252	21043.56
447.459	20865.39
447.665	20695.41
447.871	21774.69
448.078	22587.73
448.284	21504.35
448.491	21887.32
448.697	22915.4
448.903	23105.87
449.11	23462.21
449.316	23142.73
449.522	23521.6
449.728	23963.97
449.935	24121.66
450.141	24039.74
450.347	24652.08
450.553	23863.61
450.76	24451.38
450.966	24781.1
451.172	24748.34
451.378	25319.72
451.584	24805.68
451.791	25477.41
451.997	25057.58
452.203	25712.93
452.409	25700.64
452.615	25534.76
452.821	24746.29
453.027	24379.7
453.233	25633.06
453.44	24715.57
453.646	24590.64
453.852	24734
454.058	25243.95
454.264	24299.83
454.47	25004.33
454.676	24398.13
454.882	25094.44
455.088	22972.75
455.294	23163.21
455.5	23454.02
455.705	23603.52
455.911	22751.57
456.117	22405.46
456.323	22192.47
456.529	21080.42
456.735	21889.37
456.941	21264.74
457.147	20830.57
457.352	19851.64
457.558	20132.22
457.764	19937.66
457.97	19364.23
458.176	19396.99
458.381	19071.37
458.587	18219.41
458.793	18147.73
458.999	17242.53
459.204	18602.38
459.41	18174.36
459.616	16875.95
459.821	16824.75
460.027	16587.18
460.233	16306.61
460.438	15677.88
460.644	15677.88
460.85	15401.41
461.055	14858.7
461.261	14991.81
461.466	13730.27
461.672	13277.66
461.878	14324.18
462.083	13414.88
462.289	13089.25
462.494	12956.13
462.7	12274.16
462.905	11938.29
463.111	12546.54
463.316	12526.06
463.522	12354.03
463.727	12358.13
463.932	12368.37
464.138	12167.66
464.343	12165.62
464.549	12302.83
464.754	12188.14
464.959	12128.75
465.165	12188.14
465.37	11612.67
465.575	11475.45
465.781	11725.3
465.986	11928.05
466.191	11526.65
466.397	11244.03
466.602	10750.47
466.807	11188.74
467.012	10955.27
