Data from USB4F104151__281__14-02-26-519.txt Node

Date: Thu Mar 13 14:02:26 EDT 2025
User: louis
Spectrometer: USB4F10415
Trigger mode: 4
Integration Time (sec): 1.000000E-2
Scans to average: 1
Electric dark correction enabled: true
Nonlinearity correction enabled: false
Boxcar width: 0
XAxis mode: Wavelengths
Number of Pixels in Spectrum: 3648
>>>>>Begin Spectral Data<<<<<
178.204	-29.7
178.424	-29.7
178.644	-29.7
178.864	-125.95
179.084	-74.75
179.304	19.46
179.524	31.74
179.744	-103.42
179.964	41.98
180.184	41.98
180.404	-3.07
180.624	3.07
180.844	-7.17
181.064	-39.94
181.283	39.94
181.503	-33.79
181.723	9.22
181.943	7.17
182.163	13.31
182.383	-21.5
182.602	35.84
182.822	23.55
183.042	84.99
183.262	1.02
183.482	5.12
183.701	29.7
183.921	-25.6
184.141	9.22
184.361	7.17
184.58	9.22
184.8	25.6
185.02	41.98
185.239	44.03
185.459	-7.17
185.679	-21.5
185.898	-78.85
186.118	33.79
186.338	5.12
186.557	52.22
186.777	35.84
186.997	-17.41
187.216	-41.98
187.436	39.94
187.655	-1.02
187.875	9.22
188.095	3.07
188.314	37.89
188.534	44.03
188.753	7.17
188.973	-21.5
189.192	37.89
189.412	-44.03
189.631	15.36
189.851	27.65
190.07	-13.31
190.29	-5.12
190.509	27.65
190.729	-19.46
190.948	-7.17
191.168	64.51
191.387	37.89
191.607	-15.36
191.826	48.13
192.045	-9.22
192.265	-41.98
192.484	21.5
192.704	50.18
192.923	-5.12
193.142	35.84
193.362	17.41
193.581	74.75
193.8	25.6
194.02	68.61
194.239	60.42
194.458	52.22
194.678	1.02
194.897	13.31
195.116	-7.17
195.335	64.51
195.555	19.46
195.774	23.55
195.993	3.07
196.212	-31.74
196.432	3.07
196.651	-15.36
196.87	23.55
197.089	80.89
197.308	-17.41
197.528	27.65
197.747	-17.41
197.966	17.41
198.185	-66.56
198.404	3.07
198.623	60.42
198.842	-31.74
199.062	93.18
199.281	15.36
199.5	-5.12
199.719	-15.36
199.938	35.84
200.157	50.18
200.376	37.89
200.595	33.79
200.814	-50.18
201.033	-25.6
201.252	-19.46
201.471	-17.41
201.69	-78.85
201.909	39.94
202.128	-9.22
202.347	13.31
202.566	25.6
202.785	25.6
203.004	52.22
203.223	64.51
203.442	37.89
203.661	19.46
203.879	-9.22
204.098	-25.6
204.317	7.17
204.536	87.04
204.755	103.42
204.974	-31.74
205.193	21.5
205.411	48.13
205.63	3.07
205.849	56.32
206.068	-25.6
206.287	-35.84
206.505	13.31
206.724	19.46
206.943	-58.37
207.162	5.12
207.381	27.65
207.599	-39.94
207.818	-33.79
208.037	-35.84
208.255	-13.31
208.474	68.61
208.693	15.36
208.911	35.84
209.13	-13.31
209.349	35.84
209.567	19.46
209.786	27.65
210.005	-15.36
210.223	31.74
210.442	-17.41
210.661	-23.55
210.879	68.61
211.098	33.79
211.316	13.31
211.535	113.66
211.753	33.79
211.972	15.36
212.191	-3.07
212.409	19.46
212.628	27.65
212.846	39.94
213.065	-5.12
213.283	17.41
213.502	56.32
213.72	5.12
213.938	44.03
214.157	19.46
214.375	23.55
214.594	-15.36
214.812	52.22
215.031	-1.02
215.249	72.7
215.467	-17.41
215.686	25.6
215.904	41.98
216.122	3.07
216.341	23.55
216.559	-25.6
216.778	-3.07
216.996	41.98
217.214	9.22
217.432	23.55
217.651	-48.13
217.869	1.02
218.087	7.17
218.306	13.31
218.524	25.6
218.742	50.18
218.96	-5.12
219.179	39.94
219.397	56.32
219.615	31.74
219.833	-17.41
220.051	21.5
220.27	1.02
220.488	48.13
220.706	19.46
220.924	21.5
221.142	35.84
221.36	1.02
221.578	9.22
221.796	-3.07
222.015	89.09
222.233	11.26
222.451	39.94
222.669	25.6
222.887	33.79
223.105	27.65
223.323	9.22
223.541	-56.32
223.759	-29.7
223.977	25.6
224.195	-13.31
224.413	-7.17
224.631	11.26
224.849	-11.26
225.067	23.55
225.285	27.65
225.503	113.66
225.721	-5.12
225.939	13.31
226.157	23.55
226.375	9.22
226.592	-62.46
226.81	56.32
227.028	-9.22
227.246	17.41
227.464	9.22
227.682	7.17
227.9	9.22
228.117	-29.7
228.335	3.07
228.553	-13.31
228.771	48.13
228.989	-33.79
229.206	39.94
229.424	7.17
229.642	-37.89
229.86	-35.84
230.077	48.13
230.295	31.74
230.513	82.94
230.731	74.75
230.948	35.84
231.166	48.13
231.384	-82.94
231.601	-23.55
231.819	41.98
232.037	-41.98
232.254	-13.31
232.472	48.13
232.689	27.65
232.907	-1.02
233.125	23.55
233.342	41.98
233.56	-39.94
233.777	23.55
233.995	7.17
234.213	21.5
234.43	33.79
234.648	44.03
234.865	33.79
235.083	21.5
235.3	-25.6
235.518	76.8
235.735	27.65
235.953	33.79
236.17	-41.98
236.388	-23.55
236.605	-5.12
236.822	-27.65
237.04	39.94
237.257	27.65
237.475	-5.12
237.692	66.56
237.909	-1.02
238.127	121.85
238.344	91.13
238.562	-21.5
238.779	-31.74
238.996	31.74
239.214	31.74
239.431	95.23
239.648	19.46
239.865	33.79
240.083	35.84
240.3	62.46
240.517	-37.89
240.735	27.65
240.952	39.94
241.169	-11.26
241.386	19.46
241.603	3.07
241.821	-19.46
242.038	19.46
242.255	39.94
242.472	-58.37
242.689	-17.41
242.907	-5.12
243.124	21.5
243.341	70.65
243.558	27.65
243.775	9.22
243.992	-15.36
244.209	-15.36
244.426	31.74
244.643	60.42
244.86	-72.7
245.078	56.32
245.295	-17.41
245.512	27.65
245.729	-44.03
245.946	54.27
246.163	15.36
246.38	13.31
246.597	56.32
246.814	44.03
247.031	64.51
247.248	11.26
247.464	33.79
247.681	15.36
247.898	13.31
248.115	29.7
248.332	-39.94
248.549	35.84
248.766	72.7
248.983	74.75
249.2	-25.6
249.417	5.12
249.633	-25.6
249.85	-15.36
250.067	-66.56
250.284	-15.36
250.501	66.56
250.717	-9.22
250.934	5.12
251.151	35.84
251.368	23.55
251.585	31.74
251.801	5.12
252.018	-31.74
252.235	33.79
252.451	27.65
252.668	-17.41
252.885	23.55
253.102	46.08
253.318	-3.07
253.535	7.17
253.752	62.46
253.968	-1.02
254.185	-1.02
254.401	7.17
254.618	31.74
254.835	41.98
255.051	-3.07
255.268	-9.22
255.484	25.6
255.701	9.22
255.917	-25.6
256.134	-13.31
256.351	-1.02
256.567	48.13
256.784	62.46
257	25.6
257.217	70.65
257.433	-9.22
257.65	7.17
257.866	-9.22
258.082	-31.74
258.299	31.74
258.515	41.98
258.732	74.75
258.948	15.36
259.165	-9.22
259.381	13.31
259.597	-19.46
259.814	-25.6
260.03	-31.74
260.246	7.17
260.463	-21.5
260.679	33.79
260.895	-35.84
261.112	9.22
261.328	-9.22
261.544	15.36
261.761	19.46
261.977	64.51
262.193	-7.17
262.409	101.37
262.626	23.55
262.842	31.74
263.058	23.55
263.274	25.6
263.49	39.94
263.707	9.22
263.923	-1.02
264.139	-23.55
264.355	31.74
264.571	-1.02
264.787	84.99
265.004	80.89
265.22	58.37
265.436	-23.55
265.652	-41.98
265.868	13.31
266.084	25.6
266.3	31.74
266.516	-35.84
266.732	17.41
266.948	64.51
267.164	-41.98
267.38	78.85
267.596	66.56
267.812	48.13
268.028	-25.6
268.244	-7.17
268.46	-1.02
268.676	-21.5
268.892	17.41
269.108	11.26
269.324	82.94
269.54	1.02
269.756	54.27
269.972	-25.6
270.188	9.22
270.403	-3.07
270.619	25.6
270.835	37.89
271.051	-9.22
271.267	41.98
271.483	-17.41
271.698	-19.46
271.914	37.89
272.13	-23.55
272.346	87.04
272.562	25.6
272.777	54.27
272.993	29.7
273.209	-9.22
273.425	23.55
273.64	29.7
273.856	41.98
274.072	15.36
274.287	27.65
274.503	107.52
274.719	-31.74
274.934	74.75
275.15	-23.55
275.366	31.74
275.581	-37.89
275.797	-11.26
276.012	-19.46
276.228	3.07
276.444	-15.36
276.659	-1.02
276.875	25.6
277.09	41.98
277.306	-1.02
277.521	-19.46
277.737	-72.7
277.952	9.22
278.168	23.55
278.383	82.94
278.599	5.12
278.814	56.32
279.03	-29.7
279.245	15.36
279.461	-7.17
279.676	72.7
279.892	-11.26
280.107	60.42
280.322	17.41
280.538	-13.31
280.753	3.07
280.969	-17.41
281.184	-5.12
281.399	-25.6
281.615	50.18
281.83	-25.6
282.045	25.6
282.26	31.74
282.476	15.36
282.691	-31.74
282.906	-13.31
283.122	23.55
283.337	19.46
283.552	46.08
283.767	41.98
283.983	-21.5
284.198	-7.17
284.413	46.08
284.628	48.13
284.843	-48.13
285.058	29.7
285.274	48.13
285.489	37.89
285.704	-11.26
285.919	-1.02
286.134	31.74
286.349	23.55
286.564	48.13
286.779	44.03
286.995	50.18
287.21	-64.51
287.425	-17.41
287.64	31.74
287.855	48.13
288.07	5.12
288.285	31.74
288.5	66.56
288.715	-33.79
288.93	31.74
289.145	-7.17
289.36	39.94
289.575	-31.74
289.79	60.42
290.004	-89.09
290.219	9.22
290.434	35.84
290.649	-39.94
290.864	33.79
291.079	1.02
291.294	-17.41
291.509	70.65
291.724	13.31
291.938	9.22
292.153	-66.56
292.368	37.89
292.583	39.94
292.798	-17.41
293.012	1.02
293.227	-9.22
293.442	58.37
293.657	-44.03
293.871	115.71
294.086	15.36
294.301	23.55
294.516	-48.13
294.73	35.84
294.945	-37.89
295.16	50.18
295.374	-27.65
295.589	-23.55
295.804	80.89
296.018	-44.03
296.233	19.46
296.447	48.13
296.662	54.27
296.877	11.26
297.091	39.94
297.306	138.24
297.52	-9.22
297.735	-25.6
297.949	54.27
298.164	87.04
298.378	-31.74
298.593	25.6
298.807	31.74
299.022	19.46
299.236	-19.46
299.451	56.32
299.665	52.22
299.88	25.6
300.094	25.6
300.309	33.79
300.523	-5.12
300.737	15.36
300.952	13.31
301.166	-13.31
301.381	1.02
301.595	-9.22
301.809	-39.94
302.024	95.23
302.238	39.94
302.452	-17.41
302.667	-33.79
302.881	109.57
303.095	74.75
303.309	56.32
303.524	-13.31
303.738	56.32
303.952	-17.41
304.166	66.56
304.381	1.02
304.595	-9.22
304.809	-9.22
305.023	-13.31
305.237	25.6
305.452	21.5
305.666	-1.02
305.88	33.79
306.094	-23.55
306.308	23.55
306.522	64.51
306.736	66.56
306.95	-1.02
307.164	5.12
307.379	-9.22
307.593	52.22
307.807	25.6
308.021	-29.7
308.235	5.12
308.449	-31.74
308.663	-9.22
308.877	-11.26
309.091	74.75
309.305	33.79
309.519	-48.13
309.733	48.13
309.947	5.12
310.161	-7.17
310.374	52.22
310.588	-9.22
310.802	7.17
311.016	-35.84
311.23	35.84
311.444	-15.36
311.658	-9.22
311.872	48.13
312.085	33.79
312.299	11.26
312.513	41.98
312.727	33.79
312.941	-54.27
313.154	3.07
313.368	58.37
313.582	11.26
313.796	142.33
314.009	37.89
314.223	13.31
314.437	-17.41
314.651	-62.46
314.864	15.36
315.078	56.32
315.292	-25.6
315.505	80.89
315.719	-25.6
315.933	72.7
316.146	91.13
316.36	-25.6
316.573	48.13
316.787	-54.27
317.001	23.55
317.214	39.94
317.428	7.17
317.641	-13.31
317.855	-25.6
318.068	19.46
318.282	7.17
318.495	19.46
318.709	-46.08
318.922	31.74
319.136	52.22
319.349	58.37
319.563	25.6
319.776	-21.5
319.99	27.65
320.203	7.17
320.417	13.31
320.63	41.98
320.843	25.6
321.057	48.13
321.27	-7.17
321.483	21.5
321.697	9.22
321.91	-17.41
322.124	-5.12
322.337	-66.56
322.55	-35.84
322.763	56.32
322.977	17.41
323.19	3.07
323.403	27.65
323.617	27.65
323.83	64.51
324.043	33.79
324.256	15.36
324.469	56.32
324.683	44.03
324.896	-35.84
325.109	27.65
325.322	-27.65
325.535	87.04
325.748	23.55
325.962	39.94
326.175	-7.17
326.388	48.13
326.601	37.89
326.814	48.13
327.027	64.51
327.24	-25.6
327.453	31.74
327.666	-15.36
327.879	3.07
328.092	35.84
328.305	52.22
328.518	15.36
328.731	5.12
328.944	27.65
329.157	23.55
329.37	29.7
329.583	27.65
329.796	84.99
330.009	-39.94
330.222	-17.41
330.435	-33.79
330.648	44.03
330.861	-5.12
331.073	48.13
331.286	19.46
331.499	82.94
331.712	39.94
331.925	-17.41
332.138	33.79
332.35	25.6
332.563	29.7
332.776	54.27
332.989	9.22
333.202	17.41
333.414	-1.02
333.627	-1.02
333.84	31.74
334.053	15.36
334.265	54.27
334.478	25.6
334.691	56.32
334.903	15.36
335.116	-5.12
335.329	19.46
335.541	82.94
335.754	171.01
335.966	27.65
336.179	48.13
336.392	64.51
336.604	44.03
336.817	33.79
337.029	87.04
337.242	27.65
337.454	19.46
337.667	23.55
337.88	109.57
338.092	-21.5
338.305	33.79
338.517	84.99
338.729	48.13
338.942	23.55
339.154	99.33
339.367	31.74
339.579	39.94
339.792	107.52
340.004	33.79
340.217	-9.22
340.429	23.55
340.641	-1.02
340.854	15.36
341.066	13.31
341.278	5.12
341.491	31.74
341.703	25.6
341.915	-21.5
342.128	50.18
342.34	-5.12
342.552	70.65
342.764	48.13
342.977	56.32
343.189	48.13
343.401	-3.07
343.613	27.65
343.826	-17.41
344.038	-7.17
344.25	-23.55
344.462	-64.51
344.674	23.55
344.886	35.84
345.099	44.03
345.311	46.08
345.523	35.84
345.735	-41.98
345.947	-11.26
346.159	-35.84
346.371	-15.36
346.583	52.22
346.795	35.84
347.007	56.32
347.219	25.6
347.431	11.26
347.643	87.04
347.855	7.17
348.067	-17.41
348.279	-25.6
348.491	-7.17
348.703	72.7
348.915	23.55
349.127	107.52
349.339	25.6
349.551	-3.07
349.763	84.99
349.975	-7.17
350.187	5.12
350.399	58.37
350.61	17.41
350.822	-7.17
351.034	56.32
351.246	82.94
351.458	60.42
351.669	-7.17
351.881	56.32
352.093	3.07
352.305	91.13
352.517	17.41
352.728	-41.98
352.94	87.04
353.152	72.7
353.363	-21.5
353.575	44.03
353.787	7.17
353.999	39.94
354.21	58.37
354.422	-58.37
354.633	84.99
354.845	-17.41
355.057	19.46
355.268	44.03
355.48	23.55
355.692	25.6
355.903	39.94
356.115	74.75
356.326	-50.18
356.538	-1.02
356.749	35.84
356.961	31.74
357.172	27.65
357.384	-1.02
357.595	15.36
357.807	35.84
358.018	-74.75
358.23	91.13
358.441	-21.5
358.653	72.7
358.864	1.02
359.075	54.27
359.287	-7.17
359.498	39.94
359.709	-9.22
359.921	89.09
360.132	-3.07
360.344	-13.31
360.555	21.5
360.766	-33.79
360.977	-17.41
361.189	64.51
361.4	15.36
361.611	37.89
361.823	56.32
362.034	78.85
362.245	121.85
362.456	89.09
362.667	1.02
362.879	-19.46
363.09	82.94
363.301	58.37
363.512	99.33
363.723	35.84
363.935	64.51
364.146	58.37
364.357	48.13
364.568	80.89
364.779	41.98
364.99	3.07
365.201	50.18
365.412	50.18
365.623	80.89
365.834	64.51
366.045	19.46
366.256	48.13
366.467	-31.74
366.678	125.95
366.889	39.94
367.1	7.17
367.311	21.5
367.522	44.03
367.733	13.31
367.944	39.94
368.155	56.32
368.366	-15.36
368.577	60.42
368.788	89.09
368.999	-39.94
369.209	121.85
369.42	48.13
369.631	17.41
369.842	-19.46
370.053	31.74
370.264	50.18
370.474	27.65
370.685	46.08
370.896	33.79
371.107	-33.79
371.317	72.7
371.528	93.18
371.739	80.89
371.95	66.56
372.16	54.27
372.371	-29.7
372.582	39.94
372.792	72.7
373.003	-3.07
373.214	-23.55
373.424	37.89
373.635	1.02
373.846	23.55
374.056	39.94
374.267	44.03
374.477	58.37
374.688	29.7
374.898	19.46
375.109	-9.22
375.319	27.65
375.53	-9.22
375.74	93.18
375.951	35.84
376.161	89.09
376.372	50.18
376.582	72.7
376.793	64.51
377.003	-3.07
377.214	-9.22
377.424	-3.07
377.635	105.47
377.845	31.74
378.055	5.12
378.266	11.26
378.476	41.98
378.686	76.8
378.897	35.84
379.107	60.42
379.317	52.22
379.528	21.5
379.738	-7.17
379.948	27.65
380.158	3.07
380.369	39.94
380.579	64.51
380.789	35.84
380.999	64.51
381.21	23.55
381.42	3.07
381.63	31.74
381.84	72.7
382.05	80.89
382.261	27.65
382.471	15.36
382.681	31.74
382.891	17.41
383.101	48.13
383.311	7.17
383.521	31.74
383.731	-11.26
383.941	37.89
384.151	7.17
384.361	17.41
384.571	23.55
384.781	5.12
384.991	89.09
385.201	72.7
385.411	91.13
385.621	58.37
385.831	89.09
386.041	21.5
386.251	11.26
386.461	58.37
386.671	70.65
386.881	89.09
387.091	68.61
387.301	76.8
387.511	56.32
387.72	27.65
387.93	29.7
388.14	66.56
388.35	64.51
388.56	35.84
388.769	78.85
388.979	39.94
389.189	21.5
389.399	60.42
389.609	97.28
389.818	56.32
390.028	48.13
390.238	76.8
390.447	39.94
390.657	3.07
390.867	162.81
391.076	25.6
391.286	7.17
391.496	48.13
391.705	15.36
391.915	97.28
392.125	37.89
392.334	37.89
392.544	35.84
392.753	9.22
392.963	31.74
393.172	13.31
393.382	113.66
393.591	107.52
393.801	52.22
394.01	46.08
394.22	82.94
394.429	56.32
394.639	56.32
394.848	113.66
395.058	48.13
395.267	91.13
395.477	56.32
395.686	66.56
395.895	52.22
396.105	58.37
396.314	54.27
396.524	54.27
396.733	119.81
396.942	80.89
397.152	72.7
397.361	48.13
397.57	84.99
397.78	80.89
397.989	39.94
398.198	107.52
398.407	-11.26
398.617	87.04
398.826	93.18
399.035	68.61
399.244	50.18
399.453	50.18
399.663	56.32
399.872	56.32
400.081	48.13
400.29	74.75
400.499	17.41
400.708	66.56
400.917	19.46
401.127	44.03
401.336	164.86
401.545	80.89
401.754	105.47
401.963	158.72
402.172	82.94
402.381	54.27
402.59	33.79
402.799	64.51
403.008	84.99
403.217	173.05
403.426	128
403.635	107.52
403.844	62.46
404.053	23.55
404.262	93.18
404.471	179.2
404.68	76.8
404.888	164.86
405.097	87.04
405.306	130.05
405.515	132.09
405.724	107.52
405.933	134.14
406.142	154.62
406.35	80.89
406.559	187.39
406.768	99.33
406.977	191.49
407.185	191.49
407.394	201.72
407.603	99.33
407.812	252.92
408.02	171.01
408.229	150.53
408.438	150.53
408.646	232.44
408.855	197.63
409.064	244.73
409.272	226.3
409.481	171.01
409.69	259.07
409.898	308.22
410.107	287.74
410.315	285.69
410.524	285.69
410.733	300.03
410.941	318.46
411.15	308.22
411.358	308.22
411.567	297.98
411.775	343.03
411.984	330.75
412.192	351.23
412.401	367.61
412.609	353.27
412.818	383.99
413.026	418.81
413.234	459.77
413.443	394.23
413.651	404.47
413.86	470.01
414.068	502.78
414.276	482.3
414.485	568.31
414.693	547.83
414.901	490.49
415.11	535.54
415.318	556.02
415.526	594.93
415.734	588.79
415.943	687.09
416.151	676.85
416.359	648.18
416.567	703.48
416.776	744.44
416.984	887.79
417.192	877.55
417.4	930.8
417.608	828.4
417.817	834.55
418.025	957.43
418.233	953.33
418.441	1000.43
418.649	992.24
418.857	1057.78
419.065	1133.55
419.273	1106.93
419.481	1139.69
419.689	1162.22
419.897	1268.72
420.105	1276.91
420.313	1293.29
420.521	1399.79
420.729	1350.64
420.937	1426.41
421.145	1485.8
421.353	1508.33
421.561	1620.97
421.769	1588.2
421.977	1637.35
422.185	1735.65
422.393	1858.53
422.601	1836
422.809	1924.07
423.017	1960.93
423.224	2046.94
423.432	2028.51
423.64	2169.82
423.848	2337.76
424.056	2196.45
424.263	2423.77
424.471	2300.89
424.679	2462.68
424.887	2444.25
425.094	2614.23
425.302	2702.29
425.51	2753.49
425.718	2825.17
425.925	2874.32
426.133	2984.91
426.341	3251.15
426.548	3369.93
426.756	3320.78
426.964	3300.3
427.171	3486.67
427.379	3638.22
427.586	3605.45
427.794	3738.57
428.001	3879.88
428.209	4103.11
428.417	4000.71
428.624	4322.24
428.832	4248.51
429.039	4305.85
429.247	4201.41
429.454	4699.06
429.662	4946.87
429.869	4776.89
430.076	4979.64
430.284	5002.16
430.491	5067.7
430.699	5409.71
430.906	5378.99
431.114	5577.64
431.321	5872.55
431.528	5817.26
431.736	6112.16
431.943	6269.86
432.15	6214.56
432.358	6126.5
432.565	6726.55
432.772	6708.12
432.979	7060.37
433.187	7175.06
433.394	7080.85
433.601	7635.85
433.808	7672.71
434.016	7562.12
434.223	7807.88
434.43	8233.86
434.637	8223.62
434.844	8809.34
435.052	8921.98
435.259	8950.65
435.466	8788.86
435.673	8719.23
435.88	9268.08
436.087	9724.78
436.294	10003.3
436.501	9489.26
436.708	9931.62
436.915	10212.2
437.122	10562.4
437.329	10570.59
437.537	11064.15
437.743	10933.08
437.95	10986.33
438.157	11649.87
438.364	12024.65
438.571	12020.55
438.778	12237.64
438.985	13056.82
439.192	12610.37
439.399	13038.39
439.606	12712.77
439.813	13536.05
440.02	14316.33
440.227	14148.39
440.433	13779.76
440.64	14312.23
440.847	14244.65
441.054	14441.25
441.261	15305.49
441.467	15477.52
441.674	15774.48
441.881	16186.12
442.088	16173.83
442.294	16161.55
442.501	16319.24
442.708	16814.85
442.914	17394.42
443.121	18227.95
443.328	17593.08
443.534	18895.58
443.741	18076.4
443.948	17939.18
444.154	19516.12
444.361	19309.27
444.568	19655.38
444.774	19643.09
444.981	19788.5
445.187	20548.29
445.394	21054.14
445.6	21101.25
445.807	22819.49
446.013	21994.16
446.22	22284.97
446.426	23446.17
446.633	23243.42
446.839	24029.84
447.046	23050.91
447.252	24275.6
447.459	24652.42
447.665	24345.23
447.871	25248.38
448.078	26339.95
448.284	25408.12
448.491	25778.81
448.697	27085.41
448.903	27728.47
449.11	27249.25
449.316	27304.54
449.522	27724.38
449.728	28181.07
449.935	28428.88
450.141	28578.38
450.347	28799.56
450.553	28133.97
450.76	28551.76
450.966	29549.12
451.172	28973.64
451.378	29729.34
451.584	29438.53
451.791	29813.31
451.997	29796.92
452.203	30270
452.409	30284.34
452.615	30349.87
452.821	29063.75
453.027	29053.51
453.233	30286.39
453.44	29239.87
453.646	29528.64
453.852	29469.25
454.058	30011.96
454.264	29440.57
454.47	29735.48
454.676	29053.51
454.882	29760.06
455.088	27433.57
455.294	27703.9
455.5	27855.45
455.705	28424.78
455.911	27386.46
456.117	26827.37
456.323	26485.36
456.529	25166.46
456.735	26102.39
456.941	25635.45
457.147	25068.16
457.352	24138.38
457.558	24054.42
457.764	24011.41
457.97	23407.26
458.176	23048.86
458.381	22962.85
458.587	21895.86
458.793	22018.74
458.999	20765.38
459.204	22469.29
459.41	21617.33
459.616	20378.31
459.821	20232.91
460.027	20075.21
460.233	19716.82
460.438	18883.3
460.644	19104.48
460.85	18174.7
461.055	18072.3
461.261	17906.41
461.466	16540.42
461.672	15770.38
461.878	17232.63
462.083	16075.53
462.289	15790.86
462.494	15506.2
462.7	15100.7
462.905	14701.34
463.111	15125.27
463.316	15311.64
463.522	14895.9
463.727	14770.97
463.932	14727.97
464.138	14727.97
464.343	14766.88
464.549	14281.51
464.754	14578.47
464.959	14568.23
465.165	14410.53
465.37	13943.6
465.575	13701.93
465.781	13951.79
465.986	14295.85
466.191	13628.21
466.397	13325.11
466.602	12581.7
466.807	13280.05
467.012	13138.74
467.218	13153.08
467.423	13222.71
467.628	13034.3
467.833	13419.32
468.038	13165.37
