Data from USB4F104151__265__14-01-58-681.txt Node

Date: Thu Mar 13 14:01:58 EDT 2025
User: louis
Spectrometer: USB4F10415
Trigger mode: 4
Integration Time (sec): 1.000000E-2
Scans to average: 1
Electric dark correction enabled: true
Nonlinearity correction enabled: false
Boxcar width: 0
XAxis mode: Wavelengths
Number of Pixels in Spectrum: 3648
>>>>>Begin Spectral Data<<<<<
178.204	-54.44
178.424	-54.44
178.644	-54.44
178.864	-46.25
179.084	-52.39
179.304	-25.77
179.524	19.29
179.744	52.05
179.964	27.48
180.184	-29.87
180.404	29.52
180.624	-29.87
180.844	29.52
181.064	-7.34
181.283	-46.25
181.503	-29.87
181.723	11.09
181.943	13.14
182.163	93.01
182.383	50
182.602	27.48
182.822	84.82
183.042	21.33
183.262	-21.67
183.482	-21.67
183.701	99.16
183.921	52.05
184.141	0.85
184.361	52.05
184.58	52.05
184.8	13.14
185.02	25.43
185.239	39.76
185.459	-33.96
185.679	11.09
185.898	76.63
186.118	58.2
186.338	62.29
186.557	7
186.777	45.91
186.997	-7.34
187.216	-52.39
187.436	19.29
187.655	47.96
187.875	7
188.095	43.86
188.314	19.29
188.534	-21.67
188.753	78.68
188.973	39.76
189.192	103.25
189.412	66.39
189.631	72.53
189.851	-5.29
190.07	41.81
190.29	-15.53
190.509	50
190.729	82.77
190.948	41.81
191.168	129.88
191.387	21.33
191.607	13.14
191.826	43.86
192.045	-11.43
192.265	111.44
192.484	76.63
192.704	56.15
192.923	-9.39
193.142	41.81
193.362	52.05
193.581	80.72
193.8	76.63
194.02	41.81
194.239	50
194.458	21.33
194.678	54.1
194.897	-5.29
195.116	68.44
195.335	84.82
195.555	47.96
195.774	37.72
195.993	21.33
196.212	74.58
196.432	4.95
196.651	39.76
196.87	70.48
197.089	37.72
197.308	-3.24
197.528	35.67
197.747	-11.43
197.966	-17.58
198.185	93.01
198.404	64.34
198.623	60.24
198.842	25.43
199.062	47.96
199.281	47.96
199.5	43.86
199.719	15.19
199.938	-7.34
200.157	25.43
200.376	23.38
200.595	-42.15
200.814	-5.29
201.033	82.77
201.252	21.33
201.471	33.62
201.69	25.43
201.909	58.2
202.128	29.52
202.347	74.58
202.566	21.33
202.785	-95.4
203.004	45.91
203.223	109.4
203.442	19.29
203.661	31.57
203.879	52.05
204.098	-7.34
204.317	45.91
204.536	117.59
204.755	-5.29
204.974	21.33
205.193	37.72
205.411	39.76
205.63	109.4
205.849	90.96
206.068	29.52
206.287	-11.43
206.505	23.38
206.724	43.86
206.943	58.2
207.162	66.39
207.381	23.38
207.599	52.05
207.818	60.24
208.037	-21.67
208.255	78.68
208.474	23.38
208.693	27.48
208.911	88.92
209.13	64.34
209.349	70.48
209.567	37.72
209.786	35.67
210.005	84.82
210.223	82.77
210.442	47.96
210.661	-7.34
210.879	-17.58
211.098	35.67
211.316	60.24
211.535	58.2
211.753	-5.29
211.972	-19.63
212.191	2.9
212.409	125.78
212.628	27.48
212.846	68.44
213.065	21.33
213.283	76.63
213.502	-3.24
213.72	78.68
213.938	74.58
214.157	68.44
214.375	62.29
214.594	37.72
214.812	19.29
215.031	37.72
215.249	-19.63
215.467	19.29
215.686	-1.19
215.904	-5.29
216.122	19.29
216.341	82.77
216.559	58.2
216.778	29.52
216.996	15.19
217.214	-25.77
217.432	17.24
217.651	-25.77
217.869	-21.67
218.087	93.01
218.306	23.38
218.524	19.29
218.742	31.57
218.96	43.86
219.179	19.29
219.397	21.33
219.615	35.67
219.833	99.16
220.051	45.91
220.27	86.87
220.488	2.9
220.706	35.67
220.924	33.62
221.142	39.76
221.36	21.33
221.578	-29.87
221.796	41.81
222.015	52.05
222.233	25.43
222.451	52.05
222.669	-42.15
222.887	84.82
223.105	-27.82
223.323	35.67
223.541	-29.87
223.759	15.19
223.977	21.33
224.195	56.15
224.413	93.01
224.631	-42.15
224.849	76.63
225.067	-19.63
225.285	2.9
225.503	23.38
225.721	-50.35
225.939	74.58
226.157	35.67
226.375	64.34
226.592	2.9
226.81	4.95
227.028	50
227.246	39.76
227.464	-11.43
227.682	-38.06
227.9	4.95
228.117	76.63
228.335	45.91
228.553	2.9
228.771	2.9
228.989	-27.82
229.206	103.25
229.424	68.44
229.642	-7.34
229.86	95.06
230.077	-25.77
230.295	-33.96
230.513	15.19
230.731	21.33
230.948	56.15
231.166	-11.43
231.384	-33.96
231.601	66.39
231.819	-5.29
232.037	58.2
232.254	-1.19
232.472	29.52
232.689	78.68
232.907	33.62
233.125	56.15
233.342	101.2
233.56	43.86
233.777	86.87
233.995	-13.48
234.213	4.95
234.43	11.09
234.648	74.58
234.865	101.2
235.083	80.72
235.3	-7.34
235.518	-21.67
235.735	113.49
235.953	86.87
236.17	41.81
236.388	21.33
236.605	58.2
236.822	103.25
237.04	93.01
237.257	-13.48
237.475	21.33
237.692	4.95
237.909	74.58
238.127	4.95
238.344	78.68
238.562	56.15
238.779	4.95
238.996	-1.19
239.214	97.11
239.431	84.82
239.648	33.62
239.865	56.15
240.083	39.76
240.3	76.63
240.517	68.44
240.735	103.25
240.952	72.53
241.169	43.86
241.386	-1.19
241.603	11.09
241.821	-38.06
242.038	-46.25
242.255	56.15
242.472	80.72
242.689	39.76
242.907	21.33
243.124	7
243.341	45.91
243.558	105.3
243.775	37.72
243.992	-5.29
244.209	60.24
244.426	19.29
244.643	107.35
244.86	74.58
245.078	21.33
245.295	72.53
245.512	72.53
245.729	9.05
245.946	101.2
246.163	33.62
246.38	54.1
246.597	35.67
246.814	23.38
247.031	-46.25
247.248	54.1
247.464	-5.29
247.681	19.29
247.898	64.34
248.115	78.68
248.332	11.09
248.549	15.19
248.766	43.86
248.983	54.1
249.2	21.33
249.417	47.96
249.633	-13.48
249.85	72.53
250.067	29.52
250.284	127.83
250.501	-1.19
250.717	101.2
250.934	4.95
251.151	-9.39
251.368	27.48
251.585	23.38
251.801	150.36
252.018	-66.73
252.235	70.48
252.451	2.9
252.668	-52.39
252.885	27.48
253.102	33.62
253.318	56.15
253.535	-9.39
253.752	72.53
253.968	119.64
254.185	15.19
254.401	17.24
254.618	31.57
254.835	54.1
255.051	-11.43
255.268	62.29
255.484	31.57
255.701	50
255.917	80.72
256.134	-36.01
256.351	19.29
256.567	-44.2
256.784	43.86
257	-29.87
257.217	43.86
257.433	90.96
257.65	0.85
257.866	31.57
258.082	84.82
258.299	31.57
258.515	99.16
258.732	99.16
258.948	27.48
259.165	144.21
259.381	39.76
259.597	-7.34
259.814	41.81
260.03	7
260.246	60.24
260.463	9.05
260.679	33.62
260.895	11.09
261.112	72.53
261.328	52.05
261.544	21.33
261.761	25.43
261.977	15.19
262.193	43.86
262.409	119.64
262.626	29.52
262.842	70.48
263.058	-9.39
263.274	70.48
263.49	43.86
263.707	68.44
263.923	76.63
264.139	-19.63
264.355	35.67
264.571	-9.39
264.787	0.85
265.004	19.29
265.22	50
265.436	11.09
265.652	68.44
265.868	76.63
266.084	2.9
266.3	54.1
266.516	-9.39
266.732	136.02
266.948	43.86
267.164	52.05
267.38	58.2
267.596	11.09
267.812	47.96
268.028	140.12
268.244	37.72
268.46	70.48
268.676	95.06
268.892	2.9
269.108	27.48
269.324	35.67
269.54	15.19
269.756	88.92
269.972	41.81
270.188	-23.72
270.403	76.63
270.619	88.92
270.835	76.63
271.051	4.95
271.267	86.87
271.483	72.53
271.698	70.48
271.914	101.2
272.13	47.96
272.346	88.92
272.562	58.2
272.777	43.86
272.993	62.29
273.209	84.82
273.425	93.01
273.64	0.85
273.856	56.15
274.072	140.12
274.287	43.86
274.503	78.68
274.719	64.34
274.934	70.48
275.15	-7.34
275.366	58.2
275.581	45.91
275.797	9.05
276.012	13.14
276.228	95.06
276.444	78.68
276.659	21.33
276.875	35.67
277.09	21.33
277.306	7
277.521	107.35
277.737	33.62
277.952	43.86
278.168	95.06
278.383	11.09
278.599	-11.43
278.814	43.86
279.03	-5.29
279.245	-21.67
279.461	58.2
279.676	56.15
279.892	41.81
280.107	-9.39
280.322	27.48
280.538	41.81
280.753	-23.72
280.969	52.05
281.184	19.29
281.399	129.88
281.615	19.29
281.83	97.11
282.045	-13.48
282.26	93.01
282.476	-15.53
282.691	62.29
282.906	84.82
283.122	15.19
283.337	2.9
283.552	39.76
283.767	7
283.983	21.33
284.198	82.77
284.413	47.96
284.628	-1.19
284.843	70.48
285.058	37.72
285.274	45.91
285.489	-13.48
285.704	68.44
285.919	113.49
286.134	-3.24
286.349	52.05
286.564	56.15
286.779	37.72
286.995	58.2
287.21	21.33
287.425	41.81
287.64	9.05
287.855	0.85
288.07	-31.91
288.285	45.91
288.5	4.95
288.715	13.14
288.93	-40.11
289.145	56.15
289.36	-7.34
289.575	-13.48
289.79	41.81
290.004	86.87
290.219	23.38
290.434	107.35
290.649	13.14
290.864	-52.39
291.079	37.72
291.294	2.9
291.509	68.44
291.724	56.15
291.938	68.44
292.153	-17.58
292.368	52.05
292.583	37.72
292.798	27.48
293.012	39.76
293.227	66.39
293.442	33.62
293.657	64.34
293.871	84.82
294.086	50
294.301	50
294.516	60.24
294.73	21.33
294.945	17.24
295.16	68.44
295.374	62.29
295.589	9.05
295.804	43.86
296.018	101.2
296.233	23.38
296.447	66.39
296.662	90.96
296.877	19.29
297.091	95.06
297.306	4.95
297.52	15.19
297.735	93.01
297.949	43.86
298.164	21.33
298.378	-29.87
298.593	101.2
298.807	80.72
299.022	13.14
299.236	78.68
299.451	-13.48
299.665	21.33
299.88	84.82
300.094	37.72
300.309	97.11
300.523	54.1
300.737	76.63
300.952	35.67
301.166	62.29
301.381	37.72
301.595	23.38
301.809	45.91
302.024	52.05
302.238	35.67
302.452	33.62
302.667	29.52
302.881	19.29
303.095	-3.24
303.309	101.2
303.524	15.19
303.738	2.9
303.952	-29.87
304.166	43.86
304.381	80.72
304.595	39.76
304.809	54.1
305.023	31.57
305.237	62.29
305.452	-64.68
305.666	93.01
305.88	62.29
306.094	115.54
306.308	97.11
306.522	7
306.736	62.29
306.95	47.96
307.164	27.48
307.379	54.1
307.593	2.9
307.807	13.14
308.021	82.77
308.235	88.92
308.449	45.91
308.663	86.87
308.877	66.39
309.091	21.33
309.305	2.9
309.519	21.33
309.733	93.01
309.947	41.81
310.161	62.29
310.374	45.91
310.588	37.72
310.802	15.19
311.016	13.14
311.23	109.4
311.444	78.68
311.658	68.44
311.872	4.95
312.085	103.25
312.299	43.86
312.513	62.29
312.727	54.1
312.941	35.67
313.154	19.29
313.368	29.52
313.582	84.82
313.796	86.87
314.009	23.38
314.223	52.05
314.437	23.38
314.651	60.24
314.864	33.62
315.078	-15.53
315.292	-27.82
315.505	56.15
315.719	111.44
315.933	37.72
316.146	29.52
316.36	31.57
316.573	74.58
316.787	45.91
317.001	47.96
317.214	72.53
317.428	84.82
317.641	-5.29
317.855	-23.72
318.068	11.09
318.282	95.06
318.495	70.48
318.709	74.58
318.922	103.25
319.136	107.35
319.349	105.3
319.563	47.96
319.776	64.34
319.99	-36.01
320.203	52.05
320.417	21.33
320.63	21.33
320.843	60.24
321.057	127.83
321.27	62.29
321.483	109.4
321.697	54.1
321.91	68.44
322.124	52.05
322.337	19.29
322.55	45.91
322.763	21.33
322.977	35.67
323.19	35.67
323.403	70.48
323.617	2.9
323.83	45.91
324.043	82.77
324.256	58.2
324.469	101.2
324.683	37.72
324.896	72.53
325.109	52.05
325.322	13.14
325.535	23.38
325.748	45.91
325.962	115.54
326.175	72.53
326.388	66.39
326.601	154.45
326.814	142.16
327.027	27.48
327.24	39.76
327.453	25.43
327.666	31.57
327.879	80.72
328.092	97.11
328.305	43.86
328.518	62.29
328.731	52.05
328.944	45.91
329.157	58.2
329.37	60.24
329.583	0.85
329.796	101.2
330.009	11.09
330.222	148.31
330.435	41.81
330.648	7
330.861	74.58
331.073	33.62
331.286	31.57
331.499	54.1
331.712	19.29
331.925	7
332.138	13.14
332.35	66.39
332.563	29.52
332.776	31.57
332.989	11.09
333.202	-3.24
333.414	21.33
333.627	109.4
333.84	58.2
334.053	25.43
334.265	47.96
334.478	2.9
334.691	47.96
334.903	64.34
335.116	37.72
335.329	66.39
335.541	-11.43
335.754	50
335.966	76.63
336.179	47.96
336.392	68.44
336.604	93.01
336.817	72.53
337.029	35.67
337.242	58.2
337.454	-29.87
337.667	11.09
337.88	21.33
338.092	86.87
338.305	72.53
338.517	21.33
338.729	7
338.942	121.68
339.154	31.57
339.367	68.44
339.579	-7.34
339.792	84.82
340.004	88.92
340.217	2.9
340.429	21.33
340.641	-13.48
340.854	43.86
341.066	-1.19
341.278	-13.48
341.491	103.25
341.703	64.34
341.915	4.95
342.128	64.34
342.34	11.09
342.552	31.57
342.764	29.52
342.977	109.4
343.189	95.06
343.401	37.72
343.613	50
343.826	76.63
344.038	-5.29
344.25	56.15
344.462	-23.72
344.674	50
344.886	58.2
345.099	21.33
345.311	39.76
345.523	60.24
345.735	93.01
345.947	11.09
346.159	19.29
346.371	54.1
346.583	7
346.795	66.39
347.007	7
347.219	11.09
347.431	-13.48
347.643	33.62
347.855	2.9
348.067	70.48
348.279	37.72
348.491	60.24
348.703	101.2
348.915	25.43
349.127	-17.58
349.339	160.59
349.551	50
349.763	101.2
349.975	-1.19
350.187	-23.72
350.399	146.26
350.61	86.87
350.822	-33.96
351.034	136.02
351.246	62.29
351.458	66.39
351.669	31.57
351.881	146.26
352.093	41.81
352.305	45.91
352.517	19.29
352.728	-29.87
352.94	68.44
353.152	52.05
353.363	27.48
353.575	119.64
353.787	29.52
353.999	43.86
354.21	88.92
354.422	50
354.633	-19.63
354.845	-44.2
355.057	-9.39
355.268	45.91
355.48	90.96
355.692	84.82
355.903	0.85
356.115	37.72
356.326	66.39
356.538	62.29
356.749	88.92
356.961	60.24
357.172	-5.29
357.384	9.05
357.595	23.38
357.807	13.14
358.018	41.81
358.23	70.48
358.441	23.38
358.653	86.87
358.864	54.1
359.075	84.82
359.287	60.24
359.498	56.15
359.709	80.72
359.921	62.29
360.132	70.48
360.344	60.24
360.555	133.97
360.766	86.87
360.977	21.33
361.189	93.01
361.4	56.15
361.611	52.05
361.823	43.86
362.034	33.62
362.245	17.24
362.456	80.72
362.667	62.29
362.879	64.34
363.09	19.29
363.301	80.72
363.512	15.19
363.723	62.29
363.935	41.81
364.146	101.2
364.357	105.3
364.568	136.02
364.779	86.87
364.99	47.96
365.201	93.01
365.412	33.62
365.623	21.33
365.834	37.72
366.045	21.33
366.256	117.59
366.467	13.14
366.678	31.57
366.889	39.76
367.1	86.87
367.311	60.24
367.522	-5.29
367.733	146.26
367.944	70.48
368.155	60.24
368.366	84.82
368.577	23.38
368.788	93.01
368.999	37.72
369.209	29.52
369.42	33.62
369.631	70.48
369.842	60.24
370.053	84.82
370.264	78.68
370.474	23.38
370.685	19.29
370.896	47.96
371.107	78.68
371.317	58.2
371.528	74.58
371.739	19.29
371.95	45.91
372.16	47.96
372.371	4.95
372.582	52.05
372.792	23.38
373.003	9.05
373.214	60.24
373.424	43.86
373.635	54.1
373.846	84.82
374.056	119.64
374.267	-13.48
374.477	127.83
374.688	103.25
374.898	117.59
375.109	76.63
375.319	72.53
375.53	105.3
375.74	54.1
375.951	62.29
376.161	52.05
376.372	35.67
376.582	56.15
376.793	41.81
377.003	-7.34
377.214	105.3
377.424	29.52
377.635	78.68
377.845	15.19
378.055	109.4
378.266	35.67
378.476	37.72
378.686	45.91
378.897	72.53
379.107	35.67
379.317	52.05
379.528	84.82
379.738	23.38
379.948	97.11
380.158	76.63
380.369	72.53
380.579	76.63
380.789	93.01
380.999	101.2
381.21	56.15
381.42	76.63
381.63	-33.96
381.84	136.02
382.05	52.05
382.261	193.36
382.471	72.53
382.681	35.67
382.891	129.88
383.101	13.14
383.311	117.59
383.521	45.91
383.731	4.95
383.941	76.63
384.151	86.87
384.361	62.29
384.571	56.15
384.781	107.35
384.991	39.76
385.201	60.24
385.411	52.05
385.621	133.97
385.831	68.44
386.041	90.96
386.251	4.95
386.461	150.36
386.671	-17.58
386.881	-5.29
387.091	68.44
387.301	72.53
387.511	50
387.72	117.59
387.93	93.01
388.14	70.48
388.35	-36.01
388.56	117.59
388.769	115.54
388.979	35.67
389.189	62.29
389.399	64.34
389.609	39.76
389.818	62.29
390.028	13.14
390.238	29.52
390.447	37.72
390.657	60.24
390.867	68.44
391.076	93.01
391.286	60.24
391.496	52.05
391.705	33.62
391.915	119.64
392.125	-38.06
392.334	97.11
392.544	76.63
392.753	31.57
392.963	117.59
393.172	60.24
393.382	31.57
393.591	54.1
393.801	78.68
394.01	119.64
394.22	84.82
394.429	150.36
394.639	29.52
394.848	111.44
395.058	101.2
395.267	119.64
395.477	117.59
395.686	103.25
395.895	109.4
396.105	86.87
396.314	74.58
396.524	60.24
396.733	60.24
396.942	97.11
397.152	68.44
397.361	93.01
397.57	52.05
397.78	35.67
397.989	70.48
398.198	109.4
398.407	105.3
398.617	103.25
398.826	93.01
399.035	133.97
399.244	74.58
399.453	66.39
399.663	80.72
399.872	90.96
400.081	82.77
400.29	129.88
400.499	60.24
400.708	68.44
400.917	86.87
401.127	52.05
401.336	158.55
401.545	103.25
401.754	105.3
401.963	109.4
402.172	84.82
402.381	129.88
402.59	99.16
402.799	156.5
403.008	103.25
403.217	84.82
403.426	127.83
403.635	93.01
403.844	113.49
404.053	228.18
404.262	60.24
404.471	138.07
404.68	129.88
404.888	224.08
405.097	99.16
405.306	183.12
405.515	107.35
405.724	230.23
405.933	150.36
406.142	189.27
406.35	224.08
406.559	205.65
406.768	209.75
406.977	138.07
407.185	232.27
407.394	224.08
407.603	119.64
407.812	203.6
408.02	232.27
408.229	205.65
408.438	240.47
408.646	201.55
408.855	248.66
409.064	195.41
409.272	209.75
409.481	265.04
409.69	267.09
409.898	275.28
410.107	357.2
410.315	310.1
410.524	338.77
410.733	340.82
410.941	365.39
411.15	334.67
411.358	379.73
411.567	359.25
411.775	351.06
411.984	402.26
412.192	361.3
412.401	400.21
412.609	383.82
412.818	396.11
413.026	437.07
413.234	490.32
413.443	371.54
413.651	494.41
413.86	475.98
414.068	564.04
414.276	506.7
414.485	580.43
414.693	547.66
414.901	600.91
415.11	621.39
415.318	633.68
415.526	555.85
415.734	660.3
415.943	674.64
416.151	734.03
416.359	703.31
416.567	752.46
416.776	785.23
416.984	764.75
417.192	779.08
417.4	904.01
417.608	887.62
417.817	938.82
418.025	1018.69
418.233	1090.37
418.441	879.43
418.649	1010.5
418.857	1063.75
419.065	1069.89
419.273	1028.93
419.481	1157.96
419.689	1250.11
419.897	1198.92
420.105	1276.74
420.313	1284.93
420.521	1297.22
420.729	1336.13
420.937	1348.42
421.145	1530.69
421.353	1471.29
421.561	1624.89
421.769	1708.86
421.977	1813.31
422.185	1717.05
422.393	1880.89
422.601	1876.79
422.809	2007.86
423.017	1999.67
423.224	2059.06
423.432	2091.83
423.64	2161.46
423.848	2394.93
424.056	2282.29
424.263	2335.54
424.471	2405.17
424.679	2435.89
424.887	2751.28
425.094	2663.21
425.302	2706.22
425.51	2747.18
425.718	2943.78
425.925	2915.11
426.133	3001.13
426.341	3107.62
426.548	3353.38
426.756	3226.4
426.964	3332.9
427.171	3570.46
427.379	3611.42
427.586	3732.25
427.794	3777.31
428.001	4016.92
428.209	4258.58
428.417	4098.84
428.624	4332.31
428.832	4524.82
429.039	4336.4
429.247	4412.18
429.454	4803.34
429.662	5057.29
429.869	4717.33
430.076	5194.5
430.284	4948.75
430.491	5106.44
430.699	5272.32
430.906	5405.44
431.114	5481.22
431.321	5708.54
431.528	5903.1
431.736	6208.25
431.943	6380.28
432.15	6327.03
432.358	6411
432.565	6707.95
432.772	6945.52
432.979	7080.68
433.187	7113.45
433.394	7301.86
433.601	7748.32
433.808	7662.3
434.016	7613.15
434.223	7916.25
434.43	8532.69
434.637	8432.34
434.844	8786.64
435.052	8950.48
435.259	8817.36
435.466	8987.34
435.673	8874.7
435.88	9409.22
436.087	10123.96
436.294	10070.72
436.501	9611.97
436.708	10013.37
436.915	10422.97
437.122	10918.57
437.329	10656.43
437.537	11082.41
437.743	11356.84
437.95	11170.47
438.157	11729.57
438.364	12180.12
438.571	12108.44
438.778	12264.09
438.985	13308.55
439.192	12774.03
439.399	13179.53
439.606	12964.5
439.813	13712
440.02	14381.69
440.227	14103.17
440.433	13992.58
440.64	14369.4
440.847	14183.04
441.054	14860.91
441.261	15667.81
441.467	15221.36
441.674	16018.02
441.881	16636.5
442.088	16368.22
442.294	16284.25
442.501	16814.68
442.708	17099.34
442.914	17836.61
443.121	18360.89
443.328	17859.14
443.534	19038.77
443.741	18758.2
443.948	18352.7
444.154	19880.49
444.361	19763.75
444.568	19870.25
444.774	19769.9
444.981	20023.84
445.187	20759.06
445.394	21410.32
445.6	20996.63
445.807	23237.11
446.013	22163.97
446.22	23005.69
446.426	23630.32
446.633	23706.09
446.839	24556
447.046	23314.93
447.252	25018.84
447.459	24752.6
447.665	24527.33
447.871	26057.16
448.078	26728.89
448.284	25758.16
448.491	26413.51
448.697	26964.41
448.903	27726.25
449.11	27564.46
449.316	27453.87
449.522	28148.14
449.728	28473.76
449.935	28823.97
450.141	28821.92
450.347	29456.79
450.553	28586.4
450.76	28973.47
450.966	29845.9
451.172	29487.51
451.378	30339.46
451.584	29174.17
451.791	30478.72
451.997	30220.68
452.203	30683.52
452.409	30468.48
452.615	30509.44
452.821	29458.84
453.027	28942.75
453.233	30296.46
453.44	29340.05
453.646	29747.6
453.852	29925.77
454.058	30224.78
454.264	29227.42
454.47	30017.93
454.676	29055.39
454.882	30062.99
455.088	27625.9
455.294	28045.74
455.5	28314.02
455.705	28610.98
455.911	27580.85
456.117	26538.43
456.323	26702.27
456.529	25199.06
456.735	26419.65
456.941	25715.15
457.147	25092.57
457.352	24334.82
457.558	24166.88
457.764	23884.26
457.97	23691.76
458.176	23120.37
458.381	23239.15
458.587	22512.13
458.793	22172.16
458.999	21277.2
459.204	22440.45
459.41	21760.52
459.616	20367.9
459.821	20431.39
460.027	20593.18
460.233	20038.18
460.438	19049.01
460.644	19212.85
460.85	18426.43
461.055	17857.09
461.261	18223.68
461.466	16613.98
461.672	16314.97
461.878	17191.5
462.083	16065.12
462.289	15704.68
462.494	15712.87
462.7	15100.53
462.905	14660.21
463.111	15278.7
463.316	15061.62
463.522	14920.31
463.727	14822
463.932	14815.86
464.138	14649.97
464.343	14721.65
464.549	14412.41
464.754	14688.89
464.959	14783.09
465.165	14678.65
465.37	14107.26
465.575	13478.54
465.781	14377.59
465.986	14201.47
466.191	13716.1
466.397	13486.73
466.602	12970.64
466.807	13390.47
467.012	13191.82
467.218	13142.67
467.423	13152.91
467.628	13144.72
467.833	13699.72
468.038	13171.34
468.244	12884.62
468.449	13238.92
468.654	12919.44
