Data from USB4F104151__269__14-02-07-241.txt Node

Date: Thu Mar 13 14:02:07 EDT 2025
User: louis
Spectrometer: USB4F10415
Trigger mode: 4
Integration Time (sec): 1.000000E-2
Scans to average: 1
Electric dark correction enabled: true
Nonlinearity correction enabled: false
Boxcar width: 0
XAxis mode: Wavelengths
Number of Pixels in Spectrum: 3648
>>>>>Begin Spectral Data<<<<<
178.204	-42.67
178.424	-42.67
178.644	-42.67
178.864	-50.86
179.084	-1.71
179.304	-9.9
179.524	-20.14
179.744	-24.23
179.964	43.35
180.184	-54.95
180.404	55.64
180.624	12.63
180.844	-24.23
181.064	41.3
181.283	53.59
181.503	-28.33
181.723	-44.71
181.943	-38.57
182.163	43.35
182.383	33.11
182.602	51.54
182.822	31.06
183.042	90.45
183.262	55.64
183.482	49.49
183.701	-20.14
183.921	-40.62
184.141	-59.05
184.361	-13.99
184.58	55.64
184.8	41.3
185.02	24.92
185.239	51.54
185.459	102.74
185.679	108.88
185.898	-20.14
186.118	20.82
186.338	51.54
186.557	12.63
186.777	51.54
186.997	20.82
187.216	84.31
187.436	31.06
187.655	29.01
187.875	10.58
188.095	67.92
188.314	18.77
188.534	108.88
188.753	24.92
188.973	39.25
189.192	18.77
189.412	31.06
189.631	-34.47
189.851	26.96
190.07	59.73
190.29	76.12
190.509	39.25
190.729	-1.71
190.948	8.53
191.168	51.54
191.387	35.16
191.607	82.26
191.826	-5.8
192.045	41.3
192.265	-9.9
192.484	33.11
192.704	6.49
192.923	76.12
193.142	53.59
193.362	18.77
193.581	4.44
193.8	33.11
194.02	90.45
194.239	59.73
194.458	76.12
194.678	-59.05
194.897	18.77
195.116	67.92
195.335	59.73
195.555	94.55
195.774	2.39
195.993	-46.76
196.212	14.68
196.432	63.83
196.651	49.49
196.87	29.01
197.089	24.92
197.308	-18.09
197.528	-16.04
197.747	10.58
197.966	51.54
198.185	31.06
198.404	74.07
198.623	43.35
198.842	18.77
199.062	51.54
199.281	59.73
199.5	10.58
199.719	4.44
199.938	63.83
200.157	43.35
200.376	-32.43
200.595	74.07
200.814	102.74
201.033	4.44
201.252	-28.33
201.471	53.59
201.69	10.58
201.909	18.77
202.128	24.92
202.347	82.26
202.566	14.68
202.785	-16.04
203.004	10.58
203.223	22.87
203.442	-13.99
203.661	41.3
203.879	37.2
204.098	-22.19
204.317	-18.09
204.536	96.6
204.755	78.16
204.974	-28.33
205.193	65.88
205.411	-9.9
205.63	18.77
205.849	55.64
206.068	72.02
206.287	22.87
206.505	-36.52
206.724	-5.8
206.943	-5.8
207.162	29.01
207.381	76.12
207.599	51.54
207.818	129.36
208.037	18.77
208.255	74.07
208.474	12.63
208.693	-5.8
208.911	43.35
209.13	-3.75
209.349	-40.62
209.567	26.96
209.786	88.4
210.005	-13.99
210.223	67.92
210.442	43.35
210.661	45.4
210.879	33.11
211.098	61.78
211.316	92.5
211.535	117.08
211.753	78.16
211.972	4.44
212.191	10.58
212.409	10.58
212.628	-16.04
212.846	33.11
213.065	88.4
213.283	10.58
213.502	20.82
213.72	39.25
213.938	-5.8
214.157	24.92
214.375	45.4
214.594	55.64
214.812	24.92
215.031	59.73
215.249	-69.29
215.467	-28.33
215.686	8.53
215.904	37.2
216.122	-11.95
216.341	35.16
216.559	26.96
216.778	63.83
216.996	35.16
217.214	76.12
217.432	-1.71
217.651	-5.8
217.869	10.58
218.087	18.77
218.306	22.87
218.524	47.44
218.742	41.3
218.96	4.44
219.179	59.73
219.397	2.39
219.615	43.35
219.833	78.16
220.051	-28.33
220.27	37.2
220.488	65.88
220.706	51.54
220.924	-52.91
221.142	18.77
221.36	37.2
221.578	41.3
221.796	-13.99
222.015	51.54
222.233	53.59
222.451	53.59
222.669	31.06
222.887	51.54
223.105	-9.9
223.323	-40.62
223.541	6.49
223.759	12.63
223.977	43.35
224.195	-3.75
224.413	90.45
224.631	76.12
224.849	-7.85
225.067	43.35
225.285	14.68
225.503	61.78
225.721	10.58
225.939	31.06
226.157	8.53
226.375	12.63
226.592	94.55
226.81	24.92
227.028	-1.71
227.246	53.59
227.464	43.35
227.682	61.78
227.9	33.11
228.117	-52.91
228.335	49.49
228.553	37.2
228.771	6.49
228.989	43.35
229.206	12.63
229.424	24.92
229.642	0.34
229.86	6.49
230.077	20.82
230.295	-28.33
230.513	22.87
230.731	-9.9
230.948	6.49
231.166	43.35
231.384	12.63
231.601	6.49
231.819	94.55
232.037	51.54
232.254	-9.9
232.472	41.3
232.689	72.02
232.907	-7.85
233.125	12.63
233.342	96.6
233.56	-16.04
233.777	-46.76
233.995	67.92
234.213	45.4
234.43	-38.57
234.648	63.83
234.865	47.44
235.083	29.01
235.3	29.01
235.518	-44.71
235.735	26.96
235.953	49.49
236.17	-3.75
236.388	-24.23
236.605	72.02
236.822	45.4
237.04	4.44
237.257	84.31
237.475	69.97
237.692	0.34
237.909	78.16
238.127	72.02
238.344	37.2
238.562	12.63
238.779	-18.09
238.996	29.01
239.214	10.58
239.431	53.59
239.648	0.34
239.865	4.44
240.083	12.63
240.3	35.16
240.517	41.3
240.735	8.53
240.952	14.68
241.169	67.92
241.386	35.16
241.603	43.35
241.821	35.16
242.038	72.02
242.255	26.96
242.472	-5.8
242.689	-48.81
242.907	82.26
243.124	47.44
243.341	20.82
243.558	-3.75
243.775	72.02
243.992	18.77
244.209	35.16
244.426	35.16
244.643	57.68
244.86	-38.57
245.078	41.3
245.295	2.39
245.512	76.12
245.729	59.73
245.946	20.82
246.163	26.96
246.38	47.44
246.597	29.01
246.814	-9.9
247.031	100.69
247.248	-22.19
247.464	18.77
247.681	12.63
247.898	37.2
248.115	4.44
248.332	-20.14
248.549	59.73
248.766	112.98
248.983	53.59
249.2	-16.04
249.417	35.16
249.633	14.68
249.85	65.88
250.067	-20.14
250.284	63.83
250.501	-13.99
250.717	33.11
250.934	39.25
251.151	-26.28
251.368	14.68
251.585	55.64
251.801	51.54
252.018	22.87
252.235	-1.71
252.451	10.58
252.668	33.11
252.885	117.08
253.102	69.97
253.318	33.11
253.535	12.63
253.752	12.63
253.968	35.16
254.185	53.59
254.401	18.77
254.618	24.92
254.835	26.96
255.051	29.01
255.268	0.34
255.484	24.92
255.701	6.49
255.917	-36.52
256.134	53.59
256.351	18.77
256.567	2.39
256.784	102.74
257	-5.8
257.217	10.58
257.433	10.58
257.65	43.35
257.866	55.64
258.082	55.64
258.299	-24.23
258.515	51.54
258.732	61.78
258.948	78.16
259.165	37.2
259.381	51.54
259.597	57.68
259.814	45.4
260.03	84.31
260.246	18.77
260.463	33.11
260.679	-3.75
260.895	112.98
261.112	59.73
261.328	67.92
261.544	39.25
261.761	-1.71
261.977	-30.38
262.193	41.3
262.409	-13.99
262.626	92.5
262.842	59.73
263.058	-34.47
263.274	8.53
263.49	96.6
263.707	41.3
263.923	76.12
264.139	12.63
264.355	39.25
264.571	86.36
264.787	22.87
265.004	-18.09
265.22	47.44
265.436	26.96
265.652	33.11
265.868	92.5
266.084	26.96
266.3	2.39
266.516	-42.67
266.732	18.77
266.948	-30.38
267.164	33.11
267.38	41.3
267.596	78.16
267.812	69.97
268.028	31.06
268.244	26.96
268.46	61.78
268.676	65.88
268.892	59.73
269.108	39.25
269.324	-5.8
269.54	-13.99
269.756	37.2
269.972	39.25
270.188	24.92
270.403	-11.95
270.619	33.11
270.835	14.68
271.051	37.2
271.267	-13.99
271.483	78.16
271.698	12.63
271.914	39.25
272.13	33.11
272.346	-40.62
272.562	61.78
272.777	2.39
272.993	26.96
273.209	57.68
273.425	-18.09
273.64	84.31
273.856	-26.28
274.072	26.96
274.287	49.49
274.503	35.16
274.719	-11.95
274.934	-52.91
275.15	-3.75
275.366	24.92
275.581	-5.8
275.797	35.16
276.012	47.44
276.228	47.44
276.444	22.87
276.659	61.78
276.875	29.01
277.09	69.97
277.306	6.49
277.521	43.35
277.737	90.45
277.952	-22.19
278.168	-1.71
278.383	16.73
278.599	-20.14
278.814	104.79
279.03	18.77
279.245	39.25
279.461	-9.9
279.676	22.87
279.892	-57
280.107	-3.75
280.322	29.01
280.538	51.54
280.753	53.59
280.969	2.39
281.184	82.26
281.399	78.16
281.615	100.69
281.83	35.16
282.045	-18.09
282.26	121.17
282.476	76.12
282.691	10.58
282.906	-11.95
283.122	31.06
283.337	14.68
283.552	67.92
283.767	108.88
283.983	31.06
284.198	35.16
284.413	86.36
284.628	10.58
284.843	18.77
285.058	43.35
285.274	26.96
285.489	43.35
285.704	41.3
285.919	53.59
286.134	8.53
286.349	-32.43
286.564	59.73
286.779	31.06
286.995	18.77
287.21	72.02
287.425	24.92
287.64	14.68
287.855	90.45
288.07	24.92
288.285	92.5
288.5	47.44
288.715	2.39
288.93	86.36
289.145	-5.8
289.36	88.4
289.575	41.3
289.79	16.73
290.004	2.39
290.219	49.49
290.434	57.68
290.649	72.02
290.864	29.01
291.079	-5.8
291.294	61.78
291.509	86.36
291.724	-1.71
291.938	10.58
292.153	2.39
292.368	-20.14
292.583	104.79
292.798	10.58
293.012	53.59
293.227	63.83
293.442	-24.23
293.657	65.88
293.871	123.22
294.086	63.83
294.301	72.02
294.516	41.3
294.73	12.63
294.945	51.54
295.16	2.39
295.374	65.88
295.589	123.22
295.804	55.64
296.018	18.77
296.233	49.49
296.447	18.77
296.662	51.54
296.877	74.07
297.091	14.68
297.306	94.55
297.52	53.59
297.735	55.64
297.949	4.44
298.164	72.02
298.378	29.01
298.593	41.3
298.807	-16.04
299.022	100.69
299.236	29.01
299.451	43.35
299.665	76.12
299.88	-11.95
300.094	16.73
300.309	115.03
300.523	51.54
300.737	29.01
300.952	8.53
301.166	-11.95
301.381	14.68
301.595	82.26
301.809	43.35
302.024	76.12
302.238	-13.99
302.452	31.06
302.667	-40.62
302.881	94.55
303.095	121.17
303.309	-30.38
303.524	43.35
303.738	29.01
303.952	59.73
304.166	10.58
304.381	47.44
304.595	43.35
304.809	-42.67
305.023	31.06
305.237	20.82
305.452	76.12
305.666	-38.57
305.88	72.02
306.094	135.51
306.308	-5.8
306.522	20.82
306.736	69.97
306.95	43.35
307.164	24.92
307.379	16.73
307.593	59.73
307.807	59.73
308.021	45.4
308.235	0.34
308.449	18.77
308.663	57.68
308.877	63.83
309.091	-24.23
309.305	22.87
309.519	2.39
309.733	47.44
309.947	4.44
310.161	119.12
310.374	-3.75
310.588	61.78
310.802	16.73
311.016	96.6
311.23	139.6
311.444	6.49
311.658	-3.75
311.872	51.54
312.085	84.31
312.299	12.63
312.513	63.83
312.727	-24.23
312.941	-42.67
313.154	-42.67
313.368	4.44
313.582	55.64
313.796	-79.53
314.009	2.39
314.223	16.73
314.437	76.12
314.651	92.5
314.864	74.07
315.078	53.59
315.292	-22.19
315.505	26.96
315.719	72.02
315.933	49.49
316.146	2.39
316.36	-52.91
316.573	10.58
316.787	43.35
317.001	39.25
317.214	26.96
317.428	45.4
317.641	12.63
317.855	43.35
318.068	100.69
318.282	53.59
318.495	74.07
318.709	26.96
318.922	74.07
319.136	31.06
319.349	26.96
319.563	10.58
319.776	14.68
319.99	106.84
320.203	18.77
320.417	55.64
320.63	41.3
320.843	2.39
321.057	94.55
321.27	63.83
321.483	-18.09
321.697	33.11
321.91	63.83
322.124	72.02
322.337	12.63
322.55	63.83
322.763	94.55
322.977	-18.09
323.19	-7.85
323.403	80.21
323.617	2.39
323.83	151.89
324.043	92.5
324.256	37.2
324.469	43.35
324.683	65.88
324.896	-9.9
325.109	26.96
325.322	2.39
325.535	90.45
325.748	96.6
325.962	51.54
326.175	43.35
326.388	108.88
326.601	4.44
326.814	-22.19
327.027	72.02
327.24	63.83
327.453	43.35
327.666	31.06
327.879	26.96
328.092	-1.71
328.305	2.39
328.518	29.01
328.731	-5.8
328.944	115.03
329.157	96.6
329.37	43.35
329.583	102.74
329.796	43.35
330.009	92.5
330.222	51.54
330.435	55.64
330.648	100.69
330.861	0.34
331.073	135.51
331.286	45.4
331.499	63.83
331.712	14.68
331.925	45.4
332.138	4.44
332.35	98.64
332.563	20.82
332.776	74.07
332.989	37.2
333.202	26.96
333.414	86.36
333.627	24.92
333.84	2.39
334.053	53.59
334.265	-52.91
334.478	57.68
334.691	4.44
334.903	59.73
335.116	33.11
335.329	39.25
335.541	86.36
335.754	80.21
335.966	31.06
336.179	59.73
336.392	14.68
336.604	61.78
336.817	37.2
337.029	100.69
337.242	43.35
337.454	94.55
337.667	92.5
337.88	-1.71
338.092	121.17
338.305	-63.15
338.517	63.83
338.729	82.26
338.942	41.3
339.154	55.64
339.367	72.02
339.579	49.49
339.792	72.02
340.004	16.73
340.217	-1.71
340.429	53.59
340.641	16.73
340.854	76.12
341.066	10.58
341.278	-22.19
341.491	10.58
341.703	41.3
341.915	88.4
342.128	10.58
342.34	41.3
342.552	110.93
342.764	45.4
342.977	55.64
343.189	35.16
343.401	10.58
343.613	-42.67
343.826	33.11
344.038	43.35
344.25	29.01
344.462	74.07
344.674	24.92
344.886	100.69
345.099	55.64
345.311	12.63
345.523	80.21
345.735	39.25
345.947	96.6
346.159	37.2
346.371	45.4
346.583	33.11
346.795	51.54
347.007	37.2
347.219	35.16
347.431	-7.85
347.643	57.68
347.855	47.44
348.067	117.08
348.279	57.68
348.491	51.54
348.703	92.5
348.915	-9.9
349.127	16.73
349.339	78.16
349.551	4.44
349.763	18.77
349.975	90.45
350.187	69.97
350.399	35.16
350.61	129.36
350.822	31.06
351.034	63.83
351.246	39.25
351.458	88.4
351.669	94.55
351.881	112.98
352.093	29.01
352.305	29.01
352.517	110.93
352.728	43.35
352.94	47.44
353.152	41.3
353.363	37.2
353.575	33.11
353.787	55.64
353.999	33.11
354.21	8.53
354.422	22.87
354.633	8.53
354.845	0.34
355.057	76.12
355.268	31.06
355.48	14.68
355.692	18.77
355.903	80.21
356.115	20.82
356.326	43.35
356.538	26.96
356.749	55.64
356.961	63.83
357.172	112.98
357.384	65.88
357.595	8.53
357.807	20.82
358.018	31.06
358.23	20.82
358.441	26.96
358.653	123.22
358.864	61.78
359.075	16.73
359.287	59.73
359.498	10.58
359.709	106.84
359.921	45.4
360.132	20.82
360.344	47.44
360.555	18.77
360.766	20.82
360.977	76.12
361.189	49.49
361.4	24.92
361.611	43.35
361.823	43.35
362.034	24.92
362.245	-3.75
362.456	74.07
362.667	53.59
362.879	135.51
363.09	51.54
363.301	35.16
363.512	24.92
363.723	55.64
363.935	14.68
364.146	84.31
364.357	-9.9
364.568	67.92
364.779	24.92
364.99	14.68
365.201	57.68
365.412	88.4
365.623	61.78
365.834	74.07
366.045	74.07
366.256	35.16
366.467	20.82
366.678	84.31
366.889	53.59
367.1	115.03
367.311	65.88
367.522	18.77
367.733	6.49
367.944	61.78
368.155	10.58
368.366	96.6
368.577	8.53
368.788	78.16
368.999	-30.38
369.209	24.92
369.42	78.16
369.631	45.4
369.842	43.35
370.053	-18.09
370.264	26.96
370.474	61.78
370.685	39.25
370.896	76.12
371.107	67.92
371.317	33.11
371.528	35.16
371.739	49.49
371.95	78.16
372.16	143.7
372.371	31.06
372.582	84.31
372.792	14.68
373.003	80.21
373.214	8.53
373.424	43.35
373.635	65.88
373.846	39.25
374.056	4.44
374.267	29.01
374.477	72.02
374.688	53.59
374.898	90.45
375.109	43.35
375.319	59.73
375.53	90.45
375.74	33.11
375.951	24.92
376.161	43.35
376.372	63.83
376.582	51.54
376.793	69.97
377.003	72.02
377.214	-18.09
377.424	0.34
377.635	43.35
377.845	78.16
378.055	108.88
378.266	-7.85
378.476	35.16
378.686	12.63
378.897	47.44
379.107	29.01
379.317	104.79
379.528	12.63
379.738	37.2
379.948	61.78
380.158	67.92
380.369	-7.85
380.579	115.03
380.789	92.5
380.999	20.82
381.21	33.11
381.42	106.84
381.63	4.44
381.84	115.03
382.05	76.12
382.261	80.21
382.471	72.02
382.681	45.4
382.891	43.35
383.101	129.36
383.311	110.93
383.521	59.73
383.731	41.3
383.941	88.4
384.151	29.01
384.361	102.74
384.571	104.79
384.781	29.01
384.991	110.93
385.201	45.4
385.411	53.59
385.621	43.35
385.831	61.78
386.041	20.82
386.251	69.97
386.461	39.25
386.671	59.73
386.881	20.82
387.091	51.54
387.301	92.5
387.511	22.87
387.72	67.92
387.93	110.93
388.14	18.77
388.35	59.73
388.56	108.88
388.769	51.54
388.979	133.46
389.189	6.49
389.399	139.6
389.609	72.02
389.818	131.41
390.028	76.12
390.238	63.83
390.447	0.34
390.657	63.83
390.867	12.63
391.076	20.82
391.286	72.02
391.496	96.6
391.705	49.49
391.915	53.59
392.125	-1.71
392.334	110.93
392.544	74.07
392.753	69.97
392.963	18.77
393.172	51.54
393.382	133.46
393.591	100.69
393.801	31.06
394.01	61.78
394.22	67.92
394.429	117.08
394.639	37.2
394.848	69.97
395.058	63.83
395.267	82.26
395.477	22.87
395.686	119.12
395.895	80.21
396.105	61.78
396.314	84.31
396.524	88.4
396.733	41.3
396.942	53.59
397.152	123.22
397.361	117.08
397.57	184.66
397.78	72.02
397.989	59.73
398.198	92.5
398.407	129.36
398.617	112.98
398.826	108.88
399.035	59.73
399.244	80.21
399.453	151.89
399.663	94.55
399.872	164.18
400.081	43.35
400.29	129.36
400.499	110.93
400.708	119.12
400.917	127.32
401.127	209.23
401.336	168.27
401.545	117.08
401.754	155.99
401.963	80.21
402.172	84.31
402.381	67.92
402.59	53.59
402.799	35.16
403.008	102.74
403.217	141.65
403.426	155.99
403.635	96.6
403.844	131.41
404.053	108.88
404.262	108.88
404.471	194.9
404.68	117.08
404.888	174.42
405.097	76.12
405.306	125.27
405.515	174.42
405.724	110.93
405.933	272.72
406.142	166.23
406.35	170.32
406.559	139.6
406.768	168.27
406.977	194.9
407.185	217.43
407.394	155.99
407.603	215.38
407.812	184.66
408.02	237.91
408.229	215.38
408.438	194.9
408.646	184.66
408.855	213.33
409.064	289.1
409.272	282.96
409.481	252.24
409.69	203.09
409.898	186.71
410.107	315.73
410.315	231.76
410.524	276.82
410.733	336.21
410.941	325.97
411.15	334.16
411.358	340.3
411.567	383.31
411.775	301.39
411.984	313.68
412.192	428.37
412.401	397.65
412.609	475.47
412.818	387.41
413.026	422.22
413.234	469.33
413.443	442.7
413.651	448.85
413.86	463.18
414.068	643.4
414.276	627.02
414.485	545.1
414.693	547.15
414.901	563.53
415.11	573.77
415.318	604.49
415.526	610.64
415.734	661.84
415.943	698.7
416.151	809.29
416.359	704.84
416.567	776.52
416.776	758.09
416.984	815.43
417.192	960.84
417.4	821.58
417.608	878.92
417.817	989.51
418.025	823.62
418.233	958.79
418.441	911.69
418.649	1063.24
418.857	1042.76
419.065	1102.15
419.273	1061.19
419.481	1204.55
419.689	1315.14
419.897	1331.52
420.105	1270.08
420.313	1339.71
420.521	1356.1
420.729	1507.65
420.937	1493.31
421.145	1575.23
421.353	1583.42
421.561	1706.3
421.769	1700.16
421.977	1749.31
422.185	1739.07
422.393	1820.99
422.601	1937.72
422.809	2062.65
423.017	1968.44
423.224	2189.62
423.432	2117.94
423.64	2128.18
423.848	2283.83
424.056	2261.3
424.263	2509.1
424.471	2404.66
424.679	2541.87
424.887	2664.75
425.094	2752.81
425.302	2828.59
425.51	3057.96
425.718	2933.03
425.925	2920.74
426.133	3189.03
426.341	3320.1
426.548	3391.78
426.756	3320.1
426.964	3373.35
427.171	3584.29
427.379	3750.17
427.586	3733.79
427.794	3772.7
428.001	3991.83
428.209	4229.4
428.417	4114.71
428.624	4450.58
428.832	4401.43
429.039	4313.36
429.247	4409.62
429.454	4821.26
429.662	5087.5
429.869	4782.35
430.076	5093.64
430.284	4905.23
430.491	5165.32
430.699	5542.14
430.906	5466.37
431.114	5546.24
431.321	5837.05
431.528	6013.18
431.736	6289.65
431.943	6660.34
432.15	6273.27
432.358	6535.41
432.565	6867.18
432.772	6910.19
432.979	7313.64
433.187	7313.64
433.394	7196.9
433.601	7878.88
433.808	7846.11
434.016	7846.11
434.223	7979.23
434.43	8626.39
434.637	8411.35
434.844	8849.61
435.052	9265.35
435.259	8992.97
435.466	9169.1
435.673	9085.13
435.88	9752.77
436.087	10084.54
436.294	9980.09
436.501	9771.2
436.708	10053.82
436.915	10363.06
437.122	10815.66
437.329	10999.98
437.537	11206.83
437.743	11360.42
437.95	11446.44
438.157	11882.66
438.364	12460.18
438.571	12443.8
438.778	12546.2
438.985	13547.65
439.192	12978.32
439.399	13215.88
439.606	13074.57
439.813	13805.7
440.02	14418.04
440.227	14381.18
440.433	14223.48
440.64	14940.27
440.847	14575.73
441.054	15151.21
441.261	15906.91
441.467	15896.67
441.674	16130.14
441.881	16771.16
442.088	16762.97
442.294	16656.47
442.501	16996.43
442.708	17487.95
442.914	17631.3
443.121	18745.4
443.328	18231.36
443.534	19714.09
443.741	18909.24
443.948	18460.73
444.154	20006.95
444.361	19933.22
444.568	19941.41
444.774	20076.58
444.981	20437.02
445.187	20688.92
445.394	21628.94
445.6	21571.6
445.807	23465.97
446.013	22493.18
446.22	22611.96
446.426	24014.82
446.633	24061.93
446.839	25085.91
447.046	23769.07
447.252	25016.28
447.459	25141.21
447.665	24854.49
447.871	26116.04
448.078	26881.98
448.284	25933.77
448.491	26458.05
448.697	27578.29
448.903	28121
449.11	28041.13
449.316	27541.43
449.522	28487.59
449.728	29323.16
449.935	29196.18
450.141	29343.64
450.347	29880.21
450.553	28663.71
450.76	29243.29
450.966	29964.17
451.172	29652.88
451.378	30513.03
451.584	29677.46
451.791	30433.16
451.997	30535.56
452.203	30889.85
452.409	30932.86
452.615	30404.49
452.821	29489.04
453.027	29421.46
453.233	31168.38
453.44	29679.5
453.646	29882.25
453.852	29996.94
454.058	30277.51
454.264	29685.65
454.47	30396.29
454.676	29458.32
454.882	30443.4
455.088	27639.73
455.294	28426.15
455.5	28495.78
455.705	29022.11
455.911	27654.06
456.117	27279.29
456.323	26759.1
456.529	25346
456.735	26464.19
456.941	25708.49
457.147	25280.47
457.352	24606.69
457.558	24516.58
457.764	24573.92
457.97	23928.81
458.176	23295.99
458.381	23470.06
458.587	22145.03
458.793	22321.15
458.999	20936.73
459.204	22650.88
459.41	21954.57
459.616	20719.64
459.821	20600.86
460.027	20441.12
460.233	20314.14
460.438	19171.38
460.644	19290.16
460.85	18384.96
461.055	18122.82
461.261	18085.95
461.466	16750.68
461.672	16220.25
461.878	17473.61
462.083	16212.06
462.289	15812.71
462.494	15855.72
462.7	15327.34
462.905	14803.06
463.111	15231.08
463.316	15417.45
463.522	15095.92
463.727	14968.94
463.932	14780.53
464.138	14874.74
464.343	14741.62
464.549	14573.69
464.754	15186.03
464.959	14790.77
465.165	14856.31
465.37	14086.27
465.575	14047.36
465.781	14217.34
465.986	14383.23
466.191	13822.08
466.397	13480.07
466.602	12863.63
466.807	13461.64
467.012	13369.48
467.218	13351.05
467.423	13047.95
467.628	13287.56
467.833	13801.6
468.038	13287.56
468.244	13037.71
468.449	13430.92
