Data from USB4F104151__36__13-53-03-399.txt Node

Date: Thu Mar 13 13:53:03 EDT 2025
User: louis
Spectrometer: USB4F10415
Trigger mode: 4
Integration Time (sec): 1.000000E-2
Scans to average: 1
Electric dark correction enabled: true
Nonlinearity correction enabled: false
Boxcar width: 0
XAxis mode: Wavelengths
Number of Pixels in Spectrum: 3648
>>>>>Begin Spectral Data<<<<<
178.204	-31.57
178.424	-31.57
178.644	-31.57
178.864	-54.1
179.084	-54.1
179.304	-68.44
179.524	79.02
179.744	25.77
179.964	48.3
180.184	-0.85
180.404	-33.62
180.624	-43.86
180.844	-17.24
181.064	-41.81
181.283	5.29
181.503	17.58
181.723	29.87
181.943	27.82
182.163	29.87
182.383	-7
182.602	15.53
182.822	-35.67
183.042	19.63
183.262	17.58
183.482	13.48
183.701	13.48
183.921	3.24
184.141	-19.29
184.361	-35.67
184.58	64.68
184.8	62.63
185.02	-33.62
185.239	-2.9
185.459	-4.95
185.679	44.2
185.898	31.91
186.118	33.96
186.338	50.35
186.557	95.4
186.777	31.91
186.997	-64.34
187.216	-4.95
187.436	23.72
187.655	58.54
187.875	1.19
188.095	56.49
188.314	33.96
188.534	17.58
188.753	72.87
188.973	3.24
189.192	136.36
189.412	-90.96
189.631	54.44
189.851	-29.52
190.07	21.67
190.29	27.82
190.509	-31.57
190.729	-33.62
190.948	44.2
191.168	13.48
191.387	40.11
191.607	-7
191.826	11.43
192.045	-17.24
192.265	-80.72
192.484	13.48
192.704	31.91
192.923	-84.82
193.142	83.11
193.362	46.25
193.581	60.59
193.8	87.21
194.02	-11.09
194.239	-54.1
194.458	-13.14
194.678	-0.85
194.897	60.59
195.116	-15.19
195.335	19.63
195.555	42.15
195.774	66.73
195.993	36.01
196.212	-17.24
196.432	70.83
196.651	-25.43
196.87	-17.24
197.089	93.35
197.308	15.53
197.528	33.96
197.747	-2.9
197.966	-27.48
198.185	56.49
198.404	31.91
198.623	66.73
198.842	56.49
199.062	36.01
199.281	130.22
199.5	-11.09
199.719	33.96
199.938	11.43
200.157	-37.72
200.376	-41.81
200.595	23.72
200.814	62.63
201.033	46.25
201.252	-2.9
201.471	36.01
201.69	19.63
201.909	124.07
202.128	36.01
202.347	56.49
202.566	3.24
202.785	38.06
203.004	-52.05
203.223	107.69
203.442	36.01
203.661	68.78
203.879	-11.09
204.098	13.48
204.317	76.97
204.536	87.21
204.755	-21.33
204.974	31.91
205.193	19.63
205.411	46.25
205.63	-17.24
205.849	42.15
206.068	23.72
206.287	87.21
206.505	15.53
206.724	23.72
206.943	7.34
207.162	38.06
207.381	36.01
207.599	-25.43
207.818	-19.29
208.037	48.3
208.255	-4.95
208.474	33.96
208.693	19.63
208.911	19.63
209.13	-13.14
209.349	46.25
209.567	13.48
209.786	38.06
210.005	13.48
210.223	-33.62
210.442	-13.14
210.661	50.35
210.879	38.06
211.098	62.63
211.316	-4.95
211.535	29.87
211.753	-39.76
211.972	1.19
212.191	3.24
212.409	-4.95
212.628	-0.85
212.846	46.25
213.065	74.92
213.283	-9.05
213.502	89.26
213.72	5.29
213.938	-27.48
214.157	17.58
214.375	-7
214.594	72.87
214.812	23.72
215.031	-15.19
215.249	13.48
215.467	42.15
215.686	25.77
215.904	23.72
216.122	-2.9
216.341	44.2
216.559	136.36
216.778	-2.9
216.996	17.58
217.214	42.15
217.432	-25.43
217.651	-25.43
217.869	72.87
218.087	17.58
218.306	3.24
218.524	9.39
218.742	-21.33
218.96	46.25
219.179	85.16
219.397	21.67
219.615	89.26
219.833	17.58
220.051	29.87
220.27	-35.67
220.488	38.06
220.706	21.67
220.924	36.01
221.142	17.58
221.36	-60.24
221.578	33.96
221.796	58.54
222.015	29.87
222.233	-13.14
222.451	29.87
222.669	-0.85
222.887	81.07
223.105	-4.95
223.323	29.87
223.541	23.72
223.759	15.53
223.977	3.24
224.195	76.97
224.413	-31.57
224.631	40.11
224.849	-25.43
225.067	-23.38
225.285	5.29
225.503	36.01
225.721	79.02
225.939	50.35
226.157	54.44
226.375	27.82
226.592	-31.57
226.81	13.48
227.028	7.34
227.246	-11.09
227.464	-7
227.682	83.11
227.9	29.87
228.117	105.64
228.335	60.59
228.553	21.67
228.771	-50
228.989	36.01
229.206	38.06
229.424	23.72
229.642	64.68
229.86	9.39
230.077	56.49
230.295	13.48
230.513	17.58
230.731	-31.57
230.948	40.11
231.166	62.63
231.384	3.24
231.601	50.35
231.819	27.82
232.037	38.06
232.254	70.83
232.472	36.01
232.689	50.35
232.907	79.02
233.125	38.06
233.342	72.87
233.56	25.77
233.777	5.29
233.995	25.77
234.213	29.87
234.43	72.87
234.648	87.21
234.865	-31.57
235.083	44.2
235.3	9.39
235.518	72.87
235.735	33.96
235.953	19.63
236.17	-43.86
236.388	38.06
236.605	-7
236.822	29.87
237.04	58.54
237.257	-11.09
237.475	7.34
237.692	1.19
237.909	15.53
238.127	36.01
238.344	5.29
238.562	-52.05
238.779	44.2
238.996	-9.05
239.214	29.87
239.431	-2.9
239.648	-15.19
239.865	48.3
240.083	15.53
240.3	21.67
240.517	66.73
240.735	7.34
240.952	58.54
241.169	40.11
241.386	89.26
241.603	19.63
241.821	3.24
242.038	1.19
242.255	62.63
242.472	-11.09
242.689	27.82
242.907	-15.19
243.124	-23.38
243.341	23.72
243.558	93.35
243.775	62.63
243.992	-13.14
244.209	-4.95
244.426	56.49
244.643	-39.76
244.86	-52.05
245.078	27.82
245.295	117.93
245.512	17.58
245.729	-13.14
245.946	72.87
246.163	83.11
246.38	66.73
246.597	9.39
246.814	1.19
247.031	60.59
247.248	19.63
247.464	76.97
247.681	-15.19
247.898	38.06
248.115	54.44
248.332	27.82
248.549	-9.05
248.766	27.82
248.983	58.54
249.2	5.29
249.417	27.82
249.633	-66.39
249.85	15.53
250.067	5.29
250.284	38.06
250.501	23.72
250.717	-7
250.934	36.01
251.151	-4.95
251.368	54.44
251.585	54.44
251.801	70.83
252.018	-21.33
252.235	25.77
252.451	56.49
252.668	19.63
252.885	101.55
253.102	-41.81
253.318	50.35
253.535	68.78
253.752	1.19
253.968	13.48
254.185	-33.62
254.401	-7
254.618	31.91
254.835	-0.85
255.051	44.2
255.268	29.87
255.484	3.24
255.701	13.48
255.917	19.63
256.134	44.2
256.351	-0.85
256.567	3.24
256.784	58.54
257	-0.85
257.217	-13.14
257.433	29.87
257.65	36.01
257.866	7.34
258.082	-15.19
258.299	19.63
258.515	81.07
258.732	64.68
258.948	56.49
259.165	46.25
259.381	19.63
259.597	-19.29
259.814	19.63
260.03	19.63
260.246	31.91
260.463	62.63
260.679	66.73
260.895	3.24
261.112	48.3
261.328	-25.43
261.544	44.2
261.761	56.49
261.977	-35.67
262.193	38.06
262.409	40.11
262.626	40.11
262.842	50.35
263.058	25.77
263.274	-13.14
263.49	-41.81
263.707	-39.76
263.923	36.01
264.139	56.49
264.355	11.43
264.571	42.15
264.787	27.82
265.004	-9.05
265.22	-0.85
265.436	3.24
265.652	-29.52
265.868	64.68
266.084	70.83
266.3	-37.72
266.516	-37.72
266.732	52.39
266.948	29.87
267.164	58.54
267.38	29.87
267.596	99.5
267.812	79.02
268.028	38.06
268.244	17.58
268.46	3.24
268.676	15.53
268.892	97.45
269.108	33.96
269.324	54.44
269.54	19.63
269.756	-19.29
269.972	11.43
270.188	52.39
270.403	60.59
270.619	13.48
270.835	7.34
271.051	29.87
271.267	9.39
271.483	13.48
271.698	-33.62
271.914	-58.2
272.13	1.19
272.346	1.19
272.562	46.25
272.777	50.35
272.993	38.06
273.209	1.19
273.425	70.83
273.64	126.12
273.856	7.34
274.072	-54.1
274.287	46.25
274.503	7.34
274.719	62.63
274.934	-41.81
275.15	-11.09
275.366	-43.86
275.581	-2.9
275.797	-4.95
276.012	3.24
276.228	-21.33
276.444	-41.81
276.659	105.64
276.875	-41.81
277.09	29.87
277.306	36.01
277.521	33.96
277.737	42.15
277.952	58.54
278.168	-23.38
278.383	-45.91
278.599	31.91
278.814	-11.09
279.03	5.29
279.245	11.43
279.461	29.87
279.676	54.44
279.892	-13.14
280.107	56.49
280.322	27.82
280.538	54.44
280.753	-17.24
280.969	36.01
281.184	109.74
281.399	-4.95
281.615	25.77
281.83	38.06
282.045	40.11
282.26	46.25
282.476	-27.48
282.691	21.67
282.906	60.59
283.122	66.73
283.337	58.54
283.552	48.3
283.767	23.72
283.983	31.91
284.198	7.34
284.413	76.97
284.628	36.01
284.843	7.34
285.058	21.67
285.274	-68.44
285.489	5.29
285.704	89.26
285.919	-2.9
286.134	23.72
286.349	21.67
286.564	38.06
286.779	11.43
286.995	5.29
287.21	52.39
287.425	23.72
287.64	83.11
287.855	54.44
288.07	23.72
288.285	81.07
288.5	11.43
288.715	36.01
288.93	29.87
289.145	58.54
289.36	46.25
289.575	19.63
289.79	-56.15
290.004	23.72
290.219	38.06
290.434	29.87
290.649	-21.33
290.864	27.82
291.079	38.06
291.294	-27.48
291.509	7.34
291.724	87.21
291.938	-19.29
292.153	23.72
292.368	1.19
292.583	70.83
292.798	-62.29
293.012	70.83
293.227	-29.52
293.442	19.63
293.657	17.58
293.871	31.91
294.086	29.87
294.301	15.53
294.516	21.67
294.73	29.87
294.945	9.39
295.16	66.73
295.374	-11.09
295.589	36.01
295.804	68.78
296.018	50.35
296.233	42.15
296.447	-0.85
296.662	72.87
296.877	40.11
297.091	58.54
297.306	13.48
297.52	44.2
297.735	-4.95
297.949	54.44
298.164	38.06
298.378	19.63
298.593	68.78
298.807	52.39
299.022	7.34
299.236	85.16
299.451	3.24
299.665	74.92
299.88	50.35
300.094	9.39
300.309	29.87
300.523	46.25
300.737	19.63
300.952	-0.85
301.166	50.35
301.381	66.73
301.595	-15.19
301.809	40.11
302.024	31.91
302.238	66.73
302.452	40.11
302.667	15.53
302.881	74.92
303.095	-2.9
303.309	11.43
303.524	3.24
303.738	-9.05
303.952	56.49
304.166	66.73
304.381	72.87
304.595	70.83
304.809	9.39
305.023	64.68
305.237	-17.24
305.452	40.11
305.666	15.53
305.88	40.11
306.094	68.78
306.308	25.77
306.522	-9.05
306.736	23.72
306.95	36.01
307.164	33.96
307.379	58.54
307.593	29.87
307.807	38.06
308.021	38.06
308.235	31.91
308.449	-9.05
308.663	-54.1
308.877	19.63
309.091	31.91
309.305	93.35
309.519	-29.52
309.733	95.4
309.947	13.48
310.161	64.68
310.374	19.63
310.588	-9.05
310.802	-7
311.016	38.06
311.23	21.67
311.444	31.91
311.658	46.25
311.872	97.45
312.085	38.06
312.299	52.39
312.513	38.06
312.727	48.3
312.941	40.11
313.154	76.97
313.368	13.48
313.582	48.3
313.796	7.34
314.009	52.39
314.223	1.19
314.437	52.39
314.651	17.58
314.864	60.59
315.078	-33.62
315.292	27.82
315.505	17.58
315.719	122.02
315.933	29.87
316.146	89.26
316.36	5.29
316.573	25.77
316.787	27.82
317.001	-7
317.214	46.25
317.428	13.48
317.641	38.06
317.855	42.15
318.068	-2.9
318.282	23.72
318.495	-39.76
318.709	33.96
318.922	62.63
319.136	74.92
319.349	21.67
319.563	3.24
319.776	58.54
319.99	-43.86
320.203	113.83
320.417	64.68
320.63	40.11
320.843	27.82
321.057	-21.33
321.27	70.83
321.483	46.25
321.697	48.3
321.91	15.53
322.124	1.19
322.337	13.48
322.55	93.35
322.763	1.19
322.977	33.96
323.19	-74.58
323.403	33.96
323.617	-2.9
323.83	15.53
324.043	-11.09
324.256	58.54
324.469	-9.05
324.683	52.39
324.896	-11.09
325.109	52.39
325.322	-25.43
325.535	-29.52
325.748	105.64
325.962	-0.85
326.175	42.15
326.388	50.35
326.601	31.91
326.814	56.49
327.027	17.58
327.24	42.15
327.453	3.24
327.666	17.58
327.879	60.59
328.092	52.39
328.305	91.31
328.518	29.87
328.731	-70.48
328.944	38.06
329.157	-17.24
329.37	23.72
329.583	-47.96
329.796	54.44
330.009	38.06
330.222	36.01
330.435	46.25
330.648	66.73
330.861	9.39
331.073	64.68
331.286	50.35
331.499	5.29
331.712	52.39
331.925	48.3
332.138	31.91
332.35	132.26
332.563	31.91
332.776	-19.29
332.989	79.02
333.202	-11.09
333.414	36.01
333.627	-27.48
333.84	-7
334.053	132.26
334.265	109.74
334.478	25.77
334.691	87.21
334.903	-72.53
335.116	-43.86
335.329	74.92
335.541	54.44
335.754	54.44
335.966	66.73
336.179	3.24
336.392	40.11
336.604	40.11
336.817	-0.85
337.029	70.83
337.242	-2.9
337.454	64.68
337.667	7.34
337.88	50.35
338.092	36.01
338.305	33.96
338.517	56.49
338.729	-37.72
338.942	42.15
339.154	17.58
339.367	21.67
339.579	105.64
339.792	21.67
340.004	-31.57
340.217	-60.24
340.429	40.11
340.641	-21.33
340.854	-0.85
341.066	85.16
341.278	-27.48
341.491	33.96
341.703	-0.85
341.915	-13.14
342.128	50.35
342.34	33.96
342.552	-35.67
342.764	58.54
342.977	3.24
343.189	-0.85
343.401	25.77
343.613	-33.62
343.826	5.29
344.038	15.53
344.25	19.63
344.462	29.87
344.674	68.78
344.886	-9.05
345.099	21.67
345.311	50.35
345.523	101.55
345.735	21.67
345.947	44.2
346.159	-2.9
346.371	95.4
346.583	-9.05
346.795	93.35
347.007	3.24
347.219	-43.86
347.431	66.73
347.643	52.39
347.855	52.39
348.067	25.77
348.279	21.67
348.491	113.83
348.703	1.19
348.915	70.83
349.127	-19.29
349.339	99.5
349.551	5.29
349.763	68.78
349.975	5.29
350.187	64.68
350.399	36.01
350.61	89.26
350.822	48.3
351.034	1.19
351.246	29.87
351.458	33.96
351.669	36.01
351.881	9.39
352.093	19.63
352.305	76.97
352.517	36.01
352.728	111.78
352.94	50.35
353.152	48.3
353.363	38.06
353.575	23.72
353.787	15.53
353.999	23.72
354.21	29.87
354.422	-7
354.633	33.96
354.845	-17.24
355.057	89.26
355.268	27.82
355.48	17.58
355.692	-4.95
355.903	11.43
356.115	9.39
356.326	33.96
356.538	81.07
356.749	5.29
356.961	42.15
357.172	17.58
357.384	74.92
357.595	66.73
357.807	56.49
358.018	-2.9
358.23	15.53
358.441	15.53
358.653	60.59
358.864	42.15
359.075	99.5
359.287	54.44
359.498	99.5
359.709	72.87
359.921	23.72
360.132	70.83
360.344	-2.9
360.555	-9.05
360.766	1.19
360.977	-25.43
361.189	68.78
361.4	27.82
361.611	17.58
361.823	23.72
362.034	66.73
362.245	31.91
362.456	-9.05
362.667	-7
362.879	46.25
363.09	68.78
363.301	19.63
363.512	50.35
363.723	36.01
363.935	48.3
364.146	21.67
364.357	48.3
364.568	58.54
364.779	74.92
364.99	25.77
365.201	27.82
365.412	87.21
365.623	27.82
365.834	54.44
366.045	17.58
366.256	48.3
366.467	9.39
366.678	25.77
366.889	29.87
367.1	36.01
367.311	33.96
367.522	-13.14
367.733	36.01
367.944	36.01
368.155	76.97
368.366	-33.62
368.577	46.25
368.788	21.67
368.999	56.49
369.209	-35.67
369.42	50.35
369.631	64.68
369.842	36.01
370.053	15.53
370.264	-11.09
370.474	48.3
370.685	38.06
370.896	-2.9
371.107	72.87
371.317	-7
371.528	-31.57
371.739	3.24
371.95	101.55
372.16	21.67
372.371	56.49
372.582	27.82
372.792	83.11
373.003	31.91
373.214	-31.57
373.424	68.78
373.635	13.48
373.846	11.43
374.056	-39.76
374.267	3.24
374.477	48.3
374.688	72.87
374.898	17.58
375.109	31.91
375.319	62.63
375.53	76.97
375.74	50.35
375.951	48.3
376.161	-9.05
376.372	76.97
376.582	29.87
376.793	46.25
377.003	62.63
377.214	31.91
377.424	64.68
377.635	56.49
377.845	21.67
378.055	93.35
378.266	-9.05
378.476	33.96
378.686	74.92
378.897	11.43
379.107	25.77
379.317	107.69
379.528	17.58
379.738	50.35
379.948	-45.91
380.158	58.54
380.369	-50
380.579	85.16
380.789	-76.63
380.999	48.3
381.21	7.34
381.42	76.97
381.63	3.24
381.84	36.01
382.05	-60.24
382.261	21.67
382.471	40.11
382.681	-43.86
382.891	113.83
383.101	101.55
383.311	103.59
383.521	15.53
383.731	-39.76
383.941	9.39
384.151	58.54
384.361	52.39
384.571	7.34
384.781	48.3
384.991	62.63
385.201	72.87
385.411	-2.9
385.621	97.45
385.831	56.49
386.041	-47.96
386.251	21.67
386.461	95.4
386.671	52.39
386.881	36.01
387.091	25.77
387.301	119.98
387.511	23.72
387.72	-23.38
387.93	-17.24
388.14	58.54
388.35	60.59
388.56	36.01
388.769	19.63
388.979	58.54
389.189	15.53
389.399	60.59
389.609	7.34
389.818	70.83
390.028	1.19
390.238	17.58
390.447	46.25
390.657	122.02
390.867	-29.52
391.076	-2.9
391.286	66.73
391.496	21.67
391.705	66.73
391.915	23.72
392.125	181.42
392.334	40.11
392.544	54.44
392.753	-41.81
392.963	-19.29
393.172	27.82
393.382	31.91
393.591	138.41
393.801	36.01
394.01	19.63
394.22	68.78
394.429	79.02
394.639	5.29
394.848	23.72
395.058	46.25
395.267	27.82
395.477	79.02
395.686	-21.33
395.895	68.78
396.105	60.59
396.314	21.67
396.524	60.59
396.733	60.59
396.942	62.63
397.152	76.97
397.361	99.5
397.57	66.73
397.78	83.11
397.989	21.67
398.198	95.4
398.407	25.77
398.617	89.26
398.826	79.02
399.035	29.87
399.244	83.11
399.453	89.26
399.663	70.83
399.872	62.63
400.081	36.01
400.29	54.44
400.499	64.68
400.708	107.69
400.917	52.39
401.127	74.92
401.336	23.72
401.545	89.26
401.754	52.39
401.963	119.98
402.172	87.21
402.381	31.91
402.59	70.83
402.799	44.2
403.008	27.82
403.217	160.94
403.426	19.63
403.635	81.07
403.844	36.01
404.053	107.69
404.262	76.97
404.471	95.4
404.68	40.11
404.888	15.53
405.097	142.5
405.306	72.87
405.515	58.54
405.724	13.48
405.933	76.97
406.142	171.18
406.35	85.16
406.559	140.46
406.768	124.07
406.977	111.78
407.185	113.83
407.394	162.98
407.603	119.98
407.812	58.54
408.02	97.45
408.229	83.11
408.438	97.45
408.646	101.55
408.855	76.97
409.064	101.55
409.272	85.16
409.481	210.09
409.69	130.22
409.898	187.56
410.107	165.03
410.315	160.94
410.524	130.22
410.733	162.98
410.941	156.84
411.15	238.76
411.358	263.33
411.567	210.09
411.775	343.21
411.984	236.71
412.192	210.09
412.401	197.8
412.609	242.85
412.818	134.31
413.026	337.06
413.234	226.47
413.443	244.9
413.651	300.2
413.86	287.91
414.068	304.29
414.276	332.97
414.485	320.68
414.693	281.77
414.901	353.45
415.11	339.11
415.318	306.34
415.526	337.06
415.734	302.25
415.943	310.44
416.151	392.36
416.359	388.26
416.567	453.8
416.776	416.93
416.984	533.67
417.192	507.04
417.4	439.46
417.608	443.56
417.817	529.57
418.025	584.87
418.233	515.23
418.441	560.29
418.649	644.26
418.857	621.73
419.065	584.87
419.273	621.73
419.481	580.77
419.689	726.18
419.897	699.55
420.105	742.56
420.313	742.56
420.521	849.05
420.729	711.84
420.937	820.38
421.145	863.39
421.353	916.64
421.561	916.64
421.769	928.92
421.977	1021.08
422.185	922.78
422.393	1008.8
422.601	1115.29
422.809	1113.24
423.017	1074.33
423.224	1047.71
423.432	1180.82
423.64	1164.44
423.848	1256.6
424.056	1238.17
424.263	1334.42
424.471	1385.62
424.679	1305.75
424.887	1475.73
425.094	1457.3
425.302	1465.49
425.51	1543.32
425.718	1584.27
425.925	1508.5
426.133	1602.71
426.341	1791.12
426.548	1914
426.756	1885.33
426.964	1944.72
427.171	1971.34
427.379	2194.57
427.586	2165.9
427.794	2075.79
428.001	2194.57
428.209	2229.38
428.417	2307.21
428.624	2466.95
428.832	2376.84
429.039	2456.71
429.247	2419.85
429.454	2718.85
429.662	2774.14
429.869	2499.72
430.076	2802.82
430.284	2776.19
430.491	2929.79
430.699	3095.68
430.906	3128.44
431.114	3081.34
431.321	3247.23
431.528	3224.7
431.736	3421.3
431.943	3595.38
432.15	3515.51
432.358	3564.66
432.565	3800.18
432.772	3761.27
432.979	3984.49
433.187	3980.4
433.394	4113.52
433.601	4252.78
433.808	4375.66
434.016	4258.92
434.223	4459.62
434.43	4678.76
434.637	4631.65
434.844	4762.72
435.052	5086.3
435.259	4910.18
435.466	5047.39
435.673	5024.86
435.88	5393.5
436.087	5518.42
436.294	5614.68
436.501	5553.24
436.708	5616.72
436.915	5774.42
437.122	5803.09
437.329	5903.44
437.537	6052.94
437.743	6347.85
437.95	6208.59
438.157	6519.88
438.364	6825.03
438.571	6753.35
438.778	6767.68
438.985	7410.75
439.192	7128.13
439.399	7390.27
439.606	7152.7
439.813	7595.06
440.02	8094.77
440.227	7898.16
440.433	8027.18
440.64	8033.33
440.847	7914.55
441.054	8098.86
441.261	8817.7
441.467	8631.33
441.674	8870.95
441.881	9229.34
442.088	9202.72
442.294	9012.26
442.501	9456.67
442.708	9456.67
442.914	9657.37
443.121	10247.18
443.328	9913.36
443.534	10574.86
443.741	10327.05
443.948	10355.72
444.154	11074.56
444.361	10920.96
444.568	11119.62
444.774	10822.66
444.981	11330.56
445.187	11455.48
445.394	12057.59
445.6	11871.22
445.807	13038.56
446.013	12407.79
446.22	12522.48
446.426	12942.31
446.633	13106.15
446.839	13704.15
447.046	12901.35
447.252	13710.3
447.459	13863.9
447.665	13757.4
447.871	14152.66
448.078	15211.46
448.284	14179.28
448.491	14621.64
448.697	14975.94
448.903	15449.02
449.11	15334.34
449.316	14969.8
449.522	15369.15
449.728	15793.08
449.935	16061.37
450.141	15971.25
450.347	16298.93
450.553	15770.55
450.76	15848.38
450.966	16575.41
451.172	16380.85
451.378	16815.02
451.584	16229.3
451.791	16745.39
451.997	16690.09
452.203	16767.91
452.409	16880.55
452.615	16800.68
452.821	16128.95
453.027	16085.94
453.233	16599.98
453.44	16188.34
453.646	16333.75
453.852	16503.73
454.058	16591.79
454.264	16171.96
454.47	16444.34
454.676	15911.86
454.882	16509.87
455.088	15002.57
455.294	15344.58
455.5	15313.86
455.705	15635.39
455.911	15086.53
456.117	14771.15
456.323	14525.39
456.529	13677.53
456.735	14154.71
456.941	13974.49
457.147	13708.25
457.352	13272.03
457.558	13292.51
457.764	13216.74
457.97	12940.26
458.176	12637.16
458.381	12536.81
458.587	11699.19
458.793	11666.42
458.999	11484.16
459.204	12428.27
459.41	11695.1
459.616	11027.46
459.821	10882.05
460.027	11078.66
460.233	10556.43
460.438	10226.7
460.644	10402.83
460.85	9944.08
461.055	9600.02
461.261	9704.47
461.466	9083.94
461.672	8713.25
461.878	9270.3
462.083	8911.91
462.289	8514.6
462.494	8453.16
462.7	8180.78
462.905	7742.52
463.111	8471.59
463.316	8162.35
463.522	8143.92
463.727	8062
463.932	7947.31
464.138	7904.31
464.343	8129.58
464.549	7889.97
464.754	7961.65
464.959	7986.22
465.165	7971.89
465.37	7580.73
465.575	7470.14
465.781	7533.62
465.986	7900.21
466.191	7384.12
466.397	7488.57
466.602	6939.71
466.807	7232.57
467.012	7310.4
467.218	7318.59
467.423	7220.28
467.628	7081.02
467.833	7425.08
468.038	7085.12
468.244	6954.05
468.449	7283.77
468.654	6970.43
468.859	7011.39
469.064	6769.73
469.269	6755.4
469.474	6786.12
469.679	6851.65
