Data from USB4F104151__192__13-59-25-588.txt Node

Date: Thu Mar 13 13:59:25 EDT 2025
User: louis
Spectrometer: USB4F10415
Trigger mode: 4
Integration Time (sec): 1.000000E-2
Scans to average: 1
Electric dark correction enabled: true
Nonlinearity correction enabled: false
Boxcar width: 0
XAxis mode: Wavelengths
Number of Pixels in Spectrum: 3648
>>>>>Begin Spectral Data<<<<<
178.204	-69.97
178.424	-69.97
178.644	-69.97
178.864	-69.97
179.084	-14.68
179.304	20.14
179.524	-6.49
179.744	-20.82
179.964	-14.68
180.184	52.91
180.404	-16.73
180.624	-33.11
180.844	-0.34
181.064	36.52
181.283	9.9
181.503	-24.92
181.723	-2.39
181.943	-6.49
182.163	32.43
182.383	61.1
182.602	30.38
182.822	50.86
183.042	28.33
183.262	42.67
183.482	7.85
183.701	-2.39
183.921	63.15
184.141	-12.63
184.361	-37.2
184.58	52.91
184.8	26.28
185.02	-4.44
185.239	38.57
185.459	57
185.679	63.15
185.898	-41.3
186.118	42.67
186.338	28.33
186.557	36.52
186.777	20.14
186.997	46.76
187.216	13.99
187.436	110.25
187.655	48.81
187.875	44.71
188.095	-14.68
188.314	44.71
188.534	22.19
188.753	20.14
188.973	-8.53
189.192	20.14
189.412	67.24
189.631	52.91
189.851	57
190.07	-22.87
190.29	-10.58
190.509	3.75
190.729	20.14
190.948	13.99
191.168	192.17
191.387	87.72
191.607	-63.83
191.826	20.14
192.045	13.99
192.265	-31.06
192.484	46.76
192.704	28.33
192.923	-22.87
193.142	122.54
193.362	-0.34
193.581	63.15
193.8	100.01
194.02	13.99
194.239	-31.06
194.458	-90.45
194.678	13.99
194.897	57
195.116	28.33
195.335	-6.49
195.555	3.75
195.774	52.91
195.993	20.14
196.212	28.33
196.432	38.57
196.651	28.33
196.87	-35.16
197.089	-10.58
197.308	-4.44
197.528	16.04
197.747	-0.34
197.966	26.28
198.185	32.43
198.404	20.14
198.623	67.24
198.842	46.76
199.062	1.71
199.281	67.24
199.5	28.33
199.719	71.34
199.938	44.71
200.157	-14.68
200.376	91.82
200.595	32.43
200.814	38.57
201.033	-18.77
201.252	9.9
201.471	18.09
201.69	-4.44
201.909	106.15
202.128	28.33
202.347	16.04
202.566	24.23
202.785	-45.4
203.004	7.85
203.223	-22.87
203.442	73.39
203.661	11.95
203.879	1.71
204.098	61.1
204.317	85.67
204.536	36.52
204.755	32.43
204.974	42.67
205.193	3.75
205.411	63.15
205.63	20.14
205.849	36.52
206.068	3.75
206.287	65.19
206.505	9.9
206.724	59.05
206.943	44.71
207.162	-10.58
207.381	52.91
207.599	102.06
207.818	44.71
208.037	44.71
208.255	32.43
208.474	34.47
208.693	85.67
208.911	11.95
209.13	18.09
209.349	28.33
209.567	-16.73
209.786	42.67
210.005	11.95
210.223	108.2
210.442	18.09
210.661	81.58
210.879	-14.68
211.098	30.38
211.316	13.99
211.535	18.09
211.753	-24.92
211.972	-18.77
212.191	-88.4
212.409	93.87
212.628	13.99
212.846	-6.49
213.065	75.43
213.283	34.47
213.502	9.9
213.72	-45.4
213.938	81.58
214.157	3.75
214.375	69.29
214.594	-10.58
214.812	-8.53
215.031	-12.63
215.249	20.14
215.467	-61.78
215.686	-37.2
215.904	26.28
216.122	79.53
216.341	42.67
216.559	85.67
216.778	48.81
216.996	59.05
217.214	81.58
217.432	46.76
217.651	1.71
217.869	9.9
218.087	16.04
218.306	-20.82
218.524	-20.82
218.742	44.71
218.96	50.86
219.179	77.48
219.397	16.04
219.615	63.15
219.833	52.91
220.051	48.81
220.27	67.24
220.488	-37.2
220.706	46.76
220.924	9.9
221.142	-14.68
221.36	46.76
221.578	30.38
221.796	30.38
222.015	-18.77
222.233	-33.11
222.451	73.39
222.669	-10.58
222.887	11.95
223.105	48.81
223.323	-10.58
223.541	63.15
223.759	-4.44
223.977	-26.96
224.195	-2.39
224.413	5.8
224.631	48.81
224.849	42.67
225.067	48.81
225.285	38.57
225.503	-41.3
225.721	13.99
225.939	38.57
226.157	34.47
226.375	97.96
226.592	26.28
226.81	20.14
227.028	48.81
227.246	42.67
227.464	26.28
227.682	-6.49
227.9	65.19
228.117	102.06
228.335	34.47
228.553	85.67
228.771	108.2
228.989	-2.39
229.206	87.72
229.424	11.95
229.642	38.57
229.86	3.75
230.077	48.81
230.295	-33.11
230.513	89.77
230.731	67.24
230.948	20.14
231.166	22.19
231.384	30.38
231.601	-14.68
231.819	22.19
232.037	-22.87
232.254	61.1
232.472	77.48
232.689	1.71
232.907	9.9
233.125	-6.49
233.342	26.28
233.56	100.01
233.777	48.81
233.995	18.09
234.213	40.62
234.43	65.19
234.648	24.23
234.865	3.75
235.083	34.47
235.3	32.43
235.518	71.34
235.735	61.1
235.953	100.01
236.17	38.57
236.388	-84.31
236.605	106.15
236.822	36.52
237.04	-47.44
237.257	16.04
237.475	75.43
237.692	91.82
237.909	-2.39
238.127	5.8
238.344	1.71
238.562	42.67
238.779	-14.68
238.996	-43.35
239.214	40.62
239.431	106.15
239.648	75.43
239.865	91.82
240.083	63.15
240.3	69.29
240.517	-12.63
240.735	48.81
240.952	13.99
241.169	100.01
241.386	42.67
241.603	20.14
241.821	75.43
242.038	-6.49
242.255	-14.68
242.472	11.95
242.689	20.14
242.907	71.34
243.124	46.76
243.341	63.15
243.558	48.81
243.775	3.75
243.992	3.75
244.209	46.76
244.426	22.19
244.643	50.86
244.86	-4.44
245.078	73.39
245.295	30.38
245.512	24.23
245.729	18.09
245.946	71.34
246.163	104.11
246.38	61.1
246.597	65.19
246.814	28.33
247.031	13.99
247.248	38.57
247.464	-12.63
247.681	-6.49
247.898	93.87
248.115	34.47
248.332	-47.44
248.549	93.87
248.766	11.95
248.983	128.68
249.2	110.25
249.417	5.8
249.633	20.14
249.85	34.47
250.067	-63.83
250.284	42.67
250.501	-10.58
250.717	30.38
250.934	13.99
251.151	20.14
251.368	-0.34
251.585	36.52
251.801	54.95
252.018	13.99
252.235	20.14
252.451	59.05
252.668	-18.77
252.885	26.28
253.102	13.99
253.318	26.28
253.535	106.15
253.752	36.52
253.968	40.62
254.185	18.09
254.401	7.85
254.618	93.87
254.835	79.53
255.051	28.33
255.268	61.1
255.484	20.14
255.701	65.19
255.917	67.24
256.134	95.91
256.351	42.67
256.567	20.14
256.784	-18.77
257	16.04
257.217	116.39
257.433	91.82
257.65	11.95
257.866	102.06
258.082	50.86
258.299	83.63
258.515	85.67
258.732	13.99
258.948	-22.87
259.165	63.15
259.381	5.8
259.597	-2.39
259.814	-45.4
260.03	-39.25
260.246	1.71
260.463	67.24
260.679	18.09
260.895	54.95
261.112	24.23
261.328	5.8
261.544	87.72
261.761	81.58
261.977	50.86
262.193	50.86
262.409	11.95
262.626	20.14
262.842	-10.58
263.058	65.19
263.274	-43.35
263.49	-6.49
263.707	116.39
263.923	71.34
264.139	3.75
264.355	-2.39
264.571	42.67
264.787	85.67
265.004	36.52
265.22	40.62
265.436	18.09
265.652	-0.34
265.868	-18.77
266.084	93.87
266.3	42.67
266.516	75.43
266.732	48.81
266.948	79.53
267.164	9.9
267.38	38.57
267.596	91.82
267.812	40.62
268.028	75.43
268.244	89.77
268.46	52.91
268.676	-78.16
268.892	52.91
269.108	16.04
269.324	11.95
269.54	3.75
269.756	28.33
269.972	44.71
270.188	38.57
270.403	9.9
270.619	36.52
270.835	67.24
271.051	48.81
271.267	50.86
271.483	69.29
271.698	77.48
271.914	30.38
272.13	34.47
272.346	-22.87
272.562	40.62
272.777	89.77
272.993	42.67
273.209	83.63
273.425	81.58
273.64	3.75
273.856	71.34
274.072	-2.39
274.287	-39.25
274.503	83.63
274.719	50.86
274.934	71.34
275.15	87.72
275.366	79.53
275.581	5.8
275.797	97.96
276.012	7.85
276.228	65.19
276.444	3.75
276.659	20.14
276.875	-6.49
277.09	34.47
277.306	67.24
277.521	11.95
277.737	-14.68
277.952	50.86
278.168	36.52
278.383	-24.92
278.599	44.71
278.814	65.19
279.03	59.05
279.245	9.9
279.461	57
279.676	57
279.892	36.52
280.107	100.01
280.322	63.15
280.538	3.75
280.753	36.52
280.969	106.15
281.184	1.71
281.399	57
281.615	-35.16
281.83	20.14
282.045	44.71
282.26	3.75
282.476	5.8
282.691	30.38
282.906	-10.58
283.122	-0.34
283.337	42.67
283.552	5.8
283.767	20.14
283.983	93.87
284.198	-39.25
284.413	38.57
284.628	1.71
284.843	77.48
285.058	100.01
285.274	32.43
285.489	108.2
285.704	100.01
285.919	-0.34
286.134	63.15
286.349	-6.49
286.564	75.43
286.779	81.58
286.995	38.57
287.21	32.43
287.425	42.67
287.64	104.11
287.855	120.49
288.07	44.71
288.285	-0.34
288.5	48.81
288.715	22.19
288.93	20.14
289.145	71.34
289.36	11.95
289.575	67.24
289.79	79.53
290.004	-14.68
290.219	16.04
290.434	16.04
290.649	112.3
290.864	91.82
291.079	46.76
291.294	42.67
291.509	44.71
291.724	97.96
291.938	3.75
292.153	-24.92
292.368	87.72
292.583	34.47
292.798	36.52
293.012	65.19
293.227	38.57
293.442	26.28
293.657	93.87
293.871	30.38
294.086	81.58
294.301	85.67
294.516	63.15
294.73	57
294.945	38.57
295.16	57
295.374	9.9
295.589	34.47
295.804	-0.34
296.018	65.19
296.233	26.28
296.447	38.57
296.662	85.67
296.877	83.63
297.091	40.62
297.306	50.86
297.52	50.86
297.735	52.91
297.949	116.39
298.164	83.63
298.378	9.9
298.593	50.86
298.807	59.05
299.022	73.39
299.236	32.43
299.451	38.57
299.665	97.96
299.88	9.9
300.094	38.57
300.309	3.75
300.523	11.95
300.737	57
300.952	54.95
301.166	73.39
301.381	24.23
301.595	126.63
301.809	36.52
302.024	1.71
302.238	73.39
302.452	20.14
302.667	44.71
302.881	1.71
303.095	36.52
303.309	11.95
303.524	69.29
303.738	63.15
303.952	22.19
304.166	36.52
304.381	50.86
304.595	34.47
304.809	11.95
305.023	59.05
305.237	34.47
305.452	69.29
305.666	124.58
305.88	38.57
306.094	-14.68
306.308	11.95
306.522	36.52
306.736	61.1
306.95	57
307.164	22.19
307.379	22.19
307.593	44.71
307.807	36.52
308.021	110.25
308.235	79.53
308.449	71.34
308.663	48.81
308.877	9.9
309.091	28.33
309.305	20.14
309.519	46.76
309.733	69.29
309.947	-8.53
310.161	108.2
310.374	-12.63
310.588	134.82
310.802	81.58
311.016	11.95
311.23	50.86
311.444	13.99
311.658	69.29
311.872	83.63
312.085	67.24
312.299	75.43
312.513	36.52
312.727	124.58
312.941	52.91
313.154	13.99
313.368	44.71
313.582	112.3
313.796	13.99
314.009	73.39
314.223	28.33
314.437	3.75
314.651	-6.49
314.864	40.62
315.078	46.76
315.292	69.29
315.505	-4.44
315.719	-31.06
315.933	30.38
316.146	38.57
316.36	42.67
316.573	48.81
316.787	-20.82
317.001	34.47
317.214	52.91
317.428	100.01
317.641	36.52
317.855	108.2
318.068	71.34
318.282	118.44
318.495	75.43
318.709	22.19
318.922	26.28
319.136	52.91
319.349	11.95
319.563	24.23
319.776	-2.39
319.99	61.1
320.203	9.9
320.417	11.95
320.63	-8.53
320.843	85.67
321.057	102.06
321.27	77.48
321.483	32.43
321.697	9.9
321.91	85.67
322.124	100.01
322.337	38.57
322.55	50.86
322.763	54.95
322.977	-2.39
323.19	18.09
323.403	95.91
323.617	36.52
323.83	-6.49
324.043	18.09
324.256	91.82
324.469	-76.12
324.683	30.38
324.896	42.67
325.109	73.39
325.322	-10.58
325.535	5.8
325.748	48.81
325.962	36.52
326.175	18.09
326.388	89.77
326.601	42.67
326.814	50.86
327.027	30.38
327.24	100.01
327.453	20.14
327.666	61.1
327.879	95.91
328.092	95.91
328.305	59.05
328.518	-4.44
328.731	-8.53
328.944	67.24
329.157	75.43
329.37	69.29
329.583	104.11
329.796	13.99
330.009	-35.16
330.222	52.91
330.435	30.38
330.648	81.58
330.861	50.86
331.073	106.15
331.286	91.82
331.499	52.91
331.712	26.28
331.925	77.48
332.138	50.86
332.35	85.67
332.563	63.15
332.776	-18.77
332.989	167.59
333.202	81.58
333.414	63.15
333.627	1.71
333.84	44.71
334.053	36.52
334.265	9.9
334.478	42.67
334.691	69.29
334.903	108.2
335.116	40.62
335.329	40.62
335.541	77.48
335.754	-22.87
335.966	79.53
336.179	89.77
336.392	69.29
336.604	83.63
336.817	20.14
337.029	-59.73
337.242	100.01
337.454	-2.39
337.667	22.19
337.88	116.39
338.092	30.38
338.305	100.01
338.517	67.24
338.729	108.2
338.942	44.71
339.154	42.67
339.367	38.57
339.579	54.95
339.792	26.28
340.004	89.77
340.217	-22.87
340.429	-37.2
340.641	36.52
340.854	50.86
341.066	52.91
341.278	100.01
341.491	42.67
341.703	124.58
341.915	65.19
342.128	81.58
342.34	59.05
342.552	67.24
342.764	63.15
342.977	32.43
343.189	93.87
343.401	18.09
343.613	-22.87
343.826	65.19
344.038	13.99
344.25	30.38
344.462	26.28
344.674	134.82
344.886	59.05
345.099	44.71
345.311	40.62
345.523	81.58
345.735	-24.92
345.947	59.05
346.159	61.1
346.371	69.29
346.583	63.15
346.795	69.29
347.007	18.09
347.219	42.67
347.431	54.95
347.643	-6.49
347.855	52.91
348.067	28.33
348.279	9.9
348.491	18.09
348.703	28.33
348.915	124.58
349.127	89.77
349.339	30.38
349.551	22.19
349.763	9.9
349.975	34.47
350.187	130.73
350.399	63.15
350.61	61.1
350.822	50.86
351.034	61.1
351.246	57
351.458	85.67
351.669	93.87
351.881	48.81
352.093	124.58
352.305	-12.63
352.517	34.47
352.728	79.53
352.94	116.39
353.152	110.25
353.363	24.23
353.575	69.29
353.787	102.06
353.999	95.91
354.21	71.34
354.422	24.23
354.633	28.33
354.845	73.39
355.057	34.47
355.268	48.81
355.48	3.75
355.692	24.23
355.903	26.28
356.115	-12.63
356.326	91.82
356.538	120.49
356.749	46.76
356.961	59.05
357.172	79.53
357.384	18.09
357.595	83.63
357.807	-16.73
358.018	67.24
358.23	46.76
358.441	81.58
358.653	38.57
358.864	83.63
359.075	57
359.287	73.39
359.498	9.9
359.709	57
359.921	77.48
360.132	36.52
360.344	69.29
360.555	-12.63
360.766	5.8
360.977	28.33
361.189	67.24
361.4	61.1
361.611	75.43
361.823	52.91
362.034	63.15
362.245	3.75
362.456	67.24
362.667	65.19
362.879	100.01
363.09	52.91
363.301	61.1
363.512	54.95
363.723	18.09
363.935	3.75
364.146	126.63
364.357	50.86
364.568	110.25
364.779	20.14
364.99	106.15
365.201	83.63
365.412	-24.92
365.623	61.1
365.834	167.59
366.045	83.63
366.256	52.91
366.467	50.86
366.678	63.15
366.889	75.43
367.1	77.48
367.311	50.86
367.522	85.67
367.733	100.01
367.944	108.2
368.155	89.77
368.366	75.43
368.577	40.62
368.788	91.82
368.999	-10.58
369.209	44.71
369.42	114.34
369.631	75.43
369.842	50.86
370.053	102.06
370.264	30.38
370.474	79.53
370.685	57
370.896	-22.87
371.107	30.38
371.317	71.34
371.528	36.52
371.739	28.33
371.95	79.53
372.16	48.81
372.371	50.86
372.582	75.43
372.792	110.25
373.003	50.86
373.214	20.14
373.424	65.19
373.635	9.9
373.846	30.38
374.056	93.87
374.267	91.82
374.477	61.1
374.688	126.63
374.898	38.57
375.109	159.4
375.319	134.82
375.53	61.1
375.74	93.87
375.951	44.71
376.161	54.95
376.372	85.67
376.582	57
376.793	110.25
377.003	95.91
377.214	-2.39
377.424	-2.39
377.635	87.72
377.845	120.49
378.055	102.06
378.266	77.48
378.476	100.01
378.686	108.2
378.897	116.39
379.107	140.97
379.317	157.35
379.528	69.29
379.738	59.05
379.948	71.34
380.158	42.67
380.369	106.15
380.579	44.71
380.789	20.14
380.999	75.43
381.21	59.05
381.42	87.72
381.63	46.76
381.84	63.15
382.05	116.39
382.261	30.38
382.471	95.91
382.681	163.5
382.891	106.15
383.101	102.06
383.311	34.47
383.521	69.29
383.731	63.15
383.941	143.02
384.151	89.77
384.361	38.57
384.571	108.2
384.781	93.87
384.991	140.97
385.201	67.24
385.411	95.91
385.621	140.97
385.831	13.99
386.041	110.25
386.251	102.06
386.461	110.25
386.671	69.29
386.881	75.43
387.091	118.44
387.301	46.76
387.511	59.05
387.72	26.28
387.93	106.15
388.14	85.67
388.35	20.14
388.56	36.52
388.769	79.53
388.979	57
389.189	52.91
389.399	79.53
389.609	69.29
389.818	149.16
390.028	106.15
390.238	81.58
390.447	91.82
390.657	83.63
390.867	34.47
391.076	34.47
391.286	81.58
391.496	50.86
391.705	130.73
391.915	112.3
392.125	104.11
392.334	52.91
392.544	42.67
392.753	83.63
392.963	102.06
393.172	57
393.382	65.19
393.591	24.23
393.801	118.44
394.01	126.63
394.22	48.81
394.429	20.14
394.639	42.67
394.848	140.97
395.058	116.39
395.267	106.15
395.477	61.1
395.686	124.58
395.895	206.5
396.105	106.15
396.314	93.87
396.524	136.87
396.733	126.63
396.942	175.78
397.152	95.91
397.361	116.39
397.57	63.15
397.78	93.87
397.989	63.15
398.198	190.12
398.407	102.06
398.617	126.63
398.826	81.58
399.035	147.11
399.244	161.45
399.453	161.45
399.663	106.15
399.872	104.11
400.081	108.2
400.29	140.97
400.499	102.06
400.708	128.68
400.917	151.21
401.127	140.97
401.336	97.96
401.545	159.4
401.754	188.07
401.963	218.79
402.172	183.98
402.381	71.34
402.59	44.71
402.799	44.71
403.008	116.39
403.217	188.07
403.426	124.58
403.635	126.63
403.844	161.45
404.053	102.06
404.262	140.97
404.471	161.45
404.68	145.06
404.888	179.88
405.097	124.58
405.306	153.26
405.515	132.78
405.724	196.26
405.933	198.31
406.142	190.12
406.35	216.74
406.559	220.84
406.768	159.4
406.977	247.46
407.185	249.51
407.394	181.93
407.603	163.5
407.812	220.84
408.02	200.36
408.229	304.81
408.438	247.46
408.646	292.52
408.855	315.05
409.064	308.9
409.272	259.75
409.481	390.82
409.69	278.18
409.898	347.81
410.107	394.92
410.315	376.48
410.524	405.16
410.733	347.81
410.941	396.96
411.15	429.73
411.358	423.59
411.567	452.26
411.775	384.68
411.984	476.84
412.192	472.74
412.401	456.36
412.609	517.79
412.818	513.7
413.026	468.64
413.234	589.47
413.443	540.32
413.651	642.72
413.86	568.99
414.068	622.24
414.276	614.05
414.485	655.01
414.693	644.77
414.901	738.98
415.11	784.03
415.318	806.56
415.526	800.41
415.734	816.8
415.943	921.24
416.151	820.89
416.359	882.33
416.567	951.96
416.776	992.92
416.984	978.59
417.192	982.68
417.4	970.4
417.608	1033.88
417.817	1015.45
418.025	1246.87
418.233	1207.96
418.441	1207.96
418.649	1246.87
418.857	1281.69
419.065	1349.27
419.273	1341.08
419.481	1371.8
419.689	1488.53
419.897	1623.7
420.105	1513.11
420.313	1656.47
420.521	1642.13
420.729	1691.28
420.937	1715.86
421.145	1754.77
421.353	1887.89
421.561	1900.17
421.769	1945.23
421.977	2102.92
422.185	2025.1
422.393	2299.53
422.601	2365.06
422.809	2358.92
423.017	2311.82
423.224	2549.38
423.432	2518.66
423.64	2573.96
423.848	2760.32
424.056	2741.89
424.263	3016.32
424.471	2885.25
424.679	3040.89
424.887	3143.29
425.094	3122.81
425.302	3317.37
425.51	3401.33
425.718	3509.88
425.925	3509.88
426.133	3745.39
426.341	3827.31
426.548	4044.4
426.756	4103.79
426.964	4083.31
427.171	4378.22
427.379	4453.99
427.586	4378.22
427.794	4646.5
428.001	4660.84
428.209	5015.13
428.417	5156.44
428.624	5332.57
428.832	5412.44
429.039	5228.12
429.247	5326.43
429.454	5893.71
429.662	6245.96
429.869	5936.72
430.076	6196.81
430.284	5940.82
430.491	6321.74
430.699	6694.47
430.906	6530.63
431.114	6764.1
431.321	6837.83
431.528	7079.49
431.736	7601.72
431.943	7812.66
432.15	7716.4
432.358	7654.97
432.565	8185.39
432.772	8304.17
432.979	8472.11
433.187	8594.98
433.394	8850.98
433.601	9295.39
433.808	9281.05
434.016	9258.53
434.223	9661.98
434.43	10216.97
434.637	10085.9
434.844	10819.08
435.052	10864.13
435.259	10931.72
435.466	10997.25
435.673	10745.35
435.88	11537.91
436.087	12242.42
436.294	12125.68
436.501	11849.21
436.708	12092.91
436.915	12600.81
437.122	13125.09
437.329	13123.04
437.537	13524.44
437.743	13925.85
437.95	13315.55
438.157	14198.23
438.364	14759.37
438.571	14966.21
438.778	14646.73
438.985	16020.92
439.192	15533.5
439.399	15883.7
439.606	15689.15
439.813	16510.38
440.02	17542.56
440.227	17368.48
440.433	17182.12
440.64	17618.33
440.847	17360.29
441.054	18021.78
441.261	18961.8
441.467	18906.51
441.674	19133.83
441.881	20139.38
442.088	20153.72
442.294	19684.73
442.501	20178.29
442.708	20671.86
442.914	21665.12
443.121	22340.95
443.328	21550.43
443.534	23383.37
443.741	22861.13
443.948	21984.6
444.154	23981.37
444.361	23614.79
444.568	24022.33
444.774	23907.65
444.981	24423.73
445.187	24874.29
445.394	26066.2
445.6	25728.29
445.807	28257.53
446.013	27061.52
446.22	27499.78
446.426	28531.96
446.633	28794.1
446.839	29574.38
447.046	28529.91
447.252	30321.88
447.459	30229.73
447.665	29928.67
447.871	31190.22
448.078	32801.97
448.284	31016.15
448.491	32017.6
448.697	33096.88
448.903	33576.11
449.11	33875.11
449.316	33354.93
449.522	33950.88
449.728	34575.52
449.935	34862.23
450.141	35107.99
450.347	35638.41
450.553	34581.66
450.76	35075.22
450.966	36420.73
451.172	35761.29
451.378	36785.27
451.584	35697.8
451.791	37069.94
451.997	36451.45
452.203	37297.27
452.409	37524.59
452.615	37125.24
452.821	35644.55
453.027	35226.77
453.233	37160.05
453.44	35755.15
453.646	36109.44
453.852	36320.38
454.058	36605.05
454.264	35652.75
454.47	36324.48
454.676	35589.26
454.882	37065.85
455.088	33725.61
455.294	33944.74
455.5	34301.09
455.705	35024.02
455.911	33514.67
456.117	32779.45
456.323	32433.34
456.529	31210.7
456.735	32246.97
456.941	31200.46
457.147	30610.65
457.352	29818.08
457.558	29689.06
457.764	29789.41
457.97	28992.75
458.176	28478.71
458.381	28644.6
458.587	27028.75
458.793	27032.85
458.999	25386.28
459.204	27747.59
459.41	26776.85
459.616	25001.26
459.821	25247.02
460.027	24743.22
460.233	24513.84
460.438	23661.89
460.644	23485.76
460.85	22642
461.055	22025.56
461.261	21894.49
461.466	20569.46
461.672	19850.62
461.878	21206.38
462.083	19914.11
462.289	19778.94
462.494	19572.1
462.7	18529.68
462.905	18204.05
463.111	18668.94
463.316	18838.92
463.522	18519.44
463.727	18255.25
463.932	18232.72
464.138	18564.5
464.343	18275.73
464.549	17622.43
464.754	18228.63
464.959	18181.53
465.165	17724.83
465.37	17511.84
465.575	16627.12
465.781	17763.74
465.986	17485.22
466.191	16922.02
466.397	16530.86
466.602	15828.41
466.807	16205.24
467.012	16549.29
467.218	16336.31
467.423	16192.95
467.628	16401.84
