Data from USB4F104151__152__13-58-34-714.txt Node

Date: Thu Mar 13 13:58:34 EDT 2025
User: louis
Spectrometer: USB4F10415
Trigger mode: 4
Integration Time (sec): 1.000000E-2
Scans to average: 1
Electric dark correction enabled: true
Nonlinearity correction enabled: false
Boxcar width: 0
XAxis mode: Wavelengths
Number of Pixels in Spectrum: 3648
>>>>>Begin Spectral Data<<<<<
178.204	-56.83
178.424	-56.83
178.644	-56.83
178.864	-26.11
179.084	-13.82
179.304	-5.63
179.524	14.85
179.744	-38.4
179.964	-52.74
180.184	-15.87
180.404	45.57
180.624	-32.26
180.844	-22.02
181.064	39.42
181.283	10.75
181.503	2.56
181.723	53.76
181.943	-34.3
182.163	59.9
182.383	51.71
182.602	61.95
182.822	-11.78
183.042	55.81
183.262	14.85
183.482	-7.68
183.701	-48.64
183.921	43.52
184.141	96.77
184.361	2.56
184.58	-1.54
184.8	29.18
185.02	-1.54
185.239	80.38
185.459	29.18
185.679	-52.74
185.898	0.51
186.118	37.38
186.338	-22.02
186.557	0.51
186.777	-13.82
186.997	27.14
187.216	6.66
187.436	55.81
187.655	47.62
187.875	49.66
188.095	-5.63
188.314	86.53
188.534	55.81
188.753	-5.63
188.973	14.85
189.192	78.33
189.412	47.62
189.631	23.04
189.851	2.56
190.07	27.14
190.29	61.95
190.509	86.53
190.729	-42.5
190.948	-38.4
191.168	-34.3
191.387	104.96
191.607	31.23
191.826	70.14
192.045	-1.54
192.265	47.62
192.484	31.23
192.704	4.61
192.923	12.8
193.142	78.33
193.362	45.57
193.581	45.57
193.8	-13.82
194.02	-9.73
194.239	4.61
194.458	61.95
194.678	45.57
194.897	68.09
195.116	-34.3
195.335	-9.73
195.555	43.52
195.774	35.33
195.993	-5.63
196.212	113.15
196.432	55.81
196.651	59.9
196.87	27.14
197.089	57.86
197.308	-1.54
197.528	0.51
197.747	-9.73
197.966	31.23
198.185	59.9
198.404	90.62
198.623	51.71
198.842	14.85
199.062	61.95
199.281	31.23
199.5	37.38
199.719	-17.92
199.938	29.18
200.157	-22.02
200.376	55.81
200.595	-26.11
200.814	-9.73
201.033	37.38
201.252	47.62
201.471	6.66
201.69	-3.58
201.909	-9.73
202.128	18.94
202.347	94.72
202.566	12.8
202.785	-24.06
203.004	31.23
203.223	25.09
203.442	-26.11
203.661	113.15
203.879	-40.45
204.098	29.18
204.317	39.42
204.536	86.53
204.755	57.86
204.974	14.85
205.193	18.94
205.411	37.38
205.63	64
205.849	10.75
206.068	8.7
206.287	-5.63
206.505	-3.58
206.724	-13.82
206.943	8.7
207.162	14.85
207.381	100.86
207.599	-13.82
207.818	43.52
208.037	14.85
208.255	-13.82
208.474	-46.59
208.693	45.57
208.911	23.04
209.13	-15.87
209.349	-1.54
209.567	39.42
209.786	12.8
210.005	74.24
210.223	96.77
210.442	14.85
210.661	18.94
210.879	35.33
211.098	-9.73
211.316	86.53
211.535	37.38
211.753	39.42
211.972	29.18
212.191	53.76
212.409	27.14
212.628	-11.78
212.846	68.09
213.065	4.61
213.283	82.43
213.502	37.38
213.72	-3.58
213.938	29.18
214.157	139.77
214.375	-34.3
214.594	2.56
214.812	-5.63
215.031	45.57
215.249	6.66
215.467	70.14
215.686	4.61
215.904	43.52
216.122	0.51
216.341	78.33
216.559	-34.3
216.778	70.14
216.996	59.9
217.214	29.18
217.432	-22.02
217.651	27.14
217.869	59.9
218.087	55.81
218.306	14.85
218.524	33.28
218.742	-30.21
218.96	-13.82
219.179	29.18
219.397	-1.54
219.615	-28.16
219.833	25.09
220.051	-22.02
220.27	88.57
220.488	49.66
220.706	-7.68
220.924	10.75
221.142	6.66
221.36	-3.58
221.578	78.33
221.796	-69.12
222.015	27.14
222.233	104.96
222.451	61.95
222.669	37.38
222.887	10.75
223.105	23.04
223.323	45.57
223.541	37.38
223.759	27.14
223.977	-26.11
224.195	-11.78
224.413	20.99
224.631	39.42
224.849	43.52
225.067	66.05
225.285	35.33
225.503	18.94
225.721	49.66
225.939	-32.26
226.157	10.75
226.375	59.9
226.592	-1.54
226.81	-65.02
227.028	86.53
227.246	-1.54
227.464	47.62
227.682	55.81
227.9	20.99
228.117	37.38
228.335	37.38
228.553	8.7
228.771	23.04
228.989	45.57
229.206	10.75
229.424	94.72
229.642	0.51
229.86	10.75
230.077	-11.78
230.295	-15.87
230.513	49.66
230.731	10.75
230.948	47.62
231.166	37.38
231.384	-13.82
231.601	-5.63
231.819	68.09
232.037	41.47
232.254	78.33
232.472	45.57
232.689	47.62
232.907	-17.92
233.125	29.18
233.342	53.76
233.56	10.75
233.777	18.94
233.995	61.95
234.213	-46.59
234.43	57.86
234.648	45.57
234.865	29.18
235.083	57.86
235.3	51.71
235.518	4.61
235.735	49.66
235.953	37.38
236.17	-67.07
236.388	6.66
236.605	18.94
236.822	18.94
237.04	45.57
237.257	43.52
237.475	16.9
237.692	53.76
237.909	74.24
238.127	31.23
238.344	41.47
238.562	78.33
238.779	-15.87
238.996	33.28
239.214	51.71
239.431	10.75
239.648	-22.02
239.865	14.85
240.083	20.99
240.3	68.09
240.517	68.09
240.735	43.52
240.952	18.94
241.169	2.56
241.386	20.99
241.603	64
241.821	64
242.038	-5.63
242.255	61.95
242.472	76.29
242.689	68.09
242.907	88.57
243.124	53.76
243.341	70.14
243.558	18.94
243.775	53.76
243.992	-22.02
244.209	-5.63
244.426	-7.68
244.643	23.04
244.86	55.81
245.078	113.15
245.295	45.57
245.512	82.43
245.729	23.04
245.946	-7.68
246.163	43.52
246.38	72.19
246.597	8.7
246.814	0.51
247.031	53.76
247.248	43.52
247.464	14.85
247.681	92.67
247.898	78.33
248.115	80.38
248.332	16.9
248.549	4.61
248.766	18.94
248.983	10.75
249.2	-11.78
249.417	2.56
249.633	18.94
249.85	86.53
250.067	-13.82
250.284	-3.58
250.501	6.66
250.717	70.14
250.934	-11.78
251.151	37.38
251.368	-13.82
251.585	20.99
251.801	-13.82
252.018	31.23
252.235	76.29
252.451	53.76
252.668	35.33
252.885	43.52
253.102	23.04
253.318	27.14
253.535	23.04
253.752	53.76
253.968	-7.68
254.185	-34.3
254.401	57.86
254.618	8.7
254.835	-7.68
255.051	59.9
255.268	-9.73
255.484	37.38
255.701	59.9
255.917	27.14
256.134	41.47
256.351	86.53
256.567	20.99
256.784	29.18
257	27.14
257.217	12.8
257.433	47.62
257.65	57.86
257.866	-52.74
258.082	8.7
258.299	2.56
258.515	12.8
258.732	74.24
258.948	-30.21
259.165	49.66
259.381	41.47
259.597	2.56
259.814	74.24
260.03	39.42
260.246	96.77
260.463	111.1
260.679	35.33
260.895	59.9
261.112	8.7
261.328	-34.3
261.544	47.62
261.761	86.53
261.977	43.52
262.193	-38.4
262.409	53.76
262.626	51.71
262.842	53.76
263.058	4.61
263.274	66.05
263.49	27.14
263.707	98.81
263.923	12.8
264.139	-7.68
264.355	31.23
264.571	68.09
264.787	84.48
265.004	41.47
265.22	51.71
265.436	23.04
265.652	45.57
265.868	49.66
266.084	64
266.3	107.01
266.516	76.29
266.732	53.76
266.948	-9.73
267.164	41.47
267.38	-1.54
267.596	43.52
267.812	129.53
268.028	-1.54
268.244	-32.26
268.46	111.1
268.676	2.56
268.892	59.9
269.108	4.61
269.324	51.71
269.54	-7.68
269.756	37.38
269.972	16.9
270.188	12.8
270.403	23.04
270.619	72.19
270.835	53.76
271.051	-5.63
271.267	53.76
271.483	2.56
271.698	84.48
271.914	49.66
272.13	14.85
272.346	27.14
272.562	-9.73
272.777	104.96
272.993	-13.82
273.209	37.38
273.425	20.99
273.64	51.71
273.856	57.86
274.072	33.28
274.287	49.66
274.503	41.47
274.719	-3.58
274.934	16.9
275.15	-11.78
275.366	47.62
275.581	18.94
275.797	14.85
276.012	-1.54
276.228	-7.68
276.444	35.33
276.659	72.19
276.875	23.04
277.09	47.62
277.306	37.38
277.521	68.09
277.737	6.66
277.952	92.67
278.168	23.04
278.383	20.99
278.599	27.14
278.814	27.14
279.03	20.99
279.245	23.04
279.461	-15.87
279.676	18.94
279.892	-32.26
280.107	41.47
280.322	-36.35
280.538	59.9
280.753	-5.63
280.969	127.49
281.184	-46.59
281.399	96.77
281.615	2.56
281.83	61.95
282.045	0.51
282.26	94.72
282.476	20.99
282.691	27.14
282.906	20.99
283.122	51.71
283.337	8.7
283.552	43.52
283.767	-9.73
283.983	12.8
284.198	84.48
284.413	18.94
284.628	2.56
284.843	16.9
285.058	43.52
285.274	2.56
285.489	45.57
285.704	45.57
285.919	39.42
286.134	68.09
286.349	45.57
286.564	33.28
286.779	-3.58
286.995	-5.63
287.21	-34.3
287.425	8.7
287.64	39.42
287.855	-36.35
288.07	53.76
288.285	-13.82
288.5	31.23
288.715	27.14
288.93	-34.3
289.145	27.14
289.36	92.67
289.575	6.66
289.79	47.62
290.004	-15.87
290.219	61.95
290.434	45.57
290.649	-1.54
290.864	66.05
291.079	64
291.294	-15.87
291.509	72.19
291.724	70.14
291.938	43.52
292.153	64
292.368	33.28
292.583	51.71
292.798	-108.03
293.012	0.51
293.227	2.56
293.442	113.15
293.657	29.18
293.871	74.24
294.086	6.66
294.301	41.47
294.516	2.56
294.73	37.38
294.945	86.53
295.16	96.77
295.374	37.38
295.589	102.91
295.804	31.23
296.018	27.14
296.233	23.04
296.447	20.99
296.662	-19.97
296.877	-15.87
297.091	-26.11
297.306	92.67
297.52	33.28
297.735	88.57
297.949	37.38
298.164	-19.97
298.378	43.52
298.593	76.29
298.807	27.14
299.022	74.24
299.236	4.61
299.451	51.71
299.665	39.42
299.88	18.94
300.094	125.44
300.309	92.67
300.523	66.05
300.737	51.71
300.952	39.42
301.166	37.38
301.381	37.38
301.595	78.33
301.809	39.42
302.024	29.18
302.238	84.48
302.452	41.47
302.667	41.47
302.881	59.9
303.095	23.04
303.309	47.62
303.524	70.14
303.738	86.53
303.952	-34.3
304.166	57.86
304.381	27.14
304.595	39.42
304.809	25.09
305.023	29.18
305.237	-30.21
305.452	-48.64
305.666	55.81
305.88	76.29
306.094	115.2
306.308	10.75
306.522	74.24
306.736	10.75
306.95	80.38
307.164	64
307.379	20.99
307.593	51.71
307.807	51.71
308.021	31.23
308.235	31.23
308.449	72.19
308.663	4.61
308.877	35.33
309.091	31.23
309.305	-7.68
309.519	14.85
309.733	100.86
309.947	57.86
310.161	-13.82
310.374	10.75
310.588	68.09
310.802	41.47
311.016	47.62
311.23	20.99
311.444	16.9
311.658	43.52
311.872	-42.5
312.085	37.38
312.299	125.44
312.513	84.48
312.727	68.09
312.941	14.85
313.154	14.85
313.368	113.15
313.582	-1.54
313.796	20.99
314.009	10.75
314.223	20.99
314.437	6.66
314.651	-3.58
314.864	51.71
315.078	76.29
315.292	41.47
315.505	23.04
315.719	55.81
315.933	76.29
316.146	107.01
316.36	72.19
316.573	61.95
316.787	16.9
317.001	33.28
317.214	12.8
317.428	55.81
317.641	18.94
317.855	-13.82
318.068	-11.78
318.282	98.81
318.495	23.04
318.709	98.81
318.922	35.33
319.136	47.62
319.349	37.38
319.563	-1.54
319.776	94.72
319.99	18.94
320.203	33.28
320.417	-9.73
320.63	12.8
320.843	35.33
321.057	84.48
321.27	37.38
321.483	53.76
321.697	117.25
321.91	14.85
322.124	-9.73
322.337	43.52
322.55	23.04
322.763	51.71
322.977	59.9
323.19	61.95
323.403	2.56
323.617	23.04
323.83	37.38
324.043	64
324.256	53.76
324.469	-11.78
324.683	25.09
324.896	-3.58
325.109	31.23
325.322	2.56
325.535	68.09
325.748	94.72
325.962	-13.82
326.175	-17.92
326.388	82.43
326.601	35.33
326.814	33.28
327.027	45.57
327.24	35.33
327.453	-28.16
327.666	47.62
327.879	64
328.092	10.75
328.305	61.95
328.518	86.53
328.731	12.8
328.944	80.38
329.157	27.14
329.37	72.19
329.583	70.14
329.796	33.28
330.009	-19.97
330.222	31.23
330.435	53.76
330.648	-42.5
330.861	4.61
331.073	51.71
331.286	45.57
331.499	76.29
331.712	10.75
331.925	90.62
332.138	68.09
332.35	94.72
332.563	53.76
332.776	39.42
332.989	55.81
333.202	127.49
333.414	59.9
333.627	59.9
333.84	-32.26
334.053	35.33
334.265	4.61
334.478	27.14
334.691	-28.16
334.903	84.48
335.116	25.09
335.329	33.28
335.541	53.76
335.754	-13.82
335.966	-9.73
336.179	18.94
336.392	8.7
336.604	43.52
336.817	84.48
337.029	6.66
337.242	14.85
337.454	80.38
337.667	70.14
337.88	59.9
338.092	74.24
338.305	14.85
338.517	6.66
338.729	113.15
338.942	43.52
339.154	10.75
339.367	-44.54
339.579	37.38
339.792	27.14
340.004	25.09
340.217	23.04
340.429	59.9
340.641	39.42
340.854	10.75
341.066	113.15
341.278	27.14
341.491	84.48
341.703	29.18
341.915	-9.73
342.128	82.43
342.34	84.48
342.552	41.47
342.764	88.57
342.977	-54.78
343.189	94.72
343.401	45.57
343.613	12.8
343.826	14.85
344.038	-22.02
344.25	64
344.462	2.56
344.674	12.8
344.886	27.14
345.099	55.81
345.311	37.38
345.523	53.76
345.735	-46.59
345.947	16.9
346.159	55.81
346.371	59.9
346.583	2.56
346.795	57.86
347.007	23.04
347.219	80.38
347.431	82.43
347.643	41.47
347.855	-9.73
348.067	41.47
348.279	39.42
348.491	31.23
348.703	-22.02
348.915	31.23
349.127	-3.58
349.339	92.67
349.551	74.24
349.763	76.29
349.975	10.75
350.187	70.14
350.399	53.76
350.61	37.38
350.822	47.62
351.034	119.29
351.246	53.76
351.458	6.66
351.669	29.18
351.881	-3.58
352.093	45.57
352.305	119.29
352.517	68.09
352.728	96.77
352.94	33.28
353.152	51.71
353.363	-34.3
353.575	84.48
353.787	51.71
353.999	-9.73
354.21	20.99
354.422	61.95
354.633	20.99
354.845	20.99
355.057	18.94
355.268	20.99
355.48	29.18
355.692	33.28
355.903	4.61
356.115	14.85
356.326	37.38
356.538	37.38
356.749	59.9
356.961	14.85
357.172	61.95
357.384	31.23
357.595	18.94
357.807	98.81
358.018	37.38
358.23	14.85
358.441	33.28
358.653	29.18
358.864	29.18
359.075	64
359.287	66.05
359.498	109.05
359.709	53.76
359.921	68.09
360.132	10.75
360.344	109.05
360.555	-26.11
360.766	23.04
360.977	61.95
361.189	31.23
361.4	6.66
361.611	0.51
361.823	39.42
362.034	55.81
362.245	20.99
362.456	-28.16
362.667	29.18
362.879	18.94
363.09	12.8
363.301	45.57
363.512	31.23
363.723	29.18
363.935	43.52
364.146	-1.54
364.357	4.61
364.568	102.91
364.779	-15.87
364.99	41.47
365.201	41.47
365.412	117.25
365.623	27.14
365.834	16.9
366.045	-3.58
366.256	53.76
366.467	31.23
366.678	18.94
366.889	59.9
367.1	72.19
367.311	68.09
367.522	59.9
367.733	57.86
367.944	39.42
368.155	84.48
368.366	35.33
368.577	72.19
368.788	35.33
368.999	20.99
369.209	23.04
369.42	18.94
369.631	43.52
369.842	61.95
370.053	37.38
370.264	59.9
370.474	-24.06
370.685	68.09
370.896	92.67
371.107	-15.87
371.317	86.53
371.528	66.05
371.739	43.52
371.95	96.77
372.16	90.62
372.371	25.09
372.582	53.76
372.792	39.42
373.003	31.23
373.214	57.86
373.424	82.43
373.635	37.38
373.846	43.52
374.056	96.77
374.267	8.7
374.477	59.9
374.688	25.09
374.898	-5.63
375.109	23.04
375.319	111.1
375.53	6.66
375.74	92.67
375.951	12.8
376.161	72.19
376.372	12.8
376.582	88.57
376.793	49.66
377.003	49.66
377.214	41.47
377.424	68.09
377.635	6.66
377.845	6.66
378.055	25.09
378.266	25.09
378.476	72.19
378.686	55.81
378.897	12.8
379.107	27.14
379.317	84.48
379.528	-5.63
379.738	68.09
379.948	70.14
380.158	31.23
380.369	100.86
380.579	23.04
380.789	27.14
380.999	31.23
381.21	6.66
381.42	2.56
381.63	51.71
381.84	72.19
382.05	14.85
382.261	84.48
382.471	23.04
382.681	31.23
382.891	31.23
383.101	12.8
383.311	66.05
383.521	96.77
383.731	74.24
383.941	27.14
384.151	23.04
384.361	51.71
384.571	57.86
384.781	107.01
384.991	82.43
385.201	8.7
385.411	64
385.621	37.38
385.831	18.94
386.041	31.23
386.251	35.33
386.461	8.7
386.671	43.52
386.881	27.14
387.091	131.58
387.301	66.05
387.511	53.76
387.72	59.9
387.93	61.95
388.14	-46.59
388.35	72.19
388.56	49.66
388.769	31.23
388.979	84.48
389.189	68.09
389.399	33.28
389.609	33.28
389.818	80.38
390.028	37.38
390.238	45.57
390.447	20.99
390.657	94.72
390.867	47.62
391.076	23.04
391.286	84.48
391.496	23.04
391.705	57.86
391.915	102.91
392.125	107.01
392.334	53.76
392.544	0.51
392.753	18.94
392.963	78.33
393.172	37.38
393.382	-11.78
393.591	96.77
393.801	64
394.01	51.71
394.22	10.75
394.429	94.72
394.639	72.19
394.848	109.05
395.058	8.7
395.267	61.95
395.477	94.72
395.686	51.71
395.895	45.57
396.105	115.2
396.314	113.15
396.524	86.53
396.733	66.05
396.942	61.95
397.152	31.23
397.361	115.2
397.57	84.48
397.78	88.57
397.989	102.91
398.198	80.38
398.407	96.77
398.617	96.77
398.826	23.04
399.035	133.63
399.244	59.9
399.453	45.57
399.663	121.34
399.872	94.72
400.081	47.62
400.29	43.52
400.499	-5.63
400.708	107.01
400.917	84.48
401.127	43.52
401.336	88.57
401.545	100.86
401.754	51.71
401.963	39.42
402.172	66.05
402.381	102.91
402.59	115.2
402.799	145.92
403.008	166.4
403.217	154.11
403.426	23.04
403.635	111.1
403.844	111.1
404.053	111.1
404.262	131.58
404.471	111.1
404.68	104.96
404.888	139.77
405.097	135.68
405.306	113.15
405.515	43.52
405.724	111.1
405.933	170.49
406.142	131.58
406.35	137.73
406.559	121.34
406.768	154.11
406.977	150.01
407.185	186.88
407.394	150.01
407.603	154.11
407.812	156.16
408.02	184.83
408.229	184.83
408.438	166.4
408.646	223.74
408.855	150.01
409.064	219.64
409.272	166.4
409.481	281.08
409.69	193.02
409.898	215.55
410.107	233.98
410.315	248.32
410.524	217.6
410.733	221.69
410.941	215.55
411.15	295.42
411.358	315.9
411.567	242.17
411.775	311.8
411.984	332.28
412.192	291.32
412.401	336.38
412.609	340.47
412.818	369.15
413.026	342.52
413.234	354.81
413.443	426.49
413.651	387.58
413.86	426.49
414.068	453.11
414.276	440.83
414.485	424.44
414.693	506.36
414.901	563.7
415.11	528.89
415.318	565.75
415.526	598.52
415.734	614.9
415.943	571.9
416.151	604.66
416.359	524.79
416.567	645.62
416.776	664.05
416.984	647.67
417.192	692.73
417.4	729.59
417.608	715.25
417.817	805.36
418.025	666.1
418.233	881.14
418.441	821.75
418.649	862.71
418.857	928.24
419.065	956.91
419.273	942.58
419.481	1016.3
419.689	1108.46
419.897	1065.46
420.105	1020.4
420.313	1075.7
420.521	1108.46
420.729	1155.57
420.937	1178.09
421.145	1337.84
421.353	1284.59
421.561	1325.55
421.769	1475.05
421.977	1552.87
422.185	1448.43
422.393	1542.63
422.601	1661.41
422.809	1692.13
423.017	1595.88
423.224	1751.53
423.432	1729
423.64	1841.64
423.848	1980.9
424.056	1868.26
424.263	2009.57
424.471	2062.82
424.679	2116.06
424.887	2257.37
425.094	2214.37
425.302	2349.53
425.51	2365.92
425.718	2365.92
425.925	2390.49
426.133	2585.05
426.341	2634.2
426.548	2767.32
426.756	2662.87
426.964	2822.61
427.171	2925.01
427.379	3017.17
427.586	3105.23
427.794	3242.45
428.001	3428.81
428.209	3420.62
428.417	3437
428.624	3674.57
428.832	3615.18
429.039	3555.79
429.247	3785.16
429.454	4098.5
429.662	4188.61
429.869	3953.09
430.076	4223.42
430.284	4176.32
430.491	4360.64
430.699	4575.67
430.906	4635.07
431.114	4489.66
431.321	4833.72
431.528	4927.92
431.736	5267.89
431.943	5448.11
432.15	5198.26
432.358	5372.33
432.565	5575.08
432.772	5720.49
432.979	5884.33
433.187	6007.2
433.394	6140.32
433.601	6406.56
433.808	6429.09
434.016	6390.17
434.223	6719.9
434.43	7012.76
434.637	6867.35
434.844	7416.21
435.052	7528.85
435.259	7395.73
435.466	7412.11
435.673	7532.94
435.88	7928.2
436.087	8411.52
436.294	8298.88
436.501	8040.84
436.708	8399.23
436.915	8581.5
437.122	9034.1
437.329	9027.96
437.537	9025.91
437.743	9621.87
437.95	9421.17
438.157	9812.33
438.364	10277.22
438.571	10226.02
438.778	10238.31
438.985	11096.41
439.192	10758.49
439.399	10899.8
439.606	10686.81
439.813	11514.19
440.02	12042.57
440.227	11874.63
440.433	11718.99
440.64	12106.06
440.847	12048.71
441.054	12284.23
441.261	13048.12
441.467	13125.94
441.674	13326.64
441.881	13756.72
442.088	13707.57
442.294	13519.15
442.501	13646.13
442.708	14477.6
442.914	14870.81
443.121	15276.31
443.328	14940.44
443.534	16052.49
443.741	15608.08
443.948	15352.09
444.154	16507.14
444.361	16435.46
444.568	16351.49
444.774	16476.42
444.981	16435.46
445.187	17031.42
445.394	17914.09
445.6	17774.83
445.807	19376.34
446.013	18469.09
446.22	18854.11
446.426	19615.96
446.633	19704.02
446.839	20525.25
447.046	19689.68
447.252	20617.41
447.459	20619.46
447.665	20660.42
447.871	21586.1
448.078	22405.29
448.284	21379.26
448.491	22096.05
448.697	22581.42
448.903	23292.06
449.11	23265.44
449.316	22857.89
449.522	23304.35
449.728	23890.07
449.935	24066.19
450.141	24049.81
450.347	24660.1
450.553	23802
450.76	24211.6
450.966	24987.78
451.172	24610.95
451.378	25000.07
451.584	24490.12
451.791	25172.1
451.997	25122.94
452.203	25667.7
452.409	25919.6
452.615	25270.4
452.821	24598.66
453.027	24324.24
453.233	25462.91
453.44	24445.07
453.646	24604.81
453.852	24778.89
454.058	25221.25
454.264	24350.86
454.47	25077.89
454.676	24373.39
454.882	25118.85
455.088	22812.84
455.294	23224.48
455.5	23818.39
455.705	23808.15
455.911	22708.39
456.117	22145.2
456.323	22102.19
456.529	20932.8
456.735	21739.7
456.941	21381.31
457.147	20822.21
457.352	20326.6
457.558	20164.81
457.764	20422.86
457.97	19890.38
458.176	19237.08
458.381	19312.86
458.587	18677.99
458.793	18548.96
458.999	17490.17
459.204	18800.87
459.41	18059.5
459.616	17160.44
459.821	16986.36
460.027	17099
460.233	16722.18
460.438	15812.88
460.644	15816.97
460.85	15147.29
461.055	15018.27
461.261	15173.91
461.466	13992.23
461.672	13381.94
461.878	14317.86
462.083	13623.6
462.289	13257.01
462.494	13109.56
462.7	12685.63
462.905	12142.92
463.111	12861.76
463.316	12470.59
463.522	12595.52
463.727	12564.8
463.932	12321.09
464.138	12349.76
464.343	12474.69
464.549	11913.55
464.754	12577.09
464.959	12151.11
465.165	12282.18
465.37	11534.67
465.575	11534.67
465.781	12091.72
465.986	11866.44
466.191	11555.15
466.397	11462.99
466.602	10723.68
466.807	11462.99
467.012	11096.41
467.218	10885.47
467.423	10987.86
467.628	11190.61
467.833	11440.47
468.038	10998.1
468.244	10842.46
468.449	11301.2
468.654	10891.61
468.859	10754.4
469.064	10871.13
469.269	10244.45
