Data from USB4F104151__292__14-02-48-596.txt Node

Date: Thu Mar 13 14:02:48 EDT 2025
User: louis
Spectrometer: USB4F10415
Trigger mode: 4
Integration Time (sec): 1.000000E-2
Scans to average: 1
Electric dark correction enabled: true
Nonlinearity correction enabled: false
Boxcar width: 0
XAxis mode: Wavelengths
Number of Pixels in Spectrum: 3648
>>>>>Begin Spectral Data<<<<<
178.204	-49.49
178.424	-49.49
178.644	-49.49
178.864	-57.68
179.084	-35.16
179.304	24.23
179.524	-4.44
179.744	-33.11
179.964	16.04
180.184	-39.25
180.404	28.33
180.624	9.9
180.844	-39.25
181.064	16.04
181.283	-6.49
181.503	-26.96
181.723	54.95
181.943	-20.82
182.163	9.9
182.383	-12.63
182.602	26.28
182.822	-29.01
183.042	63.15
183.262	11.95
183.482	34.47
183.701	44.71
183.921	-22.87
184.141	-45.4
184.361	-8.53
184.58	-31.06
184.8	-6.49
185.02	50.86
185.239	7.85
185.459	-61.78
185.679	7.85
185.898	-57.68
186.118	65.19
186.338	-10.58
186.557	-8.53
186.777	-41.3
186.997	3.75
187.216	-24.92
187.436	-14.68
187.655	-26.96
187.875	32.43
188.095	-22.87
188.314	-14.68
188.534	46.76
188.753	42.67
188.973	-37.2
189.192	36.52
189.412	11.95
189.631	24.23
189.851	28.33
190.07	61.1
190.29	34.47
190.509	26.28
190.729	-31.06
190.948	20.14
191.168	65.19
191.387	-8.53
191.607	44.71
191.826	9.9
192.045	-16.73
192.265	81.58
192.484	30.38
192.704	9.9
192.923	5.8
193.142	48.81
193.362	-10.58
193.581	67.24
193.8	-16.73
194.02	16.04
194.239	22.19
194.458	-31.06
194.678	13.99
194.897	16.04
195.116	1.71
195.335	-2.39
195.555	11.95
195.774	-20.82
195.993	26.28
196.212	-16.73
196.432	32.43
196.651	38.57
196.87	18.09
197.089	44.71
197.308	-22.87
197.528	-20.82
197.747	-33.11
197.966	-29.01
198.185	13.99
198.404	-31.06
198.623	-10.58
198.842	22.19
199.062	28.33
199.281	50.86
199.5	7.85
199.719	-2.39
199.938	-31.06
200.157	34.47
200.376	1.71
200.595	-6.49
200.814	-0.34
201.033	1.71
201.252	28.33
201.471	24.23
201.69	-29.01
201.909	-41.3
202.128	-0.34
202.347	26.28
202.566	-2.39
202.785	-49.49
203.004	24.23
203.223	50.86
203.442	18.09
203.661	-61.78
203.879	-47.44
204.098	32.43
204.317	-35.16
204.536	32.43
204.755	-16.73
204.974	46.76
205.193	36.52
205.411	71.34
205.63	-39.25
205.849	26.28
206.068	-16.73
206.287	42.67
206.505	-4.44
206.724	32.43
206.943	36.52
207.162	-12.63
207.381	-8.53
207.599	28.33
207.818	-35.16
208.037	40.62
208.255	24.23
208.474	-24.92
208.693	-12.63
208.911	81.58
209.13	40.62
209.349	-16.73
209.567	44.71
209.786	59.05
210.005	-45.4
210.223	34.47
210.442	-31.06
210.661	40.62
210.879	18.09
211.098	7.85
211.316	61.1
211.535	52.91
211.753	75.43
211.972	13.99
212.191	44.71
212.409	7.85
212.628	52.91
212.846	34.47
213.065	-33.11
213.283	93.87
213.502	13.99
213.72	28.33
213.938	-6.49
214.157	7.85
214.375	40.62
214.594	7.85
214.812	18.09
215.031	-84.31
215.249	20.14
215.467	-31.06
215.686	-57.68
215.904	-4.44
216.122	-24.92
216.341	87.72
216.559	3.75
216.778	75.43
216.996	16.04
217.214	16.04
217.432	36.52
217.651	9.9
217.869	54.95
218.087	16.04
218.306	-35.16
218.524	-29.01
218.742	13.99
218.96	-6.49
219.179	-43.35
219.397	-47.44
219.615	57
219.833	-8.53
220.051	1.71
220.27	18.09
220.488	28.33
220.706	-39.25
220.924	-2.39
221.142	24.23
221.36	34.47
221.578	-20.82
221.796	-45.4
222.015	-2.39
222.233	16.04
222.451	48.81
222.669	-39.25
222.887	-24.92
223.105	3.75
223.323	9.9
223.541	34.47
223.759	-8.53
223.977	38.57
224.195	-8.53
224.413	-33.11
224.631	32.43
224.849	-31.06
225.067	-16.73
225.285	48.81
225.503	32.43
225.721	-22.87
225.939	42.67
226.157	-4.44
226.375	1.71
226.592	52.91
226.81	16.04
227.028	9.9
227.246	85.67
227.464	-63.83
227.682	7.85
227.9	34.47
228.117	-4.44
228.335	34.47
228.553	-14.68
228.771	9.9
228.989	52.91
229.206	-55.64
229.424	26.28
229.642	9.9
229.86	77.48
230.077	71.34
230.295	-65.88
230.513	59.05
230.731	-14.68
230.948	7.85
231.166	-22.87
231.384	7.85
231.601	3.75
231.819	32.43
232.037	9.9
232.254	77.48
232.472	-14.68
232.689	-12.63
232.907	95.91
233.125	54.95
233.342	-37.2
233.56	24.23
233.777	-18.77
233.995	44.71
234.213	24.23
234.43	-65.88
234.648	46.76
234.865	3.75
235.083	-14.68
235.3	5.8
235.518	7.85
235.735	93.87
235.953	85.67
236.17	-37.2
236.388	63.15
236.605	52.91
236.822	-0.34
237.04	-43.35
237.257	-24.92
237.475	32.43
237.692	11.95
237.909	1.71
238.127	3.75
238.344	26.28
238.562	110.25
238.779	63.15
238.996	54.95
239.214	63.15
239.431	-43.35
239.648	-6.49
239.865	22.19
240.083	-16.73
240.3	1.71
240.517	57
240.735	-4.44
240.952	67.24
241.169	7.85
241.386	-0.34
241.603	112.3
241.821	26.28
242.038	32.43
242.255	-55.64
242.472	-22.87
242.689	28.33
242.907	34.47
243.124	20.14
243.341	-86.36
243.558	-18.77
243.775	-29.01
243.992	-8.53
244.209	-6.49
244.426	61.1
244.643	-0.34
244.86	30.38
245.078	34.47
245.295	-2.39
245.512	-26.96
245.729	-26.96
245.946	1.71
246.163	-69.97
246.38	-24.92
246.597	-29.01
246.814	50.86
247.031	24.23
247.248	7.85
247.464	1.71
247.681	18.09
247.898	-0.34
248.115	69.29
248.332	32.43
248.549	-33.11
248.766	48.81
248.983	9.9
249.2	46.76
249.417	71.34
249.633	36.52
249.85	34.47
250.067	28.33
250.284	40.62
250.501	81.58
250.717	50.86
250.934	44.71
251.151	18.09
251.368	-20.82
251.585	-8.53
251.801	-16.73
252.018	-20.82
252.235	32.43
252.451	50.86
252.668	-22.87
252.885	93.87
253.102	22.19
253.318	18.09
253.535	28.33
253.752	81.58
253.968	11.95
254.185	22.19
254.401	-22.87
254.618	91.82
254.835	69.29
255.051	32.43
255.268	-49.49
255.484	20.14
255.701	-57.68
255.917	40.62
256.134	59.05
256.351	24.23
256.567	-67.92
256.784	-8.53
257	30.38
257.217	59.05
257.433	93.87
257.65	28.33
257.866	1.71
258.082	3.75
258.299	-47.44
258.515	16.04
258.732	-41.3
258.948	20.14
259.165	50.86
259.381	-6.49
259.597	54.95
259.814	24.23
260.03	7.85
260.246	20.14
260.463	34.47
260.679	22.19
260.895	30.38
261.112	-26.96
261.328	-12.63
261.544	65.19
261.761	65.19
261.977	-26.96
262.193	22.19
262.409	28.33
262.626	-0.34
262.842	-4.44
263.058	-49.49
263.274	-8.53
263.49	71.34
263.707	-39.25
263.923	44.71
264.139	-26.96
264.355	44.71
264.571	-45.4
264.787	34.47
265.004	18.09
265.22	-12.63
265.436	9.9
265.652	-45.4
265.868	79.53
266.084	-53.59
266.3	-43.35
266.516	69.29
266.732	32.43
266.948	26.28
267.164	52.91
267.38	40.62
267.596	67.24
267.812	32.43
268.028	40.62
268.244	-24.92
268.46	-29.01
268.676	11.95
268.892	18.09
269.108	-12.63
269.324	44.71
269.54	18.09
269.756	26.28
269.972	22.19
270.188	-20.82
270.403	-10.58
270.619	7.85
270.835	16.04
271.051	-22.87
271.267	-26.96
271.483	32.43
271.698	3.75
271.914	-16.73
272.13	42.67
272.346	-29.01
272.562	18.09
272.777	-12.63
272.993	-8.53
273.209	71.34
273.425	57
273.64	-18.77
273.856	32.43
274.072	-22.87
274.287	-39.25
274.503	7.85
274.719	16.04
274.934	-16.73
275.15	-16.73
275.366	-8.53
275.581	75.43
275.797	7.85
276.012	-29.01
276.228	40.62
276.444	52.91
276.659	7.85
276.875	32.43
277.09	-37.2
277.306	71.34
277.521	16.04
277.737	-31.06
277.952	7.85
278.168	18.09
278.383	16.04
278.599	11.95
278.814	114.34
279.03	16.04
279.245	7.85
279.461	-8.53
279.676	1.71
279.892	5.8
280.107	9.9
280.322	18.09
280.538	73.39
280.753	65.19
280.969	48.81
281.184	40.62
281.399	-57.68
281.615	87.72
281.83	-31.06
282.045	-20.82
282.26	81.58
282.476	40.62
282.691	-0.34
282.906	-14.68
283.122	7.85
283.337	-16.73
283.552	-4.44
283.767	-78.16
283.983	-41.3
284.198	-37.2
284.413	44.71
284.628	-8.53
284.843	36.52
285.058	-29.01
285.274	3.75
285.489	11.95
285.704	73.39
285.919	3.75
286.134	-16.73
286.349	-26.96
286.564	32.43
286.779	20.14
286.995	32.43
287.21	28.33
287.425	-8.53
287.64	-0.34
287.855	-0.34
288.07	28.33
288.285	-33.11
288.5	-4.44
288.715	20.14
288.93	36.52
289.145	73.39
289.36	1.71
289.575	40.62
289.79	-24.92
290.004	57
290.219	-10.58
290.434	50.86
290.649	13.99
290.864	52.91
291.079	71.34
291.294	11.95
291.509	-18.77
291.724	-8.53
291.938	28.33
292.153	5.8
292.368	36.52
292.583	67.24
292.798	-35.16
293.012	7.85
293.227	44.71
293.442	81.58
293.657	44.71
293.871	40.62
294.086	-39.25
294.301	9.9
294.516	38.57
294.73	-14.68
294.945	57
295.16	28.33
295.374	34.47
295.589	-72.02
295.804	44.71
296.018	-12.63
296.233	34.47
296.447	32.43
296.662	36.52
296.877	65.19
297.091	-37.2
297.306	24.23
297.52	-8.53
297.735	20.14
297.949	75.43
298.164	-22.87
298.378	-0.34
298.593	61.1
298.807	32.43
299.022	1.71
299.236	50.86
299.451	-55.64
299.665	38.57
299.88	46.76
300.094	-14.68
300.309	32.43
300.523	20.14
300.737	-37.2
300.952	-37.2
301.166	26.28
301.381	18.09
301.595	54.95
301.809	-39.25
302.024	28.33
302.238	-39.25
302.452	77.48
302.667	63.15
302.881	11.95
303.095	102.06
303.309	42.67
303.524	-14.68
303.738	48.81
303.952	-2.39
304.166	54.95
304.381	-24.92
304.595	59.05
304.809	67.24
305.023	13.99
305.237	73.39
305.452	75.43
305.666	3.75
305.88	95.91
306.094	-0.34
306.308	-39.25
306.522	16.04
306.736	44.71
306.95	24.23
307.164	57
307.379	-8.53
307.593	69.29
307.807	36.52
308.021	16.04
308.235	-45.4
308.449	-8.53
308.663	48.81
308.877	24.23
309.091	11.95
309.305	-16.73
309.519	32.43
309.733	-0.34
309.947	69.29
310.161	7.85
310.374	-10.58
310.588	61.1
310.802	65.19
311.016	61.1
311.23	-6.49
311.444	-33.11
311.658	32.43
311.872	13.99
312.085	-2.39
312.299	44.71
312.513	75.43
312.727	32.43
312.941	7.85
313.154	63.15
313.368	-14.68
313.582	-0.34
313.796	59.05
314.009	65.19
314.223	36.52
314.437	100.01
314.651	11.95
314.864	26.28
315.078	24.23
315.292	52.91
315.505	-16.73
315.719	-4.44
315.933	-55.64
316.146	-22.87
316.36	-45.4
316.573	48.81
316.787	73.39
317.001	63.15
317.214	-61.78
317.428	24.23
317.641	-20.82
317.855	59.05
318.068	38.57
318.282	93.87
318.495	48.81
318.709	69.29
318.922	42.67
319.136	67.24
319.349	9.9
319.563	-33.11
319.776	67.24
319.99	9.9
320.203	102.06
320.417	83.63
320.63	3.75
320.843	38.57
321.057	-12.63
321.27	-14.68
321.483	32.43
321.697	28.33
321.91	-61.78
322.124	9.9
322.337	-14.68
322.55	26.28
322.763	34.47
322.977	36.52
323.19	26.28
323.403	-4.44
323.617	-8.53
323.83	69.29
324.043	-18.77
324.256	50.86
324.469	-14.68
324.683	7.85
324.896	65.19
325.109	54.95
325.322	36.52
325.535	-0.34
325.748	-10.58
325.962	-16.73
326.175	46.76
326.388	61.1
326.601	13.99
326.814	44.71
327.027	24.23
327.24	-26.96
327.453	52.91
327.666	89.77
327.879	-69.97
328.092	73.39
328.305	83.63
328.518	16.04
328.731	89.77
328.944	32.43
329.157	-2.39
329.37	42.67
329.583	46.76
329.796	71.34
330.009	34.47
330.222	40.62
330.435	42.67
330.648	3.75
330.861	16.04
331.073	-14.68
331.286	36.52
331.499	18.09
331.712	44.71
331.925	24.23
332.138	24.23
332.35	54.95
332.563	-16.73
332.776	57
332.989	7.85
333.202	36.52
333.414	-94.55
333.627	7.85
333.84	59.05
334.053	110.25
334.265	1.71
334.478	73.39
334.691	13.99
334.903	-14.68
335.116	34.47
335.329	52.91
335.541	-12.63
335.754	26.28
335.966	50.86
336.179	32.43
336.392	42.67
336.604	40.62
336.817	-4.44
337.029	22.19
337.242	11.95
337.454	75.43
337.667	34.47
337.88	89.77
338.092	-10.58
338.305	-2.39
338.517	50.86
338.729	20.14
338.942	1.71
339.154	16.04
339.367	65.19
339.579	18.09
339.792	44.71
340.004	65.19
340.217	-0.34
340.429	32.43
340.641	22.19
340.854	46.76
341.066	-18.77
341.278	24.23
341.491	42.67
341.703	9.9
341.915	38.57
342.128	20.14
342.34	65.19
342.552	44.71
342.764	38.57
342.977	16.04
343.189	97.96
343.401	83.63
343.613	34.47
343.826	179.88
344.038	63.15
344.25	-33.11
344.462	-18.77
344.674	16.04
344.886	9.9
345.099	44.71
345.311	32.43
345.523	48.81
345.735	46.76
345.947	11.95
346.159	-6.49
346.371	54.95
346.583	9.9
346.795	61.1
347.007	-31.06
347.219	46.76
347.431	-6.49
347.643	73.39
347.855	-14.68
348.067	57
348.279	-20.82
348.491	7.85
348.703	44.71
348.915	22.19
349.127	20.14
349.339	69.29
349.551	18.09
349.763	9.9
349.975	-12.63
350.187	22.19
350.399	20.14
350.61	-20.82
350.822	-10.58
351.034	75.43
351.246	79.53
351.458	100.01
351.669	63.15
351.881	36.52
352.093	-8.53
352.305	26.28
352.517	-12.63
352.728	65.19
352.94	13.99
353.152	-8.53
353.363	9.9
353.575	40.62
353.787	5.8
353.999	38.57
354.21	54.95
354.422	7.85
354.633	24.23
354.845	-16.73
355.057	48.81
355.268	-26.96
355.48	63.15
355.692	-8.53
355.903	34.47
356.115	73.39
356.326	57
356.538	81.58
356.749	-20.82
356.961	75.43
357.172	67.24
357.384	61.1
357.595	11.95
357.807	9.9
358.018	18.09
358.23	65.19
358.441	44.71
358.653	24.23
358.864	52.91
359.075	46.76
359.287	91.82
359.498	-10.58
359.709	22.19
359.921	34.47
360.132	-24.92
360.344	81.58
360.555	-33.11
360.766	16.04
360.977	18.09
361.189	48.81
361.4	9.9
361.611	48.81
361.823	-20.82
362.034	57
362.245	-22.87
362.456	83.63
362.667	3.75
362.879	20.14
363.09	50.86
363.301	34.47
363.512	-29.01
363.723	93.87
363.935	20.14
364.146	46.76
364.357	18.09
364.568	30.38
364.779	24.23
364.99	22.19
365.201	5.8
365.412	93.87
365.623	73.39
365.834	87.72
366.045	-31.06
366.256	79.53
366.467	11.95
366.678	9.9
366.889	24.23
367.1	57
367.311	-18.77
367.522	79.53
367.733	-14.68
367.944	30.38
368.155	52.91
368.366	48.81
368.577	46.76
368.788	85.67
368.999	18.09
369.209	11.95
369.42	-0.34
369.631	22.19
369.842	-4.44
370.053	34.47
370.264	-31.06
370.474	18.09
370.685	48.81
370.896	102.06
371.107	40.62
371.317	18.09
371.528	-0.34
371.739	36.52
371.95	114.34
372.16	75.43
372.371	24.23
372.582	46.76
372.792	-20.82
373.003	44.71
373.214	65.19
373.424	-2.39
373.635	7.85
373.846	1.71
374.056	13.99
374.267	32.43
374.477	-8.53
374.688	44.71
374.898	38.57
375.109	36.52
375.319	5.8
375.53	-8.53
375.74	7.85
375.951	59.05
376.161	1.71
376.372	116.39
376.582	-12.63
376.793	-18.77
377.003	5.8
377.214	36.52
377.424	89.77
377.635	11.95
377.845	112.3
378.055	83.63
378.266	-16.73
378.476	50.86
378.686	18.09
378.897	57
379.107	42.67
379.317	48.81
379.528	7.85
379.738	124.58
379.948	40.62
380.158	50.86
380.369	28.33
380.579	-8.53
380.789	-0.34
380.999	69.29
381.21	7.85
381.42	57
381.63	1.71
381.84	7.85
382.05	85.67
382.261	63.15
382.471	97.96
382.681	85.67
382.891	-0.34
383.101	61.1
383.311	67.24
383.521	7.85
383.731	52.91
383.941	65.19
384.151	-4.44
384.361	67.24
384.571	50.86
384.781	71.34
384.991	-72.02
385.201	69.29
385.411	-37.2
385.621	69.29
385.831	83.63
386.041	52.91
386.251	77.48
386.461	79.53
386.671	40.62
386.881	7.85
387.091	-45.4
387.301	59.05
387.511	-4.44
387.72	24.23
387.93	5.8
388.14	24.23
388.35	11.95
388.56	38.57
388.769	40.62
388.979	65.19
389.189	65.19
389.399	32.43
389.609	32.43
389.818	114.34
390.028	83.63
390.238	1.71
390.447	61.1
390.657	24.23
390.867	-10.58
391.076	69.29
391.286	38.57
391.496	102.06
391.705	7.85
391.915	145.06
392.125	77.48
392.334	65.19
392.544	81.58
392.753	89.77
392.963	-29.01
393.172	75.43
393.382	116.39
393.591	130.73
393.801	44.71
394.01	22.19
394.22	24.23
394.429	91.82
394.639	69.29
394.848	122.54
395.058	61.1
395.267	136.87
395.477	16.04
395.686	171.69
395.895	48.81
396.105	118.44
396.314	93.87
396.524	75.43
396.733	85.67
396.942	40.62
397.152	87.72
397.361	48.81
397.57	1.71
397.78	52.91
397.989	73.39
398.198	126.63
398.407	134.82
398.617	69.29
398.826	44.71
399.035	57
399.244	102.06
399.453	71.34
399.663	63.15
399.872	126.63
400.081	75.43
400.29	108.2
400.499	95.91
400.708	89.77
400.917	134.82
401.127	63.15
401.336	59.05
401.545	50.86
401.754	46.76
401.963	110.25
402.172	75.43
402.381	61.1
402.59	106.15
402.799	147.11
403.008	110.25
403.217	149.16
403.426	112.3
403.635	163.5
403.844	106.15
404.053	102.06
404.262	116.39
404.471	128.68
404.68	91.82
404.888	140.97
405.097	100.01
405.306	143.02
405.515	159.4
405.724	116.39
405.933	93.87
406.142	136.87
406.35	114.34
406.559	171.69
406.768	128.68
406.977	175.78
407.185	171.69
407.394	218.79
407.603	157.35
407.812	282.28
408.02	192.17
408.229	278.18
408.438	116.39
408.646	198.31
408.855	212.65
409.064	208.55
409.272	278.18
409.481	226.98
409.69	269.99
409.898	214.7
410.107	253.61
410.315	325.29
410.524	302.76
410.733	325.29
410.941	351.91
411.15	300.71
411.358	378.53
411.567	347.81
411.775	351.91
411.984	368.29
412.192	376.48
412.401	401.06
412.609	421.54
412.818	442.02
413.026	454.31
413.234	452.26
413.443	454.31
413.651	466.6
413.86	495.27
414.068	501.41
414.276	560.8
414.485	534.18
414.693	515.75
414.901	601.76
415.11	646.82
415.318	673.44
415.526	698.02
415.734	753.31
415.943	755.36
416.151	822.94
416.359	667.3
416.567	816.8
416.776	732.83
416.984	900.76
417.192	847.52
417.4	939.68
417.608	900.76
417.817	943.77
418.025	1066.65
418.233	1003.16
418.441	1021.6
418.649	1203.86
418.857	1126.04
419.065	1210.01
419.273	1164.95
419.481	1214.1
419.689	1253.02
419.897	1339.03
420.105	1345.17
420.313	1431.19
420.521	1549.97
420.729	1418.9
420.937	1474.2
421.145	1674.9
421.353	1666.71
421.561	1769.1
421.769	1932.94
421.977	1924.75
422.185	1887.89
422.393	1941.13
422.601	2076.3
422.809	2084.49
423.017	2076.3
423.224	2236.04
423.432	2408.07
423.64	2313.86
423.848	2533
424.056	2430.6
424.263	2535.04
424.471	2584.2
424.679	2715.27
424.887	2678.4
425.094	2795.14
425.302	2866.81
425.51	2965.12
425.718	3145.34
425.925	3133.05
426.133	3174.01
426.341	3360.38
426.548	3640.95
426.756	3638.9
426.964	3698.29
427.171	3673.71
427.379	4023.92
427.586	3898.99
427.794	3995.25
428.001	4343.4
428.209	4531.81
428.417	4417.13
428.624	4736.61
428.832	4798.05
429.039	4578.92
429.247	4699.75
429.454	5203.55
429.662	5453.4
429.869	5135.96
430.076	5500.5
430.284	5244.51
430.491	5670.48
430.699	5946.96
430.906	5914.19
431.114	5881.42
431.321	6231.63
431.528	6299.21
431.736	6772.29
431.943	7026.24
432.15	6866.5
432.358	6866.5
432.565	7272
432.772	7274.04
432.979	7554.62
433.187	7671.35
433.394	7616.05
433.601	8285.74
433.808	8408.62
434.016	8027.7
434.223	8568.36
434.43	9002.53
434.637	8928.8
434.844	9334.3
435.052	9592.34
435.259	9600.54
435.466	9629.21
435.673	9573.91
435.88	10124.82
436.087	10698.25
436.294	10630.66
436.501	10413.58
436.708	10634.76
436.915	11214.34
437.122	11496.96
437.329	11396.6
437.537	11904.5
437.743	12076.53
437.95	11929.08
438.157	12643.82
438.364	13196.77
438.571	13073.89
438.778	13266.4
438.985	14360.02
439.192	13708.76
439.399	14087.64
439.606	13966.81
439.813	14583.24
440.02	15443.39
440.227	15400.38
440.433	15228.35
440.64	15566.27
440.847	15519.17
441.054	15986.1
441.261	17130.92
441.467	16850.35
441.674	17159.59
441.881	17778.08
442.088	17612.19
442.294	17614.24
442.501	18032.02
442.708	18374.03
442.914	19041.67
443.121	19719.55
443.328	19246.47
443.534	20833.64
443.741	20014.46
443.948	19588.48
444.154	21341.54
444.361	21196.14
444.568	21181.8
444.774	21110.12
444.981	21611.87
445.187	22082.91
445.394	23258.44
445.6	22957.39
445.807	24737.07
446.013	23665.99
446.22	24624.43
446.426	25421.09
446.633	25464.1
446.839	26529.05
447.046	25107.76
447.252	26856.72
447.459	26797.33
447.665	26641.68
447.871	27530.5
448.078	28884.21
448.284	27512.07
448.491	28239.1
448.697	29273.32
448.903	29924.58
449.11	30055.65
449.316	29633.77
449.522	30108.9
449.728	30760.15
449.935	31077.58
450.141	31153.36
450.347	32072.9
450.553	30512.35
450.76	31321.29
450.966	32056.51
451.172	31839.43
451.378	32746.68
451.584	32115.9
451.791	33215.66
451.997	32801.97
452.203	32967.86
452.409	33399.98
452.615	32748.73
452.821	31562.95
453.027	31317.2
453.233	33178.8
453.44	31718.6
453.646	32087.23
453.852	32314.56
454.058	32679.1
454.264	31710.41
454.47	32271.55
454.676	31630.54
454.882	32629.94
455.088	29658.34
455.294	30237.92
455.5	30751.96
455.705	31132.88
455.911	29525.22
456.117	29324.52
456.323	28955.89
456.529	27473.16
456.735	28499.19
456.941	27884.8
457.147	27163.92
457.352	26621.2
457.558	26033.44
457.764	26318.11
457.97	25732.39
458.176	25118
458.381	25388.33
458.587	23858.49
458.793	24118.59
458.999	22717.78
459.204	24311.1
459.41	23764.29
459.616	22035.8
459.821	22007.13
460.027	22091.1
460.233	21536.1
460.438	20544.88
460.644	21073.26
460.85	19852.67
461.055	19735.93
461.261	19508.61
461.466	18003.35
461.672	17728.92
461.878	18658.7
462.083	17692.06
462.289	17300.9
462.494	17143.21
462.7	16285.11
462.905	15844.79
463.111	16344.5
463.316	16657.84
463.522	16133.56
463.727	16053.69
463.932	16248.24
464.138	15812.03
464.343	16154.04
464.549	15568.32
464.754	16147.89
464.959	15932.86
465.165	15660.48
465.37	15371.71
465.575	14759.37
465.781	15345.09
465.986	15433.15
466.191	14896.58
466.397	14777.8
466.602	13893.08
466.807	14396.88
467.012	14431.69
467.218	14251.47
467.423	14339.54
467.628	14562.76
467.833	14583.24
468.038	14542.28
