Data from USB4F104151__141__13-58-14-716.txt Node

Date: Thu Mar 13 13:58:14 EDT 2025
User: louis
Spectrometer: USB4F10415
Trigger mode: 4
Integration Time (sec): 1.000000E-2
Scans to average: 1
Electric dark correction enabled: true
Nonlinearity correction enabled: false
Boxcar width: 0
XAxis mode: Wavelengths
Number of Pixels in Spectrum: 3648
>>>>>Begin Spectral Data<<<<<
178.204	-71.85
178.424	-71.85
178.644	-71.85
178.864	-100.52
179.084	-110.76
179.304	-20.65
179.524	5.97
179.744	-8.36
179.964	-30.89
180.184	-2.22
180.404	-26.79
180.624	-41.13
180.844	-8.36
181.064	75.6
181.283	51.03
181.503	-32.94
181.723	38.74
181.943	-39.08
182.163	44.88
182.383	-37.03
182.602	12.12
182.822	-2.22
183.042	44.88
183.262	34.64
183.482	-2.22
183.701	124.76
183.921	40.79
184.141	20.31
184.361	36.69
184.58	22.36
184.8	-51.37
185.02	-16.55
185.239	-10.41
185.459	32.6
185.679	5.97
185.898	-47.27
186.118	-0.17
186.338	55.12
186.557	26.45
186.777	61.27
186.997	38.74
187.216	-20.65
187.436	61.27
187.655	36.69
187.875	26.45
188.095	-0.17
188.314	30.55
188.534	-18.6
188.753	44.88
188.973	22.36
189.192	-10.41
189.412	26.45
189.631	-6.31
189.851	28.5
190.07	24.4
190.29	28.5
190.509	30.55
190.729	63.32
190.948	89.94
191.168	18.26
191.387	14.17
191.607	-22.7
191.826	-14.51
192.045	51.03
192.265	65.36
192.484	12.12
192.704	12.12
192.923	12.12
193.142	30.55
193.362	38.74
193.581	65.36
193.8	12.12
194.02	44.88
194.239	20.31
194.458	69.46
194.678	-4.27
194.897	16.21
195.116	46.93
195.335	20.31
195.555	-14.51
195.774	67.41
195.993	10.07
196.212	34.64
196.432	44.88
196.651	42.84
196.87	48.98
197.089	67.41
197.308	38.74
197.528	14.17
197.747	24.4
197.966	44.88
198.185	44.88
198.404	8.02
198.623	12.12
198.842	91.99
199.062	108.37
199.281	104.28
199.5	-20.65
199.719	10.07
199.938	28.5
200.157	59.22
200.376	8.02
200.595	34.64
200.814	10.07
201.033	38.74
201.252	-14.51
201.471	57.17
201.69	-47.27
201.909	-4.27
202.128	30.55
202.347	20.31
202.566	-20.65
202.785	12.12
203.004	18.26
203.223	32.6
203.442	20.31
203.661	-6.31
203.879	16.21
204.098	1.88
204.317	-37.03
204.536	30.55
204.755	71.51
204.974	61.27
205.193	20.31
205.411	51.03
205.63	51.03
205.849	5.97
206.068	44.88
206.287	1.88
206.505	32.6
206.724	30.55
206.943	-14.51
207.162	96.08
207.381	63.32
207.599	34.64
207.818	69.46
208.037	30.55
208.255	36.69
208.474	-14.51
208.693	-12.46
208.911	40.79
209.13	30.55
209.349	87.89
209.567	-24.75
209.786	59.22
210.005	89.94
210.223	-4.27
210.442	67.41
210.661	42.84
210.879	14.17
211.098	-16.55
211.316	18.26
211.535	42.84
211.753	-2.22
211.972	-43.18
212.191	1.88
212.409	28.5
212.628	-37.03
212.846	5.97
213.065	18.26
213.283	36.69
213.502	14.17
213.72	12.12
213.938	14.17
214.157	44.88
214.375	-10.41
214.594	46.93
214.812	24.4
215.031	38.74
215.249	1.88
215.467	-6.31
215.686	44.88
215.904	-32.94
216.122	24.4
216.341	42.84
216.559	48.98
216.778	-10.41
216.996	16.21
217.214	-10.41
217.432	12.12
217.651	-12.46
217.869	-16.55
218.087	24.4
218.306	-18.6
218.524	-24.75
218.742	28.5
218.96	73.56
219.179	22.36
219.397	57.17
219.615	-0.17
219.833	-8.36
220.051	65.36
220.27	12.12
220.488	10.07
220.706	61.27
220.924	16.21
221.142	22.36
221.36	44.88
221.578	85.84
221.796	55.12
222.015	-2.22
222.233	-14.51
222.451	85.84
222.669	14.17
222.887	59.22
223.105	18.26
223.323	-28.84
223.541	18.26
223.759	51.03
223.977	28.5
224.195	61.27
224.413	-18.6
224.631	28.5
224.849	85.84
225.067	12.12
225.285	73.56
225.503	48.98
225.721	14.17
225.939	-34.99
226.157	1.88
226.375	61.27
226.592	94.04
226.81	61.27
227.028	53.08
227.246	57.17
227.464	1.88
227.682	59.22
227.9	1.88
228.117	18.26
228.335	32.6
228.553	48.98
228.771	30.55
228.989	30.55
229.206	48.98
229.424	20.31
229.642	32.6
229.86	-16.55
230.077	-0.17
230.295	1.88
230.513	42.84
230.731	8.02
230.948	16.21
231.166	106.32
231.384	-20.65
231.601	34.64
231.819	-55.47
232.037	79.7
232.254	-34.99
232.472	98.13
232.689	30.55
232.907	18.26
233.125	65.36
233.342	12.12
233.56	34.64
233.777	-14.51
233.995	10.07
234.213	30.55
234.43	34.64
234.648	22.36
234.865	-6.31
235.083	16.21
235.3	-20.65
235.518	67.41
235.735	1.88
235.953	14.17
236.17	10.07
236.388	14.17
236.605	28.5
236.822	3.93
237.04	-12.46
237.257	73.56
237.475	24.4
237.692	65.36
237.909	-16.55
238.127	32.6
238.344	5.97
238.562	5.97
238.779	28.5
238.996	34.64
239.214	16.21
239.431	22.36
239.648	-4.27
239.865	61.27
240.083	71.51
240.3	96.08
240.517	102.23
240.735	22.36
240.952	-30.89
241.169	75.6
241.386	51.03
241.603	16.21
241.821	-6.31
242.038	57.17
242.255	-2.22
242.472	71.51
242.689	53.08
242.907	38.74
243.124	85.84
243.341	20.31
243.558	67.41
243.775	38.74
243.992	-12.46
244.209	65.36
244.426	73.56
244.643	73.56
244.86	-47.27
245.078	34.64
245.295	-20.65
245.512	-8.36
245.729	20.31
245.946	14.17
246.163	22.36
246.38	67.41
246.597	-12.46
246.814	-18.6
247.031	32.6
247.248	16.21
247.464	104.28
247.681	34.64
247.898	38.74
248.115	-45.23
248.332	30.55
248.549	36.69
248.766	18.26
248.983	-4.27
249.2	34.64
249.417	24.4
249.633	44.88
249.85	46.93
250.067	55.12
250.284	57.17
250.501	28.5
250.717	61.27
250.934	-20.65
251.151	1.88
251.368	1.88
251.585	87.89
251.801	40.79
252.018	46.93
252.235	59.22
252.451	-59.56
252.668	-28.84
252.885	34.64
253.102	57.17
253.318	34.64
253.535	83.8
253.752	40.79
253.968	-24.75
254.185	24.4
254.401	-14.51
254.618	46.93
254.835	-22.7
255.051	51.03
255.268	22.36
255.484	44.88
255.701	14.17
255.917	36.69
256.134	65.36
256.351	34.64
256.567	14.17
256.784	65.36
257	-37.03
257.217	53.08
257.433	-30.89
257.65	26.45
257.866	-4.27
258.082	-51.37
258.299	-34.99
258.515	5.97
258.732	34.64
258.948	94.04
259.165	26.45
259.381	22.36
259.597	-6.31
259.814	69.46
260.03	30.55
260.246	77.65
260.463	5.97
260.679	-24.75
260.895	38.74
261.112	63.32
261.328	3.93
261.544	65.36
261.761	26.45
261.977	30.55
262.193	-37.03
262.409	-63.66
262.626	18.26
262.842	69.46
263.058	-4.27
263.274	42.84
263.49	42.84
263.707	55.12
263.923	44.88
264.139	1.88
264.355	71.51
264.571	112.47
264.787	73.56
265.004	30.55
265.22	-18.6
265.436	-10.41
265.652	-20.65
265.868	67.41
266.084	-0.17
266.3	63.32
266.516	34.64
266.732	-4.27
266.948	67.41
267.164	67.41
267.38	71.51
267.596	-22.7
267.812	106.32
268.028	48.98
268.244	26.45
268.46	89.94
268.676	20.31
268.892	3.93
269.108	-18.6
269.324	22.36
269.54	1.88
269.756	67.41
269.972	34.64
270.188	16.21
270.403	-20.65
270.619	8.02
270.835	-37.03
271.051	16.21
271.267	57.17
271.483	100.18
271.698	12.12
271.914	44.88
272.13	20.31
272.346	26.45
272.562	-16.55
272.777	36.69
272.993	-26.79
273.209	18.26
273.425	44.88
273.64	53.08
273.856	28.5
274.072	20.31
274.287	28.5
274.503	46.93
274.719	46.93
274.934	32.6
275.15	69.46
275.366	59.22
275.581	24.4
275.797	77.65
276.012	30.55
276.228	1.88
276.444	106.32
276.659	16.21
276.875	-10.41
277.09	-90.28
277.306	8.02
277.521	42.84
277.737	51.03
277.952	-10.41
278.168	59.22
278.383	38.74
278.599	55.12
278.814	26.45
279.03	46.93
279.245	59.22
279.461	12.12
279.676	51.03
279.892	53.08
280.107	-16.55
280.322	18.26
280.538	59.22
280.753	44.88
280.969	-26.79
281.184	65.36
281.399	67.41
281.615	10.07
281.83	89.94
282.045	57.17
282.26	8.02
282.476	57.17
282.691	67.41
282.906	34.64
283.122	42.84
283.337	-14.51
283.552	10.07
283.767	-37.03
283.983	55.12
284.198	55.12
284.413	34.64
284.628	22.36
284.843	38.74
285.058	20.31
285.274	24.4
285.489	55.12
285.704	22.36
285.919	16.21
286.134	81.75
286.349	-28.84
286.564	59.22
286.779	53.08
286.995	46.93
287.21	-30.89
287.425	69.46
287.64	-4.27
287.855	63.32
288.07	26.45
288.285	51.03
288.5	22.36
288.715	18.26
288.93	-10.41
289.145	55.12
289.36	-32.94
289.575	-12.46
289.79	-4.27
290.004	44.88
290.219	-14.51
290.434	51.03
290.649	-4.27
290.864	-0.17
291.079	55.12
291.294	87.89
291.509	-2.22
291.724	34.64
291.938	-0.17
292.153	12.12
292.368	63.32
292.583	34.64
292.798	81.75
293.012	-28.84
293.227	-26.79
293.442	38.74
293.657	30.55
293.871	69.46
294.086	69.46
294.301	22.36
294.516	34.64
294.73	12.12
294.945	51.03
295.16	-2.22
295.374	55.12
295.589	67.41
295.804	77.65
296.018	14.17
296.233	-30.89
296.447	40.79
296.662	20.31
296.877	20.31
297.091	10.07
297.306	48.98
297.52	3.93
297.735	51.03
297.949	71.51
298.164	-4.27
298.378	5.97
298.593	8.02
298.807	-22.7
299.022	18.26
299.236	-37.03
299.451	67.41
299.665	22.36
299.88	30.55
300.094	-24.75
300.309	34.64
300.523	36.69
300.737	51.03
300.952	-4.27
301.166	38.74
301.381	5.97
301.595	5.97
301.809	-12.46
302.024	40.79
302.238	18.26
302.452	65.36
302.667	28.5
302.881	42.84
303.095	81.75
303.309	-2.22
303.524	71.51
303.738	-16.55
303.952	38.74
304.166	132.95
304.381	-12.46
304.595	81.75
304.809	28.5
305.023	75.6
305.237	-71.85
305.452	83.8
305.666	44.88
305.88	57.17
306.094	14.17
306.308	-24.75
306.522	-16.55
306.736	38.74
306.95	3.93
307.164	112.47
307.379	75.6
307.593	116.56
307.807	126.8
308.021	36.69
308.235	-37.03
308.449	26.45
308.663	46.93
308.877	22.36
309.091	77.65
309.305	83.8
309.519	51.03
309.733	67.41
309.947	10.07
310.161	59.22
310.374	-43.18
310.588	42.84
310.802	55.12
311.016	44.88
311.23	135
311.444	73.56
311.658	-12.46
311.872	34.64
312.085	-4.27
312.299	8.02
312.513	12.12
312.727	48.98
312.941	48.98
313.154	26.45
313.368	96.08
313.582	-0.17
313.796	40.79
314.009	10.07
314.223	-14.51
314.437	63.32
314.651	63.32
314.864	42.84
315.078	32.6
315.292	67.41
315.505	81.75
315.719	10.07
315.933	57.17
316.146	-22.7
316.36	3.93
316.573	89.94
316.787	40.79
317.001	5.97
317.214	42.84
317.428	53.08
317.641	42.84
317.855	12.12
318.068	5.97
318.282	51.03
318.495	42.84
318.709	-8.36
318.922	26.45
319.136	118.61
319.349	59.22
319.563	36.69
319.776	42.84
319.99	40.79
320.203	14.17
320.417	55.12
320.63	59.22
320.843	75.6
321.057	3.93
321.27	14.17
321.483	61.27
321.697	46.93
321.91	67.41
322.124	59.22
322.337	-57.51
322.55	14.17
322.763	18.26
322.977	22.36
323.19	112.47
323.403	-14.51
323.617	71.51
323.83	51.03
324.043	75.6
324.256	44.88
324.469	53.08
324.683	110.42
324.896	28.5
325.109	48.98
325.322	-8.36
325.535	91.99
325.748	18.26
325.962	57.17
326.175	-12.46
326.388	-4.27
326.601	55.12
326.814	24.4
327.027	20.31
327.24	22.36
327.453	10.07
327.666	46.93
327.879	53.08
328.092	51.03
328.305	36.69
328.518	91.99
328.731	20.31
328.944	40.79
329.157	22.36
329.37	14.17
329.583	34.64
329.796	63.32
330.009	-4.27
330.222	48.98
330.435	44.88
330.648	63.32
330.861	10.07
331.073	48.98
331.286	114.52
331.499	5.97
331.712	10.07
331.925	83.8
332.138	22.36
332.35	114.52
332.563	-24.75
332.776	-28.84
332.989	-2.22
333.202	-28.84
333.414	46.93
333.627	77.65
333.84	20.31
334.053	3.93
334.265	20.31
334.478	51.03
334.691	65.36
334.903	30.55
335.116	-32.94
335.329	-2.22
335.541	63.32
335.754	75.6
335.966	-43.18
336.179	-51.37
336.392	73.56
336.604	65.36
336.817	34.64
337.029	42.84
337.242	18.26
337.454	100.18
337.667	-32.94
337.88	-24.75
338.092	46.93
338.305	75.6
338.517	8.02
338.729	8.02
338.942	-16.55
339.154	-30.89
339.367	-41.13
339.579	-0.17
339.792	26.45
340.004	40.79
340.217	-8.36
340.429	65.36
340.641	12.12
340.854	26.45
341.066	-0.17
341.278	69.46
341.491	55.12
341.703	34.64
341.915	-18.6
342.128	40.79
342.34	46.93
342.552	51.03
342.764	69.46
342.977	28.5
343.189	42.84
343.401	46.93
343.613	44.88
343.826	20.31
344.038	18.26
344.25	87.89
344.462	36.69
344.674	69.46
344.886	-12.46
345.099	53.08
345.311	38.74
345.523	79.7
345.735	36.69
345.947	18.26
346.159	-51.37
346.371	83.8
346.583	16.21
346.795	85.84
347.007	10.07
347.219	34.64
347.431	55.12
347.643	65.36
347.855	63.32
348.067	42.84
348.279	8.02
348.491	71.51
348.703	16.21
348.915	36.69
349.127	44.88
349.339	34.64
349.551	38.74
349.763	44.88
349.975	48.98
350.187	26.45
350.399	18.26
350.61	46.93
350.822	42.84
351.034	24.4
351.246	48.98
351.458	36.69
351.669	69.46
351.881	53.08
352.093	-28.84
352.305	83.8
352.517	10.07
352.728	85.84
352.94	-73.9
353.152	36.69
353.363	42.84
353.575	73.56
353.787	98.13
353.999	42.84
354.21	34.64
354.422	18.26
354.633	28.5
354.845	53.08
355.057	22.36
355.268	116.56
355.48	91.99
355.692	10.07
355.903	-8.36
356.115	-8.36
356.326	8.02
356.538	91.99
356.749	-30.89
356.961	22.36
357.172	10.07
357.384	-8.36
357.595	48.98
357.807	89.94
358.018	12.12
358.23	22.36
358.441	53.08
358.653	61.27
358.864	71.51
359.075	1.88
359.287	42.84
359.498	85.84
359.709	1.88
359.921	18.26
360.132	57.17
360.344	32.6
360.555	1.88
360.766	81.75
360.977	14.17
361.189	34.64
361.4	53.08
361.611	1.88
361.823	8.02
362.034	-37.03
362.245	-8.36
362.456	34.64
362.667	38.74
362.879	38.74
363.09	3.93
363.301	40.79
363.512	20.31
363.723	42.84
363.935	57.17
364.146	51.03
364.357	59.22
364.568	26.45
364.779	1.88
364.99	71.51
365.201	-6.31
365.412	53.08
365.623	42.84
365.834	-6.31
366.045	73.56
366.256	53.08
366.467	-34.99
366.678	71.51
366.889	-24.75
367.1	22.36
367.311	30.55
367.522	69.46
367.733	18.26
367.944	57.17
368.155	20.31
368.366	34.64
368.577	67.41
368.788	108.37
368.999	-8.36
369.209	38.74
369.42	-28.84
369.631	59.22
369.842	85.84
370.053	34.64
370.264	36.69
370.474	-12.46
370.685	16.21
370.896	-18.6
371.107	46.93
371.317	46.93
371.528	12.12
371.739	73.56
371.95	24.4
372.16	51.03
372.371	63.32
372.582	18.26
372.792	-47.27
373.003	22.36
373.214	14.17
373.424	30.55
373.635	22.36
373.846	22.36
374.056	61.27
374.267	32.6
374.477	10.07
374.688	94.04
374.898	28.5
375.109	-20.65
375.319	48.98
375.53	91.99
375.74	34.64
375.951	-32.94
376.161	112.47
376.372	22.36
376.582	20.31
376.793	48.98
377.003	65.36
377.214	-4.27
377.424	-4.27
377.635	137.04
377.845	59.22
378.055	-18.6
378.266	-32.94
378.476	94.04
378.686	-2.22
378.897	59.22
379.107	46.93
379.317	42.84
379.528	40.79
379.738	16.21
379.948	61.27
380.158	32.6
380.369	42.84
380.579	83.8
380.789	34.64
380.999	118.61
381.21	-51.37
381.42	63.32
381.63	85.84
381.84	44.88
382.05	67.41
382.261	124.76
382.471	69.46
382.681	-6.31
382.891	71.51
383.101	53.08
383.311	-12.46
383.521	77.65
383.731	100.18
383.941	36.69
384.151	38.74
384.361	-4.27
384.571	85.84
384.781	38.74
384.991	71.51
385.201	63.32
385.411	32.6
385.621	73.56
385.831	51.03
386.041	42.84
386.251	-12.46
386.461	12.12
386.671	71.51
386.881	69.46
387.091	18.26
387.301	26.45
387.511	59.22
387.72	91.99
387.93	28.5
388.14	51.03
388.35	53.08
388.56	94.04
388.769	67.41
388.979	48.98
389.189	8.02
389.399	34.64
389.609	-28.84
389.818	89.94
390.028	18.26
390.238	89.94
390.447	20.31
390.657	26.45
390.867	46.93
391.076	32.6
391.286	-26.79
391.496	34.64
391.705	81.75
391.915	59.22
392.125	71.51
392.334	94.04
392.544	51.03
392.753	51.03
392.963	30.55
393.172	71.51
393.382	108.37
393.591	38.74
393.801	-6.31
394.01	141.14
394.22	67.41
394.429	112.47
394.639	30.55
394.848	67.41
395.058	46.93
395.267	161.62
395.477	28.5
395.686	85.84
395.895	20.31
396.105	59.22
396.314	16.21
396.524	61.27
396.733	89.94
396.942	108.37
397.152	112.47
397.361	59.22
397.57	73.56
397.78	22.36
397.989	51.03
398.198	94.04
398.407	124.76
398.617	104.28
398.826	55.12
399.035	28.5
399.244	141.14
399.453	48.98
399.663	42.84
399.872	182.1
400.081	79.7
400.29	77.65
400.499	100.18
400.708	91.99
400.917	91.99
401.127	89.94
401.336	81.75
401.545	108.37
401.754	67.41
401.963	102.23
402.172	55.12
402.381	120.66
402.59	102.23
402.799	69.46
403.008	108.37
403.217	132.95
403.426	91.99
403.635	124.76
403.844	81.75
404.053	81.75
404.262	128.85
404.471	155.47
404.68	28.5
404.888	139.09
405.097	63.32
405.306	180.05
405.515	42.84
405.724	75.6
405.933	145.24
406.142	173.91
406.35	169.81
406.559	223.06
406.768	132.95
406.977	208.72
407.185	151.38
407.394	120.66
407.603	143.19
407.812	173.91
408.02	132.95
408.229	85.84
408.438	130.9
408.646	173.91
408.855	149.33
409.064	192.34
409.272	132.95
409.481	200.53
409.69	225.11
409.898	202.58
410.107	227.15
410.315	280.4
410.524	186.19
410.733	204.63
410.941	274.26
411.15	274.26
411.358	249.68
411.567	309.07
411.775	268.11
411.984	317.26
412.192	300.88
412.401	341.84
412.609	329.55
412.818	339.79
413.026	403.28
413.234	331.6
413.443	395.09
413.651	374.61
413.86	395.09
414.068	354.13
414.276	333.65
414.485	362.32
414.693	495.44
414.901	384.85
415.11	505.68
415.318	477.01
415.526	485.2
415.734	552.78
415.943	501.58
416.151	575.31
416.359	493.39
416.567	544.59
416.776	673.61
416.984	653.13
417.192	669.52
417.4	689.99
417.608	659.28
417.817	673.61
418.025	698.19
418.233	765.77
418.441	782.15
418.649	724.81
418.857	804.68
419.065	917.32
419.273	878.41
419.481	874.31
419.689	956.23
419.897	986.95
420.105	1050.44
420.313	1081.16
420.521	1015.62
420.729	1118.02
420.937	1138.5
421.145	1072.96
421.353	1152.84
421.561	1238.85
421.769	1261.38
421.977	1388.35
422.185	1398.59
422.393	1417.02
422.601	1527.61
422.809	1521.47
423.017	1517.37
423.224	1439.55
423.432	1498.94
423.64	1681.21
423.848	1845.05
424.056	1746.75
424.263	1859.38
424.471	1871.67
424.679	1863.48
424.887	2123.57
425.094	2111.29
425.302	2119.48
425.51	2246.45
425.718	2213.68
425.925	2135.86
426.133	2189.11
426.341	2428.72
426.548	2518.83
426.756	2574.13
426.964	2555.69
427.171	2682.67
427.379	2797.35
427.586	2842.41
427.794	2877.23
428.001	3108.65
428.209	3186.47
428.417	3176.23
428.624	3419.94
428.832	3303.2
429.039	3319.59
429.247	3358.5
429.454	3632.93
429.662	3872.54
429.869	3673.89
430.076	3852.06
430.284	3774.24
430.491	4089.62
430.699	4230.93
430.906	4161.3
431.114	4132.63
431.321	4294.42
431.528	4540.18
431.736	4769.55
431.943	4818.7
432.15	4751.12
432.358	4843.28
432.565	5136.13
432.772	5263.11
432.979	5502.72
433.187	5402.37
433.394	5457.67
433.601	5912.32
433.808	5889.79
434.016	5832.44
434.223	6006.52
434.43	6491.89
434.637	6178.55
434.844	6635.25
435.052	6866.67
435.259	6876.91
435.466	7106.28
435.673	6700.78
435.88	7278.31
436.087	7452.39
436.294	7745.25
436.501	7462.63
436.708	7540.45
436.915	8048.35
437.122	8259.29
437.329	8464.08
437.537	8427.22
437.743	8464.08
437.95	8556.24
438.157	8908.49
438.364	9176.78
438.571	9254.6
438.778	9334.47
438.985	10274.49
439.192	9653.95
439.399	9856.7
439.606	9760.45
439.813	10299.06
440.02	10788.53
440.227	11013.81
440.433	10755.76
440.64	11232.94
440.847	10933.93
441.054	11394.73
441.261	12013.21
441.467	11775.65
441.674	12099.23
441.881	12543.64
442.088	12734.1
442.294	12406.42
442.501	12865.17
442.708	13010.57
442.914	13454.98
443.121	14102.14
443.328	13786.75
443.534	14603.89
443.741	14192.25
443.948	13950.59
444.154	15230.57
444.361	14917.23
444.568	15234.67
444.774	15206
444.981	15238.76
445.187	15672.93
445.394	16361.05
445.6	16125.54
445.807	17704.52
446.013	16961.11
446.22	17104.46
446.426	17868.36
446.633	18101.83
446.839	18806.33
447.046	18021.95
447.252	18830.9
447.459	18904.63
447.665	18824.76
447.871	19383.85
448.078	20370.97
448.284	19414.57
448.491	20172.32
448.697	20704.79
448.903	21163.54
449.11	21214.74
449.316	20837.91
449.522	21470.73
449.728	21970.44
449.935	22035.97
450.141	21669.39
450.347	22732.28
450.553	21831.18
450.76	21675.53
450.966	22990.33
451.172	22615.55
451.378	23223.79
451.584	22730.23
451.791	23199.22
451.997	23270.9
452.203	23660.01
452.409	23496.17
452.615	23301.62
452.821	22631.93
453.027	22439.42
453.233	23338.48
453.44	22324.74
453.646	22926.84
453.852	23264.75
454.058	23234.03
454.264	22480.38
454.47	23062.01
454.676	22390.27
454.882	23109.11
455.088	21689.87
455.294	21759.5
455.5	21554.7
455.705	22089.22
455.911	21388.81
456.117	20917.78
456.323	20567.58
456.529	19375.66
456.735	20532.76
456.941	19641.9
457.147	19574.31
457.352	19105.33
457.558	18986.55
457.764	18916.92
457.97	18378.3
458.176	17956.42
458.381	18013.76
458.587	17305.17
458.793	17462.86
458.999	16213.6
459.204	17264.21
459.41	16866.9
459.616	15986.27
459.821	16010.85
460.027	15988.32
460.233	15273.58
460.438	14605.94
460.644	15013.49
460.85	14257.79
461.055	14141.05
461.261	13962.88
461.466	13041.29
461.672	12527.25
461.878	13399.69
462.083	12648.08
462.289	12355.22
462.494	12220.06
462.7	11697.83
462.905	11439.78
463.111	11990.69
463.316	11773.6
463.522	11654.82
463.727	11652.77
463.932	11505.32
464.138	11333.29
464.343	11552.42
464.549	11046.57
464.754	11538.09
464.959	11400.87
465.165	11118.25
465.37	10905.26
465.575	10444.47
465.781	11022
465.986	11091.63
466.191	10528.44
466.397	10348.22
466.602	9912
466.807	10229.43
467.012	10288.82
467.218	10311.35
467.423	10057.4
467.628	10178.23
467.833	10606.26
468.038	10202.81
