Data from USB4F104151__77__13-54-18-238.txt Node

Date: Thu Mar 13 13:54:18 EDT 2025
User: louis
Spectrometer: USB4F10415
Trigger mode: 4
Integration Time (sec): 1.000000E-2
Scans to average: 1
Electric dark correction enabled: true
Nonlinearity correction enabled: false
Boxcar width: 0
XAxis mode: Wavelengths
Number of Pixels in Spectrum: 3648
>>>>>Begin Spectral Data<<<<<
178.204	-37.55
178.424	-37.55
178.644	-37.55
178.864	-8.87
179.084	-144.04
179.304	56.66
179.524	-23.21
179.744	11.61
179.964	-15.02
180.184	17.75
180.404	9.56
180.624	-10.92
180.844	-29.35
181.064	54.61
181.283	9.56
181.503	-111.27
181.723	30.04
181.943	-74.41
182.163	40.28
182.383	-4.78
182.602	-49.83
182.822	36.18
183.042	3.41
183.262	-4.78
183.482	95.57
183.701	-31.4
183.921	44.37
184.141	-47.79
184.361	11.61
184.58	-4.78
184.8	62.8
185.02	17.75
185.239	-88.75
185.459	-64.17
185.679	46.42
185.898	44.37
186.118	32.08
186.338	13.65
186.557	13.65
186.777	9.56
186.997	-39.59
187.216	40.28
187.436	1.37
187.655	-8.87
187.875	-10.92
188.095	-17.07
188.314	32.08
188.534	-17.07
188.753	52.56
188.973	19.8
189.192	83.28
189.412	60.76
189.631	1.37
189.851	-27.31
190.07	97.62
190.29	-45.74
190.509	-76.46
190.729	-35.5
190.948	66.9
191.168	71
191.387	34.13
191.607	-23.21
191.826	48.47
192.045	7.51
192.265	85.33
192.484	-41.64
192.704	-88.75
192.923	-17.07
193.142	-25.26
193.362	-27.31
193.581	50.52
193.8	52.56
194.02	-8.87
194.239	87.38
194.458	-0.68
194.678	56.66
194.897	21.85
195.116	-17.07
195.335	11.61
195.555	-6.83
195.774	19.8
195.993	85.33
196.212	-19.11
196.432	-55.98
196.651	-2.73
196.87	-8.87
197.089	54.61
197.308	-12.97
197.528	48.47
197.747	-17.07
197.966	75.09
198.185	25.94
198.404	1.37
198.623	23.89
198.842	3.41
199.062	32.08
199.281	-49.83
199.5	15.7
199.719	50.52
199.938	-66.22
200.157	5.46
200.376	7.51
200.595	-8.87
200.814	21.85
201.033	36.18
201.252	40.28
201.471	-0.68
201.69	27.99
201.909	38.23
202.128	11.61
202.347	-8.87
202.566	25.94
202.785	7.51
203.004	11.61
203.223	-0.68
203.442	-21.16
203.661	73.04
203.879	30.04
204.098	9.56
204.317	-39.59
204.536	68.95
204.755	36.18
204.974	-12.97
205.193	3.41
205.411	44.37
205.63	-15.02
205.849	-33.45
206.068	-41.64
206.287	-10.92
206.505	13.65
206.724	-17.07
206.943	23.89
207.162	52.56
207.381	-64.17
207.599	1.37
207.818	-8.87
208.037	58.71
208.255	21.85
208.474	5.46
208.693	-35.5
208.911	27.99
209.13	19.8
209.349	-53.93
209.567	19.8
209.786	-21.16
210.005	32.08
210.223	-25.26
210.442	75.09
210.661	91.48
210.879	5.46
211.098	56.66
211.316	32.08
211.535	56.66
211.753	25.94
211.972	-10.92
212.191	11.61
212.409	7.51
212.628	-35.5
212.846	27.99
213.065	66.9
213.283	-43.69
213.502	-15.02
213.72	81.24
213.938	32.08
214.157	-6.83
214.375	-15.02
214.594	-19.11
214.812	34.13
215.031	-0.68
215.249	56.66
215.467	34.13
215.686	79.19
215.904	-0.68
216.122	38.23
216.341	21.85
216.559	-49.83
216.778	7.51
216.996	36.18
217.214	38.23
217.432	30.04
217.651	-6.83
217.869	-4.78
218.087	-23.21
218.306	9.56
218.524	-2.73
218.742	36.18
218.96	-0.68
219.179	46.42
219.397	19.8
219.615	5.46
219.833	-6.83
220.051	36.18
220.27	-2.73
220.488	32.08
220.706	-39.59
220.924	17.75
221.142	-12.97
221.36	36.18
221.578	36.18
221.796	-12.97
222.015	42.32
222.233	-8.87
222.451	-4.78
222.669	-29.35
222.887	9.56
223.105	36.18
223.323	-4.78
223.541	9.56
223.759	25.94
223.977	46.42
224.195	32.08
224.413	21.85
224.631	27.99
224.849	-0.68
225.067	-10.92
225.285	-27.31
225.503	27.99
225.721	-80.55
225.939	-15.02
226.157	34.13
226.375	-15.02
226.592	21.85
226.81	19.8
227.028	11.61
227.246	25.94
227.464	32.08
227.682	23.89
227.9	52.56
228.117	-23.21
228.335	-0.68
228.553	25.94
228.771	52.56
228.989	38.23
229.206	23.89
229.424	-15.02
229.642	-49.83
229.86	-60.07
230.077	34.13
230.295	42.32
230.513	54.61
230.731	77.14
230.948	60.76
231.166	13.65
231.384	-25.26
231.601	19.8
231.819	128.34
232.037	-4.78
232.254	15.7
232.472	38.23
232.689	-10.92
232.907	79.19
233.125	15.7
233.342	3.41
233.56	-6.83
233.777	-17.07
233.995	38.23
234.213	42.32
234.43	23.89
234.648	-41.64
234.865	-90.79
235.083	48.47
235.3	83.28
235.518	73.04
235.735	-19.11
235.953	85.33
236.17	83.28
236.388	9.56
236.605	64.85
236.822	17.75
237.04	46.42
237.257	52.56
237.475	-12.97
237.692	66.9
237.909	34.13
238.127	-35.5
238.344	-68.27
238.562	-8.87
238.779	-51.88
238.996	-8.87
239.214	38.23
239.431	68.95
239.648	44.37
239.865	7.51
240.083	52.56
240.3	11.61
240.517	89.43
240.735	23.89
240.952	-0.68
241.169	105.81
241.386	-6.83
241.603	48.47
241.821	1.37
242.038	27.99
242.255	-17.07
242.472	-6.83
242.689	27.99
242.907	-12.97
243.124	75.09
243.341	11.61
243.558	7.51
243.775	27.99
243.992	62.8
244.209	66.9
244.426	-15.02
244.643	-35.5
244.86	32.08
245.078	19.8
245.295	17.75
245.512	-29.35
245.729	-39.59
245.946	48.47
246.163	52.56
246.38	44.37
246.597	9.56
246.814	34.13
247.031	-39.59
247.248	-8.87
247.464	58.71
247.681	-55.98
247.898	48.47
248.115	154.96
248.332	101.72
248.549	-29.35
248.766	-27.31
248.983	71
249.2	-12.97
249.417	-27.31
249.633	-17.07
249.85	56.66
250.067	-64.17
250.284	7.51
250.501	7.51
250.717	42.32
250.934	-58.03
251.151	3.41
251.368	-37.55
251.585	32.08
251.801	-0.68
252.018	79.19
252.235	23.89
252.451	1.37
252.668	-17.07
252.885	23.89
253.102	91.48
253.318	34.13
253.535	15.7
253.752	-19.11
253.968	1.37
254.185	-31.4
254.401	34.13
254.618	25.94
254.835	-47.79
255.051	64.85
255.268	-21.16
255.484	-15.02
255.701	-4.78
255.917	95.57
256.134	-2.73
256.351	17.75
256.567	7.51
256.784	36.18
257	3.41
257.217	21.85
257.433	5.46
257.65	91.48
257.866	-51.88
258.082	44.37
258.299	36.18
258.515	44.37
258.732	-0.68
258.948	32.08
259.165	-47.79
259.381	-0.68
259.597	40.28
259.814	54.61
260.03	44.37
260.246	38.23
260.463	44.37
260.679	17.75
260.895	-8.87
261.112	9.56
261.328	-15.02
261.544	64.85
261.761	1.37
261.977	-6.83
262.193	-10.92
262.409	23.89
262.626	11.61
262.842	83.28
263.058	-2.73
263.274	-4.78
263.49	-15.02
263.707	-2.73
263.923	58.71
264.139	1.37
264.355	7.51
264.571	-31.4
264.787	-21.16
265.004	77.14
265.22	75.09
265.436	-15.02
265.652	-19.11
265.868	116.05
266.084	-6.83
266.3	27.99
266.516	19.8
266.732	23.89
266.948	-58.03
267.164	-41.64
267.38	7.51
267.596	-37.55
267.812	-37.55
268.028	50.52
268.244	-4.78
268.46	-6.83
268.676	-12.97
268.892	-15.02
269.108	-27.31
269.324	3.41
269.54	44.37
269.756	15.7
269.972	-12.97
270.188	-19.11
270.403	-0.68
270.619	-10.92
270.835	46.42
271.051	-27.31
271.267	40.28
271.483	-2.73
271.698	-17.07
271.914	-10.92
272.13	-8.87
272.346	17.75
272.562	-21.16
272.777	7.51
272.993	-121.51
273.209	-27.31
273.425	-33.45
273.64	-88.75
273.856	-19.11
274.072	56.66
274.287	44.37
274.503	19.8
274.719	27.99
274.934	27.99
275.15	32.08
275.366	-2.73
275.581	48.47
275.797	3.41
276.012	30.04
276.228	42.32
276.444	1.37
276.659	46.42
276.875	17.75
277.09	-25.26
277.306	-19.11
277.521	75.09
277.737	3.41
277.952	48.47
278.168	25.94
278.383	30.04
278.599	21.85
278.814	-37.55
279.03	40.28
279.245	-49.83
279.461	64.85
279.676	25.94
279.892	-45.74
280.107	52.56
280.322	-58.03
280.538	66.9
280.753	-19.11
280.969	9.56
281.184	-51.88
281.399	62.8
281.615	48.47
281.83	25.94
282.045	99.67
282.26	-10.92
282.476	17.75
282.691	21.85
282.906	-12.97
283.122	77.14
283.337	87.38
283.552	15.7
283.767	40.28
283.983	-12.97
284.198	-15.02
284.413	66.9
284.628	-39.59
284.843	-6.83
285.058	85.33
285.274	27.99
285.489	-17.07
285.704	3.41
285.919	-17.07
286.134	-51.88
286.349	-29.35
286.564	46.42
286.779	83.28
286.995	48.47
287.21	-68.27
287.425	-29.35
287.64	-2.73
287.855	-29.35
288.07	60.76
288.285	34.13
288.5	-39.59
288.715	62.8
288.93	19.8
289.145	75.09
289.36	77.14
289.575	-17.07
289.79	-4.78
290.004	13.65
290.219	79.19
290.434	-31.4
290.649	60.76
290.864	-6.83
291.079	30.04
291.294	21.85
291.509	-19.11
291.724	-92.84
291.938	-6.83
292.153	11.61
292.368	66.9
292.583	62.8
292.798	-2.73
293.012	50.52
293.227	30.04
293.442	9.56
293.657	34.13
293.871	58.71
294.086	5.46
294.301	13.65
294.516	58.71
294.73	-0.68
294.945	25.94
295.16	34.13
295.374	21.85
295.589	-35.5
295.804	7.51
296.018	13.65
296.233	19.8
296.447	48.47
296.662	75.09
296.877	36.18
297.091	27.99
297.306	3.41
297.52	48.47
297.735	21.85
297.949	38.23
298.164	5.46
298.378	7.51
298.593	7.51
298.807	3.41
299.022	81.24
299.236	48.47
299.451	36.18
299.665	-10.92
299.88	-6.83
300.094	15.7
300.309	42.32
300.523	7.51
300.737	52.56
300.952	-33.45
301.166	23.89
301.381	17.75
301.595	40.28
301.809	44.37
302.024	21.85
302.238	21.85
302.452	5.46
302.667	44.37
302.881	66.9
303.095	19.8
303.309	-8.87
303.524	-62.12
303.738	32.08
303.952	13.65
304.166	122.2
304.381	-8.87
304.595	54.61
304.809	42.32
305.023	99.67
305.237	54.61
305.452	38.23
305.666	27.99
305.88	87.38
306.094	-35.5
306.308	56.66
306.522	5.46
306.736	52.56
306.95	-12.97
307.164	34.13
307.379	-86.7
307.593	34.13
307.807	40.28
308.021	-37.55
308.235	-31.4
308.449	46.42
308.663	15.7
308.877	-23.21
309.091	-23.21
309.305	79.19
309.519	-103.08
309.733	-0.68
309.947	-43.69
310.161	44.37
310.374	-2.73
310.588	-37.55
310.802	1.37
311.016	-6.83
311.23	25.94
311.444	7.51
311.658	11.61
311.872	46.42
312.085	5.46
312.299	19.8
312.513	15.7
312.727	58.71
312.941	-6.83
313.154	-17.07
313.368	-0.68
313.582	-60.07
313.796	66.9
314.009	17.75
314.223	40.28
314.437	52.56
314.651	15.7
314.864	21.85
315.078	40.28
315.292	30.04
315.505	-31.4
315.719	81.24
315.933	97.62
316.146	5.46
316.36	-70.31
316.573	9.56
316.787	36.18
317.001	81.24
317.214	15.7
317.428	-39.59
317.641	36.18
317.855	-10.92
318.068	-47.79
318.282	-58.03
318.495	-4.78
318.709	77.14
318.922	15.7
319.136	68.95
319.349	19.8
319.563	7.51
319.776	73.04
319.99	-90.79
320.203	46.42
320.417	-41.64
320.63	3.41
320.843	56.66
321.057	13.65
321.27	-27.31
321.483	9.56
321.697	95.57
321.91	19.8
322.124	44.37
322.337	62.8
322.55	-0.68
322.763	-12.97
322.977	-10.92
323.19	-6.83
323.403	36.18
323.617	25.94
323.83	50.52
324.043	3.41
324.256	54.61
324.469	42.32
324.683	48.47
324.896	79.19
325.109	50.52
325.322	-37.55
325.535	114
325.748	-29.35
325.962	101.72
326.175	9.56
326.388	114
326.601	-49.83
326.814	42.32
327.027	62.8
327.24	40.28
327.453	-47.79
327.666	25.94
327.879	-6.83
328.092	75.09
328.305	-6.83
328.518	42.32
328.731	-6.83
328.944	-19.11
329.157	32.08
329.37	-15.02
329.583	54.61
329.796	-35.5
330.009	38.23
330.222	-6.83
330.435	60.76
330.648	75.09
330.861	23.89
331.073	56.66
331.286	50.52
331.499	58.71
331.712	46.42
331.925	17.75
332.138	-35.5
332.35	5.46
332.563	30.04
332.776	1.37
332.989	17.75
333.202	30.04
333.414	44.37
333.627	91.48
333.84	7.51
334.053	71
334.265	21.85
334.478	42.32
334.691	3.41
334.903	40.28
335.116	-58.03
335.329	73.04
335.541	97.62
335.754	54.61
335.966	15.7
336.179	-31.4
336.392	15.7
336.604	58.71
336.817	85.33
337.029	56.66
337.242	27.99
337.454	-27.31
337.667	25.94
337.88	71
338.092	27.99
338.305	-33.45
338.517	-15.02
338.729	56.66
338.942	62.8
339.154	-23.21
339.367	-37.55
339.579	66.9
339.792	-19.11
340.004	62.8
340.217	23.89
340.429	15.7
340.641	64.85
340.854	27.99
341.066	11.61
341.278	-0.68
341.491	66.9
341.703	97.62
341.915	38.23
342.128	36.18
342.34	25.94
342.552	-58.03
342.764	60.76
342.977	3.41
343.189	38.23
343.401	19.8
343.613	42.32
343.826	122.2
344.038	3.41
344.25	64.85
344.462	3.41
344.674	27.99
344.886	75.09
345.099	83.28
345.311	54.61
345.523	19.8
345.735	13.65
345.947	68.95
346.159	30.04
346.371	15.7
346.583	-25.26
346.795	75.09
347.007	-2.73
347.219	40.28
347.431	-29.35
347.643	73.04
347.855	85.33
348.067	-8.87
348.279	-23.21
348.491	-17.07
348.703	64.85
348.915	-62.12
349.127	-4.78
349.339	54.61
349.551	38.23
349.763	83.28
349.975	34.13
350.187	-66.22
350.399	58.71
350.61	-17.07
350.822	-23.21
351.034	42.32
351.246	23.89
351.458	75.09
351.669	-37.55
351.881	32.08
352.093	-21.16
352.305	17.75
352.517	52.56
352.728	25.94
352.94	-43.69
353.152	68.95
353.363	5.46
353.575	60.76
353.787	-6.83
353.999	15.7
354.21	13.65
354.422	40.28
354.633	11.61
354.845	77.14
355.057	48.47
355.268	107.86
355.48	62.8
355.692	-17.07
355.903	-15.02
356.115	-19.11
356.326	-23.21
356.538	54.61
356.749	-45.74
356.961	-4.78
357.172	21.85
357.384	34.13
357.595	23.89
357.807	54.61
358.018	60.76
358.23	105.81
358.441	27.99
358.653	15.7
358.864	15.7
359.075	36.18
359.287	-27.31
359.498	58.71
359.709	46.42
359.921	19.8
360.132	-4.78
360.344	-6.83
360.555	42.32
360.766	54.61
360.977	-10.92
361.189	-2.73
361.4	19.8
361.611	97.62
361.823	5.46
362.034	-12.97
362.245	75.09
362.456	-12.97
362.667	17.75
362.879	9.56
363.09	66.9
363.301	44.37
363.512	103.76
363.723	19.8
363.935	-72.36
364.146	54.61
364.357	25.94
364.568	-21.16
364.779	44.37
364.99	48.47
365.201	9.56
365.412	-21.16
365.623	-25.26
365.834	81.24
366.045	25.94
366.256	15.7
366.467	48.47
366.678	-27.31
366.889	27.99
367.1	60.76
367.311	5.46
367.522	17.75
367.733	19.8
367.944	68.95
368.155	25.94
368.366	66.9
368.577	23.89
368.788	23.89
368.999	21.85
369.209	15.7
369.42	36.18
369.631	60.76
369.842	34.13
370.053	44.37
370.264	5.46
370.474	34.13
370.685	-31.4
370.896	27.99
371.107	46.42
371.317	60.76
371.528	73.04
371.739	42.32
371.95	-12.97
372.16	81.24
372.371	40.28
372.582	17.75
372.792	1.37
373.003	87.38
373.214	1.37
373.424	9.56
373.635	21.85
373.846	48.47
374.056	34.13
374.267	48.47
374.477	9.56
374.688	-15.02
374.898	-39.59
375.109	64.85
375.319	77.14
375.53	77.14
375.74	42.32
375.951	-6.83
376.161	48.47
376.372	85.33
376.582	52.56
376.793	30.04
377.003	9.56
377.214	58.71
377.424	17.75
377.635	-0.68
377.845	-35.5
378.055	64.85
378.266	-12.97
378.476	34.13
378.686	42.32
378.897	5.46
379.107	60.76
379.317	71
379.528	93.52
379.738	9.56
379.948	-6.83
380.158	68.95
380.369	75.09
380.579	-0.68
380.789	-17.07
380.999	38.23
381.21	120.15
381.42	52.56
381.63	19.8
381.84	54.61
382.05	42.32
382.261	-6.83
382.471	-19.11
382.681	40.28
382.891	11.61
383.101	38.23
383.311	38.23
383.521	38.23
383.731	-21.16
383.941	71
384.151	-23.21
384.361	40.28
384.571	23.89
384.781	-29.35
384.991	-4.78
385.201	89.43
385.411	48.47
385.621	54.61
385.831	9.56
386.041	36.18
386.251	-17.07
386.461	19.8
386.671	56.66
386.881	58.71
387.091	-2.73
387.301	44.37
387.511	-29.35
387.72	77.14
387.93	7.51
388.14	73.04
388.35	46.42
388.56	40.28
388.769	36.18
388.979	38.23
389.189	56.66
389.399	-25.26
389.609	99.67
389.818	-27.31
390.028	27.99
390.238	-6.83
390.447	7.51
390.657	68.95
390.867	52.56
391.076	21.85
391.286	150.87
391.496	30.04
391.705	-4.78
391.915	85.33
392.125	85.33
392.334	75.09
392.544	52.56
392.753	81.24
392.963	1.37
393.172	75.09
393.382	19.8
393.591	89.43
393.801	42.32
394.01	48.47
394.22	17.75
394.429	97.62
394.639	68.95
394.848	99.67
395.058	62.8
395.267	40.28
395.477	85.33
395.686	77.14
395.895	71
396.105	85.33
396.314	75.09
396.524	48.47
396.733	85.33
396.942	60.76
397.152	-6.83
397.361	9.56
397.57	58.71
397.78	87.38
397.989	3.41
398.198	122.2
398.407	9.56
398.617	58.71
398.826	77.14
399.035	23.89
399.244	87.38
399.453	25.94
399.663	66.9
399.872	17.75
400.081	79.19
400.29	48.47
400.499	1.37
400.708	52.56
400.917	38.23
401.127	101.72
401.336	87.38
401.545	120.15
401.754	17.75
401.963	52.56
402.172	-2.73
402.381	87.38
402.59	34.13
402.799	71
403.008	142.68
403.217	105.81
403.426	40.28
403.635	36.18
403.844	58.71
404.053	81.24
404.262	79.19
404.471	159.06
404.68	23.89
404.888	134.48
405.097	56.66
405.306	122.2
405.515	116.05
405.724	132.44
405.933	132.44
406.142	134.48
406.35	157.01
406.559	130.39
406.768	150.87
406.977	171.35
407.185	103.76
407.394	64.85
407.603	124.24
407.812	140.63
408.02	132.44
408.229	105.81
408.438	161.11
408.646	75.09
408.855	163.15
409.064	107.86
409.272	150.87
409.481	216.4
409.69	150.87
409.898	171.35
410.107	159.06
410.315	200.02
410.524	130.39
410.733	249.17
410.941	230.74
411.15	216.4
411.358	283.99
411.567	222.55
411.775	273.75
411.984	294.22
412.192	251.22
412.401	255.31
412.609	333.14
412.818	339.28
413.026	329.04
413.234	329.04
413.443	329.04
413.651	374.1
413.86	314.7
414.068	417.1
414.276	288.08
414.485	402.77
414.693	380.24
414.901	361.81
415.11	468.3
415.318	355.66
415.526	447.82
415.734	439.63
415.943	476.49
416.151	548.17
416.359	458.06
416.567	472.4
416.776	492.88
416.984	621.9
417.192	546.12
417.4	527.69
417.608	609.61
417.817	628.04
418.025	648.52
418.233	578.89
418.441	681.29
418.649	738.63
418.857	712.01
419.065	724.3
419.273	697.67
419.481	847.18
419.689	841.03
419.897	873.8
420.105	869.7
420.313	859.46
420.521	972.1
420.729	974.15
420.937	1037.64
421.145	1103.17
421.353	1054.02
421.561	1137.99
421.769	1281.35
421.977	1211.71
422.185	1238.34
422.393	1283.39
422.601	1256.77
422.809	1346.88
423.017	1430.85
423.224	1420.61
423.432	1457.47
423.64	1469.76
423.848	1635.64
424.056	1531.2
424.263	1697.08
424.471	1621.31
424.679	1674.56
424.887	1838.39
425.094	1883.45
425.302	1924.41
425.51	2014.52
425.718	1969.46
425.925	2053.43
426.133	1998.13
426.341	2143.54
426.548	2334
426.756	2344.24
426.964	2401.58
427.171	2413.87
427.379	2411.82
427.586	2587.95
427.794	2624.81
428.001	2843.95
428.209	2936.1
428.417	2788.65
428.624	3167.52
428.832	3073.32
429.039	3112.23
429.247	3147.05
429.454	3394.85
429.662	3482.91
429.869	3448.1
430.076	3527.97
430.284	3450.14
430.491	3493.15
430.699	3845.4
430.906	3857.69
431.114	3882.27
431.321	4007.19
431.528	4121.88
431.736	4302.1
431.943	4488.46
432.15	4381.97
432.358	4605.2
432.565	4631.82
432.772	4713.74
432.979	4928.78
433.187	5121.29
433.394	5088.52
433.601	5397.76
433.808	5448.96
434.016	5281.03
434.223	5569.79
434.43	5981.43
434.637	5754.11
434.844	6163.7
435.052	6206.71
435.259	6233.33
435.466	6474.99
435.673	6247.67
435.88	6755.57
436.087	6950.12
436.294	7011.56
436.501	6888.68
436.708	7169.26
436.915	7185.64
437.122	7628
437.329	7322.85
437.537	7595.23
437.743	8037.59
437.95	7879.9
438.157	8275.16
438.364	8551.63
438.571	8545.49
438.778	8531.16
438.985	9442.5
439.192	9104.59
439.399	9286.86
439.606	9204.94
439.813	9514.18
440.02	10040.51
440.227	9919.68
440.433	9993.4
440.64	10192.06
440.847	10196.15
441.054	10263.74
441.261	11066.54
441.467	10912.94
441.674	11230.38
441.881	11564.2
442.088	11623.59
442.294	11685.03
442.501	11775.14
442.708	11994.27
442.914	12389.53
443.121	12909.71
443.328	12584.09
443.534	13778.05
443.741	13096.08
443.948	12954.77
444.154	13874.31
444.361	13825.15
444.568	14165.12
444.774	13968.51
444.981	14218.36
445.187	14457.98
445.394	15303.79
445.6	14955.63
445.807	16366.68
446.013	15699.05
446.22	15899.75
446.426	16364.64
446.633	16530.52
446.839	17198.16
447.046	16573.53
447.252	17167.44
447.459	17433.68
447.665	17425.48
447.871	18039.87
448.078	18869.3
448.284	17894.47
448.491	18441.28
448.697	19192.88
448.903	19416.11
449.11	19616.81
449.316	19299.37
449.522	19711.02
449.728	20235.3
449.935	20030.5
450.141	20130.85
450.347	20685.85
450.553	20147.23
450.76	20161.57
450.966	20765.72
451.172	20567.07
451.378	21085.2
451.584	20696.09
451.791	21244.95
451.997	21132.31
452.203	21404.69
452.409	21652.49
452.615	21197.84
452.821	20272.16
453.027	19977.25
453.233	21322.77
453.44	20227.1
453.646	20978.71
453.852	20530.2
454.058	21025.81
454.264	20425.76
454.47	20888.6
454.676	20069.41
454.882	20868.12
455.088	19029.04
455.294	19338.29
455.5	19766.31
455.705	19569.71
455.911	18859.06
456.117	18533.43
456.323	18494.52
456.529	17357.9
456.735	18271.29
456.941	17701.96
457.147	17245.26
457.352	16663.64
457.558	16567.38
457.764	16536.66
457.97	16245.85
458.176	15774.82
458.381	16006.24
458.587	15244.4
458.793	15185.01
458.999	14367.87
459.204	15451.24
459.41	14922.87
459.616	13974.66
459.821	13911.17
460.027	13902.98
460.233	13655.17
460.438	13214.86
460.644	13292.68
460.85	12526.74
461.055	12258.46
461.261	12438.68
461.466	11586.72
461.672	11205.8
461.878	12006.56
462.083	11240.62
462.289	10925.23
462.494	10665.14
462.7	10273.98
462.905	10095.8
463.111	10400.95
463.316	10511.54
463.522	10319.03
463.727	10155.19
463.932	10222.78
464.138	10048.7
464.343	10104
464.549	9782.46
464.754	10179.77
464.959	9995.45
465.165	10132.67
465.37	9632.96
465.575	9293
465.781	9718.98
465.986	9960.64
466.191	9196.74
466.397	9274.57
466.602	8729.81
466.807	9247.94
467.012	9350.34
467.218	9184.46
467.423	9108.68
467.628	9032.91
467.833	9606.34
468.038	9135.31
468.244	8934.6
468.449	9194.7
468.654	8950.99
