Data from USB4F104151__57__13-53-35-296.txt Node

Date: Thu Mar 13 13:53:35 EDT 2025
User: louis
Spectrometer: USB4F10415
Trigger mode: 4
Integration Time (sec): 1.000000E-2
Scans to average: 1
Electric dark correction enabled: true
Nonlinearity correction enabled: false
Boxcar width: 0
XAxis mode: Wavelengths
Number of Pixels in Spectrum: 3648
>>>>>Begin Spectral Data<<<<<
178.204	9.9
178.424	9.9
178.644	9.9
178.864	-55.64
179.084	-72.02
179.304	-69.97
179.524	-4.44
179.744	5.8
179.964	71.34
180.184	-57.68
180.404	-6.49
180.624	9.9
180.844	26.28
181.064	13.99
181.283	-2.39
181.503	-8.53
181.723	22.19
181.943	-90.45
182.163	128.68
182.383	11.95
182.602	-6.49
182.822	32.43
183.042	79.53
183.262	-49.49
183.482	44.71
183.701	-2.39
183.921	-41.3
184.141	-0.34
184.361	22.19
184.58	9.9
184.8	-26.96
185.02	38.57
185.239	36.52
185.459	67.24
185.679	-57.68
185.898	-45.4
186.118	-22.87
186.338	-12.63
186.557	-29.01
186.777	9.9
186.997	20.14
187.216	-10.58
187.436	57
187.655	-35.16
187.875	-41.3
188.095	73.39
188.314	-6.49
188.534	54.95
188.753	1.71
188.973	30.38
189.192	26.28
189.412	50.86
189.631	-45.4
189.851	13.99
190.07	34.47
190.29	9.9
190.509	1.71
190.729	-35.16
190.948	-22.87
191.168	50.86
191.387	63.15
191.607	-12.63
191.826	-4.44
192.045	-16.73
192.265	-18.77
192.484	-41.3
192.704	79.53
192.923	-69.97
193.142	-16.73
193.362	-39.25
193.581	48.81
193.8	7.85
194.02	44.71
194.239	42.67
194.458	34.47
194.678	-47.44
194.897	-49.49
195.116	-20.82
195.335	11.95
195.555	-0.34
195.774	-33.11
195.993	-24.92
196.212	87.72
196.432	9.9
196.651	9.9
196.87	3.75
197.089	48.81
197.308	30.38
197.528	18.09
197.747	-20.82
197.966	-51.54
198.185	26.28
198.404	-6.49
198.623	-31.06
198.842	36.52
199.062	-24.92
199.281	-57.68
199.5	9.9
199.719	54.95
199.938	46.76
200.157	20.14
200.376	-53.59
200.595	-18.77
200.814	3.75
201.033	-8.53
201.252	11.95
201.471	34.47
201.69	42.67
201.909	-20.82
202.128	-18.77
202.347	38.57
202.566	-2.39
202.785	102.06
203.004	-59.73
203.223	77.48
203.442	52.91
203.661	13.99
203.879	69.29
204.098	-0.34
204.317	-2.39
204.536	11.95
204.755	36.52
204.974	91.82
205.193	5.8
205.411	61.1
205.63	48.81
205.849	52.91
206.068	11.95
206.287	-49.49
206.505	52.91
206.724	16.04
206.943	42.67
207.162	32.43
207.381	-0.34
207.599	59.05
207.818	-12.63
208.037	18.09
208.255	-12.63
208.474	34.47
208.693	-18.77
208.911	20.14
209.13	-57.68
209.349	20.14
209.567	48.81
209.786	77.48
210.005	26.28
210.223	16.04
210.442	24.23
210.661	20.14
210.879	32.43
211.098	5.8
211.316	30.38
211.535	44.71
211.753	73.39
211.972	-26.96
212.191	42.67
212.409	36.52
212.628	114.34
212.846	89.77
213.065	18.09
213.283	-49.49
213.502	-43.35
213.72	-20.82
213.938	26.28
214.157	67.24
214.375	69.29
214.594	28.33
214.812	57
215.031	5.8
215.249	-35.16
215.467	26.28
215.686	26.28
215.904	44.71
216.122	71.34
216.341	57
216.559	52.91
216.778	59.05
216.996	26.28
217.214	-35.16
217.432	-8.53
217.651	7.85
217.869	73.39
218.087	-18.77
218.306	13.99
218.524	1.71
218.742	22.19
218.96	46.76
219.179	30.38
219.397	-29.01
219.615	77.48
219.833	-26.96
220.051	67.24
220.27	75.43
220.488	18.09
220.706	-26.96
220.924	3.75
221.142	-6.49
221.36	38.57
221.578	-10.58
221.796	9.9
222.015	20.14
222.233	44.71
222.451	48.81
222.669	-74.07
222.887	30.38
223.105	13.99
223.323	-31.06
223.541	9.9
223.759	-8.53
223.977	-14.68
224.195	61.1
224.413	-0.34
224.631	20.14
224.849	28.33
225.067	69.29
225.285	-22.87
225.503	97.96
225.721	3.75
225.939	-31.06
226.157	7.85
226.375	54.95
226.592	-14.68
226.81	-49.49
227.028	9.9
227.246	13.99
227.464	59.05
227.682	71.34
227.9	-14.68
228.117	11.95
228.335	48.81
228.553	79.53
228.771	1.71
228.989	57
229.206	79.53
229.424	32.43
229.642	9.9
229.86	-12.63
230.077	13.99
230.295	-0.34
230.513	-55.64
230.731	-8.53
230.948	-16.73
231.166	18.09
231.384	-0.34
231.601	20.14
231.819	40.62
232.037	-0.34
232.254	-41.3
232.472	3.75
232.689	38.57
232.907	-31.06
233.125	40.62
233.342	-2.39
233.56	-37.2
233.777	-43.35
233.995	-2.39
234.213	89.77
234.43	7.85
234.648	20.14
234.865	-2.39
235.083	16.04
235.3	-31.06
235.518	52.91
235.735	-88.4
235.953	48.81
236.17	-31.06
236.388	-33.11
236.605	24.23
236.822	83.63
237.04	-35.16
237.257	63.15
237.475	34.47
237.692	63.15
237.909	7.85
238.127	46.76
238.344	67.24
238.562	1.71
238.779	-2.39
238.996	28.33
239.214	-0.34
239.431	-4.44
239.648	16.04
239.865	11.95
240.083	36.52
240.3	-47.44
240.517	-35.16
240.735	38.57
240.952	3.75
241.169	16.04
241.386	-8.53
241.603	59.05
241.821	1.71
242.038	11.95
242.255	85.67
242.472	5.8
242.689	5.8
242.907	36.52
243.124	-6.49
243.341	67.24
243.558	40.62
243.775	77.48
243.992	30.38
244.209	65.19
244.426	97.96
244.643	36.52
244.86	54.95
245.078	-29.01
245.295	81.58
245.512	-74.07
245.729	-57.68
245.946	26.28
246.163	38.57
246.38	-43.35
246.597	30.38
246.814	18.09
247.031	36.52
247.248	-6.49
247.464	5.8
247.681	-4.44
247.898	32.43
248.115	-18.77
248.332	-22.87
248.549	22.19
248.766	3.75
248.983	-45.4
249.2	-22.87
249.417	-29.01
249.633	81.58
249.85	32.43
250.067	-12.63
250.284	9.9
250.501	28.33
250.717	16.04
250.934	-22.87
251.151	-65.88
251.368	50.86
251.585	-22.87
251.801	-67.92
252.018	-18.77
252.235	44.71
252.451	42.67
252.668	-29.01
252.885	-26.96
253.102	30.38
253.318	59.05
253.535	57
253.752	-10.58
253.968	-14.68
254.185	-4.44
254.401	24.23
254.618	20.14
254.835	38.57
255.051	-47.44
255.268	42.67
255.484	-24.92
255.701	42.67
255.917	87.72
256.134	-14.68
256.351	11.95
256.567	28.33
256.784	46.76
257	-20.82
257.217	48.81
257.433	-24.92
257.65	26.28
257.866	3.75
258.082	30.38
258.299	-4.44
258.515	87.72
258.732	-24.92
258.948	26.28
259.165	3.75
259.381	69.29
259.597	3.75
259.814	54.95
260.03	-20.82
260.246	34.47
260.463	46.76
260.679	-4.44
260.895	13.99
261.112	-6.49
261.328	22.19
261.544	116.39
261.761	26.28
261.977	-16.73
262.193	-67.92
262.409	54.95
262.626	36.52
262.842	-26.96
263.058	13.99
263.274	7.85
263.49	-22.87
263.707	48.81
263.923	-47.44
264.139	11.95
264.355	65.19
264.571	95.91
264.787	-0.34
265.004	30.38
265.22	-6.49
265.436	100.01
265.652	18.09
265.868	-12.63
266.084	-18.77
266.3	52.91
266.516	-47.44
266.732	46.76
266.948	13.99
267.164	50.86
267.38	32.43
267.596	50.86
267.812	32.43
268.028	40.62
268.244	-16.73
268.46	63.15
268.676	-65.88
268.892	22.19
269.108	67.24
269.324	-18.77
269.54	61.1
269.756	-33.11
269.972	-20.82
270.188	36.52
270.403	-33.11
270.619	22.19
270.835	16.04
271.051	-2.39
271.267	46.76
271.483	52.91
271.698	9.9
271.914	57
272.13	-33.11
272.346	-12.63
272.562	-51.54
272.777	69.29
272.993	-4.44
273.209	73.39
273.425	-45.4
273.64	36.52
273.856	44.71
274.072	1.71
274.287	-61.78
274.503	16.04
274.719	-22.87
274.934	-4.44
275.15	26.28
275.366	54.95
275.581	48.81
275.797	5.8
276.012	11.95
276.228	50.86
276.444	-4.44
276.659	11.95
276.875	7.85
277.09	-10.58
277.306	79.53
277.521	63.15
277.737	-45.4
277.952	22.19
278.168	38.57
278.383	61.1
278.599	9.9
278.814	50.86
279.03	7.85
279.245	5.8
279.461	52.91
279.676	71.34
279.892	-31.06
280.107	63.15
280.322	3.75
280.538	16.04
280.753	18.09
280.969	32.43
281.184	7.85
281.399	79.53
281.615	63.15
281.83	63.15
282.045	-14.68
282.26	63.15
282.476	11.95
282.691	95.91
282.906	9.9
283.122	22.19
283.337	44.71
283.552	9.9
283.767	79.53
283.983	-37.2
284.198	73.39
284.413	46.76
284.628	-10.58
284.843	42.67
285.058	-24.92
285.274	-22.87
285.489	18.09
285.704	1.71
285.919	-41.3
286.134	-33.11
286.349	-43.35
286.564	9.9
286.779	-10.58
286.995	46.76
287.21	13.99
287.425	-10.58
287.64	18.09
287.855	46.76
288.07	30.38
288.285	48.81
288.5	-18.77
288.715	46.76
288.93	20.14
289.145	50.86
289.36	36.52
289.575	57
289.79	-33.11
290.004	1.71
290.219	-49.49
290.434	1.71
290.649	-41.3
290.864	42.67
291.079	30.38
291.294	83.63
291.509	67.24
291.724	44.71
291.938	3.75
292.153	7.85
292.368	-31.06
292.583	-2.39
292.798	40.62
293.012	42.67
293.227	36.52
293.442	28.33
293.657	77.48
293.871	16.04
294.086	44.71
294.301	-18.77
294.516	20.14
294.73	42.67
294.945	42.67
295.16	-6.49
295.374	9.9
295.589	46.76
295.804	-37.2
296.018	38.57
296.233	-53.59
296.447	26.28
296.662	7.85
296.877	9.9
297.091	65.19
297.306	-39.25
297.52	81.58
297.735	13.99
297.949	-20.82
298.164	34.47
298.378	-2.39
298.593	-33.11
298.807	61.1
299.022	32.43
299.236	13.99
299.451	44.71
299.665	52.91
299.88	22.19
300.094	69.29
300.309	-10.58
300.523	16.04
300.737	-14.68
300.952	75.43
301.166	11.95
301.381	69.29
301.595	79.53
301.809	44.71
302.024	-8.53
302.238	46.76
302.452	112.3
302.667	-20.82
302.881	67.24
303.095	-2.39
303.309	5.8
303.524	26.28
303.738	-10.58
303.952	16.04
304.166	-14.68
304.381	-18.77
304.595	69.29
304.809	67.24
305.023	-24.92
305.237	-26.96
305.452	16.04
305.666	20.14
305.88	50.86
306.094	36.52
306.308	20.14
306.522	79.53
306.736	9.9
306.95	3.75
307.164	-45.4
307.379	1.71
307.593	40.62
307.807	-37.2
308.021	-14.68
308.235	26.28
308.449	28.33
308.663	9.9
308.877	16.04
309.091	46.76
309.305	-4.44
309.519	-0.34
309.733	50.86
309.947	1.71
310.161	46.76
310.374	40.62
310.588	28.33
310.802	-0.34
311.016	26.28
311.23	-24.92
311.444	48.81
311.658	65.19
311.872	116.39
312.085	67.24
312.299	22.19
312.513	13.99
312.727	100.01
312.941	-45.4
313.154	24.23
313.368	-10.58
313.582	89.77
313.796	48.81
314.009	46.76
314.223	16.04
314.437	-6.49
314.651	71.34
314.864	28.33
315.078	-12.63
315.292	50.86
315.505	52.91
315.719	42.67
315.933	11.95
316.146	1.71
316.36	50.86
316.573	97.96
316.787	28.33
317.001	-24.92
317.214	-2.39
317.428	69.29
317.641	77.48
317.855	-8.53
318.068	89.77
318.282	50.86
318.495	-20.82
318.709	1.71
318.922	-24.92
319.136	104.11
319.349	44.71
319.563	57
319.776	73.39
319.99	-6.49
320.203	28.33
320.417	-51.54
320.63	-39.25
320.843	16.04
321.057	-22.87
321.27	-18.77
321.483	38.57
321.697	44.71
321.91	-31.06
322.124	108.2
322.337	44.71
322.55	-18.77
322.763	-41.3
322.977	-0.34
323.19	-8.53
323.403	38.57
323.617	3.75
323.83	42.67
324.043	1.71
324.256	75.43
324.469	81.58
324.683	59.05
324.896	38.57
325.109	100.01
325.322	-41.3
325.535	46.76
325.748	-20.82
325.962	-47.44
326.175	34.47
326.388	18.09
326.601	-2.39
326.814	5.8
327.027	-57.68
327.24	59.05
327.453	48.81
327.666	18.09
327.879	48.81
328.092	122.54
328.305	18.09
328.518	36.52
328.731	-14.68
328.944	28.33
329.157	9.9
329.37	7.85
329.583	-14.68
329.796	32.43
330.009	3.75
330.222	26.28
330.435	20.14
330.648	-2.39
330.861	-20.82
331.073	40.62
331.286	-18.77
331.499	87.72
331.712	57
331.925	-6.49
332.138	-24.92
332.35	79.53
332.563	-6.49
332.776	63.15
332.989	-53.59
333.202	93.87
333.414	-16.73
333.627	5.8
333.84	9.9
334.053	32.43
334.265	-65.88
334.478	11.95
334.691	32.43
334.903	3.75
335.116	20.14
335.329	16.04
335.541	79.53
335.754	36.52
335.966	16.04
336.179	50.86
336.392	97.96
336.604	44.71
336.817	110.25
337.029	48.81
337.242	-61.78
337.454	26.28
337.667	85.67
337.88	52.91
338.092	54.95
338.305	44.71
338.517	-4.44
338.729	77.48
338.942	7.85
339.154	5.8
339.367	36.52
339.579	-16.73
339.792	30.38
340.004	48.81
340.217	-26.96
340.429	-12.63
340.641	-2.39
340.854	26.28
341.066	67.24
341.278	1.71
341.491	83.63
341.703	93.87
341.915	-2.39
342.128	-16.73
342.34	30.38
342.552	-8.53
342.764	30.38
342.977	-12.63
343.189	91.82
343.401	34.47
343.613	-51.54
343.826	3.75
344.038	85.67
344.25	50.86
344.462	59.05
344.674	22.19
344.886	18.09
345.099	-6.49
345.311	50.86
345.523	24.23
345.735	40.62
345.947	7.85
346.159	-12.63
346.371	7.85
346.583	100.01
346.795	24.23
347.007	81.58
347.219	9.9
347.431	-2.39
347.643	-18.77
347.855	34.47
348.067	38.57
348.279	24.23
348.491	69.29
348.703	1.71
348.915	130.73
349.127	38.57
349.339	7.85
349.551	83.63
349.763	34.47
349.975	57
350.187	50.86
350.399	44.71
350.61	28.33
350.822	87.72
351.034	16.04
351.246	75.43
351.458	40.62
351.669	11.95
351.881	48.81
352.093	30.38
352.305	57
352.517	34.47
352.728	77.48
352.94	-2.39
353.152	-16.73
353.363	48.81
353.575	28.33
353.787	26.28
353.999	18.09
354.21	36.52
354.422	59.05
354.633	57
354.845	59.05
355.057	3.75
355.268	32.43
355.48	16.04
355.692	-2.39
355.903	-0.34
356.115	-0.34
356.326	28.33
356.538	52.91
356.749	11.95
356.961	-0.34
357.172	44.71
357.384	46.76
357.595	155.3
357.807	124.58
358.018	18.09
358.23	54.95
358.441	136.87
358.653	40.62
358.864	18.09
359.075	16.04
359.287	63.15
359.498	30.38
359.709	71.34
359.921	46.76
360.132	5.8
360.344	-0.34
360.555	-35.16
360.766	-22.87
360.977	-12.63
361.189	34.47
361.4	5.8
361.611	16.04
361.823	122.54
362.034	57
362.245	24.23
362.456	91.82
362.667	3.75
362.879	28.33
363.09	75.43
363.301	38.57
363.512	9.9
363.723	11.95
363.935	16.04
364.146	67.24
364.357	-4.44
364.568	48.81
364.779	110.25
364.99	36.52
365.201	11.95
365.412	-55.64
365.623	9.9
365.834	71.34
366.045	30.38
366.256	5.8
366.467	69.29
366.678	18.09
366.889	36.52
367.1	5.8
367.311	81.58
367.522	-51.54
367.733	5.8
367.944	67.24
368.155	54.95
368.366	30.38
368.577	130.73
368.788	81.58
368.999	-63.83
369.209	-39.25
369.42	48.81
369.631	75.43
369.842	34.47
370.053	77.48
370.264	81.58
370.474	5.8
370.685	-8.53
370.896	85.67
371.107	40.62
371.317	81.58
371.528	-14.68
371.739	34.47
371.95	16.04
372.16	42.67
372.371	18.09
372.582	52.91
372.792	73.39
373.003	59.05
373.214	-22.87
373.424	38.57
373.635	61.1
373.846	44.71
374.056	18.09
374.267	59.05
374.477	61.1
374.688	100.01
374.898	79.53
375.109	44.71
375.319	71.34
375.53	-45.4
375.74	20.14
375.951	26.28
376.161	46.76
376.372	71.34
376.582	-31.06
376.793	59.05
377.003	46.76
377.214	97.96
377.424	-12.63
377.635	-2.39
377.845	34.47
378.055	1.71
378.266	-55.64
378.476	-20.82
378.686	20.14
378.897	40.62
379.107	-4.44
379.317	-0.34
379.528	61.1
379.738	18.09
379.948	28.33
380.158	79.53
380.369	7.85
380.579	73.39
380.789	1.71
380.999	57
381.21	36.52
381.42	132.78
381.63	-0.34
381.84	75.43
382.05	26.28
382.261	75.43
382.471	79.53
382.681	32.43
382.891	20.14
383.101	61.1
383.311	50.86
383.521	-24.92
383.731	61.1
383.941	75.43
384.151	22.19
384.361	9.9
384.571	5.8
384.781	59.05
384.991	128.68
385.201	110.25
385.411	89.77
385.621	97.96
385.831	-10.58
386.041	59.05
386.251	38.57
386.461	100.01
386.671	-33.11
386.881	52.91
387.091	20.14
387.301	81.58
387.511	11.95
387.72	22.19
387.93	20.14
388.14	7.85
388.35	28.33
388.56	-8.53
388.769	54.95
388.979	57
389.189	83.63
389.399	91.82
389.609	-57.68
389.818	69.29
390.028	-18.77
390.238	-0.34
390.447	81.58
390.657	46.76
390.867	22.19
391.076	-4.44
391.286	52.91
391.496	16.04
391.705	44.71
391.915	-8.53
392.125	50.86
392.334	87.72
392.544	83.63
392.753	63.15
392.963	83.63
393.172	-2.39
393.382	-12.63
393.591	13.99
393.801	13.99
394.01	54.95
394.22	114.34
394.429	7.85
394.639	-6.49
394.848	52.91
395.058	9.9
395.267	50.86
395.477	52.91
395.686	52.91
395.895	95.91
396.105	26.28
396.314	79.53
396.524	67.24
396.733	69.29
396.942	26.28
397.152	40.62
397.361	52.91
397.57	46.76
397.78	130.73
397.989	89.77
398.198	89.77
398.407	118.44
398.617	100.01
398.826	61.1
399.035	34.47
399.244	112.3
399.453	95.91
399.663	32.43
399.872	106.15
400.081	50.86
400.29	30.38
400.499	87.72
400.708	173.74
400.917	89.77
401.127	83.63
401.336	77.48
401.545	73.39
401.754	130.73
401.963	114.34
402.172	75.43
402.381	83.63
402.59	91.82
402.799	59.05
403.008	83.63
403.217	147.11
403.426	75.43
403.635	120.49
403.844	40.62
404.053	140.97
404.262	42.67
404.471	108.2
404.68	40.62
404.888	73.39
405.097	100.01
405.306	85.67
405.515	69.29
405.724	97.96
405.933	167.59
406.142	116.39
406.35	85.67
406.559	124.58
406.768	110.25
406.977	212.65
407.185	112.3
407.394	102.06
407.603	134.82
407.812	159.4
408.02	116.39
408.229	169.64
408.438	163.5
408.646	194.22
408.855	173.74
409.064	202.41
409.272	75.43
409.481	163.5
409.69	147.11
409.898	249.51
410.107	161.45
410.315	192.17
410.524	251.56
410.733	183.98
410.941	216.74
411.15	306.85
411.358	327.33
411.567	265.89
411.775	249.51
411.984	247.46
412.192	269.99
412.401	249.51
412.609	257.7
412.818	313
413.026	261.8
413.234	329.38
413.443	370.34
413.651	335.53
413.86	358.05
414.068	435.88
414.276	409.25
414.485	435.88
414.693	403.11
414.901	413.35
415.11	495.27
415.318	454.31
415.526	474.79
415.734	435.88
415.943	509.6
416.151	536.23
416.359	509.6
416.567	568.99
416.776	589.47
416.984	655.01
417.192	685.73
417.4	753.31
417.608	691.87
417.817	642.72
418.025	714.4
418.233	765.6
418.441	824.99
418.649	730.78
418.857	843.42
419.065	884.38
419.273	845.47
419.481	925.34
419.689	949.92
419.897	994.97
420.105	913.05
420.313	1019.55
420.521	1117.85
420.729	1027.74
420.937	1060.51
421.145	1150.62
421.353	1306.26
421.561	1273.5
421.769	1277.59
421.977	1314.45
422.185	1361.56
422.393	1484.44
422.601	1527.44
422.809	1527.44
423.017	1437.33
423.224	1504.92
423.432	1711.76
423.64	1578.64
423.848	1832.59
424.056	1793.68
424.263	1900.17
424.471	1797.78
424.679	1848.97
424.887	2041.48
425.094	2088.59
425.302	2096.78
425.51	2199.18
425.718	2254.47
425.925	2186.89
426.133	2281.1
426.341	2449.03
426.548	2612.87
426.756	2571.91
426.964	2606.72
427.171	2827.9
427.379	2813.57
427.586	2901.63
427.794	2899.58
428.001	3028.6
428.209	3264.12
428.417	3141.24
428.624	3460.73
428.832	3501.69
429.039	3495.54
429.247	3524.21
429.454	3698.29
429.662	3907.18
429.869	3729.01
430.076	4023.92
430.284	3935.85
430.491	4103.79
430.699	4361.83
430.906	4062.83
431.114	4312.68
431.321	4365.93
431.528	4497
431.736	4918.88
431.943	5162.59
432.15	4800.1
432.358	4920.93
432.565	5269.08
432.772	5127.77
432.979	5656.15
433.187	5576.28
433.394	5656.15
433.601	6000.21
433.808	5875.28
434.016	6043.21
434.223	6229.58
434.43	6813.25
434.637	6452.81
434.844	6846.02
435.052	6858.31
435.259	7071.29
435.466	7034.43
435.673	6846.02
435.88	7126.59
436.087	7724.6
436.294	7628.34
436.501	7499.32
436.708	7654.97
436.915	8039.98
437.122	8431.15
437.329	8261.16
437.537	8736.29
437.743	8855.08
437.95	8724.01
438.157	9385.5
438.364	9414.17
438.571	9524.76
438.778	9616.92
438.985	10427.92
439.192	10122.77
439.399	10440.2
439.606	10010.13
439.813	10663.43
440.02	11273.73
440.227	11232.77
440.433	10937.86
440.64	11503.1
440.847	11337.21
441.054	11441.66
441.261	12178.93
441.467	12262.9
441.674	12307.95
441.881	12918.25
442.088	12832.23
442.294	12793.32
442.501	13077.99
442.708	13317.6
442.914	13747.67
443.121	14384.59
443.328	14050.77
443.534	14955.97
443.741	14732.75
443.948	14607.82
444.154	15332.8
444.361	15332.8
444.568	15394.24
444.774	15562.17
444.981	15541.69
445.187	16174.52
445.394	16915.88
445.6	16643.5
445.807	18257.3
446.013	17464.74
446.22	17720.73
446.426	18173.33
446.633	18539.92
446.839	18949.51
447.046	18562.45
447.252	19209.61
447.459	19381.63
447.665	19320.2
447.871	20295.03
448.078	21233
448.284	20487.54
448.491	20442.48
448.697	21505.38
448.903	21960.03
449.11	21970.27
449.316	21427.56
449.522	21648.74
449.728	22543.7
449.935	22793.55
450.141	22529.36
450.347	22981.96
450.553	22414.68
450.76	22842.7
450.966	23565.64
451.172	23235.91
451.378	23764.29
451.584	23143.75
451.791	24051
451.997	23807.3
452.203	24401.21
452.409	23969.08
452.615	23993.66
452.821	23043.4
453.027	22498.64
453.233	23856.45
453.44	22981.96
453.646	23303.5
453.852	23526.72
454.058	23729.47
454.264	22695.25
454.47	23438.66
454.676	23047.5
454.882	23733.57
455.088	21527.91
455.294	21859.68
455.5	22412.63
455.705	22336.85
455.911	21495.14
456.117	21097.83
456.323	21056.87
456.529	19721.6
456.735	20505.97
456.941	19811.71
457.147	19744.13
457.352	18943.37
457.558	18873.74
457.764	18955.66
457.97	18482.58
458.176	17907.1
458.381	18046.36
458.587	17102.25
458.793	17051.05
458.999	16201.14
459.204	17556.89
459.41	16903.59
459.616	15805.88
459.821	15957.43
460.027	15742.39
460.233	15599.04
460.438	14757.32
460.644	14941.64
460.85	14204.37
461.055	14138.83
461.261	13950.42
461.466	12985.83
461.672	12703.21
461.878	13315.55
462.083	12527.08
462.289	12455.4
462.494	12262.9
462.7	11625.98
462.905	11445.76
463.111	11570.68
463.316	11798.01
463.522	11570.68
463.727	11570.68
463.932	11447.8
464.138	11326.97
464.343	11478.52
464.549	11169.28
464.754	11558.39
464.959	11316.73
465.165	11570.68
465.37	10933.76
465.575	10561.03
465.781	11023.87
465.986	11046.4
466.191	10640.9
466.397	10343.95
466.602	9969.17
466.807	10321.42
467.012	10481.16
467.218	10343.95
467.423	10102.29
467.628	10216.97
467.833	10518.03
468.038	10116.62
468.244	10046.99
468.449	10475.02
468.654	10233.36
468.859	10061.33
