Data from USB4F104151__132__13-58-02-117.txt Node

Date: Thu Mar 13 13:58:02 EDT 2025
User: louis
Spectrometer: USB4F10415
Trigger mode: 4
Integration Time (sec): 1.000000E-2
Scans to average: 1
Electric dark correction enabled: true
Nonlinearity correction enabled: false
Boxcar width: 0
XAxis mode: Wavelengths
Number of Pixels in Spectrum: 3648
>>>>>Begin Spectral Data<<<<<
178.204	-47.44
178.424	-47.44
178.644	-47.44
178.864	34.47
179.084	-69.97
179.304	-29.01
179.524	28.33
179.744	-84.31
179.964	28.33
180.184	-16.73
180.404	-16.73
180.624	38.57
180.844	-24.92
181.064	-26.96
181.283	57
181.503	34.47
181.723	11.95
181.943	38.57
182.163	-2.39
182.383	28.33
182.602	83.63
182.822	100.01
183.042	16.04
183.262	42.67
183.482	48.81
183.701	16.04
183.921	34.47
184.141	13.99
184.361	11.95
184.58	1.71
184.8	50.86
185.02	-4.44
185.239	-41.3
185.459	57
185.679	-22.87
185.898	83.63
186.118	22.19
186.338	-45.4
186.557	7.85
186.777	48.81
186.997	-53.59
187.216	20.14
187.436	59.05
187.655	16.04
187.875	26.28
188.095	-47.44
188.314	-8.53
188.534	-4.44
188.753	11.95
188.973	-12.63
189.192	-0.34
189.412	1.71
189.631	34.47
189.851	-8.53
190.07	26.28
190.29	24.23
190.509	26.28
190.729	16.04
190.948	61.1
191.168	-29.01
191.387	36.52
191.607	46.76
191.826	18.09
192.045	67.24
192.265	20.14
192.484	5.8
192.704	-53.59
192.923	75.43
193.142	93.87
193.362	-20.82
193.581	46.76
193.8	63.15
194.02	7.85
194.239	18.09
194.458	50.86
194.678	16.04
194.897	36.52
195.116	1.71
195.335	67.24
195.555	24.23
195.774	9.9
195.993	-4.44
196.212	-16.73
196.432	-4.44
196.651	57
196.87	13.99
197.089	73.39
197.308	32.43
197.528	34.47
197.747	-16.73
197.966	13.99
198.185	100.01
198.404	-6.49
198.623	16.04
198.842	40.62
199.062	-6.49
199.281	24.23
199.5	-45.4
199.719	-37.2
199.938	18.09
200.157	54.95
200.376	16.04
200.595	16.04
200.814	75.43
201.033	-82.26
201.252	7.85
201.471	-8.53
201.69	-31.06
201.909	40.62
202.128	59.05
202.347	13.99
202.566	36.52
202.785	42.67
203.004	85.67
203.223	48.81
203.442	32.43
203.661	85.67
203.879	7.85
204.098	81.58
204.317	-20.82
204.536	3.75
204.755	-6.49
204.974	120.49
205.193	38.57
205.411	18.09
205.63	-22.87
205.849	-24.92
206.068	7.85
206.287	28.33
206.505	46.76
206.724	46.76
206.943	1.71
207.162	50.86
207.381	5.8
207.599	-0.34
207.818	-14.68
208.037	67.24
208.255	1.71
208.474	-4.44
208.693	-0.34
208.911	34.47
209.13	-10.58
209.349	44.71
209.567	-8.53
209.786	-0.34
210.005	32.43
210.223	18.09
210.442	11.95
210.661	18.09
210.879	3.75
211.098	-45.4
211.316	26.28
211.535	67.24
211.753	-33.11
211.972	85.67
212.191	50.86
212.409	73.39
212.628	16.04
212.846	32.43
213.065	-16.73
213.283	-8.53
213.502	-10.58
213.72	-4.44
213.938	9.9
214.157	24.23
214.375	46.76
214.594	-33.11
214.812	97.96
215.031	50.86
215.249	3.75
215.467	71.34
215.686	18.09
215.904	54.95
216.122	24.23
216.341	44.71
216.559	18.09
216.778	81.58
216.996	36.52
217.214	59.05
217.432	-61.78
217.651	-24.92
217.869	65.19
218.087	18.09
218.306	-6.49
218.524	71.34
218.742	-26.96
218.96	24.23
219.179	7.85
219.397	34.47
219.615	65.19
219.833	32.43
220.051	-18.77
220.27	54.95
220.488	40.62
220.706	61.1
220.924	-26.96
221.142	16.04
221.36	42.67
221.578	16.04
221.796	3.75
222.015	44.71
222.233	69.29
222.451	22.19
222.669	-10.58
222.887	73.39
223.105	46.76
223.323	-90.45
223.541	-12.63
223.759	18.09
223.977	44.71
224.195	63.15
224.413	7.85
224.631	57
224.849	18.09
225.067	24.23
225.285	-33.11
225.503	106.15
225.721	79.53
225.939	22.19
226.157	-12.63
226.375	108.2
226.592	-76.12
226.81	91.82
227.028	-31.06
227.246	143.02
227.464	-39.25
227.682	-16.73
227.9	102.06
228.117	34.47
228.335	73.39
228.553	-2.39
228.771	16.04
228.989	-31.06
229.206	13.99
229.424	16.04
229.642	42.67
229.86	-31.06
230.077	44.71
230.295	46.76
230.513	-2.39
230.731	50.86
230.948	48.81
231.166	16.04
231.384	-22.87
231.601	-14.68
231.819	48.81
232.037	9.9
232.254	38.57
232.472	9.9
232.689	-8.53
232.907	63.15
233.125	-24.92
233.342	13.99
233.56	5.8
233.777	5.8
233.995	69.29
234.213	28.33
234.43	52.91
234.648	61.1
234.865	77.48
235.083	67.24
235.3	-16.73
235.518	46.76
235.735	48.81
235.953	-31.06
236.17	34.47
236.388	3.75
236.605	89.77
236.822	24.23
237.04	-6.49
237.257	65.19
237.475	9.9
237.692	48.81
237.909	-31.06
238.127	50.86
238.344	-4.44
238.562	61.1
238.779	34.47
238.996	-0.34
239.214	-12.63
239.431	3.75
239.648	110.25
239.865	30.38
240.083	30.38
240.3	71.34
240.517	-12.63
240.735	50.86
240.952	77.48
241.169	-6.49
241.386	9.9
241.603	-35.16
241.821	28.33
242.038	7.85
242.255	46.76
242.472	-22.87
242.689	11.95
242.907	36.52
243.124	-80.21
243.341	-47.44
243.558	18.09
243.775	52.91
243.992	-8.53
244.209	18.09
244.426	44.71
244.643	69.29
244.86	36.52
245.078	97.96
245.295	-35.16
245.512	91.82
245.729	-20.82
245.946	-33.11
246.163	11.95
246.38	85.67
246.597	57
246.814	-4.44
247.031	65.19
247.248	24.23
247.464	54.95
247.681	44.71
247.898	30.38
248.115	-29.01
248.332	3.75
248.549	83.63
248.766	18.09
248.983	57
249.2	81.58
249.417	65.19
249.633	11.95
249.85	24.23
250.067	7.85
250.284	-41.3
250.501	40.62
250.717	124.58
250.934	26.28
251.151	46.76
251.368	-4.44
251.585	42.67
251.801	-8.53
252.018	30.38
252.235	46.76
252.451	42.67
252.668	22.19
252.885	-4.44
253.102	16.04
253.318	93.87
253.535	44.71
253.752	48.81
253.968	40.62
254.185	28.33
254.401	-51.54
254.618	65.19
254.835	87.72
255.051	52.91
255.268	-6.49
255.484	89.77
255.701	7.85
255.917	54.95
256.134	-47.44
256.351	18.09
256.567	50.86
256.784	122.54
257	73.39
257.217	16.04
257.433	34.47
257.65	61.1
257.866	32.43
258.082	-14.68
258.299	106.15
258.515	7.85
258.732	-16.73
258.948	16.04
259.165	7.85
259.381	61.1
259.597	50.86
259.814	57
260.03	26.28
260.246	116.39
260.463	-14.68
260.679	69.29
260.895	-45.4
261.112	38.57
261.328	-8.53
261.544	-8.53
261.761	97.96
261.977	46.76
262.193	-16.73
262.409	3.75
262.626	-31.06
262.842	-10.58
263.058	-4.44
263.274	34.47
263.49	1.71
263.707	-6.49
263.923	-8.53
264.139	95.91
264.355	57
264.571	3.75
264.787	46.76
265.004	30.38
265.22	61.1
265.436	32.43
265.652	30.38
265.868	11.95
266.084	3.75
266.3	20.14
266.516	46.76
266.732	-8.53
266.948	-51.54
267.164	-10.58
267.38	77.48
267.596	16.04
267.812	-6.49
268.028	42.67
268.244	106.15
268.46	20.14
268.676	42.67
268.892	44.71
269.108	59.05
269.324	-18.77
269.54	112.3
269.756	30.38
269.972	73.39
270.188	16.04
270.403	-18.77
270.619	1.71
270.835	57
271.051	-2.39
271.267	18.09
271.483	26.28
271.698	-14.68
271.914	79.53
272.13	11.95
272.346	11.95
272.562	-12.63
272.777	57
272.993	32.43
273.209	71.34
273.425	79.53
273.64	5.8
273.856	93.87
274.072	13.99
274.287	46.76
274.503	46.76
274.719	97.96
274.934	48.81
275.15	18.09
275.366	-41.3
275.581	75.43
275.797	57
276.012	20.14
276.228	26.28
276.444	-24.92
276.659	52.91
276.875	50.86
277.09	50.86
277.306	54.95
277.521	138.92
277.737	73.39
277.952	40.62
278.168	52.91
278.383	30.38
278.599	11.95
278.814	46.76
279.03	36.52
279.245	54.95
279.461	52.91
279.676	34.47
279.892	69.29
280.107	40.62
280.322	-41.3
280.538	85.67
280.753	57
280.969	48.81
281.184	97.96
281.399	-29.01
281.615	24.23
281.83	26.28
282.045	-31.06
282.26	44.71
282.476	-0.34
282.691	85.67
282.906	-37.2
283.122	11.95
283.337	-12.63
283.552	124.58
283.767	36.52
283.983	71.34
284.198	-26.96
284.413	26.28
284.628	-33.11
284.843	7.85
285.058	36.52
285.274	42.67
285.489	-8.53
285.704	77.48
285.919	59.05
286.134	-4.44
286.349	46.76
286.564	-35.16
286.779	71.34
286.995	-16.73
287.21	9.9
287.425	22.19
287.64	30.38
287.855	75.43
288.07	-4.44
288.285	42.67
288.5	-0.34
288.715	69.29
288.93	54.95
289.145	3.75
289.36	-37.2
289.575	-14.68
289.79	44.71
290.004	9.9
290.219	50.86
290.434	67.24
290.649	-45.4
290.864	5.8
291.079	-39.25
291.294	79.53
291.509	59.05
291.724	69.29
291.938	67.24
292.153	11.95
292.368	30.38
292.583	71.34
292.798	40.62
293.012	69.29
293.227	18.09
293.442	61.1
293.657	38.57
293.871	48.81
294.086	40.62
294.301	46.76
294.516	48.81
294.73	34.47
294.945	7.85
295.16	28.33
295.374	65.19
295.589	63.15
295.804	26.28
296.018	13.99
296.233	59.05
296.447	50.86
296.662	40.62
296.877	22.19
297.091	18.09
297.306	-16.73
297.52	-2.39
297.735	42.67
297.949	-6.49
298.164	20.14
298.378	-10.58
298.593	50.86
298.807	7.85
299.022	30.38
299.236	36.52
299.451	-12.63
299.665	79.53
299.88	-6.49
300.094	38.57
300.309	-4.44
300.523	59.05
300.737	40.62
300.952	89.77
301.166	-2.39
301.381	3.75
301.595	16.04
301.809	67.24
302.024	52.91
302.238	13.99
302.452	79.53
302.667	63.15
302.881	63.15
303.095	57
303.309	83.63
303.524	-6.49
303.738	5.8
303.952	24.23
304.166	18.09
304.381	34.47
304.595	91.82
304.809	-6.49
305.023	16.04
305.237	38.57
305.452	50.86
305.666	63.15
305.88	81.58
306.094	24.23
306.308	-0.34
306.522	77.48
306.736	-12.63
306.95	50.86
307.164	108.2
307.379	-2.39
307.593	91.82
307.807	67.24
308.021	52.91
308.235	59.05
308.449	67.24
308.663	24.23
308.877	18.09
309.091	-0.34
309.305	40.62
309.519	-24.92
309.733	67.24
309.947	22.19
310.161	13.99
310.374	-0.34
310.588	42.67
310.802	28.33
311.016	65.19
311.23	67.24
311.444	-47.44
311.658	-0.34
311.872	18.09
312.085	54.95
312.299	-20.82
312.513	9.9
312.727	9.9
312.941	42.67
313.154	11.95
313.368	83.63
313.582	36.52
313.796	81.58
314.009	-2.39
314.223	69.29
314.437	67.24
314.651	-4.44
314.864	38.57
315.078	-29.01
315.292	44.71
315.505	85.67
315.719	34.47
315.933	63.15
316.146	5.8
316.36	36.52
316.573	-20.82
316.787	91.82
317.001	13.99
317.214	65.19
317.428	52.91
317.641	-14.68
317.855	13.99
318.068	26.28
318.282	20.14
318.495	50.86
318.709	85.67
318.922	11.95
319.136	75.43
319.349	71.34
319.563	5.8
319.776	61.1
319.99	1.71
320.203	50.86
320.417	48.81
320.63	-16.73
320.843	40.62
321.057	34.47
321.27	54.95
321.483	42.67
321.697	11.95
321.91	5.8
322.124	83.63
322.337	57
322.55	11.95
322.763	22.19
322.977	42.67
323.19	106.15
323.403	30.38
323.617	46.76
323.83	22.19
324.043	42.67
324.256	65.19
324.469	59.05
324.683	77.48
324.896	-24.92
325.109	-16.73
325.322	50.86
325.535	-4.44
325.748	24.23
325.962	65.19
326.175	40.62
326.388	77.48
326.601	16.04
326.814	91.82
327.027	-14.68
327.24	32.43
327.453	9.9
327.666	7.85
327.879	24.23
328.092	48.81
328.305	-12.63
328.518	114.34
328.731	7.85
328.944	67.24
329.157	11.95
329.37	13.99
329.583	61.1
329.796	13.99
330.009	-14.68
330.222	52.91
330.435	67.24
330.648	16.04
330.861	67.24
331.073	1.71
331.286	57
331.499	18.09
331.712	-14.68
331.925	20.14
332.138	61.1
332.35	40.62
332.563	20.14
332.776	-8.53
332.989	16.04
333.202	69.29
333.414	54.95
333.627	18.09
333.84	73.39
334.053	16.04
334.265	42.67
334.478	28.33
334.691	52.91
334.903	7.85
335.116	65.19
335.329	100.01
335.541	13.99
335.754	50.86
335.966	-26.96
336.179	-29.01
336.392	20.14
336.604	32.43
336.817	40.62
337.029	130.73
337.242	57
337.454	75.43
337.667	7.85
337.88	46.76
338.092	34.47
338.305	-26.96
338.517	-8.53
338.729	59.05
338.942	112.3
339.154	48.81
339.367	-26.96
339.579	102.06
339.792	-16.73
340.004	-16.73
340.217	46.76
340.429	-14.68
340.641	32.43
340.854	77.48
341.066	42.67
341.278	16.04
341.491	5.8
341.703	42.67
341.915	-16.73
342.128	67.24
342.34	22.19
342.552	-12.63
342.764	54.95
342.977	7.85
343.189	22.19
343.401	59.05
343.613	34.47
343.826	67.24
344.038	20.14
344.25	-6.49
344.462	-6.49
344.674	-24.92
344.886	48.81
345.099	75.43
345.311	52.91
345.523	50.86
345.735	-33.11
345.947	48.81
346.159	11.95
346.371	42.67
346.583	-10.58
346.795	77.48
347.007	36.52
347.219	24.23
347.431	24.23
347.643	24.23
347.855	24.23
348.067	30.38
348.279	-8.53
348.491	40.62
348.703	30.38
348.915	63.15
349.127	5.8
349.339	-55.64
349.551	-10.58
349.763	32.43
349.975	24.23
350.187	63.15
350.399	100.01
350.61	102.06
350.822	-20.82
351.034	63.15
351.246	34.47
351.458	67.24
351.669	-8.53
351.881	18.09
352.093	59.05
352.305	-43.35
352.517	44.71
352.728	57
352.94	32.43
353.152	73.39
353.363	30.38
353.575	1.71
353.787	11.95
353.999	22.19
354.21	48.81
354.422	65.19
354.633	40.62
354.845	65.19
355.057	26.28
355.268	67.24
355.48	52.91
355.692	28.33
355.903	40.62
356.115	69.29
356.326	-2.39
356.538	52.91
356.749	32.43
356.961	34.47
357.172	-37.2
357.384	57
357.595	116.39
357.807	24.23
358.018	9.9
358.23	34.47
358.441	-57.68
358.653	44.71
358.864	-0.34
359.075	46.76
359.287	30.38
359.498	85.67
359.709	26.28
359.921	20.14
360.132	81.58
360.344	50.86
360.555	32.43
360.766	50.86
360.977	38.57
361.189	-8.53
361.4	67.24
361.611	38.57
361.823	36.52
362.034	38.57
362.245	26.28
362.456	18.09
362.667	91.82
362.879	61.1
363.09	-2.39
363.301	20.14
363.512	-10.58
363.723	-26.96
363.935	54.95
364.146	46.76
364.357	18.09
364.568	106.15
364.779	-31.06
364.99	-6.49
365.201	30.38
365.412	30.38
365.623	-18.77
365.834	26.28
366.045	42.67
366.256	77.48
366.467	67.24
366.678	44.71
366.889	24.23
367.1	112.3
367.311	65.19
367.522	83.63
367.733	83.63
367.944	110.25
368.155	-10.58
368.366	44.71
368.577	24.23
368.788	52.91
368.999	32.43
369.209	30.38
369.42	32.43
369.631	118.44
369.842	75.43
370.053	-16.73
370.264	85.67
370.474	73.39
370.685	22.19
370.896	46.76
371.107	85.67
371.317	24.23
371.528	50.86
371.739	40.62
371.95	50.86
372.16	52.91
372.371	40.62
372.582	61.1
372.792	16.04
373.003	44.71
373.214	16.04
373.424	32.43
373.635	138.92
373.846	40.62
374.056	-20.82
374.267	-2.39
374.477	-2.39
374.688	87.72
374.898	59.05
375.109	18.09
375.319	30.38
375.53	42.67
375.74	46.76
375.951	67.24
376.161	57
376.372	104.11
376.582	18.09
376.793	26.28
377.003	112.3
377.214	34.47
377.424	48.81
377.635	89.77
377.845	-4.44
378.055	100.01
378.266	11.95
378.476	57
378.686	89.77
378.897	83.63
379.107	75.43
379.317	50.86
379.528	-12.63
379.738	38.57
379.948	24.23
380.158	48.81
380.369	54.95
380.579	63.15
380.789	40.62
380.999	42.67
381.21	65.19
381.42	73.39
381.63	36.52
381.84	100.01
382.05	28.33
382.261	50.86
382.471	59.05
382.681	46.76
382.891	16.04
383.101	24.23
383.311	-29.01
383.521	48.81
383.731	5.8
383.941	57
384.151	67.24
384.361	120.49
384.571	54.95
384.781	63.15
384.991	69.29
385.201	102.06
385.411	63.15
385.621	59.05
385.831	54.95
386.041	16.04
386.251	-31.06
386.461	77.48
386.671	-4.44
386.881	36.52
387.091	16.04
387.301	61.1
387.511	91.82
387.72	9.9
387.93	28.33
388.14	69.29
388.35	-6.49
388.56	38.57
388.769	81.58
388.979	91.82
389.189	20.14
389.399	77.48
389.609	81.58
389.818	63.15
390.028	34.47
390.238	-4.44
390.447	-47.44
390.657	67.24
390.867	30.38
391.076	40.62
391.286	57
391.496	57
391.705	11.95
391.915	87.72
392.125	40.62
392.334	65.19
392.544	110.25
392.753	122.54
392.963	132.78
393.172	114.34
393.382	18.09
393.591	34.47
393.801	28.33
394.01	50.86
394.22	48.81
394.429	79.53
394.639	-12.63
394.848	18.09
395.058	44.71
395.267	57
395.477	11.95
395.686	46.76
395.895	147.11
396.105	65.19
396.314	52.91
396.524	85.67
396.733	69.29
396.942	54.95
397.152	40.62
397.361	102.06
397.57	44.71
397.78	44.71
397.989	85.67
398.198	106.15
398.407	122.54
398.617	100.01
398.826	155.3
399.035	73.39
399.244	136.87
399.453	190.12
399.663	91.82
399.872	93.87
400.081	63.15
400.29	36.52
400.499	136.87
400.708	57
400.917	57
401.127	153.26
401.336	22.19
401.545	108.2
401.754	71.34
401.963	77.48
402.172	40.62
402.381	40.62
402.59	120.49
402.799	112.3
403.008	48.81
403.217	138.92
403.426	136.87
403.635	71.34
403.844	112.3
404.053	104.11
404.262	104.11
404.471	124.58
404.68	124.58
404.888	54.95
405.097	44.71
405.306	120.49
405.515	132.78
405.724	77.48
405.933	126.63
406.142	167.59
406.35	116.39
406.559	181.93
406.768	143.02
406.977	124.58
407.185	112.3
407.394	202.41
407.603	128.68
407.812	151.21
408.02	118.44
408.229	132.78
408.438	190.12
408.646	165.54
408.855	167.59
409.064	75.43
409.272	214.7
409.481	202.41
409.69	179.88
409.898	190.12
410.107	206.5
410.315	202.41
410.524	167.59
410.733	208.55
410.941	282.28
411.15	220.84
411.358	251.56
411.567	280.23
411.775	315.05
411.984	280.23
412.192	351.91
412.401	253.61
412.609	288.42
412.818	431.78
413.026	337.57
413.234	306.85
413.443	298.66
413.651	362.15
413.86	396.96
414.068	296.61
414.276	417.44
414.485	433.83
414.693	446.12
414.901	450.21
415.11	392.87
415.318	444.07
415.526	460.45
415.734	538.27
415.943	530.08
416.151	552.61
416.359	581.28
416.567	548.51
416.776	601.76
416.984	538.27
417.192	646.82
417.4	614.05
417.608	607.91
417.817	650.91
418.025	665.25
418.233	878.24
418.441	730.78
418.649	773.79
418.857	802.46
419.065	781.98
419.273	806.56
419.481	886.43
419.689	896.67
419.897	945.82
420.105	951.96
420.313	1007.26
420.521	974.49
420.729	1001.12
420.937	1191.58
421.145	1123.99
421.353	1253.02
421.561	1257.11
421.769	1197.72
421.977	1304.21
422.185	1298.07
422.393	1306.26
422.601	1529.49
422.809	1400.47
423.017	1472.15
423.224	1490.58
423.432	1603.22
423.64	1629.84
423.848	1775.25
424.056	1728.14
424.263	1846.93
424.471	1777.3
424.679	1787.54
424.887	1885.84
425.094	1953.42
425.302	1951.37
425.51	2035.34
425.718	2094.73
425.925	2147.98
426.133	2211.46
426.341	2283.14
426.548	2426.5
426.756	2379.4
426.964	2590.34
427.171	2608.77
427.379	2602.63
427.586	2924.16
427.794	2784.9
428.001	2932.35
428.209	3161.72
428.417	3030.65
428.624	3139.19
428.832	3384.95
429.039	3233.4
429.247	3198.59
429.454	3565.17
429.662	3782.26
429.869	3589.75
430.076	3950.19
430.284	3720.82
430.491	3825.26
430.699	4007.53
430.906	4038.25
431.114	3937.9
431.321	4195.95
431.528	4384.36
431.736	4574.82
431.943	4830.82
432.15	4613.73
432.358	4740.71
432.565	5031.52
432.772	5017.18
432.979	5228.12
433.187	5529.17
433.394	5338.71
433.601	5725.78
433.808	5676.63
434.016	5750.35
434.223	6000.21
434.43	6354.51
434.637	6229.58
434.844	6725.19
435.052	6688.32
435.259	6788.68
435.466	6639.17
435.673	6649.41
435.88	7056.96
436.087	7411.26
436.294	7298.62
436.501	7302.72
436.708	7530.04
436.915	7712.31
437.122	8166.96
437.329	7988.78
437.537	8343.08
437.743	8275.5
437.95	8418.86
438.157	8551.98
438.364	9285.15
438.571	9010.72
438.778	8936.99
438.985	9860.63
439.192	9373.21
439.399	9958.93
439.606	9494.04
439.813	10227.21
440.02	10927.62
440.227	10679.82
440.433	10630.66
440.64	10806.79
440.847	10825.22
441.054	11204.1
441.261	11601.4
441.467	11845.11
441.674	11945.46
441.881	12082.67
442.088	12125.68
442.294	12109.3
442.501	12355.05
442.708	12572.14
442.914	13227.49
443.121	13786.58
443.328	13417.95
443.534	14304.72
443.741	14304.72
443.948	13800.92
444.154	14677.45
444.361	14745.03
444.568	14908.87
444.774	14912.97
444.981	15179.2
445.187	15467.97
445.394	15994.29
445.6	15793.59
445.807	17300.9
446.013	16774.57
446.22	16985.51
446.426	17307.04
446.633	17923.48
446.839	18232.72
447.046	17638.81
447.252	18939.27
447.459	18625.93
447.665	18644.37
447.871	19412.35
448.078	20100.47
448.284	19279.24
448.491	19742.08
448.697	20544.88
448.903	21325.16
449.11	21138.79
449.316	20721.01
449.522	21030.25
449.728	21568.87
449.935	21747.04
450.141	21798.24
450.347	22371.67
450.553	21779.81
450.76	21962.08
450.966	22369.62
451.172	22156.63
451.378	23016.78
451.584	22703.44
451.791	23094.6
451.997	23076.17
452.203	23450.95
452.409	23350.6
452.615	23256.39
452.821	22318.42
453.027	22304.09
453.233	23344.45
453.44	22365.53
453.646	22650.19
453.852	23090.51
454.058	23110.99
454.264	22396.24
454.47	22719.82
454.676	22447.44
454.882	23139.66
455.088	21067.11
455.294	21427.56
455.5	21914.97
455.705	21988.7
455.911	21484.9
456.117	20850.03
456.323	20229.49
456.529	19441.03
456.735	20342.13
456.941	19832.19
457.147	19684.73
457.352	18765.2
457.558	18679.18
457.764	18883.98
457.97	18343.31
458.176	18005.4
458.381	17911.19
458.587	17337.76
458.793	17089.96
458.999	16080.31
459.204	17558.94
459.41	17089.96
459.616	15801.79
459.821	15865.27
460.027	15812.03
460.233	15443.39
460.438	14833.1
460.644	14990.79
460.85	14376.4
461.055	13837.78
461.261	14112.21
461.466	13010.4
461.672	12754.41
461.878	13632.99
462.083	12658.15
462.289	12580.33
462.494	12320.24
462.7	11759.1
462.905	11480.57
463.111	11798.01
463.316	11855.35
463.522	11468.28
463.727	11392.51
463.932	11652.6
464.138	11331.07
464.343	11519.48
464.549	11222.53
464.754	11638.27
464.959	11509.24
465.165	11126.27
465.37	10841.61
465.575	10528.27
465.781	11050.5
465.986	11075.07
466.191	10718.73
466.397	10745.35
466.602	9897.49
466.807	10286.61
467.012	10272.27
467.218	10128.91
467.423	10386.96
467.628	10479.11
467.833	10597.9
468.038	10384.91
468.244	10061.33
468.449	10214.93
468.654	9864.72
