Data from USB4F104151__112__13-54-56-347.txt Node

Date: Thu Mar 13 13:54:56 EDT 2025
User: louis
Spectrometer: USB4F10415
Trigger mode: 4
Integration Time (sec): 1.000000E-2
Scans to average: 1
Electric dark correction enabled: true
Nonlinearity correction enabled: false
Boxcar width: 0
XAxis mode: Wavelengths
Number of Pixels in Spectrum: 3648
>>>>>Begin Spectral Data<<<<<
178.204	-46.59
178.424	-46.59
178.644	-46.59
178.864	-34.3
179.084	-67.07
179.304	-26.11
179.524	-52.74
179.744	-67.07
179.964	98.81
180.184	64
180.404	45.57
180.624	-56.83
180.844	25.09
181.064	33.28
181.283	-89.6
181.503	23.04
181.723	2.56
181.943	29.18
182.163	-28.16
182.383	-5.63
182.602	23.04
182.822	-5.63
183.042	12.8
183.262	-38.4
183.482	61.95
183.701	12.8
183.921	6.66
184.141	0.51
184.361	20.99
184.58	-50.69
184.8	29.18
185.02	-11.78
185.239	-50.69
185.459	-28.16
185.679	53.76
185.898	-26.11
186.118	33.28
186.338	-50.69
186.557	59.9
186.777	-52.74
186.997	-24.06
187.216	-1.54
187.436	76.29
187.655	-26.11
187.875	0.51
188.095	18.94
188.314	10.75
188.534	-5.63
188.753	72.19
188.973	-5.63
189.192	10.75
189.412	-11.78
189.631	39.42
189.851	-3.58
190.07	-40.45
190.29	57.86
190.509	35.33
190.729	-40.45
190.948	-28.16
191.168	33.28
191.387	88.57
191.607	10.75
191.826	86.53
192.045	51.71
192.265	14.85
192.484	49.66
192.704	6.66
192.923	-28.16
193.142	57.86
193.362	10.75
193.581	66.05
193.8	88.57
194.02	-26.11
194.239	10.75
194.458	47.62
194.678	-7.68
194.897	-13.82
195.116	-22.02
195.335	20.99
195.555	51.71
195.774	66.05
195.993	-38.4
196.212	100.86
196.432	12.8
196.651	-11.78
196.87	18.94
197.089	4.61
197.308	27.14
197.528	68.09
197.747	43.52
197.966	16.9
198.185	70.14
198.404	20.99
198.623	-42.5
198.842	-19.97
199.062	8.7
199.281	86.53
199.5	6.66
199.719	57.86
199.938	66.05
200.157	-32.26
200.376	-28.16
200.595	25.09
200.814	-26.11
201.033	2.56
201.252	-15.87
201.471	-38.4
201.69	25.09
201.909	8.7
202.128	27.14
202.347	27.14
202.566	-5.63
202.785	-11.78
203.004	0.51
203.223	111.1
203.442	-54.78
203.661	18.94
203.879	14.85
204.098	49.66
204.317	-28.16
204.536	78.33
204.755	-22.02
204.974	-11.78
205.193	35.33
205.411	61.95
205.63	18.94
205.849	47.62
206.068	-15.87
206.287	39.42
206.505	-32.26
206.724	-11.78
206.943	-9.73
207.162	-13.82
207.381	-15.87
207.599	8.7
207.818	55.81
208.037	-3.58
208.255	2.56
208.474	-15.87
208.693	-32.26
208.911	20.99
209.13	47.62
209.349	20.99
209.567	25.09
209.786	37.38
210.005	33.28
210.223	2.56
210.442	12.8
210.661	-5.63
210.879	23.04
211.098	-5.63
211.316	31.23
211.535	12.8
211.753	64
211.972	4.61
212.191	-54.78
212.409	-13.82
212.628	45.57
212.846	10.75
213.065	-58.88
213.283	35.33
213.502	45.57
213.72	72.19
213.938	-50.69
214.157	47.62
214.375	-67.07
214.594	-17.92
214.812	-71.17
215.031	33.28
215.249	12.8
215.467	35.33
215.686	-7.68
215.904	35.33
216.122	20.99
216.341	31.23
216.559	-17.92
216.778	82.43
216.996	2.56
217.214	53.76
217.432	6.66
217.651	25.09
217.869	39.42
218.087	8.7
218.306	-19.97
218.524	-32.26
218.742	20.99
218.96	59.9
219.179	39.42
219.397	-9.73
219.615	23.04
219.833	33.28
220.051	-9.73
220.27	8.7
220.488	-1.54
220.706	41.47
220.924	-5.63
221.142	41.47
221.36	29.18
221.578	90.62
221.796	0.51
222.015	-73.21
222.233	4.61
222.451	76.29
222.669	-34.3
222.887	0.51
223.105	8.7
223.323	43.52
223.541	-19.97
223.759	35.33
223.977	51.71
224.195	29.18
224.413	0.51
224.631	43.52
224.849	12.8
225.067	23.04
225.285	4.61
225.503	37.38
225.721	0.51
225.939	59.9
226.157	-36.35
226.375	20.99
226.592	29.18
226.81	47.62
227.028	-38.4
227.246	-34.3
227.464	-26.11
227.682	72.19
227.9	0.51
228.117	66.05
228.335	-15.87
228.553	27.14
228.771	6.66
228.989	8.7
229.206	-5.63
229.424	16.9
229.642	51.71
229.86	-15.87
230.077	-34.3
230.295	12.8
230.513	37.38
230.731	-9.73
230.948	-19.97
231.166	72.19
231.384	-30.21
231.601	31.23
231.819	80.38
232.037	-5.63
232.254	33.28
232.472	16.9
232.689	74.24
232.907	-5.63
233.125	31.23
233.342	-22.02
233.56	20.99
233.777	12.8
233.995	-5.63
234.213	45.57
234.43	-34.3
234.648	-5.63
234.865	47.62
235.083	57.86
235.3	-40.45
235.518	41.47
235.735	39.42
235.953	-19.97
236.17	-65.02
236.388	6.66
236.605	41.47
236.822	29.18
237.04	37.38
237.257	47.62
237.475	12.8
237.692	35.33
237.909	47.62
238.127	23.04
238.344	0.51
238.562	-67.07
238.779	33.28
238.996	-30.21
239.214	-13.82
239.431	121.34
239.648	57.86
239.865	12.8
240.083	-5.63
240.3	-11.78
240.517	4.61
240.735	-17.92
240.952	45.57
241.169	31.23
241.386	-17.92
241.603	29.18
241.821	-26.11
242.038	47.62
242.255	55.81
242.472	37.38
242.689	4.61
242.907	72.19
243.124	10.75
243.341	78.33
243.558	-73.21
243.775	-56.83
243.992	10.75
244.209	-17.92
244.426	-19.97
244.643	8.7
244.86	29.18
245.078	53.76
245.295	-28.16
245.512	-5.63
245.729	41.47
245.946	47.62
246.163	0.51
246.38	4.61
246.597	8.7
246.814	-9.73
247.031	29.18
247.248	-26.11
247.464	45.57
247.681	-11.78
247.898	29.18
248.115	45.57
248.332	-42.5
248.549	0.51
248.766	0.51
248.983	61.95
249.2	-75.26
249.417	51.71
249.633	-46.59
249.85	27.14
250.067	4.61
250.284	-3.58
250.501	-36.35
250.717	35.33
250.934	-42.5
251.151	45.57
251.368	-3.58
251.585	23.04
251.801	53.76
252.018	23.04
252.235	20.99
252.451	16.9
252.668	6.66
252.885	-15.87
253.102	0.51
253.318	-15.87
253.535	-3.58
253.752	27.14
253.968	70.14
254.185	-87.55
254.401	2.56
254.618	23.04
254.835	-3.58
255.051	43.52
255.268	4.61
255.484	82.43
255.701	8.7
255.917	-46.59
256.134	-50.69
256.351	53.76
256.567	80.38
256.784	31.23
257	-26.11
257.217	18.94
257.433	64
257.65	10.75
257.866	12.8
258.082	41.47
258.299	-5.63
258.515	6.66
258.732	41.47
258.948	35.33
259.165	23.04
259.381	27.14
259.597	-17.92
259.814	14.85
260.03	-24.06
260.246	47.62
260.463	49.66
260.679	-46.59
260.895	39.42
261.112	27.14
261.328	39.42
261.544	35.33
261.761	47.62
261.977	25.09
262.193	47.62
262.409	47.62
262.626	2.56
262.842	2.56
263.058	-26.11
263.274	39.42
263.49	2.56
263.707	82.43
263.923	-22.02
264.139	-13.82
264.355	-42.5
264.571	84.48
264.787	6.66
265.004	49.66
265.22	-7.68
265.436	47.62
265.652	-24.06
265.868	90.62
266.084	-34.3
266.3	-54.78
266.516	-69.12
266.732	68.09
266.948	33.28
267.164	35.33
267.38	6.66
267.596	84.48
267.812	39.42
268.028	47.62
268.244	-58.88
268.46	72.19
268.676	23.04
268.892	45.57
269.108	45.57
269.324	10.75
269.54	-34.3
269.756	70.14
269.972	-13.82
270.188	90.62
270.403	-15.87
270.619	37.38
270.835	29.18
271.051	41.47
271.267	29.18
271.483	51.71
271.698	-62.98
271.914	-1.54
272.13	-5.63
272.346	-28.16
272.562	72.19
272.777	-1.54
272.993	4.61
273.209	25.09
273.425	16.9
273.64	18.94
273.856	12.8
274.072	12.8
274.287	2.56
274.503	27.14
274.719	80.38
274.934	37.38
275.15	68.09
275.366	14.85
275.581	14.85
275.797	96.77
276.012	35.33
276.228	18.94
276.444	41.47
276.659	31.23
276.875	4.61
277.09	20.99
277.306	33.28
277.521	-7.68
277.737	-3.58
277.952	37.38
278.168	4.61
278.383	55.81
278.599	41.47
278.814	92.67
279.03	-7.68
279.245	78.33
279.461	-42.5
279.676	43.52
279.892	18.94
280.107	61.95
280.322	45.57
280.538	55.81
280.753	12.8
280.969	-15.87
281.184	-67.07
281.399	57.86
281.615	8.7
281.83	8.7
282.045	4.61
282.26	33.28
282.476	-15.87
282.691	53.76
282.906	0.51
283.122	6.66
283.337	10.75
283.552	-60.93
283.767	-13.82
283.983	53.76
284.198	64
284.413	6.66
284.628	-24.06
284.843	16.9
285.058	41.47
285.274	-62.98
285.489	-42.5
285.704	-5.63
285.919	47.62
286.134	57.86
286.349	29.18
286.564	57.86
286.779	18.94
286.995	23.04
287.21	-19.97
287.425	31.23
287.64	-22.02
287.855	18.94
288.07	29.18
288.285	2.56
288.5	18.94
288.715	4.61
288.93	-9.73
289.145	14.85
289.36	2.56
289.575	25.09
289.79	100.86
290.004	45.57
290.219	37.38
290.434	82.43
290.649	-7.68
290.864	10.75
291.079	49.66
291.294	43.52
291.509	-7.68
291.724	41.47
291.938	25.09
292.153	37.38
292.368	-22.02
292.583	14.85
292.798	31.23
293.012	39.42
293.227	-11.78
293.442	-67.07
293.657	25.09
293.871	53.76
294.086	33.28
294.301	61.95
294.516	10.75
294.73	68.09
294.945	-1.54
295.16	12.8
295.374	12.8
295.589	27.14
295.804	55.81
296.018	0.51
296.233	25.09
296.447	-11.78
296.662	-65.02
296.877	-13.82
297.091	41.47
297.306	0.51
297.52	-44.54
297.735	61.95
297.949	41.47
298.164	29.18
298.378	72.19
298.593	-40.45
298.807	43.52
299.022	49.66
299.236	-15.87
299.451	27.14
299.665	100.86
299.88	-28.16
300.094	94.72
300.309	4.61
300.523	-1.54
300.737	-1.54
300.952	64
301.166	29.18
301.381	-3.58
301.595	35.33
301.809	27.14
302.024	-34.3
302.238	-52.74
302.452	10.75
302.667	-24.06
302.881	127.49
303.095	84.48
303.309	76.29
303.524	2.56
303.738	57.86
303.952	-28.16
304.166	18.94
304.381	-15.87
304.595	76.29
304.809	14.85
305.023	102.91
305.237	39.42
305.452	2.56
305.666	49.66
305.88	16.9
306.094	115.2
306.308	4.61
306.522	64
306.736	-5.63
306.95	2.56
307.164	-9.73
307.379	51.71
307.593	8.7
307.807	107.01
308.021	-58.88
308.235	-7.68
308.449	-3.58
308.663	37.38
308.877	139.77
309.091	10.75
309.305	-34.3
309.519	-54.78
309.733	57.86
309.947	8.7
310.161	-3.58
310.374	53.76
310.588	68.09
310.802	39.42
311.016	14.85
311.23	72.19
311.444	57.86
311.658	-62.98
311.872	57.86
312.085	41.47
312.299	-3.58
312.513	-34.3
312.727	33.28
312.941	25.09
313.154	4.61
313.368	49.66
313.582	-62.98
313.796	37.38
314.009	2.56
314.223	20.99
314.437	57.86
314.651	2.56
314.864	35.33
315.078	14.85
315.292	78.33
315.505	39.42
315.719	12.8
315.933	31.23
316.146	31.23
316.36	-24.06
316.573	-17.92
316.787	41.47
317.001	-15.87
317.214	74.24
317.428	6.66
317.641	33.28
317.855	59.9
318.068	10.75
318.282	45.57
318.495	51.71
318.709	4.61
318.922	53.76
319.136	23.04
319.349	0.51
319.563	-7.68
319.776	31.23
319.99	25.09
320.203	49.66
320.417	66.05
320.63	82.43
320.843	72.19
321.057	59.9
321.27	59.9
321.483	39.42
321.697	-15.87
321.91	57.86
322.124	68.09
322.337	6.66
322.55	41.47
322.763	4.61
322.977	49.66
323.19	20.99
323.403	-9.73
323.617	51.71
323.83	59.9
324.043	16.9
324.256	2.56
324.469	16.9
324.683	57.86
324.896	14.85
325.109	-34.3
325.322	-5.63
325.535	39.42
325.748	-67.07
325.962	37.38
326.175	18.94
326.388	37.38
326.601	-28.16
326.814	35.33
327.027	8.7
327.24	43.52
327.453	39.42
327.666	45.57
327.879	10.75
328.092	51.71
328.305	-9.73
328.518	12.8
328.731	-24.06
328.944	43.52
329.157	12.8
329.37	-28.16
329.583	0.51
329.796	88.57
330.009	31.23
330.222	6.66
330.435	39.42
330.648	45.57
330.861	82.43
331.073	109.05
331.286	111.1
331.499	33.28
331.712	-5.63
331.925	-19.97
332.138	68.09
332.35	33.28
332.563	0.51
332.776	16.9
332.989	8.7
333.202	59.9
333.414	-7.68
333.627	88.57
333.84	66.05
334.053	61.95
334.265	0.51
334.478	94.72
334.691	64
334.903	20.99
335.116	6.66
335.329	6.66
335.541	-26.11
335.754	14.85
335.966	4.61
336.179	68.09
336.392	35.33
336.604	51.71
336.817	33.28
337.029	33.28
337.242	51.71
337.454	94.72
337.667	27.14
337.88	33.28
338.092	125.44
338.305	-30.21
338.517	39.42
338.729	39.42
338.942	-1.54
339.154	4.61
339.367	-15.87
339.579	43.52
339.792	45.57
340.004	43.52
340.217	-17.92
340.429	45.57
340.641	-28.16
340.854	57.86
341.066	47.62
341.278	16.9
341.491	41.47
341.703	39.42
341.915	49.66
342.128	49.66
342.34	39.42
342.552	2.56
342.764	10.75
342.977	33.28
343.189	47.62
343.401	14.85
343.613	47.62
343.826	-1.54
344.038	-11.78
344.25	12.8
344.462	104.96
344.674	86.53
344.886	-24.06
345.099	0.51
345.311	59.9
345.523	-24.06
345.735	0.51
345.947	127.49
346.159	23.04
346.371	-52.74
346.583	39.42
346.795	29.18
347.007	-13.82
347.219	-11.78
347.431	-24.06
347.643	45.57
347.855	37.38
348.067	14.85
348.279	27.14
348.491	37.38
348.703	18.94
348.915	-42.5
349.127	-7.68
349.339	8.7
349.551	-58.88
349.763	74.24
349.975	-7.68
350.187	45.57
350.399	55.81
350.61	39.42
350.822	-19.97
351.034	70.14
351.246	-9.73
351.458	55.81
351.669	-1.54
351.881	47.62
352.093	66.05
352.305	-3.58
352.517	25.09
352.728	66.05
352.94	20.99
353.152	53.76
353.363	27.14
353.575	47.62
353.787	-7.68
353.999	41.47
354.21	94.72
354.422	-5.63
354.633	-65.02
354.845	90.62
355.057	74.24
355.268	-46.59
355.48	-11.78
355.692	-24.06
355.903	39.42
356.115	31.23
356.326	6.66
356.538	72.19
356.749	64
356.961	4.61
357.172	84.48
357.384	16.9
357.595	41.47
357.807	66.05
358.018	61.95
358.23	125.44
358.441	74.24
358.653	10.75
358.864	-40.45
359.075	35.33
359.287	86.53
359.498	-13.82
359.709	2.56
359.921	10.75
360.132	-34.3
360.344	4.61
360.555	92.67
360.766	45.57
360.977	-32.26
361.189	8.7
361.4	-3.58
361.611	-15.87
361.823	47.62
362.034	64
362.245	43.52
362.456	27.14
362.667	70.14
362.879	10.75
363.09	45.57
363.301	53.76
363.512	39.42
363.723	12.8
363.935	14.85
364.146	70.14
364.357	2.56
364.568	31.23
364.779	-5.63
364.99	-7.68
365.201	49.66
365.412	41.47
365.623	16.9
365.834	41.47
366.045	25.09
366.256	39.42
366.467	102.91
366.678	-24.06
366.889	35.33
367.1	18.94
367.311	80.38
367.522	-13.82
367.733	47.62
367.944	137.73
368.155	-36.35
368.366	49.66
368.577	16.9
368.788	35.33
368.999	96.77
369.209	98.81
369.42	68.09
369.631	18.94
369.842	76.29
370.053	61.95
370.264	70.14
370.474	18.94
370.685	37.38
370.896	23.04
371.107	-28.16
371.317	76.29
371.528	43.52
371.739	37.38
371.95	16.9
372.16	39.42
372.371	23.04
372.582	47.62
372.792	33.28
373.003	39.42
373.214	55.81
373.424	10.75
373.635	70.14
373.846	41.47
374.056	43.52
374.267	59.9
374.477	53.76
374.688	55.81
374.898	66.05
375.109	-17.92
375.319	109.05
375.53	61.95
375.74	39.42
375.951	49.66
376.161	66.05
376.372	8.7
376.582	33.28
376.793	-28.16
377.003	59.9
377.214	141.82
377.424	119.29
377.635	78.33
377.845	59.9
378.055	47.62
378.266	39.42
378.476	33.28
378.686	86.53
378.897	39.42
379.107	12.8
379.317	64
379.528	-3.58
379.738	45.57
379.948	-17.92
380.158	94.72
380.369	74.24
380.579	29.18
380.789	-54.78
380.999	8.7
381.21	29.18
381.42	66.05
381.63	35.33
381.84	-7.68
382.05	0.51
382.261	129.53
382.471	6.66
382.681	10.75
382.891	66.05
383.101	18.94
383.311	25.09
383.521	-44.54
383.731	-32.26
383.941	-22.02
384.151	127.49
384.361	10.75
384.571	35.33
384.781	-40.45
384.991	33.28
385.201	135.68
385.411	88.57
385.621	45.57
385.831	61.95
386.041	55.81
386.251	14.85
386.461	51.71
386.671	33.28
386.881	37.38
387.091	53.76
387.301	4.61
387.511	12.8
387.72	78.33
387.93	-5.63
388.14	55.81
388.35	25.09
388.56	53.76
388.769	-17.92
388.979	61.95
389.189	18.94
389.399	49.66
389.609	-24.06
389.818	68.09
390.028	72.19
390.238	18.94
390.447	-15.87
390.657	8.7
390.867	-40.45
391.076	61.95
391.286	23.04
391.496	70.14
391.705	70.14
391.915	43.52
392.125	23.04
392.334	57.86
392.544	-11.78
392.753	39.42
392.963	57.86
393.172	23.04
393.382	74.24
393.591	57.86
393.801	90.62
394.01	94.72
394.22	-3.58
394.429	59.9
394.639	45.57
394.848	33.28
395.058	98.81
395.267	115.2
395.477	53.76
395.686	96.77
395.895	61.95
396.105	104.96
396.314	55.81
396.524	90.62
396.733	119.29
396.942	78.33
397.152	74.24
397.361	100.86
397.57	143.87
397.78	82.43
397.989	55.81
398.198	35.33
398.407	51.71
398.617	78.33
398.826	82.43
399.035	37.38
399.244	82.43
399.453	55.81
399.663	45.57
399.872	139.77
400.081	119.29
400.29	74.24
400.499	76.29
400.708	121.34
400.917	37.38
401.127	57.86
401.336	57.86
401.545	107.01
401.754	100.86
401.963	162.3
402.172	51.71
402.381	92.67
402.59	51.71
402.799	102.91
403.008	68.09
403.217	125.44
403.426	68.09
403.635	61.95
403.844	125.44
404.053	145.92
404.262	123.39
404.471	113.15
404.68	98.81
404.888	145.92
405.097	94.72
405.306	135.68
405.515	113.15
405.724	166.4
405.933	156.16
406.142	100.86
406.35	119.29
406.559	113.15
406.768	133.63
406.977	143.87
407.185	195.07
407.394	197.12
407.603	133.63
407.812	111.1
408.02	217.6
408.229	162.3
408.438	176.64
408.646	80.38
408.855	197.12
409.064	201.21
409.272	158.21
409.481	129.53
409.69	168.45
409.898	195.07
410.107	203.26
410.315	262.65
410.524	287.23
410.733	305.66
410.941	174.59
411.15	254.46
411.358	283.13
411.567	266.75
411.775	279.04
411.984	299.52
412.192	326.14
412.401	305.66
412.609	385.53
412.818	328.19
413.026	379.39
413.234	356.86
413.443	430.59
413.651	393.72
413.86	276.99
414.068	373.24
414.276	465.4
414.485	410.11
414.693	442.87
414.901	498.17
415.11	438.78
415.318	506.36
415.526	555.51
415.734	510.46
415.943	543.22
416.151	555.51
416.359	578.04
416.567	563.7
416.776	641.53
416.984	702.97
417.192	760.31
417.4	711.16
417.608	709.11
417.817	758.26
418.025	770.55
418.233	918
418.441	874.99
418.649	870.9
418.857	905.71
419.065	879.09
419.273	907.76
419.481	1044.98
419.689	989.68
419.897	1163.76
420.105	1061.36
420.313	1178.09
420.521	1112.56
420.729	1243.63
420.937	1268.2
421.145	1219.05
421.353	1270.25
421.561	1405.42
421.769	1389.03
421.977	1446.38
422.185	1448.43
422.393	1436.14
422.601	1589.74
422.809	1597.93
423.017	1714.66
423.224	1667.56
423.432	1925.6
423.64	1858.02
423.848	1853.92
424.056	1882.6
424.263	2019.81
424.471	2071.01
424.679	2208.22
424.887	2118.11
425.094	2200.03
425.302	2290.14
425.51	2345.44
425.718	2347.48
425.925	2587.1
426.133	2494.94
426.341	2623.96
426.548	2824.66
426.756	2709.97
426.964	2709.97
427.171	2947.54
427.379	3033.55
427.586	3080.66
427.794	3150.29
428.001	3307.98
428.209	3508.68
428.417	3514.83
428.624	3619.27
428.832	3682.76
429.039	3664.33
429.247	3619.27
429.454	4004.29
429.662	4268.48
429.869	3951.04
430.076	4172.22
430.284	4061.63
430.491	4250.05
430.699	4487.61
430.906	4561.34
431.114	4592.06
431.321	4792.76
431.528	4893.11
431.736	5065.14
431.943	5405.1
432.15	5235.12
432.358	5294.51
432.565	5753.26
432.772	5593.51
432.979	5956.01
433.187	5962.15
433.394	6072.74
433.601	6371.74
433.808	6468
434.016	6484.38
434.223	6461.85
434.43	7000.47
434.637	6855.06
434.844	7301.52
435.052	7410.06
435.259	7295.38
435.466	7590.28
435.673	7444.88
435.88	7940.49
436.087	8266.11
436.294	8225.15
436.501	8118.66
436.708	8186.24
436.915	8659.32
437.122	9109.88
437.329	8956.28
437.537	9204.08
437.743	9269.62
437.95	9449.84
438.157	9759.08
438.364	10099.05
438.571	10103.14
438.778	10254.69
438.985	10998.1
439.192	10625.37
439.399	10899.8
439.606	10756.44
439.813	11411.79
440.02	11925.83
440.227	11833.68
440.433	11774.28
440.64	12136.77
440.847	12163.4
441.054	12360
441.261	13193.53
441.467	12841.28
441.674	13293.88
441.881	13603.12
442.088	13809.97
442.294	13508.91
442.501	14139.69
442.708	14258.47
442.914	14770.46
443.121	15194.39
443.328	14780.7
443.534	16052.49
443.741	15280.41
443.948	15438.1
444.154	16519.43
444.361	16457.99
444.568	16742.66
444.774	16490.76
444.981	17086.72
445.187	17299.7
445.394	18112.75
445.6	17461.49
445.807	19357.91
446.013	18475.24
446.22	18798.82
446.426	19386.58
446.633	19822.8
446.839	20439.24
447.046	19478.74
447.252	20617.41
447.459	20652.23
447.665	20730.05
447.871	21553.34
448.078	22821.03
448.284	21364.92
448.491	21823.67
448.697	22493.35
448.903	22952.1
449.11	23083.17
449.316	22761.64
449.522	23193.76
449.728	23810.2
449.935	24047.76
450.141	24252.56
450.347	24791.17
450.553	23857.3
450.76	24088.72
450.966	24944.77
451.172	24422.54
451.378	24948.87
451.584	24672.39
451.791	25251.97
451.997	25038.98
452.203	25563.26
452.409	25573.5
452.615	25366.65
452.821	24461.45
453.027	24084.62
453.233	25380.99
453.44	24101.01
453.646	24535.18
453.852	24985.73
454.058	25254.01
454.264	24375.44
454.47	24995.97
454.676	24361.1
454.882	24932.48
455.088	22943.91
455.294	23158.94
455.5	23574.68
455.705	23777.43
455.911	22939.81
456.117	22532.26
456.323	21893.3
456.529	21057.73
456.735	21614.77
456.941	21123.26
457.147	21008.58
457.352	20474.06
457.558	20160.72
457.764	20107.47
457.97	19654.87
458.176	19185.88
458.381	19185.88
458.587	18217.19
458.793	18319.59
458.999	17447.16
459.204	18594.02
459.41	18039.02
459.616	17074.43
459.821	17043.71
460.027	16931.07
460.233	16412.93
460.438	15552.79
460.644	15890.7
460.85	15061.27
461.055	15024.41
461.261	14836
461.466	13945.13
461.672	13373.75
461.878	14303.53
462.083	13443.38
462.289	13095.22
462.494	12949.82
462.7	12333.38
462.905	12122.44
463.111	12525.89
463.316	12415.3
463.522	12226.89
463.727	12415.3
463.932	12423.49
464.138	12204.36
464.343	12181.83
464.549	11888.97
464.754	12392.77
464.959	12261.7
465.165	11942.22
465.37	11417.94
465.575	11280.72
465.781	11845.96
465.986	11686.22
466.191	11419.99
466.397	11055.45
466.602	10664.29
466.807	11077.97
467.012	11008.34
467.218	11065.69
467.423	10881.37
467.628	10862.94
467.833	11172.18
468.038	10834.27
468.244	10711.39
468.449	11163.99
468.654	10735.96
