Data from USB4F104151__121__13-57-52-298.txt Node

Date: Thu Mar 13 13:57:52 EDT 2025
User: louis
Spectrometer: USB4F10415
Trigger mode: 4
Integration Time (sec): 1.000000E-2
Scans to average: 1
Electric dark correction enabled: true
Nonlinearity correction enabled: false
Boxcar width: 0
XAxis mode: Wavelengths
Number of Pixels in Spectrum: 3648
>>>>>Begin Spectral Data<<<<<
178.204	12.46
178.424	12.46
178.644	12.46
178.864	-30.55
179.084	-42.84
179.304	-32.6
179.524	-1.88
179.744	-18.26
179.964	-24.4
180.184	-63.32
180.404	-22.36
180.624	24.75
180.844	6.31
181.064	-12.12
181.283	59.56
181.503	39.08
181.723	45.23
181.943	26.79
182.163	16.55
182.383	24.75
182.602	77.99
182.822	24.75
183.042	49.32
183.262	0.17
183.482	-20.31
183.701	65.71
183.921	43.18
184.141	34.99
184.361	28.84
184.58	-3.93
184.8	8.36
185.02	71.85
185.239	69.8
185.459	69.8
185.679	30.89
185.898	-24.4
186.118	37.03
186.338	22.7
186.557	16.55
186.777	24.75
186.997	28.84
187.216	12.46
187.436	-18.26
187.655	8.36
187.875	20.65
188.095	0.17
188.314	104.62
188.534	-20.31
188.753	43.18
188.973	-5.97
189.192	28.84
189.412	-24.4
189.631	30.89
189.851	-51.03
190.07	86.19
190.29	10.41
190.509	8.36
190.729	26.79
190.948	47.27
191.168	32.94
191.387	88.23
191.607	4.27
191.826	41.13
192.045	16.55
192.265	32.94
192.484	28.84
192.704	2.22
192.923	32.94
193.142	30.89
193.362	-18.26
193.581	41.13
193.8	22.7
194.02	135.34
194.239	43.18
194.458	37.03
194.678	6.31
194.897	-10.07
195.116	32.94
195.335	67.75
195.555	63.66
195.774	4.27
195.993	12.46
196.212	18.6
196.432	-30.55
196.651	104.62
196.87	-44.88
197.089	10.41
197.308	98.47
197.528	41.13
197.747	77.99
197.966	4.27
198.185	90.28
198.404	-16.21
198.623	16.55
198.842	55.47
199.062	43.18
199.281	22.7
199.5	14.51
199.719	57.51
199.938	18.6
200.157	-10.07
200.376	-34.64
200.595	88.23
200.814	-30.55
201.033	49.32
201.252	57.51
201.471	-18.26
201.69	43.18
201.909	49.32
202.128	-3.93
202.347	75.95
202.566	-8.02
202.785	59.56
203.004	10.41
203.223	-16.21
203.442	-18.26
203.661	2.22
203.879	37.03
204.098	41.13
204.317	47.27
204.536	127.14
204.755	-12.12
204.974	41.13
205.193	118.95
205.411	32.94
205.63	14.51
205.849	34.99
206.068	55.47
206.287	2.22
206.505	14.51
206.724	84.14
206.943	-24.4
207.162	53.42
207.381	57.51
207.599	53.42
207.818	45.23
208.037	8.36
208.255	43.18
208.474	-16.21
208.693	0.17
208.911	8.36
209.13	24.75
209.349	24.75
209.567	73.9
209.786	118.95
210.005	-14.17
210.223	90.28
210.442	53.42
210.661	63.66
210.879	28.84
211.098	26.79
211.316	71.85
211.535	77.99
211.753	-1.88
211.972	65.71
212.191	39.08
212.409	-30.55
212.628	43.18
212.846	24.75
213.065	-28.5
213.283	67.75
213.502	57.51
213.72	43.18
213.938	45.23
214.157	43.18
214.375	98.47
214.594	63.66
214.812	51.37
215.031	69.8
215.249	37.03
215.467	18.6
215.686	59.56
215.904	59.56
216.122	26.79
216.341	108.71
216.559	6.31
216.778	92.33
216.996	37.03
217.214	20.65
217.432	30.89
217.651	55.47
217.869	6.31
218.087	16.55
218.306	-14.17
218.524	80.04
218.742	65.71
218.96	-3.93
219.179	100.52
219.397	53.42
219.615	80.04
219.833	-22.36
220.051	30.89
220.27	104.62
220.488	32.94
220.706	2.22
220.924	39.08
221.142	55.47
221.36	12.46
221.578	12.46
221.796	71.85
222.015	41.13
222.233	-8.02
222.451	22.7
222.669	34.99
222.887	-16.21
223.105	-10.07
223.323	28.84
223.541	-16.21
223.759	22.7
223.977	-22.36
224.195	127.14
224.413	16.55
224.631	86.19
224.849	108.71
225.067	49.32
225.285	61.61
225.503	24.75
225.721	-67.41
225.939	26.79
226.157	26.79
226.375	65.71
226.592	51.37
226.81	43.18
227.028	-3.93
227.246	67.75
227.464	71.85
227.682	32.94
227.9	12.46
228.117	-20.31
228.335	-3.93
228.553	59.56
228.771	30.89
228.989	84.14
229.206	-16.21
229.424	43.18
229.642	32.94
229.86	32.94
230.077	-3.93
230.295	-22.36
230.513	-24.4
230.731	10.41
230.948	32.94
231.166	41.13
231.384	75.95
231.601	59.56
231.819	28.84
232.037	14.51
232.254	-16.21
232.472	8.36
232.689	39.08
232.907	51.37
233.125	67.75
233.342	18.6
233.56	67.75
233.777	10.41
233.995	16.55
234.213	24.75
234.43	57.51
234.648	26.79
234.865	67.75
235.083	12.46
235.3	-16.21
235.518	20.65
235.735	-42.84
235.953	43.18
236.17	57.51
236.388	24.75
236.605	51.37
236.822	45.23
237.04	16.55
237.257	45.23
237.475	41.13
237.692	59.56
237.909	-10.07
238.127	20.65
238.344	80.04
238.562	55.47
238.779	69.8
238.996	-30.55
239.214	8.36
239.431	-22.36
239.648	77.99
239.865	53.42
240.083	-1.88
240.3	8.36
240.517	20.65
240.735	123.05
240.952	-14.17
241.169	30.89
241.386	77.99
241.603	22.7
241.821	53.42
242.038	30.89
242.255	51.37
242.472	30.89
242.689	61.61
242.907	-44.88
243.124	2.22
243.341	59.56
243.558	-16.21
243.775	32.94
243.992	22.7
244.209	90.28
244.426	67.75
244.643	90.28
244.86	51.37
245.078	34.99
245.295	6.31
245.512	67.75
245.729	51.37
245.946	-5.97
246.163	-5.97
246.38	-14.17
246.597	8.36
246.814	43.18
247.031	39.08
247.248	92.33
247.464	82.09
247.681	127.14
247.898	28.84
248.115	45.23
248.332	12.46
248.549	-1.88
248.766	20.65
248.983	16.55
249.2	57.51
249.417	28.84
249.633	53.42
249.85	61.61
250.067	-12.12
250.284	30.89
250.501	65.71
250.717	59.56
250.934	59.56
251.151	61.61
251.368	-12.12
251.585	28.84
251.801	92.33
252.018	-36.69
252.235	77.99
252.451	-16.21
252.668	30.89
252.885	84.14
253.102	86.19
253.318	59.56
253.535	51.37
253.752	59.56
253.968	-24.4
254.185	12.46
254.401	71.85
254.618	82.09
254.835	41.13
255.051	65.71
255.268	34.99
255.484	55.47
255.701	-22.36
255.917	10.41
256.134	30.89
256.351	-22.36
256.567	14.51
256.784	59.56
257	-22.36
257.217	102.57
257.433	18.6
257.65	39.08
257.866	20.65
258.082	-14.17
258.299	-42.84
258.515	-5.97
258.732	32.94
258.948	61.61
259.165	59.56
259.381	24.75
259.597	2.22
259.814	24.75
260.03	-1.88
260.246	32.94
260.463	53.42
260.679	51.37
260.895	6.31
261.112	32.94
261.328	51.37
261.544	43.18
261.761	-36.69
261.977	4.27
262.193	24.75
262.409	18.6
262.626	90.28
262.842	88.23
263.058	26.79
263.274	86.19
263.49	-20.31
263.707	92.33
263.923	90.28
264.139	2.22
264.355	-10.07
264.571	28.84
264.787	0.17
265.004	69.8
265.22	37.03
265.436	75.95
265.652	77.99
265.868	-8.02
266.084	16.55
266.3	32.94
266.516	10.41
266.732	28.84
266.948	53.42
267.164	92.33
267.38	20.65
267.596	45.23
267.812	67.75
268.028	67.75
268.244	32.94
268.46	108.71
268.676	-57.17
268.892	106.67
269.108	-59.22
269.324	-18.26
269.54	118.95
269.756	118.95
269.972	67.75
270.188	32.94
270.403	37.03
270.619	24.75
270.835	12.46
271.051	43.18
271.267	96.43
271.483	2.22
271.698	49.32
271.914	41.13
272.13	0.17
272.346	16.55
272.562	12.46
272.777	47.27
272.993	12.46
273.209	22.7
273.425	63.66
273.64	-5.97
273.856	45.23
274.072	18.6
274.287	8.36
274.503	37.03
274.719	20.65
274.934	26.79
275.15	65.71
275.366	30.89
275.581	90.28
275.797	-12.12
276.012	65.71
276.228	6.31
276.444	102.57
276.659	-8.02
276.875	16.55
277.09	16.55
277.306	86.19
277.521	0.17
277.737	37.03
277.952	45.23
278.168	-8.02
278.383	26.79
278.599	82.09
278.814	6.31
279.03	63.66
279.245	18.6
279.461	39.08
279.676	-46.93
279.892	4.27
280.107	45.23
280.322	32.94
280.538	16.55
280.753	0.17
280.969	94.38
281.184	39.08
281.399	135.34
281.615	0.17
281.83	67.75
282.045	55.47
282.26	47.27
282.476	12.46
282.691	69.8
282.906	106.67
283.122	129.19
283.337	34.99
283.552	92.33
283.767	53.42
283.983	-8.02
284.198	47.27
284.413	67.75
284.628	106.67
284.843	30.89
285.058	34.99
285.274	-14.17
285.489	-48.98
285.704	22.7
285.919	59.56
286.134	84.14
286.349	61.61
286.564	-1.88
286.779	37.03
286.995	0.17
287.21	55.47
287.425	45.23
287.64	-20.31
287.855	6.31
288.07	-16.21
288.285	61.61
288.5	63.66
288.715	57.51
288.93	22.7
289.145	-22.36
289.36	24.75
289.575	20.65
289.79	59.56
290.004	34.99
290.219	-12.12
290.434	34.99
290.649	47.27
290.864	59.56
291.079	-14.17
291.294	96.43
291.509	30.89
291.724	-1.88
291.938	20.65
292.153	32.94
292.368	45.23
292.583	65.71
292.798	-5.97
293.012	2.22
293.227	69.8
293.442	18.6
293.657	-5.97
293.871	65.71
294.086	-16.21
294.301	118.95
294.516	-24.4
294.73	34.99
294.945	77.99
295.16	16.55
295.374	147.62
295.589	59.56
295.804	-5.97
296.018	24.75
296.233	75.95
296.447	8.36
296.662	16.55
296.877	-3.93
297.091	45.23
297.306	-14.17
297.52	-65.36
297.735	2.22
297.949	39.08
298.164	49.32
298.378	37.03
298.593	28.84
298.807	-48.98
299.022	82.09
299.236	51.37
299.451	26.79
299.665	125.1
299.88	-8.02
300.094	14.51
300.309	61.61
300.523	145.58
300.737	51.37
300.952	57.51
301.166	14.51
301.381	77.99
301.595	98.47
301.809	102.57
302.024	61.61
302.238	-20.31
302.452	104.62
302.667	34.99
302.881	84.14
303.095	18.6
303.309	32.94
303.524	43.18
303.738	102.57
303.952	16.55
304.166	92.33
304.381	-48.98
304.595	57.51
304.809	49.32
305.023	41.13
305.237	49.32
305.452	43.18
305.666	88.23
305.88	73.9
306.094	92.33
306.308	24.75
306.522	80.04
306.736	-3.93
306.95	53.42
307.164	57.51
307.379	-14.17
307.593	63.66
307.807	73.9
308.021	39.08
308.235	26.79
308.449	-14.17
308.663	20.65
308.877	118.95
309.091	51.37
309.305	90.28
309.519	20.65
309.733	10.41
309.947	28.84
310.161	92.33
310.374	49.32
310.588	86.19
310.802	63.66
311.016	-16.21
311.23	55.47
311.444	86.19
311.658	65.71
311.872	121
312.085	47.27
312.299	90.28
312.513	116.9
312.727	32.94
312.941	-3.93
313.154	-12.12
313.368	43.18
313.582	73.9
313.796	0.17
314.009	34.99
314.223	18.6
314.437	67.75
314.651	80.04
314.864	84.14
315.078	10.41
315.292	41.13
315.505	20.65
315.719	65.71
315.933	34.99
316.146	104.62
316.36	-44.88
316.573	49.32
316.787	73.9
317.001	98.47
317.214	77.99
317.428	55.47
317.641	2.22
317.855	55.47
318.068	0.17
318.282	77.99
318.495	100.52
318.709	30.89
318.922	-16.21
319.136	80.04
319.349	75.95
319.563	4.27
319.776	98.47
319.99	41.13
320.203	49.32
320.417	37.03
320.63	49.32
320.843	20.65
321.057	24.75
321.27	14.51
321.483	32.94
321.697	45.23
321.91	98.47
322.124	106.67
322.337	12.46
322.55	51.37
322.763	-16.21
322.977	77.99
323.19	32.94
323.403	51.37
323.617	-3.93
323.83	32.94
324.043	2.22
324.256	-8.02
324.469	63.66
324.683	100.52
324.896	-18.26
325.109	65.71
325.322	104.62
325.535	125.1
325.748	12.46
325.962	112.81
326.175	-32.6
326.388	67.75
326.601	41.13
326.814	59.56
327.027	51.37
327.24	39.08
327.453	67.75
327.666	49.32
327.879	57.51
328.092	61.61
328.305	51.37
328.518	90.28
328.731	-24.4
328.944	65.71
329.157	45.23
329.37	37.03
329.583	67.75
329.796	55.47
330.009	57.51
330.222	0.17
330.435	88.23
330.648	49.32
330.861	24.75
331.073	49.32
331.286	104.62
331.499	57.51
331.712	-3.93
331.925	-32.6
332.138	77.99
332.35	43.18
332.563	10.41
332.776	39.08
332.989	67.75
333.202	22.7
333.414	67.75
333.627	100.52
333.84	55.47
334.053	51.37
334.265	57.51
334.478	4.27
334.691	65.71
334.903	8.36
335.116	110.76
335.329	20.65
335.541	51.37
335.754	75.95
335.966	-3.93
336.179	75.95
336.392	37.03
336.604	77.99
336.817	30.89
337.029	47.27
337.242	34.99
337.454	96.43
337.667	49.32
337.88	71.85
338.092	90.28
338.305	53.42
338.517	-57.17
338.729	53.42
338.942	90.28
339.154	-30.55
339.367	55.47
339.579	57.51
339.792	47.27
340.004	82.09
340.217	112.81
340.429	12.46
340.641	28.84
340.854	4.27
341.066	-18.26
341.278	57.51
341.491	92.33
341.703	0.17
341.915	102.57
342.128	92.33
342.34	51.37
342.552	108.71
342.764	4.27
342.977	43.18
343.189	-8.02
343.401	37.03
343.613	77.99
343.826	37.03
344.038	53.42
344.25	63.66
344.462	49.32
344.674	80.04
344.886	41.13
345.099	92.33
345.311	30.89
345.523	67.75
345.735	24.75
345.947	18.6
346.159	67.75
346.371	88.23
346.583	-44.88
346.795	108.71
347.007	98.47
347.219	65.71
347.431	-10.07
347.643	63.66
347.855	24.75
348.067	49.32
348.279	-12.12
348.491	8.36
348.703	-40.79
348.915	30.89
349.127	26.79
349.339	32.94
349.551	55.47
349.763	118.95
349.975	86.19
350.187	-14.17
350.399	24.75
350.61	-16.21
350.822	-14.17
351.034	118.95
351.246	73.9
351.458	82.09
351.669	-20.31
351.881	90.28
352.093	47.27
352.305	45.23
352.517	73.9
352.728	137.38
352.94	24.75
353.152	147.62
353.363	61.61
353.575	65.71
353.787	61.61
353.999	45.23
354.21	80.04
354.422	92.33
354.633	39.08
354.845	98.47
355.057	96.43
355.268	47.27
355.48	63.66
355.692	-8.02
355.903	26.79
356.115	22.7
356.326	96.43
356.538	22.7
356.749	26.79
356.961	63.66
357.172	-8.02
357.384	32.94
357.595	131.24
357.807	32.94
358.018	12.46
358.23	75.95
358.441	61.61
358.653	92.33
358.864	-16.21
359.075	10.41
359.287	14.51
359.498	43.18
359.709	39.08
359.921	34.99
360.132	82.09
360.344	-36.69
360.555	98.47
360.766	63.66
360.977	0.17
361.189	32.94
361.4	94.38
361.611	71.85
361.823	80.04
362.034	53.42
362.245	32.94
362.456	43.18
362.667	59.56
362.879	59.56
363.09	2.22
363.301	-20.31
363.512	69.8
363.723	-8.02
363.935	73.9
364.146	131.24
364.357	-20.31
364.568	16.55
364.779	8.36
364.99	108.71
365.201	39.08
365.412	61.61
365.623	94.38
365.834	16.55
366.045	43.18
366.256	34.99
366.467	24.75
366.678	73.9
366.889	8.36
367.1	-5.97
367.311	14.51
367.522	49.32
367.733	75.95
367.944	55.47
368.155	57.51
368.366	141.48
368.577	65.71
368.788	12.46
368.999	-5.97
369.209	67.75
369.42	45.23
369.631	139.43
369.842	112.81
370.053	-18.26
370.264	10.41
370.474	55.47
370.685	57.51
370.896	90.28
371.107	131.24
371.317	-16.21
371.528	45.23
371.739	69.8
371.95	-10.07
372.16	92.33
372.371	26.79
372.582	110.76
372.792	-8.02
373.003	67.75
373.214	100.52
373.424	41.13
373.635	98.47
373.846	59.56
374.056	37.03
374.267	14.51
374.477	26.79
374.688	34.99
374.898	-40.79
375.109	67.75
375.319	37.03
375.53	16.55
375.74	90.28
375.951	51.37
376.161	82.09
376.372	73.9
376.582	4.27
376.793	24.75
377.003	86.19
377.214	45.23
377.424	16.55
377.635	98.47
377.845	30.89
378.055	49.32
378.266	12.46
378.476	92.33
378.686	39.08
378.897	12.46
379.107	41.13
379.317	108.71
379.528	71.85
379.738	114.86
379.948	37.03
380.158	16.55
380.369	129.19
380.579	32.94
380.789	41.13
380.999	88.23
381.21	75.95
381.42	90.28
381.63	37.03
381.84	63.66
382.05	32.94
382.261	22.7
382.471	114.86
382.681	51.37
382.891	69.8
383.101	30.89
383.311	75.95
383.521	49.32
383.731	-26.45
383.941	75.95
384.151	65.71
384.361	39.08
384.571	30.89
384.781	47.27
384.991	61.61
385.201	100.52
385.411	18.6
385.621	53.42
385.831	69.8
386.041	47.27
386.251	73.9
386.461	118.95
386.671	69.8
386.881	63.66
387.091	57.51
387.301	84.14
387.511	32.94
387.72	49.32
387.93	34.99
388.14	18.6
388.35	39.08
388.56	84.14
388.769	-10.07
388.979	102.57
389.189	98.47
389.399	59.56
389.609	53.42
389.818	98.47
390.028	110.76
390.238	28.84
390.447	37.03
390.657	96.43
390.867	-14.17
391.076	118.95
391.286	45.23
391.496	108.71
391.705	0.17
391.915	133.29
392.125	94.38
392.334	51.37
392.544	73.9
392.753	98.47
392.963	129.19
393.172	37.03
393.382	57.51
393.591	100.52
393.801	155.82
394.01	55.47
394.22	49.32
394.429	116.9
394.639	49.32
394.848	63.66
395.058	16.55
395.267	143.53
395.477	39.08
395.686	108.71
395.895	108.71
396.105	92.33
396.314	53.42
396.524	135.34
396.733	118.95
396.942	137.38
397.152	102.57
397.361	145.58
397.57	139.43
397.78	96.43
397.989	47.27
398.198	32.94
398.407	174.25
398.617	149.67
398.826	112.81
399.035	143.53
399.244	28.84
399.453	20.65
399.663	51.37
399.872	77.99
400.081	135.34
400.29	59.56
400.499	73.9
400.708	147.62
400.917	55.47
401.127	127.14
401.336	100.52
401.545	133.29
401.754	41.13
401.963	166.06
402.172	141.48
402.381	118.95
402.59	149.67
402.799	125.1
403.008	164.01
403.217	125.1
403.426	100.52
403.635	159.91
403.844	157.86
404.053	176.3
404.262	96.43
404.471	164.01
404.68	39.08
404.888	121
405.097	164.01
405.306	223.4
405.515	147.62
405.724	170.15
405.933	123.05
406.142	118.95
406.35	174.25
406.559	153.77
406.768	63.66
406.977	182.44
407.185	188.58
407.394	274.6
407.603	221.35
407.812	239.78
408.02	211.11
408.229	202.92
408.438	135.34
408.646	237.74
408.855	272.55
409.064	215.21
409.272	204.97
409.481	252.07
409.69	227.5
409.898	256.17
410.107	223.4
410.315	256.17
410.524	264.36
410.733	272.55
410.941	258.21
411.15	311.46
411.358	350.37
411.567	336.04
411.775	321.7
411.984	379.04
412.192	340.13
412.401	297.13
412.609	350.37
412.818	348.33
413.026	452.77
413.234	448.68
413.443	460.96
413.651	420
413.86	438.44
414.068	508.07
414.276	432.29
414.485	526.5
414.693	501.92
414.901	524.45
415.11	553.12
415.318	512.16
415.526	647.33
415.734	577.7
415.943	647.33
416.151	680.1
416.359	606.37
416.567	698.53
416.776	755.87
416.984	805.02
417.192	856.22
417.4	766.11
417.608	745.63
417.817	764.06
418.025	823.45
418.233	860.32
418.441	932
418.649	921.76
418.857	1069.21
419.065	999.58
419.273	1071.26
419.481	1091.74
419.689	1214.62
419.897	1214.62
420.105	1231
420.313	1112.22
420.521	1351.83
420.729	1345.69
420.937	1394.84
421.145	1470.61
421.353	1554.58
421.561	1487
421.769	1560.72
421.977	1634.45
422.185	1613.97
422.393	1802.38
422.601	1841.29
422.809	1853.58
423.017	1894.54
423.224	1851.53
423.432	1941.65
423.64	2060.43
423.848	2152.59
424.056	2031.76
424.263	2265.22
424.471	2138.25
424.679	2326.66
424.887	2412.68
425.094	2558.08
425.302	2502.79
425.51	2615.43
425.718	2592.9
425.925	2850.94
426.133	2859.14
426.341	2924.67
426.548	3068.03
426.756	3111.04
426.964	3154.04
427.171	3317.88
427.379	3291.26
427.586	3451
427.794	3549.3
428.001	3784.82
428.209	3827.82
428.417	3698.8
428.624	4149.36
428.832	3997.81
429.039	4092.01
429.247	4182.12
429.454	4411.5
429.662	4714.59
429.869	4595.81
430.076	4864.1
430.284	4704.35
430.491	4831.33
430.699	5017.69
430.906	5095.52
431.114	5103.71
431.321	5419.1
431.528	5605.46
431.736	5931.09
431.943	6060.11
432.15	5892.18
432.358	5851.22
432.565	6309.96
432.772	6174.8
432.979	6611.01
433.187	6625.35
433.394	6719.56
433.601	7217.21
433.808	7241.79
434.016	7086.14
434.223	7292.99
434.43	7782.45
434.637	7606.33
434.844	8173.61
435.052	8237.1
435.259	8540.2
435.466	8402.99
435.673	8296.49
435.88	8869.92
436.087	9324.57
436.294	9318.43
436.501	9351.2
436.708	9062.43
436.915	9574.42
437.122	10172.43
437.329	9791.51
437.537	10278.93
437.743	10405.9
437.95	10410
438.157	11008
438.364	11266.05
438.571	11200.51
438.778	11423.74
438.985	12457.96
439.192	12158.96
439.399	12380.14
439.606	12021.75
439.813	13047.78
440.02	13275.1
440.227	13170.66
440.433	13240.29
440.64	13606.88
440.847	13496.28
441.054	13756.38
441.261	14469.07
441.467	14393.3
441.674	14835.66
441.881	15321.02
442.088	15353.79
442.294	15126.47
442.501	15542.21
442.708	15810.49
442.914	16332.72
443.121	16967.59
443.328	16555.95
443.534	17919.9
443.741	17426.34
443.948	17072.04
444.154	18476.94
444.361	18313.11
444.568	18386.83
444.774	18405.27
444.981	18614.16
445.187	18984.84
445.394	19758.97
445.6	19689.34
445.807	21667.68
446.013	20676.46
446.22	21012.33
446.426	22017.88
446.633	21829.47
446.839	22638.42
447.046	21843.81
447.252	22800.21
447.459	23217.99
447.665	22789.97
447.871	23850.81
448.078	24960.81
448.284	23893.82
448.491	24577.84
448.697	25427.75
448.903	25827.1
449.11	25716.51
449.316	25554.72
449.522	25995.04
449.728	26418.97
449.935	26758.93
450.141	26564.37
450.347	27252.49
450.553	26464.02
450.76	26976.02
450.966	27860.74
451.172	27311.88
451.378	28182.27
451.584	27318.03
451.791	27936.51
451.997	28106.49
452.203	28528.38
452.409	28559.09
452.615	28194.56
452.821	27492.1
453.027	26990.35
453.233	28303.1
453.44	27348.75
453.646	27600.65
453.852	27762.44
454.058	28129.02
454.264	27199.24
454.47	27887.36
454.676	27125.52
454.882	28065.53
455.088	25595.68
455.294	25927.46
455.5	26152.73
455.705	26726.16
455.911	25356.07
456.117	24825.65
456.323	25104.17
456.529	23471.94
456.735	24526.64
456.941	23910.21
457.147	23471.94
457.352	22724.43
457.558	22726.48
457.764	22615.89
457.97	21913.44
458.176	21587.81
458.381	21649.25
458.587	20610.93
458.793	20612.98
458.999	19462.02
459.204	20815.73
459.41	19969.91
459.616	18964.36
459.821	19054.47
460.027	19007.37
460.233	18427.79
460.438	17635.23
460.644	17915.8
460.85	17037.22
461.055	16748.46
461.261	16832.43
461.466	15691.71
461.672	15103.94
461.878	16054.2
462.083	15130.56
462.289	14968.77
462.494	14663.63
462.7	14106.58
462.905	13445.09
463.111	14122.96
463.316	14116.82
463.522	13854.68
463.727	13920.21
463.932	13834.2
464.138	13479.9
464.343	13762.52
464.549	13230.05
464.754	13920.21
464.959	13932.5
465.165	13402.08
465.37	12902.37
465.575	12853.22
465.781	13082.6
465.986	13377.5
466.191	12883.94
466.397	12658.67
466.602	12167.15
466.807	12593.13
467.012	12623.85
467.218	12349.42
467.423	12296.18
467.628	12267.5
467.833	13049.83
