Data from USB4F104151__278__14-02-25-019.txt Node

Date: Thu Mar 13 14:02:25 EDT 2025
User: louis
Spectrometer: USB4F10415
Trigger mode: 4
Integration Time (sec): 1.000000E-2
Scans to average: 1
Electric dark correction enabled: true
Nonlinearity correction enabled: false
Boxcar width: 0
XAxis mode: Wavelengths
Number of Pixels in Spectrum: 3648
>>>>>Begin Spectral Data<<<<<
178.204	-85.16
178.424	-85.16
178.644	-85.16
178.864	0.85
179.084	-72.87
179.304	-40.11
179.524	23.38
179.744	-17.58
179.964	-62.63
180.184	-5.29
180.404	-33.96
180.624	-1.19
180.844	23.38
181.064	35.67
181.283	88.92
181.503	0.85
181.723	-11.43
181.943	-58.54
182.163	41.81
182.383	31.57
182.602	35.67
182.822	23.38
183.042	35.67
183.262	47.96
183.482	-27.82
183.701	23.38
183.921	37.72
184.141	17.24
184.361	37.72
184.58	31.57
184.8	-1.19
185.02	25.43
185.239	29.52
185.459	9.05
185.679	-11.43
185.898	-5.29
186.118	-19.63
186.338	39.76
186.557	109.4
186.777	-19.63
186.997	41.81
187.216	-15.53
187.436	86.87
187.655	11.09
187.875	74.58
188.095	-60.59
188.314	4.95
188.534	47.96
188.753	37.72
188.973	23.38
189.192	17.24
189.412	19.29
189.631	4.95
189.851	-62.63
190.07	0.85
190.29	11.09
190.509	11.09
190.729	-15.53
190.948	62.29
191.168	37.72
191.387	43.86
191.607	13.14
191.826	29.52
192.045	52.05
192.265	19.29
192.484	84.82
192.704	23.38
192.923	-70.83
193.142	54.1
193.362	-68.78
193.581	23.38
193.8	19.29
194.02	117.59
194.239	21.33
194.458	25.43
194.678	19.29
194.897	13.14
195.116	45.91
195.335	13.14
195.555	29.52
195.774	-76.97
195.993	41.81
196.212	-7.34
196.432	-3.24
196.651	11.09
196.87	-1.19
197.089	45.91
197.308	-9.39
197.528	-3.24
197.747	33.62
197.966	-64.68
198.185	58.2
198.404	21.33
198.623	13.14
198.842	11.09
199.062	31.57
199.281	29.52
199.5	13.14
199.719	45.91
199.938	19.29
200.157	-50.35
200.376	-11.43
200.595	29.52
200.814	-11.43
201.033	13.14
201.252	88.92
201.471	7
201.69	-52.39
201.909	-29.87
202.128	21.33
202.347	90.96
202.566	45.91
202.785	11.09
203.004	-19.63
203.223	41.81
203.442	-70.83
203.661	33.62
203.879	0.85
204.098	37.72
204.317	62.29
204.536	15.19
204.755	-42.15
204.974	64.34
205.193	-9.39
205.411	56.15
205.63	39.76
205.849	-23.72
206.068	-42.15
206.287	-36.01
206.505	21.33
206.724	39.76
206.943	-33.96
207.162	-38.06
207.381	-15.53
207.599	-15.53
207.818	80.72
208.037	13.14
208.255	-117.93
208.474	-11.43
208.693	-27.82
208.911	15.19
209.13	-19.63
209.349	-17.58
209.567	-17.58
209.786	88.92
210.005	62.29
210.223	35.67
210.442	-23.72
210.661	-7.34
210.879	-19.63
211.098	90.96
211.316	68.44
211.535	-7.34
211.753	-31.91
211.972	-9.39
212.191	33.62
212.409	25.43
212.628	86.87
212.846	23.38
213.065	33.62
213.283	62.29
213.502	13.14
213.72	68.44
213.938	-11.43
214.157	11.09
214.375	33.62
214.594	19.29
214.812	4.95
215.031	4.95
215.249	35.67
215.467	-36.01
215.686	52.05
215.904	82.77
216.122	31.57
216.341	60.24
216.559	29.52
216.778	23.38
216.996	86.87
217.214	7
217.432	-3.24
217.651	123.73
217.869	-1.19
218.087	60.24
218.306	-70.83
218.524	-5.29
218.742	-29.87
218.96	29.52
219.179	-5.29
219.397	-66.73
219.615	4.95
219.833	-1.19
220.051	11.09
220.27	9.05
220.488	-33.96
220.706	13.14
220.924	35.67
221.142	-15.53
221.36	11.09
221.578	-5.29
221.796	-29.87
222.015	86.87
222.233	17.24
222.451	4.95
222.669	-27.82
222.887	25.43
223.105	9.05
223.323	68.44
223.541	-19.63
223.759	54.1
223.977	54.1
224.195	39.76
224.413	-11.43
224.631	54.1
224.849	-7.34
225.067	-11.43
225.285	39.76
225.503	-11.43
225.721	-58.54
225.939	74.58
226.157	19.29
226.375	52.05
226.592	-27.82
226.81	62.29
227.028	29.52
227.246	25.43
227.464	-48.3
227.682	-5.29
227.9	33.62
228.117	29.52
228.335	-42.15
228.553	-62.63
228.771	37.72
228.989	-21.67
229.206	70.48
229.424	88.92
229.642	-68.78
229.86	11.09
230.077	-27.82
230.295	60.24
230.513	35.67
230.731	56.15
230.948	-5.29
231.166	13.14
231.384	-70.83
231.601	107.35
231.819	-13.48
232.037	-27.82
232.254	-9.39
232.472	21.33
232.689	31.57
232.907	11.09
233.125	35.67
233.342	72.53
233.56	50
233.777	43.86
233.995	9.05
234.213	-3.24
234.43	-3.24
234.648	54.1
234.865	33.62
235.083	-5.29
235.3	-7.34
235.518	7
235.735	37.72
235.953	99.16
236.17	-36.01
236.388	97.11
236.605	25.43
236.822	45.91
237.04	-52.39
237.257	33.62
237.475	29.52
237.692	21.33
237.909	54.1
238.127	39.76
238.344	-40.11
238.562	15.19
238.779	-44.2
238.996	4.95
239.214	50
239.431	56.15
239.648	-50.35
239.865	86.87
240.083	23.38
240.3	52.05
240.517	-40.11
240.735	21.33
240.952	43.86
241.169	31.57
241.386	54.1
241.603	13.14
241.821	-33.96
242.038	39.76
242.255	-42.15
242.472	64.34
242.689	-33.96
242.907	76.63
243.124	4.95
243.341	72.53
243.558	25.43
243.775	29.52
243.992	-19.63
244.209	33.62
244.426	17.24
244.643	29.52
244.86	-38.06
245.078	88.92
245.295	58.2
245.512	21.33
245.729	29.52
245.946	45.91
246.163	70.48
246.38	37.72
246.597	80.72
246.814	-15.53
247.031	31.57
247.248	66.39
247.464	-42.15
247.681	-7.34
247.898	-3.24
248.115	-17.58
248.332	21.33
248.549	31.57
248.766	54.1
248.983	54.1
249.2	33.62
249.417	47.96
249.633	9.05
249.85	45.91
250.067	-29.87
250.284	93.01
250.501	11.09
250.717	-27.82
250.934	-15.53
251.151	-19.63
251.368	35.67
251.585	-11.43
251.801	29.52
252.018	54.1
252.235	-31.91
252.451	-36.01
252.668	35.67
252.885	66.39
253.102	2.9
253.318	4.95
253.535	-11.43
253.752	41.81
253.968	-7.34
254.185	19.29
254.401	41.81
254.618	68.44
254.835	62.29
255.051	-40.11
255.268	84.82
255.484	-7.34
255.701	-15.53
255.917	45.91
256.134	37.72
256.351	-19.63
256.567	-52.39
256.784	15.19
257	-5.29
257.217	0.85
257.433	47.96
257.65	-1.19
257.866	76.63
258.082	23.38
258.299	-3.24
258.515	-1.19
258.732	-1.19
258.948	17.24
259.165	19.29
259.381	-11.43
259.597	45.91
259.814	29.52
260.03	0.85
260.246	131.92
260.463	7
260.679	84.82
260.895	66.39
261.112	13.14
261.328	37.72
261.544	64.34
261.761	4.95
261.977	58.2
262.193	33.62
262.409	70.48
262.626	-19.63
262.842	11.09
263.058	15.19
263.274	62.29
263.49	62.29
263.707	50
263.923	-36.01
264.139	9.05
264.355	7
264.571	-19.63
264.787	68.44
265.004	54.1
265.22	-52.39
265.436	15.19
265.652	-17.58
265.868	-42.15
266.084	9.05
266.3	31.57
266.516	15.19
266.732	7
266.948	33.62
267.164	45.91
267.38	17.24
267.596	-5.29
267.812	-1.19
268.028	-17.58
268.244	41.81
268.46	-7.34
268.676	4.95
268.892	35.67
269.108	68.44
269.324	25.43
269.54	7
269.756	-15.53
269.972	-25.77
270.188	35.67
270.403	13.14
270.619	56.15
270.835	84.82
271.051	27.48
271.267	-76.97
271.483	54.1
271.698	35.67
271.914	90.96
272.13	97.11
272.346	45.91
272.562	25.43
272.777	62.29
272.993	-23.72
273.209	37.72
273.425	29.52
273.64	41.81
273.856	80.72
274.072	37.72
274.287	29.52
274.503	21.33
274.719	13.14
274.934	47.96
275.15	27.48
275.366	78.68
275.581	7
275.797	17.24
276.012	15.19
276.228	-3.24
276.444	-21.67
276.659	-1.19
276.875	25.43
277.09	-33.96
277.306	47.96
277.521	54.1
277.737	-17.58
277.952	11.09
278.168	99.16
278.383	62.29
278.599	0.85
278.814	66.39
279.03	23.38
279.245	41.81
279.461	68.44
279.676	68.44
279.892	15.19
280.107	50
280.322	-40.11
280.538	127.83
280.753	-44.2
280.969	-38.06
281.184	-7.34
281.399	-1.19
281.615	35.67
281.83	70.48
282.045	-17.58
282.26	-42.15
282.476	0.85
282.691	35.67
282.906	2.9
283.122	84.82
283.337	-5.29
283.552	50
283.767	-11.43
283.983	88.92
284.198	27.48
284.413	-3.24
284.628	47.96
284.843	2.9
285.058	-21.67
285.274	-31.91
285.489	19.29
285.704	31.57
285.919	60.24
286.134	-11.43
286.349	-38.06
286.564	-56.49
286.779	31.57
286.995	37.72
287.21	29.52
287.425	47.96
287.64	43.86
287.855	62.29
288.07	21.33
288.285	15.19
288.5	70.48
288.715	70.48
288.93	-38.06
289.145	72.53
289.36	-27.82
289.575	31.57
289.79	19.29
290.004	13.14
290.219	25.43
290.434	7
290.649	27.48
290.864	68.44
291.079	37.72
291.294	-9.39
291.509	-21.67
291.724	70.48
291.938	9.05
292.153	113.49
292.368	11.09
292.583	97.11
292.798	115.54
293.012	37.72
293.227	11.09
293.442	58.2
293.657	29.52
293.871	41.81
294.086	21.33
294.301	97.11
294.516	35.67
294.73	-3.24
294.945	25.43
295.16	29.52
295.374	74.58
295.589	41.81
295.804	41.81
296.018	-7.34
296.233	47.96
296.447	4.95
296.662	-79.02
296.877	70.48
297.091	74.58
297.306	47.96
297.52	45.91
297.735	80.72
297.949	-1.19
298.164	21.33
298.378	-70.83
298.593	41.81
298.807	-17.58
299.022	25.43
299.236	50
299.451	52.05
299.665	-1.19
299.88	-27.82
300.094	37.72
300.309	27.48
300.523	13.14
300.737	-40.11
300.952	31.57
301.166	27.48
301.381	25.43
301.595	41.81
301.809	19.29
302.024	33.62
302.238	39.76
302.452	74.58
302.667	35.67
302.881	95.06
303.095	56.15
303.309	23.38
303.524	52.05
303.738	-15.53
303.952	2.9
304.166	54.1
304.381	4.95
304.595	70.48
304.809	84.82
305.023	-3.24
305.237	-33.96
305.452	37.72
305.666	-48.3
305.88	62.29
306.094	47.96
306.308	43.86
306.522	64.34
306.736	-9.39
306.95	45.91
307.164	54.1
307.379	31.57
307.593	-19.63
307.807	58.2
308.021	80.72
308.235	47.96
308.449	2.9
308.663	60.24
308.877	56.15
309.091	41.81
309.305	-11.43
309.519	105.3
309.733	11.09
309.947	37.72
310.161	45.91
310.374	25.43
310.588	72.53
310.802	-11.43
311.016	64.34
311.23	0.85
311.444	-36.01
311.658	-1.19
311.872	21.33
312.085	23.38
312.299	95.06
312.513	45.91
312.727	9.05
312.941	31.57
313.154	-25.77
313.368	31.57
313.582	-17.58
313.796	-27.82
314.009	39.76
314.223	7
314.437	-19.63
314.651	50
314.864	-13.48
315.078	58.2
315.292	113.49
315.505	-40.11
315.719	-19.63
315.933	-36.01
316.146	29.52
316.36	0.85
316.573	23.38
316.787	45.91
317.001	56.15
317.214	0.85
317.428	90.96
317.641	45.91
317.855	-33.96
318.068	60.24
318.282	45.91
318.495	58.2
318.709	62.29
318.922	-1.19
319.136	54.1
319.349	54.1
319.563	68.44
319.776	15.19
319.99	-23.72
320.203	64.34
320.417	-36.01
320.63	37.72
320.843	25.43
321.057	21.33
321.27	60.24
321.483	66.39
321.697	39.76
321.91	-25.77
322.124	29.52
322.337	39.76
322.55	62.29
322.763	66.39
322.977	11.09
323.19	4.95
323.403	47.96
323.617	-3.24
323.83	39.76
324.043	25.43
324.256	117.59
324.469	-3.24
324.683	72.53
324.896	74.58
325.109	33.62
325.322	47.96
325.535	50
325.748	70.48
325.962	60.24
326.175	13.14
326.388	107.35
326.601	23.38
326.814	64.34
327.027	9.05
327.24	86.87
327.453	-42.15
327.666	47.96
327.879	68.44
328.092	39.76
328.305	62.29
328.518	9.05
328.731	-1.19
328.944	78.68
329.157	70.48
329.37	45.91
329.583	54.1
329.796	-5.29
330.009	-27.82
330.222	103.25
330.435	86.87
330.648	-25.77
330.861	-19.63
331.073	21.33
331.286	7
331.499	84.82
331.712	56.15
331.925	78.68
332.138	90.96
332.35	39.76
332.563	-42.15
332.776	-1.19
332.989	66.39
333.202	-21.67
333.414	76.63
333.627	-3.24
333.84	2.9
334.053	11.09
334.265	37.72
334.478	37.72
334.691	56.15
334.903	33.62
335.116	-19.63
335.329	60.24
335.541	58.2
335.754	15.19
335.966	21.33
336.179	-15.53
336.392	-46.25
336.604	90.96
336.817	-27.82
337.029	37.72
337.242	0.85
337.454	21.33
337.667	56.15
337.88	37.72
338.092	74.58
338.305	13.14
338.517	41.81
338.729	45.91
338.942	62.29
339.154	-38.06
339.367	21.33
339.579	99.16
339.792	17.24
340.004	82.77
340.217	-3.24
340.429	58.2
340.641	76.63
340.854	19.29
341.066	37.72
341.278	25.43
341.491	-3.24
341.703	76.63
341.915	21.33
342.128	60.24
342.34	50
342.552	103.25
342.764	9.05
342.977	-27.82
343.189	62.29
343.401	39.76
343.613	-42.15
343.826	45.91
344.038	31.57
344.25	17.24
344.462	0.85
344.674	11.09
344.886	29.52
345.099	37.72
345.311	54.1
345.523	25.43
345.735	0.85
345.947	31.57
346.159	15.19
346.371	21.33
346.583	-3.24
346.795	103.25
347.007	29.52
347.219	62.29
347.431	41.81
347.643	-3.24
347.855	78.68
348.067	95.06
348.279	31.57
348.491	41.81
348.703	7
348.915	-11.43
349.127	52.05
349.339	-31.91
349.551	0.85
349.763	37.72
349.975	0.85
350.187	39.76
350.399	7
350.61	-3.24
350.822	64.34
351.034	29.52
351.246	-5.29
351.458	41.81
351.669	2.9
351.881	17.24
352.093	27.48
352.305	82.77
352.517	-19.63
352.728	54.1
352.94	35.67
353.152	4.95
353.363	-38.06
353.575	70.48
353.787	17.24
353.999	47.96
354.21	-29.87
354.422	9.05
354.633	-17.58
354.845	13.14
355.057	23.38
355.268	29.52
355.48	58.2
355.692	33.62
355.903	-1.19
356.115	62.29
356.326	21.33
356.538	-9.39
356.749	-1.19
356.961	93.01
357.172	15.19
357.384	86.87
357.595	50
357.807	-19.63
358.018	54.1
358.23	9.05
358.441	41.81
358.653	45.91
358.864	39.76
359.075	95.06
359.287	-17.58
359.498	-3.24
359.709	-5.29
359.921	2.9
360.132	-42.15
360.344	80.72
360.555	-38.06
360.766	56.15
360.977	-5.29
361.189	88.92
361.4	31.57
361.611	80.72
361.823	2.9
362.034	66.39
362.245	74.58
362.456	-7.34
362.667	50
362.879	-44.2
363.09	64.34
363.301	9.05
363.512	-17.58
363.723	74.58
363.935	78.68
364.146	72.53
364.357	33.62
364.568	86.87
364.779	62.29
364.99	150.36
365.201	23.38
365.412	103.25
365.623	7
365.834	-7.34
366.045	21.33
366.256	-48.3
366.467	127.83
366.678	21.33
366.889	-48.3
367.1	-66.73
367.311	39.76
367.522	13.14
367.733	72.53
367.944	35.67
368.155	47.96
368.366	41.81
368.577	35.67
368.788	54.1
368.999	54.1
369.209	54.1
369.42	78.68
369.631	62.29
369.842	39.76
370.053	107.35
370.264	37.72
370.474	60.24
370.685	27.48
370.896	62.29
371.107	66.39
371.317	39.76
371.528	-7.34
371.739	-15.53
371.95	-11.43
372.16	119.64
372.371	-17.58
372.582	47.96
372.792	58.2
373.003	2.9
373.214	64.34
373.424	21.33
373.635	60.24
373.846	31.57
374.056	21.33
374.267	31.57
374.477	15.19
374.688	23.38
374.898	35.67
375.109	70.48
375.319	31.57
375.53	47.96
375.74	86.87
375.951	35.67
376.161	-1.19
376.372	103.25
376.582	70.48
376.793	52.05
377.003	74.58
377.214	99.16
377.424	74.58
377.635	54.1
377.845	13.14
378.055	74.58
378.266	17.24
378.476	0.85
378.686	45.91
378.897	37.72
379.107	58.2
379.317	54.1
379.528	70.48
379.738	-15.53
379.948	50
380.158	78.68
380.369	-1.19
380.579	25.43
380.789	11.09
380.999	121.68
381.21	11.09
381.42	70.48
381.63	66.39
381.84	39.76
382.05	64.34
382.261	78.68
382.471	23.38
382.681	21.33
382.891	64.34
383.101	13.14
383.311	17.24
383.521	97.11
383.731	33.62
383.941	39.76
384.151	-7.34
384.361	144.21
384.571	11.09
384.781	41.81
384.991	33.62
385.201	37.72
385.411	33.62
385.621	58.2
385.831	-36.01
386.041	-5.29
386.251	35.67
386.461	66.39
386.671	4.95
386.881	60.24
387.091	25.43
387.301	95.06
387.511	39.76
387.72	15.19
387.93	50
388.14	15.19
388.35	109.4
388.56	56.15
388.769	21.33
388.979	-7.34
389.189	39.76
389.399	64.34
389.609	-17.58
389.818	47.96
390.028	7
390.238	72.53
390.447	13.14
390.657	58.2
390.867	29.52
391.076	19.29
391.286	21.33
391.496	68.44
391.705	25.43
391.915	84.82
392.125	39.76
392.334	74.58
392.544	15.19
392.753	78.68
392.963	93.01
393.172	25.43
393.382	35.67
393.591	113.49
393.801	78.68
394.01	47.96
394.22	27.48
394.429	58.2
394.639	74.58
394.848	45.91
395.058	62.29
395.267	31.57
395.477	80.72
395.686	70.48
395.895	95.06
396.105	113.49
396.314	76.63
396.524	62.29
396.733	86.87
396.942	115.54
397.152	64.34
397.361	-27.82
397.57	97.11
397.78	25.43
397.989	54.1
398.198	78.68
398.407	103.25
398.617	74.58
398.826	115.54
399.035	66.39
399.244	13.14
399.453	58.2
399.663	11.09
399.872	129.88
400.081	101.2
400.29	88.92
400.499	37.72
400.708	88.92
400.917	109.4
401.127	86.87
401.336	117.59
401.545	64.34
401.754	80.72
401.963	90.96
402.172	76.63
402.381	131.92
402.59	101.2
402.799	95.06
403.008	174.93
403.217	127.83
403.426	90.96
403.635	152.4
403.844	166.74
404.053	154.45
404.262	111.44
404.471	185.17
404.68	107.35
404.888	117.59
405.097	140.12
405.306	115.54
405.515	193.36
405.724	191.31
405.933	82.77
406.142	162.64
406.35	179.03
406.559	144.21
406.768	191.31
406.977	172.88
407.185	201.55
407.394	129.88
407.603	160.59
407.812	119.64
408.02	127.83
408.229	244.56
408.438	238.42
408.646	250.71
408.855	201.55
409.064	185.17
409.272	213.84
409.481	234.32
409.69	258.9
409.898	248.66
410.107	258.9
410.315	303.95
410.524	256.85
410.733	355.15
410.941	293.71
411.15	357.2
411.358	308.05
411.567	351.06
411.775	371.54
411.984	324.43
412.192	281.43
412.401	373.58
412.609	435.02
412.818	338.77
413.026	418.64
413.234	432.97
413.443	420.69
413.651	402.26
413.86	455.5
414.068	439.12
414.276	506.7
414.485	490.32
414.693	545.61
414.901	598.86
415.11	674.64
415.318	533.33
415.526	605
415.734	736.07
415.943	615.24
416.151	662.35
416.359	688.97
416.567	670.54
416.776	705.35
416.984	783.18
417.192	834.38
417.4	820.04
417.608	801.61
417.817	848.71
418.025	996.17
418.233	885.58
418.441	885.58
418.649	897.86
418.857	1041.22
419.065	1139.52
419.273	1094.47
419.481	1127.24
419.689	1223.49
419.897	1254.21
420.105	1200.96
420.313	1387.33
420.521	1387.33
420.729	1358.66
420.937	1399.62
421.145	1450.82
421.353	1459.01
421.561	1637.18
421.769	1665.85
421.977	1669.95
422.185	1725.24
422.393	1788.73
422.601	1815.35
422.809	1880.89
423.017	1997.62
423.224	2112.31
423.432	2069.3
423.64	2085.69
423.848	2204.47
424.056	2181.94
424.263	2417.46
424.471	2372.4
424.679	2390.83
424.887	2571.05
425.094	2620.21
425.302	2685.74
425.51	2722.6
425.718	2794.28
425.925	2765.61
426.133	3085.09
426.341	3109.67
426.548	3158.82
426.756	3193.64
426.964	3279.65
427.171	3515.17
427.379	3506.98
427.586	3717.92
427.794	3848.99
428.001	3994.39
428.209	4039.45
428.417	4031.26
428.624	4377.36
428.832	4338.45
429.039	4293.4
429.247	4258.58
429.454	4616.97
429.662	5022.47
429.869	4655.89
430.076	4864.78
430.284	5049.1
430.491	5061.38
430.699	5481.22
430.906	5544.7
431.114	5622.53
431.321	5550.85
431.528	5765.89
431.736	6187.77
431.943	6380.28
432.15	6130.42
432.358	6163.19
432.565	6619.89
432.772	6470.39
432.979	6972.14
433.187	6863.6
433.394	6920.94
433.601	7676.64
433.808	7607.01
434.016	7555.81
434.223	7729.89
434.43	8145.63
434.637	8084.19
434.844	8698.58
435.052	8807.12
435.259	8674
435.466	8721.1
435.673	8819.41
435.88	9263.82
436.087	9734.85
436.294	9978.56
436.501	9712.32
436.708	9665.22
436.915	10148.54
437.122	10384.05
437.329	10554.04
437.537	10971.82
437.743	11006.64
437.95	10934.96
438.157	11557.54
438.364	11809.44
438.571	11834.02
438.778	12016.29
438.985	12966.54
439.192	12499.61
439.399	13003.41
439.606	12546.71
439.813	13296.27
440.02	14115.45
440.227	13783.68
440.433	13963.9
440.64	14256.76
440.847	14283.39
441.054	14568.06
441.261	15645.29
441.467	15096.43
441.674	15731.3
441.881	16040.54
442.088	16362.08
442.294	15825.51
442.501	16376.41
442.708	16550.49
442.914	17203.79
443.121	18051.65
443.328	17474.12
443.534	18764.34
443.741	18291.26
443.948	17975.88
444.154	19382.83
444.361	19178.03
444.568	19388.97
444.774	19272.24
444.981	19411.5
445.187	20161.06
445.394	21172.75
445.6	20828.7
445.807	22905.34
446.013	21789.19
446.22	22151.68
446.426	23040.5
446.633	23343.6
446.839	23957.99
447.046	23282.16
447.252	24424.93
447.459	24328.67
447.665	24211.94
447.871	25383.38
448.078	26526.14
448.284	24934.87
448.491	25747.92
448.697	26767.8
448.903	27331
449.11	27425.2
449.316	27232.69
449.522	27363.76
449.728	28264.87
449.935	28289.45
450.141	28168.62
450.347	29110.68
450.553	28004.78
450.76	28426.66
450.966	29335.96
451.172	29061.53
451.378	30114.19
451.584	28959.13
451.791	29784.46
451.997	29616.53
452.203	30710.14
452.409	30343.56
452.615	30120.33
452.821	29071.77
453.027	28426.66
453.233	30409.09
453.44	28842.4
453.646	29587.86
453.852	29448.6
454.058	30056.84
454.264	29036.95
454.47	29448.6
454.676	28688.8
454.882	29878.67
455.088	27306.42
455.294	27728.3
455.5	28066.22
455.705	28692.9
455.911	27285.94
456.117	26708.41
456.323	25985.48
456.529	24723.93
456.735	26116.55
456.941	25235.92
457.147	24981.98
457.352	24300
457.558	24123.88
457.764	24285.67
457.97	23482.86
458.176	23380.46
458.381	22972.92
458.587	22065.67
458.793	22209.03
458.999	20767.26
459.204	22407.68
459.41	21525
459.616	20208.16
459.821	20263.46
460.027	20140.58
460.233	19915.3
460.438	19055.15
460.644	19067.44
460.85	18262.59
461.055	18098.75
461.261	17744.45
461.466	16650.84
461.672	16120.42
461.878	17062.48
462.083	15841.89
462.289	15989.35
462.494	15725.16
462.7	15069.81
462.905	14697.08
463.111	15039.09
463.316	15045.23
463.522	14502.52
463.727	14666.36
463.932	14770.8
464.138	14514.81
464.343	14676.6
464.549	14310.01
464.754	14508.66
464.959	14502.52
465.165	14561.91
465.37	13935.23
465.575	13599.37
465.781	14119.55
465.986	14097.02
466.191	13662.85
466.397	13283.98
466.602	12645.01
466.807	13077.13
467.012	13271.69
467.218	13034.13
467.423	12814.99
467.628	13085.33
467.833	13505.16
468.038	12874.38
468.244	12669.59
468.449	13070.99
