Data from USB4F104151__267__14-02-06-240.txt Node

Date: Thu Mar 13 14:02:06 EDT 2025
User: louis
Spectrometer: USB4F10415
Trigger mode: 4
Integration Time (sec): 1.000000E-2
Scans to average: 1
Electric dark correction enabled: true
Nonlinearity correction enabled: false
Boxcar width: 0
XAxis mode: Wavelengths
Number of Pixels in Spectrum: 3648
>>>>>Begin Spectral Data<<<<<
178.204	-29.35
178.424	-29.35
178.644	-29.35
178.864	-37.55
179.084	-6.83
179.304	30.04
179.524	-49.83
179.744	30.04
179.964	19.8
180.184	19.8
180.404	46.42
180.624	-0.68
180.844	1.37
181.064	-113.32
181.283	-12.97
181.503	1.37
181.723	27.99
181.943	21.85
182.163	21.85
182.383	-6.83
182.602	71
182.822	23.89
183.042	-4.78
183.262	46.42
183.482	3.41
183.701	-8.87
183.921	-0.68
184.141	60.76
184.361	-6.83
184.58	15.7
184.8	5.46
185.02	-19.11
185.239	58.71
185.459	-47.79
185.679	3.41
185.898	30.04
186.118	38.23
186.338	11.61
186.557	13.65
186.777	5.46
186.997	44.37
187.216	9.56
187.436	5.46
187.655	19.8
187.875	48.47
188.095	-58.03
188.314	34.13
188.534	-47.79
188.753	17.75
188.973	73.04
189.192	62.8
189.412	3.41
189.631	66.9
189.851	34.13
190.07	56.66
190.29	-47.79
190.509	23.89
190.729	-2.73
190.948	42.32
191.168	62.8
191.387	13.65
191.607	5.46
191.826	9.56
192.045	21.85
192.265	11.61
192.484	-55.98
192.704	46.42
192.923	-19.11
193.142	-12.97
193.362	-12.97
193.581	46.42
193.8	3.41
194.02	9.56
194.239	11.61
194.458	-29.35
194.678	-6.83
194.897	46.42
195.116	9.56
195.335	-21.16
195.555	-15.02
195.774	17.75
195.993	25.94
196.212	-4.78
196.432	52.56
196.651	23.89
196.87	40.28
197.089	64.85
197.308	-15.02
197.528	60.76
197.747	1.37
197.966	7.51
198.185	85.33
198.404	-15.02
198.623	9.56
198.842	66.9
199.062	1.37
199.281	13.65
199.5	-41.64
199.719	60.76
199.938	50.52
200.157	34.13
200.376	79.19
200.595	3.41
200.814	-17.07
201.033	62.8
201.252	75.09
201.471	23.89
201.69	-2.73
201.909	85.33
202.128	-39.59
202.347	44.37
202.566	25.94
202.785	99.67
203.004	5.46
203.223	58.71
203.442	44.37
203.661	17.75
203.879	-21.16
204.098	-4.78
204.317	-43.69
204.536	-21.16
204.755	23.89
204.974	66.9
205.193	23.89
205.411	-6.83
205.63	44.37
205.849	-23.21
206.068	-15.02
206.287	44.37
206.505	36.18
206.724	21.85
206.943	46.42
207.162	3.41
207.381	19.8
207.599	-4.78
207.818	-39.59
208.037	1.37
208.255	-19.11
208.474	52.56
208.693	27.99
208.911	-0.68
209.13	46.42
209.349	50.52
209.567	66.9
209.786	30.04
210.005	13.65
210.223	-15.02
210.442	-21.16
210.661	66.9
210.879	34.13
211.098	-49.83
211.316	-39.59
211.535	56.66
211.753	15.7
211.972	83.28
212.191	-15.02
212.409	-41.64
212.628	42.32
212.846	-29.35
213.065	9.56
213.283	46.42
213.502	-2.73
213.72	111.96
213.938	15.7
214.157	62.8
214.375	-19.11
214.594	58.71
214.812	75.09
215.031	38.23
215.249	15.7
215.467	-55.98
215.686	7.51
215.904	19.8
216.122	52.56
216.341	-39.59
216.559	-45.74
216.778	60.76
216.996	58.71
217.214	19.8
217.432	38.23
217.651	38.23
217.869	-2.73
218.087	34.13
218.306	-55.98
218.524	-10.92
218.742	25.94
218.96	-0.68
219.179	105.81
219.397	-4.78
219.615	58.71
219.833	-25.26
220.051	25.94
220.27	42.32
220.488	50.52
220.706	32.08
220.924	-6.83
221.142	-10.92
221.36	-33.45
221.578	52.56
221.796	56.66
222.015	-12.97
222.233	62.8
222.451	19.8
222.669	32.08
222.887	19.8
223.105	-49.83
223.323	-12.97
223.541	9.56
223.759	21.85
223.977	62.8
224.195	81.24
224.413	5.46
224.631	9.56
224.849	-2.73
225.067	27.99
225.285	-4.78
225.503	60.76
225.721	50.52
225.939	-45.74
226.157	42.32
226.375	101.72
226.592	-0.68
226.81	-10.92
227.028	5.46
227.246	36.18
227.464	66.9
227.682	36.18
227.9	48.47
228.117	-17.07
228.335	30.04
228.553	-23.21
228.771	30.04
228.989	25.94
229.206	-4.78
229.424	-23.21
229.642	-12.97
229.86	13.65
230.077	32.08
230.295	1.37
230.513	17.75
230.731	46.42
230.948	68.95
231.166	34.13
231.384	68.95
231.601	17.75
231.819	42.32
232.037	60.76
232.254	15.7
232.472	-8.87
232.689	99.67
232.907	27.99
233.125	75.09
233.342	-2.73
233.56	-0.68
233.777	34.13
233.995	-4.78
234.213	58.71
234.43	-0.68
234.648	36.18
234.865	-23.21
235.083	66.9
235.3	-37.55
235.518	62.8
235.735	21.85
235.953	27.99
236.17	30.04
236.388	107.86
236.605	-2.73
236.822	50.52
237.04	81.24
237.257	-43.69
237.475	9.56
237.692	-6.83
237.909	17.75
238.127	-23.21
238.344	21.85
238.562	-21.16
238.779	50.52
238.996	-15.02
239.214	71
239.431	27.99
239.648	-6.83
239.865	-10.92
240.083	-8.87
240.3	25.94
240.517	23.89
240.735	36.18
240.952	17.75
241.169	-21.16
241.386	-23.21
241.603	58.71
241.821	36.18
242.038	-10.92
242.255	62.8
242.472	25.94
242.689	15.7
242.907	58.71
243.124	-12.97
243.341	34.13
243.558	-6.83
243.775	17.75
243.992	-47.79
244.209	-72.36
244.426	-33.45
244.643	50.52
244.86	3.41
245.078	79.19
245.295	13.65
245.512	75.09
245.729	1.37
245.946	58.71
246.163	103.76
246.38	38.23
246.597	42.32
246.814	9.56
247.031	-6.83
247.248	17.75
247.464	66.9
247.681	11.61
247.898	48.47
248.115	34.13
248.332	40.28
248.549	-12.97
248.766	93.52
248.983	15.7
249.2	50.52
249.417	-35.5
249.633	25.94
249.85	-0.68
250.067	52.56
250.284	-21.16
250.501	52.56
250.717	36.18
250.934	-31.4
251.151	83.28
251.368	50.52
251.585	34.13
251.801	9.56
252.018	-21.16
252.235	19.8
252.451	-4.78
252.668	-39.59
252.885	66.9
253.102	-2.73
253.318	30.04
253.535	-19.11
253.752	-10.92
253.968	-21.16
254.185	5.46
254.401	21.85
254.618	-10.92
254.835	95.57
255.051	-6.83
255.268	68.95
255.484	75.09
255.701	9.56
255.917	75.09
256.134	9.56
256.351	-37.55
256.567	7.51
256.784	40.28
257	-45.74
257.217	34.13
257.433	-23.21
257.65	79.19
257.866	30.04
258.082	-0.68
258.299	-33.45
258.515	40.28
258.732	11.61
258.948	-8.87
259.165	116.05
259.381	44.37
259.597	3.41
259.814	56.66
260.03	1.37
260.246	34.13
260.463	46.42
260.679	68.95
260.895	-6.83
261.112	66.9
261.328	36.18
261.544	23.89
261.761	36.18
261.977	19.8
262.193	9.56
262.409	5.46
262.626	42.32
262.842	-0.68
263.058	-8.87
263.274	71
263.49	42.32
263.707	89.43
263.923	-2.73
264.139	27.99
264.355	13.65
264.571	13.65
264.787	66.9
265.004	97.62
265.22	34.13
265.436	44.37
265.652	30.04
265.868	9.56
266.084	-29.35
266.3	5.46
266.516	27.99
266.732	9.56
266.948	1.37
267.164	-17.07
267.38	60.76
267.596	19.8
267.812	17.75
268.028	40.28
268.244	-72.36
268.46	-21.16
268.676	34.13
268.892	-0.68
269.108	30.04
269.324	5.46
269.54	38.23
269.756	71
269.972	-29.35
270.188	5.46
270.403	-6.83
270.619	66.9
270.835	-21.16
271.051	58.71
271.267	60.76
271.483	21.85
271.698	32.08
271.914	44.37
272.13	21.85
272.346	38.23
272.562	42.32
272.777	54.61
272.993	42.32
273.209	34.13
273.425	73.04
273.64	58.71
273.856	17.75
274.072	40.28
274.287	68.95
274.503	-4.78
274.719	40.28
274.934	17.75
275.15	50.52
275.366	-17.07
275.581	34.13
275.797	56.66
276.012	27.99
276.228	-10.92
276.444	23.89
276.659	58.71
276.875	11.61
277.09	3.41
277.306	-17.07
277.521	13.65
277.737	9.56
277.952	17.75
278.168	42.32
278.383	101.72
278.599	83.28
278.814	71
279.03	19.8
279.245	58.71
279.461	58.71
279.676	95.57
279.892	3.41
280.107	58.71
280.322	7.51
280.538	44.37
280.753	17.75
280.969	52.56
281.184	-19.11
281.399	68.95
281.615	9.56
281.83	46.42
282.045	-2.73
282.26	-17.07
282.476	27.99
282.691	17.75
282.906	27.99
283.122	-15.02
283.337	27.99
283.552	3.41
283.767	-2.73
283.983	25.94
284.198	-8.87
284.413	11.61
284.628	-45.74
284.843	-10.92
285.058	-51.88
285.274	-4.78
285.489	95.57
285.704	46.42
285.919	38.23
286.134	54.61
286.349	111.96
286.564	1.37
286.779	-19.11
286.995	60.76
287.21	-33.45
287.425	30.04
287.64	48.47
287.855	30.04
288.07	79.19
288.285	15.7
288.5	64.85
288.715	77.14
288.93	40.28
289.145	23.89
289.36	40.28
289.575	3.41
289.79	25.94
290.004	77.14
290.219	-10.92
290.434	38.23
290.649	64.85
290.864	30.04
291.079	40.28
291.294	-43.69
291.509	128.34
291.724	50.52
291.938	-60.07
292.153	36.18
292.368	-41.64
292.583	85.33
292.798	9.56
293.012	-39.59
293.227	-4.78
293.442	32.08
293.657	11.61
293.871	71
294.086	44.37
294.301	103.76
294.516	103.76
294.73	9.56
294.945	-4.78
295.16	11.61
295.374	85.33
295.589	5.46
295.804	75.09
296.018	13.65
296.233	42.32
296.447	21.85
296.662	46.42
296.877	93.52
297.091	21.85
297.306	9.56
297.52	-37.55
297.735	9.56
297.949	50.52
298.164	15.7
298.378	34.13
298.593	62.8
298.807	-17.07
299.022	38.23
299.236	-39.59
299.451	36.18
299.665	9.56
299.88	50.52
300.094	38.23
300.309	1.37
300.523	-6.83
300.737	11.61
300.952	19.8
301.166	-29.35
301.381	3.41
301.595	87.38
301.809	9.56
302.024	42.32
302.238	101.72
302.452	62.8
302.667	-25.26
302.881	75.09
303.095	103.76
303.309	73.04
303.524	-25.26
303.738	50.52
303.952	-23.21
304.166	19.8
304.381	9.56
304.595	132.44
304.809	7.51
305.023	44.37
305.237	15.7
305.452	-27.31
305.666	54.61
305.88	60.76
306.094	58.71
306.308	109.91
306.522	25.94
306.736	19.8
306.95	38.23
307.164	17.75
307.379	42.32
307.593	30.04
307.807	38.23
308.021	42.32
308.235	21.85
308.449	9.56
308.663	81.24
308.877	58.71
309.091	50.52
309.305	42.32
309.519	21.85
309.733	7.51
309.947	-72.36
310.161	21.85
310.374	85.33
310.588	101.72
310.802	34.13
311.016	19.8
311.23	5.46
311.444	-53.93
311.658	38.23
311.872	44.37
312.085	40.28
312.299	52.56
312.513	5.46
312.727	9.56
312.941	11.61
313.154	107.86
313.368	25.94
313.582	50.52
313.796	81.24
314.009	50.52
314.223	27.99
314.437	46.42
314.651	66.9
314.864	30.04
315.078	-15.02
315.292	38.23
315.505	19.8
315.719	91.48
315.933	38.23
316.146	48.47
316.36	1.37
316.573	116.05
316.787	34.13
317.001	25.94
317.214	38.23
317.428	25.94
317.641	13.65
317.855	54.61
318.068	46.42
318.282	62.8
318.495	15.7
318.709	17.75
318.922	73.04
319.136	42.32
319.349	19.8
319.563	46.42
319.776	21.85
319.99	71
320.203	11.61
320.417	13.65
320.63	103.76
320.843	-27.31
321.057	38.23
321.27	83.28
321.483	62.8
321.697	36.18
321.91	-4.78
322.124	7.51
322.337	97.62
322.55	9.56
322.763	-37.55
322.977	48.47
323.19	46.42
323.403	40.28
323.617	21.85
323.83	38.23
324.043	-68.27
324.256	73.04
324.469	-4.78
324.683	17.75
324.896	-25.26
325.109	-2.73
325.322	-15.02
325.535	81.24
325.748	75.09
325.962	42.32
326.175	27.99
326.388	-23.21
326.601	-64.17
326.814	3.41
327.027	36.18
327.24	118.1
327.453	23.89
327.666	38.23
327.879	-37.55
328.092	38.23
328.305	11.61
328.518	54.61
328.731	-21.16
328.944	-37.55
329.157	15.7
329.37	83.28
329.583	42.32
329.796	38.23
330.009	1.37
330.222	1.37
330.435	9.56
330.648	-15.02
330.861	-21.16
331.073	66.9
331.286	73.04
331.499	44.37
331.712	50.52
331.925	58.71
332.138	42.32
332.35	40.28
332.563	68.95
332.776	-2.73
332.989	-15.02
333.202	25.94
333.414	15.7
333.627	30.04
333.84	56.66
334.053	62.8
334.265	-21.16
334.478	50.52
334.691	50.52
334.903	34.13
335.116	42.32
335.329	38.23
335.541	44.37
335.754	11.61
335.966	11.61
336.179	-6.83
336.392	1.37
336.604	-0.68
336.817	3.41
337.029	25.94
337.242	62.8
337.454	19.8
337.667	15.7
337.88	-4.78
338.092	19.8
338.305	-6.83
338.517	87.38
338.729	52.56
338.942	50.52
339.154	-23.21
339.367	21.85
339.579	1.37
339.792	93.52
340.004	25.94
340.217	-10.92
340.429	68.95
340.641	75.09
340.854	19.8
341.066	56.66
341.278	27.99
341.491	73.04
341.703	89.43
341.915	48.47
342.128	27.99
342.34	9.56
342.552	19.8
342.764	19.8
342.977	71
343.189	75.09
343.401	83.28
343.613	25.94
343.826	118.1
344.038	-31.4
344.25	79.19
344.462	-53.93
344.674	93.52
344.886	3.41
345.099	36.18
345.311	44.37
345.523	-76.46
345.735	7.51
345.947	114
346.159	87.38
346.371	38.23
346.583	-47.79
346.795	111.96
347.007	32.08
347.219	19.8
347.431	93.52
347.643	7.51
347.855	21.85
348.067	27.99
348.279	15.7
348.491	23.89
348.703	32.08
348.915	11.61
349.127	-15.02
349.339	157.01
349.551	27.99
349.763	5.46
349.975	11.61
350.187	27.99
350.399	54.61
350.61	3.41
350.822	109.91
351.034	62.8
351.246	68.95
351.458	44.37
351.669	-17.07
351.881	17.75
352.093	11.61
352.305	44.37
352.517	19.8
352.728	77.14
352.94	1.37
353.152	1.37
353.363	11.61
353.575	44.37
353.787	1.37
353.999	19.8
354.21	13.65
354.422	58.71
354.633	-80.55
354.845	-25.26
355.057	-23.21
355.268	52.56
355.48	-19.11
355.692	107.86
355.903	19.8
356.115	5.46
356.326	40.28
356.538	32.08
356.749	75.09
356.961	48.47
357.172	64.85
357.384	19.8
357.595	58.71
357.807	9.56
358.018	9.56
358.23	77.14
358.441	11.61
358.653	97.62
358.864	81.24
359.075	68.95
359.287	60.76
359.498	91.48
359.709	32.08
359.921	81.24
360.132	54.61
360.344	15.7
360.555	9.56
360.766	68.95
360.977	-27.31
361.189	42.32
361.4	64.85
361.611	58.71
361.823	11.61
362.034	54.61
362.245	-31.4
362.456	9.56
362.667	68.95
362.879	-17.07
363.09	34.13
363.301	34.13
363.512	-2.73
363.723	66.9
363.935	-19.11
364.146	17.75
364.357	1.37
364.568	126.29
364.779	-23.21
364.99	85.33
365.201	107.86
365.412	79.19
365.623	3.41
365.834	50.52
366.045	-31.4
366.256	124.24
366.467	3.41
366.678	114
366.889	93.52
367.1	30.04
367.311	58.71
367.522	40.28
367.733	-29.35
367.944	60.76
368.155	77.14
368.366	17.75
368.577	60.76
368.788	32.08
368.999	-15.02
369.209	-10.92
369.42	32.08
369.631	114
369.842	34.13
370.053	9.56
370.264	5.46
370.474	46.42
370.685	54.61
370.896	60.76
371.107	64.85
371.317	58.71
371.528	25.94
371.739	85.33
371.95	9.56
372.16	79.19
372.371	60.76
372.582	13.65
372.792	54.61
373.003	52.56
373.214	56.66
373.424	64.85
373.635	42.32
373.846	44.37
374.056	11.61
374.267	62.8
374.477	-45.74
374.688	85.33
374.898	34.13
375.109	42.32
375.319	73.04
375.53	87.38
375.74	89.43
375.951	81.24
376.161	42.32
376.372	66.9
376.582	75.09
376.793	-4.78
377.003	-0.68
377.214	87.38
377.424	-31.4
377.635	-10.92
377.845	75.09
378.055	73.04
378.266	19.8
378.476	50.52
378.686	17.75
378.897	50.52
379.107	1.37
379.317	42.32
379.528	54.61
379.738	36.18
379.948	-43.69
380.158	66.9
380.369	91.48
380.579	25.94
380.789	62.8
380.999	13.65
381.21	58.71
381.42	54.61
381.63	73.04
381.84	52.56
382.05	64.85
382.261	30.04
382.471	124.24
382.681	3.41
382.891	64.85
383.101	75.09
383.311	40.28
383.521	-43.69
383.731	60.76
383.941	146.77
384.151	42.32
384.361	15.7
384.571	111.96
384.781	-19.11
384.991	13.65
385.201	116.05
385.411	44.37
385.621	75.09
385.831	27.99
386.041	73.04
386.251	79.19
386.461	62.8
386.671	54.61
386.881	105.81
387.091	25.94
387.301	62.8
387.511	38.23
387.72	38.23
387.93	60.76
388.14	58.71
388.35	85.33
388.56	73.04
388.769	89.43
388.979	15.7
389.189	75.09
389.399	36.18
389.609	54.61
389.818	32.08
390.028	44.37
390.238	103.76
390.447	79.19
390.657	124.24
390.867	56.66
391.076	-39.59
391.286	83.28
391.496	60.76
391.705	7.51
391.915	87.38
392.125	79.19
392.334	56.66
392.544	87.38
392.753	105.81
392.963	109.91
393.172	114
393.382	79.19
393.591	107.86
393.801	32.08
394.01	38.23
394.22	91.48
394.429	54.61
394.639	-39.59
394.848	75.09
395.058	-39.59
395.267	64.85
395.477	81.24
395.686	73.04
395.895	79.19
396.105	71
396.314	9.56
396.524	77.14
396.733	124.24
396.942	66.9
397.152	19.8
397.361	148.82
397.57	95.57
397.78	52.56
397.989	60.76
398.198	142.68
398.407	87.38
398.617	60.76
398.826	109.91
399.035	101.72
399.244	44.37
399.453	93.52
399.663	134.48
399.872	126.29
400.081	27.99
400.29	140.63
400.499	99.67
400.708	148.82
400.917	64.85
401.127	130.39
401.336	107.86
401.545	132.44
401.754	83.28
401.963	85.33
402.172	99.67
402.381	42.32
402.59	103.76
402.799	103.76
403.008	122.2
403.217	87.38
403.426	132.44
403.635	101.72
403.844	99.67
404.053	103.76
404.262	103.76
404.471	181.59
404.68	150.87
404.888	132.44
405.097	124.24
405.306	175.44
405.515	187.73
405.724	247.12
405.933	146.77
406.142	163.15
406.35	183.63
406.559	169.3
406.768	189.78
406.977	202.07
407.185	146.77
407.394	183.63
407.603	128.34
407.812	193.87
408.02	142.68
408.229	220.5
408.438	189.78
408.646	150.87
408.855	200.02
409.064	261.46
409.272	230.74
409.481	267.6
409.69	200.02
409.898	202.07
410.107	275.79
410.315	306.51
410.524	240.98
410.733	339.28
410.941	261.46
411.15	335.18
411.358	326.99
411.567	370
411.775	386.38
411.984	288.08
412.192	310.61
412.401	451.92
412.609	404.82
412.818	388.43
413.026	423.25
413.234	460.11
413.443	462.16
413.651	486.73
413.86	501.07
414.068	566.6
414.276	562.51
414.485	554.32
414.693	582.99
414.901	585.04
415.11	658.76
415.318	603.47
415.526	591.18
415.734	732.49
415.943	709.96
416.151	707.91
416.359	685.39
416.567	775.5
416.776	814.41
416.984	869.7
417.192	912.71
417.4	777.55
417.608	898.38
417.817	900.42
418.025	1049.93
418.233	976.2
418.441	1004.87
418.649	1045.83
418.857	1064.26
419.065	1140.04
419.273	1062.21
419.481	1181
419.689	1246.53
419.897	1297.73
420.105	1332.55
420.313	1228.1
420.521	1369.41
420.729	1463.61
420.937	1455.42
421.145	1584.45
421.353	1697.08
421.561	1715.52
421.769	1641.79
421.977	1789.24
422.185	1658.17
422.393	1871.16
422.601	1981.75
422.809	1951.03
423.017	2041.14
423.224	2049.33
423.432	2110.77
423.64	2180.4
423.848	2352.43
424.056	2258.23
424.263	2563.37
424.471	2518.32
424.679	2448.69
424.887	2641.2
425.094	2749.74
425.302	2841.9
425.51	2794.79
425.718	2950.44
425.925	2862.38
426.133	3149.09
426.341	3198.24
426.548	3470.62
426.756	3448.1
426.964	3349.79
427.171	3767.58
427.379	3622.17
427.586	3788.06
427.794	3886.36
428.001	4011.29
428.209	4193.56
428.417	4152.6
428.624	4424.98
428.832	4488.46
429.039	4467.99
429.247	4429.07
429.454	4867.34
429.662	5131.53
429.869	4830.48
430.076	5229.83
430.284	5029.13
430.491	5188.87
430.699	5629.18
430.906	5518.59
431.114	5623.04
431.321	5938.43
431.528	5993.72
431.736	6135.03
431.943	6655.22
432.15	6507.76
432.358	6561.01
432.565	6827.25
432.772	6687.98
432.979	7433.44
433.187	7345.38
433.394	7290.09
433.601	7871.71
433.808	7824.61
434.016	7783.65
434.223	8041.69
434.43	8502.48
434.637	8592.59
434.844	9012.43
435.052	9131.21
435.259	8869.07
435.466	8934.6
435.673	9184.46
435.88	9731.26
436.087	10116.28
436.294	10157.24
436.501	10054.84
436.708	10142.91
436.915	10329.27
437.122	10986.67
437.329	10710.19
437.537	11334.82
437.743	11330.73
437.95	11242.67
438.157	11900.06
438.364	12428.44
438.571	12405.91
438.778	12498.07
438.985	13522.06
439.192	12788.88
439.399	13634.69
439.606	13073.55
439.813	13841.54
440.02	14832.75
440.227	14351.48
440.433	14244.99
440.64	14787.7
440.847	14703.73
441.054	15109.23
441.261	15920.23
441.467	15760.48
441.674	16034.91
441.881	16628.82
442.088	16475.23
442.294	16675.93
442.501	17171.54
442.708	17265.74
442.914	17837.13
443.121	18850.87
443.328	18179.14
443.534	19291.18
443.741	19301.42
443.948	18527.29
444.154	19942.44
444.361	20067.36
444.568	19967.01
444.774	19878.95
444.981	20210.72
445.187	20943.89
445.394	21734.41
445.6	21683.21
445.807	23452.66
446.013	22217.73
446.22	22789.11
446.426	23948.26
446.633	23778.28
446.839	24787.93
447.046	23978.98
447.252	25005.02
447.459	25226.2
447.665	25017.3
447.871	25848.78
448.078	26948.54
448.284	25922.51
448.491	26325.96
448.697	27593.65
448.903	28275.62
449.11	28343.2
449.316	27847.6
449.522	28249
449.728	29158.3
449.935	29434.77
450.141	29246.36
450.347	29746.06
450.553	28910.49
450.76	29070.23
450.966	30133.13
451.172	29793.17
451.378	30610.31
451.584	29850.51
451.791	30581.63
451.997	30638.98
452.203	30802.82
452.409	31148.92
452.615	30675.84
452.821	29672.34
453.027	29414.29
453.233	31146.87
453.44	30030.73
453.646	30006.16
453.852	30129.03
454.058	30477.19
454.264	29547.41
454.47	30692.22
454.676	29440.92
454.882	30501.76
455.088	27704.24
455.294	28380.07
455.5	28492.71
455.705	28914.59
455.911	27548.59
456.117	27044.79
456.323	26776.51
456.529	25430.99
456.735	26840
456.941	25963.47
457.147	25551.82
457.352	24611.81
457.558	24245.22
457.764	24427.49
457.97	23755.75
458.176	23634.92
458.381	23073.78
458.587	22369.28
458.793	22049.8
458.999	21232.66
459.204	23028.73
459.41	21965.83
459.616	20380.7
459.821	20558.88
460.027	20532.25
460.233	20124.71
460.438	19139.63
460.644	19256.37
460.85	18347.07
461.055	18132.03
461.261	18193.47
461.466	16813.14
461.672	16360.54
461.878	17628.23
462.083	16335.96
462.289	15848.55
462.494	15666.28
462.7	15279.21
462.905	14943.35
463.111	15334.51
463.316	15481.96
463.522	14959.73
463.727	15142
463.932	15076.46
464.138	14812.28
464.343	14697.59
464.549	14484.6
464.754	15082.61
464.959	14924.91
465.165	14693.49
465.37	14068.86
465.575	13726.85
465.781	14419.07
465.986	14414.97
466.191	13763.72
466.397	13411.46
466.602	12848.27
466.807	13563.01
467.012	13331.59
467.218	13436.04
467.423	13087.89
467.628	13487.24
467.833	14005.38
468.038	13196.43
468.244	12856.47
468.449	13440.14
468.654	12870.8
