Data from USB4F104151__209__13-59-56-805.txt Node

Date: Thu Mar 13 13:59:56 EDT 2025
User: louis
Spectrometer: USB4F10415
Trigger mode: 4
Integration Time (sec): 1.000000E-2
Scans to average: 1
Electric dark correction enabled: true
Nonlinearity correction enabled: false
Boxcar width: 0
XAxis mode: Wavelengths
Number of Pixels in Spectrum: 3648
>>>>>Begin Spectral Data<<<<<
178.204	-10.07
178.424	-10.07
178.644	-10.07
178.864	32.94
179.084	-59.22
179.304	-36.69
179.524	-10.07
179.744	-79.7
179.964	45.23
180.184	20.65
180.404	20.65
180.624	47.27
180.844	-5.97
181.064	14.51
181.283	-61.27
181.503	37.03
181.723	8.36
181.943	18.6
182.163	12.46
182.383	45.23
182.602	24.75
182.822	18.6
183.042	108.71
183.262	32.94
183.482	47.27
183.701	8.36
183.921	32.94
184.141	-10.07
184.361	77.99
184.58	20.65
184.8	133.29
185.02	0.17
185.239	28.84
185.459	34.99
185.679	51.37
185.898	-10.07
186.118	6.31
186.338	32.94
186.557	110.76
186.777	20.65
186.997	16.55
187.216	34.99
187.436	86.19
187.655	20.65
187.875	84.14
188.095	12.46
188.314	71.85
188.534	100.52
188.753	-1.88
188.973	-8.02
189.192	32.94
189.412	-8.02
189.631	57.51
189.851	26.79
190.07	51.37
190.29	75.95
190.509	63.66
190.729	47.27
190.948	47.27
191.168	-16.21
191.387	16.55
191.607	92.33
191.826	37.03
192.045	-1.88
192.265	4.27
192.484	4.27
192.704	24.75
192.923	10.41
193.142	102.57
193.362	39.08
193.581	-5.97
193.8	57.51
194.02	88.23
194.239	22.7
194.458	30.89
194.678	4.27
194.897	88.23
195.116	47.27
195.335	63.66
195.555	28.84
195.774	6.31
195.993	41.13
196.212	47.27
196.432	67.75
196.651	125.1
196.87	34.99
197.089	129.19
197.308	22.7
197.528	127.14
197.747	-3.93
197.966	22.7
198.185	8.36
198.404	80.04
198.623	39.08
198.842	18.6
199.062	0.17
199.281	49.32
199.5	73.9
199.719	49.32
199.938	39.08
200.157	57.51
200.376	4.27
200.595	80.04
200.814	69.8
201.033	92.33
201.252	22.7
201.471	22.7
201.69	92.33
201.909	6.31
202.128	45.23
202.347	59.56
202.566	53.42
202.785	32.94
203.004	51.37
203.223	34.99
203.442	10.41
203.661	39.08
203.879	51.37
204.098	-32.6
204.317	18.6
204.536	75.95
204.755	43.18
204.974	-65.36
205.193	16.55
205.411	41.13
205.63	67.75
205.849	94.38
206.068	45.23
206.287	98.47
206.505	67.75
206.724	16.55
206.943	18.6
207.162	16.55
207.381	-18.26
207.599	32.94
207.818	16.55
208.037	53.42
208.255	61.61
208.474	24.75
208.693	12.46
208.911	47.27
209.13	0.17
209.349	63.66
209.567	49.32
209.786	53.42
210.005	71.85
210.223	16.55
210.442	59.56
210.661	16.55
210.879	8.36
211.098	71.85
211.316	77.99
211.535	12.46
211.753	28.84
211.972	43.18
212.191	45.23
212.409	61.61
212.628	67.75
212.846	-30.55
213.065	96.43
213.283	-14.17
213.502	26.79
213.72	55.47
213.938	6.31
214.157	0.17
214.375	49.32
214.594	110.76
214.812	67.75
215.031	61.61
215.249	34.99
215.467	-12.12
215.686	-10.07
215.904	49.32
216.122	26.79
216.341	77.99
216.559	69.8
216.778	82.09
216.996	28.84
217.214	2.22
217.432	43.18
217.651	24.75
217.869	47.27
218.087	75.95
218.306	92.33
218.524	82.09
218.742	82.09
218.96	98.47
219.179	55.47
219.397	39.08
219.615	94.38
219.833	61.61
220.051	16.55
220.27	32.94
220.488	100.52
220.706	-46.93
220.924	-22.36
221.142	65.71
221.36	37.03
221.578	73.9
221.796	-5.97
222.015	43.18
222.233	41.13
222.451	149.67
222.669	16.55
222.887	61.61
223.105	-12.12
223.323	88.23
223.541	-18.26
223.759	77.99
223.977	55.47
224.195	24.75
224.413	47.27
224.631	10.41
224.849	41.13
225.067	71.85
225.285	37.03
225.503	49.32
225.721	94.38
225.939	63.66
226.157	16.55
226.375	43.18
226.592	-10.07
226.81	43.18
227.028	43.18
227.246	41.13
227.464	34.99
227.682	10.41
227.9	77.99
228.117	26.79
228.335	2.22
228.553	30.89
228.771	-42.84
228.989	75.95
229.206	51.37
229.424	26.79
229.642	53.42
229.86	98.47
230.077	67.75
230.295	22.7
230.513	63.66
230.731	104.62
230.948	90.28
231.166	26.79
231.384	20.65
231.601	51.37
231.819	24.75
232.037	10.41
232.254	26.79
232.472	71.85
232.689	-59.22
232.907	59.56
233.125	82.09
233.342	63.66
233.56	73.9
233.777	24.75
233.995	69.8
234.213	14.51
234.43	6.31
234.648	34.99
234.865	-14.17
235.083	65.71
235.3	22.7
235.518	10.41
235.735	-1.88
235.953	59.56
236.17	41.13
236.388	34.99
236.605	34.99
236.822	57.51
237.04	45.23
237.257	-18.26
237.475	65.71
237.692	61.61
237.909	18.6
238.127	67.75
238.344	6.31
238.562	4.27
238.779	63.66
238.996	47.27
239.214	-16.21
239.431	71.85
239.648	18.6
239.865	2.22
240.083	39.08
240.3	61.61
240.517	-18.26
240.735	71.85
240.952	104.62
241.169	30.89
241.386	86.19
241.603	39.08
241.821	88.23
242.038	71.85
242.255	65.71
242.472	39.08
242.689	22.7
242.907	75.95
243.124	18.6
243.341	18.6
243.558	63.66
243.775	41.13
243.992	55.47
244.209	39.08
244.426	73.9
244.643	28.84
244.86	12.46
245.078	65.71
245.295	49.32
245.512	37.03
245.729	4.27
245.946	90.28
246.163	41.13
246.38	98.47
246.597	39.08
246.814	24.75
247.031	75.95
247.248	67.75
247.464	59.56
247.681	32.94
247.898	47.27
248.115	61.61
248.332	139.43
248.549	77.99
248.766	80.04
248.983	41.13
249.2	51.37
249.417	49.32
249.633	55.47
249.85	63.66
250.067	67.75
250.284	30.89
250.501	59.56
250.717	45.23
250.934	10.41
251.151	82.09
251.368	34.99
251.585	90.28
251.801	86.19
252.018	73.9
252.235	106.67
252.451	49.32
252.668	53.42
252.885	2.22
253.102	77.99
253.318	63.66
253.535	28.84
253.752	67.75
253.968	34.99
254.185	-34.64
254.401	63.66
254.618	84.14
254.835	-8.02
255.051	6.31
255.268	77.99
255.484	51.37
255.701	8.36
255.917	88.23
256.134	41.13
256.351	57.51
256.567	37.03
256.784	20.65
257	59.56
257.217	98.47
257.433	2.22
257.65	84.14
257.866	106.67
258.082	55.47
258.299	41.13
258.515	-18.26
258.732	80.04
258.948	106.67
259.165	-18.26
259.381	82.09
259.597	16.55
259.814	34.99
260.03	22.7
260.246	53.42
260.463	96.43
260.679	41.13
260.895	32.94
261.112	106.67
261.328	55.47
261.544	39.08
261.761	16.55
261.977	55.47
262.193	41.13
262.409	75.95
262.626	14.51
262.842	59.56
263.058	-3.93
263.274	51.37
263.49	14.51
263.707	71.85
263.923	14.51
264.139	61.61
264.355	80.04
264.571	63.66
264.787	63.66
265.004	39.08
265.22	49.32
265.436	49.32
265.652	-38.74
265.868	63.66
266.084	8.36
266.3	129.19
266.516	24.75
266.732	106.67
266.948	63.66
267.164	80.04
267.38	32.94
267.596	34.99
267.812	49.32
268.028	114.86
268.244	96.43
268.46	67.75
268.676	43.18
268.892	30.89
269.108	73.9
269.324	73.9
269.54	-42.84
269.756	43.18
269.972	26.79
270.188	30.89
270.403	41.13
270.619	67.75
270.835	22.7
271.051	57.51
271.267	28.84
271.483	86.19
271.698	12.46
271.914	112.81
272.13	41.13
272.346	59.56
272.562	69.8
272.777	16.55
272.993	53.42
273.209	73.9
273.425	22.7
273.64	51.37
273.856	123.05
274.072	69.8
274.287	37.03
274.503	73.9
274.719	39.08
274.934	84.14
275.15	10.41
275.366	14.51
275.581	49.32
275.797	-1.88
276.012	-8.02
276.228	82.09
276.444	-12.12
276.659	28.84
276.875	41.13
277.09	73.9
277.306	65.71
277.521	65.71
277.737	-16.21
277.952	82.09
278.168	121
278.383	86.19
278.599	129.19
278.814	57.51
279.03	39.08
279.245	110.76
279.461	51.37
279.676	90.28
279.892	14.51
280.107	47.27
280.322	55.47
280.538	80.04
280.753	37.03
280.969	121
281.184	80.04
281.399	65.71
281.615	59.56
281.83	49.32
282.045	2.22
282.26	22.7
282.476	94.38
282.691	6.31
282.906	22.7
283.122	73.9
283.337	61.61
283.552	96.43
283.767	24.75
283.983	67.75
284.198	6.31
284.413	88.23
284.628	77.99
284.843	2.22
285.058	0.17
285.274	-36.69
285.489	18.6
285.704	32.94
285.919	49.32
286.134	82.09
286.349	82.09
286.564	77.99
286.779	77.99
286.995	53.42
287.21	18.6
287.425	-1.88
287.64	-1.88
287.855	14.51
288.07	-22.36
288.285	47.27
288.5	59.56
288.715	18.6
288.93	73.9
289.145	145.58
289.36	114.86
289.575	73.9
289.79	6.31
290.004	73.9
290.219	49.32
290.434	77.99
290.649	-1.88
290.864	73.9
291.079	51.37
291.294	98.47
291.509	6.31
291.724	127.14
291.938	63.66
292.153	77.99
292.368	69.8
292.583	110.76
292.798	67.75
293.012	100.52
293.227	75.95
293.442	73.9
293.657	37.03
293.871	18.6
294.086	49.32
294.301	88.23
294.516	71.85
294.73	67.75
294.945	22.7
295.16	108.71
295.374	24.75
295.589	53.42
295.804	63.66
296.018	37.03
296.233	-30.55
296.447	88.23
296.662	80.04
296.877	80.04
297.091	18.6
297.306	8.36
297.52	41.13
297.735	90.28
297.949	34.99
298.164	92.33
298.378	12.46
298.593	65.71
298.807	14.51
299.022	18.6
299.236	30.89
299.451	8.36
299.665	57.51
299.88	98.47
300.094	106.67
300.309	110.76
300.523	55.47
300.737	59.56
300.952	84.14
301.166	55.47
301.381	57.51
301.595	26.79
301.809	-5.97
302.024	41.13
302.238	-51.03
302.452	49.32
302.667	47.27
302.881	57.51
303.095	77.99
303.309	73.9
303.524	-32.6
303.738	30.89
303.952	43.18
304.166	0.17
304.381	6.31
304.595	137.38
304.809	73.9
305.023	0.17
305.237	34.99
305.452	123.05
305.666	39.08
305.88	47.27
306.094	75.95
306.308	53.42
306.522	16.55
306.736	104.62
306.95	53.42
307.164	92.33
307.379	53.42
307.593	127.14
307.807	53.42
308.021	65.71
308.235	26.79
308.449	12.46
308.663	63.66
308.877	127.14
309.091	39.08
309.305	90.28
309.519	26.79
309.733	131.24
309.947	-26.45
310.161	45.23
310.374	59.56
310.588	98.47
310.802	30.89
311.016	53.42
311.23	110.76
311.444	80.04
311.658	118.95
311.872	63.66
312.085	37.03
312.299	61.61
312.513	82.09
312.727	82.09
312.941	129.19
313.154	65.71
313.368	55.47
313.582	82.09
313.796	-89.94
314.009	88.23
314.223	145.58
314.437	43.18
314.651	47.27
314.864	88.23
315.078	121
315.292	94.38
315.505	39.08
315.719	141.48
315.933	57.51
316.146	22.7
316.36	75.95
316.573	49.32
316.787	53.42
317.001	108.71
317.214	22.7
317.428	77.99
317.641	55.47
317.855	24.75
318.068	57.51
318.282	-5.97
318.495	10.41
318.709	16.55
318.922	12.46
319.136	106.67
319.349	82.09
319.563	28.84
319.776	96.43
319.99	65.71
320.203	84.14
320.417	92.33
320.63	43.18
320.843	63.66
321.057	106.67
321.27	47.27
321.483	51.37
321.697	32.94
321.91	139.43
322.124	80.04
322.337	104.62
322.55	8.36
322.763	30.89
322.977	10.41
323.19	84.14
323.403	73.9
323.617	39.08
323.83	57.51
324.043	55.47
324.256	86.19
324.469	45.23
324.683	71.85
324.896	30.89
325.109	59.56
325.322	55.47
325.535	100.52
325.748	26.79
325.962	104.62
326.175	118.95
326.388	84.14
326.601	53.42
326.814	71.85
327.027	26.79
327.24	65.71
327.453	63.66
327.666	75.95
327.879	108.71
328.092	43.18
328.305	28.84
328.518	0.17
328.731	2.22
328.944	14.51
329.157	137.38
329.37	53.42
329.583	145.58
329.796	82.09
330.009	65.71
330.222	26.79
330.435	80.04
330.648	67.75
330.861	63.66
331.073	88.23
331.286	139.43
331.499	104.62
331.712	63.66
331.925	14.51
332.138	14.51
332.35	26.79
332.563	77.99
332.776	104.62
332.989	108.71
333.202	-1.88
333.414	32.94
333.627	51.37
333.84	69.8
334.053	67.75
334.265	63.66
334.478	71.85
334.691	100.52
334.903	86.19
335.116	69.8
335.329	67.75
335.541	110.76
335.754	69.8
335.966	88.23
336.179	73.9
336.392	82.09
336.604	34.99
336.817	47.27
337.029	82.09
337.242	30.89
337.454	18.6
337.667	39.08
337.88	84.14
338.092	110.76
338.305	75.95
338.517	34.99
338.729	63.66
338.942	43.18
339.154	41.13
339.367	-8.02
339.579	26.79
339.792	10.41
340.004	121
340.217	71.85
340.429	63.66
340.641	34.99
340.854	82.09
341.066	-20.31
341.278	30.89
341.491	61.61
341.703	112.81
341.915	16.55
342.128	90.28
342.34	34.99
342.552	82.09
342.764	90.28
342.977	116.9
343.189	69.8
343.401	110.76
343.613	51.37
343.826	49.32
344.038	57.51
344.25	108.71
344.462	71.85
344.674	149.67
344.886	59.56
345.099	41.13
345.311	24.75
345.523	96.43
345.735	55.47
345.947	121
346.159	82.09
346.371	41.13
346.583	82.09
346.795	86.19
347.007	49.32
347.219	92.33
347.431	-26.45
347.643	149.67
347.855	14.51
348.067	96.43
348.279	49.32
348.491	88.23
348.703	26.79
348.915	75.95
349.127	80.04
349.339	102.57
349.551	20.65
349.763	106.67
349.975	110.76
350.187	55.47
350.399	116.9
350.61	45.23
350.822	69.8
351.034	92.33
351.246	26.79
351.458	108.71
351.669	61.61
351.881	43.18
352.093	106.67
352.305	41.13
352.517	65.71
352.728	82.09
352.94	41.13
353.152	84.14
353.363	57.51
353.575	59.56
353.787	143.53
353.999	82.09
354.21	96.43
354.422	71.85
354.633	28.84
354.845	135.34
355.057	96.43
355.268	65.71
355.48	57.51
355.692	80.04
355.903	86.19
356.115	133.29
356.326	28.84
356.538	71.85
356.749	71.85
356.961	77.99
357.172	65.71
357.384	88.23
357.595	159.91
357.807	102.57
358.018	106.67
358.23	125.1
358.441	47.27
358.653	61.61
358.864	88.23
359.075	77.99
359.287	67.75
359.498	106.67
359.709	100.52
359.921	43.18
360.132	104.62
360.344	82.09
360.555	22.7
360.766	77.99
360.977	53.42
361.189	71.85
361.4	141.48
361.611	77.99
361.823	116.9
362.034	28.84
362.245	86.19
362.456	57.51
362.667	43.18
362.879	88.23
363.09	57.51
363.301	121
363.512	96.43
363.723	55.47
363.935	30.89
364.146	71.85
364.357	77.99
364.568	57.51
364.779	63.66
364.99	75.95
365.201	43.18
365.412	63.66
365.623	90.28
365.834	88.23
366.045	49.32
366.256	121
366.467	100.52
366.678	75.95
366.889	39.08
367.1	88.23
367.311	55.47
367.522	-48.98
367.733	104.62
367.944	39.08
368.155	96.43
368.366	63.66
368.577	123.05
368.788	32.94
368.999	141.48
369.209	61.61
369.42	92.33
369.631	108.71
369.842	100.52
370.053	73.9
370.264	112.81
370.474	121
370.685	59.56
370.896	129.19
371.107	67.75
371.317	86.19
371.528	34.99
371.739	77.99
371.95	86.19
372.16	61.61
372.371	-32.6
372.582	63.66
372.792	12.46
373.003	116.9
373.214	110.76
373.424	96.43
373.635	116.9
373.846	57.51
374.056	22.7
374.267	57.51
374.477	47.27
374.688	145.58
374.898	30.89
375.109	63.66
375.319	161.96
375.53	98.47
375.74	102.57
375.951	71.85
376.161	32.94
376.372	96.43
376.582	-10.07
376.793	88.23
377.003	106.67
377.214	49.32
377.424	47.27
377.635	96.43
377.845	94.38
378.055	137.38
378.266	-26.45
378.476	39.08
378.686	57.51
378.897	88.23
379.107	127.14
379.317	133.29
379.528	63.66
379.738	43.18
379.948	8.36
380.158	69.8
380.369	53.42
380.579	123.05
380.789	102.57
380.999	164.01
381.21	14.51
381.42	63.66
381.63	63.66
381.84	100.52
382.05	53.42
382.261	73.9
382.471	114.86
382.681	55.47
382.891	123.05
383.101	100.52
383.311	94.38
383.521	63.66
383.731	59.56
383.941	41.13
384.151	155.82
384.361	18.6
384.571	102.57
384.781	80.04
384.991	96.43
385.201	63.66
385.411	94.38
385.621	229.54
385.831	108.71
386.041	164.01
386.251	155.82
386.461	55.47
386.671	133.29
386.881	147.62
387.091	47.27
387.301	100.52
387.511	123.05
387.72	112.81
387.93	102.57
388.14	49.32
388.35	49.32
388.56	108.71
388.769	110.76
388.979	100.52
389.189	53.42
389.399	149.67
389.609	102.57
389.818	96.43
390.028	47.27
390.238	125.1
390.447	131.24
390.657	73.9
390.867	59.56
391.076	88.23
391.286	106.67
391.496	131.24
391.705	104.62
391.915	137.38
392.125	176.3
392.334	69.8
392.544	108.71
392.753	110.76
392.963	69.8
393.172	88.23
393.382	157.86
393.591	108.71
393.801	55.47
394.01	110.76
394.22	153.77
394.429	182.44
394.639	82.09
394.848	133.29
395.058	112.81
395.267	82.09
395.477	94.38
395.686	149.67
395.895	202.92
396.105	172.2
396.314	80.04
396.524	164.01
396.733	157.86
396.942	123.05
397.152	127.14
397.361	123.05
397.57	118.95
397.78	188.58
397.989	176.3
398.198	145.58
398.407	139.43
398.617	174.25
398.826	153.77
399.035	53.42
399.244	133.29
399.453	221.35
399.663	200.87
399.872	207.02
400.081	123.05
400.29	106.67
400.499	82.09
400.708	137.38
400.917	217.26
401.127	198.82
401.336	180.39
401.545	250.02
401.754	129.19
401.963	237.74
402.172	159.91
402.381	153.77
402.59	172.2
402.799	227.5
403.008	141.48
403.217	225.45
403.426	225.45
403.635	153.77
403.844	147.62
404.053	161.96
404.262	196.78
404.471	207.02
404.68	219.3
404.888	235.69
405.097	166.06
405.306	219.3
405.515	213.16
405.724	260.26
405.933	221.35
406.142	217.26
406.35	202.92
406.559	272.55
406.768	229.54
406.977	327.85
407.185	270.5
407.394	278.69
407.603	219.3
407.812	286.89
408.02	241.83
408.229	270.5
408.438	278.69
408.646	383.14
408.855	368.81
409.064	340.13
409.272	379.04
409.481	333.99
409.69	301.22
409.898	422.05
410.107	372.9
410.315	415.91
410.524	446.63
410.733	467.11
410.941	391.33
411.15	395.43
411.358	434.34
411.567	512.16
411.775	520.35
411.984	489.64
412.192	534.69
412.401	522.4
412.609	561.31
412.818	575.65
413.026	647.33
413.234	673.95
413.443	614.56
413.651	671.9
413.86	678.05
414.068	710.82
414.276	764.06
414.485	753.82
414.693	848.03
414.901	954.52
415.11	870.56
415.318	899.23
415.526	987.29
415.734	1024.16
415.943	891.04
416.151	1079.45
416.359	1013.92
416.567	1171.61
416.776	1083.55
416.984	1224.86
417.192	1226.9
417.4	1214.62
417.608	1235.1
417.817	1357.97
418.025	1278.1
418.233	1437.84
418.441	1484.95
418.649	1499.28
418.857	1562.77
419.065	1636.5
419.273	1691.79
419.481	1704.08
419.689	1747.09
419.897	1829.01
420.105	1843.34
420.313	2011.28
420.521	2019.47
420.729	1951.88
420.937	2136.2
421.145	2203.79
421.353	2281.61
421.561	2363.53
421.769	2400.39
421.977	2603.14
422.185	2494.6
422.393	2728.07
422.601	2846.85
422.809	2889.85
423.017	2799.74
423.224	2992.25
423.432	2998.4
423.64	3111.04
423.848	3465.33
424.056	3217.53
424.263	3412.09
424.471	3604.6
424.679	3612.79
424.887	3799.15
425.094	3938.41
425.302	3983.47
425.51	3960.94
425.718	4360.3
425.925	4204.65
426.133	4397.16
426.341	4517.99
426.548	4888.67
426.756	4730.98
426.964	4784.23
427.171	5171.29
427.379	5470.3
427.586	5490.77
427.794	5572.69
428.001	5965.9
428.209	5881.94
428.417	5912.66
428.624	6514.76
428.832	6309.96
429.039	6428.74
429.247	6406.22
429.454	6940.74
429.662	7335.99
429.869	6924.35
430.076	7553.08
430.284	7327.8
430.491	7696.44
430.699	7804.98
430.906	8013.87
431.114	8140.85
431.321	8390.7
431.528	8581.16
431.736	9080.86
431.943	9328.67
432.15	9044
432.358	9234.46
432.565	9846.8
432.772	9887.76
432.979	10117.14
433.187	10625.03
433.394	10352.65
433.601	11063.3
433.808	11399.16
434.016	11126.78
434.223	11640.83
434.43	12251.12
434.637	12060.66
434.844	12951.53
435.052	12994.53
435.259	13031.4
435.466	13170.66
435.673	12898.28
435.88	13832.15
436.087	14395.34
436.294	14438.35
436.501	14381.01
436.708	14569.42
436.915	14856.14
437.122	15726.52
437.329	15341.5
437.537	16160.69
437.743	16598.96
437.95	16256.95
438.157	17059.75
438.364	17522.59
438.571	17541.02
438.778	17760.16
438.985	19595.14
439.192	18358.16
439.399	19314.56
439.606	18827.15
439.813	19773.31
440.02	20864.88
440.227	20545.39
440.433	20615.02
440.64	21305.19
440.847	20946.8
441.054	21538.66
441.261	22638.42
441.467	22407
441.674	23465.8
441.881	23832.38
442.088	23928.64
442.294	23641.92
442.501	24078.14
442.708	24653.62
442.914	25886.5
443.121	26840.85
443.328	26019.61
443.534	27825.92
443.741	26941.2
443.948	26539.8
444.154	28530.42
444.361	28532.47
444.568	28794.61
444.774	28645.11
444.981	28847.86
445.187	29841.12
445.394	30987.99
445.6	30928.59
445.807	33285.81
446.013	32075.46
446.22	32906.93
446.426	34039.46
446.633	34324.13
446.839	35296.91
447.046	33799.85
447.252	35794.57
447.459	35681.93
447.665	35927.69
447.871	36908.66
448.078	38692.44
448.284	37090.93
448.491	38086.25
448.697	39255.64
448.903	39972.42
449.11	40552
449.316	39726.67
449.522	40433.22
449.728	41373.24
449.935	41592.37
450.141	41547.31
450.347	42432.04
450.553	41203.25
450.76	41842.22
450.966	43165.21
451.172	42081.83
451.378	43666.96
451.584	42712.61
451.791	43730.45
451.997	43789.84
452.203	44230.15
452.409	44008.97
452.615	43982.35
452.821	42206.76
453.027	42014.25
453.233	44236.3
453.44	42440.23
453.646	42649.12
453.852	43052.57
454.058	43804.17
454.264	42298.92
454.47	43298.33
454.676	42485.28
454.882	43744.78
455.088	39816.78
455.294	40640.06
455.5	41217.59
455.705	41604.66
455.911	39743.05
456.117	39472.72
456.323	38688.35
456.529	36775.55
456.735	38170.21
456.941	37379.7
457.147	36693.63
457.352	35708.55
457.558	35253.9
457.764	35362.45
457.97	34451.1
458.176	33908.39
458.381	33980.07
458.587	32186.05
458.793	32143.04
458.999	30688.98
459.204	32673.46
459.41	31921.86
459.616	29859.56
459.821	29920.99
460.027	29617.89
460.233	29214.44
460.438	28063.49
460.644	28018.43
460.85	26638.1
461.055	26320.67
461.261	26306.33
461.466	24555.32
461.672	23664.45
461.878	25128.75
462.083	23508.8
462.289	23410.5
462.494	22871.89
462.7	22282.07
462.905	21389.16
463.111	22177.62
463.316	22220.63
463.522	21897.05
463.727	21968.73
463.932	21938.01
464.138	21651.3
464.343	21770.08
464.549	21284.71
464.754	21841.76
464.959	21434.21
465.165	21608.29
465.37	20707.18
465.575	20203.38
465.781	20629.36
465.986	20973.42
466.191	20133.75
466.397	19861.37
466.602	18952.07
466.807	19390.34
467.012	19689.34
467.218	19361.67
