Data from USB4F104151__217__14-00-10-483.txt Node

Date: Thu Mar 13 14:00:10 EDT 2025
User: louis
Spectrometer: USB4F10415
Trigger mode: 4
Integration Time (sec): 1.000000E-2
Scans to average: 1
Electric dark correction enabled: true
Nonlinearity correction enabled: false
Boxcar width: 0
XAxis mode: Wavelengths
Number of Pixels in Spectrum: 3648
>>>>>Begin Spectral Data<<<<<
178.204	-79.36
178.424	-79.36
178.644	-79.36
178.864	-22.02
179.084	-17.92
179.304	31.23
179.524	-17.92
179.744	39.42
179.964	66.05
180.184	-99.84
180.404	6.66
180.624	8.7
180.844	-24.06
181.064	12.8
181.283	-7.68
181.503	14.85
181.723	-30.21
181.943	20.99
182.163	10.75
182.383	72.19
182.602	78.33
182.822	23.04
183.042	47.62
183.262	33.28
183.482	33.28
183.701	-5.63
183.921	39.42
184.141	-9.73
184.361	68.09
184.58	70.14
184.8	47.62
185.02	6.66
185.239	92.67
185.459	-11.78
185.679	16.9
185.898	2.56
186.118	84.48
186.338	10.75
186.557	4.61
186.777	-11.78
186.997	-40.45
187.216	14.85
187.436	84.48
187.655	51.71
187.875	107.01
188.095	14.85
188.314	123.39
188.534	14.85
188.753	43.52
188.973	45.57
189.192	6.66
189.412	10.75
189.631	0.51
189.851	96.77
190.07	92.67
190.29	-42.5
190.509	76.29
190.729	53.76
190.948	-15.87
191.168	133.63
191.387	20.99
191.607	31.23
191.826	57.86
192.045	104.96
192.265	115.2
192.484	64
192.704	-9.73
192.923	66.05
193.142	-13.82
193.362	14.85
193.581	0.51
193.8	-1.54
194.02	20.99
194.239	10.75
194.458	-9.73
194.678	64
194.897	107.01
195.116	80.38
195.335	25.09
195.555	57.86
195.774	31.23
195.993	-30.21
196.212	0.51
196.432	0.51
196.651	31.23
196.87	92.67
197.089	39.42
197.308	25.09
197.528	-11.78
197.747	18.94
197.966	57.86
198.185	64
198.404	0.51
198.623	29.18
198.842	47.62
199.062	-89.6
199.281	72.19
199.5	90.62
199.719	55.81
199.938	37.38
200.157	25.09
200.376	64
200.595	88.57
200.814	61.95
201.033	45.57
201.252	37.38
201.471	51.71
201.69	78.33
201.909	64
202.128	-17.92
202.347	18.94
202.566	51.71
202.785	8.7
203.004	-17.92
203.223	23.04
203.442	20.99
203.661	31.23
203.879	47.62
204.098	37.38
204.317	78.33
204.536	16.9
204.755	64
204.974	76.29
205.193	23.04
205.411	80.38
205.63	41.47
205.849	100.86
206.068	-1.54
206.287	53.76
206.505	92.67
206.724	64
206.943	51.71
207.162	18.94
207.381	-19.97
207.599	47.62
207.818	23.04
208.037	29.18
208.255	72.19
208.474	70.14
208.693	12.8
208.911	72.19
209.13	4.61
209.349	23.04
209.567	27.14
209.786	-1.54
210.005	27.14
210.223	23.04
210.442	39.42
210.661	94.72
210.879	37.38
211.098	41.47
211.316	55.81
211.535	82.43
211.753	-3.58
211.972	33.28
212.191	59.9
212.409	20.99
212.628	49.66
212.846	37.38
213.065	14.85
213.283	76.29
213.502	23.04
213.72	35.33
213.938	27.14
214.157	61.95
214.375	51.71
214.594	59.9
214.812	8.7
215.031	66.05
215.249	4.61
215.467	96.77
215.686	-46.59
215.904	123.39
216.122	31.23
216.341	-1.54
216.559	51.71
216.778	61.95
216.996	-17.92
217.214	47.62
217.432	33.28
217.651	68.09
217.869	0.51
218.087	90.62
218.306	23.04
218.524	31.23
218.742	57.86
218.96	35.33
219.179	47.62
219.397	127.49
219.615	80.38
219.833	94.72
220.051	72.19
220.27	88.57
220.488	61.95
220.706	55.81
220.924	45.57
221.142	64
221.36	64
221.578	39.42
221.796	-83.45
222.015	33.28
222.233	-28.16
222.451	86.53
222.669	88.57
222.887	39.42
223.105	59.9
223.323	-1.54
223.541	29.18
223.759	-17.92
223.977	47.62
224.195	31.23
224.413	90.62
224.631	78.33
224.849	27.14
225.067	121.34
225.285	-7.68
225.503	41.47
225.721	-26.11
225.939	90.62
226.157	16.9
226.375	107.01
226.592	64
226.81	23.04
227.028	18.94
227.246	139.77
227.464	61.95
227.682	72.19
227.9	4.61
228.117	84.48
228.335	37.38
228.553	35.33
228.771	-34.3
228.989	31.23
229.206	57.86
229.424	92.67
229.642	76.29
229.86	25.09
230.077	113.15
230.295	23.04
230.513	82.43
230.731	-40.45
230.948	39.42
231.166	86.53
231.384	51.71
231.601	47.62
231.819	86.53
232.037	-17.92
232.254	66.05
232.472	35.33
232.689	39.42
232.907	27.14
233.125	29.18
233.342	25.09
233.56	47.62
233.777	25.09
233.995	39.42
234.213	-19.97
234.43	37.38
234.648	96.77
234.865	41.47
235.083	41.47
235.3	49.66
235.518	41.47
235.735	27.14
235.953	18.94
236.17	14.85
236.388	51.71
236.605	4.61
236.822	64
237.04	41.47
237.257	74.24
237.475	-62.98
237.692	68.09
237.909	92.67
238.127	43.52
238.344	74.24
238.562	66.05
238.779	49.66
238.996	90.62
239.214	64
239.431	2.56
239.648	35.33
239.865	107.01
240.083	59.9
240.3	2.56
240.517	84.48
240.735	100.86
240.952	14.85
241.169	51.71
241.386	41.47
241.603	10.75
241.821	59.9
242.038	68.09
242.255	84.48
242.472	37.38
242.689	33.28
242.907	61.95
243.124	47.62
243.341	64
243.558	18.94
243.775	-24.06
243.992	10.75
244.209	90.62
244.426	-1.54
244.643	-5.63
244.86	49.66
245.078	43.52
245.295	-46.59
245.512	80.38
245.729	41.47
245.946	6.66
246.163	27.14
246.38	68.09
246.597	51.71
246.814	18.94
247.031	47.62
247.248	55.81
247.464	12.8
247.681	41.47
247.898	16.9
248.115	72.19
248.332	64
248.549	76.29
248.766	55.81
248.983	6.66
249.2	-11.78
249.417	86.53
249.633	-1.54
249.85	100.86
250.067	8.7
250.284	74.24
250.501	-9.73
250.717	74.24
250.934	80.38
251.151	41.47
251.368	64
251.585	43.52
251.801	59.9
252.018	68.09
252.235	72.19
252.451	-17.92
252.668	16.9
252.885	51.71
253.102	18.94
253.318	35.33
253.535	76.29
253.752	0.51
253.968	47.62
254.185	18.94
254.401	39.42
254.618	47.62
254.835	131.58
255.051	39.42
255.268	53.76
255.484	0.51
255.701	16.9
255.917	55.81
256.134	41.47
256.351	66.05
256.567	49.66
256.784	66.05
257	18.94
257.217	49.66
257.433	94.72
257.65	39.42
257.866	64
258.082	84.48
258.299	49.66
258.515	84.48
258.732	49.66
258.948	29.18
259.165	47.62
259.381	84.48
259.597	27.14
259.814	35.33
260.03	57.86
260.246	55.81
260.463	49.66
260.679	86.53
260.895	25.09
261.112	43.52
261.328	31.23
261.544	37.38
261.761	70.14
261.977	-7.68
262.193	25.09
262.409	90.62
262.626	64
262.842	92.67
263.058	8.7
263.274	72.19
263.49	41.47
263.707	53.76
263.923	23.04
264.139	102.91
264.355	92.67
264.571	74.24
264.787	0.51
265.004	53.76
265.22	45.57
265.436	107.01
265.652	31.23
265.868	16.9
266.084	64
266.3	8.7
266.516	74.24
266.732	57.86
266.948	53.76
267.164	53.76
267.38	25.09
267.596	90.62
267.812	133.63
268.028	-85.5
268.244	104.96
268.46	61.95
268.676	76.29
268.892	18.94
269.108	14.85
269.324	66.05
269.54	86.53
269.756	16.9
269.972	82.43
270.188	47.62
270.403	76.29
270.619	47.62
270.835	12.8
271.051	45.57
271.267	14.85
271.483	49.66
271.698	59.9
271.914	16.9
272.13	51.71
272.346	23.04
272.562	49.66
272.777	86.53
272.993	45.57
273.209	35.33
273.425	139.77
273.64	6.66
273.856	6.66
274.072	8.7
274.287	84.48
274.503	88.57
274.719	-15.87
274.934	90.62
275.15	-5.63
275.366	23.04
275.581	57.86
275.797	6.66
276.012	80.38
276.228	72.19
276.444	55.81
276.659	6.66
276.875	31.23
277.09	80.38
277.306	12.8
277.521	57.86
277.737	35.33
277.952	25.09
278.168	113.15
278.383	72.19
278.599	20.99
278.814	72.19
279.03	29.18
279.245	80.38
279.461	18.94
279.676	47.62
279.892	76.29
280.107	90.62
280.322	27.14
280.538	66.05
280.753	41.47
280.969	27.14
281.184	33.28
281.399	37.38
281.615	74.24
281.83	43.52
282.045	41.47
282.26	76.29
282.476	43.52
282.691	98.81
282.906	80.38
283.122	96.77
283.337	49.66
283.552	51.71
283.767	78.33
283.983	41.47
284.198	-36.35
284.413	10.75
284.628	27.14
284.843	16.9
285.058	27.14
285.274	102.91
285.489	39.42
285.704	39.42
285.919	4.61
286.134	64
286.349	55.81
286.564	23.04
286.779	61.95
286.995	96.77
287.21	33.28
287.425	104.96
287.64	12.8
287.855	14.85
288.07	-5.63
288.285	53.76
288.5	76.29
288.715	104.96
288.93	104.96
289.145	18.94
289.36	55.81
289.575	76.29
289.79	92.67
290.004	14.85
290.219	41.47
290.434	20.99
290.649	53.76
290.864	20.99
291.079	78.33
291.294	74.24
291.509	29.18
291.724	23.04
291.938	35.33
292.153	55.81
292.368	-1.54
292.583	-9.73
292.798	78.33
293.012	49.66
293.227	57.86
293.442	68.09
293.657	49.66
293.871	82.43
294.086	47.62
294.301	109.05
294.516	31.23
294.73	49.66
294.945	49.66
295.16	98.81
295.374	76.29
295.589	51.71
295.804	64
296.018	-17.92
296.233	59.9
296.447	72.19
296.662	27.14
296.877	27.14
297.091	35.33
297.306	80.38
297.52	51.71
297.735	27.14
297.949	35.33
298.164	51.71
298.378	27.14
298.593	18.94
298.807	86.53
299.022	119.29
299.236	43.52
299.451	80.38
299.665	43.52
299.88	59.9
300.094	61.95
300.309	80.38
300.523	45.57
300.737	0.51
300.952	74.24
301.166	113.15
301.381	137.73
301.595	70.14
301.809	23.04
302.024	66.05
302.238	-5.63
302.452	129.53
302.667	55.81
302.881	113.15
303.095	162.3
303.309	74.24
303.524	8.7
303.738	88.57
303.952	55.81
304.166	115.2
304.381	47.62
304.595	35.33
304.809	92.67
305.023	31.23
305.237	55.81
305.452	33.28
305.666	43.52
305.88	107.01
306.094	10.75
306.308	31.23
306.522	84.48
306.736	59.9
306.95	72.19
307.164	59.9
307.379	16.9
307.593	49.66
307.807	59.9
308.021	74.24
308.235	2.56
308.449	66.05
308.663	72.19
308.877	72.19
309.091	23.04
309.305	66.05
309.519	59.9
309.733	49.66
309.947	59.9
310.161	80.38
310.374	98.81
310.588	64
310.802	31.23
311.016	14.85
311.23	74.24
311.444	88.57
311.658	90.62
311.872	96.77
312.085	107.01
312.299	88.57
312.513	55.81
312.727	92.67
312.941	-15.87
313.154	23.04
313.368	41.47
313.582	59.9
313.796	70.14
314.009	76.29
314.223	39.42
314.437	107.01
314.651	31.23
314.864	47.62
315.078	47.62
315.292	-5.63
315.505	139.77
315.719	10.75
315.933	80.38
316.146	51.71
316.36	4.61
316.573	113.15
316.787	10.75
317.001	47.62
317.214	55.81
317.428	31.23
317.641	-34.3
317.855	59.9
318.068	-11.78
318.282	82.43
318.495	39.42
318.709	72.19
318.922	43.52
319.136	12.8
319.349	57.86
319.563	51.71
319.776	41.47
319.99	64
320.203	4.61
320.417	4.61
320.63	10.75
320.843	84.48
321.057	41.47
321.27	51.71
321.483	12.8
321.697	86.53
321.91	53.76
322.124	6.66
322.337	84.48
322.55	88.57
322.763	16.9
322.977	154.11
323.19	49.66
323.403	86.53
323.617	70.14
323.83	70.14
324.043	133.63
324.256	72.19
324.469	64
324.683	100.86
324.896	35.33
325.109	-3.58
325.322	47.62
325.535	104.96
325.748	61.95
325.962	2.56
326.175	14.85
326.388	57.86
326.601	8.7
326.814	33.28
327.027	127.49
327.24	131.58
327.453	98.81
327.666	55.81
327.879	98.81
328.092	66.05
328.305	104.96
328.518	27.14
328.731	39.42
328.944	107.01
329.157	66.05
329.37	94.72
329.583	92.67
329.796	84.48
330.009	35.33
330.222	8.7
330.435	57.86
330.648	53.76
330.861	55.81
331.073	72.19
331.286	84.48
331.499	115.2
331.712	51.71
331.925	25.09
332.138	96.77
332.35	109.05
332.563	98.81
332.776	59.9
332.989	14.85
333.202	64
333.414	47.62
333.627	25.09
333.84	31.23
334.053	59.9
334.265	47.62
334.478	68.09
334.691	68.09
334.903	61.95
335.116	76.29
335.329	70.14
335.541	8.7
335.754	96.77
335.966	25.09
336.179	55.81
336.392	53.76
336.604	66.05
336.817	98.81
337.029	64
337.242	72.19
337.454	59.9
337.667	121.34
337.88	33.28
338.092	47.62
338.305	84.48
338.517	94.72
338.729	121.34
338.942	70.14
339.154	66.05
339.367	55.81
339.579	72.19
339.792	20.99
340.004	94.72
340.217	80.38
340.429	43.52
340.641	107.01
340.854	64
341.066	98.81
341.278	49.66
341.491	55.81
341.703	104.96
341.915	47.62
342.128	51.71
342.34	76.29
342.552	41.47
342.764	61.95
342.977	98.81
343.189	82.43
343.401	16.9
343.613	57.86
343.826	25.09
344.038	111.1
344.25	31.23
344.462	72.19
344.674	86.53
344.886	-30.21
345.099	74.24
345.311	18.94
345.523	33.28
345.735	59.9
345.947	70.14
346.159	53.76
346.371	115.2
346.583	51.71
346.795	100.86
347.007	88.57
347.219	41.47
347.431	20.99
347.643	43.52
347.855	23.04
348.067	139.77
348.279	74.24
348.491	145.92
348.703	74.24
348.915	41.47
349.127	55.81
349.339	162.3
349.551	29.18
349.763	78.33
349.975	37.38
350.187	104.96
350.399	92.67
350.61	104.96
350.822	90.62
351.034	-13.82
351.246	94.72
351.458	92.67
351.669	57.86
351.881	12.8
352.093	107.01
352.305	31.23
352.517	49.66
352.728	72.19
352.94	90.62
353.152	117.25
353.363	-32.26
353.575	100.86
353.787	76.29
353.999	119.29
354.21	76.29
354.422	25.09
354.633	41.47
354.845	74.24
355.057	68.09
355.268	70.14
355.48	47.62
355.692	76.29
355.903	76.29
356.115	68.09
356.326	25.09
356.538	70.14
356.749	57.86
356.961	129.53
357.172	14.85
357.384	64
357.595	53.76
357.807	107.01
358.018	51.71
358.23	43.52
358.441	84.48
358.653	82.43
358.864	41.47
359.075	78.33
359.287	82.43
359.498	53.76
359.709	45.57
359.921	162.3
360.132	80.38
360.344	88.57
360.555	41.47
360.766	104.96
360.977	31.23
361.189	23.04
361.4	123.39
361.611	125.44
361.823	139.77
362.034	98.81
362.245	35.33
362.456	70.14
362.667	35.33
362.879	82.43
363.09	53.76
363.301	100.86
363.512	82.43
363.723	-13.82
363.935	14.85
364.146	109.05
364.357	57.86
364.568	90.62
364.779	37.38
364.99	47.62
365.201	121.34
365.412	102.91
365.623	47.62
365.834	102.91
366.045	45.57
366.256	68.09
366.467	90.62
366.678	88.57
366.889	23.04
367.1	90.62
367.311	-1.54
367.522	76.29
367.733	33.28
367.944	45.57
368.155	18.94
368.366	72.19
368.577	14.85
368.788	129.53
368.999	35.33
369.209	88.57
369.42	55.81
369.631	123.39
369.842	98.81
370.053	57.86
370.264	129.53
370.474	78.33
370.685	96.77
370.896	55.81
371.107	74.24
371.317	158.21
371.528	47.62
371.739	72.19
371.95	96.77
372.16	76.29
372.371	96.77
372.582	57.86
372.792	119.29
373.003	90.62
373.214	59.9
373.424	96.77
373.635	113.15
373.846	158.21
374.056	20.99
374.267	33.28
374.477	139.77
374.688	55.81
374.898	96.77
375.109	133.63
375.319	115.2
375.53	92.67
375.74	74.24
375.951	68.09
376.161	64
376.372	98.81
376.582	76.29
376.793	64
377.003	23.04
377.214	74.24
377.424	51.71
377.635	59.9
377.845	-42.5
378.055	90.62
378.266	74.24
378.476	43.52
378.686	47.62
378.897	51.71
379.107	104.96
379.317	39.42
379.528	82.43
379.738	61.95
379.948	35.33
380.158	41.47
380.369	-50.69
380.579	82.43
380.789	98.81
380.999	41.47
381.21	68.09
381.42	53.76
381.63	84.48
381.84	80.38
382.05	18.94
382.261	33.28
382.471	121.34
382.681	43.52
382.891	113.15
383.101	131.58
383.311	37.38
383.521	92.67
383.731	115.2
383.941	39.42
384.151	113.15
384.361	78.33
384.571	66.05
384.781	96.77
384.991	84.48
385.201	2.56
385.411	20.99
385.621	131.58
385.831	53.76
386.041	117.25
386.251	61.95
386.461	68.09
386.671	18.94
386.881	98.81
387.091	88.57
387.301	129.53
387.511	47.62
387.72	92.67
387.93	27.14
388.14	96.77
388.35	104.96
388.56	141.82
388.769	117.25
388.979	33.28
389.189	76.29
389.399	80.38
389.609	96.77
389.818	96.77
390.028	102.91
390.238	184.83
390.447	59.9
390.657	133.63
390.867	117.25
391.076	61.95
391.286	96.77
391.496	66.05
391.705	66.05
391.915	129.53
392.125	102.91
392.334	64
392.544	133.63
392.753	98.81
392.963	-22.02
393.172	39.42
393.382	84.48
393.591	125.44
393.801	72.19
394.01	121.34
394.22	41.47
394.429	127.49
394.639	172.54
394.848	82.43
395.058	104.96
395.267	98.81
395.477	129.53
395.686	88.57
395.895	66.05
396.105	129.53
396.314	174.59
396.524	123.39
396.733	47.62
396.942	125.44
397.152	154.11
397.361	147.97
397.57	117.25
397.78	88.57
397.989	139.77
398.198	78.33
398.407	139.77
398.617	154.11
398.826	78.33
399.035	90.62
399.244	61.95
399.453	107.01
399.663	150.01
399.872	39.42
400.081	143.87
400.29	174.59
400.499	86.53
400.708	182.78
400.917	180.73
401.127	145.92
401.336	145.92
401.545	125.44
401.754	166.4
401.963	160.25
402.172	156.16
402.381	137.73
402.59	141.82
402.799	139.77
403.008	156.16
403.217	164.35
403.426	160.25
403.635	178.69
403.844	123.39
404.053	211.45
404.262	166.4
404.471	145.92
404.68	162.3
404.888	211.45
405.097	154.11
405.306	145.92
405.515	170.49
405.724	227.84
405.933	156.16
406.142	254.46
406.35	231.93
406.559	166.4
406.768	195.07
406.977	252.41
407.185	231.93
407.394	205.31
407.603	152.06
407.812	238.08
408.02	311.8
408.229	209.4
408.438	188.93
408.646	246.27
408.855	221.69
409.064	324.09
409.272	279.04
409.481	272.89
409.69	297.47
409.898	352.76
410.107	383.48
410.315	340.47
410.524	338.43
410.733	354.81
410.941	330.23
411.15	375.29
411.358	401.91
411.567	444.92
411.775	408.06
411.984	522.74
412.192	475.64
412.401	455.16
412.609	449.02
412.818	549.37
413.026	489.98
413.234	530.94
413.443	569.85
413.651	512.5
413.86	575.99
414.068	631.29
414.276	674.29
414.485	709.11
414.693	696.82
414.901	645.62
415.11	754.16
415.318	721.4
415.526	760.31
415.734	768.5
415.943	829.94
416.151	901.62
416.359	874.99
416.567	825.84
416.776	958.96
416.984	989.68
417.192	940.53
417.4	993.78
417.608	889.33
417.817	1094.13
418.025	1083.89
418.233	1108.46
418.441	1247.72
418.649	1167.85
418.857	1247.72
419.065	1247.72
419.273	1212.91
419.481	1417.71
419.689	1466.86
419.897	1483.24
420.105	1507.82
420.313	1513.96
420.521	1563.11
420.729	1546.73
420.937	1712.61
421.145	1767.91
421.353	1806.82
421.561	1956.32
421.769	1903.07
421.977	2009.57
422.185	1972.71
422.393	2136.54
422.601	2259.42
422.809	2243.04
423.017	2240.99
423.224	2327
423.432	2441.69
423.64	2570.71
423.848	2644.44
424.056	2552.28
424.263	2849.24
424.471	2824.66
424.679	2894.29
424.887	3029.46
425.094	3164.62
425.302	3160.53
425.51	3238.35
425.718	3254.73
425.925	3467.72
426.133	3467.72
426.341	3568.07
426.548	3926.47
426.756	3895.75
426.964	3848.65
427.171	4037.06
427.379	4315.58
427.586	4405.69
427.794	4352.45
428.001	4524.47
428.209	4751.8
428.417	4612.54
428.624	5077.43
428.832	4999.6
429.039	5196.21
429.247	5155.25
429.454	5667.24
429.662	5921.19
429.869	5509.55
430.076	5976.48
430.284	5661.1
430.491	5984.68
430.699	6320.54
430.906	6179.23
431.114	6560.16
431.321	6687.13
431.528	6756.76
431.736	7319.95
431.943	7575.95
432.15	7270.8
432.358	7440.78
432.565	7815.56
432.772	7819.66
432.979	8223.11
433.187	8382.85
433.394	8417.66
433.601	8995.19
433.808	8857.98
434.016	8659.32
434.223	9210.23
434.43	9660.78
434.637	9613.68
434.844	10238.31
435.052	10250.6
435.259	10248.55
435.466	10201.44
435.673	10242.4
435.88	11123.03
436.087	11348.31
436.294	11645.26
436.501	11293.01
436.708	11561.3
436.915	12017.99
437.122	12458.31
437.329	12407.11
437.537	12874.04
437.743	12992.83
437.95	13072.7
438.157	13357.36
438.364	14027.05
438.571	14145.83
438.778	14207.27
438.985	15380.76
439.192	14541.09
439.399	15468.82
439.606	14899.48
439.813	15933.71
440.02	16679.17
440.227	16261.38
440.433	16081.16
440.64	16636.16
440.847	16554.24
441.054	17377.53
441.261	18462.95
441.467	18276.59
441.674	18528.49
441.881	18903.26
442.088	19124.44
442.294	18655.46
442.501	19443.93
442.708	19648.72
442.914	20476.1
443.121	21416.12
443.328	20590.79
443.534	22122.67
443.741	21434.55
443.948	21360.83
444.154	22692.01
444.361	22681.77
444.568	22567.08
444.774	22608.04
444.981	23128.22
445.187	23779.48
445.394	24744.07
445.6	24303.76
445.807	26802.28
446.013	25659.51
446.22	26077.3
446.426	27295.84
446.633	27641.95
446.839	28239.95
447.046	27072.61
447.252	28741.71
447.459	28514.38
447.665	28559.44
447.871	29855.8
448.078	30699.56
448.284	29593.66
448.491	30310.45
448.697	31660.06
448.903	31887.39
449.11	32032.79
449.316	31633.44
449.522	32315.41
449.728	33134.6
449.935	33267.72
450.141	33200.13
450.347	34093.05
450.553	32659.47
450.76	33527.81
450.966	34322.42
451.172	33951.74
451.378	34871.28
451.584	34377.72
451.791	34908.14
451.997	35287.01
452.203	35418.08
452.409	35500
452.615	35153.9
452.821	33826.81
453.027	33572.86
453.233	35432.42
453.44	33830.91
453.646	34498.55
453.852	34359.28
454.058	34963.43
454.264	33742.85
454.47	34598.9
454.676	33931.26
454.882	35153.9
455.088	31987.74
455.294	32471.06
455.5	32991.24
455.705	33361.92
455.911	31729.69
456.117	31295.52
456.323	31053.86
456.529	29255.75
456.735	30507.05
456.941	29921.34
457.147	29374.53
457.352	28262.48
457.558	28190.8
457.764	28239.95
457.97	27611.23
458.176	27041.89
458.381	27142.24
458.587	25481.34
458.793	25860.21
458.999	24395.92
459.204	26210.42
459.41	25491.58
459.616	23861.4
459.821	23648.41
460.027	23937.17
460.233	23242.91
460.438	21971.12
460.644	22354.09
460.85	21461.18
461.055	21172.41
461.261	21199.04
461.466	19347.67
461.672	18925.79
461.878	20359.37
462.083	18643.17
462.289	18477.29
462.494	18610.4
462.7	17637.62
462.905	16984.32
463.111	17910
463.316	17830.13
463.522	17281.27
463.727	17234.17
463.932	17359.1
464.138	17135.87
464.343	17355
464.549	16705.79
464.754	17285.37
464.959	17201.4
465.165	17215.74
465.37	16503.04
465.575	16095.5
465.781	16736.51
465.986	16822.53
466.191	15974.67
466.397	15874.32
466.602	14965.02
466.807	15683.86
467.012	15698.19
467.218	15331.61
467.423	15356.18
467.628	15393.05
467.833	15925.52
468.038	15167.77
468.244	15071.51
468.449	15638.8
