Data from USB4F104151__107__13-54-50-308.txt Node

Date: Thu Mar 13 13:54:50 EDT 2025
User: louis
Spectrometer: USB4F10415
Trigger mode: 4
Integration Time (sec): 1.000000E-2
Scans to average: 1
Electric dark correction enabled: true
Nonlinearity correction enabled: false
Boxcar width: 0
XAxis mode: Wavelengths
Number of Pixels in Spectrum: 3648
>>>>>Begin Spectral Data<<<<<
178.204	-50.18
178.424	-50.18
178.644	-50.18
178.864	-31.74
179.084	-11.26
179.304	-46.08
179.524	-31.74
179.744	-21.5
179.964	-29.7
180.184	29.7
180.404	11.26
180.624	29.7
180.844	-21.5
181.064	27.65
181.283	72.7
181.503	19.46
181.723	-39.94
181.943	1.02
182.163	-15.36
182.383	29.7
182.602	70.65
182.822	-25.6
183.042	21.5
183.262	1.02
183.482	-103.42
183.701	-21.5
183.921	3.07
184.141	54.27
184.361	-31.74
184.58	-37.89
184.8	25.6
185.02	-3.07
185.239	-52.22
185.459	41.98
185.679	41.98
185.898	-99.33
186.118	21.5
186.338	41.98
186.557	9.22
186.777	41.98
186.997	17.41
187.216	7.17
187.436	13.31
187.655	-19.46
187.875	80.89
188.095	31.74
188.314	37.89
188.534	-11.26
188.753	70.65
188.973	1.02
189.192	-23.55
189.412	84.99
189.631	9.22
189.851	15.36
190.07	76.8
190.29	31.74
190.509	15.36
190.729	37.89
190.948	76.8
191.168	21.5
191.387	84.99
191.607	-17.41
191.826	70.65
192.045	-7.17
192.265	1.02
192.484	21.5
192.704	-29.7
192.923	1.02
193.142	27.65
193.362	21.5
193.581	50.18
193.8	72.7
194.02	3.07
194.239	-19.46
194.458	27.65
194.678	11.26
194.897	50.18
195.116	70.65
195.335	-23.55
195.555	-17.41
195.774	-1.02
195.993	21.5
196.212	50.18
196.432	-1.02
196.651	-21.5
196.87	-27.65
197.089	29.7
197.308	-50.18
197.528	-7.17
197.747	-70.65
197.966	-3.07
198.185	21.5
198.404	-9.22
198.623	56.32
198.842	33.79
199.062	33.79
199.281	54.27
199.5	-13.31
199.719	3.07
199.938	82.94
200.157	105.47
200.376	-35.84
200.595	158.72
200.814	-13.31
201.033	25.6
201.252	35.84
201.471	-1.02
201.69	72.7
201.909	-35.84
202.128	21.5
202.347	82.94
202.566	50.18
202.785	-48.13
203.004	27.65
203.223	50.18
203.442	62.46
203.661	68.61
203.879	23.55
204.098	41.98
204.317	5.12
204.536	-3.07
204.755	27.65
204.974	-19.46
205.193	76.8
205.411	17.41
205.63	33.79
205.849	62.46
206.068	-9.22
206.287	44.03
206.505	21.5
206.724	87.04
206.943	41.98
207.162	-11.26
207.381	7.17
207.599	25.6
207.818	17.41
208.037	19.46
208.255	-13.31
208.474	29.7
208.693	-46.08
208.911	56.32
209.13	-21.5
209.349	5.12
209.567	-25.6
209.786	-46.08
210.005	3.07
210.223	-27.65
210.442	9.22
210.661	13.31
210.879	44.03
211.098	25.6
211.316	21.5
211.535	-19.46
211.753	-48.13
211.972	44.03
212.191	-70.65
212.409	21.5
212.628	97.28
212.846	-15.36
213.065	33.79
213.283	33.79
213.502	35.84
213.72	52.22
213.938	13.31
214.157	25.6
214.375	-17.41
214.594	19.46
214.812	44.03
215.031	70.65
215.249	-62.46
215.467	-3.07
215.686	25.6
215.904	62.46
216.122	-41.98
216.341	50.18
216.559	-21.5
216.778	25.6
216.996	17.41
217.214	19.46
217.432	17.41
217.651	5.12
217.869	5.12
218.087	54.27
218.306	-1.02
218.524	3.07
218.742	11.26
218.96	52.22
219.179	62.46
219.397	60.42
219.615	-13.31
219.833	-7.17
220.051	-3.07
220.27	52.22
220.488	-35.84
220.706	21.5
220.924	35.84
221.142	-19.46
221.36	-27.65
221.578	19.46
221.796	31.74
222.015	29.7
222.233	-11.26
222.451	-9.22
222.669	-62.46
222.887	39.94
223.105	11.26
223.323	-44.03
223.541	-21.5
223.759	64.51
223.977	-64.51
224.195	29.7
224.413	-15.36
224.631	11.26
224.849	39.94
225.067	52.22
225.285	27.65
225.503	13.31
225.721	-1.02
225.939	-39.94
226.157	3.07
226.375	1.02
226.592	56.32
226.81	5.12
227.028	35.84
227.246	7.17
227.464	60.42
227.682	9.22
227.9	29.7
228.117	-39.94
228.335	-13.31
228.553	-13.31
228.771	-1.02
228.989	17.41
229.206	9.22
229.424	44.03
229.642	9.22
229.86	44.03
230.077	84.99
230.295	31.74
230.513	29.7
230.731	13.31
230.948	84.99
231.166	72.7
231.384	23.55
231.601	19.46
231.819	-23.55
232.037	11.26
232.254	33.79
232.472	-25.6
232.689	7.17
232.907	-50.18
233.125	13.31
233.342	1.02
233.56	-19.46
233.777	101.37
233.995	25.6
234.213	-15.36
234.43	13.31
234.648	11.26
234.865	-7.17
235.083	95.23
235.3	56.32
235.518	39.94
235.735	15.36
235.953	72.7
236.17	-29.7
236.388	68.61
236.605	56.32
236.822	23.55
237.04	70.65
237.257	-31.74
237.475	-44.03
237.692	50.18
237.909	-48.13
238.127	17.41
238.344	46.08
238.562	-7.17
238.779	-46.08
238.996	-1.02
239.214	58.37
239.431	89.09
239.648	-23.55
239.865	-1.02
240.083	50.18
240.3	-35.84
240.517	-58.37
240.735	3.07
240.952	25.6
241.169	7.17
241.386	-5.12
241.603	62.46
241.821	72.7
242.038	82.94
242.255	89.09
242.472	-3.07
242.689	9.22
242.907	-15.36
243.124	54.27
243.341	68.61
243.558	27.65
243.775	-21.5
243.992	54.27
244.209	39.94
244.426	107.52
244.643	25.6
244.86	-11.26
245.078	-5.12
245.295	29.7
245.512	52.22
245.729	15.36
245.946	5.12
246.163	21.5
246.38	33.79
246.597	62.46
246.814	46.08
247.031	-1.02
247.248	-7.17
247.464	33.79
247.681	46.08
247.898	46.08
248.115	48.13
248.332	21.5
248.549	17.41
248.766	-5.12
248.983	46.08
249.2	-62.46
249.417	35.84
249.633	31.74
249.85	-25.6
250.067	-46.08
250.284	-23.55
250.501	-54.27
250.717	44.03
250.934	-23.55
251.151	-25.6
251.368	11.26
251.585	52.22
251.801	19.46
252.018	-13.31
252.235	11.26
252.451	9.22
252.668	56.32
252.885	15.36
253.102	13.31
253.318	-76.8
253.535	58.37
253.752	-21.5
253.968	-1.02
254.185	39.94
254.401	66.56
254.618	15.36
254.835	-7.17
255.051	13.31
255.268	46.08
255.484	60.42
255.701	-39.94
255.917	29.7
256.134	5.12
256.351	-31.74
256.567	101.37
256.784	-58.37
257	-62.46
257.217	70.65
257.433	7.17
257.65	64.51
257.866	-9.22
258.082	13.31
258.299	46.08
258.515	31.74
258.732	44.03
258.948	76.8
259.165	-27.65
259.381	52.22
259.597	-52.22
259.814	13.31
260.03	-27.65
260.246	21.5
260.463	29.7
260.679	54.27
260.895	70.65
261.112	7.17
261.328	-7.17
261.544	5.12
261.761	39.94
261.977	-33.79
262.193	-72.7
262.409	15.36
262.626	33.79
262.842	25.6
263.058	-7.17
263.274	-15.36
263.49	87.04
263.707	39.94
263.923	-17.41
264.139	46.08
264.355	-105.47
264.571	-44.03
264.787	1.02
265.004	15.36
265.22	-25.6
265.436	27.65
265.652	-3.07
265.868	19.46
266.084	39.94
266.3	-3.07
266.516	-29.7
266.732	117.76
266.948	-39.94
267.164	-29.7
267.38	25.6
267.596	25.6
267.812	15.36
268.028	9.22
268.244	66.56
268.46	35.84
268.676	17.41
268.892	25.6
269.108	17.41
269.324	66.56
269.54	-1.02
269.756	87.04
269.972	41.98
270.188	23.55
270.403	-3.07
270.619	-11.26
270.835	27.65
271.051	74.75
271.267	11.26
271.483	23.55
271.698	62.46
271.914	-64.51
272.13	-13.31
272.346	1.02
272.562	48.13
272.777	7.17
272.993	-1.02
273.209	13.31
273.425	54.27
273.64	21.5
273.856	-27.65
274.072	68.61
274.287	11.26
274.503	-3.07
274.719	-66.56
274.934	1.02
275.15	-41.98
275.366	39.94
275.581	39.94
275.797	-3.07
276.012	27.65
276.228	41.98
276.444	5.12
276.659	9.22
276.875	33.79
277.09	-56.32
277.306	7.17
277.521	21.5
277.737	78.85
277.952	64.51
278.168	15.36
278.383	50.18
278.599	-17.41
278.814	29.7
279.03	17.41
279.245	48.13
279.461	3.07
279.676	74.75
279.892	-23.55
280.107	41.98
280.322	3.07
280.538	-44.03
280.753	3.07
280.969	-3.07
281.184	95.23
281.399	25.6
281.615	13.31
281.83	62.46
282.045	-58.37
282.26	48.13
282.476	-58.37
282.691	-62.46
282.906	3.07
283.122	-1.02
283.337	-29.7
283.552	21.5
283.767	17.41
283.983	5.12
284.198	68.61
284.413	46.08
284.628	-1.02
284.843	-41.98
285.058	1.02
285.274	23.55
285.489	21.5
285.704	13.31
285.919	41.98
286.134	41.98
286.349	25.6
286.564	78.85
286.779	70.65
286.995	17.41
287.21	11.26
287.425	39.94
287.64	-17.41
287.855	-23.55
288.07	17.41
288.285	52.22
288.5	-11.26
288.715	33.79
288.93	23.55
289.145	-64.51
289.36	23.55
289.575	-5.12
289.79	70.65
290.004	-5.12
290.219	-25.6
290.434	46.08
290.649	-5.12
290.864	21.5
291.079	-29.7
291.294	27.65
291.509	-5.12
291.724	52.22
291.938	-13.31
292.153	-39.94
292.368	-27.65
292.583	25.6
292.798	29.7
293.012	-13.31
293.227	-21.5
293.442	19.46
293.657	-54.27
293.871	15.36
294.086	25.6
294.301	-1.02
294.516	19.46
294.73	-19.46
294.945	62.46
295.16	46.08
295.374	-13.31
295.589	-23.55
295.804	44.03
296.018	21.5
296.233	74.75
296.447	80.89
296.662	29.7
296.877	13.31
297.091	-25.6
297.306	15.36
297.52	17.41
297.735	37.89
297.949	17.41
298.164	60.42
298.378	-9.22
298.593	54.27
298.807	15.36
299.022	29.7
299.236	15.36
299.451	101.37
299.665	82.94
299.88	50.18
300.094	-3.07
300.309	50.18
300.523	33.79
300.737	21.5
300.952	-7.17
301.166	48.13
301.381	-5.12
301.595	31.74
301.809	-7.17
302.024	-1.02
302.238	25.6
302.452	91.13
302.667	15.36
302.881	29.7
303.095	-3.07
303.309	-31.74
303.524	-19.46
303.738	9.22
303.952	-33.79
304.166	74.75
304.381	50.18
304.595	27.65
304.809	-3.07
305.023	7.17
305.237	46.08
305.452	41.98
305.666	89.09
305.88	41.98
306.094	27.65
306.308	17.41
306.522	46.08
306.736	23.55
306.95	5.12
307.164	21.5
307.379	-46.08
307.593	35.84
307.807	35.84
308.021	19.46
308.235	56.32
308.449	-13.31
308.663	-25.6
308.877	48.13
309.091	1.02
309.305	29.7
309.519	-1.02
309.733	95.23
309.947	29.7
310.161	-35.84
310.374	-19.46
310.588	111.61
310.802	-21.5
311.016	56.32
311.23	33.79
311.444	-37.89
311.658	19.46
311.872	27.65
312.085	-7.17
312.299	19.46
312.513	33.79
312.727	25.6
312.941	-9.22
313.154	84.99
313.368	35.84
313.582	9.22
313.796	76.8
314.009	101.37
314.223	80.89
314.437	1.02
314.651	-5.12
314.864	54.27
315.078	50.18
315.292	-62.46
315.505	-13.31
315.719	7.17
315.933	21.5
316.146	58.37
316.36	21.5
316.573	-41.98
316.787	44.03
317.001	21.5
317.214	11.26
317.428	-3.07
317.641	-33.79
317.855	68.61
318.068	25.6
318.282	60.42
318.495	58.37
318.709	62.46
318.922	-1.02
319.136	17.41
319.349	11.26
319.563	56.32
319.776	-44.03
319.99	37.89
320.203	7.17
320.417	60.42
320.63	58.37
320.843	62.46
321.057	15.36
321.27	17.41
321.483	44.03
321.697	15.36
321.91	72.7
322.124	7.17
322.337	3.07
322.55	27.65
322.763	-1.02
322.977	97.28
323.19	1.02
323.403	13.31
323.617	11.26
323.83	70.65
324.043	-5.12
324.256	37.89
324.469	1.02
324.683	1.02
324.896	-11.26
325.109	41.98
325.322	46.08
325.535	-1.02
325.748	29.7
325.962	-7.17
326.175	-23.55
326.388	50.18
326.601	60.42
326.814	3.07
327.027	15.36
327.24	58.37
327.453	-17.41
327.666	37.89
327.879	68.61
328.092	-17.41
328.305	70.65
328.518	-13.31
328.731	29.7
328.944	25.6
329.157	101.37
329.37	-44.03
329.583	17.41
329.796	64.51
330.009	21.5
330.222	84.99
330.435	99.33
330.648	27.65
330.861	87.04
331.073	-27.65
331.286	54.27
331.499	84.99
331.712	84.99
331.925	82.94
332.138	27.65
332.35	9.22
332.563	23.55
332.776	58.37
332.989	31.74
333.202	-29.7
333.414	29.7
333.627	11.26
333.84	78.85
334.053	46.08
334.265	62.46
334.478	68.61
334.691	37.89
334.903	33.79
335.116	11.26
335.329	-31.74
335.541	13.31
335.754	50.18
335.966	-13.31
336.179	62.46
336.392	11.26
336.604	44.03
336.817	58.37
337.029	5.12
337.242	15.36
337.454	52.22
337.667	68.61
337.88	-21.5
338.092	-56.32
338.305	25.6
338.517	39.94
338.729	52.22
338.942	1.02
339.154	17.41
339.367	66.56
339.579	-7.17
339.792	-5.12
340.004	19.46
340.217	-13.31
340.429	62.46
340.641	33.79
340.854	-15.36
341.066	62.46
341.278	41.98
341.491	48.13
341.703	64.51
341.915	13.31
342.128	89.09
342.34	-27.65
342.552	-39.94
342.764	-5.12
342.977	-15.36
343.189	-39.94
343.401	52.22
343.613	52.22
343.826	-27.65
344.038	7.17
344.25	33.79
344.462	-21.5
344.674	39.94
344.886	7.17
345.099	41.98
345.311	25.6
345.523	62.46
345.735	5.12
345.947	58.37
346.159	56.32
346.371	35.84
346.583	-3.07
346.795	25.6
347.007	33.79
347.219	107.52
347.431	5.12
347.643	46.08
347.855	48.13
348.067	13.31
348.279	-13.31
348.491	23.55
348.703	48.13
348.915	-50.18
349.127	17.41
349.339	-15.36
349.551	-17.41
349.763	95.23
349.975	64.51
350.187	48.13
350.399	87.04
350.61	-25.6
350.822	-27.65
351.034	72.7
351.246	17.41
351.458	54.27
351.669	5.12
351.881	31.74
352.093	-1.02
352.305	99.33
352.517	39.94
352.728	91.13
352.94	37.89
353.152	1.02
353.363	44.03
353.575	31.74
353.787	-35.84
353.999	46.08
354.21	21.5
354.422	-21.5
354.633	5.12
354.845	41.98
355.057	-56.32
355.268	-15.36
355.48	-37.89
355.692	74.75
355.903	33.79
356.115	9.22
356.326	35.84
356.538	-25.6
356.749	84.99
356.961	31.74
357.172	19.46
357.384	-41.98
357.595	9.22
357.807	17.41
358.018	21.5
358.23	7.17
358.441	48.13
358.653	41.98
358.864	-19.46
359.075	19.46
359.287	66.56
359.498	70.65
359.709	50.18
359.921	70.65
360.132	17.41
360.344	7.17
360.555	-11.26
360.766	39.94
360.977	-13.31
361.189	50.18
361.4	-19.46
361.611	111.61
361.823	5.12
362.034	-17.41
362.245	25.6
362.456	46.08
362.667	5.12
362.879	29.7
363.09	25.6
363.301	-11.26
363.512	-9.22
363.723	-7.17
363.935	68.61
364.146	13.31
364.357	58.37
364.568	35.84
364.779	-7.17
364.99	39.94
365.201	44.03
365.412	58.37
365.623	74.75
365.834	-31.74
366.045	37.89
366.256	56.32
366.467	9.22
366.678	33.79
366.889	13.31
367.1	19.46
367.311	56.32
367.522	17.41
367.733	19.46
367.944	33.79
368.155	80.89
368.366	46.08
368.577	-84.99
368.788	72.7
368.999	-39.94
369.209	87.04
369.42	64.51
369.631	-13.31
369.842	33.79
370.053	19.46
370.264	25.6
370.474	25.6
370.685	64.51
370.896	74.75
371.107	15.36
371.317	60.42
371.528	46.08
371.739	50.18
371.95	119.81
372.16	46.08
372.371	11.26
372.582	31.74
372.792	-25.6
373.003	46.08
373.214	13.31
373.424	1.02
373.635	-3.07
373.846	91.13
374.056	9.22
374.267	19.46
374.477	17.41
374.688	41.98
374.898	48.13
375.109	29.7
375.319	62.46
375.53	29.7
375.74	58.37
375.951	39.94
376.161	31.74
376.372	-1.02
376.582	35.84
376.793	50.18
377.003	-23.55
377.214	-21.5
377.424	64.51
377.635	132.09
377.845	23.55
378.055	21.5
378.266	68.61
378.476	-27.65
378.686	78.85
378.897	101.37
379.107	3.07
379.317	89.09
379.528	21.5
379.738	54.27
379.948	3.07
380.158	29.7
380.369	39.94
380.579	21.5
380.789	13.31
380.999	17.41
381.21	115.71
381.42	62.46
381.63	-7.17
381.84	82.94
382.05	11.26
382.261	25.6
382.471	80.89
382.681	11.26
382.891	35.84
383.101	78.85
383.311	84.99
383.521	68.61
383.731	15.36
383.941	35.84
384.151	52.22
384.361	-15.36
384.571	54.27
384.781	-19.46
384.991	33.79
385.201	41.98
385.411	5.12
385.621	41.98
385.831	91.13
386.041	7.17
386.251	97.28
386.461	66.56
386.671	19.46
386.881	29.7
387.091	-7.17
387.301	93.18
387.511	-23.55
387.72	31.74
387.93	56.32
388.14	66.56
388.35	39.94
388.56	74.75
388.769	7.17
388.979	117.76
389.189	13.31
389.399	29.7
389.609	-3.07
389.818	15.36
390.028	41.98
390.238	31.74
390.447	68.61
390.657	74.75
390.867	1.02
391.076	27.65
391.286	76.8
391.496	9.22
391.705	50.18
391.915	5.12
392.125	1.02
392.334	-25.6
392.544	46.08
392.753	35.84
392.963	7.17
393.172	99.33
393.382	50.18
393.591	66.56
393.801	13.31
394.01	64.51
394.22	17.41
394.429	52.22
394.639	-27.65
394.848	84.99
395.058	66.56
395.267	1.02
395.477	82.94
395.686	3.07
395.895	37.89
396.105	89.09
396.314	76.8
396.524	-13.31
396.733	48.13
396.942	-23.55
397.152	58.37
397.361	117.76
397.57	27.65
397.78	-1.02
397.989	70.65
398.198	74.75
398.407	44.03
398.617	33.79
398.826	15.36
399.035	68.61
399.244	56.32
399.453	46.08
399.663	84.99
399.872	76.8
400.081	15.36
400.29	7.17
400.499	-5.12
400.708	48.13
400.917	15.36
401.127	105.47
401.336	19.46
401.545	35.84
401.754	35.84
401.963	93.18
402.172	27.65
402.381	123.9
402.59	60.42
402.799	82.94
403.008	95.23
403.217	64.51
403.426	15.36
403.635	84.99
403.844	50.18
404.053	99.33
404.262	111.61
404.471	95.23
404.68	87.04
404.888	27.65
405.097	52.22
405.306	134.14
405.515	17.41
405.724	62.46
405.933	70.65
406.142	134.14
406.35	130.05
406.559	80.89
406.768	97.28
406.977	150.53
407.185	121.85
407.394	97.28
407.603	136.19
407.812	168.96
408.02	107.52
408.229	80.89
408.438	101.37
408.646	166.91
408.855	205.82
409.064	171.01
409.272	183.29
409.481	261.12
409.69	148.48
409.898	191.49
410.107	134.14
410.315	179.2
410.524	244.73
410.733	246.78
410.941	199.68
411.15	181.25
411.358	246.78
411.567	175.1
411.775	287.74
411.984	259.07
412.192	281.6
412.401	183.29
412.609	343.03
412.818	289.79
413.026	297.98
413.234	328.7
413.443	211.96
413.651	318.46
413.86	306.17
414.068	361.47
414.276	396.28
414.485	343.03
414.693	338.94
414.901	422.91
415.11	443.39
415.318	410.62
415.526	363.51
415.734	365.56
415.943	404.47
416.151	508.92
416.359	449.53
416.567	422.91
416.776	525.3
416.984	496.63
417.192	603.13
417.4	560.12
417.608	586.74
417.817	607.22
418.025	564.22
418.233	629.75
418.441	633.85
418.649	603.13
418.857	717.81
419.065	709.62
419.273	680.95
419.481	777.2
419.689	793.59
419.897	814.07
420.105	844.79
420.313	910.32
420.521	871.41
420.729	957.43
420.937	865.27
421.145	965.62
421.353	932.85
421.561	975.86
421.769	1082.35
421.977	1008.62
422.185	1041.39
422.393	1160.17
422.601	1254.38
422.809	1285.1
423.017	1225.71
423.224	1332.2
423.432	1385.45
423.64	1274.86
423.848	1373.16
424.056	1371.12
424.263	1565.67
424.471	1532.9
424.679	1575.91
424.887	1623.02
425.094	1737.7
425.302	1723.37
425.51	1823.72
425.718	1876.96
425.925	1913.83
426.133	1913.83
426.341	2092
426.548	2096.1
426.756	2149.34
426.964	2194.4
427.171	2255.84
427.379	2384.86
427.586	2302.94
427.794	2421.72
428.001	2417.63
428.209	2599.9
428.417	2565.08
428.624	2784.21
428.832	2804.69
429.039	2735.06
429.247	2837.46
429.454	3085.26
429.662	3202
429.869	3005.39
430.076	3226.57
430.284	3193.81
430.491	3216.33
430.699	3384.27
430.906	3468.24
431.114	3503.05
431.321	3767.24
431.528	3773.38
431.736	3908.55
431.943	4139.97
432.15	3972.04
432.358	4092.87
432.565	4383.68
432.772	4324.29
432.979	4537.27
433.187	4621.24
433.394	4602.81
433.601	4887.48
433.808	4838.33
434.016	4877.24
434.223	5092.27
434.43	5462.96
434.637	5110.71
434.844	5639.08
435.052	5643.18
435.259	5862.31
435.466	5833.64
435.673	5677.99
435.88	6151.07
436.087	6386.59
436.294	6421.41
436.501	6130.59
436.708	6423.45
436.915	6560.67
437.122	6771.61
437.329	6929.3
437.537	7168.91
437.743	7125.91
437.95	7132.05
438.157	7592.84
438.364	7754.63
438.571	7908.23
438.778	7785.35
438.985	8637.31
439.192	7965.57
439.399	8520.57
439.606	8076.16
439.813	8778.62
440.02	9110.39
440.227	8964.98
440.433	9010.04
440.64	9220.98
440.847	9309.04
441.054	9593.71
441.261	9968.49
441.467	9825.13
441.674	10146.66
441.881	10486.62
442.088	10333.03
442.294	10443.62
442.501	10806.11
442.708	10730.33
442.914	11211.6
443.121	11754.32
443.328	11621.2
443.534	12147.53
443.741	11987.79
443.948	11656.01
444.154	12772.16
444.361	12358.47
444.568	12522.3
444.774	12626.75
444.981	12612.42
445.187	13173.56
445.394	13802.29
445.6	13632.3
445.807	14617.38
446.013	14074.67
446.22	14463.78
446.426	14908.19
446.633	15309.59
446.839	15717.14
447.046	14805.79
447.252	15764.24
447.459	16036.62
447.665	16022.28
447.871	16464.64
448.078	17091.32
448.284	16296.71
448.491	16796.42
448.697	17558.26
448.903	17582.84
449.11	17707.76
449.316	17505.01
449.522	17761.01
449.728	18432.74
449.935	18365.16
450.141	18537.19
450.347	18815.71
450.553	18229.99
450.76	18617.06
450.966	19143.39
451.172	18954.97
451.378	19387.1
451.584	18830.05
451.791	19170.01
451.997	19477.21
452.203	19696.34
452.409	19460.82
452.615	19686.1
452.821	18979.55
453.027	18694.88
453.233	19538.65
453.44	18969.31
453.646	19225.31
453.852	18916.06
454.058	19380.95
454.264	18979.55
454.47	19178.2
454.676	18764.51
454.882	19593.94
455.088	17670.9
455.294	18062.06
455.5	18051.82
455.705	18361.06
455.911	17726.19
456.117	17388.28
456.323	17050.36
456.529	16352.01
456.735	16870.14
456.941	16294.66
457.147	16261.9
457.352	15776.53
457.558	15549.2
457.764	15479.57
457.97	15158.04
458.176	14576.42
458.381	14926.62
458.587	14195.5
458.793	14134.06
458.999	13462.32
459.204	14488.35
459.41	13972.27
459.616	13099.83
459.821	13191.99
460.027	13097.78
460.233	12829.5
460.438	12286.79
460.644	12280.64
460.85	11725.65
461.055	11518.8
461.261	11467.6
461.466	10742.62
461.672	10515.3
461.878	11150.17
462.083	10398.56
462.289	10341.22
462.494	10253.16
462.7	9632.62
462.905	9468.78
463.111	9714.54
463.316	9759.6
463.522	9603.95
463.727	9612.14
463.932	9454.45
464.138	9440.11
464.343	9630.57
464.549	9323.38
464.754	9388.91
464.959	9704.3
465.165	9341.81
465.37	8899.45
465.575	8825.72
465.781	9188.21
465.986	9159.54
466.191	8698.75
466.397	8651.64
466.602	8162.18
466.807	8608.64
467.012	8405.89
467.218	8424.32
467.423	8471.42
467.628	8487.81
467.833	8809.34
468.038	8508.29
468.244	8258.43
468.449	8686.46
468.654	8168.32
468.859	8229.76
469.064	8108.93
469.269	7932.81
469.474	8006.53
469.679	8151.94
