Data from USB4F104151__55__13-53-30-997.txt Node

Date: Thu Mar 13 13:53:30 EDT 2025
User: louis
Spectrometer: USB4F10415
Trigger mode: 4
Integration Time (sec): 1.000000E-2
Scans to average: 1
Electric dark correction enabled: true
Nonlinearity correction enabled: false
Boxcar width: 0
XAxis mode: Wavelengths
Number of Pixels in Spectrum: 3648
>>>>>Begin Spectral Data<<<<<
178.204	23.04
178.424	23.04
178.644	23.04
178.864	-1.54
179.084	10.75
179.304	-1.54
179.524	27.14
179.744	23.04
179.964	-7.68
180.184	-11.78
180.404	-38.4
180.624	8.7
180.844	-19.97
181.064	4.61
181.283	12.8
181.503	-5.63
181.723	8.7
181.943	27.14
182.163	25.09
182.383	8.7
182.602	29.18
182.822	76.29
183.042	4.61
183.262	74.24
183.482	41.47
183.701	27.14
183.921	-22.02
184.141	35.33
184.361	20.99
184.58	78.33
184.8	72.19
185.02	49.66
185.239	29.18
185.459	76.29
185.679	55.81
185.898	41.47
186.118	49.66
186.338	37.38
186.557	16.9
186.777	107.01
186.997	-48.64
187.216	74.24
187.436	12.8
187.655	-9.73
187.875	76.29
188.095	55.81
188.314	39.42
188.534	35.33
188.753	8.7
188.973	27.14
189.192	102.91
189.412	43.52
189.631	29.18
189.851	64
190.07	-1.54
190.29	37.38
190.509	4.61
190.729	10.75
190.948	92.67
191.168	59.9
191.387	12.8
191.607	41.47
191.826	100.86
192.045	49.66
192.265	33.28
192.484	59.9
192.704	51.71
192.923	-17.92
193.142	78.33
193.362	76.29
193.581	84.48
193.8	61.95
194.02	-9.73
194.239	8.7
194.458	55.81
194.678	55.81
194.897	49.66
195.116	74.24
195.335	16.9
195.555	20.99
195.774	-1.54
195.993	61.95
196.212	0.51
196.432	39.42
196.651	51.71
196.87	-65.02
197.089	78.33
197.308	-38.4
197.528	78.33
197.747	51.71
197.966	80.38
198.185	68.09
198.404	23.04
198.623	80.38
198.842	61.95
199.062	66.05
199.281	76.29
199.5	41.47
199.719	33.28
199.938	41.47
200.157	96.77
200.376	88.57
200.595	111.1
200.814	41.47
201.033	76.29
201.252	70.14
201.471	74.24
201.69	33.28
201.909	31.23
202.128	86.53
202.347	35.33
202.566	47.62
202.785	53.76
203.004	33.28
203.223	66.05
203.442	61.95
203.661	25.09
203.879	98.81
204.098	82.43
204.317	33.28
204.536	55.81
204.755	10.75
204.974	82.43
205.193	35.33
205.411	86.53
205.63	37.38
205.849	29.18
206.068	55.81
206.287	14.85
206.505	-15.87
206.724	92.67
206.943	78.33
207.162	78.33
207.381	-3.58
207.599	78.33
207.818	6.66
208.037	18.94
208.255	18.94
208.474	92.67
208.693	0.51
208.911	53.76
209.13	23.04
209.349	14.85
209.567	-32.26
209.786	119.29
210.005	31.23
210.223	37.38
210.442	98.81
210.661	-5.63
210.879	57.86
211.098	29.18
211.316	92.67
211.535	109.05
211.753	-15.87
211.972	88.57
212.191	59.9
212.409	53.76
212.628	45.57
212.846	72.19
213.065	88.57
213.283	129.53
213.502	45.57
213.72	12.8
213.938	43.52
214.157	109.05
214.375	12.8
214.594	16.9
214.812	16.9
215.031	39.42
215.249	57.86
215.467	35.33
215.686	25.09
215.904	117.25
216.122	4.61
216.341	66.05
216.559	6.66
216.778	16.9
216.996	74.24
217.214	133.63
217.432	80.38
217.651	74.24
217.869	10.75
218.087	51.71
218.306	39.42
218.524	88.57
218.742	53.76
218.96	55.81
219.179	92.67
219.397	37.38
219.615	20.99
219.833	29.18
220.051	49.66
220.27	88.57
220.488	64
220.706	8.7
220.924	51.71
221.142	-38.4
221.36	-19.97
221.578	80.38
221.796	109.05
222.015	45.57
222.233	16.9
222.451	51.71
222.669	-15.87
222.887	29.18
223.105	61.95
223.323	53.76
223.541	49.66
223.759	66.05
223.977	64
224.195	96.77
224.413	23.04
224.631	33.28
224.849	68.09
225.067	33.28
225.285	57.86
225.503	68.09
225.721	-7.68
225.939	6.66
226.157	90.62
226.375	37.38
226.592	37.38
226.81	53.76
227.028	-13.82
227.246	92.67
227.464	57.86
227.682	2.56
227.9	70.14
228.117	18.94
228.335	80.38
228.553	25.09
228.771	37.38
228.989	51.71
229.206	10.75
229.424	-7.68
229.642	14.85
229.86	78.33
230.077	45.57
230.295	57.86
230.513	78.33
230.731	49.66
230.948	-24.06
231.166	92.67
231.384	-5.63
231.601	129.53
231.819	45.57
232.037	94.72
232.254	43.52
232.472	64
232.689	14.85
232.907	49.66
233.125	-73.21
233.342	57.86
233.56	88.57
233.777	35.33
233.995	117.25
234.213	49.66
234.43	98.81
234.648	74.24
234.865	68.09
235.083	53.76
235.3	76.29
235.518	66.05
235.735	51.71
235.953	29.18
236.17	41.47
236.388	-28.16
236.605	29.18
236.822	104.96
237.04	8.7
237.257	41.47
237.475	78.33
237.692	74.24
237.909	47.62
238.127	31.23
238.344	55.81
238.562	-19.97
238.779	-13.82
238.996	104.96
239.214	8.7
239.431	57.86
239.648	37.38
239.865	92.67
240.083	-48.64
240.3	35.33
240.517	27.14
240.735	64
240.952	-77.31
241.169	84.48
241.386	100.86
241.603	55.81
241.821	12.8
242.038	-15.87
242.255	14.85
242.472	72.19
242.689	12.8
242.907	27.14
243.124	37.38
243.341	14.85
243.558	35.33
243.775	72.19
243.992	64
244.209	111.1
244.426	141.82
244.643	55.81
244.86	51.71
245.078	64
245.295	12.8
245.512	49.66
245.729	61.95
245.946	109.05
246.163	104.96
246.38	68.09
246.597	-7.68
246.814	49.66
247.031	-17.92
247.248	2.56
247.464	47.62
247.681	57.86
247.898	8.7
248.115	43.52
248.332	-1.54
248.549	29.18
248.766	66.05
248.983	88.57
249.2	12.8
249.417	59.9
249.633	20.99
249.85	78.33
250.067	33.28
250.284	55.81
250.501	51.71
250.717	47.62
250.934	33.28
251.151	125.44
251.368	49.66
251.585	98.81
251.801	43.52
252.018	12.8
252.235	-9.73
252.451	27.14
252.668	-15.87
252.885	94.72
253.102	59.9
253.318	0.51
253.535	-15.87
253.752	113.15
253.968	-1.54
254.185	-3.58
254.401	68.09
254.618	104.96
254.835	100.86
255.051	133.63
255.268	88.57
255.484	84.48
255.701	66.05
255.917	102.91
256.134	39.42
256.351	16.9
256.567	59.9
256.784	107.01
257	51.71
257.217	98.81
257.433	72.19
257.65	121.34
257.866	31.23
258.082	43.52
258.299	14.85
258.515	41.47
258.732	-13.82
258.948	6.66
259.165	-11.78
259.381	27.14
259.597	16.9
259.814	4.61
260.03	57.86
260.246	33.28
260.463	16.9
260.679	74.24
260.895	90.62
261.112	-24.06
261.328	-13.82
261.544	104.96
261.761	43.52
261.977	55.81
262.193	23.04
262.409	-13.82
262.626	76.29
262.842	47.62
263.058	39.42
263.274	-19.97
263.49	51.71
263.707	96.77
263.923	39.42
264.139	72.19
264.355	82.43
264.571	47.62
264.787	102.91
265.004	109.05
265.22	78.33
265.436	-36.35
265.652	23.04
265.868	35.33
266.084	27.14
266.3	96.77
266.516	117.25
266.732	6.66
266.948	55.81
267.164	59.9
267.38	55.81
267.596	43.52
267.812	98.81
268.028	68.09
268.244	-3.58
268.46	27.14
268.676	35.33
268.892	41.47
269.108	31.23
269.324	8.7
269.54	70.14
269.756	25.09
269.972	-17.92
270.188	12.8
270.403	-36.35
270.619	90.62
270.835	6.66
271.051	78.33
271.267	35.33
271.483	57.86
271.698	92.67
271.914	76.29
272.13	0.51
272.346	76.29
272.562	43.52
272.777	76.29
272.993	74.24
273.209	74.24
273.425	27.14
273.64	86.53
273.856	-3.58
274.072	49.66
274.287	117.25
274.503	76.29
274.719	45.57
274.934	-9.73
275.15	80.38
275.366	90.62
275.581	78.33
275.797	49.66
276.012	16.9
276.228	80.38
276.444	82.43
276.659	55.81
276.875	59.9
277.09	41.47
277.306	37.38
277.521	-19.97
277.737	72.19
277.952	47.62
278.168	0.51
278.383	66.05
278.599	82.43
278.814	61.95
279.03	80.38
279.245	61.95
279.461	6.66
279.676	74.24
279.892	-11.78
280.107	-30.21
280.322	0.51
280.538	55.81
280.753	92.67
280.969	64
281.184	39.42
281.399	70.14
281.615	53.76
281.83	43.52
282.045	55.81
282.26	29.18
282.476	45.57
282.691	88.57
282.906	80.38
283.122	68.09
283.337	-7.68
283.552	53.76
283.767	-1.54
283.983	86.53
284.198	10.75
284.413	68.09
284.628	94.72
284.843	29.18
285.058	14.85
285.274	47.62
285.489	27.14
285.704	147.97
285.919	49.66
286.134	4.61
286.349	4.61
286.564	86.53
286.779	33.28
286.995	23.04
287.21	61.95
287.425	72.19
287.64	53.76
287.855	53.76
288.07	25.09
288.285	47.62
288.5	14.85
288.715	76.29
288.93	57.86
289.145	68.09
289.36	59.9
289.575	-11.78
289.79	61.95
290.004	57.86
290.219	119.29
290.434	31.23
290.649	66.05
290.864	98.81
291.079	-15.87
291.294	92.67
291.509	47.62
291.724	80.38
291.938	119.29
292.153	35.33
292.368	10.75
292.583	86.53
292.798	10.75
293.012	76.29
293.227	33.28
293.442	51.71
293.657	20.99
293.871	57.86
294.086	29.18
294.301	23.04
294.516	43.52
294.73	80.38
294.945	82.43
295.16	94.72
295.374	51.71
295.589	66.05
295.804	92.67
296.018	57.86
296.233	78.33
296.447	74.24
296.662	35.33
296.877	55.81
297.091	2.56
297.306	53.76
297.52	72.19
297.735	49.66
297.949	20.99
298.164	-22.02
298.378	61.95
298.593	47.62
298.807	6.66
299.022	61.95
299.236	55.81
299.451	57.86
299.665	35.33
299.88	55.81
300.094	43.52
300.309	16.9
300.523	41.47
300.737	6.66
300.952	14.85
301.166	64
301.381	6.66
301.595	45.57
301.809	18.94
302.024	27.14
302.238	59.9
302.452	64
302.667	51.71
302.881	80.38
303.095	55.81
303.309	10.75
303.524	29.18
303.738	8.7
303.952	70.14
304.166	-11.78
304.381	27.14
304.595	104.96
304.809	72.19
305.023	55.81
305.237	37.38
305.452	61.95
305.666	51.71
305.88	33.28
306.094	45.57
306.308	57.86
306.522	78.33
306.736	47.62
306.95	31.23
307.164	18.94
307.379	47.62
307.593	35.33
307.807	92.67
308.021	88.57
308.235	92.67
308.449	4.61
308.663	57.86
308.877	37.38
309.091	35.33
309.305	66.05
309.519	55.81
309.733	133.63
309.947	23.04
310.161	94.72
310.374	51.71
310.588	61.95
310.802	147.97
311.016	37.38
311.23	59.9
311.444	37.38
311.658	64
311.872	74.24
312.085	25.09
312.299	53.76
312.513	74.24
312.727	109.05
312.941	37.38
313.154	137.73
313.368	-9.73
313.582	57.86
313.796	80.38
314.009	64
314.223	53.76
314.437	80.38
314.651	35.33
314.864	80.38
315.078	47.62
315.292	61.95
315.505	82.43
315.719	104.96
315.933	64
316.146	64
316.36	51.71
316.573	57.86
316.787	31.23
317.001	-15.87
317.214	84.48
317.428	39.42
317.641	23.04
317.855	72.19
318.068	45.57
318.282	78.33
318.495	47.62
318.709	74.24
318.922	16.9
319.136	64
319.349	23.04
319.563	35.33
319.776	66.05
319.99	0.51
320.203	31.23
320.417	43.52
320.63	55.81
320.843	90.62
321.057	98.81
321.27	55.81
321.483	88.57
321.697	49.66
321.91	100.86
322.124	23.04
322.337	47.62
322.55	53.76
322.763	47.62
322.977	47.62
323.19	43.52
323.403	6.66
323.617	23.04
323.83	76.29
324.043	12.8
324.256	57.86
324.469	-11.78
324.683	98.81
324.896	23.04
325.109	115.2
325.322	-19.97
325.535	37.38
325.748	49.66
325.962	16.9
326.175	72.19
326.388	115.2
326.601	-22.02
326.814	20.99
327.027	82.43
327.24	92.67
327.453	53.76
327.666	31.23
327.879	111.1
328.092	14.85
328.305	23.04
328.518	104.96
328.731	0.51
328.944	57.86
329.157	53.76
329.37	80.38
329.583	43.52
329.796	96.77
330.009	-7.68
330.222	33.28
330.435	25.09
330.648	88.57
330.861	39.42
331.073	100.86
331.286	82.43
331.499	2.56
331.712	45.57
331.925	41.47
332.138	49.66
332.35	68.09
332.563	43.52
332.776	43.52
332.989	37.38
333.202	84.48
333.414	53.76
333.627	39.42
333.84	45.57
334.053	33.28
334.265	18.94
334.478	23.04
334.691	-1.54
334.903	55.81
335.116	14.85
335.329	84.48
335.541	37.38
335.754	51.71
335.966	45.57
336.179	74.24
336.392	39.42
336.604	88.57
336.817	35.33
337.029	43.52
337.242	68.09
337.454	82.43
337.667	25.09
337.88	8.7
338.092	51.71
338.305	4.61
338.517	27.14
338.729	82.43
338.942	18.94
339.154	23.04
339.367	64
339.579	123.39
339.792	66.05
340.004	16.9
340.217	82.43
340.429	39.42
340.641	12.8
340.854	0.51
341.066	41.47
341.278	39.42
341.491	88.57
341.703	55.81
341.915	55.81
342.128	20.99
342.34	127.49
342.552	61.95
342.764	33.28
342.977	47.62
343.189	-13.82
343.401	47.62
343.613	64
343.826	53.76
344.038	53.76
344.25	31.23
344.462	49.66
344.674	43.52
344.886	64
345.099	37.38
345.311	47.62
345.523	49.66
345.735	31.23
345.947	45.57
346.159	117.25
346.371	10.75
346.583	51.71
346.795	72.19
347.007	33.28
347.219	117.25
347.431	37.38
347.643	57.86
347.855	35.33
348.067	12.8
348.279	80.38
348.491	61.95
348.703	88.57
348.915	37.38
349.127	96.77
349.339	121.34
349.551	55.81
349.763	35.33
349.975	47.62
350.187	59.9
350.399	96.77
350.61	45.57
350.822	47.62
351.034	80.38
351.246	39.42
351.458	51.71
351.669	47.62
351.881	-42.5
352.093	88.57
352.305	49.66
352.517	-1.54
352.728	80.38
352.94	61.95
353.152	8.7
353.363	-40.45
353.575	35.33
353.787	23.04
353.999	-36.35
354.21	57.86
354.422	78.33
354.633	70.14
354.845	45.57
355.057	-42.5
355.268	53.76
355.48	88.57
355.692	70.14
355.903	43.52
356.115	47.62
356.326	23.04
356.538	117.25
356.749	33.28
356.961	39.42
357.172	31.23
357.384	-11.78
357.595	47.62
357.807	8.7
358.018	94.72
358.23	-13.82
358.441	43.52
358.653	20.99
358.864	66.05
359.075	43.52
359.287	-3.58
359.498	123.39
359.709	78.33
359.921	25.09
360.132	96.77
360.344	100.86
360.555	43.52
360.766	51.71
360.977	102.91
361.189	49.66
361.4	0.51
361.611	39.42
361.823	156.16
362.034	25.09
362.245	84.48
362.456	104.96
362.667	61.95
362.879	117.25
363.09	6.66
363.301	107.01
363.512	55.81
363.723	90.62
363.935	125.44
364.146	64
364.357	41.47
364.568	51.71
364.779	43.52
364.99	10.75
365.201	18.94
365.412	53.76
365.623	4.61
365.834	57.86
366.045	37.38
366.256	64
366.467	88.57
366.678	6.66
366.889	86.53
367.1	47.62
367.311	55.81
367.522	53.76
367.733	119.29
367.944	55.81
368.155	86.53
368.366	57.86
368.577	115.2
368.788	10.75
368.999	86.53
369.209	68.09
369.42	98.81
369.631	113.15
369.842	55.81
370.053	14.85
370.264	18.94
370.474	158.21
370.685	61.95
370.896	139.77
371.107	131.58
371.317	98.81
371.528	53.76
371.739	49.66
371.95	25.09
372.16	80.38
372.371	41.47
372.582	10.75
372.792	43.52
373.003	47.62
373.214	64
373.424	82.43
373.635	14.85
373.846	104.96
374.056	41.47
374.267	43.52
374.477	117.25
374.688	0.51
374.898	41.47
375.109	88.57
375.319	-1.54
375.53	55.81
375.74	45.57
375.951	80.38
376.161	37.38
376.372	100.86
376.582	70.14
376.793	111.1
377.003	59.9
377.214	111.1
377.424	70.14
377.635	64
377.845	29.18
378.055	47.62
378.266	72.19
378.476	68.09
378.686	74.24
378.897	33.28
379.107	78.33
379.317	80.38
379.528	45.57
379.738	82.43
379.948	37.38
380.158	47.62
380.369	107.01
380.579	51.71
380.789	6.66
380.999	64
381.21	33.28
381.42	127.49
381.63	51.71
381.84	109.05
382.05	53.76
382.261	113.15
382.471	-9.73
382.681	115.2
382.891	76.29
383.101	86.53
383.311	72.19
383.521	25.09
383.731	72.19
383.941	94.72
384.151	100.86
384.361	8.7
384.571	96.77
384.781	86.53
384.991	31.23
385.201	35.33
385.411	49.66
385.621	61.95
385.831	55.81
386.041	127.49
386.251	150.01
386.461	78.33
386.671	84.48
386.881	25.09
387.091	47.62
387.301	111.1
387.511	23.04
387.72	115.2
387.93	84.48
388.14	51.71
388.35	45.57
388.56	49.66
388.769	45.57
388.979	8.7
389.189	12.8
389.399	96.77
389.609	139.77
389.818	51.71
390.028	98.81
390.238	72.19
390.447	51.71
390.657	141.82
390.867	0.51
391.076	84.48
391.286	201.21
391.496	51.71
391.705	88.57
391.915	113.15
392.125	57.86
392.334	61.95
392.544	68.09
392.753	86.53
392.963	55.81
393.172	39.42
393.382	37.38
393.591	27.14
393.801	96.77
394.01	57.86
394.22	104.96
394.429	88.57
394.639	27.14
394.848	66.05
395.058	127.49
395.267	137.73
395.477	117.25
395.686	59.9
395.895	107.01
396.105	147.97
396.314	45.57
396.524	51.71
396.733	94.72
396.942	64
397.152	49.66
397.361	90.62
397.57	16.9
397.78	90.62
397.989	107.01
398.198	160.25
398.407	76.29
398.617	137.73
398.826	109.05
399.035	104.96
399.244	57.86
399.453	84.48
399.663	111.1
399.872	41.47
400.081	135.68
400.29	137.73
400.499	121.34
400.708	156.16
400.917	131.58
401.127	55.81
401.336	92.67
401.545	135.68
401.754	74.24
401.963	117.25
402.172	86.53
402.381	147.97
402.59	104.96
402.799	109.05
403.008	82.43
403.217	123.39
403.426	125.44
403.635	123.39
403.844	176.64
404.053	84.48
404.262	143.87
404.471	164.35
404.68	135.68
404.888	244.22
405.097	123.39
405.306	102.91
405.515	158.21
405.724	123.39
405.933	156.16
406.142	127.49
406.35	178.69
406.559	150.01
406.768	201.21
406.977	203.26
407.185	168.45
407.394	205.31
407.603	143.87
407.812	190.97
408.02	170.49
408.229	180.73
408.438	172.54
408.646	236.03
408.855	223.74
409.064	229.88
409.272	164.35
409.481	231.93
409.69	197.12
409.898	205.31
410.107	211.45
410.315	233.98
410.524	215.55
410.733	276.99
410.941	297.47
411.15	248.32
411.358	322.04
411.567	262.65
411.775	313.85
411.984	293.37
412.192	285.18
412.401	295.42
412.609	328.19
412.818	338.43
413.026	330.23
413.234	389.63
413.443	389.63
413.651	301.56
413.86	420.35
414.068	426.49
414.276	449.02
414.485	373.24
414.693	414.2
414.901	393.72
415.11	422.39
415.318	436.73
415.526	496.12
415.734	549.37
415.943	506.36
416.151	582.14
416.359	563.7
416.567	608.76
416.776	553.46
416.984	635.38
417.192	664.05
417.4	723.44
417.608	616.95
417.817	619
418.025	782.84
418.233	727.54
418.441	719.35
418.649	748.02
418.857	793.08
419.065	831.99
419.273	893.43
419.481	778.74
419.689	901.62
419.897	975.35
420.105	965.11
420.313	940.53
420.521	1055.22
420.729	1106.42
420.937	1120.75
421.145	1202.67
421.353	1266.16
421.561	1282.54
421.769	1255.92
421.977	1305.07
422.185	1319.4
422.393	1376.75
422.601	1448.43
422.809	1516.01
423.017	1399.27
423.224	1538.54
423.432	1548.78
423.64	1505.77
423.848	1796.58
424.056	1757.67
424.263	1890.79
424.471	1948.13
424.679	1923.55
424.887	2007.52
425.094	2087.39
425.302	1995.23
425.51	2034.14
425.718	2257.37
425.925	2179.55
426.133	2232.8
426.341	2445.79
426.548	2574.81
426.756	2574.81
426.964	2593.24
427.171	2738.65
427.379	2724.31
427.586	2779.61
427.794	2931.16
428.001	3119.57
428.209	3207.63
428.417	3162.58
428.624	3269.07
428.832	3383.76
429.039	3260.88
429.247	3412.43
429.454	3606.98
429.662	3819.97
429.869	3652.04
430.076	3899.84
430.284	3733.96
430.491	4067.78
430.699	4233.66
430.906	4192.7
431.114	4231.62
431.321	4522.43
431.528	4600.25
431.736	4770.23
431.943	4803
432.15	4817.33
432.358	4788.66
432.565	5130.67
432.772	5112.24
432.979	5288.37
433.187	5423.53
433.394	5505.45
433.601	5706.15
433.808	5851.56
434.016	5749.16
434.223	5974.44
434.43	6416.8
434.637	6248.86
434.844	6590.88
435.052	6758.81
435.259	6715.8
435.466	6863.26
435.673	6754.71
435.88	7256.47
436.087	7731.59
436.294	7651.72
436.501	7342.48
436.708	7633.29
436.915	7790.99
437.122	8245.63
437.329	8434.05
437.537	8618.36
437.743	8737.15
437.95	8448.38
438.157	8958.33
438.364	9216.37
438.571	9306.48
438.778	9261.43
438.985	10146.15
439.192	9953.64
439.399	9976.17
439.606	9695.6
439.813	10447.2
440.02	11022.68
440.227	10918.23
440.433	10672.48
440.64	11315.54
440.847	11084.12
441.054	11209.04
441.261	12026.18
441.467	11952.46
441.674	12011.85
441.881	12493.12
442.088	12398.91
442.294	12550.46
442.501	12785.98
442.708	12845.37
442.914	13386.04
443.121	13881.64
443.328	13957.42
443.534	14620.96
443.741	14272.81
443.948	14008.62
444.154	15079.71
444.361	14944.54
444.568	15026.46
444.774	14917.92
444.981	15268.12
445.187	15593.75
445.394	16455.94
445.6	16357.64
445.807	17727.73
446.013	16756.99
446.22	17234.17
446.426	17971.44
446.633	17772.78
446.839	18581.73
447.046	17572.08
447.252	18772.19
447.459	18845.92
447.665	18684.13
447.871	19710.16
448.078	20334.79
448.284	19581.14
448.491	20109.52
448.697	20758.72
448.903	21010.62
449.11	21643.45
449.316	20779.2
449.522	21188.8
449.728	21512.38
449.935	22007.98
450.141	21821.62
450.347	22511.78
450.553	21805.24
450.76	22145.2
450.966	22565.03
451.172	22429.87
451.378	22954.15
451.584	22440.11
451.791	22773.92
451.997	22692.01
452.203	23330.97
452.409	23187.61
452.615	22876.32
452.821	22208.69
453.027	21956.78
453.233	23224.48
453.44	21893.3
453.646	22489.26
453.852	22487.21
454.058	22698.15
454.264	22102.19
454.47	22413.48
454.676	21735.6
454.882	22730.92
455.088	20660.42
455.294	20658.37
455.5	21047.49
455.705	21366.97
455.911	20187.34
456.117	20082.89
456.323	20091.09
456.529	18575.59
456.735	19538.13
456.941	18897.12
457.147	18499.81
457.352	18106.6
457.558	17985.77
457.764	18374.89
457.97	17555.7
458.176	17484.02
458.381	17070.33
458.587	16216.33
458.793	16341.25
458.999	15282.45
459.204	16529.67
459.41	16320.77
459.616	15128.86
459.821	15079.71
460.027	14958.88
460.233	14577.95
460.438	13809.97
460.644	14252.33
460.85	13343.03
461.055	13263.16
461.261	13412.66
461.466	12388.67
461.672	11784.52
461.878	12659.01
462.083	11886.92
462.289	11714.89
462.494	11743.56
462.7	11133.27
462.905	10838.36
463.111	11051.35
463.316	11217.24
463.522	11112.79
463.727	11043.16
463.932	11030.87
464.138	10826.07
464.343	11247.96
464.549	10785.12
464.754	10985.82
464.959	10830.17
465.165	10715.48
465.37	10582.37
465.575	10142.05
465.781	10582.37
465.986	10768.73
466.191	10131.81
466.397	9970.02
466.602	9574.77
466.807	9789.8
467.012	9976.17
467.218	9972.07
467.423	9828.71
467.628	9873.77
467.833	10226.02
468.038	9806.19
468.244	9625.97
468.449	9808.23
468.654	9519.47
468.859	9564.53
469.064	9574.77
469.269	8972.66
