Data from USB4F104151__106__13-54-49-828.txt Node

Date: Thu Mar 13 13:54:49 EDT 2025
User: louis
Spectrometer: USB4F10415
Trigger mode: 4
Integration Time (sec): 1.000000E-2
Scans to average: 1
Electric dark correction enabled: true
Nonlinearity correction enabled: false
Boxcar width: 0
XAxis mode: Wavelengths
Number of Pixels in Spectrum: 3648
>>>>>Begin Spectral Data<<<<<
178.204	74.92
178.424	74.92
178.644	74.92
178.864	17.58
179.084	9.39
179.304	11.43
179.524	19.63
179.744	1.19
179.964	27.82
180.184	-4.95
180.404	50.35
180.624	-41.81
180.844	33.96
181.064	-27.48
181.283	5.29
181.503	9.39
181.723	-84.82
181.943	60.59
182.163	72.87
182.383	3.24
182.602	85.16
182.822	117.93
183.042	36.01
183.262	36.01
183.482	46.25
183.701	58.54
183.921	44.2
184.141	25.77
184.361	25.77
184.58	64.68
184.8	21.67
185.02	83.11
185.239	-0.85
185.459	-19.29
185.679	70.83
185.898	36.01
186.118	-21.33
186.338	-29.52
186.557	68.78
186.777	72.87
186.997	38.06
187.216	52.39
187.436	66.73
187.655	60.59
187.875	72.87
188.095	38.06
188.314	19.63
188.534	42.15
188.753	23.72
188.973	25.77
189.192	29.87
189.412	140.46
189.631	13.48
189.851	103.59
190.07	81.07
190.29	38.06
190.509	-0.85
190.729	-31.57
190.948	36.01
191.168	17.58
191.387	52.39
191.607	25.77
191.826	9.39
192.045	62.63
192.265	58.54
192.484	113.83
192.704	1.19
192.923	52.39
193.142	17.58
193.362	25.77
193.581	68.78
193.8	64.68
194.02	25.77
194.239	17.58
194.458	54.44
194.678	27.82
194.897	21.67
195.116	15.53
195.335	-25.43
195.555	1.19
195.774	60.59
195.993	76.97
196.212	105.64
196.432	72.87
196.651	36.01
196.87	33.96
197.089	50.35
197.308	-7
197.528	-54.1
197.747	3.24
197.966	52.39
198.185	60.59
198.404	66.73
198.623	-39.76
198.842	60.59
199.062	44.2
199.281	17.58
199.5	27.82
199.719	60.59
199.938	13.48
200.157	48.3
200.376	42.15
200.595	17.58
200.814	1.19
201.033	74.92
201.252	1.19
201.471	46.25
201.69	58.54
201.909	109.74
202.128	38.06
202.347	38.06
202.566	101.55
202.785	15.53
203.004	3.24
203.223	29.87
203.442	25.77
203.661	93.35
203.879	-15.19
204.098	83.11
204.317	83.11
204.536	11.43
204.755	29.87
204.974	15.53
205.193	42.15
205.411	62.63
205.63	25.77
205.849	13.48
206.068	74.92
206.287	29.87
206.505	54.44
206.724	46.25
206.943	85.16
207.162	50.35
207.381	66.73
207.599	9.39
207.818	5.29
208.037	-41.81
208.255	44.2
208.474	36.01
208.693	38.06
208.911	-7
209.13	58.54
209.349	3.24
209.567	62.63
209.786	44.2
210.005	46.25
210.223	40.11
210.442	-19.29
210.661	-0.85
210.879	7.34
211.098	93.35
211.316	54.44
211.535	15.53
211.753	91.31
211.972	19.63
212.191	7.34
212.409	11.43
212.628	101.55
212.846	-23.38
213.065	21.67
213.283	72.87
213.502	74.92
213.72	-2.9
213.938	-31.57
214.157	50.35
214.375	70.83
214.594	42.15
214.812	72.87
215.031	25.77
215.249	50.35
215.467	66.73
215.686	1.19
215.904	62.63
216.122	11.43
216.341	68.78
216.559	81.07
216.778	42.15
216.996	115.88
217.214	70.83
217.432	60.59
217.651	44.2
217.869	48.3
218.087	44.2
218.306	40.11
218.524	33.96
218.742	46.25
218.96	-17.24
219.179	93.35
219.397	99.5
219.615	58.54
219.833	13.48
220.051	83.11
220.27	60.59
220.488	29.87
220.706	7.34
220.924	58.54
221.142	68.78
221.36	31.91
221.578	-9.05
221.796	33.96
222.015	13.48
222.233	19.63
222.451	52.39
222.669	5.29
222.887	-4.95
223.105	-80.72
223.323	93.35
223.541	25.77
223.759	95.4
223.977	42.15
224.195	40.11
224.413	15.53
224.631	58.54
224.849	54.44
225.067	76.97
225.285	7.34
225.503	74.92
225.721	23.72
225.939	76.97
226.157	58.54
226.375	85.16
226.592	21.67
226.81	87.21
227.028	44.2
227.246	44.2
227.464	70.83
227.682	27.82
227.9	38.06
228.117	-31.57
228.335	74.92
228.553	58.54
228.771	31.91
228.989	76.97
229.206	74.92
229.424	-17.24
229.642	-54.1
229.86	17.58
230.077	79.02
230.295	83.11
230.513	62.63
230.731	72.87
230.948	15.53
231.166	97.45
231.384	23.72
231.601	19.63
231.819	-9.05
232.037	23.72
232.254	-27.48
232.472	40.11
232.689	46.25
232.907	17.58
233.125	-17.24
233.342	56.49
233.56	5.29
233.777	89.26
233.995	11.43
234.213	38.06
234.43	54.44
234.648	7.34
234.865	-2.9
235.083	5.29
235.3	70.83
235.518	79.02
235.735	5.29
235.953	81.07
236.17	52.39
236.388	72.87
236.605	87.21
236.822	62.63
237.04	46.25
237.257	56.49
237.475	13.48
237.692	31.91
237.909	130.22
238.127	1.19
238.344	1.19
238.562	81.07
238.779	-0.85
238.996	23.72
239.214	72.87
239.431	58.54
239.648	-15.19
239.865	21.67
240.083	23.72
240.3	46.25
240.517	11.43
240.735	46.25
240.952	93.35
241.169	-2.9
241.386	48.3
241.603	17.58
241.821	23.72
242.038	42.15
242.255	79.02
242.472	13.48
242.689	62.63
242.907	31.91
243.124	19.63
243.341	17.58
243.558	72.87
243.775	74.92
243.992	50.35
244.209	23.72
244.426	68.78
244.643	33.96
244.86	46.25
245.078	40.11
245.295	40.11
245.512	58.54
245.729	105.64
245.946	56.49
246.163	40.11
246.38	97.45
246.597	50.35
246.814	36.01
247.031	122.02
247.248	56.49
247.464	-7
247.681	40.11
247.898	95.4
248.115	105.64
248.332	7.34
248.549	107.69
248.766	33.96
248.983	31.91
249.2	-9.05
249.417	11.43
249.633	23.72
249.85	15.53
250.067	134.31
250.284	23.72
250.501	119.98
250.717	91.31
250.934	58.54
251.151	36.01
251.368	7.34
251.585	5.29
251.801	13.48
252.018	42.15
252.235	48.3
252.451	52.39
252.668	31.91
252.885	-9.05
253.102	48.3
253.318	-0.85
253.535	5.29
253.752	40.11
253.968	60.59
254.185	21.67
254.401	62.63
254.618	21.67
254.835	15.53
255.051	58.54
255.268	21.67
255.484	85.16
255.701	25.77
255.917	113.83
256.134	74.92
256.351	-11.09
256.567	74.92
256.784	19.63
257	48.3
257.217	3.24
257.433	44.2
257.65	-0.85
257.866	58.54
258.082	72.87
258.299	64.68
258.515	40.11
258.732	95.4
258.948	40.11
259.165	21.67
259.381	-9.05
259.597	52.39
259.814	66.73
260.03	-13.14
260.246	105.64
260.463	56.49
260.679	33.96
260.895	54.44
261.112	48.3
261.328	29.87
261.544	31.91
261.761	46.25
261.977	-4.95
262.193	46.25
262.409	-0.85
262.626	11.43
262.842	3.24
263.058	66.73
263.274	76.97
263.49	21.67
263.707	-13.14
263.923	38.06
264.139	21.67
264.355	-25.43
264.571	64.68
264.787	19.63
265.004	48.3
265.22	-4.95
265.436	109.74
265.652	1.19
265.868	60.59
266.084	50.35
266.3	40.11
266.516	54.44
266.732	13.48
266.948	-7
267.164	48.3
267.38	-43.86
267.596	-4.95
267.812	64.68
268.028	58.54
268.244	60.59
268.46	29.87
268.676	23.72
268.892	29.87
269.108	58.54
269.324	44.2
269.54	83.11
269.756	-0.85
269.972	-33.62
270.188	36.01
270.403	15.53
270.619	-17.24
270.835	33.96
271.051	72.87
271.267	52.39
271.483	74.92
271.698	11.43
271.914	74.92
272.13	66.73
272.346	9.39
272.562	17.58
272.777	42.15
272.993	70.83
273.209	25.77
273.425	62.63
273.64	11.43
273.856	50.35
274.072	89.26
274.287	-2.9
274.503	7.34
274.719	-15.19
274.934	-39.76
275.15	9.39
275.366	74.92
275.581	44.2
275.797	19.63
276.012	23.72
276.228	97.45
276.444	64.68
276.659	40.11
276.875	38.06
277.09	21.67
277.306	19.63
277.521	79.02
277.737	76.97
277.952	70.83
278.168	81.07
278.383	42.15
278.599	-11.09
278.814	72.87
279.03	54.44
279.245	21.67
279.461	-52.05
279.676	52.39
279.892	58.54
280.107	85.16
280.322	9.39
280.538	72.87
280.753	-17.24
280.969	58.54
281.184	-15.19
281.399	9.39
281.615	79.02
281.83	60.59
282.045	9.39
282.26	-19.29
282.476	50.35
282.691	-7
282.906	56.49
283.122	50.35
283.337	87.21
283.552	89.26
283.767	23.72
283.983	50.35
284.198	74.92
284.413	42.15
284.628	-4.95
284.843	42.15
285.058	44.2
285.274	48.3
285.489	23.72
285.704	36.01
285.919	87.21
286.134	21.67
286.349	-23.38
286.564	64.68
286.779	-13.14
286.995	58.54
287.21	21.67
287.425	3.24
287.64	60.59
287.855	87.21
288.07	5.29
288.285	29.87
288.5	48.3
288.715	58.54
288.93	62.63
289.145	31.91
289.36	11.43
289.575	62.63
289.79	58.54
290.004	7.34
290.219	46.25
290.434	70.83
290.649	72.87
290.864	21.67
291.079	-0.85
291.294	66.73
291.509	15.53
291.724	85.16
291.938	79.02
292.153	93.35
292.368	81.07
292.583	107.69
292.798	44.2
293.012	27.82
293.227	85.16
293.442	-7
293.657	13.48
293.871	107.69
294.086	109.74
294.301	83.11
294.516	3.24
294.73	44.2
294.945	21.67
295.16	17.58
295.374	25.77
295.589	21.67
295.804	9.39
296.018	91.31
296.233	42.15
296.447	42.15
296.662	85.16
296.877	79.02
297.091	62.63
297.306	72.87
297.52	-0.85
297.735	46.25
297.949	7.34
298.164	-4.95
298.378	-2.9
298.593	44.2
298.807	-72.53
299.022	23.72
299.236	21.67
299.451	56.49
299.665	29.87
299.88	-41.81
300.094	99.5
300.309	-13.14
300.523	105.64
300.737	58.54
300.952	70.83
301.166	126.12
301.381	74.92
301.595	38.06
301.809	79.02
302.024	-33.62
302.238	38.06
302.452	64.68
302.667	56.49
302.881	66.73
303.095	68.78
303.309	19.63
303.524	15.53
303.738	13.48
303.952	21.67
304.166	68.78
304.381	46.25
304.595	89.26
304.809	27.82
305.023	11.43
305.237	9.39
305.452	-7
305.666	70.83
305.88	17.58
306.094	122.02
306.308	42.15
306.522	7.34
306.736	-25.43
306.95	50.35
307.164	48.3
307.379	72.87
307.593	83.11
307.807	5.29
308.021	76.97
308.235	-7
308.449	107.69
308.663	58.54
308.877	152.74
309.091	87.21
309.305	33.96
309.519	-43.86
309.733	105.64
309.947	56.49
310.161	128.17
310.374	-29.52
310.588	128.17
310.802	7.34
311.016	-39.76
311.23	25.77
311.444	27.82
311.658	40.11
311.872	89.26
312.085	81.07
312.299	76.97
312.513	142.5
312.727	19.63
312.941	5.29
313.154	31.91
313.368	-43.86
313.582	93.35
313.796	134.31
314.009	105.64
314.223	70.83
314.437	117.93
314.651	13.48
314.864	23.72
315.078	124.07
315.292	56.49
315.505	64.68
315.719	-11.09
315.933	15.53
316.146	81.07
316.36	117.93
316.573	101.55
316.787	64.68
317.001	76.97
317.214	25.77
317.428	40.11
317.641	-31.57
317.855	44.2
318.068	66.73
318.282	33.96
318.495	40.11
318.709	66.73
318.922	-11.09
319.136	85.16
319.349	33.96
319.563	31.91
319.776	54.44
319.99	54.44
320.203	56.49
320.417	-33.62
320.63	89.26
320.843	68.78
321.057	33.96
321.27	103.59
321.483	40.11
321.697	21.67
321.91	81.07
322.124	76.97
322.337	-11.09
322.55	-9.05
322.763	15.53
322.977	13.48
323.19	109.74
323.403	38.06
323.617	-9.05
323.83	40.11
324.043	9.39
324.256	54.44
324.469	15.53
324.683	70.83
324.896	-27.48
325.109	54.44
325.322	-11.09
325.535	-4.95
325.748	93.35
325.962	23.72
326.175	83.11
326.388	33.96
326.601	3.24
326.814	-9.05
327.027	-13.14
327.24	89.26
327.453	23.72
327.666	50.35
327.879	66.73
328.092	68.78
328.305	19.63
328.518	56.49
328.731	11.43
328.944	1.19
329.157	87.21
329.37	25.77
329.583	74.92
329.796	97.45
330.009	-25.43
330.222	42.15
330.435	36.01
330.648	115.88
330.861	9.39
331.073	50.35
331.286	132.26
331.499	60.59
331.712	52.39
331.925	54.44
332.138	3.24
332.35	79.02
332.563	93.35
332.776	48.3
332.989	76.97
333.202	91.31
333.414	64.68
333.627	42.15
333.84	38.06
334.053	105.64
334.265	15.53
334.478	97.45
334.691	70.83
334.903	62.63
335.116	42.15
335.329	56.49
335.541	9.39
335.754	52.39
335.966	36.01
336.179	31.91
336.392	29.87
336.604	95.4
336.817	62.63
337.029	60.59
337.242	85.16
337.454	107.69
337.667	25.77
337.88	31.91
338.092	87.21
338.305	54.44
338.517	91.31
338.729	68.78
338.942	60.59
339.154	9.39
339.367	1.19
339.579	81.07
339.792	36.01
340.004	44.2
340.217	109.74
340.429	42.15
340.641	56.49
340.854	66.73
341.066	23.72
341.278	33.96
341.491	33.96
341.703	11.43
341.915	9.39
342.128	68.78
342.34	15.53
342.552	58.54
342.764	7.34
342.977	68.78
343.189	95.4
343.401	93.35
343.613	31.91
343.826	31.91
344.038	44.2
344.25	54.44
344.462	27.82
344.674	107.69
344.886	91.31
345.099	42.15
345.311	5.29
345.523	89.26
345.735	11.43
345.947	64.68
346.159	-11.09
346.371	38.06
346.583	3.24
346.795	25.77
347.007	33.96
347.219	23.72
347.431	1.19
347.643	15.53
347.855	11.43
348.067	58.54
348.279	42.15
348.491	40.11
348.703	-37.72
348.915	-39.76
349.127	79.02
349.339	85.16
349.551	21.67
349.763	40.11
349.975	76.97
350.187	95.4
350.399	38.06
350.61	99.5
350.822	15.53
351.034	87.21
351.246	23.72
351.458	113.83
351.669	27.82
351.881	103.59
352.093	33.96
352.305	68.78
352.517	70.83
352.728	62.63
352.94	27.82
353.152	50.35
353.363	60.59
353.575	93.35
353.787	132.26
353.999	72.87
354.21	44.2
354.422	81.07
354.633	19.63
354.845	38.06
355.057	11.43
355.268	66.73
355.48	79.02
355.692	5.29
355.903	40.11
356.115	134.31
356.326	85.16
356.538	113.83
356.749	54.44
356.961	33.96
357.172	21.67
357.384	44.2
357.595	76.97
357.807	81.07
358.018	38.06
358.23	21.67
358.441	70.83
358.653	72.87
358.864	29.87
359.075	97.45
359.287	97.45
359.498	83.11
359.709	62.63
359.921	50.35
360.132	68.78
360.344	50.35
360.555	23.72
360.766	48.3
360.977	64.68
361.189	48.3
361.4	50.35
361.611	50.35
361.823	124.07
362.034	124.07
362.245	33.96
362.456	33.96
362.667	31.91
362.879	-7
363.09	81.07
363.301	-0.85
363.512	46.25
363.723	50.35
363.935	60.59
364.146	19.63
364.357	21.67
364.568	50.35
364.779	58.54
364.99	33.96
365.201	56.49
365.412	134.31
365.623	66.73
365.834	40.11
366.045	50.35
366.256	109.74
366.467	83.11
366.678	31.91
366.889	23.72
367.1	36.01
367.311	64.68
367.522	66.73
367.733	42.15
367.944	17.58
368.155	97.45
368.366	40.11
368.577	56.49
368.788	85.16
368.999	-35.67
369.209	36.01
369.42	138.41
369.631	119.98
369.842	-17.24
370.053	66.73
370.264	111.78
370.474	27.82
370.685	105.64
370.896	21.67
371.107	74.92
371.317	146.6
371.528	48.3
371.739	89.26
371.95	87.21
372.16	128.17
372.371	60.59
372.582	-7
372.792	95.4
373.003	70.83
373.214	87.21
373.424	31.91
373.635	113.83
373.846	7.34
374.056	-23.38
374.267	40.11
374.477	113.83
374.688	64.68
374.898	31.91
375.109	9.39
375.319	105.64
375.53	76.97
375.74	-17.24
375.951	11.43
376.161	5.29
376.372	111.78
376.582	66.73
376.793	140.46
377.003	48.3
377.214	87.21
377.424	42.15
377.635	66.73
377.845	-11.09
378.055	29.87
378.266	31.91
378.476	15.53
378.686	27.82
378.897	40.11
379.107	74.92
379.317	105.64
379.528	36.01
379.738	-4.95
379.948	29.87
380.158	119.98
380.369	91.31
380.579	23.72
380.789	36.01
380.999	46.25
381.21	33.96
381.42	93.35
381.63	-0.85
381.84	-9.05
382.05	87.21
382.261	107.69
382.471	124.07
382.681	122.02
382.891	76.97
383.101	44.2
383.311	56.49
383.521	124.07
383.731	42.15
383.941	48.3
384.151	54.44
384.361	119.98
384.571	27.82
384.781	68.78
384.991	46.25
385.201	-2.9
385.411	11.43
385.621	36.01
385.831	107.69
386.041	76.97
386.251	46.25
386.461	105.64
386.671	79.02
386.881	44.2
387.091	-15.19
387.301	70.83
387.511	68.78
387.72	-4.95
387.93	36.01
388.14	64.68
388.35	54.44
388.56	64.68
388.769	79.02
388.979	136.36
389.189	66.73
389.399	87.21
389.609	60.59
389.818	103.59
390.028	21.67
390.238	68.78
390.447	25.77
390.657	58.54
390.867	66.73
391.076	105.64
391.286	66.73
391.496	122.02
391.705	13.48
391.915	105.64
392.125	91.31
392.334	19.63
392.544	50.35
392.753	74.92
392.963	42.15
393.172	23.72
393.382	17.58
393.591	62.63
393.801	83.11
394.01	38.06
394.22	91.31
394.429	31.91
394.639	101.55
394.848	85.16
395.058	72.87
395.267	115.88
395.477	-37.72
395.686	103.59
395.895	83.11
396.105	130.22
396.314	122.02
396.524	29.87
396.733	27.82
396.942	160.94
397.152	15.53
397.361	-11.09
397.57	101.55
397.78	64.68
397.989	11.43
398.198	99.5
398.407	83.11
398.617	105.64
398.826	101.55
399.035	101.55
399.244	52.39
399.453	117.93
399.663	111.78
399.872	107.69
400.081	50.35
400.29	54.44
400.499	29.87
400.708	154.79
400.917	162.98
401.127	117.93
401.336	42.15
401.545	60.59
401.754	74.92
401.963	54.44
402.172	103.59
402.381	62.63
402.59	79.02
402.799	89.26
403.008	68.78
403.217	89.26
403.426	60.59
403.635	64.68
403.844	91.31
404.053	87.21
404.262	136.36
404.471	142.5
404.68	177.32
404.888	165.03
405.097	79.02
405.306	107.69
405.515	85.16
405.724	89.26
405.933	48.3
406.142	113.83
406.35	128.17
406.559	79.02
406.768	148.65
406.977	132.26
407.185	130.22
407.394	165.03
407.603	156.84
407.812	111.78
408.02	165.03
408.229	36.01
408.438	175.27
408.646	109.74
408.855	179.37
409.064	156.84
409.272	214.18
409.481	152.74
409.69	124.07
409.898	230.57
410.107	197.8
410.315	251.05
410.524	201.9
410.733	212.14
410.941	171.18
411.15	292.01
411.358	212.14
411.567	269.48
411.775	230.57
411.984	244.9
412.192	273.57
412.401	306.34
412.609	335.01
412.818	324.77
413.026	302.25
413.234	267.43
413.443	267.43
413.651	292.01
413.86	404.64
414.068	328.87
414.276	369.83
414.485	406.69
414.693	363.69
414.901	418.98
415.11	394.4
415.318	359.59
415.526	414.88
415.734	468.13
415.943	375.97
416.151	525.47
416.359	511.14
416.567	453.8
416.776	488.61
416.984	543.91
417.192	595.11
417.4	543.91
417.608	591.01
417.817	652.45
418.025	611.49
418.233	760.99
418.441	580.77
418.649	650.4
418.857	717.98
419.065	742.56
419.273	709.79
419.481	740.51
419.689	787.61
419.897	771.23
420.105	906.4
420.313	926.88
420.521	900.25
420.729	992.41
420.937	908.44
421.145	955.55
421.353	953.5
421.561	994.46
421.769	1100.95
421.977	1160.34
422.185	1090.71
422.393	1150.11
422.601	1160.34
422.809	1236.12
423.017	1207.45
423.224	1367.19
423.432	1324.18
423.64	1340.57
423.848	1381.53
424.056	1469.59
424.263	1522.84
424.471	1614.99
424.679	1506.45
424.887	1692.82
425.094	1852.56
425.302	1764.5
425.51	1778.83
425.718	1875.09
425.925	1942.67
426.133	1926.29
426.341	2083.98
426.548	2059.4
426.756	2217.1
426.964	2143.37
427.171	2321.54
427.379	2329.74
427.586	2448.52
427.794	2270.34
428.001	2507.91
428.209	2679.94
428.417	2569.35
428.624	2825.34
428.832	2948.22
429.039	2792.58
429.247	2772.1
429.454	3142.78
429.662	3107.96
429.869	3173.5
430.076	3243.13
430.284	3153.02
430.491	3284.09
430.699	3550.32
430.906	3472.5
431.114	3468.41
431.321	3710.07
431.528	3640.44
431.736	4004.97
431.943	4160.62
432.15	4144.24
432.358	4123.76
432.565	4326.5
432.772	4330.6
432.979	4496.49
433.187	4461.67
433.394	4664.42
433.601	4856.93
433.808	4908.13
434.016	4877.41
434.223	5266.52
434.43	5411.93
434.637	5164.12
434.844	5629.01
435.052	5733.46
435.259	5786.71
435.466	5811.28
435.673	5739.6
435.88	6005.84
436.087	6409.29
436.294	6419.53
436.501	6325.32
436.708	6390.86
436.915	6462.54
437.122	6894.66
437.329	6788.16
437.537	7042.11
437.743	7291.96
437.95	6984.77
438.157	7527.48
438.364	7656.5
438.571	7867.44
438.778	7803.96
438.985	8483.88
439.192	8045.62
439.399	8420.39
439.606	8260.65
439.813	8864.8
440.02	9192.48
440.227	9217.05
440.433	8864.8
440.64	9120.8
440.847	9075.74
441.054	9536.54
441.261	9976.85
441.467	9958.42
441.674	10003.47
441.881	10368.01
442.088	10529.8
442.294	10462.22
442.501	10722.31
442.708	10871.81
442.914	11344.89
443.121	11742.2
443.328	11369.47
443.534	12362.73
443.741	11795.45
443.948	11875.32
444.154	12588.01
444.361	12463.08
444.568	12559.34
444.774	12442.6
444.981	12835.81
445.187	13210.59
445.394	13695.96
445.6	13534.17
445.807	14838.73
446.013	14031.83
446.22	14414.8
446.426	15033.29
446.633	15018.95
446.839	15664.06
447.046	15180.74
447.252	15866.81
447.459	15735.74
447.665	15864.76
447.871	16495.53
448.078	17071.01
448.284	16591.79
448.491	16765.87
448.697	17496.99
448.903	17623.97
449.11	17851.29
449.316	17628.06
449.522	17597.34
449.728	18287.51
449.935	18633.61
450.141	18490.26
450.347	18719.63
450.553	18242.45
450.76	18629.52
450.966	19430.27
451.172	18770.83
451.378	19444.61
451.584	18973.58
451.791	19331.97
451.997	19323.78
452.203	19909.5
452.409	19608.45
452.615	19751.81
452.821	18953.1
453.027	18641.81
453.233	19671.93
453.44	18840.46
453.646	19159.94
453.852	19043.21
454.058	19508.1
454.264	18787.21
454.47	18989.96
454.676	18725.77
454.882	19311.49
455.088	17863.58
455.294	17761.18
455.5	18303.89
455.705	18359.19
455.911	17644.45
456.117	17386.4
456.323	17017.77
456.529	15948.73
456.735	16825.26
456.941	16333.75
457.147	16100.28
457.352	15451.07
457.558	15363.01
457.764	15498.17
457.97	15252.42
458.176	14926.79
458.381	14851.02
458.587	13972.44
458.793	14005.2
458.999	13319.14
459.204	14615.5
459.41	13796.31
459.616	13011.94
459.821	13216.74
460.027	13114.34
460.233	12807.14
460.438	12397.55
460.644	12452.84
460.85	11787.25
461.055	11461.63
461.261	11578.36
461.466	10806.28
461.672	10310.67
461.878	11099.14
462.083	10492.94
462.289	9987.09
462.494	10028.05
462.7	9514.01
462.905	9438.23
463.111	9843.73
463.316	9839.64
463.522	9698.33
463.727	9536.54
463.932	9561.11
464.138	9640.98
464.343	9497.63
464.549	9204.77
464.754	9493.53
464.959	9339.93
465.165	9305.12
465.37	8922.15
465.575	8932.39
465.781	9149.47
465.986	9174.05
466.191	8856.61
466.397	8690.73
466.602	8418.35
466.807	8494.12
467.012	8506.41
467.218	8506.41
467.423	8432.68
467.628	8490.03
467.833	8854.56
468.038	8459.31
468.244	8211.5
468.449	8666.15
468.654	8313.9
468.859	8141.87
469.064	8053.81
469.269	7849.01
