Data from USB4F104151__218__14-00-10-963.txt Node

Date: Thu Mar 13 14:00:10 EDT 2025
User: louis
Spectrometer: USB4F10415
Trigger mode: 4
Integration Time (sec): 1.000000E-2
Scans to average: 1
Electric dark correction enabled: true
Nonlinearity correction enabled: false
Boxcar width: 0
XAxis mode: Wavelengths
Number of Pixels in Spectrum: 3648
>>>>>Begin Spectral Data<<<<<
178.204	-38.06
178.424	-38.06
178.644	-38.06
178.864	-72.87
179.084	-7.34
179.304	29.52
179.524	9.05
179.744	-40.11
179.964	-31.91
180.184	-5.29
180.404	43.86
180.624	-48.3
180.844	-25.77
181.064	27.48
181.283	0.85
181.503	80.72
181.723	-40.11
181.943	-25.77
182.163	72.53
182.383	47.96
182.602	56.15
182.822	64.34
183.042	70.48
183.262	2.9
183.482	31.57
183.701	31.57
183.921	88.92
184.141	-7.34
184.361	33.62
184.58	23.38
184.8	66.39
185.02	-7.34
185.239	-17.58
185.459	50
185.679	-1.19
185.898	-7.34
186.118	131.92
186.338	15.19
186.557	-7.34
186.777	31.57
186.997	31.57
187.216	-23.72
187.436	82.77
187.655	17.24
187.875	86.87
188.095	-9.39
188.314	93.01
188.534	-29.87
188.753	35.67
188.973	64.34
189.192	19.29
189.412	-23.72
189.631	-68.78
189.851	-1.19
190.07	39.76
190.29	31.57
190.509	-40.11
190.729	70.48
190.948	7
191.168	70.48
191.387	-3.24
191.607	64.34
191.826	-19.63
192.045	-44.2
192.265	11.09
192.484	19.29
192.704	41.81
192.923	-19.63
193.142	41.81
193.362	-27.82
193.581	0.85
193.8	39.76
194.02	-33.96
194.239	-58.54
194.458	68.44
194.678	-15.53
194.897	-7.34
195.116	-5.29
195.335	-23.72
195.555	76.63
195.774	23.38
195.993	15.19
196.212	0.85
196.432	7
196.651	-23.72
196.87	60.24
197.089	93.01
197.308	9.05
197.528	15.19
197.747	-3.24
197.966	-9.39
198.185	17.24
198.404	7
198.623	54.1
198.842	64.34
199.062	23.38
199.281	88.92
199.5	11.09
199.719	-50.35
199.938	66.39
200.157	11.09
200.376	-38.06
200.595	72.53
200.814	21.33
201.033	27.48
201.252	-27.82
201.471	-9.39
201.69	70.48
201.909	90.96
202.128	-9.39
202.347	39.76
202.566	19.29
202.785	17.24
203.004	23.38
203.223	31.57
203.442	9.05
203.661	9.05
203.879	21.33
204.098	107.35
204.317	4.95
204.536	15.19
204.755	47.96
204.974	90.96
205.193	15.19
205.411	58.2
205.63	60.24
205.849	54.1
206.068	-46.25
206.287	80.72
206.505	39.76
206.724	31.57
206.943	43.86
207.162	39.76
207.381	-9.39
207.599	27.48
207.818	31.57
208.037	13.14
208.255	-13.48
208.474	54.1
208.693	-13.48
208.911	21.33
209.13	-7.34
209.349	80.72
209.567	35.67
209.786	37.72
210.005	-23.72
210.223	-7.34
210.442	52.05
210.661	82.77
210.879	31.57
211.098	31.57
211.316	66.39
211.535	23.38
211.753	-31.91
211.972	7
212.191	35.67
212.409	58.2
212.628	37.72
212.846	19.29
213.065	15.19
213.283	27.48
213.502	43.86
213.72	-9.39
213.938	19.29
214.157	-19.63
214.375	29.52
214.594	4.95
214.812	70.48
215.031	-13.48
215.249	-54.44
215.467	43.86
215.686	4.95
215.904	9.05
216.122	23.38
216.341	66.39
216.559	21.33
216.778	15.19
216.996	33.62
217.214	-17.58
217.432	39.76
217.651	39.76
217.869	-19.63
218.087	25.43
218.306	31.57
218.524	45.91
218.742	2.9
218.96	-3.24
219.179	-9.39
219.397	107.35
219.615	33.62
219.833	50
220.051	-17.58
220.27	117.59
220.488	39.76
220.706	19.29
220.924	0.85
221.142	15.19
221.36	-13.48
221.578	31.57
221.796	74.58
222.015	-17.58
222.233	33.62
222.451	76.63
222.669	41.81
222.887	11.09
223.105	-5.29
223.323	56.15
223.541	-9.39
223.759	35.67
223.977	-13.48
224.195	-38.06
224.413	86.87
224.631	60.24
224.849	-1.19
225.067	66.39
225.285	-7.34
225.503	99.16
225.721	-95.4
225.939	23.38
226.157	21.33
226.375	31.57
226.592	56.15
226.81	80.72
227.028	-17.58
227.246	117.59
227.464	58.2
227.682	23.38
227.9	-1.19
228.117	90.96
228.335	62.29
228.553	-11.43
228.771	-19.63
228.989	41.81
229.206	52.05
229.424	66.39
229.642	11.09
229.86	-5.29
230.077	76.63
230.295	121.68
230.513	43.86
230.731	-11.43
230.948	37.72
231.166	62.29
231.384	25.43
231.601	52.05
231.819	131.92
232.037	21.33
232.254	15.19
232.472	2.9
232.689	58.2
232.907	31.57
233.125	-15.53
233.342	50
233.56	35.67
233.777	27.48
233.995	7
234.213	60.24
234.43	50
234.648	-7.34
234.865	43.86
235.083	-17.58
235.3	2.9
235.518	39.76
235.735	56.15
235.953	15.19
236.17	35.67
236.388	15.19
236.605	25.43
236.822	74.58
237.04	56.15
237.257	-11.43
237.475	-11.43
237.692	23.38
237.909	72.53
238.127	-9.39
238.344	74.58
238.562	84.82
238.779	-13.48
238.996	-9.39
239.214	17.24
239.431	-42.15
239.648	17.24
239.865	-17.58
240.083	31.57
240.3	-5.29
240.517	90.96
240.735	15.19
240.952	76.63
241.169	29.52
241.386	50
241.603	-3.24
241.821	13.14
242.038	39.76
242.255	-29.87
242.472	52.05
242.689	97.11
242.907	88.92
243.124	27.48
243.341	76.63
243.558	43.86
243.775	43.86
243.992	15.19
244.209	72.53
244.426	31.57
244.643	13.14
244.86	-15.53
245.078	9.05
245.295	23.38
245.512	19.29
245.729	-33.96
245.946	-52.39
246.163	9.05
246.38	88.92
246.597	-11.43
246.814	43.86
247.031	60.24
247.248	109.4
247.464	52.05
247.681	52.05
247.898	-7.34
248.115	21.33
248.332	82.77
248.549	88.92
248.766	2.9
248.983	64.34
249.2	43.86
249.417	45.91
249.633	13.14
249.85	43.86
250.067	15.19
250.284	64.34
250.501	31.57
250.717	90.96
250.934	-36.01
251.151	37.72
251.368	-29.87
251.585	80.72
251.801	21.33
252.018	17.24
252.235	9.05
252.451	15.19
252.668	56.15
252.885	58.2
253.102	23.38
253.318	39.76
253.535	76.63
253.752	2.9
253.968	-21.67
254.185	-33.96
254.401	21.33
254.618	117.59
254.835	-64.68
255.051	23.38
255.268	74.58
255.484	56.15
255.701	29.52
255.917	25.43
256.134	-11.43
256.351	25.43
256.567	-21.67
256.784	80.72
257	41.81
257.217	15.19
257.433	66.39
257.65	27.48
257.866	80.72
258.082	-5.29
258.299	21.33
258.515	9.05
258.732	25.43
258.948	7
259.165	41.81
259.381	35.67
259.597	58.2
259.814	39.76
260.03	-38.06
260.246	-66.73
260.463	76.63
260.679	2.9
260.895	74.58
261.112	56.15
261.328	0.85
261.544	-9.39
261.761	84.82
261.977	58.2
262.193	-23.72
262.409	72.53
262.626	-1.19
262.842	109.4
263.058	-1.19
263.274	0.85
263.49	39.76
263.707	39.76
263.923	90.96
264.139	119.64
264.355	31.57
264.571	39.76
264.787	45.91
265.004	56.15
265.22	64.34
265.436	37.72
265.652	39.76
265.868	78.68
266.084	39.76
266.3	33.62
266.516	43.86
266.732	33.62
266.948	35.67
267.164	27.48
267.38	17.24
267.596	66.39
267.812	27.48
268.028	60.24
268.244	0.85
268.46	45.91
268.676	43.86
268.892	72.53
269.108	25.43
269.324	58.2
269.54	-15.53
269.756	43.86
269.972	72.53
270.188	50
270.403	-17.58
270.619	23.38
270.835	47.96
271.051	50
271.267	31.57
271.483	27.48
271.698	-5.29
271.914	64.34
272.13	39.76
272.346	-1.19
272.562	64.34
272.777	60.24
272.993	0.85
273.209	47.96
273.425	31.57
273.64	129.88
273.856	19.29
274.072	-33.96
274.287	31.57
274.503	129.88
274.719	31.57
274.934	11.09
275.15	50
275.366	56.15
275.581	31.57
275.797	56.15
276.012	4.95
276.228	39.76
276.444	45.91
276.659	78.68
276.875	86.87
277.09	97.11
277.306	0.85
277.521	43.86
277.737	37.72
277.952	29.52
278.168	29.52
278.383	43.86
278.599	39.76
278.814	35.67
279.03	-17.58
279.245	80.72
279.461	45.91
279.676	90.96
279.892	31.57
280.107	101.2
280.322	19.29
280.538	-9.39
280.753	117.59
280.969	56.15
281.184	-21.67
281.399	4.95
281.615	82.77
281.83	-5.29
282.045	68.44
282.26	62.29
282.476	39.76
282.691	54.1
282.906	19.29
283.122	50
283.337	66.39
283.552	107.35
283.767	88.92
283.983	0.85
284.198	17.24
284.413	25.43
284.628	-46.25
284.843	35.67
285.058	19.29
285.274	93.01
285.489	19.29
285.704	-74.92
285.919	60.24
286.134	39.76
286.349	70.48
286.564	-19.63
286.779	97.11
286.995	115.54
287.21	33.62
287.425	17.24
287.64	7
287.855	68.44
288.07	19.29
288.285	123.73
288.5	60.24
288.715	52.05
288.93	25.43
289.145	50
289.36	35.67
289.575	29.52
289.79	-3.24
290.004	41.81
290.219	17.24
290.434	58.2
290.649	-46.25
290.864	56.15
291.079	39.76
291.294	90.96
291.509	-11.43
291.724	93.01
291.938	47.96
292.153	43.86
292.368	23.38
292.583	31.57
292.798	66.39
293.012	58.2
293.227	58.2
293.442	72.53
293.657	33.62
293.871	68.44
294.086	52.05
294.301	117.59
294.516	41.81
294.73	115.54
294.945	23.38
295.16	41.81
295.374	43.86
295.589	13.14
295.804	64.34
296.018	35.67
296.233	56.15
296.447	99.16
296.662	35.67
296.877	23.38
297.091	103.25
297.306	88.92
297.52	50
297.735	23.38
297.949	-3.24
298.164	58.2
298.378	45.91
298.593	64.34
298.807	58.2
299.022	88.92
299.236	101.2
299.451	39.76
299.665	62.29
299.88	90.96
300.094	9.05
300.309	50
300.523	62.29
300.737	111.44
300.952	19.29
301.166	62.29
301.381	82.77
301.595	50
301.809	72.53
302.024	45.91
302.238	21.33
302.452	62.29
302.667	-21.67
302.881	105.3
303.095	19.29
303.309	-9.39
303.524	50
303.738	7
303.952	13.14
304.166	39.76
304.381	-52.39
304.595	47.96
304.809	2.9
305.023	-23.72
305.237	52.05
305.452	62.29
305.666	62.29
305.88	78.68
306.094	39.76
306.308	66.39
306.522	39.76
306.736	54.1
306.95	29.52
307.164	-5.29
307.379	4.95
307.593	-46.25
307.807	-3.24
308.021	90.96
308.235	50
308.449	11.09
308.663	66.39
308.877	2.9
309.091	47.96
309.305	80.72
309.519	-21.67
309.733	-3.24
309.947	13.14
310.161	-33.96
310.374	23.38
310.588	41.81
310.802	-23.72
311.016	80.72
311.23	39.76
311.444	-21.67
311.658	2.9
311.872	37.72
312.085	52.05
312.299	25.43
312.513	-42.15
312.727	66.39
312.941	60.24
313.154	37.72
313.368	25.43
313.582	72.53
313.796	58.2
314.009	50
314.223	47.96
314.437	64.34
314.651	-9.39
314.864	66.39
315.078	31.57
315.292	60.24
315.505	-42.15
315.719	86.87
315.933	47.96
316.146	-1.19
316.36	90.96
316.573	99.16
316.787	31.57
317.001	37.72
317.214	50
317.428	35.67
317.641	82.77
317.855	68.44
318.068	43.86
318.282	142.16
318.495	-33.96
318.709	99.16
318.922	0.85
319.136	93.01
319.349	162.64
319.563	47.96
319.776	72.53
319.99	21.33
320.203	-52.39
320.417	115.54
320.63	80.72
320.843	56.15
321.057	80.72
321.27	54.1
321.483	93.01
321.697	47.96
321.91	23.38
322.124	56.15
322.337	-17.58
322.55	56.15
322.763	56.15
322.977	23.38
323.19	7
323.403	58.2
323.617	-9.39
323.83	13.14
324.043	80.72
324.256	82.77
324.469	-17.58
324.683	-17.58
324.896	66.39
325.109	72.53
325.322	-17.58
325.535	21.33
325.748	13.14
325.962	64.34
326.175	72.53
326.388	41.81
326.601	2.9
326.814	52.05
327.027	60.24
327.24	19.29
327.453	76.63
327.666	-11.43
327.879	25.43
328.092	11.09
328.305	33.62
328.518	80.72
328.731	52.05
328.944	74.58
329.157	93.01
329.37	31.57
329.583	60.24
329.796	74.58
330.009	13.14
330.222	99.16
330.435	2.9
330.648	39.76
330.861	52.05
331.073	74.58
331.286	31.57
331.499	76.63
331.712	29.52
331.925	97.11
332.138	9.05
332.35	-5.29
332.563	45.91
332.776	72.53
332.989	60.24
333.202	76.63
333.414	-3.24
333.627	25.43
333.84	7
334.053	80.72
334.265	31.57
334.478	95.06
334.691	64.34
334.903	88.92
335.116	-9.39
335.329	4.95
335.541	45.91
335.754	25.43
335.966	7
336.179	109.4
336.392	23.38
336.604	27.48
336.817	80.72
337.029	15.19
337.242	43.86
337.454	50
337.667	72.53
337.88	47.96
338.092	0.85
338.305	33.62
338.517	47.96
338.729	58.2
338.942	70.48
339.154	88.92
339.367	66.39
339.579	17.24
339.792	88.92
340.004	50
340.217	19.29
340.429	72.53
340.641	-17.58
340.854	52.05
341.066	74.58
341.278	41.81
341.491	43.86
341.703	9.05
341.915	43.86
342.128	7
342.34	25.43
342.552	62.29
342.764	47.96
342.977	31.57
343.189	60.24
343.401	58.2
343.613	115.54
343.826	41.81
344.038	4.95
344.25	64.34
344.462	41.81
344.674	72.53
344.886	-1.19
345.099	39.76
345.311	78.68
345.523	50
345.735	37.72
345.947	80.72
346.159	39.76
346.371	56.15
346.583	52.05
346.795	64.34
347.007	-33.96
347.219	88.92
347.431	0.85
347.643	72.53
347.855	15.19
348.067	64.34
348.279	70.48
348.491	107.35
348.703	9.05
348.915	66.39
349.127	37.72
349.339	-36.01
349.551	27.48
349.763	43.86
349.975	39.76
350.187	47.96
350.399	99.16
350.61	101.2
350.822	56.15
351.034	43.86
351.246	37.72
351.458	-15.53
351.669	17.24
351.881	43.86
352.093	74.58
352.305	72.53
352.517	68.44
352.728	103.25
352.94	-3.24
353.152	-3.24
353.363	-5.29
353.575	74.58
353.787	140.12
353.999	33.62
354.21	68.44
354.422	52.05
354.633	29.52
354.845	60.24
355.057	37.72
355.268	76.63
355.48	52.05
355.692	86.87
355.903	86.87
356.115	60.24
356.326	50
356.538	58.2
356.749	11.09
356.961	52.05
357.172	0.85
357.384	68.44
357.595	74.58
357.807	103.25
358.018	23.38
358.23	52.05
358.441	93.01
358.653	35.67
358.864	31.57
359.075	25.43
359.287	43.86
359.498	23.38
359.709	97.11
359.921	97.11
360.132	54.1
360.344	88.92
360.555	0.85
360.766	68.44
360.977	25.43
361.189	60.24
361.4	103.25
361.611	111.44
361.823	101.2
362.034	25.43
362.245	17.24
362.456	72.53
362.667	74.58
362.879	109.4
363.09	50
363.301	99.16
363.512	76.63
363.723	25.43
363.935	76.63
364.146	90.96
364.357	86.87
364.568	82.77
364.779	2.9
364.99	-15.53
365.201	27.48
365.412	84.82
365.623	56.15
365.834	58.2
366.045	17.24
366.256	15.19
366.467	-7.34
366.678	64.34
366.889	99.16
367.1	0.85
367.311	9.05
367.522	113.49
367.733	58.2
367.944	45.91
368.155	4.95
368.366	9.05
368.577	84.82
368.788	62.29
368.999	2.9
369.209	-15.53
369.42	45.91
369.631	64.34
369.842	101.2
370.053	17.24
370.264	33.62
370.474	54.1
370.685	2.9
370.896	56.15
371.107	56.15
371.317	35.67
371.528	68.44
371.739	7
371.95	27.48
372.16	47.96
372.371	45.91
372.582	88.92
372.792	27.48
373.003	64.34
373.214	101.2
373.424	70.48
373.635	41.81
373.846	62.29
374.056	58.2
374.267	50
374.477	72.53
374.688	82.77
374.898	-19.63
375.109	13.14
375.319	121.68
375.53	131.92
375.74	52.05
375.951	103.25
376.161	111.44
376.372	43.86
376.582	72.53
376.793	2.9
377.003	-3.24
377.214	35.67
377.424	9.05
377.635	64.34
377.845	41.81
378.055	90.96
378.266	-25.77
378.476	35.67
378.686	54.1
378.897	52.05
379.107	47.96
379.317	105.3
379.528	29.52
379.738	80.72
379.948	39.76
380.158	107.35
380.369	103.25
380.579	101.2
380.789	11.09
380.999	80.72
381.21	29.52
381.42	7
381.63	2.9
381.84	56.15
382.05	41.81
382.261	123.73
382.471	25.43
382.681	80.72
382.891	15.19
383.101	80.72
383.311	88.92
383.521	50
383.731	80.72
383.941	74.58
384.151	76.63
384.361	107.35
384.571	68.44
384.781	47.96
384.991	43.86
385.201	99.16
385.411	43.86
385.621	101.2
385.831	52.05
386.041	45.91
386.251	39.76
386.461	103.25
386.671	117.59
386.881	60.24
387.091	50
387.301	39.76
387.511	21.33
387.72	31.57
387.93	86.87
388.14	90.96
388.35	62.29
388.56	105.3
388.769	45.91
388.979	23.38
389.189	37.72
389.399	88.92
389.609	113.49
389.818	129.88
390.028	72.53
390.238	156.5
390.447	39.76
390.657	43.86
390.867	19.29
391.076	76.63
391.286	56.15
391.496	66.39
391.705	17.24
391.915	119.64
392.125	121.68
392.334	74.58
392.544	41.81
392.753	78.68
392.963	168.79
393.172	76.63
393.382	41.81
393.591	123.73
393.801	58.2
394.01	107.35
394.22	52.05
394.429	84.82
394.639	33.62
394.848	82.77
395.058	117.59
395.267	131.92
395.477	45.91
395.686	152.4
395.895	140.12
396.105	123.73
396.314	54.1
396.524	95.06
396.733	72.53
396.942	176.98
397.152	125.78
397.361	74.58
397.57	70.48
397.78	66.39
397.989	121.68
398.198	136.02
398.407	66.39
398.617	150.36
398.826	31.57
399.035	68.44
399.244	88.92
399.453	136.02
399.663	93.01
399.872	99.16
400.081	144.21
400.29	113.49
400.499	99.16
400.708	121.68
400.917	70.48
401.127	101.2
401.336	82.77
401.545	166.74
401.754	103.25
401.963	185.17
402.172	140.12
402.381	174.93
402.59	136.02
402.799	62.29
403.008	150.36
403.217	107.35
403.426	117.59
403.635	109.4
403.844	121.68
404.053	115.54
404.262	209.75
404.471	138.07
404.68	127.83
404.888	195.41
405.097	246.61
405.306	176.98
405.515	181.07
405.724	179.03
405.933	164.69
406.142	179.03
406.35	117.59
406.559	176.98
406.768	183.12
406.977	201.55
407.185	215.89
407.394	230.23
407.603	228.18
407.812	308.05
408.02	236.37
408.229	197.46
408.438	260.95
408.646	283.47
408.855	248.66
409.064	219.99
409.272	228.18
409.481	291.66
409.69	318.29
409.898	301.9
410.107	342.86
410.315	398.16
410.524	308.05
410.733	330.58
410.941	359.25
411.15	420.69
411.358	355.15
411.567	389.97
411.775	340.82
411.984	449.36
412.192	455.5
412.401	480.08
412.609	473.93
412.818	506.7
413.026	529.23
413.234	541.52
413.443	545.61
413.651	551.76
413.86	527.18
414.068	678.73
414.276	605
414.485	539.47
414.693	629.58
414.901	658.25
415.11	674.64
415.318	688.97
415.526	805.71
415.734	721.74
415.943	772.94
416.151	875.34
416.359	834.38
416.567	901.96
416.776	844.62
416.984	957.25
417.192	992.07
417.4	1020.74
417.608	1053.51
417.817	1026.89
418.025	1063.75
418.233	1133.38
418.441	1073.99
418.649	1231.68
418.857	1276.74
419.065	1334.08
419.273	1315.65
419.481	1411.9
419.689	1342.27
419.897	1489.73
420.105	1575.74
420.313	1483.58
420.521	1577.79
420.729	1669.95
420.937	1628.99
421.145	1723.2
421.353	1934.14
421.561	1948.47
421.769	1958.71
421.977	2003.77
422.185	1909.56
422.393	2181.94
422.601	2288.43
422.809	2222.9
423.017	2308.91
423.224	2333.49
423.432	2407.22
423.64	2435.89
423.848	2714.41
424.056	2626.35
424.263	2800.43
424.471	2685.74
424.679	2843.43
424.887	2972.46
425.094	3058.47
425.302	3177.25
425.51	3228.45
425.718	3341.09
425.925	3408.67
426.133	3400.48
426.341	3765.02
426.548	3822.36
426.756	3873.56
426.964	3996.44
427.171	4211.48
427.379	4227.86
427.586	4340.5
427.794	4487.95
428.001	4698.89
428.209	4801.29
428.417	4698.89
428.624	5045
428.832	5131.02
429.039	4922.12
429.247	4932.36
429.454	5622.53
429.662	5896.96
429.869	5522.18
430.076	5970.68
430.284	5561.09
430.491	6009.59
430.699	6359.8
430.906	6308.6
431.114	6337.27
431.321	6650.61
431.528	6759.15
431.736	7344.87
431.943	7486.18
432.15	7330.53
432.358	7289.57
432.565	7848.67
432.772	7799.52
432.979	8327.89
433.187	8375
433.394	8522.45
433.601	8917.71
433.808	8940.24
434.016	8784.59
434.223	9306.82
434.43	9888.45
434.637	9769.66
434.844	10343.1
435.052	10771.12
435.259	10334.9
435.466	10556.08
435.673	10345.14
435.88	10988.21
436.087	11856.54
436.294	11645.6
436.501	11387.56
436.708	11473.57
436.915	11983.52
437.122	12597.91
437.329	12368.54
437.537	12860.05
437.743	12995.22
437.95	12825.23
438.157	13769.35
438.364	13828.74
438.571	14180.99
438.778	14058.11
438.985	15501.93
439.192	14895.73
439.399	15348.33
439.606	15153.77
439.813	16165.47
440.02	16786.01
440.227	16495.19
440.433	16446.04
440.64	16976.47
440.847	16640.6
441.054	17062.48
441.261	18457.15
441.467	18078.27
441.674	18358.85
441.881	18971.19
442.088	18995.76
442.294	18809.4
442.501	19360.3
442.708	19694.12
442.914	20582.94
443.121	21355.02
443.328	20699.67
443.534	22176.26
443.741	21828.1
443.948	21279.25
444.154	23046.65
444.361	22815.23
444.568	22782.46
444.774	22854.14
444.981	23366.13
445.187	23720.43
445.394	24750.56
445.6	24629.73
445.807	27046.33
446.013	25575.89
446.22	26481.09
446.426	27236.79
446.633	27298.23
446.839	28256.68
447.046	27214.26
447.252	28776.86
447.459	28895.64
447.665	28602.78
447.871	29837.71
448.078	31162.75
448.284	29878.67
448.491	30445.96
448.697	31635.83
448.903	32412.01
449.11	32242.03
449.316	31615.35
449.522	32145.77
449.728	33188.19
449.935	33349.98
450.141	33378.65
450.347	34443.59
450.553	32899.42
450.76	33628.5
450.966	34615.62
451.172	34353.48
451.378	35023.17
451.584	34265.42
451.791	35146.05
451.997	35084.61
452.203	35774.77
452.409	35453.24
452.615	35410.23
452.821	34163.02
453.027	34068.81
453.233	35676.47
453.44	34470.22
453.646	34562.37
453.852	34961.73
454.058	35346.75
454.264	33962.32
454.47	34730.31
454.676	34173.26
454.882	35334.46
455.088	32328.04
455.294	32788.83
455.5	33171.8
455.705	33470.81
455.911	32362.86
456.117	31605.11
456.323	31215.99
456.529	29378.97
456.735	30861.69
456.941	29817.23
457.147	29770.13
457.352	28572.07
457.558	28111.27
457.764	28498.34
457.97	27982.25
458.176	27093.43
458.381	27734.45
458.587	25680.33
458.793	26126.79
458.999	24545.76
459.204	26366.4
459.41	25397.71
459.616	24039.91
459.821	24216.04
460.027	23761.39
460.233	23325.17
460.438	22174.21
460.644	22761.98
460.85	21395.98
461.055	21199.38
461.261	21264.91
461.466	19507.76
461.672	19118.64
461.878	20415.01
462.083	18872.89
462.289	18448.96
462.494	18504.25
462.7	17449.55
462.905	17336.91
463.111	17816.13
463.316	17885.76
463.522	17424.97
463.727	17738.31
463.932	17447.5
464.138	17457.74
464.343	17373.77
464.549	16786.01
464.754	17502.79
464.959	17252.94
465.165	17132.11
465.37	16468.57
465.575	16038.5
465.781	16585.3
465.986	17177.17
466.191	16153.18
466.397	15643.24
466.602	15030.9
466.807	15659.62
467.012	15690.34
467.218	15501.93
467.423	15454.83
467.628	15626.85
467.833	16202.33
468.038	15766.12
468.244	14979.7
468.449	15753.83
468.654	15053.42
468.859	15133.29
469.064	15176.3
