Data from USB4F104151__204__13-59-50-725.txt Node

Date: Thu Mar 13 13:59:50 EDT 2025
User: louis
Spectrometer: USB4F10415
Trigger mode: 4
Integration Time (sec): 1.000000E-2
Scans to average: 1
Electric dark correction enabled: true
Nonlinearity correction enabled: false
Boxcar width: 0
XAxis mode: Wavelengths
Number of Pixels in Spectrum: 3648
>>>>>Begin Spectral Data<<<<<
178.204	3.41
178.424	3.41
178.644	3.41
178.864	-47.79
179.084	19.8
179.304	-43.69
179.524	19.8
179.744	-10.92
179.964	36.18
180.184	58.71
180.404	36.18
180.624	-29.35
180.844	3.41
181.064	-4.78
181.283	34.13
181.503	-39.59
181.723	-60.07
181.943	-25.26
182.163	44.37
182.383	48.47
182.602	-10.92
182.822	25.94
183.042	27.99
183.262	13.65
183.482	56.66
183.701	56.66
183.921	60.76
184.141	34.13
184.361	19.8
184.58	-25.26
184.8	38.23
185.02	25.94
185.239	-4.78
185.459	89.43
185.679	-37.55
185.898	-10.92
186.118	5.46
186.338	36.18
186.557	11.61
186.777	71
186.997	40.28
187.216	7.51
187.436	83.28
187.655	73.04
187.875	46.42
188.095	36.18
188.314	38.23
188.534	95.57
188.753	-39.59
188.973	66.9
189.192	62.8
189.412	1.37
189.631	3.41
189.851	27.99
190.07	44.37
190.29	-27.31
190.509	-23.21
190.729	64.85
190.948	62.8
191.168	-12.97
191.387	64.85
191.607	83.28
191.826	30.04
192.045	17.75
192.265	105.81
192.484	-17.07
192.704	73.04
192.923	54.61
193.142	32.08
193.362	68.95
193.581	11.61
193.8	87.38
194.02	48.47
194.239	85.33
194.458	-4.78
194.678	-21.16
194.897	56.66
195.116	66.9
195.335	40.28
195.555	36.18
195.774	11.61
195.993	27.99
196.212	56.66
196.432	42.32
196.651	68.95
196.87	-4.78
197.089	103.76
197.308	13.65
197.528	48.47
197.747	5.46
197.966	93.52
198.185	60.76
198.404	11.61
198.623	73.04
198.842	68.95
199.062	114
199.281	19.8
199.5	-27.31
199.719	44.37
199.938	36.18
200.157	62.8
200.376	27.99
200.595	68.95
200.814	85.33
201.033	46.42
201.252	-8.87
201.471	-8.87
201.69	68.95
201.909	128.34
202.128	60.76
202.347	25.94
202.566	83.28
202.785	5.46
203.004	32.08
203.223	46.42
203.442	99.67
203.661	21.84
203.879	-12.97
204.098	38.23
204.317	-21.16
204.536	34.13
204.755	-23.21
204.974	83.28
205.193	46.42
205.411	68.95
205.63	73.04
205.849	91.48
206.068	91.48
206.287	89.43
206.505	52.56
206.724	5.46
206.943	13.65
207.162	3.41
207.381	48.47
207.599	40.28
207.818	64.85
208.037	68.95
208.255	30.04
208.474	85.33
208.693	27.99
208.911	13.65
209.13	-10.92
209.349	52.56
209.567	13.65
209.786	9.56
210.005	73.04
210.223	46.42
210.442	-4.78
210.661	5.46
210.879	-6.83
211.098	56.66
211.316	13.65
211.535	15.7
211.753	83.28
211.972	60.76
212.191	40.28
212.409	34.13
212.628	89.43
212.846	52.56
213.065	71
213.283	87.38
213.502	73.04
213.72	44.37
213.938	23.89
214.157	68.95
214.375	58.71
214.594	75.09
214.812	58.71
215.031	122.2
215.249	62.8
215.467	21.84
215.686	60.76
215.904	77.14
216.122	23.89
216.341	109.91
216.559	54.61
216.778	42.32
216.996	89.43
217.214	54.61
217.432	9.56
217.651	-84.65
217.869	7.51
218.087	32.08
218.306	17.75
218.524	85.33
218.742	11.61
218.96	111.96
219.179	52.56
219.397	17.75
219.615	46.42
219.833	62.8
220.051	5.46
220.27	85.33
220.488	-4.78
220.706	32.08
220.924	21.84
221.142	42.32
221.36	89.43
221.578	107.86
221.796	32.08
222.015	54.61
222.233	-6.83
222.451	11.61
222.669	44.37
222.887	95.57
223.105	27.99
223.323	44.37
223.541	48.47
223.759	38.23
223.977	34.13
224.195	9.56
224.413	-35.5
224.631	21.84
224.849	30.04
225.067	134.48
225.285	77.14
225.503	19.8
225.721	62.8
225.939	60.76
226.157	11.61
226.375	81.24
226.592	77.14
226.81	27.99
227.028	64.85
227.246	5.46
227.464	-23.21
227.682	95.57
227.9	23.89
228.117	62.8
228.335	58.71
228.553	77.14
228.771	-0.68
228.989	19.8
229.206	54.61
229.424	81.24
229.642	89.43
229.86	87.38
230.077	38.23
230.295	60.76
230.513	101.72
230.731	56.66
230.948	97.62
231.166	17.75
231.384	23.89
231.601	15.7
231.819	38.23
232.037	21.84
232.254	44.37
232.472	107.86
232.689	46.42
232.907	-12.97
233.125	-19.11
233.342	44.37
233.56	3.41
233.777	75.09
233.995	27.99
234.213	93.52
234.43	103.76
234.648	1.37
234.865	68.95
235.083	56.66
235.3	89.43
235.518	52.56
235.735	54.61
235.953	71
236.17	75.09
236.388	77.14
236.605	25.94
236.822	101.72
237.04	52.56
237.257	19.8
237.475	73.04
237.692	48.47
237.909	60.76
238.127	77.14
238.344	54.61
238.562	56.66
238.779	40.28
238.996	46.42
239.214	23.89
239.431	-0.68
239.648	68.95
239.865	15.7
240.083	73.04
240.3	19.8
240.517	52.56
240.735	56.66
240.952	62.8
241.169	7.51
241.386	15.7
241.603	34.13
241.821	15.7
242.038	109.91
242.255	64.85
242.472	81.24
242.689	132.44
242.907	-19.11
243.124	40.28
243.341	109.91
243.558	-39.59
243.775	54.61
243.992	75.09
244.209	34.13
244.426	42.32
244.643	23.89
244.86	93.52
245.078	46.42
245.295	79.19
245.512	27.99
245.729	77.14
245.946	56.66
246.163	34.13
246.38	73.04
246.597	13.65
246.814	52.56
247.031	111.96
247.248	44.37
247.464	75.09
247.681	42.32
247.898	71
248.115	27.99
248.332	79.19
248.549	73.04
248.766	15.7
248.983	101.72
249.2	30.04
249.417	89.43
249.633	95.57
249.85	68.95
250.067	50.52
250.284	68.95
250.501	54.61
250.717	134.48
250.934	21.84
251.151	5.46
251.368	44.37
251.585	77.14
251.801	93.52
252.018	79.19
252.235	48.47
252.451	9.56
252.668	27.99
252.885	75.09
253.102	36.18
253.318	87.38
253.535	27.99
253.752	46.42
253.968	130.39
254.185	13.65
254.401	23.89
254.618	60.76
254.835	-10.92
255.051	128.34
255.268	52.56
255.484	75.09
255.701	89.43
255.917	-19.11
256.134	7.51
256.351	19.8
256.567	118.1
256.784	52.56
257	36.18
257.217	19.8
257.433	73.04
257.65	48.47
257.866	23.89
258.082	7.51
258.299	34.13
258.515	71
258.732	34.13
258.948	62.8
259.165	89.43
259.381	25.94
259.597	19.8
259.814	97.62
260.03	17.75
260.246	60.76
260.463	87.38
260.679	77.14
260.895	30.04
261.112	89.43
261.328	36.18
261.544	11.61
261.761	73.04
261.977	75.09
262.193	66.9
262.409	-4.78
262.626	75.09
262.842	124.24
263.058	101.72
263.274	52.56
263.49	7.51
263.707	95.57
263.923	36.18
264.139	73.04
264.355	44.37
264.571	150.87
264.787	56.66
265.004	124.24
265.22	-4.78
265.436	71
265.652	71
265.868	60.76
266.084	46.42
266.3	62.8
266.516	-15.02
266.732	73.04
266.948	93.52
267.164	19.8
267.38	60.76
267.596	-4.78
267.812	46.42
268.028	38.23
268.244	11.61
268.46	79.19
268.676	85.33
268.892	101.72
269.108	30.04
269.324	3.41
269.54	73.04
269.756	54.61
269.972	19.8
270.188	19.8
270.403	23.89
270.619	64.85
270.835	48.47
271.051	71
271.267	120.15
271.483	42.32
271.698	-2.73
271.914	46.42
272.13	54.61
272.346	1.37
272.562	66.9
272.777	87.38
272.993	52.56
273.209	38.23
273.425	38.23
273.64	17.75
273.856	42.32
274.072	42.32
274.287	48.47
274.503	40.28
274.719	7.51
274.934	101.72
275.15	21.84
275.366	36.18
275.581	38.23
275.797	9.56
276.012	-10.92
276.228	5.46
276.444	140.63
276.659	95.57
276.875	52.56
277.09	44.37
277.306	91.48
277.521	62.8
277.737	66.9
277.952	46.42
278.168	79.19
278.383	44.37
278.599	5.46
278.814	73.04
279.03	79.19
279.245	93.52
279.461	83.28
279.676	68.95
279.892	52.56
280.107	32.08
280.322	3.41
280.538	5.46
280.753	40.28
280.969	64.85
281.184	148.82
281.399	52.56
281.615	42.32
281.83	21.84
282.045	44.37
282.26	46.42
282.476	81.24
282.691	60.76
282.906	-2.73
283.122	23.89
283.337	19.8
283.552	9.56
283.767	44.37
283.983	5.46
284.198	19.8
284.413	7.51
284.628	36.18
284.843	3.41
285.058	30.04
285.274	23.89
285.489	-15.02
285.704	109.91
285.919	62.8
286.134	56.66
286.349	30.04
286.564	85.33
286.779	111.96
286.995	38.23
287.21	50.52
287.425	60.76
287.64	105.81
287.855	85.33
288.07	103.76
288.285	134.48
288.5	58.71
288.715	44.37
288.93	15.7
289.145	103.76
289.36	52.56
289.575	124.24
289.79	52.56
290.004	38.23
290.219	73.04
290.434	120.15
290.649	30.04
290.864	126.29
291.079	118.1
291.294	103.76
291.509	60.76
291.724	81.24
291.938	23.89
292.153	120.15
292.368	73.04
292.583	97.62
292.798	79.19
293.012	81.24
293.227	30.04
293.442	-37.55
293.657	50.52
293.871	85.33
294.086	21.84
294.301	62.8
294.516	36.18
294.73	64.85
294.945	101.72
295.16	38.23
295.374	7.51
295.589	46.42
295.804	15.7
296.018	62.8
296.233	95.57
296.447	11.61
296.662	27.99
296.877	89.43
297.091	25.94
297.306	89.43
297.52	7.51
297.735	140.63
297.949	44.37
298.164	-6.83
298.378	3.41
298.593	-0.68
298.807	89.43
299.022	75.09
299.236	44.37
299.451	-4.78
299.665	103.76
299.88	21.84
300.094	97.62
300.309	48.47
300.523	30.04
300.737	128.34
300.952	148.82
301.166	79.19
301.381	7.51
301.595	116.05
301.809	34.13
302.024	68.95
302.238	36.18
302.452	101.72
302.667	-10.92
302.881	66.9
303.095	60.76
303.309	103.76
303.524	103.76
303.738	62.8
303.952	46.42
304.166	64.85
304.381	30.04
304.595	52.56
304.809	44.37
305.023	38.23
305.237	52.56
305.452	75.09
305.666	71
305.88	81.24
306.094	56.66
306.308	54.61
306.522	124.24
306.736	128.34
306.95	56.66
307.164	79.19
307.379	101.72
307.593	-45.74
307.807	54.61
308.021	161.11
308.235	54.61
308.449	40.28
308.663	56.66
308.877	101.72
309.091	56.66
309.305	93.52
309.519	91.48
309.733	27.99
309.947	7.51
310.161	27.99
310.374	32.08
310.588	27.99
310.802	1.37
311.016	56.66
311.23	9.56
311.444	93.52
311.658	93.52
311.872	40.28
312.085	99.67
312.299	34.13
312.513	152.91
312.727	71
312.941	99.67
313.154	79.19
313.368	87.38
313.582	-19.11
313.796	64.85
314.009	15.7
314.223	58.71
314.437	66.9
314.651	-8.87
314.864	44.37
315.078	17.75
315.292	30.04
315.505	71
315.719	146.77
315.933	11.61
316.146	36.18
316.36	13.65
316.573	101.72
316.787	-15.02
317.001	64.85
317.214	3.41
317.428	36.18
317.641	23.89
317.855	99.67
318.068	-2.73
318.282	7.51
318.495	68.95
318.709	95.57
318.922	58.71
319.136	44.37
319.349	-2.73
319.563	-10.92
319.776	79.19
319.99	40.28
320.203	91.48
320.417	62.8
320.63	93.52
320.843	95.57
321.057	66.9
321.27	32.08
321.483	50.52
321.697	44.37
321.91	56.66
322.124	23.89
322.337	56.66
322.55	44.37
322.763	77.14
322.977	15.7
323.19	111.96
323.403	3.41
323.617	25.94
323.83	66.9
324.043	50.52
324.256	36.18
324.469	27.99
324.683	79.19
324.896	71
325.109	93.52
325.322	13.65
325.535	68.95
325.748	87.38
325.962	132.44
326.175	50.52
326.388	40.28
326.601	38.23
326.814	114
327.027	40.28
327.24	73.04
327.453	32.08
327.666	118.1
327.879	79.19
328.092	122.2
328.305	40.28
328.518	44.37
328.731	68.95
328.944	93.52
329.157	7.51
329.37	52.56
329.583	60.76
329.796	85.33
330.009	87.38
330.222	101.72
330.435	66.9
330.648	48.47
330.861	87.38
331.073	107.86
331.286	93.52
331.499	36.18
331.712	11.61
331.925	101.72
332.138	46.42
332.35	111.96
332.563	62.8
332.776	60.76
332.989	27.99
333.202	56.66
333.414	15.7
333.627	44.37
333.84	56.66
334.053	32.08
334.265	42.32
334.478	60.76
334.691	21.84
334.903	23.89
335.116	85.33
335.329	77.14
335.541	109.91
335.754	68.95
335.966	1.37
336.179	56.66
336.392	-23.21
336.604	5.46
336.817	60.76
337.029	60.76
337.242	60.76
337.454	93.52
337.667	73.04
337.88	87.38
338.092	44.37
338.305	118.1
338.517	109.91
338.729	-8.87
338.942	79.19
339.154	44.37
339.367	38.23
339.579	44.37
339.792	68.95
340.004	38.23
340.217	89.43
340.429	73.04
340.641	85.33
340.854	32.08
341.066	54.61
341.278	17.75
341.491	11.61
341.703	132.44
341.915	58.71
342.128	150.87
342.34	91.48
342.552	25.94
342.764	13.65
342.977	30.04
343.189	83.28
343.401	64.85
343.613	148.82
343.826	107.86
344.038	54.61
344.25	142.68
344.462	103.76
344.674	118.1
344.886	54.61
345.099	93.52
345.311	32.08
345.523	-15.02
345.735	19.8
345.947	48.47
346.159	89.43
346.371	114
346.583	3.41
346.795	105.81
347.007	40.28
347.219	32.08
347.431	46.42
347.643	97.62
347.855	44.37
348.067	83.28
348.279	23.89
348.491	7.51
348.703	68.95
348.915	56.66
349.127	-6.83
349.339	60.76
349.551	89.43
349.763	32.08
349.975	105.81
350.187	91.48
350.399	148.82
350.61	81.24
350.822	-33.45
351.034	46.42
351.246	13.65
351.458	38.23
351.669	99.67
351.881	44.37
352.093	7.51
352.305	23.89
352.517	-2.73
352.728	71
352.94	79.19
353.152	54.61
353.363	126.29
353.575	85.33
353.787	73.04
353.999	60.76
354.21	56.66
354.422	87.38
354.633	64.85
354.845	56.66
355.057	48.47
355.268	126.29
355.48	87.38
355.692	44.37
355.903	62.8
356.115	93.52
356.326	30.04
356.538	89.43
356.749	-0.68
356.961	140.63
357.172	85.33
357.384	138.58
357.595	68.95
357.807	124.24
358.018	17.75
358.23	101.72
358.441	32.08
358.653	114
358.864	9.56
359.075	83.28
359.287	75.09
359.498	103.76
359.709	23.89
359.921	79.19
360.132	71
360.344	36.18
360.555	89.43
360.766	122.2
360.977	38.23
361.189	42.32
361.4	21.84
361.611	79.19
361.823	95.57
362.034	27.99
362.245	79.19
362.456	105.81
362.667	85.33
362.879	68.95
363.09	87.38
363.301	75.09
363.512	56.66
363.723	179.54
363.935	99.67
364.146	148.82
364.357	-23.21
364.568	79.19
364.779	101.72
364.99	52.56
365.201	48.47
365.412	66.9
365.623	81.24
365.834	95.57
366.045	36.18
366.256	77.14
366.467	89.43
366.678	38.23
366.889	54.61
367.1	48.47
367.311	7.51
367.522	-6.83
367.733	138.58
367.944	81.24
368.155	52.56
368.366	105.81
368.577	136.53
368.788	109.91
368.999	32.08
369.209	52.56
369.42	48.47
369.631	56.66
369.842	30.04
370.053	103.76
370.264	95.57
370.474	60.76
370.685	71
370.896	93.52
371.107	15.7
371.317	128.34
371.528	-2.73
371.739	81.24
371.95	77.14
372.16	87.38
372.371	109.91
372.582	101.72
372.792	118.1
373.003	163.15
373.214	-12.97
373.424	64.85
373.635	54.61
373.846	46.42
374.056	34.13
374.267	111.96
374.477	1.37
374.688	120.15
374.898	48.47
375.109	109.91
375.319	81.24
375.53	83.28
375.74	89.43
375.951	81.24
376.161	68.95
376.372	71
376.582	142.68
376.793	85.33
377.003	60.76
377.214	66.9
377.424	68.95
377.635	109.91
377.845	68.95
378.055	13.65
378.266	77.14
378.476	130.39
378.686	101.72
378.897	52.56
379.107	118.1
379.317	52.56
379.528	68.95
379.738	118.1
379.948	42.32
380.158	42.32
380.369	101.72
380.579	99.67
380.789	134.48
380.999	11.61
381.21	42.32
381.42	52.56
381.63	85.33
381.84	122.2
382.05	42.32
382.261	68.95
382.471	60.76
382.681	81.24
382.891	50.52
383.101	161.11
383.311	79.19
383.521	116.05
383.731	126.29
383.941	30.04
384.151	109.91
384.361	75.09
384.571	50.52
384.781	95.57
384.991	46.42
385.201	128.34
385.411	15.7
385.621	132.44
385.831	40.28
386.041	103.76
386.251	44.37
386.461	93.52
386.671	64.85
386.881	144.72
387.091	136.53
387.301	101.72
387.511	48.47
387.72	75.09
387.93	52.56
388.14	56.66
388.35	95.57
388.56	93.52
388.769	60.76
388.979	85.33
389.189	5.46
389.399	79.19
389.609	126.29
389.818	99.67
390.028	54.61
390.238	71
390.447	54.61
390.657	124.24
390.867	101.72
391.076	101.72
391.286	91.48
391.496	109.91
391.705	23.89
391.915	120.15
392.125	58.71
392.334	40.28
392.544	126.29
392.753	21.84
392.963	40.28
393.172	159.06
393.382	79.19
393.591	150.87
393.801	118.1
394.01	132.44
394.22	101.72
394.429	66.9
394.639	95.57
394.848	167.25
395.058	101.72
395.267	105.81
395.477	140.63
395.686	114
395.895	93.52
396.105	120.15
396.314	68.95
396.524	150.87
396.733	64.85
396.942	68.95
397.152	58.71
397.361	89.43
397.57	105.81
397.78	157.01
397.989	56.66
398.198	208.21
398.407	134.48
398.617	58.71
398.826	77.14
399.035	101.72
399.244	140.63
399.453	132.44
399.663	185.68
399.872	169.3
400.081	165.2
400.29	171.35
400.499	79.19
400.708	54.61
400.917	101.72
401.127	181.59
401.336	179.54
401.545	187.73
401.754	138.58
401.963	130.39
402.172	130.39
402.381	144.72
402.59	183.63
402.799	173.39
403.008	161.11
403.217	220.5
403.426	187.73
403.635	167.25
403.844	132.44
404.053	191.83
404.262	167.25
404.471	163.15
404.68	150.87
404.888	103.76
405.097	142.68
405.306	189.78
405.515	187.73
405.724	208.21
405.933	226.64
406.142	197.97
406.35	234.83
406.559	204.11
406.768	257.36
406.977	226.64
407.185	243.03
407.394	183.63
407.603	224.59
407.812	230.74
408.02	294.22
408.229	310.61
408.438	304.46
408.646	286.03
408.855	333.14
409.064	245.07
409.272	320.85
409.481	324.94
409.69	302.42
409.898	249.17
410.107	263.51
410.315	361.81
410.524	429.39
410.733	341.33
410.941	380.24
411.15	380.24
411.358	406.86
411.567	386.38
411.775	343.38
411.984	451.92
412.192	386.38
412.401	451.92
412.609	517.45
412.818	570.7
413.026	484.69
413.234	558.41
413.443	542.03
413.651	552.27
413.86	570.7
414.068	634.19
414.276	595.28
414.485	638.28
414.693	580.94
414.901	666.96
415.11	767.31
415.318	769.35
415.526	724.3
415.734	812.36
415.943	728.39
416.151	830.79
416.359	865.61
416.567	890.18
416.776	851.27
416.984	918.86
417.192	1000.77
417.4	1002.82
417.608	1060.17
417.817	1015.11
418.025	1094.98
418.233	1150.28
418.441	1219.91
418.649	1168.71
418.857	1269.06
419.065	1201.47
419.273	1355.07
419.481	1340.74
419.689	1414.46
419.897	1549.63
420.105	1504.57
420.313	1652.03
420.521	1600.83
420.729	1520.96
420.937	1797.43
421.145	1715.52
421.353	1817.91
421.561	1901.88
421.769	1889.59
421.977	2037.05
422.185	1946.94
422.393	2075.96
422.601	2250.03
422.809	2108.73
423.017	2235.7
423.224	2278.71
423.432	2397.49
423.64	2612.53
423.848	2628.91
424.056	2651.44
424.263	2841.9
424.471	2796.84
424.679	2805.03
424.887	2956.58
425.094	3009.83
425.302	3099.94
425.51	3239.2
425.718	3282.21
425.925	3181.86
426.133	3499.3
426.341	3591.45
426.548	3800.35
426.756	3730.72
426.964	3833.11
427.171	4068.63
427.379	4171.03
427.586	4240.66
427.794	4394.26
428.001	4525.33
428.209	4773.13
428.417	4584.72
428.624	5139.72
428.832	5010.7
429.039	4859.15
429.247	4885.77
429.454	5379.33
429.662	5795.07
429.869	5446.91
430.076	5881.08
430.284	5776.64
430.491	6094.07
430.699	6110.46
430.906	6067.45
431.114	6446.32
431.321	6491.38
431.528	6624.5
431.736	6970.6
431.943	7447.78
432.15	7120.1
432.358	7345.38
432.565	7730.4
432.772	7691.49
432.979	7998.68
433.187	7990.49
433.394	8207.58
433.601	8752.34
433.808	8703.18
434.016	8795.34
434.223	8932.56
434.43	9725.12
434.637	9360.58
434.844	10159.29
435.052	10413.24
435.259	10138.81
435.466	10230.97
435.673	10259.64
435.88	10880.18
436.087	11343.02
436.294	11386.02
436.501	11173.03
436.708	11388.07
436.915	11775.14
437.122	12199.07
437.329	12186.78
437.537	12647.57
437.743	12768.4
437.95	12872.85
438.157	13368.46
438.364	13782.15
438.571	13712.52
438.778	14023.81
438.985	15098.99
439.192	14371.96
439.399	15041.65
439.606	14550.14
439.813	15305.84
440.02	16651.35
440.227	16020.58
440.433	16065.63
440.64	16639.06
440.847	16315.48
441.054	16839.76
441.261	18037.83
441.467	17701.96
441.674	18023.49
441.881	18504.76
442.088	18945.08
442.294	18768.95
442.501	18920.5
442.708	19356.72
442.914	20313.12
443.121	20913.17
443.328	20182.05
443.534	21623.82
443.741	21189.65
443.948	21148.69
444.154	22567.93
444.361	22326.27
444.568	22758.39
444.774	22350.85
444.981	22553.6
445.187	23479.28
445.394	24603.61
445.6	23993.32
445.807	26661.82
446.013	25172.95
446.22	25859.02
446.426	26772.41
446.633	27063.22
446.839	27868.08
447.046	26665.92
447.252	28208.04
447.459	28062.63
447.665	28132.26
447.871	29277.08
448.078	30544.77
448.284	29238.17
448.491	29766.54
448.697	31177.59
448.903	31732.59
449.11	31644.53
449.316	31554.42
449.522	32058.22
449.728	32645.99
449.935	32664.42
450.141	32955.23
450.347	33665.88
450.553	32531.3
450.76	33016.67
450.966	34251.59
451.172	33620.82
451.378	34458.44
451.584	33758.03
451.791	34685.76
451.997	34310.99
452.203	35175.23
452.409	35140.41
452.615	34880.32
452.821	33956.69
453.027	33428.31
453.233	35128.13
453.44	33715.03
453.646	33801.04
453.852	34356.04
454.058	34925.38
454.264	33809.23
454.47	34313.03
454.676	33635.16
454.882	34900.8
455.088	32097.13
455.294	32340.84
455.5	32584.55
455.705	33291.1
455.911	31857.52
456.117	31273.85
456.323	30616.45
456.529	29426.58
456.735	30444.42
456.941	29748.11
457.147	29338.52
457.352	28523.43
457.558	27949.99
457.764	28167.08
457.97	27628.46
458.176	26891.19
458.381	27073.46
458.587	25566.16
458.793	25723.85
458.999	24429.54
459.204	26096.58
459.41	25609.17
459.616	23778.28
459.821	23579.63
460.027	23784.43
460.233	23243.76
460.438	22262.79
460.644	22326.27
460.85	21447.69
461.055	21203.99
461.261	20982.81
461.466	19633.19
461.672	18783.29
461.878	20522.01
462.083	18955.32
462.289	18850.87
462.494	18572.35
462.7	17708.1
462.905	17116.24
463.111	17923.14
463.316	18037.83
463.522	17468.49
463.727	17454.15
463.932	17511.5
464.138	17427.53
464.343	17329.23
464.549	16870.48
464.754	17349.71
464.959	17222.73
465.165	17011.79
465.37	16374.88
465.575	16098.4
465.781	16839.76
465.986	16946.26
466.191	16174.17
466.397	15791.2
466.602	15068.27
466.807	15692.9
467.012	15709.29
467.218	15645.8
467.423	15465.58
467.628	15758.44
467.833	16247.9
