Data from USB4F104151__220__14-00-11-983.txt Node

Date: Thu Mar 13 14:00:11 EDT 2025
User: louis
Spectrometer: USB4F10415
Trigger mode: 4
Integration Time (sec): 1.000000E-2
Scans to average: 1
Electric dark correction enabled: true
Nonlinearity correction enabled: false
Boxcar width: 0
XAxis mode: Wavelengths
Number of Pixels in Spectrum: 3648
>>>>>Begin Spectral Data<<<<<
178.204	-94.55
178.424	-94.55
178.644	-94.55
178.864	-100.69
179.084	-88.4
179.304	-20.82
179.524	18.09
179.744	-29.01
179.964	-0.34
180.184	-31.06
180.404	34.47
180.624	-4.44
180.844	-16.73
181.064	-22.87
181.283	34.47
181.503	-0.34
181.723	38.57
181.943	-2.39
182.163	67.24
182.383	26.28
182.602	11.95
182.822	50.86
183.042	81.58
183.262	-12.63
183.482	26.28
183.701	-29.01
183.921	22.19
184.141	44.71
184.361	22.19
184.58	75.43
184.8	5.8
185.02	18.09
185.239	7.85
185.459	91.82
185.679	5.8
185.898	-14.68
186.118	71.34
186.338	48.81
186.557	9.9
186.777	-0.34
186.997	42.67
187.216	48.81
187.436	42.67
187.655	18.09
187.875	26.28
188.095	11.95
188.314	32.43
188.534	-2.39
188.753	91.82
188.973	-12.63
189.192	-29.01
189.412	44.71
189.631	108.2
189.851	38.57
190.07	-8.53
190.29	-2.39
190.509	-12.63
190.729	7.85
190.948	-39.25
191.168	28.33
191.387	57
191.607	20.14
191.826	26.28
192.045	36.52
192.265	-26.96
192.484	16.04
192.704	11.95
192.923	-29.01
193.142	71.34
193.362	-22.87
193.581	44.71
193.8	3.75
194.02	59.05
194.239	7.85
194.458	22.19
194.678	75.43
194.897	16.04
195.116	-6.49
195.335	30.38
195.555	63.15
195.774	26.28
195.993	28.33
196.212	65.19
196.432	-55.64
196.651	26.28
196.87	48.81
197.089	50.86
197.308	40.62
197.528	9.9
197.747	-18.77
197.966	79.53
198.185	-18.77
198.404	-43.35
198.623	30.38
198.842	59.05
199.062	46.76
199.281	-12.63
199.5	30.38
199.719	36.52
199.938	36.52
200.157	75.43
200.376	61.1
200.595	34.47
200.814	65.19
201.033	28.33
201.252	34.47
201.471	71.34
201.69	36.52
201.909	67.24
202.128	18.09
202.347	-6.49
202.566	59.05
202.785	28.33
203.004	-24.92
203.223	106.15
203.442	20.14
203.661	20.14
203.879	67.24
204.098	44.71
204.317	54.95
204.536	36.52
204.755	93.87
204.974	-12.63
205.193	1.71
205.411	48.81
205.63	-20.82
205.849	18.09
206.068	-16.73
206.287	63.15
206.505	-12.63
206.724	-35.16
206.943	83.63
207.162	-37.2
207.381	18.09
207.599	54.95
207.818	13.99
208.037	-14.68
208.255	59.05
208.474	13.99
208.693	1.71
208.911	52.91
209.13	50.86
209.349	-31.06
209.567	13.99
209.786	5.8
210.005	9.9
210.223	93.87
210.442	16.04
210.661	65.19
210.879	42.67
211.098	-8.53
211.316	-12.63
211.535	-20.82
211.753	32.43
211.972	-53.59
212.191	-4.44
212.409	3.75
212.628	18.09
212.846	48.81
213.065	9.9
213.283	3.75
213.502	9.9
213.72	-16.73
213.938	34.47
214.157	50.86
214.375	30.38
214.594	46.76
214.812	9.9
215.031	34.47
215.249	-8.53
215.467	24.23
215.686	63.15
215.904	52.91
216.122	5.8
216.341	44.71
216.559	-14.68
216.778	42.67
216.996	-26.96
217.214	34.47
217.432	-43.35
217.651	7.85
217.869	36.52
218.087	-6.49
218.306	3.75
218.524	42.67
218.742	30.38
218.96	85.67
219.179	16.04
219.397	59.05
219.615	30.38
219.833	38.57
220.051	-18.77
220.27	1.71
220.488	50.86
220.706	-18.77
220.924	-57.68
221.142	13.99
221.36	28.33
221.578	26.28
221.796	13.99
222.015	63.15
222.233	16.04
222.451	95.91
222.669	69.29
222.887	34.47
223.105	-35.16
223.323	89.77
223.541	-6.49
223.759	-8.53
223.977	22.19
224.195	3.75
224.413	28.33
224.631	-2.39
224.849	34.47
225.067	16.04
225.285	54.95
225.503	34.47
225.721	36.52
225.939	-6.49
226.157	61.1
226.375	61.1
226.592	-20.82
226.81	3.75
227.028	26.28
227.246	63.15
227.464	108.2
227.682	102.06
227.9	-29.01
228.117	28.33
228.335	36.52
228.553	18.09
228.771	24.23
228.989	50.86
229.206	20.14
229.424	42.67
229.642	44.71
229.86	-6.49
230.077	9.9
230.295	85.67
230.513	40.62
230.731	24.23
230.948	44.71
231.166	24.23
231.384	26.28
231.601	7.85
231.819	-6.49
232.037	67.24
232.254	-14.68
232.472	20.14
232.689	-2.39
232.907	57
233.125	-53.59
233.342	69.29
233.56	71.34
233.777	18.09
233.995	-2.39
234.213	-22.87
234.43	61.1
234.648	-8.53
234.865	46.76
235.083	34.47
235.3	57
235.518	38.57
235.735	48.81
235.953	69.29
236.17	11.95
236.388	48.81
236.605	-61.78
236.822	52.91
237.04	65.19
237.257	42.67
237.475	1.71
237.692	95.91
237.909	-39.25
238.127	-26.96
238.344	5.8
238.562	-6.49
238.779	7.85
238.996	-14.68
239.214	-31.06
239.431	114.34
239.648	73.39
239.865	26.28
240.083	3.75
240.3	67.24
240.517	-2.39
240.735	-4.44
240.952	44.71
241.169	75.43
241.386	20.14
241.603	-6.49
241.821	59.05
242.038	63.15
242.255	46.76
242.472	16.04
242.689	-8.53
242.907	18.09
243.124	-0.34
243.341	36.52
243.558	46.76
243.775	-37.2
243.992	24.23
244.209	-31.06
244.426	-20.82
244.643	3.75
244.86	-37.2
245.078	38.57
245.295	71.34
245.512	20.14
245.729	42.67
245.946	13.99
246.163	48.81
246.38	18.09
246.597	52.91
246.814	1.71
247.031	52.91
247.248	28.33
247.464	-12.63
247.681	-0.34
247.898	32.43
248.115	46.76
248.332	50.86
248.549	40.62
248.766	28.33
248.983	-2.39
249.2	61.1
249.417	91.82
249.633	26.28
249.85	7.85
250.067	13.99
250.284	75.43
250.501	22.19
250.717	59.05
250.934	-63.83
251.151	-4.44
251.368	3.75
251.585	50.86
251.801	30.38
252.018	11.95
252.235	-49.49
252.451	75.43
252.668	-26.96
252.885	20.14
253.102	83.63
253.318	24.23
253.535	65.19
253.752	63.15
253.968	50.86
254.185	100.01
254.401	54.95
254.618	-39.25
254.835	-45.4
255.051	71.34
255.268	9.9
255.484	77.48
255.701	50.86
255.917	79.53
256.134	22.19
256.351	97.96
256.567	22.19
256.784	13.99
257	83.63
257.217	46.76
257.433	24.23
257.65	38.57
257.866	38.57
258.082	-20.82
258.299	26.28
258.515	40.62
258.732	20.14
258.948	54.95
259.165	32.43
259.381	69.29
259.597	-6.49
259.814	32.43
260.03	-39.25
260.246	114.34
260.463	3.75
260.679	95.91
260.895	46.76
261.112	-26.96
261.328	20.14
261.544	42.67
261.761	30.38
261.977	-26.96
262.193	-8.53
262.409	-47.44
262.626	44.71
262.842	48.81
263.058	-43.35
263.274	46.76
263.49	24.23
263.707	75.43
263.923	-0.34
264.139	16.04
264.355	124.58
264.571	38.57
264.787	112.3
265.004	83.63
265.22	65.19
265.436	-31.06
265.652	34.47
265.868	13.99
266.084	18.09
266.3	67.24
266.516	-22.87
266.732	-55.64
266.948	65.19
267.164	5.8
267.38	67.24
267.596	38.57
267.812	34.47
268.028	42.67
268.244	26.28
268.46	20.14
268.676	38.57
268.892	22.19
269.108	-22.87
269.324	26.28
269.54	34.47
269.756	24.23
269.972	36.52
270.188	89.77
270.403	-22.87
270.619	91.82
270.835	36.52
271.051	69.29
271.267	50.86
271.483	34.47
271.698	77.48
271.914	-57.68
272.13	5.8
272.346	3.75
272.562	26.28
272.777	67.24
272.993	18.09
273.209	34.47
273.425	50.86
273.64	-26.96
273.856	140.97
274.072	59.05
274.287	57
274.503	46.76
274.719	-16.73
274.934	77.48
275.15	11.95
275.366	-18.77
275.581	134.82
275.797	34.47
276.012	-8.53
276.228	52.91
276.444	22.19
276.659	52.91
276.875	-0.34
277.09	63.15
277.306	20.14
277.521	91.82
277.737	-16.73
277.952	40.62
278.168	11.95
278.383	-0.34
278.599	42.67
278.814	38.57
279.03	36.52
279.245	28.33
279.461	22.19
279.676	16.04
279.892	32.43
280.107	3.75
280.322	106.15
280.538	13.99
280.753	34.47
280.969	95.91
281.184	-14.68
281.399	28.33
281.615	73.39
281.83	9.9
282.045	81.58
282.26	1.71
282.476	5.8
282.691	61.1
282.906	20.14
283.122	67.24
283.337	13.99
283.552	-6.49
283.767	63.15
283.983	24.23
284.198	63.15
284.413	-14.68
284.628	18.09
284.843	65.19
285.058	46.76
285.274	9.9
285.489	44.71
285.704	79.53
285.919	44.71
286.134	-39.25
286.349	24.23
286.564	81.58
286.779	116.39
286.995	22.19
287.21	-12.63
287.425	50.86
287.64	-0.34
287.855	65.19
288.07	67.24
288.285	81.58
288.5	-22.87
288.715	48.81
288.93	-12.63
289.145	36.52
289.36	79.53
289.575	44.71
289.79	50.86
290.004	32.43
290.219	-2.39
290.434	9.9
290.649	18.09
290.864	5.8
291.079	59.05
291.294	26.28
291.509	52.91
291.724	61.1
291.938	54.95
292.153	59.05
292.368	46.76
292.583	95.91
292.798	18.09
293.012	50.86
293.227	83.63
293.442	38.57
293.657	1.71
293.871	91.82
294.086	46.76
294.301	124.58
294.516	38.57
294.73	-37.2
294.945	36.52
295.16	26.28
295.374	40.62
295.589	85.67
295.804	34.47
296.018	57
296.233	-12.63
296.447	11.95
296.662	-14.68
296.877	46.76
297.091	59.05
297.306	9.9
297.52	87.72
297.735	34.47
297.949	5.8
298.164	42.67
298.378	24.23
298.593	1.71
298.807	46.76
299.022	22.19
299.236	18.09
299.451	-18.77
299.665	24.23
299.88	9.9
300.094	36.52
300.309	59.05
300.523	40.62
300.737	13.99
300.952	20.14
301.166	20.14
301.381	87.72
301.595	42.67
301.809	30.38
302.024	100.01
302.238	30.38
302.452	46.76
302.667	-29.01
302.881	50.86
303.095	-31.06
303.309	61.1
303.524	18.09
303.738	-22.87
303.952	-4.44
304.166	44.71
304.381	11.95
304.595	67.24
304.809	-37.2
305.023	34.47
305.237	18.09
305.452	57
305.666	36.52
305.88	13.99
306.094	85.67
306.308	38.57
306.522	18.09
306.736	24.23
306.95	40.62
307.164	20.14
307.379	13.99
307.593	-51.54
307.807	44.71
308.021	28.33
308.235	-8.53
308.449	-65.88
308.663	1.71
308.877	63.15
309.091	3.75
309.305	32.43
309.519	42.67
309.733	151.21
309.947	89.77
310.161	24.23
310.374	30.38
310.588	5.8
310.802	-63.83
311.016	30.38
311.23	-22.87
311.444	73.39
311.658	7.85
311.872	40.62
312.085	28.33
312.299	28.33
312.513	7.85
312.727	38.57
312.941	44.71
313.154	50.86
313.368	59.05
313.582	77.48
313.796	-47.44
314.009	11.95
314.223	-14.68
314.437	-8.53
314.651	9.9
314.864	30.38
315.078	46.76
315.292	-2.39
315.505	1.71
315.719	-4.44
315.933	65.19
316.146	-12.63
316.36	110.25
316.573	34.47
316.787	26.28
317.001	75.43
317.214	28.33
317.428	108.2
317.641	65.19
317.855	-12.63
318.068	3.75
318.282	38.57
318.495	65.19
318.709	46.76
318.922	18.09
319.136	-49.49
319.349	34.47
319.563	91.82
319.776	11.95
319.99	26.28
320.203	118.44
320.417	54.95
320.63	-35.16
320.843	52.91
321.057	91.82
321.27	34.47
321.483	73.39
321.697	100.01
321.91	18.09
322.124	36.52
322.337	46.76
322.55	73.39
322.763	44.71
322.977	34.47
323.19	-18.77
323.403	83.63
323.617	97.96
323.83	59.05
324.043	7.85
324.256	118.44
324.469	9.9
324.683	18.09
324.896	-29.01
325.109	59.05
325.322	46.76
325.535	-51.54
325.748	40.62
325.962	42.67
326.175	-0.34
326.388	54.95
326.601	69.29
326.814	50.86
327.027	30.38
327.24	-2.39
327.453	38.57
327.666	1.71
327.879	104.11
328.092	69.29
328.305	44.71
328.518	1.71
328.731	77.48
328.944	138.92
329.157	42.67
329.37	46.76
329.583	36.52
329.796	22.19
330.009	28.33
330.222	104.11
330.435	-10.58
330.648	59.05
330.861	9.9
331.073	40.62
331.286	7.85
331.499	87.72
331.712	9.9
331.925	28.33
332.138	-22.87
332.35	50.86
332.563	18.09
332.776	83.63
332.989	81.58
333.202	32.43
333.414	67.24
333.627	69.29
333.84	-12.63
334.053	26.28
334.265	-12.63
334.478	85.67
334.691	-14.68
334.903	65.19
335.116	3.75
335.329	44.71
335.541	57
335.754	69.29
335.966	73.39
336.179	71.34
336.392	77.48
336.604	-26.96
336.817	30.38
337.029	-10.58
337.242	7.85
337.454	114.34
337.667	-63.83
337.88	89.77
338.092	89.77
338.305	36.52
338.517	13.99
338.729	-6.49
338.942	-4.44
339.154	79.53
339.367	9.9
339.579	-63.83
339.792	30.38
340.004	83.63
340.217	26.28
340.429	9.9
340.641	114.34
340.854	-55.64
341.066	9.9
341.278	-2.39
341.491	91.82
341.703	24.23
341.915	24.23
342.128	91.82
342.34	38.57
342.552	50.86
342.764	-2.39
342.977	44.71
343.189	59.05
343.401	-12.63
343.613	91.82
343.826	-18.77
344.038	9.9
344.25	16.04
344.462	30.38
344.674	95.91
344.886	91.82
345.099	52.91
345.311	36.52
345.523	26.28
345.735	9.9
345.947	54.95
346.159	87.72
346.371	69.29
346.583	-2.39
346.795	32.43
347.007	26.28
347.219	36.52
347.431	59.05
347.643	36.52
347.855	20.14
348.067	48.81
348.279	1.71
348.491	67.24
348.703	3.75
348.915	-47.44
349.127	71.34
349.339	97.96
349.551	73.39
349.763	128.68
349.975	46.76
350.187	69.29
350.399	48.81
350.61	34.47
350.822	46.76
351.034	83.63
351.246	34.47
351.458	75.43
351.669	83.63
351.881	-6.49
352.093	57
352.305	77.48
352.517	145.06
352.728	75.43
352.94	36.52
353.152	42.67
353.363	-2.39
353.575	93.87
353.787	46.76
353.999	-10.58
354.21	50.86
354.422	9.9
354.633	52.91
354.845	50.86
355.057	130.73
355.268	20.14
355.48	48.81
355.692	67.24
355.903	57
356.115	67.24
356.326	9.9
356.538	71.34
356.749	81.58
356.961	79.53
357.172	57
357.384	61.1
357.595	50.86
357.807	30.38
358.018	-6.49
358.23	44.71
358.441	57
358.653	-6.49
358.864	28.33
359.075	40.62
359.287	83.63
359.498	28.33
359.709	95.91
359.921	40.62
360.132	38.57
360.344	95.91
360.555	-39.25
360.766	-2.39
360.977	20.14
361.189	18.09
361.4	59.05
361.611	116.39
361.823	20.14
362.034	-12.63
362.245	32.43
362.456	11.95
362.667	108.2
362.879	9.9
363.09	-22.87
363.301	-2.39
363.512	46.76
363.723	24.23
363.935	54.95
364.146	36.52
364.357	5.8
364.568	93.87
364.779	-2.39
364.99	18.09
365.201	5.8
365.412	134.82
365.623	65.19
365.834	65.19
366.045	48.81
366.256	46.76
366.467	-26.96
366.678	108.2
366.889	85.67
367.1	13.99
367.311	106.15
367.522	46.76
367.733	59.05
367.944	50.86
368.155	48.81
368.366	65.19
368.577	61.1
368.788	59.05
368.999	87.72
369.209	85.67
369.42	54.95
369.631	57
369.842	85.67
370.053	42.67
370.264	79.53
370.474	50.86
370.685	38.57
370.896	34.47
371.107	44.71
371.317	-0.34
371.528	-18.77
371.739	50.86
371.95	-8.53
372.16	59.05
372.371	11.95
372.582	5.8
372.792	89.77
373.003	28.33
373.214	42.67
373.424	59.05
373.635	36.52
373.846	34.47
374.056	63.15
374.267	83.63
374.477	59.05
374.688	83.63
374.898	52.91
375.109	20.14
375.319	1.71
375.53	38.57
375.74	57
375.951	-41.3
376.161	104.11
376.372	20.14
376.582	22.19
376.793	22.19
377.003	79.53
377.214	13.99
377.424	26.28
377.635	20.14
377.845	-41.3
378.055	65.19
378.266	57
378.476	-0.34
378.686	5.8
378.897	46.76
379.107	-31.06
379.317	81.58
379.528	34.47
379.738	36.52
379.948	30.38
380.158	34.47
380.369	7.85
380.579	-20.82
380.789	100.01
380.999	34.47
381.21	9.9
381.42	59.05
381.63	22.19
381.84	79.53
382.05	54.95
382.261	-4.44
382.471	26.28
382.681	91.82
382.891	83.63
383.101	59.05
383.311	34.47
383.521	91.82
383.731	1.71
383.941	18.09
384.151	85.67
384.361	91.82
384.571	54.95
384.781	81.58
384.991	79.53
385.201	102.06
385.411	18.09
385.621	59.05
385.831	46.76
386.041	77.48
386.251	5.8
386.461	57
386.671	42.67
386.881	57
387.091	26.28
387.301	77.48
387.511	9.9
387.72	20.14
387.93	5.8
388.14	61.1
388.35	30.38
388.56	77.48
388.769	112.3
388.979	100.01
389.189	52.91
389.399	36.52
389.609	67.24
389.818	83.63
390.028	69.29
390.238	87.72
390.447	67.24
390.657	42.67
390.867	110.25
391.076	54.95
391.286	-2.39
391.496	124.58
391.705	28.33
391.915	110.25
392.125	114.34
392.334	52.91
392.544	22.19
392.753	85.67
392.963	67.24
393.172	50.86
393.382	54.95
393.591	163.5
393.801	69.29
394.01	122.54
394.22	32.43
394.429	110.25
394.639	95.91
394.848	81.58
395.058	34.47
395.267	81.58
395.477	95.91
395.686	116.39
395.895	118.44
396.105	91.82
396.314	108.2
396.524	102.06
396.733	95.91
396.942	155.3
397.152	120.49
397.361	106.15
397.57	183.98
397.78	61.1
397.989	120.49
398.198	216.74
398.407	122.54
398.617	102.06
398.826	59.05
399.035	73.39
399.244	69.29
399.453	126.63
399.663	61.1
399.872	102.06
400.081	44.71
400.29	69.29
400.499	108.2
400.708	100.01
400.917	128.68
401.127	67.24
401.336	95.91
401.545	173.74
401.754	188.07
401.963	163.5
402.172	44.71
402.381	145.06
402.59	177.83
402.799	91.82
403.008	50.86
403.217	181.93
403.426	100.01
403.635	130.73
403.844	143.02
404.053	151.21
404.262	112.3
404.471	97.96
404.68	102.06
404.888	181.93
405.097	143.02
405.306	106.15
405.515	210.6
405.724	116.39
405.933	114.34
406.142	132.78
406.35	186.02
406.559	198.31
406.768	157.35
406.977	165.54
407.185	179.88
407.394	145.06
407.603	235.18
407.812	206.5
408.02	216.74
408.229	218.79
408.438	186.02
408.646	204.46
408.855	255.65
409.064	253.61
409.272	237.22
409.481	218.79
409.69	212.65
409.898	296.61
410.107	304.81
410.315	280.23
410.524	290.47
410.733	372.39
410.941	376.48
411.15	313
411.358	319.14
411.567	407.2
411.775	321.19
411.984	315.05
412.192	425.64
412.401	390.82
412.609	396.96
412.818	394.92
413.026	466.6
413.234	507.55
413.443	540.32
413.651	425.64
413.86	528.03
414.068	628.39
414.276	577.19
414.485	571.04
414.693	646.82
414.901	648.86
415.11	655.01
415.318	665.25
415.526	663.2
415.734	788.13
415.943	761.5
416.151	781.98
416.359	818.85
416.567	845.47
416.776	896.67
416.984	931.48
417.192	931.48
417.4	911
417.608	1001.12
417.817	982.68
418.025	984.73
418.233	1150.62
418.441	1062.55
418.649	1115.8
418.857	1068.7
419.065	1277.59
419.273	1298.07
419.481	1322.65
419.689	1296.02
419.897	1394.33
420.105	1431.19
420.313	1377.94
420.521	1513.11
420.729	1564.31
420.937	1558.16
421.145	1640.08
421.353	1660.56
421.561	1808.02
421.769	1861.26
421.977	1887.89
422.185	1824.4
422.393	2025.1
422.601	2053.77
422.809	2107.02
423.017	2141.83
423.224	2160.27
423.432	2379.4
423.64	2277
423.848	2590.34
424.056	2457.22
424.263	2561.67
424.471	2655.87
424.679	2705.03
424.887	2877.05
425.094	3020.41
425.302	2983.55
425.51	3053.18
425.718	3106.43
425.925	3186.3
426.133	3292.79
426.341	3442.29
426.548	3681.91
426.756	3686
426.964	3647.09
427.171	3817.07
427.379	4023.92
427.586	4062.83
427.794	4238.95
428.001	4423.27
428.209	4544.1
428.417	4447.85
428.624	4902.5
428.832	4767.33
429.039	4750.95
429.247	4900.45
429.454	5338.71
429.662	5631.57
429.869	5111.39
430.076	5652.05
430.284	5430.87
430.491	5559.89
430.699	6088.27
430.906	5965.39
431.114	6080.08
431.321	6329.93
431.528	6501.96
431.736	7036.48
431.943	7079.49
432.15	6719.04
432.358	7040.58
432.565	7358.01
432.772	7310.91
432.979	7695.93
433.187	7769.65
433.394	8003.12
433.601	8617.51
433.808	8427.05
434.016	8406.57
434.223	8748.58
434.43	9098.78
434.637	8910.37
434.844	9725.46
435.052	9770.52
435.259	9696.79
435.466	9952.79
435.673	9975.31
435.88	10438.16
436.087	10952.2
436.294	10944
436.501	10685.96
436.708	10843.65
436.915	11306.49
437.122	11619.83
437.329	11589.11
437.537	12090.87
437.743	12361.2
437.95	12221.94
438.157	13057.51
438.364	13219.3
438.571	13379.04
438.778	13137.38
438.985	14312.91
439.192	13987.29
439.399	14364.11
439.606	13952.47
439.813	15027.65
440.02	15742.39
440.227	15615.42
440.433	15384
440.64	15852.98
440.847	16047.54
441.054	16102.84
441.261	17268.13
441.467	16944.55
441.674	17388.96
441.881	18068.89
442.088	18048.41
442.294	17911.19
442.501	18204.05
442.708	18802.06
442.914	19203.46
443.121	20387.19
443.328	19510.66
443.534	20925.8
443.741	20383.09
443.948	20174.2
444.154	21554.53
444.361	21382.5
444.568	21636.45
444.774	21622.11
444.981	21859.68
445.187	22619.47
445.394	23389.51
445.6	22793.55
445.807	25570.6
446.013	24595.76
446.22	24732.98
446.426	25593.12
446.633	25912.61
446.839	27131.15
447.046	25773.35
447.252	26785.04
447.459	27342.09
447.665	26985.74
447.871	28423.42
448.078	29265.13
448.284	28062.97
448.491	28945.65
448.697	29791.46
448.903	30358.75
449.11	30733.53
449.316	30004.45
449.522	30422.23
449.728	31235.28
449.935	31343.82
450.141	31575.24
450.347	32199.87
450.553	31196.37
450.76	31425.74
450.966	32570.55
451.172	32156.86
451.378	33170.61
451.584	32277.69
451.791	33264.82
451.997	33111.22
452.203	33600.68
452.409	33486
452.615	33332.4
452.821	32117.95
453.027	31794.37
453.233	33387.69
453.44	32101.57
453.646	32429.24
453.852	32740.54
454.058	33223.86
454.264	32210.11
454.47	32437.44
454.676	32046.27
454.882	33096.88
455.088	29979.87
455.294	30715.09
455.5	31196.37
455.705	31476.94
455.911	30053.6
456.117	29426.92
456.323	29105.39
456.529	27899.14
456.735	28736.76
456.941	28261.63
457.147	27569.41
457.352	26776.85
457.558	26383.64
457.764	26570.01
457.97	26107.16
458.176	25668.9
458.381	25662.76
458.587	24257.85
458.793	24534.32
458.999	23287.11
459.204	24388.92
459.41	23981.37
459.616	22435.16
459.821	22611.28
460.027	22469.97
460.233	21699.94
460.438	20823.4
460.644	21093.74
460.85	20043.13
461.055	19875.2
461.261	19768.7
461.466	18421.14
461.672	17845.66
461.878	19219.85
462.083	17788.32
462.289	17327.52
462.494	17352.1
462.7	16405.94
462.905	16055.73
463.111	16649.64
463.316	16797.1
463.522	16414.13
463.727	16442.8
463.932	16553.39
464.138	15836.6
464.343	16307.63
464.549	15977.91
464.754	16461.23
464.959	16074.17
465.165	16367.02
465.37	15476.16
465.575	15220.16
465.781	15605.18
465.986	15719.87
466.191	15336.9
466.397	14706.12
466.602	14011.86
466.807	15021.51
467.012	14874.06
467.218	14814.66
467.423	14360.02
467.628	14568.91
467.833	15160.77
468.038	14321.1
468.244	14396.88
468.449	14720.46
468.654	14286.29
