Data from USB4F104151__129__13-57-59-117.txt Node

Date: Thu Mar 13 13:57:59 EDT 2025
User: louis
Spectrometer: USB4F10415
Trigger mode: 4
Integration Time (sec): 1.000000E-2
Scans to average: 1
Electric dark correction enabled: true
Nonlinearity correction enabled: false
Boxcar width: 0
XAxis mode: Wavelengths
Number of Pixels in Spectrum: 3648
>>>>>Begin Spectral Data<<<<<
178.204	-63.49
178.424	-63.49
178.644	-63.49
178.864	-36.86
179.084	-45.06
179.304	73.73
179.524	47.1
179.744	-38.91
179.964	-20.48
180.184	34.82
180.404	10.24
180.624	-36.86
180.844	-24.58
181.064	-12.29
181.283	20.48
181.503	-34.82
181.723	-18.43
181.943	51.2
182.163	-4.1
182.383	-4.1
182.602	83.97
182.822	51.2
183.042	12.29
183.262	-51.2
183.482	47.1
183.701	28.67
183.921	81.92
184.141	28.67
184.361	40.96
184.58	43.01
184.8	12.29
185.02	8.19
185.239	92.16
185.459	69.63
185.679	77.82
185.898	14.34
186.118	12.29
186.338	65.53
186.557	24.58
186.777	92.16
186.997	67.58
187.216	59.39
187.436	55.3
187.655	53.25
187.875	2.05
188.095	36.86
188.314	79.87
188.534	10.24
188.753	24.58
188.973	55.3
189.192	-49.15
189.412	77.82
189.631	126.97
189.851	38.91
190.07	75.77
190.29	4.1
190.509	81.92
190.729	6.14
190.948	30.72
191.168	88.06
191.387	32.77
191.607	16.38
191.826	45.06
192.045	-57.34
192.265	83.97
192.484	49.15
192.704	4.1
192.923	-22.53
193.142	73.73
193.362	38.91
193.581	40.96
193.8	10.24
194.02	49.15
194.239	2.05
194.458	38.91
194.678	14.34
194.897	26.62
195.116	18.43
195.335	61.44
195.555	-51.2
195.774	-10.24
195.993	-2.05
196.212	77.82
196.432	-40.96
196.651	-32.77
196.87	-26.62
197.089	38.91
197.308	59.39
197.528	26.62
197.747	10.24
197.966	45.06
198.185	86.01
198.404	59.39
198.623	-51.2
198.842	32.77
199.062	-2.05
199.281	79.87
199.5	20.48
199.719	-16.38
199.938	38.91
200.157	38.91
200.376	20.48
200.595	75.77
200.814	-49.15
201.033	81.92
201.252	10.24
201.471	-22.53
201.69	10.24
201.909	36.86
202.128	-10.24
202.347	88.06
202.566	28.67
202.785	-8.19
203.004	-47.1
203.223	96.25
203.442	26.62
203.661	2.05
203.879	16.38
204.098	75.77
204.317	-6.14
204.536	-32.77
204.755	81.92
204.974	-28.67
205.193	63.49
205.411	79.87
205.63	55.3
205.849	81.92
206.068	0
206.287	26.62
206.505	-18.43
206.724	8.19
206.943	-10.24
207.162	67.58
207.381	26.62
207.599	-4.1
207.818	61.44
208.037	-36.86
208.255	-30.72
208.474	-12.29
208.693	-8.19
208.911	28.67
209.13	59.39
209.349	22.53
209.567	-20.48
209.786	22.53
210.005	55.3
210.223	61.44
210.442	24.58
210.661	-4.1
210.879	18.43
211.098	10.24
211.316	4.1
211.535	30.72
211.753	-32.77
211.972	114.69
212.191	36.86
212.409	65.53
212.628	55.3
212.846	59.39
213.065	59.39
213.283	67.58
213.502	8.19
213.72	2.05
213.938	-51.2
214.157	77.82
214.375	0
214.594	75.77
214.812	38.91
215.031	-28.67
215.249	2.05
215.467	79.87
215.686	100.35
215.904	43.01
216.122	6.14
216.341	59.39
216.559	-12.29
216.778	34.82
216.996	-12.29
217.214	-51.2
217.432	57.34
217.651	71.68
217.869	-14.34
218.087	36.86
218.306	59.39
218.524	118.78
218.742	2.05
218.96	88.06
219.179	-16.38
219.397	77.82
219.615	26.62
219.833	0
220.051	81.92
220.27	-14.34
220.488	47.1
220.706	67.58
220.924	-32.77
221.142	28.67
221.36	-77.82
221.578	43.01
221.796	43.01
222.015	67.58
222.233	47.1
222.451	24.58
222.669	38.91
222.887	26.62
223.105	104.45
223.323	65.53
223.541	45.06
223.759	57.34
223.977	18.43
224.195	10.24
224.413	0
224.631	24.58
224.849	24.58
225.067	28.67
225.285	61.44
225.503	81.92
225.721	-12.29
225.939	28.67
226.157	30.72
226.375	59.39
226.592	43.01
226.81	71.68
227.028	55.3
227.246	126.97
227.464	12.29
227.682	-12.29
227.9	40.96
228.117	6.14
228.335	20.48
228.553	36.86
228.771	14.34
228.989	86.01
229.206	26.62
229.424	63.49
229.642	4.1
229.86	65.53
230.077	30.72
230.295	-22.53
230.513	4.1
230.731	57.34
230.948	-4.1
231.166	-6.14
231.384	24.58
231.601	79.87
231.819	0
232.037	71.68
232.254	-10.24
232.472	10.24
232.689	40.96
232.907	65.53
233.125	24.58
233.342	55.3
233.56	-6.14
233.777	45.06
233.995	28.67
234.213	51.2
234.43	26.62
234.648	36.86
234.865	59.39
235.083	-61.44
235.3	47.1
235.518	43.01
235.735	32.77
235.953	59.39
236.17	20.48
236.388	6.14
236.605	8.19
236.822	-14.34
237.04	-22.53
237.257	-20.48
237.475	14.34
237.692	26.62
237.909	-24.58
238.127	4.1
238.344	53.25
238.562	83.97
238.779	43.01
238.996	81.92
239.214	43.01
239.431	59.39
239.648	-12.29
239.865	92.16
240.083	57.34
240.3	36.86
240.517	34.82
240.735	61.44
240.952	63.49
241.169	-16.38
241.386	40.96
241.603	-18.43
241.821	8.19
242.038	71.68
242.255	26.62
242.472	-34.82
242.689	-4.1
242.907	24.58
243.124	26.62
243.341	26.62
243.558	-6.14
243.775	18.43
243.992	16.38
244.209	36.86
244.426	47.1
244.643	51.2
244.86	53.25
245.078	51.2
245.295	47.1
245.512	18.43
245.729	30.72
245.946	108.54
246.163	79.87
246.38	43.01
246.597	10.24
246.814	65.53
247.031	36.86
247.248	45.06
247.464	-18.43
247.681	34.82
247.898	20.48
248.115	14.34
248.332	-90.11
248.549	49.15
248.766	26.62
248.983	63.49
249.2	36.86
249.417	8.19
249.633	55.3
249.85	-16.38
250.067	34.82
250.284	49.15
250.501	-24.58
250.717	71.68
250.934	38.91
251.151	51.2
251.368	10.24
251.585	57.34
251.801	94.21
252.018	38.91
252.235	43.01
252.451	59.39
252.668	65.53
252.885	57.34
253.102	18.43
253.318	22.53
253.535	30.72
253.752	43.01
253.968	32.77
254.185	12.29
254.401	40.96
254.618	34.82
254.835	-16.38
255.051	55.3
255.268	77.82
255.484	81.92
255.701	30.72
255.917	92.16
256.134	98.3
256.351	79.87
256.567	14.34
256.784	49.15
257	12.29
257.217	55.3
257.433	59.39
257.65	53.25
257.866	55.3
258.082	-10.24
258.299	100.35
258.515	90.11
258.732	59.39
258.948	-20.48
259.165	8.19
259.381	-43.01
259.597	-14.34
259.814	4.1
260.03	100.35
260.246	-40.96
260.463	2.05
260.679	-26.62
260.895	-16.38
261.112	4.1
261.328	-2.05
261.544	43.01
261.761	14.34
261.977	-2.05
262.193	2.05
262.409	69.63
262.626	30.72
262.842	34.82
263.058	-20.48
263.274	59.39
263.49	-4.1
263.707	26.62
263.923	6.14
264.139	36.86
264.355	57.34
264.571	45.06
264.787	75.77
265.004	24.58
265.22	86.01
265.436	59.39
265.652	61.44
265.868	36.86
266.084	69.63
266.3	2.05
266.516	53.25
266.732	32.77
266.948	43.01
267.164	77.82
267.38	81.92
267.596	55.3
267.812	30.72
268.028	94.21
268.244	20.48
268.46	18.43
268.676	59.39
268.892	59.39
269.108	32.77
269.324	43.01
269.54	-18.43
269.756	-30.72
269.972	55.3
270.188	12.29
270.403	6.14
270.619	-30.72
270.835	79.87
271.051	59.39
271.267	-10.24
271.483	-2.05
271.698	18.43
271.914	47.1
272.13	77.82
272.346	98.3
272.562	-10.24
272.777	83.97
272.993	-6.14
273.209	43.01
273.425	47.1
273.64	88.06
273.856	51.2
274.072	28.67
274.287	34.82
274.503	-20.48
274.719	81.92
274.934	59.39
275.15	30.72
275.366	16.38
275.581	-26.62
275.797	69.63
276.012	-67.58
276.228	12.29
276.444	47.1
276.659	45.06
276.875	59.39
277.09	38.91
277.306	-6.14
277.521	-12.29
277.737	2.05
277.952	32.77
278.168	30.72
278.383	53.25
278.599	-20.48
278.814	-10.24
279.03	28.67
279.245	88.06
279.461	102.4
279.676	32.77
279.892	8.19
280.107	71.68
280.322	16.38
280.538	-20.48
280.753	-26.62
280.969	-38.91
281.184	8.19
281.399	38.91
281.615	34.82
281.83	94.21
282.045	28.67
282.26	28.67
282.476	24.58
282.691	96.25
282.906	20.48
283.122	10.24
283.337	-12.29
283.552	61.44
283.767	51.2
283.983	20.48
284.198	18.43
284.413	53.25
284.628	26.62
284.843	8.19
285.058	18.43
285.274	-10.24
285.489	-12.29
285.704	55.3
285.919	55.3
286.134	77.82
286.349	96.25
286.564	45.06
286.779	-10.24
286.995	-10.24
287.21	30.72
287.425	-4.1
287.64	-30.72
287.855	47.1
288.07	-26.62
288.285	43.01
288.5	110.59
288.715	110.59
288.93	-6.14
289.145	-8.19
289.36	69.63
289.575	43.01
289.79	34.82
290.004	22.53
290.219	55.3
290.434	20.48
290.649	-2.05
290.864	79.87
291.079	-4.1
291.294	43.01
291.509	20.48
291.724	81.92
291.938	108.54
292.153	67.58
292.368	57.34
292.583	53.25
292.798	53.25
293.012	94.21
293.227	83.97
293.442	43.01
293.657	36.86
293.871	-10.24
294.086	26.62
294.301	69.63
294.516	26.62
294.73	40.96
294.945	-14.34
295.16	86.01
295.374	16.38
295.589	75.77
295.804	-77.82
296.018	36.86
296.233	102.4
296.447	-6.14
296.662	61.44
296.877	71.68
297.091	-18.43
297.306	18.43
297.52	20.48
297.735	-20.48
297.949	92.16
298.164	53.25
298.378	61.44
298.593	-14.34
298.807	45.06
299.022	12.29
299.236	18.43
299.451	49.15
299.665	-38.91
299.88	-22.53
300.094	0
300.309	40.96
300.523	-2.05
300.737	38.91
300.952	-12.29
301.166	67.58
301.381	55.3
301.595	30.72
301.809	12.29
302.024	14.34
302.238	-4.1
302.452	10.24
302.667	77.82
302.881	12.29
303.095	4.1
303.309	30.72
303.524	51.2
303.738	73.73
303.952	28.67
304.166	22.53
304.381	6.14
304.595	59.39
304.809	36.86
305.023	20.48
305.237	10.24
305.452	-12.29
305.666	79.87
305.88	18.43
306.094	2.05
306.308	36.86
306.522	18.43
306.736	45.06
306.95	53.25
307.164	59.39
307.379	-100.35
307.593	34.82
307.807	73.73
308.021	24.58
308.235	28.67
308.449	12.29
308.663	40.96
308.877	-4.1
309.091	75.77
309.305	63.49
309.519	34.82
309.733	16.38
309.947	26.62
310.161	-6.14
310.374	65.53
310.588	34.82
310.802	-2.05
311.016	86.01
311.23	18.43
311.444	55.3
311.658	61.44
311.872	92.16
312.085	40.96
312.299	118.78
312.513	18.43
312.727	129.02
312.941	73.73
313.154	26.62
313.368	49.15
313.582	-6.14
313.796	53.25
314.009	51.2
314.223	12.29
314.437	16.38
314.651	-24.58
314.864	26.62
315.078	129.02
315.292	2.05
315.505	51.2
315.719	51.2
315.933	34.82
316.146	-8.19
316.36	59.39
316.573	43.01
316.787	26.62
317.001	10.24
317.214	28.67
317.428	6.14
317.641	12.29
317.855	4.1
318.068	30.72
318.282	90.11
318.495	94.21
318.709	92.16
318.922	8.19
319.136	59.39
319.349	71.68
319.563	69.63
319.776	24.58
319.99	79.87
320.203	131.07
320.417	51.2
320.63	36.86
320.843	98.3
321.057	24.58
321.27	10.24
321.483	-32.77
321.697	102.4
321.91	32.77
322.124	55.3
322.337	57.34
322.55	67.58
322.763	67.58
322.977	-10.24
323.19	28.67
323.403	100.35
323.617	14.34
323.83	-4.1
324.043	45.06
324.256	40.96
324.469	0
324.683	75.77
324.896	51.2
325.109	45.06
325.322	49.15
325.535	34.82
325.748	-4.1
325.962	32.77
326.175	2.05
326.388	-2.05
326.601	59.39
326.814	6.14
327.027	-67.58
327.24	67.58
327.453	20.48
327.666	-55.3
327.879	16.38
328.092	59.39
328.305	4.1
328.518	73.73
328.731	-8.19
328.944	47.1
329.157	118.78
329.37	22.53
329.583	106.49
329.796	26.62
330.009	-30.72
330.222	104.45
330.435	75.77
330.648	-22.53
330.861	20.48
331.073	-22.53
331.286	83.97
331.499	24.58
331.712	49.15
331.925	28.67
332.138	135.17
332.35	108.54
332.563	-30.72
332.776	45.06
332.989	-38.91
333.202	-4.1
333.414	16.38
333.627	69.63
333.84	34.82
334.053	106.49
334.265	14.34
334.478	59.39
334.691	67.58
334.903	26.62
335.116	16.38
335.329	47.1
335.541	-22.53
335.754	53.25
335.966	43.01
336.179	81.92
336.392	98.3
336.604	67.58
336.817	-59.39
337.029	139.26
337.242	63.49
337.454	20.48
337.667	-18.43
337.88	36.86
338.092	43.01
338.305	81.92
338.517	38.91
338.729	26.62
338.942	43.01
339.154	26.62
339.367	34.82
339.579	75.77
339.792	57.34
340.004	28.67
340.217	63.49
340.429	96.25
340.641	36.86
340.854	102.4
341.066	63.49
341.278	16.38
341.491	43.01
341.703	30.72
341.915	36.86
342.128	38.91
342.34	53.25
342.552	75.77
342.764	73.73
342.977	122.88
343.189	34.82
343.401	4.1
343.613	51.2
343.826	100.35
344.038	32.77
344.25	83.97
344.462	45.06
344.674	145.41
344.886	49.15
345.099	96.25
345.311	69.63
345.523	49.15
345.735	8.19
345.947	18.43
346.159	18.43
346.371	71.68
346.583	-45.06
346.795	51.2
347.007	108.54
347.219	38.91
347.431	38.91
347.643	59.39
347.855	20.48
348.067	61.44
348.279	96.25
348.491	133.12
348.703	65.53
348.915	12.29
349.127	49.15
349.339	30.72
349.551	36.86
349.763	6.14
349.975	18.43
350.187	38.91
350.399	67.58
350.61	92.16
350.822	10.24
351.034	36.86
351.246	100.35
351.458	55.3
351.669	20.48
351.881	36.86
352.093	-8.19
352.305	88.06
352.517	47.1
352.728	106.49
352.94	118.78
353.152	51.2
353.363	-6.14
353.575	69.63
353.787	0
353.999	20.48
354.21	126.97
354.422	67.58
354.633	59.39
354.845	-14.34
355.057	57.34
355.268	65.53
355.48	53.25
355.692	16.38
355.903	0
356.115	38.91
356.326	-10.24
356.538	4.1
356.749	22.53
356.961	-6.14
357.172	69.63
357.384	73.73
357.595	26.62
357.807	6.14
358.018	-22.53
358.23	-2.05
358.441	51.2
358.653	65.53
358.864	86.01
359.075	96.25
359.287	55.3
359.498	63.49
359.709	45.06
359.921	36.86
360.132	63.49
360.344	6.14
360.555	36.86
360.766	83.97
360.977	53.25
361.189	126.97
361.4	43.01
361.611	69.63
361.823	55.3
362.034	0
362.245	32.77
362.456	61.44
362.667	79.87
362.879	57.34
363.09	73.73
363.301	-8.19
363.512	14.34
363.723	67.58
363.935	-28.67
364.146	83.97
364.357	47.1
364.568	22.53
364.779	-8.19
364.99	59.39
365.201	49.15
365.412	43.01
365.623	55.3
365.834	38.91
366.045	45.06
366.256	43.01
366.467	112.64
366.678	30.72
366.889	18.43
367.1	67.58
367.311	20.48
367.522	102.4
367.733	86.01
367.944	-40.96
368.155	38.91
368.366	30.72
368.577	26.62
368.788	40.96
368.999	38.91
369.209	59.39
369.42	88.06
369.631	92.16
369.842	67.58
370.053	79.87
370.264	20.48
370.474	63.49
370.685	47.1
370.896	61.44
371.107	26.62
371.317	108.54
371.528	71.68
371.739	40.96
371.95	131.07
372.16	55.3
372.371	26.62
372.582	-4.1
372.792	86.01
373.003	61.44
373.214	-2.05
373.424	65.53
373.635	49.15
373.846	108.54
374.056	-40.96
374.267	38.91
374.477	116.73
374.688	59.39
374.898	28.67
375.109	57.34
375.319	47.1
375.53	83.97
375.74	22.53
375.951	67.58
376.161	12.29
376.372	24.58
376.582	-24.58
376.793	55.3
377.003	26.62
377.214	98.3
377.424	65.53
377.635	57.34
377.845	6.14
378.055	92.16
378.266	53.25
378.476	47.1
378.686	102.4
378.897	120.83
379.107	110.59
379.317	26.62
379.528	59.39
379.738	67.58
379.948	4.1
380.158	51.2
380.369	53.25
380.579	55.3
380.789	47.1
380.999	49.15
381.21	92.16
381.42	59.39
381.63	-4.1
381.84	53.25
382.05	71.68
382.261	22.53
382.471	94.21
382.681	51.2
382.891	79.87
383.101	118.78
383.311	14.34
383.521	57.34
383.731	47.1
383.941	55.3
384.151	4.1
384.361	34.82
384.571	63.49
384.781	53.25
384.991	43.01
385.201	43.01
385.411	102.4
385.621	75.77
385.831	2.05
386.041	53.25
386.251	118.78
386.461	79.87
386.671	36.86
386.881	28.67
387.091	75.77
387.301	124.93
387.511	45.06
387.72	98.3
387.93	28.67
388.14	38.91
388.35	61.44
388.56	6.14
388.769	-10.24
388.979	45.06
389.189	38.91
389.399	20.48
389.609	92.16
389.818	149.5
390.028	75.77
390.238	165.89
390.447	59.39
390.657	75.77
390.867	102.4
391.076	92.16
391.286	126.97
391.496	51.2
391.705	57.34
391.915	51.2
392.125	43.01
392.334	145.41
392.544	38.91
392.753	36.86
392.963	26.62
393.172	34.82
393.382	0
393.591	112.64
393.801	14.34
394.01	106.49
394.22	112.64
394.429	59.39
394.639	79.87
394.848	169.98
395.058	59.39
395.267	20.48
395.477	102.4
395.686	14.34
395.895	83.97
396.105	75.77
396.314	106.49
396.524	2.05
396.733	100.35
396.942	126.97
397.152	83.97
397.361	65.53
397.57	133.12
397.78	131.07
397.989	124.93
398.198	79.87
398.407	-30.72
398.617	155.65
398.826	51.2
399.035	102.4
399.244	71.68
399.453	71.68
399.663	153.6
399.872	151.55
400.081	71.68
400.29	135.17
400.499	86.01
400.708	65.53
400.917	106.49
401.127	92.16
401.336	102.4
401.545	137.21
401.754	137.21
401.963	129.02
402.172	98.3
402.381	178.17
402.59	96.25
402.799	157.69
403.008	137.21
403.217	133.12
403.426	129.02
403.635	165.89
403.844	141.31
404.053	65.53
404.262	155.65
404.471	114.69
404.68	176.13
404.888	69.63
405.097	96.25
405.306	129.02
405.515	96.25
405.724	135.17
405.933	100.35
406.142	210.94
406.35	165.89
406.559	174.08
406.768	135.17
406.977	204.8
407.185	182.27
407.394	172.03
407.603	186.37
407.812	260.09
408.02	206.84
408.229	186.37
408.438	276.48
408.646	231.42
408.855	235.52
409.064	305.15
409.272	262.14
409.481	247.8
409.69	227.32
409.898	196.6
410.107	249.85
410.315	329.72
410.524	346.11
410.733	311.29
410.941	311.29
411.15	370.68
411.358	411.64
411.567	417.79
411.775	329.72
411.984	372.73
412.192	397.31
412.401	475.13
412.609	464.89
412.818	399.35
413.026	399.35
413.234	485.37
413.443	473.08
413.651	501.75
413.86	485.37
414.068	522.23
414.276	534.52
414.485	544.76
414.693	571.38
414.901	600.05
415.11	659.45
415.318	632.82
415.526	729.08
415.734	669.69
415.943	692.21
416.151	786.42
416.359	745.46
416.567	813.04
416.776	839.67
416.984	829.43
417.192	886.77
417.4	964.59
417.608	829.43
417.817	876.53
418.025	980.98
418.233	995.31
418.441	962.55
418.649	997.36
418.857	1165.29
419.065	1144.81
419.273	1087.47
419.481	1265.64
419.689	1327.08
419.897	1288.17
420.105	1402.86
420.313	1380.33
420.521	1363.95
420.729	1419.24
420.937	1554.41
421.145	1525.74
421.353	1615.85
421.561	1609.7
421.769	1742.82
421.977	1800.16
422.185	1757.16
422.393	1855.46
422.601	2031.58
422.809	2039.78
423.017	2011.11
423.224	2136.03
423.432	2279.39
423.64	2183.13
423.848	2260.96
424.056	2271.2
424.263	2414.56
424.471	2523.1
424.679	2566.1
424.887	2752.47
425.094	2758.61
425.302	2750.42
425.51	2844.63
425.718	2965.46
425.925	2949.07
426.133	3100.62
426.341	3252.17
426.548	3420.11
426.756	3499.98
426.964	3489.74
427.171	3809.22
427.379	3811.27
427.586	3672.01
427.794	3907.52
428.001	4089.79
428.209	4331.45
428.417	4280.25
428.624	4607.93
428.832	4442.04
429.039	4454.33
429.247	4521.91
429.454	4808.63
429.662	5138.35
429.869	5007.28
430.076	5214.13
430.284	5156.79
430.491	5330.86
430.699	5640.11
430.906	5785.51
431.114	5713.83
431.321	6021.03
431.528	6107.04
431.736	6555.55
431.943	6563.74
432.15	6520.73
432.358	6447.01
432.565	6809.5
432.772	6977.43
432.979	7407.5
433.187	7358.35
433.394	7352.21
433.601	7915.4
433.808	8034.18
434.016	8021.89
434.223	8148.87
434.43	8640.38
434.637	8425.34
434.844	9170.8
435.052	9314.16
435.259	9080.69
435.466	9285.49
435.673	9144.18
435.88	9727.85
436.087	10522.46
436.294	10340.19
436.501	9934.7
436.708	10366.82
436.915	10751.84
437.122	10927.96
437.329	11120.47
437.537	11407.19
437.743	11601.74
437.95	11329.36
438.157	12248.9
438.364	12402.5
438.571	12572.48
438.778	12488.51
438.985	13600.56
439.192	13352.76
439.399	13512.5
439.606	13201.21
439.813	13911.85
440.02	15152.92
440.227	14550.82
440.433	14309.16
440.64	14860.06
440.847	14921.5
441.054	15081.24
441.261	16094.99
441.467	15939.34
441.674	16312.07
441.881	16981.76
442.088	16951.04
442.294	16713.47
442.501	17030.91
442.708	17610.48
442.914	18216.68
443.121	18964.19
443.328	18325.22
443.534	19644.12
443.741	19113.69
443.948	18853.6
444.154	20272.84
444.361	19971.79
444.568	20371.15
444.774	20365
444.981	20776.64
445.187	21157.57
445.394	22107.82
445.6	21712.56
445.807	23924.37
446.013	22732.45
446.22	23416.47
446.426	24125.07
446.633	24663.69
446.839	25147.01
447.046	23920.27
447.252	25730.68
447.459	25429.63
447.665	25388.67
447.871	26605.16
448.078	27692.63
448.284	26441.32
448.491	26773.1
448.697	28114.51
448.903	28300.88
449.11	28892.74
449.316	28137.04
449.522	28696.14
449.728	29433.41
449.935	29564.48
450.141	29546.05
450.347	30256.69
450.553	29048.39
450.76	29711.93
450.966	30545.45
451.172	30197.3
451.378	30811.69
451.584	30139.96
451.791	30832.17
451.997	30799.4
452.203	31233.57
452.409	31458.85
452.615	31161.89
452.821	30381.62
453.027	29832.76
453.233	31114.79
453.44	29959.73
453.646	30365.23
453.852	30619.18
454.058	31272.48
454.264	29990.45
454.47	30932.52
454.676	30047.8
454.882	30975.53
455.088	28755.53
455.294	28710.47
455.5	29062.72
455.705	29382.21
455.911	28364.37
456.117	28233.3
456.323	27197.02
456.529	25699.96
456.735	27127.39
456.941	26730.09
457.147	26103.41
457.352	25048.71
457.558	24741.51
457.764	24940.16
457.97	24585.86
458.176	23871.12
458.381	24118.93
458.587	22916.77
458.793	22847.14
458.999	21702.32
459.204	22904.48
459.41	22873.76
459.616	20950.72
459.821	21178.04
460.027	20983.49
460.233	20453.06
460.438	19568.34
460.644	19918.54
460.85	18816.74
461.055	18654.95
461.261	18605.8
461.466	17336.06
461.672	16760.58
461.878	17893.1
462.083	16852.73
462.289	16512.77
462.494	15935.24
462.7	15513.36
462.905	15062.81
463.111	15603.47
463.316	15898.38
463.522	15298.33
463.727	15249.18
463.932	15505.17
464.138	15216.41
464.343	15376.15
464.549	14651.17
464.754	15109.91
464.959	15161.11
465.165	15329.05
465.37	14497.57
465.575	14286.63
465.781	14425.89
465.986	14509.86
466.191	14221.09
466.397	13870.89
466.602	13233.97
466.807	13737.77
467.012	13762.35
467.218	13602.61
467.423	13496.11
467.628	13618.99
467.833	14235.43
468.038	13760.3
468.244	13199.16
468.449	13801.26
