Data from USB4F104151__146__13-58-22-355.txt Node

Date: Thu Mar 13 13:58:22 EDT 2025
User: louis
Spectrometer: USB4F10415
Trigger mode: 4
Integration Time (sec): 1.000000E-2
Scans to average: 1
Electric dark correction enabled: true
Nonlinearity correction enabled: false
Boxcar width: 0
XAxis mode: Wavelengths
Number of Pixels in Spectrum: 3648
>>>>>Begin Spectral Data<<<<<
178.204	33.62
178.424	33.62
178.644	33.62
178.864	-54.44
179.084	-48.3
179.304	-23.72
179.524	11.09
179.744	-15.53
179.964	-5.29
180.184	-62.63
180.404	31.57
180.624	-31.91
180.844	-15.53
181.064	21.33
181.283	78.68
181.503	-13.48
181.723	25.43
181.943	-31.91
182.163	0.85
182.383	-25.77
182.602	72.53
182.822	29.52
183.042	7
183.262	-11.43
183.482	17.24
183.701	17.24
183.921	60.24
184.141	27.48
184.361	-56.49
184.58	50
184.8	13.14
185.02	21.33
185.239	103.25
185.459	-33.96
185.679	-23.72
185.898	17.24
186.118	27.48
186.338	11.09
186.557	-11.43
186.777	-7.34
186.997	-36.01
187.216	-17.58
187.436	68.44
187.655	76.63
187.875	2.9
188.095	21.33
188.314	39.76
188.534	-9.39
188.753	9.05
188.973	17.24
189.192	13.14
189.412	-64.68
189.631	4.95
189.851	11.09
190.07	27.48
190.29	-7.34
190.509	68.44
190.729	-25.77
190.948	52.05
191.168	33.62
191.387	21.33
191.607	-23.72
191.826	33.62
192.045	31.57
192.265	37.72
192.484	-9.39
192.704	9.05
192.923	37.72
193.142	31.57
193.362	93.01
193.581	60.24
193.8	41.81
194.02	54.1
194.239	23.38
194.458	-7.34
194.678	54.1
194.897	11.09
195.116	47.96
195.335	-23.72
195.555	-19.63
195.774	74.58
195.993	64.34
196.212	25.43
196.432	7
196.651	-3.24
196.87	-44.2
197.089	64.34
197.308	-5.29
197.528	11.09
197.747	23.38
197.966	29.52
198.185	15.19
198.404	25.43
198.623	-3.24
198.842	31.57
199.062	39.76
199.281	70.48
199.5	33.62
199.719	0.85
199.938	70.48
200.157	56.15
200.376	31.57
200.595	58.2
200.814	70.48
201.033	-58.54
201.252	-56.49
201.471	33.62
201.69	93.01
201.909	-64.68
202.128	72.53
202.347	31.57
202.566	84.82
202.785	-36.01
203.004	-15.53
203.223	115.54
203.442	58.2
203.661	-11.43
203.879	-13.48
204.098	60.24
204.317	-5.29
204.536	74.58
204.755	39.76
204.974	-31.91
205.193	47.96
205.411	58.2
205.63	29.52
205.849	2.9
206.068	43.86
206.287	25.43
206.505	78.68
206.724	-1.19
206.943	45.91
207.162	54.1
207.381	-46.25
207.599	35.67
207.818	-42.15
208.037	45.91
208.255	103.25
208.474	80.72
208.693	-5.29
208.911	76.63
209.13	64.34
209.349	13.14
209.567	-15.53
209.786	29.52
210.005	-31.91
210.223	31.57
210.442	-21.67
210.661	72.53
210.879	17.24
211.098	82.77
211.316	25.43
211.535	2.9
211.753	66.39
211.972	99.16
212.191	7
212.409	37.72
212.628	9.05
212.846	84.82
213.065	-25.77
213.283	37.72
213.502	-38.06
213.72	60.24
213.938	25.43
214.157	25.43
214.375	43.86
214.594	-5.29
214.812	88.92
215.031	2.9
215.249	-5.29
215.467	19.29
215.686	4.95
215.904	4.95
216.122	43.86
216.341	33.62
216.559	0.85
216.778	99.16
216.996	43.86
217.214	58.2
217.432	-48.3
217.651	-7.34
217.869	0.85
218.087	50
218.306	37.72
218.524	-5.29
218.742	-58.54
218.96	25.43
219.179	93.01
219.397	-44.2
219.615	43.86
219.833	-13.48
220.051	17.24
220.27	84.82
220.488	88.92
220.706	56.15
220.924	-7.34
221.142	0.85
221.36	52.05
221.578	41.81
221.796	-13.48
222.015	31.57
222.233	-7.34
222.451	-9.39
222.669	25.43
222.887	60.24
223.105	25.43
223.323	23.38
223.541	35.67
223.759	60.24
223.977	27.48
224.195	70.48
224.413	33.62
224.631	113.49
224.849	2.9
225.067	47.96
225.285	-23.72
225.503	-29.87
225.721	9.05
225.939	-21.67
226.157	43.86
226.375	33.62
226.592	-36.01
226.81	17.24
227.028	52.05
227.246	41.81
227.464	56.15
227.682	76.63
227.9	-54.44
228.117	45.91
228.335	60.24
228.553	-21.67
228.771	25.43
228.989	37.72
229.206	95.06
229.424	39.76
229.642	-42.15
229.86	-1.19
230.077	47.96
230.295	80.72
230.513	29.52
230.731	33.62
230.948	60.24
231.166	58.2
231.384	70.48
231.601	52.05
231.819	7
232.037	43.86
232.254	23.38
232.472	-21.67
232.689	-19.63
232.907	41.81
233.125	39.76
233.342	0.85
233.56	29.52
233.777	17.24
233.995	39.76
234.213	41.81
234.43	17.24
234.648	23.38
234.865	54.1
235.083	74.58
235.3	17.24
235.518	60.24
235.735	17.24
235.953	66.39
236.17	-3.24
236.388	2.9
236.605	0.85
236.822	23.38
237.04	39.76
237.257	4.95
237.475	-15.53
237.692	9.05
237.909	23.38
238.127	27.48
238.344	50
238.562	50
238.779	4.95
238.996	29.52
239.214	-11.43
239.431	9.05
239.648	-13.48
239.865	9.05
240.083	15.19
240.3	21.33
240.517	35.67
240.735	-1.19
240.952	17.24
241.169	-23.72
241.386	7
241.603	35.67
241.821	-40.11
242.038	43.86
242.255	-33.96
242.472	31.57
242.689	-23.72
242.907	62.29
243.124	4.95
243.341	-46.25
243.558	-36.01
243.775	7
243.992	-15.53
244.209	23.38
244.426	31.57
244.643	33.62
244.86	62.29
245.078	37.72
245.295	17.24
245.512	47.96
245.729	-23.72
245.946	27.48
246.163	0.85
246.38	35.67
246.597	-3.24
246.814	11.09
247.031	17.24
247.248	17.24
247.464	58.2
247.681	64.34
247.898	50
248.115	-19.63
248.332	35.67
248.549	-5.29
248.766	-23.72
248.983	4.95
249.2	15.19
249.417	25.43
249.633	41.81
249.85	31.57
250.067	2.9
250.284	37.72
250.501	-19.63
250.717	62.29
250.934	29.52
251.151	19.29
251.368	-38.06
251.585	23.38
251.801	25.43
252.018	23.38
252.235	60.24
252.451	29.52
252.668	-11.43
252.885	27.48
253.102	-7.34
253.318	19.29
253.535	68.44
253.752	111.44
253.968	13.14
254.185	-3.24
254.401	-50.35
254.618	-27.82
254.835	60.24
255.051	-29.87
255.268	11.09
255.484	56.15
255.701	70.48
255.917	97.11
256.134	64.34
256.351	64.34
256.567	-11.43
256.784	-13.48
257	-11.43
257.217	-44.2
257.433	17.24
257.65	39.76
257.866	-29.87
258.082	70.48
258.299	-27.82
258.515	31.57
258.732	-5.29
258.948	50
259.165	-48.3
259.381	17.24
259.597	-15.53
259.814	-23.72
260.03	21.33
260.246	-46.25
260.463	70.48
260.679	-36.01
260.895	25.43
261.112	29.52
261.328	-31.91
261.544	7
261.761	-7.34
261.977	47.96
262.193	52.05
262.409	-19.63
262.626	101.2
262.842	45.91
263.058	62.29
263.274	17.24
263.49	-25.77
263.707	13.14
263.923	-52.39
264.139	9.05
264.355	25.43
264.571	60.24
264.787	37.72
265.004	-15.53
265.22	33.62
265.436	15.19
265.652	70.48
265.868	84.82
266.084	43.86
266.3	31.57
266.516	-1.19
266.732	41.81
266.948	43.86
267.164	68.44
267.38	39.76
267.596	-15.53
267.812	21.33
268.028	70.48
268.244	2.9
268.46	-15.53
268.676	-48.3
268.892	93.01
269.108	37.72
269.324	17.24
269.54	2.9
269.756	84.82
269.972	37.72
270.188	43.86
270.403	-11.43
270.619	52.05
270.835	54.1
271.051	62.29
271.267	21.33
271.483	-62.63
271.698	23.38
271.914	-19.63
272.13	25.43
272.346	-3.24
272.562	4.95
272.777	74.58
272.993	29.52
273.209	0.85
273.425	15.19
273.64	-54.44
273.856	31.57
274.072	66.39
274.287	-40.11
274.503	-58.54
274.719	60.24
274.934	50
275.15	4.95
275.366	27.48
275.581	7
275.797	-7.34
276.012	-13.48
276.228	37.72
276.444	33.62
276.659	58.2
276.875	39.76
277.09	103.25
277.306	52.05
277.521	93.01
277.737	-5.29
277.952	35.67
278.168	27.48
278.383	82.77
278.599	-27.82
278.814	25.43
279.03	11.09
279.245	-3.24
279.461	0.85
279.676	17.24
279.892	-7.34
280.107	27.48
280.322	56.15
280.538	29.52
280.753	64.34
280.969	33.62
281.184	-17.58
281.399	66.39
281.615	-33.96
281.83	111.44
282.045	19.29
282.26	66.39
282.476	31.57
282.691	82.77
282.906	17.24
283.122	21.33
283.337	4.95
283.552	50
283.767	-52.39
283.983	50
284.198	47.96
284.413	27.48
284.628	7
284.843	-9.39
285.058	33.62
285.274	-25.77
285.489	37.72
285.704	19.29
285.919	0.85
286.134	-29.87
286.349	29.52
286.564	43.86
286.779	-13.48
286.995	15.19
287.21	45.91
287.425	70.48
287.64	41.81
287.855	50
288.07	21.33
288.285	-21.67
288.5	76.63
288.715	13.14
288.93	41.81
289.145	19.29
289.36	25.43
289.575	68.44
289.79	-27.82
290.004	43.86
290.219	66.39
290.434	17.24
290.649	4.95
290.864	23.38
291.079	25.43
291.294	35.67
291.509	29.52
291.724	15.19
291.938	-13.48
292.153	52.05
292.368	-54.44
292.583	-23.72
292.798	-29.87
293.012	47.96
293.227	-23.72
293.442	0.85
293.657	0.85
293.871	17.24
294.086	37.72
294.301	31.57
294.516	11.09
294.73	41.81
294.945	31.57
295.16	70.48
295.374	78.68
295.589	80.72
295.804	27.48
296.018	-9.39
296.233	41.81
296.447	-52.39
296.662	43.86
296.877	78.68
297.091	-31.91
297.306	66.39
297.52	21.33
297.735	25.43
297.949	-21.67
298.164	58.2
298.378	99.16
298.593	-13.48
298.807	-48.3
299.022	41.81
299.236	0.85
299.451	-9.39
299.665	54.1
299.88	86.87
300.094	13.14
300.309	103.25
300.523	-40.11
300.737	-48.3
300.952	58.2
301.166	60.24
301.381	19.29
301.595	68.44
301.809	37.72
302.024	15.19
302.238	-50.35
302.452	33.62
302.667	2.9
302.881	74.58
303.095	31.57
303.309	70.48
303.524	-5.29
303.738	19.29
303.952	50
304.166	33.62
304.381	7
304.595	99.16
304.809	-40.11
305.023	43.86
305.237	78.68
305.452	50
305.666	37.72
305.88	0.85
306.094	66.39
306.308	52.05
306.522	-5.29
306.736	76.63
306.95	41.81
307.164	58.2
307.379	84.82
307.593	50
307.807	-33.96
308.021	97.11
308.235	86.87
308.449	13.14
308.663	-19.63
308.877	43.86
309.091	11.09
309.305	76.63
309.519	-64.68
309.733	19.29
309.947	-7.34
310.161	9.05
310.374	-29.87
310.588	52.05
310.802	60.24
311.016	78.68
311.23	0.85
311.444	19.29
311.658	62.29
311.872	23.38
312.085	7
312.299	60.24
312.513	35.67
312.727	13.14
312.941	113.49
313.154	82.77
313.368	70.48
313.582	86.87
313.796	25.43
314.009	-9.39
314.223	56.15
314.437	50
314.651	-9.39
314.864	37.72
315.078	43.86
315.292	29.52
315.505	27.48
315.719	76.63
315.933	60.24
316.146	11.09
316.36	60.24
316.573	90.96
316.787	58.2
317.001	129.88
317.214	-42.15
317.428	-40.11
317.641	45.91
317.855	60.24
318.068	72.53
318.282	70.48
318.495	21.33
318.709	78.68
318.922	47.96
319.136	27.48
319.349	-38.06
319.563	64.34
319.776	-1.19
319.99	7
320.203	0.85
320.417	17.24
320.63	82.77
320.843	52.05
321.057	23.38
321.27	17.24
321.483	-46.25
321.697	43.86
321.91	62.29
322.124	9.05
322.337	-19.63
322.55	50
322.763	47.96
322.977	25.43
323.19	4.95
323.403	2.9
323.617	4.95
323.83	50
324.043	27.48
324.256	70.48
324.469	82.77
324.683	0.85
324.896	93.01
325.109	15.19
325.322	66.39
325.535	33.62
325.748	56.15
325.962	17.24
326.175	45.91
326.388	37.72
326.601	17.24
326.814	39.76
327.027	60.24
327.24	17.24
327.453	-9.39
327.666	52.05
327.879	45.91
328.092	-42.15
328.305	41.81
328.518	-7.34
328.731	35.67
328.944	25.43
329.157	19.29
329.37	19.29
329.583	93.01
329.796	58.2
330.009	-44.2
330.222	43.86
330.435	47.96
330.648	-3.24
330.861	33.62
331.073	-17.58
331.286	111.44
331.499	54.1
331.712	11.09
331.925	82.77
332.138	-9.39
332.35	103.25
332.563	60.24
332.776	47.96
332.989	33.62
333.202	9.05
333.414	41.81
333.627	58.2
333.84	0.85
334.053	88.92
334.265	23.38
334.478	4.95
334.691	68.44
334.903	90.96
335.116	37.72
335.329	35.67
335.541	45.91
335.754	84.82
335.966	-23.72
336.179	74.58
336.392	50
336.604	-42.15
336.817	21.33
337.029	64.34
337.242	41.81
337.454	9.05
337.667	9.05
337.88	11.09
338.092	-42.15
338.305	-27.82
338.517	35.67
338.729	64.34
338.942	88.92
339.154	33.62
339.367	62.29
339.579	113.49
339.792	-87.21
340.004	113.49
340.217	-7.34
340.429	68.44
340.641	15.19
340.854	86.87
341.066	62.29
341.278	93.01
341.491	88.92
341.703	31.57
341.915	-19.63
342.128	45.91
342.34	-15.53
342.552	-3.24
342.764	7
342.977	43.86
343.189	58.2
343.401	90.96
343.613	60.24
343.826	64.34
344.038	47.96
344.25	60.24
344.462	25.43
344.674	76.63
344.886	70.48
345.099	35.67
345.311	-25.77
345.523	25.43
345.735	9.05
345.947	21.33
346.159	25.43
346.371	9.05
346.583	19.29
346.795	62.29
347.007	80.72
347.219	11.09
347.431	29.52
347.643	23.38
347.855	70.48
348.067	43.86
348.279	41.81
348.491	27.48
348.703	-19.63
348.915	84.82
349.127	41.81
349.339	13.14
349.551	86.87
349.763	86.87
349.975	-19.63
350.187	-25.77
350.399	17.24
350.61	21.33
350.822	17.24
351.034	13.14
351.246	88.92
351.458	41.81
351.669	15.19
351.881	78.68
352.093	76.63
352.305	19.29
352.517	99.16
352.728	70.48
352.94	-5.29
353.152	90.96
353.363	33.62
353.575	41.81
353.787	11.09
353.999	64.34
354.21	74.58
354.422	15.19
354.633	39.76
354.845	-23.72
355.057	33.62
355.268	45.91
355.48	-1.19
355.692	21.33
355.903	97.11
356.115	25.43
356.326	-1.19
356.538	-15.53
356.749	43.86
356.961	62.29
357.172	41.81
357.384	-11.43
357.595	9.05
357.807	27.48
358.018	47.96
358.23	37.72
358.441	11.09
358.653	7
358.864	-36.01
359.075	45.91
359.287	-1.19
359.498	25.43
359.709	17.24
359.921	43.86
360.132	23.38
360.344	50
360.555	52.05
360.766	47.96
360.977	-5.29
361.189	33.62
361.4	52.05
361.611	78.68
361.823	60.24
362.034	52.05
362.245	84.82
362.456	4.95
362.667	43.86
362.879	25.43
363.09	-21.67
363.301	164.69
363.512	70.48
363.723	31.57
363.935	-17.58
364.146	86.87
364.357	-29.87
364.568	37.72
364.779	31.57
364.99	82.77
365.201	58.2
365.412	50
365.623	9.05
365.834	37.72
366.045	35.67
366.256	-11.43
366.467	9.05
366.678	58.2
366.889	43.86
367.1	-23.72
367.311	-7.34
367.522	41.81
367.733	21.33
367.944	11.09
368.155	-3.24
368.366	-7.34
368.577	31.57
368.788	37.72
368.999	35.67
369.209	60.24
369.42	60.24
369.631	95.06
369.842	9.05
370.053	-7.34
370.264	11.09
370.474	0.85
370.685	15.19
370.896	70.48
371.107	54.1
371.317	82.77
371.528	0.85
371.739	142.16
371.95	33.62
372.16	101.2
372.371	4.95
372.582	74.58
372.792	62.29
373.003	25.43
373.214	-19.63
373.424	17.24
373.635	39.76
373.846	31.57
374.056	21.33
374.267	54.1
374.477	25.43
374.688	41.81
374.898	-5.29
375.109	15.19
375.319	95.06
375.53	41.81
375.74	15.19
375.951	76.63
376.161	41.81
376.372	15.19
376.582	35.67
376.793	119.64
377.003	21.33
377.214	-15.53
377.424	84.82
377.635	64.34
377.845	37.72
378.055	25.43
378.266	-23.72
378.476	41.81
378.686	52.05
378.897	33.62
379.107	-40.11
379.317	45.91
379.528	15.19
379.738	41.81
379.948	-23.72
380.158	74.58
380.369	31.57
380.579	45.91
380.789	133.97
380.999	17.24
381.21	50
381.42	62.29
381.63	0.85
381.84	62.29
382.05	-11.43
382.261	27.48
382.471	50
382.681	-13.48
382.891	54.1
383.101	13.14
383.311	-21.67
383.521	-29.87
383.731	4.95
383.941	27.48
384.151	0.85
384.361	74.58
384.571	41.81
384.781	62.29
384.991	66.39
385.201	117.59
385.411	99.16
385.621	-17.58
385.831	90.96
386.041	17.24
386.251	80.72
386.461	50
386.671	60.24
386.881	66.39
387.091	0.85
387.301	35.67
387.511	43.86
387.72	39.76
387.93	80.72
388.14	23.38
388.35	7
388.56	41.81
388.769	19.29
388.979	95.06
389.189	70.48
389.399	95.06
389.609	54.1
389.818	41.81
390.028	74.58
390.238	62.29
390.447	45.91
390.657	74.58
390.867	-7.34
391.076	-38.06
391.286	113.49
391.496	33.62
391.705	115.54
391.915	15.19
392.125	82.77
392.334	127.83
392.544	7
392.753	17.24
392.963	93.01
393.172	68.44
393.382	74.58
393.591	35.67
393.801	52.05
394.01	88.92
394.22	50
394.429	23.38
394.639	47.96
394.848	123.73
395.058	72.53
395.267	21.33
395.477	82.77
395.686	82.77
395.895	70.48
396.105	19.29
396.314	99.16
396.524	78.68
396.733	84.82
396.942	74.58
397.152	35.67
397.361	-9.39
397.57	86.87
397.78	146.26
397.989	72.53
398.198	82.77
398.407	93.01
398.617	101.2
398.826	23.38
399.035	56.15
399.244	23.38
399.453	68.44
399.663	99.16
399.872	127.83
400.081	50
400.29	154.45
400.499	76.63
400.708	60.24
400.917	33.62
401.127	25.43
401.336	138.07
401.545	170.83
401.754	62.29
401.963	129.88
402.172	138.07
402.381	50
402.59	72.53
402.799	97.11
403.008	70.48
403.217	39.76
403.426	64.34
403.635	27.48
403.844	129.88
404.053	101.2
404.262	99.16
404.471	90.96
404.68	90.96
404.888	62.29
405.097	125.78
405.306	127.83
405.515	189.27
405.724	101.2
405.933	166.74
406.142	181.07
406.35	187.22
406.559	80.72
406.768	156.5
406.977	99.16
407.185	144.21
407.394	148.31
407.603	181.07
407.812	181.07
408.02	201.55
408.229	78.68
408.438	174.93
408.646	111.44
408.855	170.83
409.064	148.31
409.272	213.84
409.481	154.45
409.69	181.07
409.898	240.47
410.107	170.83
410.315	226.13
410.524	291.66
410.733	140.12
410.941	179.03
411.15	213.84
411.358	297.81
411.567	344.91
411.775	291.66
411.984	310.1
412.192	262.99
412.401	353.1
412.609	262.99
412.818	346.96
413.026	365.39
413.234	355.15
413.443	344.91
413.651	402.26
413.86	422.73
414.068	340.82
414.276	385.87
414.485	389.97
414.693	443.21
414.901	443.21
415.11	426.83
415.318	510.8
415.526	545.61
415.734	508.75
415.943	625.48
416.151	562
416.359	600.91
416.567	686.92
416.776	617.29
416.984	713.55
417.192	658.25
417.4	723.79
417.608	711.5
417.817	713.55
418.025	854.86
418.233	770.89
418.441	762.7
418.649	729.93
418.857	858.95
419.065	932.68
419.273	910.15
419.481	977.73
419.689	965.45
419.897	1067.85
420.105	1078.08
420.313	1090.37
420.521	1022.79
420.729	1123.14
420.937	1190.72
421.145	1209.15
421.353	1313.6
421.561	1436.48
421.769	1387.33
421.977	1403.71
422.185	1379.14
422.393	1530.69
422.601	1524.54
422.809	1594.17
423.017	1682.24
423.224	1600.32
423.432	1633.08
423.64	1712.96
423.848	1919.8
424.056	1772.35
424.263	1899.32
424.471	2032.44
424.679	2081.59
424.887	2100.02
425.094	2200.37
425.302	2239.28
425.51	2313.01
425.718	2319.15
425.925	2417.46
426.133	2583.34
426.341	2706.22
426.548	2779.95
426.756	2681.64
426.964	2777.9
427.171	2851.63
427.379	2921.26
427.586	3126.05
427.794	3140.39
428.001	3113.77
428.209	3371.81
428.417	3324.71
428.624	3549.98
428.832	3457.82
429.039	3539.74
429.247	3670.81
429.454	3820.32
429.662	4256.53
429.869	3896.09
430.076	4180.76
430.284	4088.6
430.491	4201.24
430.699	4508.43
430.906	4444.95
431.114	4467.47
431.321	4696.85
431.528	4629.26
431.736	5204.74
431.943	5094.15
432.15	5131.02
432.358	5247.75
432.565	5485.31
432.772	5452.55
432.979	5651.2
433.187	5761.79
433.394	5786.37
433.601	6062.84
433.808	6451.95
434.016	6202.1
434.223	6464.24
434.43	6849.26
434.637	6777.58
434.844	7049.96
435.052	7189.22
435.259	7185.13
435.466	7502.56
435.673	7471.84
435.88	7652.06
436.087	8098.52
436.294	8055.51
436.501	7979.74
436.708	8229.59
436.915	8450.77
437.122	8592.08
437.329	8809.17
437.537	9003.72
437.743	9210.57
437.95	9038.54
438.157	9585.35
438.364	9880.25
438.571	9659.07
438.778	10078.91
438.985	10744.5
439.192	10414.77
439.399	10779.31
439.606	10355.38
439.813	11215.53
440.02	11741.86
440.227	11625.12
440.433	11711.14
440.64	12075.68
440.847	11694.75
441.054	12028.57
441.261	12946.06
441.467	12901.01
441.674	13040.27
441.881	13460.1
442.088	13310.6
442.294	13357.71
442.501	13628.04
442.708	13732.48
442.914	14604.92
443.121	15094.38
443.328	14613.11
443.534	15577.7
443.741	15268.46
443.948	15100.53
444.154	16108.13
444.361	15954.53
444.568	16167.52
444.774	16196.19
444.981	16319.07
445.187	16493.15
445.394	17523.27
445.6	17295.95
445.807	18942.52
446.013	18172.48
446.22	18348.61
446.426	19030.58
446.633	19223.09
446.839	20109.86
447.046	19022.39
447.252	20128.29
447.459	19952.16
447.665	19874.34
447.871	20744.73
448.078	21864.97
448.284	20982.29
448.491	21117.46
448.697	22249.99
448.903	22319.62
449.11	22528.51
449.316	22313.47
449.522	22657.53
449.728	23054.84
449.935	23241.2
450.141	23427.57
450.347	24066.53
450.553	22987.25
450.76	23206.39
450.966	24011.24
451.172	23859.69
451.378	24371.68
451.584	23953.9
451.791	24525.28
451.997	24510.94
452.203	24674.78
452.409	24846.81
452.615	24541.66
452.821	23579.12
453.027	23380.46
453.233	24869.34
453.44	23611.89
453.646	23818.73
453.852	23962.09
454.058	24574.43
454.264	23439.86
454.47	24170.98
454.676	23536.11
454.882	24510.94
455.088	22362.62
455.294	22651.39
455.5	22733.31
455.705	22913.53
455.911	21854.73
456.117	21768.71
456.323	21527.05
456.529	20073
456.735	21041.68
456.941	20568.6
457.147	20191.78
457.352	19329.58
457.558	19452.46
457.764	19399.21
457.97	19106.35
458.176	18649.66
458.381	18573.88
458.587	17717.83
458.793	17752.65
458.999	16767.57
459.204	18063.94
459.41	17330.76
459.616	16491.1
459.821	16159.33
460.027	16259.68
460.233	16128.61
460.438	15078
460.644	15241.84
460.85	14529.14
461.055	14365.31
461.261	14551.67
461.466	13511.3
461.672	13013.65
461.878	13785.73
462.083	12968.59
462.289	12702.36
462.494	12534.42
462.7	11887.26
462.905	11467.43
463.111	12198.56
463.316	12096.16
463.522	11905.7
463.727	11960.99
463.932	11772.58
464.138	11911.84
464.343	11819.68
464.549	11557.54
464.754	11862.69
464.959	12051.1
465.165	11913.89
465.37	11250.35
465.575	10965.68
465.781	11514.53
465.986	11610.79
466.191	11236.01
466.397	10846.9
466.602	10328.76
466.807	10746.55
467.012	10767.03
467.218	10785.46
467.423	10676.91
467.628	10580.66
467.833	11051.69
468.038	10480.31
468.244	10388.15
468.449	10828.46
468.654	10232.51
468.859	10468.02
469.064	10068.67
469.269	10021.56
469.474	10115.77
