Data from USB4F104151__110__13-54-51-888.txt Node

Date: Thu Mar 13 13:54:51 EDT 2025
User: louis
Spectrometer: USB4F10415
Trigger mode: 4
Integration Time (sec): 1.000000E-2
Scans to average: 1
Electric dark correction enabled: true
Nonlinearity correction enabled: false
Boxcar width: 0
XAxis mode: Wavelengths
Number of Pixels in Spectrum: 3648
>>>>>Begin Spectral Data<<<<<
178.204	-30.89
178.424	-30.89
178.644	-30.89
178.864	-39.08
179.084	-28.84
179.304	-18.6
179.524	-2.22
179.744	-6.31
179.964	-37.03
180.184	-4.27
180.404	-28.84
180.624	12.12
180.844	63.32
181.064	-49.32
181.283	-14.51
181.503	57.17
181.723	28.5
181.943	-84.14
182.163	44.88
182.383	26.45
182.602	-18.6
182.822	-55.47
183.042	-53.42
183.262	5.97
183.482	-10.41
183.701	3.93
183.921	-57.51
184.141	-6.31
184.361	26.45
184.58	-28.84
184.8	34.64
185.02	-45.23
185.239	42.84
185.459	-45.23
185.679	51.03
185.898	32.6
186.118	-32.94
186.338	-0.17
186.557	53.08
186.777	46.93
186.997	57.17
187.216	-12.46
187.436	44.88
187.655	-55.47
187.875	16.21
188.095	32.6
188.314	-28.84
188.534	5.97
188.753	55.12
188.973	-16.55
189.192	53.08
189.412	42.84
189.631	-22.7
189.851	32.6
190.07	114.52
190.29	-2.22
190.509	34.64
190.729	24.4
190.948	3.93
191.168	51.03
191.387	36.69
191.607	22.36
191.826	12.12
192.045	-34.99
192.265	-0.17
192.484	-16.55
192.704	-67.75
192.923	-20.65
193.142	104.28
193.362	-22.7
193.581	16.21
193.8	20.31
194.02	-41.13
194.239	75.6
194.458	-8.36
194.678	-65.71
194.897	42.84
195.116	57.17
195.335	-20.65
195.555	42.84
195.774	20.31
195.993	-14.51
196.212	20.31
196.432	-41.13
196.651	3.93
196.87	48.98
197.089	8.02
197.308	-10.41
197.528	36.69
197.747	3.93
197.966	16.21
198.185	51.03
198.404	-8.36
198.623	57.17
198.842	-12.46
199.062	-22.7
199.281	77.65
199.5	5.97
199.719	-10.41
199.938	-34.99
200.157	44.88
200.376	8.02
200.595	48.98
200.814	14.17
201.033	36.69
201.252	48.98
201.471	-28.84
201.69	8.02
201.909	44.88
202.128	51.03
202.347	-8.36
202.566	-28.84
202.785	-51.37
203.004	12.12
203.223	65.36
203.442	40.79
203.661	18.26
203.879	-6.31
204.098	-39.08
204.317	20.31
204.536	12.12
204.755	-6.31
204.974	30.55
205.193	59.22
205.411	100.18
205.63	57.17
205.849	34.64
206.068	-8.36
206.287	-4.27
206.505	3.93
206.724	44.88
206.943	16.21
207.162	-6.31
207.381	-8.36
207.599	-8.36
207.818	-34.99
208.037	-24.75
208.255	-0.17
208.474	26.45
208.693	-39.08
208.911	67.41
209.13	12.12
209.349	34.64
209.567	14.17
209.786	14.17
210.005	10.07
210.223	-69.8
210.442	135
210.661	-6.31
210.879	30.55
211.098	108.37
211.316	-8.36
211.535	-39.08
211.753	75.6
211.972	-28.84
212.191	-24.75
212.409	14.17
212.628	-28.84
212.846	-2.22
213.065	5.97
213.283	42.84
213.502	69.46
213.72	22.36
213.938	61.27
214.157	-59.56
214.375	-28.84
214.594	20.31
214.812	5.97
215.031	-0.17
215.249	-20.65
215.467	-51.37
215.686	46.93
215.904	98.13
216.122	-59.56
216.341	-2.22
216.559	-24.75
216.778	28.5
216.996	-12.46
217.214	91.99
217.432	-67.75
217.651	-12.46
217.869	-49.32
218.087	-8.36
218.306	71.51
218.524	44.88
218.742	59.22
218.96	-43.18
219.179	26.45
219.397	28.5
219.615	-32.94
219.833	12.12
220.051	22.36
220.27	-4.27
220.488	-6.31
220.706	16.21
220.924	5.97
221.142	38.74
221.36	71.51
221.578	16.21
221.796	10.07
222.015	59.22
222.233	34.64
222.451	22.36
222.669	-30.89
222.887	-6.31
223.105	14.17
223.323	46.93
223.541	-6.31
223.759	46.93
223.977	10.07
224.195	28.5
224.413	40.79
224.631	98.13
224.849	42.84
225.067	8.02
225.285	-57.51
225.503	-14.51
225.721	1.88
225.939	-16.55
226.157	-14.51
226.375	63.32
226.592	22.36
226.81	22.36
227.028	48.98
227.246	22.36
227.464	20.31
227.682	-6.31
227.9	14.17
228.117	85.84
228.335	-14.51
228.553	14.17
228.771	26.45
228.989	44.88
229.206	-24.75
229.424	40.79
229.642	8.02
229.86	5.97
230.077	-28.84
230.295	71.51
230.513	-22.7
230.731	65.36
230.948	-22.7
231.166	-26.79
231.384	5.97
231.601	65.36
231.819	-0.17
232.037	32.6
232.254	-16.55
232.472	-24.75
232.689	-37.03
232.907	30.55
233.125	-8.36
233.342	-8.36
233.56	-26.79
233.777	34.64
233.995	-26.79
234.213	63.32
234.43	28.5
234.648	-20.65
234.865	-6.31
235.083	-20.65
235.3	28.5
235.518	18.26
235.735	24.4
235.953	18.26
236.17	-22.7
236.388	-0.17
236.605	71.51
236.822	38.74
237.04	-39.08
237.257	42.84
237.475	34.64
237.692	-20.65
237.909	-14.51
238.127	34.64
238.344	22.36
238.562	1.88
238.779	32.6
238.996	51.03
239.214	-22.7
239.431	14.17
239.648	-45.23
239.865	-32.94
240.083	20.31
240.3	32.6
240.517	18.26
240.735	5.97
240.952	-14.51
241.169	55.12
241.386	102.23
241.603	26.45
241.821	-18.6
242.038	5.97
242.255	-18.6
242.472	-55.47
242.689	-0.17
242.907	34.64
243.124	-20.65
243.341	-41.13
243.558	-45.23
243.775	-16.55
243.992	-14.51
244.209	-24.75
244.426	53.08
244.643	-4.27
244.86	-0.17
245.078	89.94
245.295	20.31
245.512	5.97
245.729	8.02
245.946	-14.51
246.163	-22.7
246.38	-2.22
246.597	-22.7
246.814	55.12
247.031	-47.27
247.248	1.88
247.464	5.97
247.681	16.21
247.898	28.5
248.115	46.93
248.332	-4.27
248.549	12.12
248.766	14.17
248.983	34.64
249.2	-16.55
249.417	16.21
249.633	8.02
249.85	53.08
250.067	8.02
250.284	48.98
250.501	42.84
250.717	38.74
250.934	-2.22
251.151	22.36
251.368	75.6
251.585	-6.31
251.801	-26.79
252.018	26.45
252.235	51.03
252.451	22.36
252.668	16.21
252.885	30.55
253.102	18.26
253.318	12.12
253.535	-34.99
253.752	79.7
253.968	-37.03
254.185	53.08
254.401	-8.36
254.618	55.12
254.835	-12.46
255.051	55.12
255.268	34.64
255.484	-63.66
255.701	38.74
255.917	-4.27
256.134	-8.36
256.351	59.22
256.567	-30.89
256.784	-37.03
257	8.02
257.217	44.88
257.433	12.12
257.65	12.12
257.866	3.93
258.082	46.93
258.299	-32.94
258.515	28.5
258.732	44.88
258.948	55.12
259.165	30.55
259.381	32.6
259.597	53.08
259.814	8.02
260.03	28.5
260.246	20.31
260.463	53.08
260.679	16.21
260.895	-53.42
261.112	57.17
261.328	-18.6
261.544	53.08
261.761	28.5
261.977	20.31
262.193	-2.22
262.409	-18.6
262.626	-2.22
262.842	44.88
263.058	-20.65
263.274	40.79
263.49	51.03
263.707	42.84
263.923	-6.31
264.139	46.93
264.355	18.26
264.571	104.28
264.787	-24.75
265.004	-18.6
265.22	-73.9
265.436	-0.17
265.652	63.32
265.868	22.36
266.084	1.88
266.3	-55.47
266.516	-45.23
266.732	10.07
266.948	-63.66
267.164	-39.08
267.38	73.56
267.596	18.26
267.812	-0.17
268.028	48.98
268.244	-41.13
268.46	-6.31
268.676	42.84
268.892	-6.31
269.108	22.36
269.324	1.88
269.54	42.84
269.756	36.69
269.972	59.22
270.188	81.75
270.403	-30.89
270.619	28.5
270.835	55.12
271.051	16.21
271.267	-14.51
271.483	-49.32
271.698	-43.18
271.914	34.64
272.13	40.79
272.346	3.93
272.562	-55.47
272.777	-34.99
272.993	38.74
273.209	-28.84
273.425	51.03
273.64	30.55
273.856	-24.75
274.072	-8.36
274.287	10.07
274.503	28.5
274.719	51.03
274.934	-4.27
275.15	46.93
275.366	-10.41
275.581	38.74
275.797	-20.65
276.012	-65.71
276.228	118.61
276.444	-2.22
276.659	12.12
276.875	22.36
277.09	-34.99
277.306	10.07
277.521	28.5
277.737	12.12
277.952	-2.22
278.168	-32.94
278.383	-10.41
278.599	28.5
278.814	-0.17
279.03	20.31
279.245	34.64
279.461	-2.22
279.676	16.21
279.892	53.08
280.107	-0.17
280.322	12.12
280.538	-34.99
280.753	-12.46
280.969	40.79
281.184	-71.85
281.399	-8.36
281.615	-18.6
281.83	65.36
282.045	75.6
282.26	-0.17
282.476	-10.41
282.691	38.74
282.906	51.03
283.122	-18.6
283.337	44.88
283.552	51.03
283.767	42.84
283.983	40.79
284.198	-10.41
284.413	51.03
284.628	-12.46
284.843	32.6
285.058	85.84
285.274	61.27
285.489	24.4
285.704	116.56
285.919	-73.9
286.134	-2.22
286.349	8.02
286.564	-20.65
286.779	59.22
286.995	42.84
287.21	34.64
287.425	-28.84
287.64	12.12
287.855	28.5
288.07	-4.27
288.285	-14.51
288.5	59.22
288.715	63.32
288.93	8.02
289.145	18.26
289.36	26.45
289.575	-67.75
289.79	30.55
290.004	-51.37
290.219	42.84
290.434	36.69
290.649	10.07
290.864	55.12
291.079	-61.61
291.294	-22.7
291.509	-86.19
291.724	20.31
291.938	22.36
292.153	-0.17
292.368	10.07
292.583	-2.22
292.798	12.12
293.012	-12.46
293.227	-16.55
293.442	-45.23
293.657	20.31
293.871	18.26
294.086	53.08
294.301	59.22
294.516	16.21
294.73	16.21
294.945	-45.23
295.16	-16.55
295.374	28.5
295.589	-2.22
295.804	34.64
296.018	-20.65
296.233	1.88
296.447	12.12
296.662	-28.84
296.877	-30.89
297.091	28.5
297.306	-6.31
297.52	-2.22
297.735	14.17
297.949	-34.99
298.164	34.64
298.378	-4.27
298.593	-59.56
298.807	-24.75
299.022	-30.89
299.236	46.93
299.451	-24.75
299.665	67.41
299.88	71.51
300.094	-0.17
300.309	32.6
300.523	-4.27
300.737	5.97
300.952	22.36
301.166	5.97
301.381	12.12
301.595	1.88
301.809	-63.66
302.024	26.45
302.238	22.36
302.452	-30.89
302.667	57.17
302.881	-6.31
303.095	-18.6
303.309	24.4
303.524	61.27
303.738	44.88
303.952	-24.75
304.166	5.97
304.381	-55.47
304.595	-14.51
304.809	42.84
305.023	14.17
305.237	51.03
305.452	-10.41
305.666	30.55
305.88	-34.99
306.094	18.26
306.308	67.41
306.522	61.27
306.736	36.69
306.95	-28.84
307.164	18.26
307.379	20.31
307.593	22.36
307.807	14.17
308.021	24.4
308.235	8.02
308.449	3.93
308.663	-2.22
308.877	65.36
309.091	16.21
309.305	-6.31
309.519	-28.84
309.733	-8.36
309.947	-45.23
310.161	38.74
310.374	1.88
310.588	44.88
310.802	20.31
311.016	5.97
311.23	67.41
311.444	51.03
311.658	28.5
311.872	22.36
312.085	46.93
312.299	-16.55
312.513	12.12
312.727	-84.14
312.941	-2.22
313.154	55.12
313.368	-4.27
313.582	24.4
313.796	12.12
314.009	59.22
314.223	12.12
314.437	18.26
314.651	1.88
314.864	-18.6
315.078	14.17
315.292	14.17
315.505	-37.03
315.719	40.79
315.933	38.74
316.146	-32.94
316.36	-43.18
316.573	-32.94
316.787	-30.89
317.001	-22.7
317.214	5.97
317.428	-6.31
317.641	14.17
317.855	-43.18
318.068	26.45
318.282	18.26
318.495	-6.31
318.709	-14.51
318.922	-53.42
319.136	69.46
319.349	26.45
319.563	46.93
319.776	8.02
319.99	28.5
320.203	44.88
320.417	91.99
320.63	18.26
320.843	-18.6
321.057	-32.94
321.27	48.98
321.483	53.08
321.697	98.13
321.91	5.97
322.124	-4.27
322.337	5.97
322.55	14.17
322.763	46.93
322.977	3.93
323.19	-88.23
323.403	71.51
323.617	-47.27
323.83	46.93
324.043	-20.65
324.256	1.88
324.469	-12.46
324.683	48.98
324.896	3.93
325.109	-12.46
325.322	18.26
325.535	51.03
325.748	-0.17
325.962	20.31
326.175	28.5
326.388	-6.31
326.601	12.12
326.814	-32.94
327.027	-16.55
327.24	55.12
327.453	-20.65
327.666	12.12
327.879	-4.27
328.092	-6.31
328.305	-18.6
328.518	-4.27
328.731	30.55
328.944	-49.32
329.157	-75.95
329.37	-39.08
329.583	-10.41
329.796	-20.65
330.009	10.07
330.222	48.98
330.435	57.17
330.648	-34.99
330.861	87.89
331.073	12.12
331.286	-43.18
331.499	-20.65
331.712	38.74
331.925	14.17
332.138	71.51
332.35	36.69
332.563	46.93
332.776	-8.36
332.989	-34.99
333.202	36.69
333.414	32.6
333.627	-6.31
333.84	8.02
334.053	30.55
334.265	48.98
334.478	51.03
334.691	-116.9
334.903	-67.75
335.116	12.12
335.329	34.64
335.541	32.6
335.754	53.08
335.966	-20.65
336.179	44.88
336.392	83.8
336.604	40.79
336.817	-6.31
337.029	-16.55
337.242	69.46
337.454	-20.65
337.667	42.84
337.88	24.4
338.092	38.74
338.305	42.84
338.517	-18.6
338.729	-24.75
338.942	71.51
339.154	-2.22
339.367	-28.84
339.579	42.84
339.792	79.7
340.004	20.31
340.217	1.88
340.429	1.88
340.641	-14.51
340.854	40.79
341.066	8.02
341.278	10.07
341.491	40.79
341.703	-53.42
341.915	26.45
342.128	65.36
342.34	-28.84
342.552	-22.7
342.764	18.26
342.977	75.6
343.189	8.02
343.401	28.5
343.613	-2.22
343.826	-2.22
344.038	28.5
344.25	51.03
344.462	59.22
344.674	-0.17
344.886	12.12
345.099	40.79
345.311	36.69
345.523	65.36
345.735	-57.51
345.947	18.26
346.159	20.31
346.371	34.64
346.583	38.74
346.795	94.04
347.007	8.02
347.219	79.7
347.431	-6.31
347.643	5.97
347.855	48.98
348.067	40.79
348.279	24.4
348.491	-8.36
348.703	40.79
348.915	10.07
349.127	36.69
349.339	48.98
349.551	-30.89
349.763	79.7
349.975	-55.47
350.187	16.21
350.399	46.93
350.61	-20.65
350.822	-24.75
351.034	28.5
351.246	-14.51
351.458	-18.6
351.669	71.51
351.881	14.17
352.093	98.13
352.305	5.97
352.517	28.5
352.728	28.5
352.94	44.88
353.152	-24.75
353.363	3.93
353.575	51.03
353.787	16.21
353.999	51.03
354.21	3.93
354.422	53.08
354.633	-24.75
354.845	-6.31
355.057	63.32
355.268	-39.08
355.48	-24.75
355.692	30.55
355.903	34.64
356.115	-24.75
356.326	24.4
356.538	10.07
356.749	-63.66
356.961	-16.55
357.172	100.18
357.384	-4.27
357.595	-10.41
357.807	-12.46
358.018	16.21
358.23	-2.22
358.441	20.31
358.653	-2.22
358.864	-16.55
359.075	67.41
359.287	5.97
359.498	-18.6
359.709	40.79
359.921	-12.46
360.132	20.31
360.344	28.5
360.555	18.26
360.766	14.17
360.977	-57.51
361.189	75.6
361.4	-8.36
361.611	48.98
361.823	32.6
362.034	51.03
362.245	18.26
362.456	10.07
362.667	71.51
362.879	-18.6
363.09	-26.79
363.301	-37.03
363.512	71.51
363.723	18.26
363.935	18.26
364.146	28.5
364.357	48.98
364.568	100.18
364.779	10.07
364.99	3.93
365.201	-4.27
365.412	28.5
365.623	-4.27
365.834	-22.7
366.045	16.21
366.256	69.46
366.467	40.79
366.678	18.26
366.889	91.99
367.1	91.99
367.311	-6.31
367.522	44.88
367.733	10.07
367.944	57.17
368.155	18.26
368.366	69.46
368.577	-49.32
368.788	53.08
368.999	-24.75
369.209	12.12
369.42	30.55
369.631	22.36
369.842	-18.6
370.053	10.07
370.264	20.31
370.474	-6.31
370.685	-6.31
370.896	28.5
371.107	94.04
371.317	3.93
371.528	42.84
371.739	51.03
371.95	16.21
372.16	51.03
372.371	12.12
372.582	48.98
372.792	63.32
373.003	34.64
373.214	55.12
373.424	57.17
373.635	14.17
373.846	-43.18
374.056	24.4
374.267	51.03
374.477	-51.37
374.688	16.21
374.898	-0.17
375.109	53.08
375.319	5.97
375.53	12.12
375.74	59.22
375.951	38.74
376.161	65.36
376.372	32.6
376.582	65.36
376.793	59.22
377.003	20.31
377.214	16.21
377.424	12.12
377.635	-37.03
377.845	57.17
378.055	48.98
378.266	61.27
378.476	44.88
378.686	20.31
378.897	10.07
379.107	-16.55
379.317	36.69
379.528	12.12
379.738	18.26
379.948	34.64
380.158	63.32
380.369	20.31
380.579	34.64
380.789	44.88
380.999	61.27
381.21	59.22
381.42	89.94
381.63	55.12
381.84	91.99
382.05	22.36
382.261	32.6
382.471	24.4
382.681	34.64
382.891	65.36
383.101	61.27
383.311	69.46
383.521	8.02
383.731	-14.51
383.941	38.74
384.151	83.8
384.361	-6.31
384.571	-16.55
384.781	22.36
384.991	63.32
385.201	53.08
385.411	-10.41
385.621	8.02
385.831	75.6
386.041	-20.65
386.251	32.6
386.461	-26.79
386.671	-37.03
386.881	20.31
387.091	1.88
387.301	69.46
387.511	-22.7
387.72	-14.51
387.93	32.6
388.14	26.45
388.35	71.51
388.56	-32.94
388.769	-22.7
388.979	69.46
389.189	24.4
389.399	28.5
389.609	38.74
389.818	26.45
390.028	44.88
390.238	36.69
390.447	-37.03
390.657	48.98
390.867	-14.51
391.076	67.41
391.286	1.88
391.496	65.36
391.705	-0.17
391.915	89.94
392.125	108.37
392.334	81.75
392.544	-12.46
392.753	38.74
392.963	24.4
393.172	24.4
393.382	102.23
393.591	-4.27
393.801	-16.55
394.01	69.46
394.22	73.56
394.429	30.55
394.639	98.13
394.848	55.12
395.058	16.21
395.267	55.12
395.477	59.22
395.686	-2.22
395.895	65.36
396.105	91.99
396.314	42.84
396.524	18.26
396.733	-8.36
396.942	85.84
397.152	53.08
397.361	22.36
397.57	28.5
397.78	71.51
397.989	-45.23
398.198	12.12
398.407	100.18
398.617	94.04
398.826	1.88
399.035	85.84
399.244	24.4
399.453	73.56
399.663	65.36
399.872	57.17
400.081	85.84
400.29	102.23
400.499	85.84
400.708	69.46
400.917	89.94
401.127	28.5
401.336	89.94
401.545	208.72
401.754	44.88
401.963	102.23
402.172	16.21
402.381	69.46
402.59	44.88
402.799	143.19
403.008	71.51
403.217	153.43
403.426	59.22
403.635	28.5
403.844	94.04
404.053	63.32
404.262	73.56
404.471	87.89
404.68	89.94
404.888	106.32
405.097	32.6
405.306	75.6
405.515	77.65
405.724	180.05
405.933	34.64
406.142	114.52
406.35	110.42
406.559	91.99
406.768	104.28
406.977	141.14
407.185	42.84
407.394	71.51
407.603	87.89
407.812	126.8
408.02	71.51
408.229	94.04
408.438	118.61
408.646	186.19
408.855	124.76
409.064	171.86
409.272	175.95
409.481	149.33
409.69	137.04
409.898	61.27
410.107	122.71
410.315	194.39
410.524	171.86
410.733	278.35
410.941	139.09
411.15	233.3
411.358	178
411.567	247.63
411.775	227.15
411.984	255.83
412.192	200.53
412.401	253.78
412.609	288.59
412.818	268.11
413.026	216.91
413.234	290.64
413.443	249.68
413.651	374.61
413.86	329.55
414.068	286.54
414.276	341.84
414.485	329.55
414.693	339.79
414.901	411.47
415.11	444.24
415.318	429.9
415.526	352.08
415.734	444.24
415.943	401.23
416.151	411.47
416.359	483.15
416.567	513.87
416.776	538.45
416.984	462.67
417.192	522.06
417.4	509.77
417.608	530.25
417.817	589.64
418.025	618.32
418.233	606.03
418.441	675.66
418.649	665.42
418.857	696.14
419.065	741.19
419.273	749.39
419.481	751.43
419.689	814.92
419.897	814.92
420.105	796.49
420.313	896.84
420.521	960.33
420.729	937.8
420.937	919.37
421.145	878.41
421.353	1011.53
421.561	995.14
421.769	1056.58
421.977	1189.7
422.185	1148.74
422.393	1214.27
422.601	1285.95
422.809	1216.32
423.017	1228.61
423.224	1347.39
423.432	1464.13
423.64	1376.06
423.848	1417.02
424.056	1525.57
424.263	1642.3
424.471	1658.68
424.679	1576.77
424.887	1718.08
425.094	1838.91
425.302	1886.01
425.51	1888.06
425.718	1773.37
425.925	2031.41
426.133	1959.74
426.341	2131.76
426.548	2125.62
426.756	2361.14
426.964	2225.97
427.171	2334.51
427.379	2447.15
427.586	2365.23
427.794	2541.36
428.001	2713.39
428.209	2719.53
428.417	2811.69
428.624	2797.35
428.832	2862.89
429.039	2895.66
429.247	2930.47
429.454	3202.85
429.662	3317.54
429.869	3077.93
430.076	3335.97
430.284	3282.72
430.491	3376.93
430.699	3667.74
430.906	3528.48
431.114	3542.82
431.321	3847.96
431.528	4032.28
431.736	4095.77
431.943	4411.15
432.15	4314.9
432.358	4167.45
432.565	4517.65
432.772	4366.1
432.979	4701.97
433.187	4822.8
433.394	4740.88
433.601	5173
433.808	5080.84
434.016	5019.4
434.223	5381.89
434.43	5734.14
434.637	5566.21
434.844	5859.07
435.052	5998.33
435.259	5859.07
435.466	5910.27
435.673	5940.99
435.88	6307.57
436.087	6510.32
436.294	6674.16
436.501	6495.99
436.708	6582
436.915	7108.33
437.122	7323.37
437.329	7263.97
437.537	7227.11
437.743	7497.44
437.95	7483.11
438.157	7902.94
438.364	8046.3
438.571	8064.73
438.778	8056.54
438.985	8988.36
439.192	8539.86
439.399	8791.76
439.606	8726.22
439.813	9141.96
440.02	9600.71
440.227	9371.33
440.433	9277.13
440.64	9617.09
440.847	9723.58
441.054	9727.68
441.261	10391.22
441.467	10110.65
441.674	10530.48
441.881	10753.71
442.088	11058.86
442.294	10786.48
442.501	11042.48
442.708	11458.21
442.914	11896.48
443.121	12064.41
443.328	11970.21
443.534	12762.77
443.741	12232.35
443.948	12267.16
444.154	13098.64
444.361	13117.07
444.568	13035.15
444.774	13258.38
444.981	13399.69
445.187	13878.91
445.394	14218.88
445.6	14044.8
445.807	15494.76
446.013	14759.54
446.22	14906.99
446.426	15664.74
446.633	15634.02
446.839	16363.1
447.046	15683.17
447.252	16588.38
447.459	16655.96
447.665	16723.54
447.871	17032.79
448.078	17655.37
448.284	17268.3
448.491	17446.48
448.697	17907.27
448.903	18419.26
449.11	18660.92
449.316	18433.6
449.522	18703.93
449.728	19162.67
449.935	19146.29
450.141	19334.7
450.347	19695.14
450.553	19090.99
450.76	19457.58
450.966	19889.7
451.172	19725.86
451.378	20276.77
451.584	19631.66
451.791	20174.37
451.997	20327.97
452.203	20473.37
452.409	20583.96
452.615	20530.72
452.821	19615.27
453.027	19318.32
453.233	20362.78
453.44	19590.7
453.646	19777.06
453.852	19787.3
454.058	20319.78
454.264	19684.9
454.47	19807.78
454.676	19473.96
454.882	20045.35
455.088	18296.38
455.294	18730.55
455.5	18878.01
455.705	19273.26
455.911	18554.43
456.117	18179.65
456.323	17788.49
456.529	16885.33
456.735	17583.69
456.941	17040.98
457.147	16811.6
457.352	16361.05
457.558	16049.76
457.764	16043.62
457.97	15912.55
458.176	15468.14
458.381	15537.77
458.587	15029.87
458.793	15072.88
458.999	14003.84
459.204	14972.53
459.41	14780.02
459.616	13815.43
459.821	13725.32
460.027	13608.58
460.233	13293.19
460.438	12865.17
460.644	12787.35
460.85	12312.22
461.055	11812.51
461.261	12058.27
461.466	11185.83
461.672	10872.5
461.878	11517.61
462.083	10888.88
462.289	10428.09
462.494	10503.86
462.7	10135.23
462.905	9729.73
463.111	10340.02
463.316	10227.39
463.522	9930.43
463.727	10045.12
463.932	9924.29
464.138	9701.06
464.343	9961.15
464.549	9713.35
464.754	9871.04
464.959	9938.62
465.165	9799.36
465.37	9465.54
465.575	8967.88
465.781	9467.59
465.986	9520.84
466.191	9281.22
466.397	9076.43
466.602	8503
466.807	8978.12
467.012	8933.07
467.218	9101
467.423	8849.1
467.628	8869.58
467.833	9213.64
468.038	8775.38
