Data from USB4F104151__197__13-59-40-266.txt Node

Date: Thu Mar 13 13:59:40 EDT 2025
User: louis
Spectrometer: USB4F10415
Trigger mode: 4
Integration Time (sec): 1.000000E-2
Scans to average: 1
Electric dark correction enabled: true
Nonlinearity correction enabled: false
Boxcar width: 0
XAxis mode: Wavelengths
Number of Pixels in Spectrum: 3648
>>>>>Begin Spectral Data<<<<<
178.204	-83.63
178.424	-83.63
178.644	-83.63
178.864	-7.85
179.084	-50.86
179.304	-3.75
179.524	-3.75
179.744	18.77
179.964	-7.85
180.184	-69.29
180.404	29.01
180.624	-30.38
180.844	76.12
181.064	4.44
181.283	-11.95
181.503	-65.19
181.723	63.83
181.943	-52.91
182.163	35.16
182.383	-22.19
182.602	24.92
182.822	-65.19
183.042	-61.1
183.262	-5.8
183.482	-20.14
183.701	16.73
183.921	84.31
184.141	-34.47
184.361	-44.71
184.58	31.06
184.8	6.49
185.02	12.63
185.239	16.73
185.459	-81.58
185.679	-28.33
185.898	-61.1
186.118	22.87
186.338	20.82
186.557	31.06
186.777	20.82
186.997	74.07
187.216	18.77
187.436	45.4
187.655	-11.95
187.875	-11.95
188.095	-9.9
188.314	-3.75
188.534	-22.19
188.753	-7.85
188.973	112.98
189.192	-36.52
189.412	-20.14
189.631	33.11
189.851	6.49
190.07	24.92
190.29	-73.39
190.509	29.01
190.729	14.68
190.948	2.39
191.168	69.97
191.387	98.64
191.607	-18.09
191.826	18.77
192.045	45.4
192.265	31.06
192.484	4.44
192.704	39.25
192.923	-59.05
193.142	37.2
193.362	31.06
193.581	45.4
193.8	-20.14
194.02	33.11
194.239	65.88
194.458	49.49
194.678	-34.47
194.897	16.73
195.116	2.39
195.335	39.25
195.555	41.3
195.774	39.25
195.993	31.06
196.212	20.82
196.432	-3.75
196.651	57.68
196.87	24.92
197.089	72.02
197.308	37.2
197.528	43.35
197.747	-9.9
197.966	53.59
198.185	39.25
198.404	53.59
198.623	49.49
198.842	0.34
199.062	78.16
199.281	24.92
199.5	82.26
199.719	33.11
199.938	43.35
200.157	-26.28
200.376	-11.95
200.595	-16.04
200.814	31.06
201.033	-3.75
201.252	47.44
201.471	129.36
201.69	12.63
201.909	20.82
202.128	55.64
202.347	-32.43
202.566	-26.28
202.785	35.16
203.004	18.77
203.223	37.2
203.442	41.3
203.661	22.87
203.879	41.3
204.098	26.96
204.317	-7.85
204.536	43.35
204.755	51.54
204.974	33.11
205.193	37.2
205.411	106.84
205.63	39.25
205.849	82.26
206.068	39.25
206.287	29.01
206.505	29.01
206.724	2.39
206.943	61.78
207.162	49.49
207.381	37.2
207.599	-16.04
207.818	20.82
208.037	29.01
208.255	14.68
208.474	-7.85
208.693	69.97
208.911	-9.9
209.13	-9.9
209.349	35.16
209.567	-11.95
209.786	69.97
210.005	12.63
210.223	-9.9
210.442	24.92
210.661	61.78
210.879	39.25
211.098	74.07
211.316	74.07
211.535	119.12
211.753	82.26
211.972	31.06
212.191	-34.47
212.409	26.96
212.628	22.87
212.846	69.97
213.065	22.87
213.283	63.83
213.502	2.39
213.72	31.06
213.938	69.97
214.157	20.82
214.375	26.96
214.594	39.25
214.812	45.4
215.031	35.16
215.249	-11.95
215.467	-9.9
215.686	-3.75
215.904	39.25
216.122	-9.9
216.341	74.07
216.559	51.54
216.778	49.49
216.996	-32.43
217.214	0.34
217.432	16.73
217.651	26.96
217.869	31.06
218.087	-9.9
218.306	94.55
218.524	4.44
218.742	33.11
218.96	-1.71
219.179	57.68
219.397	41.3
219.615	59.73
219.833	14.68
220.051	18.77
220.27	-7.85
220.488	69.97
220.706	51.54
220.924	31.06
221.142	45.4
221.36	8.53
221.578	8.53
221.796	12.63
222.015	35.16
222.233	10.58
222.451	37.2
222.669	-42.67
222.887	4.44
223.105	47.44
223.323	6.49
223.541	-9.9
223.759	6.49
223.977	37.2
224.195	90.45
224.413	94.55
224.631	39.25
224.849	41.3
225.067	76.12
225.285	24.92
225.503	-44.71
225.721	20.82
225.939	22.87
226.157	45.4
226.375	112.98
226.592	4.44
226.81	26.96
227.028	-9.9
227.246	-18.09
227.464	53.59
227.682	74.07
227.9	4.44
228.117	-7.85
228.335	-16.04
228.553	37.2
228.771	-1.71
228.989	57.68
229.206	20.82
229.424	-52.91
229.642	20.82
229.86	22.87
230.077	20.82
230.295	-1.71
230.513	6.49
230.731	104.79
230.948	35.16
231.166	-30.38
231.384	33.11
231.601	49.49
231.819	65.88
232.037	6.49
232.254	22.87
232.472	112.98
232.689	-42.67
232.907	-18.09
233.125	51.54
233.342	72.02
233.56	-9.9
233.777	29.01
233.995	20.82
234.213	16.73
234.43	-18.09
234.648	24.92
234.865	41.3
235.083	10.58
235.3	6.49
235.518	2.39
235.735	39.25
235.953	24.92
236.17	20.82
236.388	22.87
236.605	47.44
236.822	-20.14
237.04	26.96
237.257	31.06
237.475	-5.8
237.692	39.25
237.909	61.78
238.127	53.59
238.344	14.68
238.562	-13.99
238.779	-50.86
238.996	14.68
239.214	-13.99
239.431	26.96
239.648	-7.85
239.865	18.77
240.083	53.59
240.3	14.68
240.517	-16.04
240.735	16.73
240.952	133.46
241.169	61.78
241.386	2.39
241.603	10.58
241.821	39.25
242.038	69.97
242.255	37.2
242.472	-89.77
242.689	98.64
242.907	102.74
243.124	-3.75
243.341	69.97
243.558	-50.86
243.775	33.11
243.992	-36.52
244.209	6.49
244.426	80.21
244.643	43.35
244.86	-28.33
245.078	20.82
245.295	-48.81
245.512	14.68
245.729	2.39
245.946	57.68
246.163	-20.14
246.38	59.73
246.597	31.06
246.814	4.44
247.031	8.53
247.248	-44.71
247.464	57.68
247.681	24.92
247.898	61.78
248.115	6.49
248.332	41.3
248.549	0.34
248.766	-13.99
248.983	55.64
249.2	24.92
249.417	0.34
249.633	72.02
249.85	35.16
250.067	-34.47
250.284	63.83
250.501	72.02
250.717	86.36
250.934	20.82
251.151	-20.14
251.368	-26.28
251.585	41.3
251.801	33.11
252.018	82.26
252.235	45.4
252.451	-3.75
252.668	12.63
252.885	33.11
253.102	76.12
253.318	53.59
253.535	-18.09
253.752	14.68
253.968	-22.19
254.185	14.68
254.401	0.34
254.618	-1.71
254.835	45.4
255.051	6.49
255.268	35.16
255.484	47.44
255.701	-13.99
255.917	4.44
256.134	-48.81
256.351	104.79
256.567	20.82
256.784	51.54
257	61.78
257.217	-16.04
257.433	6.49
257.65	22.87
257.866	-5.8
258.082	65.88
258.299	-24.23
258.515	-24.23
258.732	41.3
258.948	24.92
259.165	-16.04
259.381	78.16
259.597	98.64
259.814	33.11
260.03	-3.75
260.246	80.21
260.463	65.88
260.679	59.73
260.895	2.39
261.112	49.49
261.328	72.02
261.544	-36.52
261.761	39.25
261.977	39.25
262.193	-20.14
262.409	45.4
262.626	43.35
262.842	55.64
263.058	6.49
263.274	121.17
263.49	84.31
263.707	102.74
263.923	47.44
264.139	20.82
264.355	-1.71
264.571	57.68
264.787	37.2
265.004	20.82
265.22	0.34
265.436	-3.75
265.652	-13.99
265.868	49.49
266.084	-13.99
266.3	-9.9
266.516	-18.09
266.732	88.4
266.948	-11.95
267.164	29.01
267.38	-26.28
267.596	29.01
267.812	74.07
268.028	37.2
268.244	-44.71
268.46	69.97
268.676	8.53
268.892	-28.33
269.108	-34.47
269.324	65.88
269.54	-54.95
269.756	26.96
269.972	63.83
270.188	35.16
270.403	-11.95
270.619	10.58
270.835	12.63
271.051	45.4
271.267	2.39
271.483	35.16
271.698	39.25
271.914	49.49
272.13	14.68
272.346	59.73
272.562	-3.75
272.777	88.4
272.993	74.07
273.209	37.2
273.425	-3.75
273.64	61.78
273.856	-18.09
274.072	29.01
274.287	-32.43
274.503	4.44
274.719	35.16
274.934	65.88
275.15	-13.99
275.366	88.4
275.581	63.83
275.797	59.73
276.012	72.02
276.228	-1.71
276.444	-11.95
276.659	37.2
276.875	14.68
277.09	26.96
277.306	10.58
277.521	90.45
277.737	-24.23
277.952	61.78
278.168	12.63
278.383	20.82
278.599	-9.9
278.814	47.44
279.03	53.59
279.245	41.3
279.461	65.88
279.676	37.2
279.892	49.49
280.107	-20.14
280.322	49.49
280.538	20.82
280.753	-54.95
280.969	90.45
281.184	-5.8
281.399	4.44
281.615	12.63
281.83	45.4
282.045	6.49
282.26	65.88
282.476	-1.71
282.691	82.26
282.906	31.06
283.122	16.73
283.337	-11.95
283.552	0.34
283.767	65.88
283.983	16.73
284.198	69.97
284.413	37.2
284.628	-7.85
284.843	20.82
285.058	37.2
285.274	14.68
285.489	14.68
285.704	88.4
285.919	22.87
286.134	2.39
286.349	84.31
286.564	45.4
286.779	37.2
286.995	90.45
287.21	-1.71
287.425	22.87
287.64	22.87
287.855	4.44
288.07	94.55
288.285	61.78
288.5	31.06
288.715	-28.33
288.93	57.68
289.145	20.82
289.36	57.68
289.575	61.78
289.79	24.92
290.004	43.35
290.219	41.3
290.434	20.82
290.649	49.49
290.864	-1.71
291.079	-3.75
291.294	37.2
291.509	12.63
291.724	76.12
291.938	86.36
292.153	8.53
292.368	6.49
292.583	24.92
292.798	35.16
293.012	65.88
293.227	-26.28
293.442	33.11
293.657	12.63
293.871	14.68
294.086	84.31
294.301	90.45
294.516	29.01
294.73	20.82
294.945	43.35
295.16	-36.52
295.374	-9.9
295.589	84.31
295.804	39.25
296.018	61.78
296.233	49.49
296.447	-46.76
296.662	94.55
296.877	18.77
297.091	22.87
297.306	-1.71
297.52	63.83
297.735	4.44
297.949	61.78
298.164	72.02
298.378	-11.95
298.593	39.25
298.807	-13.99
299.022	100.69
299.236	24.92
299.451	22.87
299.665	74.07
299.88	14.68
300.094	-42.67
300.309	47.44
300.523	41.3
300.737	-1.71
300.952	63.83
301.166	47.44
301.381	35.16
301.595	-7.85
301.809	-11.95
302.024	37.2
302.238	12.63
302.452	102.74
302.667	0.34
302.881	10.58
303.095	-13.99
303.309	4.44
303.524	37.2
303.738	22.87
303.952	82.26
304.166	33.11
304.381	31.06
304.595	14.68
304.809	-22.19
305.023	61.78
305.237	49.49
305.452	65.88
305.666	22.87
305.88	102.74
306.094	-3.75
306.308	49.49
306.522	65.88
306.736	20.82
306.95	57.68
307.164	22.87
307.379	57.68
307.593	65.88
307.807	20.82
308.021	18.77
308.235	-11.95
308.449	39.25
308.663	0.34
308.877	6.49
309.091	14.68
309.305	12.63
309.519	-9.9
309.733	80.21
309.947	31.06
310.161	67.92
310.374	2.39
310.588	63.83
310.802	31.06
311.016	12.63
311.23	63.83
311.444	69.97
311.658	-1.71
311.872	39.25
312.085	20.82
312.299	127.32
312.513	-1.71
312.727	6.49
312.941	26.96
313.154	84.31
313.368	82.26
313.582	82.26
313.796	59.73
314.009	29.01
314.223	80.21
314.437	39.25
314.651	92.5
314.864	20.82
315.078	90.45
315.292	41.3
315.505	47.44
315.719	22.87
315.933	-34.47
316.146	41.3
316.36	53.59
316.573	24.92
316.787	22.87
317.001	33.11
317.214	8.53
317.428	22.87
317.641	29.01
317.855	18.77
318.068	0.34
318.282	33.11
318.495	2.39
318.709	-5.8
318.922	63.83
319.136	39.25
319.349	-3.75
319.563	45.4
319.776	-11.95
319.99	-24.23
320.203	-7.85
320.417	4.44
320.63	35.16
320.843	78.16
321.057	8.53
321.27	-7.85
321.483	16.73
321.697	53.59
321.91	45.4
322.124	94.55
322.337	31.06
322.55	20.82
322.763	94.55
322.977	53.59
323.19	45.4
323.403	31.06
323.617	4.44
323.83	61.78
324.043	0.34
324.256	31.06
324.469	12.63
324.683	0.34
324.896	24.92
325.109	6.49
325.322	-44.71
325.535	88.4
325.748	-3.75
325.962	94.55
326.175	37.2
326.388	-11.95
326.601	106.84
326.814	131.41
327.027	37.2
327.24	112.98
327.453	88.4
327.666	162.13
327.879	78.16
328.092	29.01
328.305	18.77
328.518	31.06
328.731	61.78
328.944	63.83
329.157	84.31
329.37	12.63
329.583	106.84
329.796	78.16
330.009	22.87
330.222	-3.75
330.435	35.16
330.648	18.77
330.861	80.21
331.073	90.45
331.286	33.11
331.499	98.64
331.712	-5.8
331.925	121.17
332.138	33.11
332.35	74.07
332.563	96.6
332.776	59.73
332.989	-5.8
333.202	22.87
333.414	18.77
333.627	-5.8
333.84	49.49
334.053	2.39
334.265	39.25
334.478	24.92
334.691	37.2
334.903	69.97
335.116	74.07
335.329	92.5
335.541	39.25
335.754	100.69
335.966	82.26
336.179	39.25
336.392	4.44
336.604	53.59
336.817	98.64
337.029	65.88
337.242	20.82
337.454	94.55
337.667	55.64
337.88	33.11
338.092	55.64
338.305	145.75
338.517	20.82
338.729	67.92
338.942	26.96
339.154	88.4
339.367	-13.99
339.579	90.45
339.792	-11.95
340.004	121.17
340.217	-48.81
340.429	22.87
340.641	61.78
340.854	18.77
341.066	45.4
341.278	10.58
341.491	41.3
341.703	74.07
341.915	33.11
342.128	76.12
342.34	45.4
342.552	-11.95
342.764	80.21
342.977	76.12
343.189	14.68
343.401	12.63
343.613	49.49
343.826	57.68
344.038	47.44
344.25	-9.9
344.462	78.16
344.674	29.01
344.886	45.4
345.099	33.11
345.311	74.07
345.523	135.51
345.735	-28.33
345.947	74.07
346.159	63.83
346.371	55.64
346.583	22.87
346.795	76.12
347.007	86.36
347.219	96.6
347.431	6.49
347.643	53.59
347.855	35.16
348.067	14.68
348.279	29.01
348.491	53.59
348.703	-28.33
348.915	112.98
349.127	6.49
349.339	86.36
349.551	8.53
349.763	86.36
349.975	24.92
350.187	33.11
350.399	45.4
350.61	29.01
350.822	8.53
351.034	69.97
351.246	22.87
351.458	80.21
351.669	10.58
351.881	41.3
352.093	53.59
352.305	22.87
352.517	12.63
352.728	96.6
352.94	29.01
353.152	72.02
353.363	-7.85
353.575	22.87
353.787	178.51
353.999	31.06
354.21	45.4
354.422	8.53
354.633	65.88
354.845	53.59
355.057	33.11
355.268	-3.75
355.48	22.87
355.692	26.96
355.903	-3.75
356.115	8.53
356.326	-3.75
356.538	78.16
356.749	39.25
356.961	96.6
357.172	33.11
357.384	35.16
357.595	35.16
357.807	20.82
358.018	49.49
358.23	69.97
358.441	24.92
358.653	61.78
358.864	24.92
359.075	12.63
359.287	51.54
359.498	49.49
359.709	-16.04
359.921	-9.9
360.132	53.59
360.344	88.4
360.555	39.25
360.766	100.69
360.977	-24.23
361.189	4.44
361.4	53.59
361.611	80.21
361.823	65.88
362.034	-52.91
362.245	24.92
362.456	10.58
362.667	14.68
362.879	24.92
363.09	39.25
363.301	98.64
363.512	47.44
363.723	-7.85
363.935	31.06
364.146	90.45
364.357	24.92
364.568	29.01
364.779	16.73
364.99	63.83
365.201	53.59
365.412	63.83
365.623	-3.75
365.834	119.12
366.045	35.16
366.256	88.4
366.467	80.21
366.678	100.69
366.889	41.3
367.1	43.35
367.311	78.16
367.522	61.78
367.733	47.44
367.944	98.64
368.155	18.77
368.366	24.92
368.577	72.02
368.788	53.59
368.999	67.92
369.209	6.49
369.42	78.16
369.631	49.49
369.842	82.26
370.053	37.2
370.264	16.73
370.474	119.12
370.685	96.6
370.896	-5.8
371.107	39.25
371.317	72.02
371.528	51.54
371.739	90.45
371.95	20.82
372.16	63.83
372.371	-7.85
372.582	82.26
372.792	108.88
373.003	53.59
373.214	57.68
373.424	100.69
373.635	2.39
373.846	18.77
374.056	22.87
374.267	69.97
374.477	37.2
374.688	86.36
374.898	33.11
375.109	96.6
375.319	82.26
375.53	45.4
375.74	96.6
375.951	100.69
376.161	45.4
376.372	33.11
376.582	33.11
376.793	164.18
377.003	20.82
377.214	106.84
377.424	53.59
377.635	80.21
377.845	67.92
378.055	61.78
378.266	-11.95
378.476	80.21
378.686	33.11
378.897	69.97
379.107	80.21
379.317	57.68
379.528	78.16
379.738	115.03
379.948	35.16
380.158	69.97
380.369	51.54
380.579	90.45
380.789	90.45
380.999	6.49
381.21	74.07
381.42	14.68
381.63	57.68
381.84	55.64
382.05	86.36
382.261	-16.04
382.471	35.16
382.681	80.21
382.891	100.69
383.101	129.36
383.311	61.78
383.521	-20.14
383.731	65.88
383.941	53.59
384.151	84.31
384.361	63.83
384.571	76.12
384.781	37.2
384.991	47.44
385.201	86.36
385.411	43.35
385.621	6.49
385.831	45.4
386.041	88.4
386.251	4.44
386.461	98.64
386.671	96.6
386.881	65.88
387.091	-24.23
387.301	86.36
387.511	43.35
387.72	63.83
387.93	43.35
388.14	22.87
388.35	14.68
388.56	78.16
388.769	78.16
388.979	45.4
389.189	47.44
389.399	90.45
389.609	35.16
389.818	61.78
390.028	39.25
390.238	26.96
390.447	53.59
390.657	115.03
390.867	121.17
391.076	20.82
391.286	33.11
391.496	51.54
391.705	158.03
391.915	94.55
392.125	100.69
392.334	65.88
392.544	51.54
392.753	115.03
392.963	160.08
393.172	80.21
393.382	55.64
393.591	80.21
393.801	102.74
394.01	104.79
394.22	115.03
394.429	82.26
394.639	63.83
394.848	49.49
395.058	127.32
395.267	102.74
395.477	20.82
395.686	123.22
395.895	131.41
396.105	98.64
396.314	102.74
396.524	55.64
396.733	78.16
396.942	131.41
397.152	125.27
397.361	90.45
397.57	72.02
397.78	80.21
397.989	106.84
398.198	121.17
398.407	-1.71
398.617	74.07
398.826	74.07
399.035	133.46
399.244	104.79
399.453	192.85
399.663	123.22
399.872	80.21
400.081	145.75
400.29	164.18
400.499	78.16
400.708	119.12
400.917	137.56
401.127	115.03
401.336	94.55
401.545	104.79
401.754	123.22
401.963	121.17
402.172	82.26
402.381	164.18
402.59	141.65
402.799	135.51
403.008	198.99
403.217	147.8
403.426	186.71
403.635	194.9
403.844	190.8
404.053	147.8
404.262	102.74
404.471	178.51
404.68	131.41
404.888	121.17
405.097	164.18
405.306	229.71
405.515	123.22
405.724	207.19
405.933	176.47
406.142	225.62
406.35	231.76
406.559	239.95
406.768	160.08
406.977	211.28
407.185	207.19
407.394	287.06
407.603	229.71
407.812	229.71
408.02	266.58
408.229	219.47
408.438	280.91
408.646	250.19
408.855	250.19
409.064	299.34
409.272	297.3
409.481	299.34
409.69	360.78
409.898	317.78
410.107	364.88
410.315	344.4
410.524	311.63
410.733	459.09
410.941	397.65
411.15	504.14
411.358	442.7
411.567	405.84
411.775	420.17
411.984	479.57
412.192	495.95
412.401	467.28
412.609	541.01
412.818	549.2
413.026	512.33
413.234	520.53
413.443	526.67
413.651	610.64
413.86	641.36
414.068	774.47
414.276	692.55
414.485	721.23
414.693	792.91
414.901	792.91
415.11	848.2
415.318	833.86
415.526	952.65
415.734	919.88
415.943	866.63
416.151	1034.57
416.359	891.21
416.567	1036.61
416.776	1040.71
416.984	1036.61
417.192	1042.76
417.4	1104.2
417.608	1067.33
417.817	1204.55
418.025	1206.59
418.233	1292.61
418.441	1272.13
418.649	1472.83
418.857	1364.29
419.065	1413.44
419.273	1511.74
419.481	1446.21
419.689	1614.14
419.897	1710.4
420.105	1722.68
420.313	1722.68
420.521	1823.03
420.729	1749.31
420.937	1880.38
421.145	2048.31
421.353	2081.08
421.561	2132.28
421.769	2265.39
421.977	2373.94
422.185	2257.2
422.393	2505.01
422.601	2674.99
422.809	2576.69
423.017	2642.22
423.224	2736.43
423.432	2890.03
423.64	2824.49
423.848	3074.34
424.056	3064.1
424.263	3229.99
424.471	3217.7
424.679	3369.25
424.887	3514.66
425.094	3565.85
425.302	3655.97
425.51	3741.98
425.718	3871
425.925	4006.17
426.133	4043.03
426.341	4145.43
426.548	4483.34
426.756	4403.47
426.964	4548.88
427.171	4731.15
427.379	4858.12
427.586	4962.57
427.794	5060.87
428.001	5427.46
428.209	5505.28
428.417	5335.3
428.624	5832.96
428.832	5804.28
429.039	5765.37
429.247	5841.15
429.454	6473.97
429.662	6578.42
429.869	6340.85
430.076	6858.99
430.284	6707.44
430.491	6873.32
430.699	7325.93
430.906	7299.3
431.114	7411.94
431.321	7583.97
431.528	7729.38
431.736	8351.96
431.943	8624.34
432.15	8515.8
432.358	8640.72
432.565	9146.57
432.772	8866
432.979	9345.22
433.187	9498.82
433.394	9568.45
433.601	10348.73
433.808	10363.06
434.016	10172.6
434.223	10731.7
434.43	11348.14
434.637	10838.19
434.844	11595.94
435.052	12064.93
435.259	11745.44
435.466	11962.53
435.673	11819.17
435.88	12533.91
436.087	13510.79
436.294	13328.52
436.501	13019.28
436.708	13320.33
436.915	13779.08
437.122	14409.85
437.329	14119.04
437.537	14700.66
437.743	15118.45
437.95	14764.15
438.157	15704.17
438.364	15904.87
438.571	16119.9
438.778	16109.66
438.985	17711.18
439.192	16906.32
439.399	17758.28
439.606	16949.33
439.813	18442.3
440.02	19327.02
440.227	18868.28
440.433	18628.67
440.64	19558.44
440.847	19253.3
441.054	19701.8
441.261	21069.84
441.467	20942.87
441.674	21162
441.881	22085.64
442.088	21829.64
442.294	21682.19
442.501	22427.65
442.708	22571
442.914	23326.71
443.121	24414.18
443.328	24008.68
443.534	25796.56
443.741	24850.39
443.948	24748
444.154	26279.88
444.361	25944.01
444.568	26169.29
444.774	26165.19
444.981	26570.69
445.187	27387.83
445.394	28436.39
445.6	28204.97
445.807	30893.95
446.013	29458.32
446.22	30316.42
446.426	31442.81
446.633	31336.31
446.839	32716.64
447.046	31225.72
447.252	32845.66
447.459	32972.64
447.665	32903.01
447.871	34262.86
448.078	35743.54
448.284	34051.92
448.491	35012.42
448.697	36480.81
448.903	36994.85
449.11	36949.79
449.316	36364.07
449.522	37302.04
449.728	38430.47
449.935	38584.07
450.141	38393.61
450.347	39317.25
450.553	38076.18
450.76	38491.91
450.966	39927.54
451.172	39331.58
451.378	40328.94
451.584	39894.77
451.791	40351.47
451.997	40472.3
452.203	41047.78
452.409	40980.2
452.615	41053.92
452.821	39352.06
453.027	39046.91
453.233	40640.23
453.44	39589.63
453.646	40161.01
453.852	39991.03
454.058	40722.15
454.264	39499.51
454.47	40617.71
454.676	39360.25
454.882	40795.88
455.088	37228.32
455.294	38070.03
455.5	38440.71
455.705	38764.29
455.911	36972.32
456.117	36427.56
456.323	35653.43
456.529	34258.76
456.735	35790.64
456.941	35020.61
457.147	34205.52
457.352	32911.2
457.558	32931.68
457.764	32927.58
457.97	32038.76
458.176	31426.42
458.381	31575.92
458.587	30201.74
458.793	30392.2
458.999	28432.29
459.204	30801.79
459.41	30037.9
459.616	27613.1
459.821	27928.49
460.027	27727.79
460.233	27199.41
460.438	25958.35
460.644	26443.71
460.85	25040.86
461.055	24653.79
461.261	24819.67
461.466	22661.12
461.672	22153.22
461.878	23603.18
462.083	21833.74
462.289	21651.47
462.494	21696.52
462.7	20537.37
462.905	19845.16
463.111	20807.7
463.316	20891.67
463.522	20461.6
463.727	20283.42
463.932	19992.61
464.138	20037.67
464.343	20264.99
464.549	19589.16
464.754	20398.11
464.959	20203.55
465.165	20310.05
465.37	19075.12
465.575	18866.23
465.781	19380.27
465.986	19470.38
466.191	18958.39
466.397	18536.51
466.602	17416.27
466.807	18309.18
467.012	18317.37
467.218	18272.32
467.423	17862.72
467.628	17938.5
467.833	18561.08
468.038	18188.35
