Data from USB4F104151__167__13-58-50-952.txt Node

Date: Thu Mar 13 13:58:50 EDT 2025
User: louis
Spectrometer: USB4F10415
Trigger mode: 4
Integration Time (sec): 1.000000E-2
Scans to average: 1
Electric dark correction enabled: true
Nonlinearity correction enabled: false
Boxcar width: 0
XAxis mode: Wavelengths
Number of Pixels in Spectrum: 3648
>>>>>Begin Spectral Data<<<<<
178.204	-67.58
178.424	-67.58
178.644	-67.58
178.864	-18.43
179.084	-67.58
179.304	-24.58
179.524	34.82
179.744	-18.43
179.964	-22.53
180.184	-38.91
180.404	28.67
180.624	2.05
180.844	4.1
181.064	-8.19
181.283	-40.96
181.503	59.39
181.723	24.58
181.943	6.14
182.163	2.05
182.383	59.39
182.602	32.77
182.822	-22.53
183.042	-40.96
183.262	38.91
183.482	-22.53
183.701	-16.38
183.921	-2.05
184.141	43.01
184.361	18.43
184.58	-34.82
184.8	-2.05
185.02	-0
185.239	34.82
185.459	88.06
185.679	79.87
185.898	-8.19
186.118	-14.34
186.338	8.19
186.557	-47.1
186.777	45.06
186.997	12.29
187.216	6.14
187.436	34.82
187.655	16.38
187.875	45.06
188.095	-65.54
188.314	24.58
188.534	32.77
188.753	-16.38
188.973	38.91
189.192	-4.1
189.412	-53.25
189.631	-14.34
189.851	57.34
190.07	-57.34
190.29	2.05
190.509	75.77
190.729	-20.48
190.948	67.58
191.168	57.34
191.387	18.43
191.607	16.38
191.826	57.34
192.045	38.91
192.265	34.82
192.484	14.34
192.704	49.15
192.923	-45.06
193.142	69.63
193.362	36.86
193.581	40.96
193.8	34.82
194.02	-8.19
194.239	30.72
194.458	40.96
194.678	14.34
194.897	45.06
195.116	-0
195.335	-22.53
195.555	51.2
195.774	-40.96
195.993	4.1
196.212	47.1
196.432	14.34
196.651	61.44
196.87	-34.82
197.089	36.86
197.308	24.58
197.528	-0
197.747	-16.38
197.966	36.86
198.185	38.91
198.404	38.91
198.623	22.53
198.842	51.2
199.062	8.19
199.281	22.53
199.5	-36.86
199.719	51.2
199.938	47.1
200.157	79.87
200.376	18.43
200.595	28.67
200.814	32.77
201.033	36.86
201.252	73.73
201.471	57.34
201.69	57.34
201.909	-49.15
202.128	18.43
202.347	-16.38
202.566	-22.53
202.785	20.48
203.004	-22.53
203.223	81.92
203.442	14.34
203.661	2.05
203.879	-28.67
204.098	43.01
204.317	-51.2
204.536	-12.29
204.755	10.24
204.974	4.1
205.193	71.68
205.411	40.96
205.63	4.1
205.849	65.53
206.068	-20.48
206.287	-12.29
206.505	53.25
206.724	-8.19
206.943	-12.29
207.162	-0
207.381	24.58
207.599	28.67
207.818	40.96
208.037	-10.24
208.255	55.3
208.474	-22.53
208.693	36.86
208.911	16.38
209.13	-2.05
209.349	16.38
209.567	61.44
209.786	65.53
210.005	18.43
210.223	28.67
210.442	34.82
210.661	26.62
210.879	47.1
211.098	22.53
211.316	22.53
211.535	73.73
211.753	-30.72
211.972	-28.67
212.191	-10.24
212.409	61.44
212.628	43.01
212.846	30.72
213.065	-57.34
213.283	36.86
213.502	61.44
213.72	-4.1
213.938	6.14
214.157	40.96
214.375	45.06
214.594	-14.34
214.812	28.67
215.031	65.53
215.249	-4.1
215.467	-36.86
215.686	-16.38
215.904	-32.77
216.122	-4.1
216.341	77.82
216.559	36.86
216.778	28.67
216.996	4.1
217.214	32.77
217.432	-4.1
217.651	-0
217.869	28.67
218.087	104.45
218.306	-2.05
218.524	12.29
218.742	-36.86
218.96	65.53
219.179	49.15
219.397	-38.91
219.615	-30.72
219.833	-30.72
220.051	-26.62
220.27	28.67
220.488	51.2
220.706	90.11
220.924	36.86
221.142	40.96
221.36	-22.53
221.578	45.06
221.796	26.62
222.015	-8.19
222.233	-77.82
222.451	8.19
222.669	-71.68
222.887	-8.19
223.105	61.44
223.323	65.53
223.541	43.01
223.759	49.15
223.977	-53.25
224.195	-6.14
224.413	4.1
224.631	45.06
224.849	-12.29
225.067	4.1
225.285	-14.34
225.503	36.86
225.721	40.96
225.939	-8.19
226.157	16.38
226.375	75.77
226.592	-16.38
226.81	45.06
227.028	40.96
227.246	81.92
227.464	-0
227.682	147.45
227.9	28.67
228.117	-55.3
228.335	-2.05
228.553	57.34
228.771	20.48
228.989	12.29
229.206	71.68
229.424	26.62
229.642	51.2
229.86	-24.58
230.077	-12.29
230.295	-34.82
230.513	16.38
230.731	4.1
230.948	-0
231.166	92.16
231.384	30.72
231.601	55.3
231.819	73.73
232.037	24.58
232.254	6.14
232.472	-22.53
232.689	-0
232.907	53.25
233.125	2.05
233.342	-20.48
233.56	-28.67
233.777	-8.19
233.995	49.15
234.213	59.39
234.43	-34.82
234.648	69.63
234.865	36.86
235.083	34.82
235.3	38.91
235.518	14.34
235.735	36.86
235.953	30.72
236.17	51.2
236.388	-26.62
236.605	-24.58
236.822	67.58
237.04	-16.38
237.257	8.19
237.475	18.43
237.692	40.96
237.909	47.1
238.127	55.3
238.344	4.1
238.562	65.53
238.779	-4.1
238.996	20.48
239.214	-51.2
239.431	12.29
239.648	-4.1
239.865	65.53
240.083	63.49
240.3	-63.49
240.517	-40.96
240.735	40.96
240.952	71.68
241.169	45.06
241.386	59.39
241.603	32.77
241.821	24.58
242.038	-0
242.255	6.14
242.472	20.48
242.689	10.24
242.907	49.15
243.124	77.82
243.341	45.06
243.558	75.77
243.775	-0
243.992	28.67
244.209	26.62
244.426	73.73
244.643	63.49
244.86	-10.24
245.078	114.69
245.295	16.38
245.512	-18.43
245.729	-4.1
245.946	-20.48
246.163	-0
246.38	36.86
246.597	14.34
246.814	-16.38
247.031	12.29
247.248	6.14
247.464	10.24
247.681	-114.69
247.898	40.96
248.115	18.43
248.332	20.48
248.549	-6.14
248.766	45.06
248.983	10.24
249.2	2.05
249.417	38.91
249.633	8.19
249.85	-0
250.067	55.3
250.284	-26.62
250.501	-20.48
250.717	-45.06
250.934	12.29
251.151	106.49
251.368	-26.62
251.585	14.34
251.801	6.14
252.018	2.05
252.235	75.77
252.451	18.43
252.668	53.25
252.885	79.87
253.102	32.77
253.318	94.21
253.535	6.14
253.752	16.38
253.968	104.45
254.185	-2.05
254.401	49.15
254.618	-102.4
254.835	10.24
255.051	59.39
255.268	16.38
255.484	-16.38
255.701	57.34
255.917	73.73
256.134	-47.1
256.351	4.1
256.567	22.53
256.784	-43.01
257	51.2
257.217	6.14
257.433	-0
257.65	45.06
257.866	71.68
258.082	55.3
258.299	75.77
258.515	32.77
258.732	53.25
258.948	8.19
259.165	-0
259.381	8.19
259.597	-6.14
259.814	61.44
260.03	-4.1
260.246	24.58
260.463	14.34
260.679	16.38
260.895	61.44
261.112	45.06
261.328	-40.96
261.544	14.34
261.761	34.82
261.977	49.15
262.193	18.43
262.409	38.91
262.626	40.96
262.842	18.43
263.058	-10.24
263.274	22.53
263.49	34.82
263.707	59.39
263.923	30.72
264.139	-79.87
264.355	-2.05
264.571	59.39
264.787	-61.44
265.004	55.3
265.22	16.38
265.436	-30.72
265.652	18.43
265.868	67.58
266.084	16.38
266.3	32.77
266.516	22.53
266.732	53.25
266.948	59.39
267.164	36.86
267.38	20.48
267.596	122.88
267.812	8.19
268.028	77.82
268.244	-16.38
268.46	-49.15
268.676	-16.38
268.892	40.96
269.108	-0
269.324	32.77
269.54	69.63
269.756	-8.19
269.972	-22.53
270.188	90.11
270.403	36.86
270.619	2.05
270.835	92.16
271.051	49.15
271.267	32.77
271.483	34.82
271.698	20.48
271.914	18.43
272.13	-24.58
272.346	75.77
272.562	32.77
272.777	51.2
272.993	57.34
273.209	24.58
273.425	-8.19
273.64	-4.1
273.856	65.53
274.072	22.53
274.287	24.58
274.503	16.38
274.719	67.58
274.934	28.67
275.15	71.68
275.366	-12.29
275.581	24.58
275.797	71.68
276.012	34.82
276.228	30.72
276.444	6.14
276.659	-24.58
276.875	32.77
277.09	-55.3
277.306	-2.05
277.521	34.82
277.737	40.96
277.952	61.44
278.168	-6.14
278.383	18.43
278.599	-4.1
278.814	63.49
279.03	47.1
279.245	71.68
279.461	-10.24
279.676	-45.06
279.892	14.34
280.107	14.34
280.322	-51.2
280.538	26.62
280.753	-8.19
280.969	22.53
281.184	18.43
281.399	-2.05
281.615	16.38
281.83	106.49
282.045	38.91
282.26	-8.19
282.476	-38.91
282.691	32.77
282.906	4.1
283.122	10.24
283.337	-4.1
283.552	49.15
283.767	51.2
283.983	20.48
284.198	40.96
284.413	18.43
284.628	45.06
284.843	34.82
285.058	49.15
285.274	20.48
285.489	36.86
285.704	12.29
285.919	-16.38
286.134	20.48
286.349	36.86
286.564	26.62
286.779	49.15
286.995	61.44
287.21	-0
287.425	63.49
287.64	-0
287.855	36.86
288.07	20.48
288.285	28.67
288.5	28.67
288.715	71.68
288.93	6.14
289.145	26.62
289.36	-32.77
289.575	-32.77
289.79	94.21
290.004	-32.77
290.219	2.05
290.434	63.49
290.649	-4.1
290.864	-24.58
291.079	12.29
291.294	67.58
291.509	30.72
291.724	-4.1
291.938	-43.01
292.153	-8.19
292.368	79.87
292.583	10.24
292.798	36.86
293.012	30.72
293.227	34.82
293.442	49.15
293.657	-12.29
293.871	-69.63
294.086	55.3
294.301	-22.53
294.516	-8.19
294.73	12.29
294.945	12.29
295.16	26.62
295.374	90.11
295.589	6.14
295.804	2.05
296.018	59.39
296.233	-8.19
296.447	57.34
296.662	-45.06
296.877	81.92
297.091	6.14
297.306	51.2
297.52	55.3
297.735	57.34
297.949	16.38
298.164	32.77
298.378	92.16
298.593	10.24
298.807	-12.29
299.022	61.44
299.236	-4.1
299.451	38.91
299.665	14.34
299.88	75.77
300.094	-8.19
300.309	36.86
300.523	-4.1
300.737	55.3
300.952	-4.1
301.166	49.15
301.381	-47.1
301.595	-2.05
301.809	-53.25
302.024	-22.53
302.238	-22.53
302.452	24.58
302.667	71.68
302.881	32.77
303.095	47.1
303.309	32.77
303.524	32.77
303.738	-28.67
303.952	38.91
304.166	49.15
304.381	-61.44
304.595	40.96
304.809	51.2
305.023	10.24
305.237	-0
305.452	45.06
305.666	16.38
305.88	45.06
306.094	-53.25
306.308	-8.19
306.522	26.62
306.736	43.01
306.95	2.05
307.164	-20.48
307.379	34.82
307.593	14.34
307.807	-0
308.021	92.16
308.235	57.34
308.449	47.1
308.663	28.67
308.877	75.77
309.091	49.15
309.305	86.01
309.519	69.63
309.733	36.86
309.947	-53.25
310.161	47.1
310.374	28.67
310.588	45.06
310.802	32.77
311.016	4.1
311.23	65.53
311.444	-14.34
311.658	-0
311.872	83.97
312.085	-6.14
312.299	63.49
312.513	12.29
312.727	10.24
312.941	8.19
313.154	45.06
313.368	63.49
313.582	90.11
313.796	12.29
314.009	40.96
314.223	28.67
314.437	40.96
314.651	16.38
314.864	65.53
315.078	-4.1
315.292	96.25
315.505	34.82
315.719	-16.38
315.933	16.38
316.146	81.92
316.36	34.82
316.573	57.34
316.787	24.58
317.001	49.15
317.214	57.34
317.428	34.82
317.641	73.73
317.855	63.49
318.068	8.19
318.282	16.38
318.495	-2.05
318.709	71.68
318.922	120.83
319.136	73.73
319.349	55.3
319.563	55.3
319.776	38.91
319.99	38.91
320.203	81.92
320.417	12.29
320.63	-0
320.843	86.01
321.057	55.3
321.27	34.82
321.483	28.67
321.697	57.34
321.91	36.86
322.124	51.2
322.337	16.38
322.55	40.96
322.763	8.19
322.977	55.3
323.19	16.38
323.403	-14.34
323.617	24.58
323.83	-0
324.043	24.58
324.256	30.72
324.469	30.72
324.683	34.82
324.896	-6.14
325.109	65.53
325.322	45.06
325.535	-4.1
325.748	-4.1
325.962	34.82
326.175	24.58
326.388	14.34
326.601	71.68
326.814	10.24
327.027	-10.24
327.24	40.96
327.453	8.19
327.666	30.72
327.879	10.24
328.092	75.77
328.305	-2.05
328.518	30.72
328.731	-2.05
328.944	26.62
329.157	26.62
329.37	18.43
329.583	57.34
329.796	96.25
330.009	-108.54
330.222	-34.82
330.435	40.96
330.648	65.53
330.861	-36.86
331.073	32.77
331.286	2.05
331.499	-2.05
331.712	-12.29
331.925	55.3
332.138	40.96
332.35	94.21
332.563	16.38
332.776	75.77
332.989	16.38
333.202	-2.05
333.414	49.15
333.627	51.2
333.84	-4.1
334.053	-24.58
334.265	14.34
334.478	14.34
334.691	14.34
334.903	-12.29
335.116	34.82
335.329	51.2
335.541	51.2
335.754	14.34
335.966	-20.48
336.179	16.38
336.392	-0
336.604	28.67
336.817	-4.1
337.029	51.2
337.242	34.82
337.454	100.35
337.667	26.62
337.88	16.38
338.092	43.01
338.305	65.53
338.517	16.38
338.729	104.45
338.942	65.53
339.154	18.43
339.367	6.14
339.579	83.97
339.792	-16.38
340.004	67.58
340.217	-14.34
340.429	-18.43
340.641	47.1
340.854	-30.72
341.066	2.05
341.278	28.67
341.491	43.01
341.703	92.16
341.915	75.77
342.128	36.86
342.34	79.87
342.552	59.39
342.764	106.49
342.977	126.97
343.189	73.73
343.401	18.43
343.613	-40.96
343.826	18.43
344.038	-2.05
344.25	-26.62
344.462	4.1
344.674	-36.86
344.886	-6.14
345.099	49.15
345.311	59.39
345.523	26.62
345.735	24.58
345.947	22.53
346.159	-6.14
346.371	22.53
346.583	34.82
346.795	96.25
347.007	36.86
347.219	4.1
347.431	38.91
347.643	2.05
347.855	-8.19
348.067	40.96
348.279	-8.19
348.491	45.06
348.703	10.24
348.915	-32.77
349.127	14.34
349.339	73.73
349.551	-22.53
349.763	8.19
349.975	40.96
350.187	51.2
350.399	28.67
350.61	-16.38
350.822	30.72
351.034	59.39
351.246	32.77
351.458	59.39
351.669	-26.62
351.881	45.06
352.093	-20.48
352.305	-8.19
352.517	83.97
352.728	73.73
352.94	18.43
353.152	12.29
353.363	43.01
353.575	-8.19
353.787	71.68
353.999	77.82
354.21	81.92
354.422	59.39
354.633	4.1
354.845	36.86
355.057	-55.3
355.268	14.34
355.48	24.58
355.692	8.19
355.903	69.63
356.115	43.01
356.326	-30.72
356.538	-8.19
356.749	106.49
356.961	51.2
357.172	-4.1
357.384	86.01
357.595	88.06
357.807	45.06
358.018	-18.43
358.23	43.01
358.441	57.34
358.653	59.39
358.864	-12.29
359.075	-0
359.287	49.15
359.498	20.48
359.709	28.67
359.921	28.67
360.132	22.53
360.344	51.2
360.555	2.05
360.766	-6.14
360.977	10.24
361.189	12.29
361.4	-34.82
361.611	65.53
361.823	79.87
362.034	67.58
362.245	79.87
362.456	30.72
362.667	32.77
362.879	38.91
363.09	61.44
363.301	40.96
363.512	114.69
363.723	10.24
363.935	-0
364.146	38.91
364.357	4.1
364.568	28.67
364.779	26.62
364.99	83.97
365.201	34.82
365.412	24.58
365.623	30.72
365.834	57.34
366.045	94.21
366.256	12.29
366.467	10.24
366.678	-4.1
366.889	-36.86
367.1	45.06
367.311	28.67
367.522	65.53
367.733	34.82
367.944	81.92
368.155	4.1
368.366	28.67
368.577	51.2
368.788	83.97
368.999	-8.19
369.209	96.25
369.42	55.3
369.631	57.34
369.842	-0
370.053	63.49
370.264	10.24
370.474	57.34
370.685	45.06
370.896	114.69
371.107	-32.77
371.317	14.34
371.528	55.3
371.739	71.68
371.95	92.16
372.16	114.69
372.371	-12.29
372.582	22.53
372.792	102.4
373.003	53.25
373.214	43.01
373.424	49.15
373.635	-18.43
373.846	26.62
374.056	32.77
374.267	34.82
374.477	34.82
374.688	-2.05
374.898	32.77
375.109	-10.24
375.319	-2.05
375.53	92.16
375.74	40.96
375.951	10.24
376.161	47.1
376.372	67.58
376.582	-20.48
376.793	12.29
377.003	34.82
377.214	20.48
377.424	24.58
377.635	34.82
377.845	65.53
378.055	75.77
378.266	-16.38
378.476	22.53
378.686	24.58
378.897	94.21
379.107	40.96
379.317	16.38
379.528	77.82
379.738	57.34
379.948	14.34
380.158	57.34
380.369	28.67
380.579	90.11
380.789	36.86
380.999	43.01
381.21	16.38
381.42	57.34
381.63	-24.58
381.84	69.63
382.05	75.77
382.261	26.62
382.471	43.01
382.681	114.69
382.891	38.91
383.101	-28.67
383.311	30.72
383.521	26.62
383.731	49.15
383.941	40.96
384.151	79.87
384.361	114.69
384.571	59.39
384.781	51.2
384.991	12.29
385.201	57.34
385.411	-4.1
385.621	-4.1
385.831	43.01
386.041	47.1
386.251	61.44
386.461	100.35
386.671	81.92
386.881	28.67
387.091	-30.72
387.301	73.73
387.511	139.26
387.72	22.53
387.93	40.96
388.14	-8.19
388.35	18.43
388.56	55.3
388.769	20.48
388.979	32.77
389.189	28.67
389.399	69.63
389.609	28.67
389.818	49.15
390.028	-20.48
390.238	53.25
390.447	40.96
390.657	90.11
390.867	43.01
391.076	32.77
391.286	55.3
391.496	108.54
391.705	40.96
391.915	-2.05
392.125	43.01
392.334	90.11
392.544	45.06
392.753	8.19
392.963	63.49
393.172	88.06
393.382	32.77
393.591	10.24
393.801	-36.86
394.01	102.4
394.22	63.49
394.429	88.06
394.639	-6.14
394.848	77.82
395.058	59.39
395.267	43.01
395.477	49.15
395.686	83.97
395.895	104.45
396.105	75.77
396.314	32.77
396.524	106.49
396.733	55.3
396.942	55.3
397.152	57.34
397.361	92.16
397.57	40.96
397.78	24.58
397.989	120.83
398.198	-8.19
398.407	90.11
398.617	155.65
398.826	51.2
399.035	110.59
399.244	49.15
399.453	57.34
399.663	69.63
399.872	141.31
400.081	114.69
400.29	34.82
400.499	65.53
400.708	94.21
400.917	34.82
401.127	147.45
401.336	2.05
401.545	65.53
401.754	57.34
401.963	118.78
402.172	92.16
402.381	86.01
402.59	108.54
402.799	20.48
403.008	49.15
403.217	139.26
403.426	59.39
403.635	90.11
403.844	65.53
404.053	100.35
404.262	116.73
404.471	106.49
404.68	90.11
404.888	57.34
405.097	126.97
405.306	116.73
405.515	114.69
405.724	159.74
405.933	81.92
406.142	114.69
406.35	104.45
406.559	149.5
406.768	108.54
406.977	143.36
407.185	169.98
407.394	131.07
407.603	137.21
407.812	188.41
408.02	145.41
408.229	194.56
408.438	221.18
408.646	196.6
408.855	204.8
409.064	151.55
409.272	188.41
409.481	258.04
409.69	212.99
409.898	262.14
410.107	198.65
410.315	264.19
410.524	188.41
410.733	229.37
410.941	192.51
411.15	231.42
411.358	272.38
411.567	315.39
411.775	270.33
411.984	253.95
412.192	307.2
412.401	319.48
412.609	284.67
412.818	311.29
413.026	307.2
413.234	317.44
413.443	380.92
413.651	350.2
413.86	311.29
414.068	413.69
414.276	362.49
414.485	403.45
414.693	342.01
414.901	479.22
415.11	444.41
415.318	395.26
415.526	434.17
415.734	471.03
415.943	516.09
416.151	593.91
416.359	530.42
416.567	555
416.776	514.04
416.984	684.02
417.192	634.87
417.4	628.73
417.608	544.76
417.817	663.54
418.025	694.26
418.233	770.04
418.441	780.28
418.649	759.8
418.857	860.15
419.065	872.43
419.273	882.67
419.481	847.86
419.689	933.87
419.897	993.26
420.105	991.22
420.313	1038.32
420.521	1054.7
420.729	1009.65
420.937	1198.06
421.145	1167.34
421.353	1282.03
421.561	1349.61
421.769	1204.21
421.977	1335.28
422.185	1372.14
422.393	1495.02
422.601	1421.29
422.809	1452.01
423.017	1396.71
423.224	1439.72
423.432	1679.33
423.64	1556.46
423.848	1861.6
424.056	1714.15
424.263	1740.77
424.471	1888.23
424.679	1957.86
424.887	2064.35
425.094	2074.59
425.302	2127.84
425.51	2166.75
425.718	2228.19
425.925	2156.51
426.133	2396.12
426.341	2293.72
426.548	2457.56
426.756	2527.19
426.964	2609.11
427.171	2750.42
427.379	2787.29
427.586	2791.38
427.794	2811.86
428.001	2914.26
428.209	3164.11
428.417	3119.06
428.624	3426.25
428.832	3325.9
429.039	3303.37
429.247	3280.85
429.454	3651.53
429.662	3844.04
429.869	3682.25
430.076	3852.23
430.284	3766.21
430.491	3889.09
430.699	4204.48
430.906	4042.69
431.114	4196.29
431.321	4325.31
431.528	4491.2
431.736	4784.05
431.943	5097.39
432.15	4667.32
432.358	4966.32
432.565	5070.77
432.772	5062.58
432.979	5390.25
433.187	5332.91
433.394	5527.47
433.601	5865.38
433.808	5824.42
434.016	5795.75
434.223	6123.43
434.43	6430.62
434.637	6277.02
434.844	6862.74
435.052	6674.33
435.259	6750.1
435.466	6899.61
435.673	6698.91
435.88	7317.39
436.087	7481.23
436.294	7604.11
436.501	7397.26
436.708	7597.96
436.915	7675.79
437.122	8087.43
437.329	8101.76
437.537	8359.81
437.743	8632.19
437.95	8308.61
438.157	8781.69
438.364	9201.52
438.571	9211.76
438.778	9322.35
438.985	10186.6
439.192	9613.17
439.399	9822.06
439.606	9635.69
439.813	10145.64
440.02	11032.41
440.227	10518.37
440.433	10411.87
440.64	11026.26
440.847	11093.85
441.054	11120.47
441.261	11790.16
441.467	11702.09
441.674	12146.5
441.881	12441.41
442.088	12334.92
442.294	12441.41
442.501	12566.34
442.708	12732.22
442.914	13348.66
443.121	13811.5
443.328	13332.28
443.534	14540.58
443.741	14135.08
443.948	13766.45
444.154	15007.51
444.361	14583.59
444.568	15007.51
444.774	15009.56
444.981	15345.43
445.187	15634.19
445.394	16133.9
445.6	15912.72
445.807	17592.05
446.013	16660.23
446.22	17207.03
446.426	17737.46
446.633	17731.31
446.839	18276.07
447.046	17700.59
447.252	18783.97
447.459	18284.26
447.665	18753.25
447.871	19521.24
448.078	20379.34
448.284	19322.59
448.491	20068.05
448.697	20575.94
448.903	21130.94
449.11	21184.19
449.316	20784.83
449.522	21262.01
449.728	21448.38
449.935	22009.52
450.141	22046.38
450.347	22220.46
450.553	21448.38
450.76	21575.35
450.966	22711.97
451.172	22224.56
451.378	23027.36
451.584	22484.65
451.791	23096.99
451.997	22742.69
452.203	23185.05
452.409	23404.19
452.615	22771.36
452.821	22437.55
453.027	22267.56
453.233	23488.15
453.44	22222.51
453.646	22585
453.852	23078.56
454.058	23226.01
454.264	22064.82
454.47	22797.99
454.676	21923.51
454.882	23131.81
455.088	21155.52
455.294	21118.65
455.5	21413.56
455.705	21819.06
455.911	21202.62
456.117	20371.15
456.323	20344.52
456.529	19209.95
456.735	20170.44
456.941	19535.57
457.147	19142.36
457.352	18564.84
457.558	18489.06
457.764	18489.06
457.97	18067.18
458.176	17706.74
458.381	17882.86
458.587	16738.05
458.793	16910.08
458.999	15957.77
459.204	17172.22
459.41	16441.09
459.616	15478.55
459.821	15763.22
460.027	15191.83
460.233	15157.02
460.438	14673.7
460.644	14741.28
460.85	14094.12
461.055	13879.08
461.261	13610.8
461.466	12740.41
461.672	12324.68
461.878	13287.22
462.083	12261.19
462.289	12107.59
462.494	11937.61
462.7	11607.89
462.905	11173.72
463.111	11558.74
463.316	11530.06
463.522	11448.15
463.727	11534.16
463.932	11571.02
464.138	11364.18
464.343	11362.13
464.549	11134.81
464.754	11317.08
464.959	11296.6
465.165	11267.92
465.37	10618.72
465.575	10354.53
465.781	10856.28
465.986	10970.97
466.191	10467.17
466.397	10448.74
466.602	9877.35
466.807	10096.49
467.012	10235.75
467.218	10102.63
467.423	10112.87
467.628	10219.36
467.833	10413.92
468.038	10057.57
468.244	9787.24
468.449	10297.19
468.654	9924.46
468.859	9754.48
469.064	10043.24
469.269	9469.81
