Data from USB4F104151__22__13-52-37-502.txt Node

Date: Thu Mar 13 13:52:37 EDT 2025
User: louis
Spectrometer: USB4F10415
Trigger mode: 4
Integration Time (sec): 1.000000E-2
Scans to average: 1
Electric dark correction enabled: true
Nonlinearity correction enabled: false
Boxcar width: 0
XAxis mode: Wavelengths
Number of Pixels in Spectrum: 3648
>>>>>Begin Spectral Data<<<<<
178.204	-43.01
178.424	-43.01
178.644	-43.01
178.864	-18.43
179.084	-45.06
179.304	16.38
179.524	-18.43
179.744	-22.53
179.964	-18.43
180.184	16.38
180.404	18.43
180.624	26.62
180.844	-51.2
181.064	-28.67
181.283	38.91
181.503	-26.62
181.723	49.15
181.943	-18.43
182.163	47.1
182.383	-36.86
182.602	129.02
182.822	106.49
183.042	-2.05
183.262	47.1
183.482	51.2
183.701	16.38
183.921	0
184.141	-24.58
184.361	28.67
184.58	22.53
184.8	24.58
185.02	36.86
185.239	-2.05
185.459	40.96
185.679	22.53
185.898	-24.58
186.118	67.58
186.338	-26.62
186.557	36.86
186.777	18.43
186.997	63.49
187.216	10.24
187.436	30.72
187.655	26.62
187.875	22.53
188.095	86.01
188.314	16.38
188.534	18.43
188.753	83.97
188.973	14.34
189.192	63.49
189.412	18.43
189.631	-55.3
189.851	73.73
190.07	28.67
190.29	-67.58
190.509	20.48
190.729	20.48
190.948	28.67
191.168	69.63
191.387	10.24
191.607	38.91
191.826	51.2
192.045	24.58
192.265	47.1
192.484	20.48
192.704	-59.39
192.923	43.01
193.142	40.96
193.362	32.77
193.581	18.43
193.8	55.3
194.02	59.39
194.239	73.73
194.458	71.68
194.678	81.92
194.897	59.39
195.116	10.24
195.335	-30.72
195.555	6.14
195.774	36.86
195.993	92.16
196.212	4.1
196.432	49.15
196.651	92.16
196.87	14.34
197.089	75.77
197.308	75.77
197.528	92.16
197.747	49.15
197.966	-10.24
198.185	24.58
198.404	59.39
198.623	6.14
198.842	98.3
199.062	22.53
199.281	43.01
199.5	-4.1
199.719	22.53
199.938	61.44
200.157	-24.58
200.376	28.67
200.595	47.1
200.814	-6.14
201.033	24.58
201.252	-30.72
201.471	49.15
201.69	-53.25
201.909	-8.19
202.128	28.67
202.347	59.39
202.566	-8.19
202.785	18.43
203.004	0
203.223	-6.14
203.442	24.58
203.661	14.34
203.879	4.1
204.098	49.15
204.317	-22.53
204.536	36.86
204.755	77.82
204.974	22.53
205.193	77.82
205.411	106.49
205.63	51.2
205.849	28.67
206.068	-22.53
206.287	20.48
206.505	10.24
206.724	88.06
206.943	98.3
207.162	-4.1
207.381	-10.24
207.599	-4.1
207.818	8.19
208.037	14.34
208.255	-12.29
208.474	51.2
208.693	49.15
208.911	75.77
209.13	26.62
209.349	2.05
209.567	59.39
209.786	36.86
210.005	55.3
210.223	145.41
210.442	83.97
210.661	30.72
210.879	16.38
211.098	10.24
211.316	47.1
211.535	26.62
211.753	12.29
211.972	30.72
212.191	-14.34
212.409	-18.43
212.628	6.14
212.846	47.1
213.065	-14.34
213.283	12.29
213.502	73.73
213.72	40.96
213.938	-34.82
214.157	53.25
214.375	45.06
214.594	12.29
214.812	118.78
215.031	98.3
215.249	-73.73
215.467	-20.48
215.686	6.14
215.904	-57.34
216.122	10.24
216.341	90.11
216.559	-30.72
216.778	8.19
216.996	30.72
217.214	51.2
217.432	-4.1
217.651	6.14
217.869	18.43
218.087	83.97
218.306	-67.58
218.524	8.19
218.742	83.97
218.96	10.24
219.179	-8.19
219.397	10.24
219.615	12.29
219.833	88.06
220.051	10.24
220.27	8.19
220.488	16.38
220.706	4.1
220.924	51.2
221.142	53.25
221.36	-40.96
221.578	4.1
221.796	14.34
222.015	34.82
222.233	18.43
222.451	51.2
222.669	14.34
222.887	30.72
223.105	38.91
223.323	8.19
223.541	18.43
223.759	71.68
223.977	79.87
224.195	114.69
224.413	94.21
224.631	14.34
224.849	-8.19
225.067	10.24
225.285	53.25
225.503	-12.29
225.721	57.34
225.939	36.86
226.157	73.73
226.375	-8.19
226.592	8.19
226.81	-10.24
227.028	-16.38
227.246	47.1
227.464	61.44
227.682	57.34
227.9	-4.1
228.117	49.15
228.335	-6.14
228.553	73.73
228.771	47.1
228.989	-4.1
229.206	-20.48
229.424	77.82
229.642	38.91
229.86	47.1
230.077	106.49
230.295	8.19
230.513	8.19
230.731	0
230.948	-20.48
231.166	55.3
231.384	-20.48
231.601	6.14
231.819	-4.1
232.037	63.49
232.254	-14.34
232.472	96.25
232.689	16.38
232.907	55.3
233.125	16.38
233.342	18.43
233.56	36.86
233.777	-20.48
233.995	59.39
234.213	92.16
234.43	22.53
234.648	12.29
234.865	-24.58
235.083	-2.05
235.3	0
235.518	-14.34
235.735	67.58
235.953	57.34
236.17	-2.05
236.388	-38.91
236.605	-6.14
236.822	12.29
237.04	63.49
237.257	4.1
237.475	-12.29
237.692	-14.34
237.909	-10.24
238.127	55.3
238.344	100.35
238.562	81.92
238.779	45.06
238.996	12.29
239.214	63.49
239.431	124.93
239.648	71.68
239.865	47.1
240.083	51.2
240.3	30.72
240.517	6.14
240.735	-4.1
240.952	63.49
241.169	49.15
241.386	2.05
241.603	28.67
241.821	-20.48
242.038	-2.05
242.255	86.01
242.472	71.68
242.689	43.01
242.907	40.96
243.124	83.97
243.341	61.44
243.558	-30.72
243.775	40.96
243.992	30.72
244.209	14.34
244.426	22.53
244.643	20.48
244.86	14.34
245.078	118.78
245.295	34.82
245.512	24.58
245.729	14.34
245.946	6.14
246.163	-79.87
246.38	102.4
246.597	77.82
246.814	63.49
247.031	51.2
247.248	65.54
247.464	77.82
247.681	69.63
247.898	65.54
248.115	-12.29
248.332	24.58
248.549	43.01
248.766	10.24
248.983	47.1
249.2	51.2
249.417	34.82
249.633	55.3
249.85	-12.29
250.067	49.15
250.284	51.2
250.501	10.24
250.717	102.4
250.934	-16.38
251.151	28.67
251.368	79.87
251.585	36.86
251.801	-8.19
252.018	20.48
252.235	36.86
252.451	90.11
252.668	12.29
252.885	108.54
253.102	-16.38
253.318	53.25
253.535	63.49
253.752	-16.38
253.968	6.14
254.185	-28.67
254.401	49.15
254.618	-10.24
254.835	-18.43
255.051	88.06
255.268	-10.24
255.484	16.38
255.701	16.38
255.917	-12.29
256.134	-30.72
256.351	2.05
256.567	8.19
256.784	-8.19
257	10.24
257.217	28.67
257.433	20.48
257.65	106.49
257.866	-63.49
258.082	53.25
258.299	-28.67
258.515	38.91
258.732	8.19
258.948	40.96
259.165	-57.34
259.381	55.3
259.597	53.25
259.814	-4.1
260.03	-10.24
260.246	36.86
260.463	55.3
260.679	43.01
260.895	-4.1
261.112	88.06
261.328	75.77
261.544	0
261.761	73.73
261.977	18.43
262.193	38.91
262.409	40.96
262.626	6.14
262.842	32.77
263.058	-6.14
263.274	14.34
263.49	49.15
263.707	43.01
263.923	16.38
264.139	18.43
264.355	47.1
264.571	59.39
264.787	8.19
265.004	43.01
265.22	10.24
265.436	12.29
265.652	38.91
265.868	120.83
266.084	100.35
266.3	61.44
266.516	90.11
266.732	45.06
266.948	-22.53
267.164	30.72
267.38	-26.62
267.596	-14.34
267.812	20.48
268.028	36.86
268.244	10.24
268.46	55.3
268.676	28.67
268.892	-22.53
269.108	20.48
269.324	43.01
269.54	51.2
269.756	0
269.972	14.34
270.188	26.62
270.403	-14.34
270.619	38.91
270.835	63.49
271.051	0
271.267	92.16
271.483	55.3
271.698	22.53
271.914	-32.77
272.13	-12.29
272.346	81.92
272.562	12.29
272.777	4.1
272.993	-34.82
273.209	-34.82
273.425	-26.62
273.64	59.39
273.856	108.54
274.072	96.25
274.287	-8.19
274.503	69.63
274.719	51.2
274.934	24.58
275.15	63.49
275.366	2.05
275.581	-8.19
275.797	10.24
276.012	-22.53
276.228	-26.62
276.444	51.2
276.659	92.16
276.875	-10.24
277.09	20.48
277.306	47.1
277.521	-24.58
277.737	26.62
277.952	63.49
278.168	30.72
278.383	36.86
278.599	-67.58
278.814	14.34
279.03	59.39
279.245	16.38
279.461	77.82
279.676	73.73
279.892	-24.58
280.107	67.58
280.322	24.58
280.538	-45.06
280.753	40.96
280.969	14.34
281.184	-51.2
281.399	0
281.615	-4.1
281.83	45.06
282.045	20.48
282.26	4.1
282.476	2.05
282.691	-38.91
282.906	32.77
283.122	45.06
283.337	65.54
283.552	61.44
283.767	24.58
283.983	30.72
284.198	100.35
284.413	63.49
284.628	22.53
284.843	53.25
285.058	-2.05
285.274	-65.53
285.489	43.01
285.704	26.62
285.919	30.72
286.134	20.48
286.349	59.39
286.564	-10.24
286.779	30.72
286.995	16.38
287.21	18.43
287.425	36.86
287.64	-24.58
287.855	45.06
288.07	4.1
288.285	22.53
288.5	55.3
288.715	-16.38
288.93	26.62
289.145	43.01
289.36	57.34
289.575	-2.05
289.79	47.1
290.004	51.2
290.219	-16.38
290.434	12.29
290.649	75.77
290.864	-36.86
291.079	14.34
291.294	34.82
291.509	-45.06
291.724	10.24
291.938	86.01
292.153	-4.1
292.368	43.01
292.583	-16.38
292.798	2.05
293.012	55.3
293.227	30.72
293.442	47.1
293.657	2.05
293.871	-32.77
294.086	57.34
294.301	-6.14
294.516	86.01
294.73	-22.53
294.945	24.58
295.16	43.01
295.374	63.49
295.589	81.92
295.804	59.39
296.018	61.44
296.233	51.2
296.447	51.2
296.662	59.39
296.877	20.48
297.091	106.49
297.306	90.11
297.52	24.58
297.735	-38.91
297.949	71.68
298.164	96.25
298.378	36.86
298.593	20.48
298.807	34.82
299.022	18.43
299.236	28.67
299.451	20.48
299.665	81.92
299.88	-43.01
300.094	38.91
300.309	30.72
300.523	22.53
300.737	-2.05
300.952	43.01
301.166	4.1
301.381	10.24
301.595	18.43
301.809	8.19
302.024	73.73
302.238	-12.29
302.452	-30.72
302.667	69.63
302.881	77.82
303.095	53.25
303.309	63.49
303.524	40.96
303.738	81.92
303.952	47.1
304.166	30.72
304.381	-18.43
304.595	90.11
304.809	-49.15
305.023	57.34
305.237	22.53
305.452	79.87
305.666	-22.53
305.88	2.05
306.094	10.24
306.308	67.58
306.522	24.58
306.736	14.34
306.95	47.1
307.164	65.54
307.379	8.19
307.593	90.11
307.807	24.58
308.021	120.83
308.235	14.34
308.449	47.1
308.663	-2.05
308.877	96.25
309.091	2.05
309.305	36.86
309.519	-8.19
309.733	20.48
309.947	-30.72
310.161	94.21
310.374	-30.72
310.588	-10.24
310.802	53.25
311.016	-32.77
311.23	90.11
311.444	47.1
311.658	86.01
311.872	45.06
312.085	22.53
312.299	79.87
312.513	-28.67
312.727	71.68
312.941	-51.2
313.154	32.77
313.368	20.48
313.582	-10.24
313.796	47.1
314.009	61.44
314.223	16.38
314.437	63.49
314.651	30.72
314.864	-12.29
315.078	100.35
315.292	-26.62
315.505	79.87
315.719	12.29
315.933	-32.77
316.146	16.38
316.36	90.11
316.573	-18.43
316.787	139.26
317.001	-8.19
317.214	6.14
317.428	75.77
317.641	96.25
317.855	-40.96
318.068	16.38
318.282	43.01
318.495	73.73
318.709	34.82
318.922	-18.43
319.136	-24.58
319.349	67.58
319.563	22.53
319.776	59.39
319.99	-22.53
320.203	47.1
320.417	106.49
320.63	79.87
320.843	18.43
321.057	106.49
321.27	6.14
321.483	32.77
321.697	0
321.91	12.29
322.124	32.77
322.337	-8.19
322.55	57.34
322.763	-12.29
322.977	30.72
323.19	67.58
323.403	14.34
323.617	38.91
323.83	8.19
324.043	-8.19
324.256	63.49
324.469	30.72
324.683	43.01
324.896	69.63
325.109	49.15
325.322	-4.1
325.535	6.14
325.748	10.24
325.962	4.1
326.175	10.24
326.388	90.11
326.601	-30.72
326.814	106.49
327.027	49.15
327.24	59.39
327.453	12.29
327.666	67.58
327.879	63.49
328.092	-8.19
328.305	69.63
328.518	30.72
328.731	0
328.944	81.92
329.157	69.63
329.37	32.77
329.583	36.86
329.796	53.25
330.009	-8.19
330.222	129.02
330.435	10.24
330.648	26.62
330.861	-59.39
331.073	59.39
331.286	6.14
331.499	-12.29
331.712	22.53
331.925	16.38
332.138	-2.05
332.35	94.21
332.563	71.68
332.776	12.29
332.989	36.86
333.202	61.44
333.414	51.2
333.627	59.39
333.84	51.2
334.053	86.01
334.265	106.49
334.478	51.2
334.691	28.67
334.903	16.38
335.116	26.62
335.329	100.35
335.541	12.29
335.754	16.38
335.966	26.62
336.179	6.14
336.392	75.77
336.604	63.49
336.817	51.2
337.029	10.24
337.242	-67.58
337.454	20.48
337.667	-20.48
337.88	55.3
338.092	53.25
338.305	81.92
338.517	30.72
338.729	65.54
338.942	83.97
339.154	61.44
339.367	-18.43
339.579	51.2
339.792	-36.86
340.004	36.86
340.217	2.05
340.429	38.91
340.641	30.72
340.854	-30.72
341.066	6.14
341.278	49.15
341.491	81.92
341.703	38.91
341.915	-18.43
342.128	57.34
342.34	61.44
342.552	12.29
342.764	-26.62
342.977	24.58
343.189	10.24
343.401	69.63
343.613	71.68
343.826	28.67
344.038	61.44
344.25	73.73
344.462	36.86
344.674	63.49
344.886	45.06
345.099	67.58
345.311	40.96
345.523	67.58
345.735	53.25
345.947	61.44
346.159	10.24
346.371	28.67
346.583	0
346.795	69.63
347.007	8.19
347.219	100.35
347.431	120.83
347.643	36.86
347.855	51.2
348.067	-12.29
348.279	90.11
348.491	53.25
348.703	94.21
348.915	79.87
349.127	-10.24
349.339	53.25
349.551	20.48
349.763	71.68
349.975	14.34
350.187	20.48
350.399	20.48
350.61	57.34
350.822	-8.19
351.034	20.48
351.246	57.34
351.458	22.53
351.669	34.82
351.881	65.54
352.093	8.19
352.305	77.82
352.517	69.63
352.728	40.96
352.94	104.45
353.152	18.43
353.363	10.24
353.575	53.25
353.787	-6.14
353.999	73.73
354.21	18.43
354.422	67.58
354.633	57.34
354.845	2.05
355.057	26.62
355.268	-20.48
355.48	57.34
355.692	77.82
355.903	-32.77
356.115	75.77
356.326	92.16
356.538	8.19
356.749	96.25
356.961	-6.14
357.172	18.43
357.384	47.1
357.595	79.87
357.807	-59.39
358.018	73.73
358.23	120.83
358.441	20.48
358.653	40.96
358.864	86.01
359.075	-34.82
359.287	120.83
359.498	47.1
359.709	49.15
359.921	14.34
360.132	81.92
360.344	53.25
360.555	53.25
360.766	30.72
360.977	55.3
361.189	8.19
361.4	10.24
361.611	55.3
361.823	83.97
362.034	73.73
362.245	77.82
362.456	53.25
362.667	55.3
362.879	53.25
363.09	120.83
363.301	-28.67
363.512	51.2
363.723	43.01
363.935	30.72
364.146	28.67
364.357	61.44
364.568	-12.29
364.779	-71.68
364.99	18.43
365.201	116.73
365.412	-12.29
365.623	96.25
365.834	92.16
366.045	-2.05
366.256	75.77
366.467	18.43
366.678	53.25
366.889	40.96
367.1	83.97
367.311	26.62
367.522	57.34
367.733	92.16
367.944	106.49
368.155	18.43
368.366	147.45
368.577	28.67
368.788	88.06
368.999	12.29
369.209	59.39
369.42	-2.05
369.631	90.11
369.842	81.92
370.053	20.48
370.264	-14.34
370.474	45.06
370.685	20.48
370.896	49.15
371.107	55.3
371.317	34.82
371.528	24.58
371.739	16.38
371.95	71.68
372.16	38.91
372.371	43.01
372.582	114.69
372.792	90.11
373.003	71.68
373.214	51.2
373.424	28.67
373.635	-53.25
373.846	114.69
374.056	86.01
374.267	47.1
374.477	38.91
374.688	65.54
374.898	20.48
375.109	43.01
375.319	88.06
375.53	63.49
375.74	40.96
375.951	38.91
376.161	83.97
376.372	55.3
376.582	49.15
376.793	53.25
377.003	71.68
377.214	61.44
377.424	75.77
377.635	43.01
377.845	-40.96
378.055	67.58
378.266	102.4
378.476	47.1
378.686	86.01
378.897	63.49
379.107	-12.29
379.317	34.82
379.528	45.06
379.738	51.2
379.948	59.39
380.158	32.77
380.369	34.82
380.579	65.54
380.789	100.35
380.999	118.78
381.21	24.58
381.42	69.63
381.63	106.49
381.84	26.62
382.05	47.1
382.261	88.06
382.471	71.68
382.681	155.65
382.891	55.3
383.101	86.01
383.311	38.91
383.521	-14.34
383.731	63.49
383.941	149.5
384.151	57.34
384.361	59.39
384.571	22.53
384.781	16.38
384.991	57.34
385.201	28.67
385.411	20.48
385.621	40.96
385.831	55.3
386.041	61.44
386.251	16.38
386.461	79.87
386.671	63.49
386.881	36.86
387.091	22.53
387.301	30.72
387.511	79.87
387.72	104.45
387.93	124.93
388.14	-16.38
388.35	2.05
388.56	79.87
388.769	65.54
388.979	67.58
389.189	38.91
389.399	104.45
389.609	12.29
389.818	61.44
390.028	-40.96
390.238	71.68
390.447	69.63
390.657	57.34
390.867	38.91
391.076	59.39
391.286	38.91
391.496	135.17
391.705	65.54
391.915	47.1
392.125	79.87
392.334	67.58
392.544	153.6
392.753	75.77
392.963	71.68
393.172	73.73
393.382	61.44
393.591	40.96
393.801	40.96
394.01	147.45
394.22	92.16
394.429	10.24
394.639	24.58
394.848	131.07
395.058	120.83
395.267	30.72
395.477	40.96
395.686	102.4
395.895	92.16
396.105	75.77
396.314	16.38
396.524	65.54
396.733	104.45
396.942	83.97
397.152	83.97
397.361	83.97
397.57	69.63
397.78	90.11
397.989	114.69
398.198	90.11
398.407	73.73
398.617	45.06
398.826	-8.19
399.035	18.43
399.244	102.4
399.453	14.34
399.663	73.73
399.872	65.54
400.081	59.39
400.29	79.87
400.499	120.83
400.708	149.5
400.917	34.82
401.127	24.58
401.336	61.44
401.545	83.97
401.754	86.01
401.963	137.21
402.172	86.01
402.381	163.84
402.59	94.21
402.799	83.97
403.008	98.3
403.217	94.21
403.426	86.01
403.635	90.11
403.844	96.25
404.053	100.35
404.262	149.5
404.471	106.49
404.68	118.78
404.888	88.06
405.097	55.3
405.306	96.25
405.515	69.63
405.724	120.83
405.933	110.59
406.142	139.26
406.35	114.69
406.559	141.31
406.768	135.17
406.977	182.27
407.185	34.82
407.394	122.88
407.603	104.45
407.812	124.93
408.02	184.32
408.229	208.89
408.438	98.3
408.646	143.36
408.855	235.52
409.064	212.99
409.272	225.28
409.481	221.18
409.69	124.93
409.898	274.43
410.107	137.21
410.315	198.65
410.524	188.41
410.733	180.22
410.941	217.08
411.15	198.65
411.358	337.91
411.567	299
411.775	276.48
411.984	260.09
412.192	249.85
412.401	303.1
412.609	391.16
412.818	362.49
413.026	393.21
413.234	391.16
413.443	407.55
413.651	382.97
413.86	356.35
414.068	421.88
414.276	450.55
414.485	368.63
414.693	354.3
414.901	518.14
415.11	462.84
415.318	458.75
415.526	491.51
415.734	479.22
415.943	577.53
416.151	573.43
416.359	571.38
416.567	552.95
416.776	653.3
416.984	643.06
417.192	602.1
417.4	641.01
417.608	665.59
417.817	581.62
418.025	692.21
418.233	698.36
418.441	739.32
418.649	802.8
418.857	833.52
419.065	942.07
419.273	757.75
419.481	794.61
419.689	927.73
419.897	1001.46
420.105	985.07
420.313	995.31
420.521	1081.33
420.729	1030.13
420.937	1066.99
421.145	1196.01
421.353	1202.16
421.561	1232.88
421.769	1220.59
421.977	1292.27
422.185	1327.08
422.393	1355.76
422.601	1517.54
422.809	1542.12
423.017	1462.25
423.224	1597.42
423.432	1675.24
423.64	1687.53
423.848	1677.29
424.056	1640.42
424.263	1839.08
424.471	1712.1
424.679	1914.85
424.887	2000.87
425.094	2052.06
425.302	1986.53
425.51	2146.27
425.718	2152.42
425.925	2263.01
426.133	2346.97
426.341	2285.53
426.548	2516.95
426.756	2521.05
426.964	2498.52
427.171	2627.54
427.379	2781.14
427.586	2809.81
427.794	2895.83
428.001	2916.31
428.209	3223.5
428.417	3006.42
428.624	3338.19
428.832	3360.72
429.039	3176.4
429.247	3289.04
429.454	3641.29
429.662	3899.33
429.869	3715.02
430.076	3852.23
430.284	3872.71
430.491	3889.09
430.699	4186.05
430.906	4124.61
431.114	4270.01
431.321	4345.79
431.528	4526.01
431.736	4732.86
431.943	4863.93
432.15	4763.58
432.358	4925.36
432.565	5148.59
432.772	5066.67
432.979	5306.29
433.187	5537.71
433.394	5535.66
433.601	5873.57
433.808	5799.85
434.016	5928.87
434.223	6025.12
434.43	6559.64
434.637	6373.28
434.844	6569.88
435.052	6817.69
435.259	6657.95
435.466	6956.95
435.673	6803.35
435.88	7204.75
436.087	7743.37
436.294	7841.67
436.501	7473.04
436.708	7675.79
436.915	7919.5
437.122	8238.98
437.329	8130.44
437.537	8386.43
437.743	8550.27
437.95	8439.68
438.157	8951.67
438.364	9389.94
438.571	9135.99
438.778	9297.78
438.985	10162.02
439.192	9850.73
439.399	10159.97
439.606	9723.76
439.813	10465.12
440.02	10913.63
440.227	10909.53
440.433	10633.05
440.64	11237.2
440.847	10956.63
441.054	11052.89
441.261	12105.54
441.467	11910.99
441.674	12253
441.881	12484.42
442.088	12838.72
442.294	12437.31
442.501	12773.18
442.708	13102.9
442.914	13633.33
443.121	14034.73
443.328	13756.21
443.534	14772
443.741	14395.17
443.948	14307.11
444.154	15378.2
444.361	15218.46
444.568	15163.16
444.774	15222.55
444.981	15427.35
445.187	16127.75
445.394	16701.19
445.6	16582.4
445.807	17653.49
446.013	17329.91
446.22	17202.94
446.426	18138.86
446.633	18319.08
446.839	18800.35
447.046	18011.89
447.252	19068.64
447.459	19298.01
447.665	19191.52
447.871	19885.78
448.078	20885.19
448.284	19898.06
448.491	20170.44
448.697	20874.95
448.903	21331.64
449.11	21767.86
449.316	20989.63
449.522	21614.26
449.728	22122.16
449.935	22300.33
450.141	22288.04
450.347	22703.78
450.553	22036.14
450.76	22435.5
450.966	23082.66
451.172	22757.03
451.378	23234.21
451.584	22881.95
451.791	23506.59
451.997	23389.85
452.203	23651.99
452.409	23408.28
452.615	23690.9
452.821	22533.8
453.027	22630.05
453.233	23695
453.44	22494.89
453.646	23125.66
453.852	22867.62
454.058	23408.28
454.264	22761.12
454.47	23092.9
454.676	22384.3
454.882	23154.33
455.088	21313.21
455.294	21651.13
455.5	21790.39
455.705	22220.46
455.911	21194.43
456.117	20991.68
456.323	20391.62
456.529	19439.32
456.735	20250.31
456.941	19683.03
457.147	19502.81
457.352	18857.7
457.558	18415.33
457.764	18554.6
457.97	18355.94
458.176	17802.99
458.381	17903.34
458.587	17114.87
458.793	17024.76
458.999	16025.36
459.204	17202.94
459.41	16803.58
459.616	15722.26
459.821	15517.46
460.027	15456.02
460.233	15492.88
460.438	14642.98
460.644	14915.36
460.85	14135.08
461.055	13682.48
461.261	13696.81
461.466	12844.86
461.672	12465.99
461.878	13414.2
462.083	12490.56
462.289	12042.06
462.494	12302.15
462.7	11704.14
462.905	11345.75
463.111	11835.21
463.316	11726.67
463.522	11603.79
463.727	11392.85
463.932	11548.5
464.138	11386.71
464.343	11421.52
464.549	11151.19
464.754	11476.82
464.959	11319.12
465.165	11061.08
465.37	10895.19
465.575	10499.94
465.781	11020.12
465.986	10905.43
466.191	10727.26
466.397	10268.52
466.602	10012.52
466.807	10354.53
467.012	10264.42
467.218	10315.62
467.423	10315.62
467.628	10243.94
467.833	10749.79
468.038	10241.89
468.244	10076.01
468.449	10501.98
468.654	10256.23
468.859	10155.88
