Data from USB4F104151__34__13-52-51-381.txt Node

Date: Thu Mar 13 13:52:51 EDT 2025
User: louis
Spectrometer: USB4F10415
Trigger mode: 4
Integration Time (sec): 1.000000E-2
Scans to average: 1
Electric dark correction enabled: true
Nonlinearity correction enabled: false
Boxcar width: 0
XAxis mode: Wavelengths
Number of Pixels in Spectrum: 3648
>>>>>Begin Spectral Data<<<<<
178.204	-62.63
178.424	-62.63
178.644	-62.63
178.864	-62.63
179.084	-122.02
179.304	-21.67
179.524	15.19
179.744	0.85
179.964	-19.63
180.184	-36.01
180.404	23.38
180.624	-13.48
180.844	-9.39
181.064	27.48
181.283	13.14
181.503	-11.43
181.723	31.57
181.943	-74.92
182.163	23.38
182.383	-62.63
182.602	-38.06
182.822	-1.19
183.042	4.95
183.262	-1.19
183.482	-1.19
183.701	-58.54
183.921	-11.43
184.141	41.81
184.361	0.85
184.58	13.14
184.8	15.19
185.02	31.57
185.239	-11.43
185.459	-5.29
185.679	9.05
185.898	-11.43
186.118	-42.15
186.338	19.29
186.557	-15.53
186.777	-83.11
186.997	27.48
187.216	-38.06
187.436	-1.19
187.655	27.48
187.875	-3.24
188.095	-21.67
188.314	-1.19
188.534	19.29
188.753	148.31
188.973	11.09
189.192	21.33
189.412	-29.87
189.631	-15.53
189.851	7
190.07	37.72
190.29	-7.34
190.509	-1.19
190.729	-50.35
190.948	13.14
191.168	31.57
191.387	21.33
191.607	-11.43
191.826	-19.63
192.045	-31.91
192.265	11.09
192.484	-115.88
192.704	41.81
192.923	37.72
193.142	35.67
193.362	-17.58
193.581	-7.34
193.8	15.19
194.02	58.2
194.239	-79.02
194.458	7
194.678	-11.43
194.897	-15.53
195.116	25.43
195.335	-25.77
195.555	9.05
195.774	31.57
195.993	-1.19
196.212	4.95
196.432	54.1
196.651	4.95
196.87	-11.43
197.089	115.54
197.308	-5.29
197.528	27.48
197.747	19.29
197.966	-5.29
198.185	4.95
198.404	39.76
198.623	-46.25
198.842	13.14
199.062	-1.19
199.281	13.14
199.5	-9.39
199.719	-40.11
199.938	-9.39
200.157	-27.82
200.376	-13.48
200.595	21.33
200.814	-23.72
201.033	-38.06
201.252	-52.39
201.471	13.14
201.69	25.43
201.909	21.33
202.128	-31.91
202.347	9.05
202.566	13.14
202.785	-62.63
203.004	7
203.223	0.85
203.442	19.29
203.661	-60.59
203.879	27.48
204.098	21.33
204.317	-1.19
204.536	-36.01
204.755	-1.19
204.974	19.29
205.193	-64.68
205.411	60.24
205.63	-33.96
205.849	9.05
206.068	-91.31
206.287	54.1
206.505	17.24
206.724	9.05
206.943	-36.01
207.162	54.1
207.381	17.24
207.599	25.43
207.818	50
208.037	-79.02
208.255	33.62
208.474	19.29
208.693	-7.34
208.911	15.19
209.13	-66.73
209.349	-74.92
209.567	19.29
209.786	13.14
210.005	-31.91
210.223	45.91
210.442	-29.87
210.661	29.52
210.879	-13.48
211.098	15.19
211.316	-13.48
211.535	35.67
211.753	43.86
211.972	109.4
212.191	-33.96
212.409	13.14
212.628	2.9
212.846	-70.83
213.065	-17.58
213.283	47.96
213.502	15.19
213.72	50
213.938	-60.59
214.157	11.09
214.375	72.53
214.594	19.29
214.812	54.1
215.031	-50.35
215.249	35.67
215.467	9.05
215.686	31.57
215.904	41.81
216.122	43.86
216.341	39.76
216.559	-58.54
216.778	-58.54
216.996	-9.39
217.214	64.34
217.432	35.67
217.651	68.44
217.869	72.53
218.087	23.38
218.306	37.72
218.524	68.44
218.742	35.67
218.96	2.9
219.179	2.9
219.397	60.24
219.615	31.57
219.833	-1.19
220.051	60.24
220.27	76.63
220.488	-15.53
220.706	-29.87
220.924	-3.24
221.142	62.29
221.36	19.29
221.578	-19.63
221.796	-38.06
222.015	-27.82
222.233	-21.67
222.451	-33.96
222.669	35.67
222.887	-11.43
223.105	2.9
223.323	31.57
223.541	-19.63
223.759	19.29
223.977	15.19
224.195	-11.43
224.413	29.52
224.631	-21.67
224.849	17.24
225.067	15.19
225.285	-31.91
225.503	-27.82
225.721	13.14
225.939	-5.29
226.157	35.67
226.375	23.38
226.592	70.48
226.81	21.33
227.028	-42.15
227.246	-9.39
227.464	39.76
227.682	0.85
227.9	7
228.117	-3.24
228.335	43.86
228.553	-15.53
228.771	-7.34
228.989	2.9
229.206	-58.54
229.424	31.57
229.642	-21.67
229.86	-42.15
230.077	-7.34
230.295	-38.06
230.513	0.85
230.731	23.38
230.948	-25.77
231.166	-7.34
231.384	33.62
231.601	17.24
231.819	19.29
232.037	-7.34
232.254	-11.43
232.472	-1.19
232.689	7
232.907	31.57
233.125	54.1
233.342	31.57
233.56	41.81
233.777	52.05
233.995	39.76
234.213	64.34
234.43	27.48
234.648	-15.53
234.865	-21.67
235.083	-40.11
235.3	23.38
235.518	25.43
235.735	-19.63
235.953	21.33
236.17	-25.77
236.388	47.96
236.605	15.19
236.822	23.38
237.04	60.24
237.257	-25.77
237.475	31.57
237.692	-25.77
237.909	-44.2
238.127	-15.53
238.344	-5.29
238.562	37.72
238.779	60.24
238.996	-23.72
239.214	11.09
239.431	-42.15
239.648	15.19
239.865	45.91
240.083	39.76
240.3	7
240.517	-13.48
240.735	25.43
240.952	-48.3
241.169	35.67
241.386	80.72
241.603	19.29
241.821	9.05
242.038	17.24
242.255	52.05
242.472	-38.06
242.689	-3.24
242.907	7
243.124	35.67
243.341	0.85
243.558	-25.77
243.775	-19.63
243.992	-38.06
244.209	-1.19
244.426	27.48
244.643	37.72
244.86	-3.24
245.078	50
245.295	-38.06
245.512	-1.19
245.729	-72.87
245.946	31.57
246.163	7
246.38	13.14
246.597	-31.91
246.814	11.09
247.031	39.76
247.248	-7.34
247.464	-7.34
247.681	-50.35
247.898	0.85
248.115	64.34
248.332	-5.29
248.549	37.72
248.766	11.09
248.983	-5.29
249.2	52.05
249.417	23.38
249.633	41.81
249.85	-7.34
250.067	-36.01
250.284	21.33
250.501	-25.77
250.717	-36.01
250.934	2.9
251.151	-81.07
251.368	19.29
251.585	29.52
251.801	25.43
252.018	-11.43
252.235	21.33
252.451	33.62
252.668	-64.68
252.885	52.05
253.102	27.48
253.318	13.14
253.535	-21.67
253.752	-23.72
253.968	-38.06
254.185	43.86
254.401	23.38
254.618	93.01
254.835	33.62
255.051	19.29
255.268	19.29
255.484	-15.53
255.701	60.24
255.917	4.95
256.134	-9.39
256.351	-81.07
256.567	-29.87
256.784	23.38
257	-48.3
257.217	15.19
257.433	-58.54
257.65	-17.58
257.866	-72.87
258.082	9.05
258.299	-9.39
258.515	-48.3
258.732	-13.48
258.948	0.85
259.165	29.52
259.381	4.95
259.597	-33.96
259.814	17.24
260.03	11.09
260.246	7
260.463	-21.67
260.679	13.14
260.895	-23.72
261.112	0.85
261.328	-79.02
261.544	27.48
261.761	-13.48
261.977	19.29
262.193	47.96
262.409	23.38
262.626	35.67
262.842	-5.29
263.058	-46.25
263.274	-66.73
263.49	68.44
263.707	37.72
263.923	-15.53
264.139	-3.24
264.355	19.29
264.571	-25.77
264.787	0.85
265.004	4.95
265.22	4.95
265.436	-19.63
265.652	-68.78
265.868	-38.06
266.084	25.43
266.3	-81.07
266.516	-31.91
266.732	90.96
266.948	-31.91
267.164	41.81
267.38	-33.96
267.596	95.06
267.812	17.24
268.028	37.72
268.244	62.29
268.46	17.24
268.676	-5.29
268.892	31.57
269.108	50
269.324	45.91
269.54	-64.68
269.756	-27.82
269.972	4.95
270.188	-23.72
270.403	33.62
270.619	0.85
270.835	0.85
271.051	43.86
271.267	11.09
271.483	-23.72
271.698	68.44
271.914	64.34
272.13	-25.77
272.346	-44.2
272.562	-17.58
272.777	60.24
272.993	4.95
273.209	-33.96
273.425	72.53
273.64	13.14
273.856	-13.48
274.072	13.14
274.287	-29.87
274.503	21.33
274.719	52.05
274.934	-9.39
275.15	0.85
275.366	-9.39
275.581	60.24
275.797	23.38
276.012	31.57
276.228	7
276.444	-48.3
276.659	-21.67
276.875	29.52
277.09	33.62
277.306	47.96
277.521	43.86
277.737	-48.3
277.952	-21.67
278.168	23.38
278.383	78.68
278.599	4.95
278.814	33.62
279.03	-15.53
279.245	72.53
279.461	-25.77
279.676	-9.39
279.892	-40.11
280.107	37.72
280.322	23.38
280.538	86.87
280.753	19.29
280.969	54.1
281.184	-19.63
281.399	19.29
281.615	-3.24
281.83	-7.34
282.045	-31.91
282.26	23.38
282.476	31.57
282.691	54.1
282.906	68.44
283.122	35.67
283.337	-13.48
283.552	-23.72
283.767	-19.63
283.983	47.96
284.198	-19.63
284.413	41.81
284.628	-31.91
284.843	-13.48
285.058	-9.39
285.274	-23.72
285.489	9.05
285.704	33.62
285.919	72.53
286.134	-29.87
286.349	76.63
286.564	88.92
286.779	35.67
286.995	17.24
287.21	13.14
287.425	56.15
287.64	-23.72
287.855	-1.19
288.07	-7.34
288.285	-7.34
288.5	29.52
288.715	-11.43
288.93	-19.63
289.145	60.24
289.36	58.2
289.575	17.24
289.79	50
290.004	-17.58
290.219	-5.29
290.434	29.52
290.649	11.09
290.864	45.91
291.079	27.48
291.294	-36.01
291.509	-31.91
291.724	41.81
291.938	15.19
292.153	-9.39
292.368	-31.91
292.583	47.96
292.798	-27.82
293.012	13.14
293.227	45.91
293.442	23.38
293.657	-11.43
293.871	99.16
294.086	-25.77
294.301	13.14
294.516	60.24
294.73	29.52
294.945	2.9
295.16	9.05
295.374	21.33
295.589	35.67
295.804	2.9
296.018	101.2
296.233	9.05
296.447	21.33
296.662	-36.01
296.877	-5.29
297.091	-52.39
297.306	60.24
297.52	58.2
297.735	27.48
297.949	25.43
298.164	21.33
298.378	-60.59
298.593	-58.54
298.807	-21.67
299.022	33.62
299.236	-3.24
299.451	0.85
299.665	-11.43
299.88	9.05
300.094	-40.11
300.309	37.72
300.523	35.67
300.737	15.19
300.952	2.9
301.166	27.48
301.381	-36.01
301.595	31.57
301.809	56.15
302.024	-36.01
302.238	-1.19
302.452	11.09
302.667	11.09
302.881	0.85
303.095	11.09
303.309	35.67
303.524	2.9
303.738	50
303.952	0.85
304.166	-11.43
304.381	78.68
304.595	123.73
304.809	39.76
305.023	-13.48
305.237	33.62
305.452	-40.11
305.666	11.09
305.88	13.14
306.094	56.15
306.308	103.25
306.522	-7.34
306.736	-42.15
306.95	-21.67
307.164	7
307.379	15.19
307.593	62.29
307.807	84.82
308.021	50
308.235	27.48
308.449	-29.87
308.663	56.15
308.877	11.09
309.091	-9.39
309.305	-29.87
309.519	-38.06
309.733	-23.72
309.947	-54.44
310.161	17.24
310.374	-64.68
310.588	-3.24
310.802	72.53
311.016	29.52
311.23	9.05
311.444	-5.29
311.658	39.76
311.872	-21.67
312.085	33.62
312.299	9.05
312.513	56.15
312.727	35.67
312.941	33.62
313.154	64.34
313.368	115.54
313.582	31.57
313.796	-52.39
314.009	17.24
314.223	-19.63
314.437	41.81
314.651	23.38
314.864	17.24
315.078	-33.96
315.292	-50.35
315.505	56.15
315.719	23.38
315.933	-31.91
316.146	35.67
316.36	-29.87
316.573	47.96
316.787	29.52
317.001	93.01
317.214	-60.59
317.428	11.09
317.641	4.95
317.855	-44.2
318.068	-36.01
318.282	50
318.495	-15.53
318.709	-7.34
318.922	-11.43
319.136	33.62
319.349	19.29
319.563	-15.53
319.776	-54.44
319.99	2.9
320.203	21.33
320.417	50
320.63	25.43
320.843	45.91
321.057	56.15
321.27	-11.43
321.483	37.72
321.697	13.14
321.91	56.15
322.124	54.1
322.337	4.95
322.55	13.14
322.763	82.77
322.977	29.52
323.19	70.48
323.403	2.9
323.617	0.85
323.83	-1.19
324.043	-15.53
324.256	15.19
324.469	15.19
324.683	-5.29
324.896	21.33
325.109	-5.29
325.322	15.19
325.535	11.09
325.748	31.57
325.962	62.29
326.175	-23.72
326.388	52.05
326.601	60.24
326.814	13.14
327.027	17.24
327.24	68.44
327.453	37.72
327.666	-23.72
327.879	7
328.092	2.9
328.305	25.43
328.518	50
328.731	-25.77
328.944	-11.43
329.157	80.72
329.37	33.62
329.583	7
329.796	19.29
330.009	9.05
330.222	-79.02
330.435	45.91
330.648	15.19
330.861	-15.53
331.073	-9.39
331.286	-19.63
331.499	17.24
331.712	29.52
331.925	7
332.138	-9.39
332.35	66.39
332.563	2.9
332.776	31.57
332.989	0.85
333.202	37.72
333.414	19.29
333.627	-5.29
333.84	-3.24
334.053	7
334.265	-44.2
334.478	13.14
334.691	0.85
334.903	19.29
335.116	29.52
335.329	47.96
335.541	-50.35
335.754	-42.15
335.966	27.48
336.179	17.24
336.392	21.33
336.604	19.29
336.817	56.15
337.029	70.48
337.242	15.19
337.454	15.19
337.667	4.95
337.88	-15.53
338.092	0.85
338.305	76.63
338.517	13.14
338.729	23.38
338.942	4.95
339.154	-5.29
339.367	35.67
339.579	17.24
339.792	-27.82
340.004	35.67
340.217	-7.34
340.429	-5.29
340.641	-7.34
340.854	39.76
341.066	9.05
341.278	-1.19
341.491	13.14
341.703	60.24
341.915	29.52
342.128	86.87
342.34	-11.43
342.552	-27.82
342.764	-48.3
342.977	74.58
343.189	-13.48
343.401	21.33
343.613	41.81
343.826	4.95
344.038	37.72
344.25	-11.43
344.462	43.86
344.674	105.3
344.886	-31.91
345.099	29.52
345.311	-7.34
345.523	-31.91
345.735	-23.72
345.947	54.1
346.159	76.63
346.371	19.29
346.583	4.95
346.795	68.44
347.007	60.24
347.219	17.24
347.431	23.38
347.643	70.48
347.855	-1.19
348.067	-1.19
348.279	0.85
348.491	-17.58
348.703	37.72
348.915	9.05
349.127	29.52
349.339	17.24
349.551	27.48
349.763	52.05
349.975	-33.96
350.187	76.63
350.399	9.05
350.61	54.1
350.822	47.96
351.034	33.62
351.246	47.96
351.458	15.19
351.669	19.29
351.881	39.76
352.093	-33.96
352.305	62.29
352.517	2.9
352.728	-5.29
352.94	35.67
353.152	47.96
353.363	33.62
353.575	-29.87
353.787	43.86
353.999	-79.02
354.21	-5.29
354.422	41.81
354.633	0.85
354.845	17.24
355.057	62.29
355.268	76.63
355.48	27.48
355.692	4.95
355.903	62.29
356.115	-36.01
356.326	99.16
356.538	84.82
356.749	93.01
356.961	17.24
357.172	17.24
357.384	50
357.595	76.63
357.807	11.09
358.018	-79.02
358.23	-19.63
358.441	-21.67
358.653	41.81
358.864	107.35
359.075	-1.19
359.287	103.25
359.498	84.82
359.709	45.91
359.921	-40.11
360.132	101.2
360.344	66.39
360.555	-25.77
360.766	31.57
360.977	-1.19
361.189	19.29
361.4	25.43
361.611	54.1
361.823	-52.39
362.034	-19.63
362.245	-15.53
362.456	37.72
362.667	15.19
362.879	-23.72
363.09	21.33
363.301	-40.11
363.512	23.38
363.723	2.9
363.935	7
364.146	-19.63
364.357	43.86
364.568	39.76
364.779	7
364.99	-3.24
365.201	76.63
365.412	-52.39
365.623	72.53
365.834	35.67
366.045	4.95
366.256	-9.39
366.467	45.91
366.678	7
366.889	62.29
367.1	7
367.311	-29.87
367.522	35.67
367.733	25.43
367.944	50
368.155	76.63
368.366	-1.19
368.577	43.86
368.788	62.29
368.999	-15.53
369.209	13.14
369.42	15.19
369.631	62.29
369.842	-72.87
370.053	13.14
370.264	-1.19
370.474	33.62
370.685	21.33
370.896	43.86
371.107	-38.06
371.317	31.57
371.528	15.19
371.739	52.05
371.95	27.48
372.16	101.2
372.371	-76.97
372.582	60.24
372.792	-9.39
373.003	9.05
373.214	95.06
373.424	43.86
373.635	4.95
373.846	62.29
374.056	-1.19
374.267	-1.19
374.477	19.29
374.688	2.9
374.898	19.29
375.109	17.24
375.319	47.96
375.53	-44.2
375.74	86.87
375.951	-5.29
376.161	15.19
376.372	-17.58
376.582	43.86
376.793	23.38
377.003	99.16
377.214	50
377.424	115.54
377.635	25.43
377.845	-9.39
378.055	101.2
378.266	-5.29
378.476	-27.82
378.686	35.67
378.897	74.58
379.107	-5.29
379.317	52.05
379.528	58.2
379.738	80.72
379.948	25.43
380.158	66.39
380.369	4.95
380.579	33.62
380.789	43.86
380.999	2.9
381.21	0.85
381.42	19.29
381.63	35.67
381.84	84.82
382.05	-5.29
382.261	-31.91
382.471	-9.39
382.681	62.29
382.891	58.2
383.101	74.58
383.311	7
383.521	17.24
383.731	9.05
383.941	25.43
384.151	39.76
384.361	37.72
384.571	35.67
384.781	0.85
384.991	27.48
385.201	60.24
385.411	88.92
385.621	105.3
385.831	43.86
386.041	97.11
386.251	-25.77
386.461	33.62
386.671	25.43
386.881	31.57
387.091	-33.96
387.301	52.05
387.511	-19.63
387.72	-19.63
387.93	-33.96
388.14	31.57
388.35	72.53
388.56	37.72
388.769	9.05
388.979	-7.34
389.189	2.9
389.399	43.86
389.609	56.15
389.818	68.44
390.028	-38.06
390.238	7
390.447	64.34
390.657	66.39
390.867	-21.67
391.076	15.19
391.286	47.96
391.496	27.48
391.705	82.77
391.915	-3.24
392.125	50
392.334	33.62
392.544	62.29
392.753	-1.19
392.963	58.2
393.172	27.48
393.382	17.24
393.591	117.59
393.801	19.29
394.01	70.48
394.22	64.34
394.429	97.11
394.639	39.76
394.848	58.2
395.058	31.57
395.267	84.82
395.477	88.92
395.686	41.81
395.895	23.38
396.105	72.53
396.314	115.54
396.524	50
396.733	7
396.942	58.2
397.152	80.72
397.361	84.82
397.57	70.48
397.78	56.15
397.989	25.43
398.198	72.53
398.407	86.87
398.617	52.05
398.826	107.35
399.035	62.29
399.244	68.44
399.453	41.81
399.663	95.06
399.872	62.29
400.081	125.78
400.29	111.44
400.499	99.16
400.708	129.88
400.917	52.05
401.127	-33.96
401.336	31.57
401.545	82.77
401.754	78.68
401.963	56.15
402.172	52.05
402.381	35.67
402.59	84.82
402.799	37.72
403.008	64.34
403.217	109.4
403.426	111.44
403.635	23.38
403.844	93.01
404.053	23.38
404.262	121.68
404.471	74.58
404.68	107.35
404.888	103.25
405.097	117.59
405.306	86.87
405.515	88.92
405.724	31.57
405.933	66.39
406.142	84.82
406.35	144.21
406.559	170.83
406.768	136.02
406.977	144.21
407.185	121.68
407.394	99.16
407.603	105.3
407.812	133.97
408.02	152.4
408.229	105.3
408.438	78.68
408.646	115.54
408.855	164.69
409.064	127.83
409.272	207.7
409.481	187.22
409.69	144.21
409.898	127.83
410.107	281.43
410.315	125.78
410.524	238.42
410.733	279.38
410.941	207.7
411.15	217.94
411.358	254.8
411.567	250.71
411.775	217.94
411.984	332.62
412.192	287.57
412.401	273.23
412.609	322.38
412.818	392.02
413.026	285.52
413.234	285.52
413.443	306
413.651	314.19
413.86	443.21
414.068	344.91
414.276	387.92
414.485	389.97
414.693	355.15
414.901	449.36
415.11	346.96
415.318	473.93
415.526	447.31
415.734	490.32
415.943	518.99
416.151	484.17
416.359	529.23
416.567	594.76
416.776	533.33
416.984	693.07
417.192	541.52
417.4	635.72
417.608	521.04
417.817	609.1
418.025	676.68
418.233	766.79
418.441	742.22
418.649	748.36
418.857	750.41
419.065	799.56
419.273	828.23
419.481	815.94
419.689	848.71
419.897	955.21
420.105	1004.36
420.313	965.45
420.521	979.78
420.729	1121.09
420.937	1008.45
421.145	1123.14
421.353	1166.15
421.561	1209.15
421.769	1293.12
421.977	1342.27
422.185	1291.07
422.393	1383.23
422.601	1467.2
422.809	1377.09
423.017	1450.82
423.224	1577.79
423.432	1723.2
423.64	1561.41
423.848	1758.01
424.056	1657.66
424.263	1741.63
424.471	1778.49
424.679	1821.5
424.887	1946.42
425.094	2020.15
425.302	2032.44
425.51	1985.34
425.718	2100.02
425.925	2233.14
426.133	2294.58
426.341	2517.81
426.548	2573.1
426.756	2489.14
426.964	2497.33
427.171	2720.56
427.379	2800.43
427.586	2886.44
427.794	2968.36
428.001	2976.55
428.209	3253.03
428.417	3087.14
428.624	3410.72
428.832	3293.99
429.039	3427.11
429.247	3263.27
429.454	3707.68
429.662	3822.36
429.869	3576.61
430.076	3920.67
430.284	3799.84
430.491	3935
430.699	4207.38
430.906	4158.23
431.114	4244.24
431.321	4256.53
431.528	4459.28
431.736	4686.61
431.943	4922.12
432.15	4709.13
432.358	4614.93
432.565	5069.58
432.772	5040.9
432.979	5382.92
433.187	5368.58
433.394	5505.79
433.601	5950.2
433.808	5794.56
434.016	5733.12
434.223	6148.86
434.43	6531.83
434.637	6349.56
434.844	6822.64
435.052	6884.08
435.259	6732.53
435.466	6773.49
435.673	6742.77
435.88	7217.9
436.087	7645.92
436.294	7715.55
436.501	7353.06
436.708	7776.99
436.915	7875.29
437.122	8262.36
437.329	8248.02
437.537	8551.12
437.743	8389.33
437.95	8399.57
438.157	9011.92
438.364	9403.08
438.571	9220.81
438.778	9263.82
438.985	10029.76
439.192	9693.89
439.399	10066.62
439.606	9894.59
439.813	10439.35
440.02	10998.45
440.227	10926.77
440.433	10640.05
440.64	11442.85
440.847	11123.37
441.054	11293.35
441.261	12092.06
441.467	12042.91
441.674	12067.49
441.881	12792.47
442.088	12477.08
442.294	12575.38
442.501	12835.47
442.708	13013.65
442.914	13496.97
443.121	14051.97
443.328	13867.65
443.534	14725.75
443.741	14369.4
443.948	14178.94
444.154	15012.46
444.361	15151.73
444.568	15180.4
444.774	15092.34
444.981	15090.29
445.187	15938.15
445.394	16755.29
445.6	16169.57
445.807	17730.12
446.013	17091.15
446.22	17175.12
446.426	18004.55
446.633	17951.3
446.839	18840.12
447.046	17979.97
447.252	19173.94
447.459	19108.4
447.665	19108.4
447.871	19649.07
448.078	20410.91
448.284	19431.98
448.491	20199.97
448.697	20863.51
448.903	21322.26
449.11	21475.85
449.316	20970.01
449.522	21258.77
449.728	22002.18
449.935	21891.59
450.141	22123.01
450.347	22536.7
450.553	22028.81
450.76	22217.22
450.966	22811.13
451.172	22428.16
451.378	23091.7
451.584	22647.29
451.791	22995.45
451.997	23130.61
452.203	23615.98
452.409	23378.42
452.615	23575.02
452.821	22596.09
453.027	22010.37
453.233	23384.56
453.44	22514.17
453.646	22723.07
453.852	22622.72
454.058	23187.96
454.264	22284.8
454.47	23048.69
454.676	22280.71
454.882	23214.58
455.088	21053.97
455.294	21215.76
455.5	21854.73
455.705	21807.62
455.911	20785.69
456.117	20709.91
456.323	20156.96
456.529	19169.84
456.735	20171.3
456.941	19415.6
457.147	19341.87
457.352	18577.98
457.558	18188.86
457.764	18451
457.97	18020.93
458.176	17478.22
458.381	17863.24
458.587	16743
458.793	16869.97
458.999	15919.71
459.204	17031.76
459.41	16427.61
459.616	15649.38
459.821	15559.27
460.027	15209.07
460.233	14946.93
460.438	14422.65
460.644	14695.03
460.85	13826.69
461.055	13560.45
461.261	13460.1
461.466	12620.44
461.672	12165.79
461.878	13009.55
462.083	12393.11
462.289	12143.26
462.494	11848.35
462.7	11315.88
462.905	11098.8
463.111	11549.35
463.316	11438.76
463.522	11303.59
463.727	11213.48
463.932	11369.13
464.138	11135.66
464.343	11217.58
464.549	10810.03
464.754	11446.95
464.959	11197.1
465.165	11250.35
465.37	10650.29
465.575	10232.51
465.781	10828.46
465.986	10789.55
466.191	10222.27
466.397	10230.46
466.602	9665.22
466.807	10058.43
467.012	10046.14
467.218	10134.2
467.423	10013.37
467.628	10341.05
467.833	10328.76
468.038	10164.92
468.244	9833.15
468.449	10099.39
468.654	9898.69
