Data from USB4F104151__115__13-54-58-107.txt Node

Date: Thu Mar 13 13:54:58 EDT 2025
User: louis
Spectrometer: USB4F10415
Trigger mode: 4
Integration Time (sec): 1.000000E-2
Scans to average: 1
Electric dark correction enabled: true
Nonlinearity correction enabled: false
Boxcar width: 0
XAxis mode: Wavelengths
Number of Pixels in Spectrum: 3648
>>>>>Begin Spectral Data<<<<<
178.204	-27.48
178.424	-27.48
178.644	-27.48
178.864	-45.91
179.084	-41.81
179.304	-41.81
179.524	62.63
179.744	5.29
179.964	62.63
180.184	-43.86
180.404	21.67
180.624	1.19
180.844	25.77
181.064	17.58
181.283	-50
181.503	-29.52
181.723	-31.57
181.943	-43.86
182.163	-33.62
182.383	23.72
182.602	122.02
182.822	-7
183.042	60.59
183.262	58.54
183.482	87.21
183.701	-31.57
183.921	48.3
184.141	52.39
184.361	1.19
184.58	5.29
184.8	23.72
185.02	15.53
185.239	76.97
185.459	87.21
185.679	62.63
185.898	23.72
186.118	29.87
186.338	5.29
186.557	11.43
186.777	66.73
186.997	54.44
187.216	54.44
187.436	-27.48
187.655	3.24
187.875	38.06
188.095	27.82
188.314	74.92
188.534	52.39
188.753	-0.85
188.973	17.58
189.192	-0.85
189.412	50.35
189.631	74.92
189.851	-47.96
190.07	48.3
190.29	-47.96
190.509	-11.09
190.729	91.31
190.948	132.26
191.168	136.36
191.387	64.68
191.607	23.72
191.826	-17.24
192.045	9.39
192.265	-35.67
192.484	-25.43
192.704	9.39
192.923	-13.14
193.142	52.39
193.362	-19.29
193.581	58.54
193.8	-9.05
194.02	46.25
194.239	5.29
194.458	36.01
194.678	-15.19
194.897	23.72
195.116	1.19
195.335	83.11
195.555	15.53
195.774	-9.05
195.993	-54.1
196.212	72.87
196.432	-13.14
196.651	27.82
196.87	5.29
197.089	21.67
197.308	48.3
197.528	54.44
197.747	79.02
197.966	33.96
198.185	48.3
198.404	31.91
198.623	13.48
198.842	31.91
199.062	101.55
199.281	33.96
199.5	-33.62
199.719	83.11
199.938	99.5
200.157	25.77
200.376	23.72
200.595	-11.09
200.814	5.29
201.033	52.39
201.252	11.43
201.471	21.67
201.69	1.19
201.909	17.58
202.128	13.48
202.347	42.15
202.566	40.11
202.785	-7
203.004	-35.67
203.223	50.35
203.442	-4.95
203.661	79.02
203.879	68.78
204.098	40.11
204.317	13.48
204.536	-21.33
204.755	21.67
204.974	60.59
205.193	52.39
205.411	91.31
205.63	72.87
205.849	36.01
206.068	31.91
206.287	9.39
206.505	68.78
206.724	-25.43
206.943	-37.72
207.162	7.34
207.381	46.25
207.599	91.31
207.818	3.24
208.037	128.17
208.255	-15.19
208.474	-43.86
208.693	-41.81
208.911	33.96
209.13	7.34
209.349	74.92
209.567	13.48
209.786	48.3
210.005	-4.95
210.223	-47.96
210.442	9.39
210.661	3.24
210.879	-11.09
211.098	21.67
211.316	83.11
211.535	-9.05
211.753	-43.86
211.972	31.91
212.191	31.91
212.409	-25.43
212.628	87.21
212.846	21.67
213.065	29.87
213.283	-27.48
213.502	3.24
213.72	25.77
213.938	19.63
214.157	29.87
214.375	27.82
214.594	23.72
214.812	1.19
215.031	3.24
215.249	21.67
215.467	70.83
215.686	-74.58
215.904	70.83
216.122	9.39
216.341	25.77
216.559	44.2
216.778	-7
216.996	-25.43
217.214	15.53
217.432	-4.95
217.651	33.96
217.869	52.39
218.087	17.58
218.306	-43.86
218.524	-4.95
218.742	11.43
218.96	-7
219.179	29.87
219.397	-11.09
219.615	74.92
219.833	40.11
220.051	19.63
220.27	68.78
220.488	7.34
220.706	74.92
220.924	-15.19
221.142	56.49
221.36	33.96
221.578	-4.95
221.796	15.53
222.015	-25.43
222.233	13.48
222.451	46.25
222.669	-9.05
222.887	15.53
223.105	-21.33
223.323	15.53
223.541	-23.38
223.759	-2.9
223.977	29.87
224.195	72.87
224.413	46.25
224.631	36.01
224.849	19.63
225.067	1.19
225.285	-9.05
225.503	89.26
225.721	-52.05
225.939	13.48
226.157	17.58
226.375	25.77
226.592	29.87
226.81	13.48
227.028	33.96
227.246	105.64
227.464	1.19
227.682	3.24
227.9	60.59
228.117	38.06
228.335	-17.24
228.553	-58.2
228.771	3.24
228.989	23.72
229.206	11.43
229.424	64.68
229.642	-0.85
229.86	36.01
230.077	23.72
230.295	-25.43
230.513	-43.86
230.731	25.77
230.948	-43.86
231.166	5.29
231.384	29.87
231.601	-60.24
231.819	-7
232.037	122.02
232.254	23.72
232.472	5.29
232.689	72.87
232.907	-15.19
233.125	-13.14
233.342	13.48
233.56	3.24
233.777	-23.38
233.995	50.35
234.213	76.97
234.43	70.83
234.648	40.11
234.865	-17.24
235.083	74.92
235.3	38.06
235.518	13.48
235.735	-29.52
235.953	29.87
236.17	31.91
236.388	46.25
236.605	17.58
236.822	44.2
237.04	3.24
237.257	66.73
237.475	-13.14
237.692	17.58
237.909	52.39
238.127	54.44
238.344	46.25
238.562	19.63
238.779	33.96
238.996	-39.76
239.214	-23.38
239.431	40.11
239.648	13.48
239.865	58.54
240.083	-9.05
240.3	-41.81
240.517	-21.33
240.735	-17.24
240.952	44.2
241.169	87.21
241.386	58.54
241.603	52.39
241.821	-4.95
242.038	15.53
242.255	-27.48
242.472	3.24
242.689	19.63
242.907	29.87
243.124	9.39
243.341	-19.29
243.558	58.54
243.775	95.4
243.992	62.63
244.209	87.21
244.426	54.44
244.643	107.69
244.86	19.63
245.078	31.91
245.295	-7
245.512	-56.15
245.729	81.07
245.946	64.68
246.163	-9.05
246.38	54.44
246.597	3.24
246.814	27.82
247.031	52.39
247.248	38.06
247.464	40.11
247.681	7.34
247.898	40.11
248.115	58.54
248.332	21.67
248.549	62.63
248.766	81.07
248.983	76.97
249.2	-2.9
249.417	74.92
249.633	68.78
249.85	72.87
250.067	-25.43
250.284	13.48
250.501	58.54
250.717	93.35
250.934	66.73
251.151	68.78
251.368	105.64
251.585	19.63
251.801	48.3
252.018	-4.95
252.235	76.97
252.451	46.25
252.668	89.26
252.885	1.19
253.102	27.82
253.318	-35.67
253.535	76.97
253.752	-19.29
253.968	-21.33
254.185	-17.24
254.401	48.3
254.618	29.87
254.835	11.43
255.051	54.44
255.268	17.58
255.484	25.77
255.701	42.15
255.917	7.34
256.134	-11.09
256.351	29.87
256.567	50.35
256.784	72.87
257	-54.1
257.217	46.25
257.433	72.87
257.65	62.63
257.866	103.59
258.082	42.15
258.299	-78.68
258.515	25.77
258.732	38.06
258.948	56.49
259.165	44.2
259.381	7.34
259.597	31.91
259.814	5.29
260.03	17.58
260.246	38.06
260.463	27.82
260.679	3.24
260.895	9.39
261.112	89.26
261.328	31.91
261.544	3.24
261.761	-11.09
261.977	1.19
262.193	56.49
262.409	46.25
262.626	62.63
262.842	62.63
263.058	68.78
263.274	46.25
263.49	-13.14
263.707	31.91
263.923	62.63
264.139	33.96
264.355	44.2
264.571	31.91
264.787	19.63
265.004	21.67
265.22	89.26
265.436	62.63
265.652	1.19
265.868	7.34
266.084	21.67
266.3	11.43
266.516	1.19
266.732	27.82
266.948	15.53
267.164	97.45
267.38	25.77
267.596	7.34
267.812	79.02
268.028	122.02
268.244	-13.14
268.46	17.58
268.676	33.96
268.892	60.59
269.108	-50
269.324	15.53
269.54	42.15
269.756	48.3
269.972	9.39
270.188	5.29
270.403	40.11
270.619	11.43
270.835	-37.72
271.051	79.02
271.267	36.01
271.483	46.25
271.698	56.49
271.914	-19.29
272.13	29.87
272.346	52.39
272.562	58.54
272.777	40.11
272.993	-4.95
273.209	31.91
273.425	-37.72
273.64	13.48
273.856	25.77
274.072	23.72
274.287	-15.19
274.503	54.44
274.719	-7
274.934	13.48
275.15	23.72
275.366	54.44
275.581	42.15
275.797	27.82
276.012	23.72
276.228	50.35
276.444	-4.95
276.659	60.59
276.875	85.16
277.09	25.77
277.306	-17.24
277.521	48.3
277.737	44.2
277.952	11.43
278.168	7.34
278.383	44.2
278.599	3.24
278.814	70.83
279.03	-11.09
279.245	56.49
279.461	-0.85
279.676	105.64
279.892	25.77
280.107	48.3
280.322	38.06
280.538	70.83
280.753	93.35
280.969	15.53
281.184	-35.67
281.399	111.78
281.615	27.82
281.83	9.39
282.045	38.06
282.26	62.63
282.476	-19.29
282.691	38.06
282.906	9.39
283.122	44.2
283.337	21.67
283.552	27.82
283.767	64.68
283.983	95.4
284.198	-31.57
284.413	72.87
284.628	-7
284.843	56.49
285.058	48.3
285.274	29.87
285.489	21.67
285.704	117.93
285.919	64.68
286.134	40.11
286.349	23.72
286.564	-2.9
286.779	-0.85
286.995	97.45
287.21	9.39
287.425	36.01
287.64	66.73
287.855	76.97
288.07	1.19
288.285	36.01
288.5	36.01
288.715	58.54
288.93	40.11
289.145	-11.09
289.36	-11.09
289.575	-2.9
289.79	60.59
290.004	70.83
290.219	76.97
290.434	58.54
290.649	-15.19
290.864	56.49
291.079	44.2
291.294	38.06
291.509	56.49
291.724	38.06
291.938	19.63
292.153	56.49
292.368	27.82
292.583	54.44
292.798	62.63
293.012	54.44
293.227	5.29
293.442	93.35
293.657	74.92
293.871	68.78
294.086	62.63
294.301	42.15
294.516	29.87
294.73	33.96
294.945	58.54
295.16	46.25
295.374	40.11
295.589	44.2
295.804	-11.09
296.018	13.48
296.233	25.77
296.447	-2.9
296.662	29.87
296.877	7.34
297.091	15.53
297.306	72.87
297.52	66.73
297.735	-23.38
297.949	25.77
298.164	56.49
298.378	64.68
298.593	48.3
298.807	-0.85
299.022	56.49
299.236	11.43
299.451	85.16
299.665	15.53
299.88	79.02
300.094	19.63
300.309	27.82
300.523	52.39
300.737	60.59
300.952	76.97
301.166	27.82
301.381	19.63
301.595	40.11
301.809	38.06
302.024	52.39
302.238	-7
302.452	27.82
302.667	-21.33
302.881	7.34
303.095	19.63
303.309	50.35
303.524	64.68
303.738	9.39
303.952	29.87
304.166	52.39
304.381	7.34
304.595	50.35
304.809	72.87
305.023	1.19
305.237	15.53
305.452	42.15
305.666	-0.85
305.88	68.78
306.094	68.78
306.308	70.83
306.522	89.26
306.736	44.2
306.95	42.15
307.164	38.06
307.379	23.72
307.593	76.97
307.807	3.24
308.021	19.63
308.235	50.35
308.449	81.07
308.663	19.63
308.877	33.96
309.091	-11.09
309.305	27.82
309.519	21.67
309.733	-4.95
309.947	46.25
310.161	-9.05
310.374	-17.24
310.588	40.11
310.802	56.49
311.016	87.21
311.23	-2.9
311.444	19.63
311.658	33.96
311.872	64.68
312.085	89.26
312.299	15.53
312.513	11.43
312.727	46.25
312.941	44.2
313.154	-17.24
313.368	5.29
313.582	42.15
313.796	79.02
314.009	62.63
314.223	-23.38
314.437	29.87
314.651	87.21
314.864	27.82
315.078	-56.15
315.292	13.48
315.505	-17.24
315.719	79.02
315.933	87.21
316.146	17.58
316.36	23.72
316.573	44.2
316.787	60.59
317.001	-45.91
317.214	-27.48
317.428	31.91
317.641	17.58
317.855	40.11
318.068	13.48
318.282	56.49
318.495	74.92
318.709	9.39
318.922	15.53
319.136	85.16
319.349	29.87
319.563	50.35
319.776	38.06
319.99	-17.24
320.203	62.63
320.417	54.44
320.63	27.82
320.843	68.78
321.057	72.87
321.27	23.72
321.483	1.19
321.697	87.21
321.91	-41.81
322.124	36.01
322.337	13.48
322.55	29.87
322.763	117.93
322.977	21.67
323.19	-9.05
323.403	5.29
323.617	40.11
323.83	19.63
324.043	23.72
324.256	113.83
324.469	3.24
324.683	-52.05
324.896	17.58
325.109	38.06
325.322	56.49
325.535	-19.29
325.748	50.35
325.962	13.48
326.175	76.97
326.388	-11.09
326.601	40.11
326.814	1.19
327.027	17.58
327.24	60.59
327.453	-72.53
327.666	11.43
327.879	54.44
328.092	-9.05
328.305	44.2
328.518	-35.67
328.731	83.11
328.944	-4.95
329.157	44.2
329.37	74.92
329.583	21.67
329.796	58.54
330.009	1.19
330.222	79.02
330.435	38.06
330.648	72.87
330.861	1.19
331.073	-21.33
331.286	40.11
331.499	11.43
331.712	-37.72
331.925	21.67
332.138	15.53
332.35	19.63
332.563	-4.95
332.776	-25.43
332.989	-11.09
333.202	31.91
333.414	-4.95
333.627	21.67
333.84	-13.14
334.053	101.55
334.265	17.58
334.478	66.73
334.691	-11.09
334.903	56.49
335.116	7.34
335.329	48.3
335.541	62.63
335.754	60.59
335.966	-33.62
336.179	60.59
336.392	-27.48
336.604	29.87
336.817	31.91
337.029	58.54
337.242	-43.86
337.454	79.02
337.667	-25.43
337.88	64.68
338.092	81.07
338.305	62.63
338.517	17.58
338.729	21.67
338.942	62.63
339.154	76.97
339.367	-7
339.579	70.83
339.792	23.72
340.004	11.43
340.217	93.35
340.429	-0.85
340.641	66.73
340.854	-9.05
341.066	111.78
341.278	44.2
341.491	33.96
341.703	52.39
341.915	38.06
342.128	70.83
342.34	36.01
342.552	17.58
342.764	11.43
342.977	11.43
343.189	58.54
343.401	68.78
343.613	-21.33
343.826	58.54
344.038	44.2
344.25	36.01
344.462	15.53
344.674	27.82
344.886	29.87
345.099	38.06
345.311	7.34
345.523	83.11
345.735	56.49
345.947	124.07
346.159	-47.96
346.371	11.43
346.583	66.73
346.795	50.35
347.007	3.24
347.219	-11.09
347.431	52.39
347.643	7.34
347.855	3.24
348.067	52.39
348.279	72.87
348.491	9.39
348.703	48.3
348.915	-9.05
349.127	-13.14
349.339	13.48
349.551	42.15
349.763	50.35
349.975	21.67
350.187	-23.38
350.399	-7
350.61	48.3
350.822	58.54
351.034	25.77
351.246	85.16
351.458	79.02
351.669	25.77
351.881	-50
352.093	-9.05
352.305	62.63
352.517	56.49
352.728	119.98
352.94	38.06
353.152	31.91
353.363	99.5
353.575	11.43
353.787	-13.14
353.999	56.49
354.21	64.68
354.422	31.91
354.633	38.06
354.845	79.02
355.057	17.58
355.268	-54.1
355.48	3.24
355.692	-13.14
355.903	23.72
356.115	-15.19
356.326	58.54
356.538	64.68
356.749	7.34
356.961	48.3
357.172	50.35
357.384	66.73
357.595	27.82
357.807	56.49
358.018	29.87
358.23	48.3
358.441	15.53
358.653	81.07
358.864	-17.24
359.075	66.73
359.287	79.02
359.498	62.63
359.709	72.87
359.921	76.97
360.132	25.77
360.344	117.93
360.555	21.67
360.766	62.63
360.977	95.4
361.189	91.31
361.4	-2.9
361.611	29.87
361.823	-27.48
362.034	60.59
362.245	-29.52
362.456	70.83
362.667	-27.48
362.879	29.87
363.09	-15.19
363.301	46.25
363.512	58.54
363.723	95.4
363.935	70.83
364.146	64.68
364.357	13.48
364.568	99.5
364.779	-19.29
364.99	142.5
365.201	64.68
365.412	29.87
365.623	-0.85
365.834	42.15
366.045	25.77
366.256	74.92
366.467	33.96
366.678	66.73
366.889	19.63
367.1	60.59
367.311	60.59
367.522	85.16
367.733	62.63
367.944	7.34
368.155	48.3
368.366	62.63
368.577	7.34
368.788	89.26
368.999	97.45
369.209	-9.05
369.42	74.92
369.631	48.3
369.842	60.59
370.053	83.11
370.264	56.49
370.474	29.87
370.685	27.82
370.896	11.43
371.107	21.67
371.317	117.93
371.528	74.92
371.739	46.25
371.95	83.11
372.16	64.68
372.371	58.54
372.582	-19.29
372.792	117.93
373.003	81.07
373.214	83.11
373.424	44.2
373.635	91.31
373.846	38.06
374.056	-13.14
374.267	46.25
374.477	44.2
374.688	29.87
374.898	31.91
375.109	48.3
375.319	11.43
375.53	54.44
375.74	60.59
375.951	103.59
376.161	64.68
376.372	15.53
376.582	64.68
376.793	33.96
377.003	64.68
377.214	68.78
377.424	83.11
377.635	38.06
377.845	29.87
378.055	107.69
378.266	33.96
378.476	138.41
378.686	19.63
378.897	76.97
379.107	95.4
379.317	70.83
379.528	126.12
379.738	68.78
379.948	64.68
380.158	54.44
380.369	-7
380.579	15.53
380.789	19.63
380.999	83.11
381.21	38.06
381.42	95.4
381.63	-7
381.84	50.35
382.05	13.48
382.261	5.29
382.471	70.83
382.681	46.25
382.891	-9.05
383.101	25.77
383.311	21.67
383.521	44.2
383.731	13.48
383.941	27.82
384.151	54.44
384.361	81.07
384.571	95.4
384.781	54.44
384.991	36.01
385.201	-7
385.411	15.53
385.621	70.83
385.831	-9.05
386.041	56.49
386.251	70.83
386.461	76.97
386.671	38.06
386.881	50.35
387.091	91.31
387.301	31.91
387.511	68.78
387.72	23.72
387.93	81.07
388.14	56.49
388.35	115.88
388.56	83.11
388.769	99.5
388.979	17.58
389.189	50.35
389.399	101.55
389.609	83.11
389.818	17.58
390.028	17.58
390.238	107.69
390.447	50.35
390.657	87.21
390.867	50.35
391.076	83.11
391.286	58.54
391.496	13.48
391.705	103.59
391.915	13.48
392.125	103.59
392.334	44.2
392.544	48.3
392.753	109.74
392.963	-0.85
393.172	7.34
393.382	64.68
393.591	58.54
393.801	81.07
394.01	60.59
394.22	56.49
394.429	89.26
394.639	46.25
394.848	-7
395.058	15.53
395.267	31.91
395.477	48.3
395.686	54.44
395.895	89.26
396.105	122.02
396.314	46.25
396.524	128.17
396.733	79.02
396.942	146.6
397.152	13.48
397.361	97.45
397.57	87.21
397.78	58.54
397.989	70.83
398.198	74.92
398.407	115.88
398.617	81.07
398.826	25.77
399.035	87.21
399.244	48.3
399.453	81.07
399.663	115.88
399.872	40.11
400.081	105.64
400.29	72.87
400.499	31.91
400.708	89.26
400.917	105.64
401.127	132.26
401.336	56.49
401.545	113.83
401.754	117.93
401.963	72.87
402.172	11.43
402.381	101.55
402.59	105.64
402.799	56.49
403.008	99.5
403.217	124.07
403.426	113.83
403.635	109.74
403.844	105.64
404.053	105.64
404.262	70.83
404.471	95.4
404.68	122.02
404.888	122.02
405.097	140.46
405.306	64.68
405.515	136.36
405.724	11.43
405.933	70.83
406.142	74.92
406.35	158.89
406.559	122.02
406.768	152.74
406.977	187.56
407.185	169.13
407.394	152.74
407.603	160.94
407.812	210.09
408.02	140.46
408.229	128.17
408.438	156.84
408.646	249
408.855	128.17
409.064	154.79
409.272	257.19
409.481	197.8
409.69	228.52
409.898	179.37
410.107	275.62
410.315	203.94
410.524	195.75
410.733	275.62
410.941	275.62
411.15	216.23
411.358	289.96
411.567	312.49
411.775	285.86
411.984	363.69
412.192	271.53
412.401	320.68
412.609	281.77
412.818	390.31
413.026	369.83
413.234	339.11
413.443	384.16
413.651	400.55
413.86	402.6
414.068	431.27
414.276	474.28
414.485	447.65
414.693	421.03
414.901	476.32
415.11	480.42
415.318	529.57
415.526	627.87
415.734	531.62
415.943	662.69
416.151	525.47
416.359	654.5
416.567	664.74
416.776	679.07
416.984	703.65
417.192	760.99
417.4	752.8
417.608	799.9
417.817	681.12
418.025	816.29
418.233	902.3
418.441	804
418.649	861.34
418.857	908.44
419.065	883.87
419.273	978.08
419.481	1010.84
419.689	1068.19
419.897	1035.42
420.105	1115.29
420.313	1186.97
420.521	1158.3
420.729	1207.45
420.937	1295.51
421.145	1297.56
421.353	1309.85
421.561	1449.11
421.769	1438.87
421.977	1531.03
422.185	1473.68
422.393	1510.55
422.601	1690.77
422.809	1664.15
423.017	1645.71
423.224	1772.69
423.432	1916.05
423.64	1860.75
423.848	2043.02
424.056	2016.4
424.263	1973.39
424.471	2083.98
424.679	2129.03
424.887	2337.93
425.094	2296.97
425.302	2352.26
425.51	2469
425.718	2495.62
425.925	2524.29
426.133	2415.75
426.341	2716.8
426.548	2942.08
426.756	2872.45
426.964	2892.93
427.171	2980.99
427.379	3142.78
427.586	3318.9
427.794	3263.61
428.001	3269.75
428.209	3480.69
428.417	3427.45
428.624	3626.1
428.832	3730.55
429.039	3796.08
429.247	3728.5
429.454	4039.79
429.662	4342.89
429.869	4140.14
430.076	4387.94
430.284	4146.28
430.491	4478.05
430.699	4662.37
430.906	4756.58
431.114	4689
431.321	4949.09
431.528	4975.71
431.736	5383.26
431.943	5653.59
432.15	5493.85
432.358	5416.02
432.565	5944.4
432.772	5712.98
432.979	5979.22
433.187	6016.08
433.394	6077.52
433.601	6644.81
433.808	6751.3
434.016	6585.41
434.223	7027.78
434.43	7402.55
434.637	7208
434.844	7502.9
435.052	7842.87
435.259	7719.99
435.466	7801.91
435.673	7572.54
435.88	8119.34
436.087	8547.37
436.294	8504.36
436.501	8502.31
436.708	8688.68
436.915	8907.81
437.122	9192.48
437.329	9143.33
437.537	9593.88
437.743	9624.6
437.95	9618.46
438.157	10064.91
438.364	10411.02
438.571	10308.62
438.778	10630.15
438.985	11656.18
439.192	11013.12
439.399	11439.1
439.606	11103.23
439.813	11588.6
440.02	12432.36
440.227	12143.6
440.433	12239.86
440.64	12450.8
440.847	12532.72
441.054	12757.99
441.261	13575.13
441.467	13419.49
441.674	13634.52
441.881	14099.41
442.088	14224.34
442.294	13999.06
442.501	14064.6
442.708	14607.31
442.914	15508.41
443.121	15637.44
443.328	15307.71
443.534	16731.05
443.741	15993.78
443.948	15899.58
444.154	16925.61
444.361	16987.05
444.568	16972.71
444.774	16970.66
444.981	17134.5
445.187	17433.5
445.394	18307.99
445.6	18262.93
445.807	20001.66
446.013	18998.15
446.22	19483.52
446.426	20026.23
446.633	20317.04
446.839	20908.91
447.046	20333.43
447.252	21304.17
447.459	21220.2
447.665	21549.92
447.871	22399.83
448.078	22805.33
448.284	21572.45
448.491	22514.52
448.697	23333.7
448.903	23765.82
449.11	23997.24
449.316	23456.58
449.522	23952.19
449.728	24628.02
449.935	24668.98
450.141	24957.74
450.347	25393.96
450.553	24621.87
450.76	24619.83
450.966	25545.51
451.172	25195.31
451.378	26092.32
451.584	25236.27
451.791	25871.14
451.997	25969.44
452.203	26514.2
452.409	26397.46
452.615	26170.14
452.821	25113.39
453.027	24859.44
453.233	26319.64
453.44	25174.83
453.646	25389.86
453.852	25418.53
454.058	26155.8
454.264	25013.04
454.47	25522.98
454.676	25123.63
454.882	26051.36
455.088	23362.37
455.294	24177.47
455.5	24269.62
455.705	24376.12
455.911	23374.66
456.117	23081.8
456.323	22924.11
456.529	21515.11
456.735	22393.68
456.941	22016.86
457.147	21623.65
457.352	20996.97
457.558	20546.42
457.764	20515.7
457.97	20274.04
458.176	19811.2
458.381	19776.38
458.587	18809.74
458.793	18883.47
458.999	17947.54
459.204	18998.15
459.41	18590.61
459.616	17159.08
459.821	17437.6
460.027	17585.05
460.233	16966.57
460.438	16124.85
460.644	16176.05
460.85	15481.79
461.055	15291.33
461.261	15412.16
461.466	14218.19
461.672	13890.52
461.878	14539.72
462.083	13911
462.289	13614.04
462.494	13181.92
462.7	12813.29
462.905	12370.93
463.111	12960.74
463.316	13126.63
463.522	12659.69
463.727	12594.15
463.932	12567.53
464.138	12528.62
464.343	12620.78
464.549	12243.95
464.754	12592.11
464.959	12569.58
465.165	12442.6
465.37	12094.45
465.575	11314.17
465.781	11879.41
465.986	12223.47
466.191	11564.03
466.397	11609.08
466.602	10966.02
466.807	11498.49
467.012	11463.68
467.218	11385.85
467.423	11228.16
467.628	11133.95
467.833	11568.12
468.038	11217.92
468.244	11092.99
468.449	11258.88
468.654	11078.66
468.859	10961.92
469.064	10793.99
