Data from USB4F104151__108__13-54-50-828.txt Node

Date: Thu Mar 13 13:54:50 EDT 2025
User: louis
Spectrometer: USB4F10415
Trigger mode: 4
Integration Time (sec): 1.000000E-2
Scans to average: 1
Electric dark correction enabled: true
Nonlinearity correction enabled: false
Boxcar width: 0
XAxis mode: Wavelengths
Number of Pixels in Spectrum: 3648
>>>>>Begin Spectral Data<<<<<
178.204	23.21
178.424	23.21
178.644	23.21
178.864	-81.24
179.084	-52.56
179.304	-13.65
179.524	55.98
179.744	-99.67
179.964	-13.65
180.184	-40.28
180.404	39.59
180.624	8.87
180.844	49.83
181.064	12.97
181.283	-32.08
181.503	23.21
181.723	8.87
181.943	-13.65
182.163	-66.9
182.383	41.64
182.602	-5.46
182.822	-11.61
183.042	70.31
183.262	-3.41
183.482	21.16
183.701	-42.32
183.921	41.64
184.141	-30.04
184.361	39.59
184.58	82.6
184.8	-17.75
185.02	72.36
185.239	121.51
185.459	-7.51
185.679	6.83
185.898	35.5
186.118	-36.18
186.338	17.07
186.557	-1.37
186.777	-34.13
186.997	-11.61
187.216	10.92
187.436	6.83
187.655	41.64
187.875	0.68
188.095	53.93
188.314	72.36
188.534	8.87
188.753	47.79
188.973	-7.51
189.192	43.69
189.412	21.16
189.631	58.03
189.851	29.35
190.07	113.32
190.29	-52.56
190.509	45.74
190.729	-11.61
190.948	33.45
191.168	31.4
191.387	33.45
191.607	-7.51
191.826	-5.46
192.045	-32.08
192.265	-9.56
192.484	19.11
192.704	70.31
192.923	66.22
193.142	-23.89
193.362	72.36
193.581	47.79
193.8	29.35
194.02	15.02
194.239	31.4
194.458	12.97
194.678	23.21
194.897	64.17
195.116	49.83
195.335	-1.37
195.555	-3.41
195.774	101.03
195.993	-13.65
196.212	-5.46
196.432	2.73
196.651	15.02
196.87	62.12
197.089	131.75
197.308	55.98
197.528	84.65
197.747	4.78
197.966	39.59
198.185	25.26
198.404	-32.08
198.623	53.93
198.842	6.83
199.062	21.16
199.281	51.88
199.5	-17.75
199.719	31.4
199.938	33.45
200.157	19.11
200.376	19.11
200.595	-3.41
200.814	21.16
201.033	-38.23
201.252	2.73
201.471	-17.75
201.69	10.92
201.909	33.45
202.128	-1.37
202.347	12.97
202.566	-62.8
202.785	-93.52
203.004	53.93
203.223	15.02
203.442	94.89
203.661	-1.37
203.879	49.83
204.098	-21.85
204.317	-1.37
204.536	80.55
204.755	51.88
204.974	49.83
205.193	66.22
205.411	66.22
205.63	-50.52
205.849	4.78
206.068	58.03
206.287	15.02
206.505	68.27
206.724	-42.32
206.943	25.26
207.162	-50.52
207.381	27.31
207.599	68.27
207.818	27.31
208.037	23.21
208.255	-13.65
208.474	58.03
208.693	64.17
208.911	-13.65
209.13	90.79
209.349	74.41
209.567	-19.8
209.786	6.83
210.005	-27.99
210.223	-52.56
210.442	51.88
210.661	51.88
210.879	72.36
211.098	45.74
211.316	27.31
211.535	105.13
211.753	76.46
211.972	19.11
212.191	-7.51
212.409	86.7
212.628	6.83
212.846	41.64
213.065	0.68
213.283	68.27
213.502	19.11
213.72	68.27
213.938	43.69
214.157	-68.95
214.375	72.36
214.594	96.94
214.812	-19.8
215.031	-9.56
215.249	-32.08
215.467	86.7
215.686	-1.37
215.904	25.26
216.122	96.94
216.341	76.46
216.559	72.36
216.778	25.26
216.996	64.17
217.214	25.26
217.432	37.55
217.651	6.83
217.869	-25.94
218.087	-25.94
218.306	-83.28
218.524	60.07
218.742	53.93
218.96	64.17
219.179	15.02
219.397	39.59
219.615	45.74
219.833	35.5
220.051	2.73
220.27	33.45
220.488	15.02
220.706	31.4
220.924	51.88
221.142	49.83
221.36	31.4
221.578	-3.41
221.796	-11.61
222.015	0.68
222.233	-38.23
222.451	96.94
222.669	31.4
222.887	29.35
223.105	2.73
223.323	39.59
223.541	-1.37
223.759	-5.46
223.977	66.22
224.195	49.83
224.413	-36.18
224.631	-1.37
224.849	25.26
225.067	-32.08
225.285	84.65
225.503	37.55
225.721	29.35
225.939	-17.75
226.157	-42.32
226.375	47.79
226.592	-5.46
226.81	0.68
227.028	47.79
227.246	55.98
227.464	-23.89
227.682	-17.75
227.9	35.5
228.117	47.79
228.335	64.17
228.553	8.87
228.771	29.35
228.989	72.36
229.206	0.68
229.424	2.73
229.642	-42.32
229.86	47.79
230.077	-13.65
230.295	-19.8
230.513	-21.85
230.731	19.11
230.948	78.51
231.166	31.4
231.384	17.07
231.601	88.75
231.819	-23.89
232.037	25.26
232.254	-46.42
232.472	-42.32
232.689	-32.08
232.907	70.31
233.125	-40.28
233.342	58.03
233.56	8.87
233.777	10.92
233.995	39.59
234.213	76.46
234.43	6.83
234.648	47.79
234.865	58.03
235.083	-7.51
235.3	64.17
235.518	47.79
235.735	19.11
235.953	53.93
236.17	-23.89
236.388	29.35
236.605	47.79
236.822	78.51
237.04	27.31
237.257	10.92
237.475	-19.8
237.692	25.26
237.909	43.69
238.127	58.03
238.344	47.79
238.562	62.12
238.779	2.73
238.996	76.46
239.214	39.59
239.431	62.12
239.648	76.46
239.865	-46.42
240.083	15.02
240.3	-13.65
240.517	10.92
240.735	10.92
240.952	37.55
241.169	-36.18
241.386	-40.28
241.603	37.55
241.821	-21.85
242.038	37.55
242.255	-3.41
242.472	-44.37
242.689	-36.18
242.907	19.11
243.124	4.78
243.341	47.79
243.558	43.69
243.775	64.17
243.992	19.11
244.209	39.59
244.426	49.83
244.643	17.07
244.86	15.02
245.078	27.31
245.295	109.23
245.512	76.46
245.729	51.88
245.946	-34.13
246.163	10.92
246.38	43.69
246.597	2.73
246.814	31.4
247.031	-7.51
247.248	-44.37
247.464	27.31
247.681	27.31
247.898	17.07
248.115	49.83
248.332	2.73
248.549	-42.32
248.766	2.73
248.983	-25.94
249.2	-30.04
249.417	12.97
249.633	21.16
249.85	8.87
250.067	-42.32
250.284	58.03
250.501	-3.41
250.717	45.74
250.934	-23.89
251.151	51.88
251.368	15.02
251.585	27.31
251.801	47.79
252.018	19.11
252.235	70.31
252.451	33.45
252.668	29.35
252.885	78.51
253.102	-23.89
253.318	-9.56
253.535	-32.08
253.752	-15.7
253.968	101.03
254.185	8.87
254.401	37.55
254.618	-17.75
254.835	10.92
255.051	35.5
255.268	45.74
255.484	-42.32
255.701	29.35
255.917	4.78
256.134	-46.42
256.351	47.79
256.567	-30.04
256.784	2.73
257	-46.42
257.217	25.26
257.433	21.16
257.65	31.4
257.866	41.64
258.082	21.16
258.299	35.5
258.515	80.55
258.732	41.64
258.948	29.35
259.165	31.4
259.381	-1.37
259.597	6.83
259.814	19.11
260.03	8.87
260.246	-5.46
260.463	62.12
260.679	15.02
260.895	47.79
261.112	55.98
261.328	-1.37
261.544	-5.46
261.761	152.23
261.977	17.07
262.193	-7.51
262.409	35.5
262.626	2.73
262.842	35.5
263.058	-19.8
263.274	80.55
263.49	62.12
263.707	37.55
263.923	-15.7
264.139	12.97
264.355	37.55
264.571	17.07
264.787	37.55
265.004	64.17
265.22	15.02
265.436	43.69
265.652	2.73
265.868	62.12
266.084	45.74
266.3	21.16
266.516	6.83
266.732	-11.61
266.948	2.73
267.164	-5.46
267.38	23.21
267.596	43.69
267.812	-3.41
268.028	68.27
268.244	-32.08
268.46	78.51
268.676	43.69
268.892	84.65
269.108	-46.42
269.324	15.02
269.54	6.83
269.756	6.83
269.972	39.59
270.188	-40.28
270.403	25.26
270.619	31.4
270.835	72.36
271.051	55.98
271.267	12.97
271.483	25.26
271.698	12.97
271.914	41.64
272.13	6.83
272.346	-21.85
272.562	35.5
272.777	88.75
272.993	2.73
273.209	47.79
273.425	64.17
273.64	23.21
273.856	82.6
274.072	27.31
274.287	-11.61
274.503	21.16
274.719	-40.28
274.934	35.5
275.15	-40.28
275.366	-34.13
275.581	15.02
275.797	41.64
276.012	-44.37
276.228	25.26
276.444	25.26
276.659	80.55
276.875	31.4
277.09	-46.42
277.306	-11.61
277.521	27.31
277.737	64.17
277.952	51.88
278.168	-9.56
278.383	121.51
278.599	-1.37
278.814	19.11
279.03	29.35
279.245	35.5
279.461	6.83
279.676	115.37
279.892	-50.52
280.107	45.74
280.322	-7.51
280.538	-34.13
280.753	8.87
280.969	-3.41
281.184	-1.37
281.399	62.12
281.615	68.27
281.83	117.42
282.045	72.36
282.26	-5.46
282.476	39.59
282.691	25.26
282.906	64.17
283.122	64.17
283.337	101.03
283.552	10.92
283.767	17.07
283.983	6.83
284.198	23.21
284.413	-5.46
284.628	2.73
284.843	53.93
285.058	29.35
285.274	45.74
285.489	37.55
285.704	-19.8
285.919	19.11
286.134	58.03
286.349	31.4
286.564	78.51
286.779	23.21
286.995	-58.71
287.21	21.16
287.425	23.21
287.64	21.16
287.855	-11.61
288.07	17.07
288.285	31.4
288.5	96.94
288.715	64.17
288.93	47.79
289.145	62.12
289.36	72.36
289.575	-15.7
289.79	47.79
290.004	41.64
290.219	17.07
290.434	98.99
290.649	82.6
290.864	58.03
291.079	19.11
291.294	51.88
291.509	39.59
291.724	17.07
291.938	64.17
292.153	-19.8
292.368	-30.04
292.583	33.45
292.798	60.07
293.012	55.98
293.227	4.78
293.442	41.64
293.657	47.79
293.871	49.83
294.086	47.79
294.301	-32.08
294.516	27.31
294.73	58.03
294.945	-17.75
295.16	10.92
295.374	43.69
295.589	31.4
295.804	41.64
296.018	8.87
296.233	23.21
296.447	53.93
296.662	98.99
296.877	19.11
297.091	10.92
297.306	8.87
297.52	12.97
297.735	33.45
297.949	43.69
298.164	107.18
298.378	62.12
298.593	4.78
298.807	45.74
299.022	-68.95
299.236	-21.85
299.451	15.02
299.665	-30.04
299.88	21.16
300.094	47.79
300.309	47.79
300.523	27.31
300.737	-34.13
300.952	-7.51
301.166	58.03
301.381	8.87
301.595	29.35
301.809	2.73
302.024	25.26
302.238	10.92
302.452	0.68
302.667	51.88
302.881	19.11
303.095	8.87
303.309	12.97
303.524	-36.18
303.738	96.94
303.952	82.6
304.166	25.26
304.381	-1.37
304.595	17.07
304.809	51.88
305.023	4.78
305.237	41.64
305.452	41.64
305.666	-21.85
305.88	58.03
306.094	23.21
306.308	0.68
306.522	27.31
306.736	96.94
306.95	23.21
307.164	-23.89
307.379	58.03
307.593	39.59
307.807	21.16
308.021	-19.8
308.235	-25.94
308.449	47.79
308.663	37.55
308.877	90.79
309.091	12.97
309.305	49.83
309.519	-32.08
309.733	96.94
309.947	58.03
310.161	21.16
310.374	21.16
310.588	103.08
310.802	33.45
311.016	76.46
311.23	31.4
311.444	47.79
311.658	-7.51
311.872	96.94
312.085	80.55
312.299	39.59
312.513	66.22
312.727	72.36
312.941	43.69
313.154	-30.04
313.368	-42.32
313.582	82.6
313.796	66.22
314.009	8.87
314.223	15.02
314.437	23.21
314.651	0.68
314.864	53.93
315.078	15.02
315.292	12.97
315.505	53.93
315.719	10.92
315.933	29.35
316.146	74.41
316.36	6.83
316.573	80.55
316.787	-40.28
317.001	6.83
317.214	47.79
317.428	8.87
317.641	10.92
317.855	-23.89
318.068	53.93
318.282	-19.8
318.495	88.75
318.709	-36.18
318.922	58.03
319.136	-7.51
319.349	84.65
319.563	-7.51
319.776	17.07
319.99	55.98
320.203	35.5
320.417	-3.41
320.63	53.93
320.843	-9.56
321.057	74.41
321.27	15.02
321.483	-38.23
321.697	35.5
321.91	-32.08
322.124	15.02
322.337	70.31
322.55	53.93
322.763	8.87
322.977	23.21
323.19	43.69
323.403	17.07
323.617	-32.08
323.83	19.11
324.043	33.45
324.256	105.13
324.469	-19.8
324.683	6.83
324.896	-40.28
325.109	25.26
325.322	27.31
325.535	0.68
325.748	88.75
325.962	96.94
326.175	51.88
326.388	6.83
326.601	68.27
326.814	25.26
327.027	10.92
327.24	64.17
327.453	107.18
327.666	27.31
327.879	62.12
328.092	82.6
328.305	-13.65
328.518	10.92
328.731	72.36
328.944	-9.56
329.157	10.92
329.37	-19.8
329.583	86.7
329.796	53.93
330.009	58.03
330.222	15.02
330.435	21.16
330.648	-46.42
330.861	-17.75
331.073	31.4
331.286	82.6
331.499	70.31
331.712	10.92
331.925	12.97
332.138	-19.8
332.35	2.73
332.563	-44.37
332.776	49.83
332.989	0.68
333.202	58.03
333.414	10.92
333.627	39.59
333.84	23.21
334.053	82.6
334.265	25.26
334.478	84.65
334.691	41.64
334.903	41.64
335.116	-19.8
335.329	10.92
335.541	64.17
335.754	58.03
335.966	25.26
336.179	25.26
336.392	19.11
336.604	27.31
336.817	8.87
337.029	10.92
337.242	10.92
337.454	12.97
337.667	6.83
337.88	55.98
338.092	4.78
338.305	84.65
338.517	94.89
338.729	12.97
338.942	80.55
339.154	76.46
339.367	-38.23
339.579	62.12
339.792	-11.61
340.004	39.59
340.217	76.46
340.429	-3.41
340.641	-5.46
340.854	45.74
341.066	12.97
341.278	43.69
341.491	64.17
341.703	-1.37
341.915	-15.7
342.128	41.64
342.34	-11.61
342.552	47.79
342.764	-7.51
342.977	10.92
343.189	-17.75
343.401	88.75
343.613	35.5
343.826	92.84
344.038	-7.51
344.25	19.11
344.462	10.92
344.674	0.68
344.886	90.79
345.099	80.55
345.311	-11.61
345.523	35.5
345.735	37.55
345.947	101.03
346.159	37.55
346.371	-11.61
346.583	2.73
346.795	123.56
347.007	78.51
347.219	-1.37
347.431	6.83
347.643	80.55
347.855	39.59
348.067	47.79
348.279	86.7
348.491	119.46
348.703	-13.65
348.915	-17.75
349.127	55.98
349.339	96.94
349.551	31.4
349.763	78.51
349.975	19.11
350.187	47.79
350.399	90.79
350.61	8.87
350.822	47.79
351.034	55.98
351.246	25.26
351.458	45.74
351.669	31.4
351.881	15.02
352.093	2.73
352.305	45.74
352.517	-5.46
352.728	17.07
352.94	19.11
353.152	23.21
353.363	29.35
353.575	33.45
353.787	62.12
353.999	45.74
354.21	68.27
354.422	-56.66
354.633	35.5
354.845	0.68
355.057	125.61
355.268	62.12
355.48	-23.89
355.692	23.21
355.903	-52.56
356.115	47.79
356.326	58.03
356.538	17.07
356.749	35.5
356.961	21.16
357.172	-1.37
357.384	-25.94
357.595	29.35
357.807	37.55
358.018	-32.08
358.23	31.4
358.441	51.88
358.653	-19.8
358.864	23.21
359.075	62.12
359.287	70.31
359.498	6.83
359.709	35.5
359.921	17.07
360.132	49.83
360.344	41.64
360.555	23.21
360.766	6.83
360.977	12.97
361.189	-52.56
361.4	12.97
361.611	82.6
361.823	58.03
362.034	58.03
362.245	49.83
362.456	23.21
362.667	19.11
362.879	98.99
363.09	21.16
363.301	0.68
363.512	23.21
363.723	125.61
363.935	88.75
364.146	68.27
364.357	25.26
364.568	31.4
364.779	62.12
364.99	33.45
365.201	12.97
365.412	37.55
365.623	66.22
365.834	51.88
366.045	84.65
366.256	53.93
366.467	98.99
366.678	-27.99
366.889	62.12
367.1	31.4
367.311	23.21
367.522	10.92
367.733	-21.85
367.944	105.13
368.155	23.21
368.366	47.79
368.577	58.03
368.788	19.11
368.999	45.74
369.209	10.92
369.42	29.35
369.631	43.69
369.842	39.59
370.053	23.21
370.264	29.35
370.474	49.83
370.685	74.41
370.896	19.11
371.107	39.59
371.317	-9.56
371.528	-21.85
371.739	19.11
371.95	29.35
372.16	80.55
372.371	10.92
372.582	35.5
372.792	53.93
373.003	35.5
373.214	37.55
373.424	82.6
373.635	8.87
373.846	82.6
374.056	-13.65
374.267	25.26
374.477	39.59
374.688	33.45
374.898	66.22
375.109	8.87
375.319	37.55
375.53	41.64
375.74	10.92
375.951	31.4
376.161	41.64
376.372	72.36
376.582	64.17
376.793	39.59
377.003	15.02
377.214	29.35
377.424	15.02
377.635	88.75
377.845	53.93
378.055	15.02
378.266	6.83
378.476	47.79
378.686	-46.42
378.897	90.79
379.107	55.98
379.317	31.4
379.528	35.5
379.738	8.87
379.948	17.07
380.158	47.79
380.369	37.55
380.579	80.55
380.789	45.74
380.999	-1.37
381.21	2.73
381.42	21.16
381.63	21.16
381.84	64.17
382.05	-27.99
382.261	-21.85
382.471	68.27
382.681	39.59
382.891	111.27
383.101	49.83
383.311	78.51
383.521	25.26
383.731	39.59
383.941	103.08
384.151	41.64
384.361	17.07
384.571	51.88
384.781	39.59
384.991	31.4
385.201	107.18
385.411	80.55
385.621	35.5
385.831	68.27
386.041	70.31
386.251	33.45
386.461	94.89
386.671	-30.04
386.881	33.45
387.091	25.26
387.301	31.4
387.511	39.59
387.72	105.13
387.93	72.36
388.14	103.08
388.35	49.83
388.56	58.03
388.769	49.83
388.979	82.6
389.189	2.73
389.399	88.75
389.609	92.84
389.818	43.69
390.028	37.55
390.238	33.45
390.447	0.68
390.657	6.83
390.867	41.64
391.076	2.73
391.286	49.83
391.496	19.11
391.705	35.5
391.915	31.4
392.125	8.87
392.334	17.07
392.544	21.16
392.753	117.42
392.963	4.78
393.172	29.35
393.382	37.55
393.591	60.07
393.801	15.02
394.01	94.89
394.22	17.07
394.429	82.6
394.639	68.27
394.848	8.87
395.058	17.07
395.267	15.02
395.477	21.16
395.686	74.41
395.895	23.21
396.105	27.31
396.314	66.22
396.524	53.93
396.733	43.69
396.942	80.55
397.152	47.79
397.361	84.65
397.57	39.59
397.78	105.13
397.989	15.02
398.198	152.23
398.407	78.51
398.617	96.94
398.826	107.18
399.035	39.59
399.244	-11.61
399.453	53.93
399.663	37.55
399.872	72.36
400.081	84.65
400.29	72.36
400.499	86.7
400.708	82.6
400.917	37.55
401.127	47.79
401.336	29.35
401.545	111.27
401.754	49.83
401.963	113.32
402.172	31.4
402.381	88.75
402.59	45.74
402.799	76.46
403.008	60.07
403.217	98.99
403.426	156.33
403.635	94.89
403.844	152.23
404.053	53.93
404.262	-7.51
404.471	92.84
404.68	31.4
404.888	64.17
405.097	113.32
405.306	109.23
405.515	131.75
405.724	182.95
405.933	246.44
406.142	139.94
406.35	154.28
406.559	123.56
406.768	19.11
406.977	78.51
407.185	101.03
407.394	154.28
407.603	150.18
407.812	146.09
408.02	129.7
408.229	129.7
408.438	131.75
408.646	105.13
408.855	119.46
409.064	191.14
409.272	125.61
409.481	185
409.69	199.34
409.898	150.18
410.107	250.53
410.315	285.35
410.524	232.1
410.733	92.84
410.941	262.82
411.15	203.43
411.358	230.06
411.567	266.92
411.775	256.68
411.984	258.73
412.192	215.72
412.401	350.89
412.609	264.87
412.818	242.34
413.026	387.75
413.234	277.16
413.443	277.16
413.651	330.41
413.86	369.32
414.068	373.41
414.276	397.99
414.485	422.56
414.693	359.08
414.901	408.23
415.11	471.72
415.318	340.65
415.526	436.9
415.734	408.23
415.943	453.28
416.151	424.61
416.359	490.15
416.567	529.06
416.776	492.2
416.984	469.67
417.192	559.78
417.4	508.58
417.608	545.44
417.817	527.01
418.025	596.64
418.233	680.61
418.441	545.44
418.649	647.84
418.857	719.52
419.065	735.9
419.273	723.62
419.481	748.19
419.689	826.01
419.897	805.53
420.105	821.92
420.313	862.88
420.521	932.51
420.729	909.98
420.937	930.46
421.145	991.9
421.353	1043.1
421.561	985.76
421.769	1053.34
421.977	1200.79
422.185	1184.41
422.393	1135.26
422.601	1256.09
422.809	1391.25
423.017	1254.04
423.224	1358.49
423.432	1401.49
423.64	1397.4
423.848	1550.99
424.056	1596.05
424.263	1634.96
424.471	1546.9
424.679	1559.19
424.887	1692.3
425.094	1727.12
425.302	1761.94
425.51	1823.37
425.718	1776.27
425.925	1811.09
426.133	1927.82
426.341	2069.13
426.548	2146.95
426.756	2177.67
426.964	2210.44
427.171	2323.08
427.379	2282.12
427.586	2333.32
427.794	2517.64
428.001	2529.92
428.209	2622.08
428.417	2587.27
428.624	2837.12
428.832	2849.41
429.039	2914.94
429.247	2851.46
429.454	3119.74
429.662	3197.56
429.869	3056.25
430.076	3367.54
430.284	3195.51
430.491	3412.6
430.699	3555.96
430.906	3537.52
431.114	3607.16
431.321	3662.45
431.528	3738.23
431.736	4063.85
431.943	4184.68
432.15	3947.12
432.358	4229.74
432.565	4491.88
432.772	4381.29
432.979	4481.64
433.187	4520.55
433.394	4665.96
433.601	4889.18
433.808	5153.37
434.016	4926.05
434.223	5120.6
434.43	5579.35
434.637	5319.26
434.844	5886.54
435.052	5827.15
435.259	5802.58
435.466	5861.97
435.673	5694.04
435.88	6154.83
436.087	6584.9
436.294	6373.96
436.501	6365.77
436.708	6423.11
436.915	6693.44
437.122	7053.89
437.329	6992.45
437.537	7152.19
437.743	7393.85
437.95	7246.4
438.157	7699
438.364	7901.75
438.571	7961.14
438.778	7903.79
438.985	8626.73
439.192	8403.5
439.399	8509.99
439.606	8354.35
439.813	8884.77
440.02	9392.67
440.227	9265.69
440.433	9085.47
440.64	9402.91
440.847	9464.35
441.054	9804.31
441.261	10127.89
441.467	10027.54
441.674	10422.8
441.881	10660.36
442.088	10609.16
442.294	10686.98
442.501	10967.56
442.708	11272.7
442.914	11586.04
443.121	12046.83
443.328	11766.26
443.534	12599.79
443.741	12149.23
443.948	11946.48
444.154	12884.45
444.361	12675.56
444.568	12820.97
444.774	13097.44
444.981	13025.76
445.187	13289.95
445.394	13820.38
445.6	13773.27
445.807	15038.92
446.013	14442.96
446.22	14696.91
446.426	15313.34
446.633	15483.33
446.839	16005.56
447.046	15036.87
447.252	16116.15
447.459	16200.12
447.665	16279.99
447.871	16808.36
448.078	17545.63
448.284	16470.45
448.491	17228.2
448.697	17793.44
448.903	18147.73
449.11	18348.43
449.316	17643.93
449.522	17987.99
449.728	18780.56
449.935	18704.78
450.141	18780.56
450.347	19171.72
450.553	18571.66
450.76	18874.76
450.966	19642.75
451.172	19276.16
451.378	19818.88
451.584	19210.63
451.791	19822.97
451.997	19939.71
452.203	20162.93
452.409	20111.74
452.615	20068.73
452.821	19065.22
453.027	18997.64
453.233	19927.42
453.44	19218.82
453.646	19255.68
453.852	19466.63
454.058	19859.84
454.264	19272.07
454.47	19714.43
454.676	19239.3
454.882	19575.17
455.088	17914.27
455.294	18387.35
455.5	18444.69
455.705	18887.05
455.911	18246.04
456.117	17725.85
456.323	17435.04
456.529	16566.7
456.735	17000.87
456.941	16859.56
457.147	16677.29
457.352	15886.78
457.558	15956.41
457.764	15788.47
457.97	15512
458.176	15438.27
458.381	15147.46
458.587	14576.08
458.793	14500.3
458.999	13877.72
459.204	15053.25
459.41	14307.79
459.616	13328.86
459.821	13425.12
460.027	13277.66
460.233	13060.58
460.438	12425.71
460.644	12489.2
460.85	11960.82
461.055	11905.52
461.261	11919.86
461.466	10955.27
461.672	10568.2
461.878	11450.88
462.083	10609.16
462.289	10330.64
462.494	10568.2
462.7	9890.32
462.905	9599.51
463.111	10181.14
463.316	9951.76
463.522	9824.79
463.727	9808.4
463.932	9738.77
464.138	9648.66
464.343	9716.25
464.549	9351.71
464.754	9841.17
464.959	9646.62
465.165	9742.87
465.37	9251.36
465.575	8911.39
465.781	9400.86
465.986	9185.82
466.191	9130.53
466.397	8837.67
466.602	8602.15
466.807	8716.84
467.012	8794.66
467.218	8727.08
467.423	8665.64
467.628	8780.32
467.833	9054.75
468.038	8761.89
468.244	8325.68
468.449	8778.28
468.654	8536.62
468.859	8516.14
469.064	8167.98
