Data from USB4F104151__161__13-58-45-713.txt Node

Date: Thu Mar 13 13:58:45 EDT 2025
User: louis
Spectrometer: USB4F10415
Trigger mode: 4
Integration Time (sec): 1.000000E-2
Scans to average: 1
Electric dark correction enabled: true
Nonlinearity correction enabled: false
Boxcar width: 0
XAxis mode: Wavelengths
Number of Pixels in Spectrum: 3648
>>>>>Begin Spectral Data<<<<<
178.204	-38.23
178.424	-38.23
178.644	-38.23
178.864	-21.85
179.084	-54.61
179.304	-34.13
179.524	-13.65
179.744	-5.46
179.964	21.16
180.184	-15.7
180.404	-9.56
180.624	21.16
180.844	68.27
181.064	-3.41
181.283	-48.47
181.503	0.68
181.723	19.11
181.943	-105.81
182.163	74.41
182.383	43.69
182.602	15.02
182.822	-36.18
183.042	76.46
183.262	2.73
183.482	53.93
183.701	29.35
183.921	43.69
184.141	12.97
184.361	58.03
184.58	2.73
184.8	27.31
185.02	29.35
185.239	74.41
185.459	-17.75
185.679	-5.46
185.898	-7.51
186.118	-34.13
186.338	31.4
186.557	78.51
186.777	39.59
186.997	-13.65
187.216	-46.42
187.436	39.59
187.655	-40.28
187.875	68.27
188.095	8.87
188.314	-9.56
188.534	-44.37
188.753	-5.46
188.973	-19.8
189.192	8.87
189.412	15.02
189.631	19.11
189.851	15.02
190.07	29.35
190.29	-73.04
190.509	41.64
190.729	35.5
190.948	74.41
191.168	39.59
191.387	82.6
191.607	-13.65
191.826	-25.94
192.045	-15.7
192.265	-1.37
192.484	17.07
192.704	31.4
192.923	17.07
193.142	76.46
193.362	49.83
193.581	-3.41
193.8	19.11
194.02	37.55
194.239	45.74
194.458	33.45
194.678	-40.28
194.897	-7.51
195.116	21.16
195.335	15.02
195.555	4.78
195.774	-27.99
195.993	-17.75
196.212	-19.8
196.432	-21.85
196.651	74.41
196.87	-23.89
197.089	-7.51
197.308	-38.23
197.528	80.55
197.747	-54.61
197.966	23.21
198.185	64.17
198.404	0.68
198.623	17.07
198.842	6.83
199.062	49.83
199.281	60.07
199.5	19.11
199.719	0.68
199.938	51.88
200.157	72.36
200.376	-15.7
200.595	27.31
200.814	78.51
201.033	12.97
201.252	53.93
201.471	-32.08
201.69	19.11
201.909	76.46
202.128	0.68
202.347	-34.13
202.566	8.87
202.785	-25.94
203.004	51.88
203.223	37.55
203.442	-13.65
203.661	47.79
203.879	8.87
204.098	-15.7
204.317	-27.99
204.536	17.07
204.755	10.92
204.974	62.12
205.193	90.79
205.411	62.12
205.63	76.46
205.849	62.12
206.068	43.69
206.287	17.07
206.505	-36.18
206.724	35.5
206.943	-48.47
207.162	43.69
207.381	17.07
207.599	60.07
207.818	-5.46
208.037	-19.8
208.255	23.21
208.474	51.88
208.693	0.68
208.911	23.21
209.13	64.17
209.349	-17.75
209.567	17.07
209.786	27.31
210.005	72.36
210.223	27.31
210.442	15.02
210.661	15.02
210.879	23.21
211.098	78.51
211.316	27.31
211.535	-17.75
211.753	15.02
211.972	78.51
212.191	27.31
212.409	-9.56
212.628	43.69
212.846	17.07
213.065	4.78
213.283	72.36
213.502	0.68
213.72	35.5
213.938	-11.61
214.157	0.68
214.375	23.21
214.594	-54.61
214.812	8.87
215.031	10.92
215.249	29.35
215.467	-7.51
215.686	62.12
215.904	90.79
216.122	-5.46
216.341	-9.56
216.559	2.73
216.778	72.36
216.996	33.45
217.214	92.84
217.432	25.26
217.651	49.83
217.869	27.31
218.087	8.87
218.306	-7.51
218.524	25.26
218.742	17.07
218.96	37.55
219.179	15.02
219.397	17.07
219.615	-5.46
219.833	49.83
220.051	39.59
220.27	64.17
220.488	78.51
220.706	-60.76
220.924	-23.89
221.142	0.68
221.36	49.83
221.578	23.21
221.796	-62.8
222.015	12.97
222.233	4.78
222.451	25.26
222.669	17.07
222.887	21.16
223.105	25.26
223.323	-15.7
223.541	-23.89
223.759	51.88
223.977	-54.61
224.195	8.87
224.413	58.03
224.631	4.78
224.849	-13.65
225.067	53.93
225.285	62.12
225.503	41.64
225.721	-44.37
225.939	29.35
226.157	37.55
226.375	137.9
226.592	70.31
226.81	76.46
227.028	29.35
227.246	19.11
227.464	-3.41
227.682	21.16
227.9	82.6
228.117	-44.37
228.335	37.55
228.553	47.79
228.771	-36.18
228.989	74.41
229.206	-27.99
229.424	-23.89
229.642	-42.32
229.86	-5.46
230.077	25.26
230.295	43.69
230.513	72.36
230.731	55.98
230.948	86.7
231.166	66.22
231.384	-23.89
231.601	37.55
231.819	125.61
232.037	-19.8
232.254	33.45
232.472	0.68
232.689	15.02
232.907	-7.51
233.125	51.88
233.342	0.68
233.56	76.46
233.777	-13.65
233.995	-54.61
234.213	-21.85
234.43	66.22
234.648	60.07
234.865	31.4
235.083	64.17
235.3	21.16
235.518	8.87
235.735	17.07
235.953	58.03
236.17	19.11
236.388	25.26
236.605	-15.7
236.822	41.64
237.04	10.92
237.257	64.17
237.475	4.78
237.692	70.31
237.909	70.31
238.127	8.87
238.344	-25.94
238.562	105.13
238.779	51.88
238.996	19.11
239.214	-15.7
239.431	15.02
239.648	10.92
239.865	-19.8
240.083	-1.37
240.3	29.35
240.517	-9.56
240.735	15.02
240.952	43.69
241.169	60.07
241.386	2.73
241.603	19.11
241.821	-32.08
242.038	72.36
242.255	-1.37
242.472	10.92
242.689	64.17
242.907	-32.08
243.124	47.79
243.341	17.07
243.558	39.59
243.775	4.78
243.992	12.97
244.209	-5.46
244.426	49.83
244.643	37.55
244.86	25.26
245.078	-1.37
245.295	39.59
245.512	53.93
245.729	-9.56
245.946	-11.61
246.163	4.78
246.38	15.02
246.597	-23.89
246.814	2.73
247.031	-13.65
247.248	58.03
247.464	6.83
247.681	66.22
247.898	10.92
248.115	29.35
248.332	53.93
248.549	25.26
248.766	49.83
248.983	37.55
249.2	45.74
249.417	41.64
249.633	-17.75
249.85	29.35
250.067	19.11
250.284	74.41
250.501	-1.37
250.717	49.83
250.934	68.27
251.151	60.07
251.368	70.31
251.585	-3.41
251.801	21.16
252.018	19.11
252.235	-1.37
252.451	51.88
252.668	-9.56
252.885	76.46
253.102	-36.18
253.318	66.22
253.535	29.35
253.752	23.21
253.968	0.68
254.185	55.98
254.401	29.35
254.618	33.45
254.835	-30.04
255.051	70.31
255.268	-17.75
255.484	60.07
255.701	35.5
255.917	51.88
256.134	-19.8
256.351	31.4
256.567	-23.89
256.784	-25.94
257	80.55
257.217	51.88
257.433	58.03
257.65	33.45
257.866	15.02
258.082	29.35
258.299	27.31
258.515	-7.51
258.732	12.97
258.948	12.97
259.165	74.41
259.381	-23.89
259.597	64.17
259.814	35.5
260.03	19.11
260.246	53.93
260.463	10.92
260.679	-36.18
260.895	-7.51
261.112	66.22
261.328	6.83
261.544	-7.51
261.761	74.41
261.977	-34.13
262.193	-25.94
262.409	6.83
262.626	58.03
262.842	6.83
263.058	23.21
263.274	33.45
263.49	60.07
263.707	49.83
263.923	35.5
264.139	17.07
264.355	29.35
264.571	96.94
264.787	-1.37
265.004	0.68
265.22	45.74
265.436	19.11
265.652	35.5
265.868	-21.85
266.084	17.07
266.3	19.11
266.516	-54.61
266.732	0.68
266.948	70.31
267.164	35.5
267.38	4.78
267.596	27.31
267.812	19.11
268.028	19.11
268.244	23.21
268.46	-38.23
268.676	-42.32
268.892	-11.61
269.108	-1.37
269.324	-68.95
269.54	21.16
269.756	0.68
269.972	-38.23
270.188	-46.42
270.403	25.26
270.619	-1.37
270.835	47.79
271.051	78.51
271.267	-5.46
271.483	2.73
271.698	-23.89
271.914	33.45
272.13	15.02
272.346	86.7
272.562	-44.37
272.777	31.4
272.993	43.69
273.209	-1.37
273.425	27.31
273.64	-5.46
273.856	-3.41
274.072	-21.85
274.287	33.45
274.503	25.26
274.719	19.11
274.934	58.03
275.15	-52.56
275.366	-1.37
275.581	12.97
275.797	2.73
276.012	19.11
276.228	27.31
276.444	60.07
276.659	15.02
276.875	0.68
277.09	49.83
277.306	72.36
277.521	51.88
277.737	-21.85
277.952	64.17
278.168	-30.04
278.383	49.83
278.599	-7.51
278.814	84.65
279.03	80.55
279.245	25.26
279.461	10.92
279.676	27.31
279.892	41.64
280.107	29.35
280.322	-9.56
280.538	53.93
280.753	-44.37
280.969	25.26
281.184	-13.65
281.399	39.59
281.615	-15.7
281.83	-1.37
282.045	101.03
282.26	2.73
282.476	58.03
282.691	43.69
282.906	72.36
283.122	-30.04
283.337	-46.42
283.552	68.27
283.767	39.59
283.983	55.98
284.198	37.55
284.413	82.6
284.628	-32.08
284.843	-36.18
285.058	25.26
285.274	-1.37
285.489	35.5
285.704	-9.56
285.919	62.12
286.134	27.31
286.349	74.41
286.564	60.07
286.779	-36.18
286.995	78.51
287.21	10.92
287.425	17.07
287.64	-21.85
287.855	23.21
288.07	-5.46
288.285	31.4
288.5	6.83
288.715	6.83
288.93	60.07
289.145	101.03
289.36	103.08
289.575	-54.61
289.79	2.73
290.004	92.84
290.219	43.69
290.434	37.55
290.649	45.74
290.864	2.73
291.079	35.5
291.294	27.31
291.509	103.08
291.724	86.7
291.938	-34.13
292.153	8.87
292.368	4.78
292.583	25.26
292.798	-25.94
293.012	2.73
293.227	21.16
293.442	10.92
293.657	-13.65
293.871	-30.04
294.086	51.88
294.301	0.68
294.516	39.59
294.73	-13.65
294.945	15.02
295.16	25.26
295.374	39.59
295.589	-21.85
295.804	-54.61
296.018	60.07
296.233	-32.08
296.447	-34.13
296.662	-32.08
296.877	51.88
297.091	51.88
297.306	-7.51
297.52	-58.71
297.735	-48.47
297.949	49.83
298.164	33.45
298.378	-5.46
298.593	25.26
298.807	-27.99
299.022	86.7
299.236	105.13
299.451	49.83
299.665	25.26
299.88	33.45
300.094	21.16
300.309	8.87
300.523	66.22
300.737	41.64
300.952	21.16
301.166	17.07
301.381	90.79
301.595	-21.85
301.809	-3.41
302.024	29.35
302.238	4.78
302.452	90.79
302.667	0.68
302.881	29.35
303.095	37.55
303.309	19.11
303.524	-11.61
303.738	6.83
303.952	2.73
304.166	103.08
304.381	-13.65
304.595	25.26
304.809	29.35
305.023	92.84
305.237	0.68
305.452	62.12
305.666	70.31
305.88	96.94
306.094	12.97
306.308	-23.89
306.522	31.4
306.736	39.59
306.95	-40.28
307.164	60.07
307.379	-13.65
307.593	139.94
307.807	31.4
308.021	51.88
308.235	51.88
308.449	-38.23
308.663	41.64
308.877	72.36
309.091	41.64
309.305	19.11
309.519	-38.23
309.733	-46.42
309.947	-11.61
310.161	-15.7
310.374	37.55
310.588	45.74
310.802	4.78
311.016	8.87
311.23	19.11
311.444	17.07
311.658	58.03
311.872	72.36
312.085	12.97
312.299	12.97
312.513	31.4
312.727	0.68
312.941	8.87
313.154	17.07
313.368	23.21
313.582	-7.51
313.796	-17.75
314.009	2.73
314.223	-7.51
314.437	39.59
314.651	49.83
314.864	23.21
315.078	-1.37
315.292	-27.99
315.505	-66.9
315.719	74.41
315.933	74.41
316.146	37.55
316.36	19.11
316.573	60.07
316.787	4.78
317.001	35.5
317.214	6.83
317.428	-5.46
317.641	-11.61
317.855	53.93
318.068	-1.37
318.282	60.07
318.495	39.59
318.709	27.31
318.922	-7.51
319.136	74.41
319.349	60.07
319.563	-1.37
319.776	76.46
319.99	8.87
320.203	72.36
320.417	62.12
320.63	146.09
320.843	17.07
321.057	-30.04
321.27	12.97
321.483	41.64
321.697	4.78
321.91	35.5
322.124	6.83
322.337	94.89
322.55	4.78
322.763	-3.41
322.977	37.55
323.19	37.55
323.403	27.31
323.617	-7.51
323.83	58.03
324.043	-27.99
324.256	-7.51
324.469	27.31
324.683	21.16
324.896	-27.99
325.109	35.5
325.322	41.64
325.535	86.7
325.748	-5.46
325.962	35.5
326.175	51.88
326.388	43.69
326.601	4.78
326.814	0.68
327.027	31.4
327.24	37.55
327.453	27.31
327.666	21.16
327.879	103.08
328.092	27.31
328.305	27.31
328.518	74.41
328.731	23.21
328.944	25.26
329.157	37.55
329.37	35.5
329.583	39.59
329.796	55.98
330.009	-7.51
330.222	53.93
330.435	39.59
330.648	49.83
330.861	43.69
331.073	8.87
331.286	76.46
331.499	19.11
331.712	0.68
331.925	0.68
332.138	10.92
332.35	10.92
332.563	15.02
332.776	41.64
332.989	-5.46
333.202	76.46
333.414	-15.7
333.627	43.69
333.84	45.74
334.053	-15.7
334.265	41.64
334.478	0.68
334.691	60.07
334.903	19.11
335.116	33.45
335.329	51.88
335.541	49.83
335.754	41.64
335.966	-19.8
336.179	27.31
336.392	-13.65
336.604	8.87
336.817	-60.76
337.029	101.03
337.242	-23.89
337.454	68.27
337.667	35.5
337.88	60.07
338.092	88.75
338.305	72.36
338.517	60.07
338.729	-23.89
338.942	98.99
339.154	27.31
339.367	-50.52
339.579	-32.08
339.792	-19.8
340.004	-27.99
340.217	23.21
340.429	0.68
340.641	6.83
340.854	-1.37
341.066	41.64
341.278	92.84
341.491	-15.7
341.703	31.4
341.915	31.4
342.128	4.78
342.34	-25.94
342.552	39.59
342.764	19.11
342.977	37.55
343.189	-30.04
343.401	86.7
343.613	23.21
343.826	21.16
344.038	37.55
344.25	117.42
344.462	62.12
344.674	41.64
344.886	27.31
345.099	37.55
345.311	6.83
345.523	27.31
345.735	-30.04
345.947	76.46
346.159	19.11
346.371	39.59
346.583	-34.13
346.795	27.31
347.007	82.6
347.219	74.41
347.431	-5.46
347.643	51.88
347.855	-23.89
348.067	74.41
348.279	10.92
348.491	-25.94
348.703	2.73
348.915	8.87
349.127	21.16
349.339	-19.8
349.551	21.16
349.763	12.97
349.975	-17.75
350.187	17.07
350.399	4.78
350.61	39.59
350.822	-7.51
351.034	-46.42
351.246	-1.37
351.458	10.92
351.669	37.55
351.881	8.87
352.093	82.6
352.305	72.36
352.517	-5.46
352.728	-27.99
352.94	-3.41
353.152	27.31
353.363	27.31
353.575	78.51
353.787	-15.7
353.999	-5.46
354.21	23.21
354.422	70.31
354.633	4.78
354.845	-48.47
355.057	51.88
355.268	33.45
355.48	55.98
355.692	-25.94
355.903	39.59
356.115	29.35
356.326	74.41
356.538	21.16
356.749	45.74
356.961	74.41
357.172	6.83
357.384	-5.46
357.595	-25.94
357.807	-11.61
358.018	43.69
358.23	6.83
358.441	29.35
358.653	55.98
358.864	17.07
359.075	21.16
359.287	70.31
359.498	0.68
359.709	-50.52
359.921	4.78
360.132	53.93
360.344	-44.37
360.555	21.16
360.766	35.5
360.977	84.65
361.189	49.83
361.4	19.11
361.611	-23.89
361.823	58.03
362.034	-30.04
362.245	62.12
362.456	4.78
362.667	-56.66
362.879	10.92
363.09	27.31
363.301	111.27
363.512	8.87
363.723	25.26
363.935	47.79
364.146	35.5
364.357	37.55
364.568	33.45
364.779	15.02
364.99	17.07
365.201	-15.7
365.412	51.88
365.623	8.87
365.834	33.45
366.045	-15.7
366.256	-5.46
366.467	4.78
366.678	68.27
366.889	27.31
367.1	107.18
367.311	41.64
367.522	-23.89
367.733	4.78
367.944	33.45
368.155	-7.51
368.366	107.18
368.577	-48.47
368.788	10.92
368.999	45.74
369.209	-17.75
369.42	19.11
369.631	-19.8
369.842	21.16
370.053	41.64
370.264	-21.85
370.474	29.35
370.685	33.45
370.896	17.07
371.107	10.92
371.317	-15.7
371.528	53.93
371.739	58.03
371.95	-23.89
372.16	-5.46
372.371	43.69
372.582	58.03
372.792	-5.46
373.003	-27.99
373.214	6.83
373.424	60.07
373.635	47.79
373.846	25.26
374.056	-36.18
374.267	43.69
374.477	78.51
374.688	68.27
374.898	43.69
375.109	-13.65
375.319	41.64
375.53	49.83
375.74	60.07
375.951	29.35
376.161	-7.51
376.372	103.08
376.582	27.31
376.793	4.78
377.003	-52.56
377.214	19.11
377.424	41.64
377.635	55.98
377.845	17.07
378.055	55.98
378.266	-44.37
378.476	82.6
378.686	-7.51
378.897	111.27
379.107	21.16
379.317	39.59
379.528	10.92
379.738	60.07
379.948	43.69
380.158	41.64
380.369	8.87
380.579	-21.85
380.789	12.97
380.999	41.64
381.21	8.87
381.42	55.98
381.63	-9.56
381.84	-1.37
382.05	33.45
382.261	96.94
382.471	92.84
382.681	58.03
382.891	-15.7
383.101	15.02
383.311	-15.7
383.521	-9.56
383.731	70.31
383.941	80.55
384.151	-44.37
384.361	39.59
384.571	-21.85
384.781	66.22
384.991	51.88
385.201	107.18
385.411	35.5
385.621	0.68
385.831	33.45
386.041	49.83
386.251	66.22
386.461	53.93
386.671	70.31
386.881	41.64
387.091	72.36
387.301	47.79
387.511	-48.47
387.72	21.16
387.93	25.26
388.14	-5.46
388.35	10.92
388.56	98.99
388.769	78.51
388.979	23.21
389.189	19.11
389.399	23.21
389.609	15.02
389.818	72.36
390.028	4.78
390.238	2.73
390.447	25.26
390.657	19.11
390.867	25.26
391.076	17.07
391.286	8.87
391.496	60.07
391.705	39.59
391.915	60.07
392.125	47.79
392.334	62.12
392.544	43.69
392.753	88.75
392.963	-1.37
393.172	-7.51
393.382	-15.7
393.591	-15.7
393.801	39.59
394.01	-38.23
394.22	107.18
394.429	49.83
394.639	21.16
394.848	21.16
395.058	58.03
395.267	4.78
395.477	58.03
395.686	6.83
395.895	19.11
396.105	94.89
396.314	39.59
396.524	8.87
396.733	66.22
396.942	51.88
397.152	-11.61
397.361	49.83
397.57	39.59
397.78	39.59
397.989	17.07
398.198	78.51
398.407	68.27
398.617	86.7
398.826	39.59
399.035	58.03
399.244	53.93
399.453	70.31
399.663	-23.89
399.872	90.79
400.081	37.55
400.29	66.22
400.499	101.03
400.708	70.31
400.917	2.73
401.127	10.92
401.336	29.35
401.545	33.45
401.754	12.97
401.963	23.21
402.172	17.07
402.381	33.45
402.59	76.46
402.799	33.45
403.008	43.69
403.217	70.31
403.426	17.07
403.635	98.99
403.844	49.83
404.053	66.22
404.262	70.31
404.471	60.07
404.68	23.21
404.888	60.07
405.097	70.31
405.306	86.7
405.515	55.98
405.724	58.03
405.933	-15.7
406.142	96.94
406.35	8.87
406.559	101.03
406.768	68.27
406.977	94.89
407.185	49.83
407.394	66.22
407.603	131.75
407.812	90.79
408.02	109.23
408.229	98.99
408.438	45.74
408.646	37.55
408.855	139.94
409.064	127.66
409.272	43.69
409.481	96.94
409.69	90.79
409.898	119.46
410.107	74.41
410.315	154.28
410.524	78.51
410.733	133.8
410.941	111.27
411.15	152.23
411.358	119.46
411.567	123.56
411.775	80.55
411.984	115.37
412.192	148.14
412.401	180.9
412.609	176.81
412.818	207.53
413.026	195.24
413.234	271.01
413.443	164.52
413.651	219.82
413.86	168.62
414.068	223.91
414.276	154.28
414.485	191.14
414.693	152.23
414.901	264.87
415.11	240.3
415.318	176.81
415.526	301.73
415.734	252.58
415.943	185
416.151	307.88
416.359	242.34
416.567	316.07
416.776	283.3
416.984	275.11
417.192	266.92
417.4	316.07
417.608	277.16
417.817	332.45
418.025	354.98
418.233	400.04
418.441	371.37
418.649	461.48
418.857	346.79
419.065	363.17
419.273	416.42
419.481	408.23
419.689	486.05
419.897	420.52
420.105	402.08
420.313	496.29
420.521	518.82
420.729	524.96
420.937	514.72
421.145	496.29
421.353	590.5
421.561	533.15
421.769	625.31
421.977	627.36
422.185	602.79
422.393	703.14
422.601	719.52
422.809	645.79
423.017	766.62
423.224	725.66
423.432	776.86
423.64	768.67
423.848	797.34
424.056	916.12
424.263	877.21
424.471	905.88
424.679	907.93
424.887	971.42
425.094	967.32
425.302	1022.62
425.51	1020.57
425.718	1010.33
425.925	1020.57
426.133	1063.58
426.341	1090.2
426.548	1165.98
426.756	1204.89
426.964	1196.7
427.171	1311.38
427.379	1352.34
427.586	1352.34
427.794	1415.83
428.001	1413.78
428.209	1467.03
428.417	1602.19
428.624	1577.62
428.832	1559.19
429.039	1612.43
429.247	1514.13
429.454	1675.92
429.662	1827.47
429.869	1702.54
430.076	1770.13
430.284	1837.71
430.491	1806.99
430.699	1944.21
430.906	1903.25
431.114	1985.16
431.321	2081.42
431.528	2105.99
431.736	2185.87
431.943	2284.17
432.15	2173.58
432.358	2275.98
432.565	2374.28
432.772	2351.75
432.979	2415.24
433.187	2523.78
433.394	2566.79
433.601	2710.15
433.808	2710.15
434.016	2658.95
434.223	2824.83
434.43	3046.01
434.637	2873.98
434.844	3152.51
435.052	3097.21
435.259	3183.23
435.466	3304.06
435.673	3203.71
435.88	3418.74
436.087	3580.53
436.294	3582.58
436.501	3433.08
436.708	3545.72
436.915	3705.46
437.122	3797.62
437.329	3877.49
437.537	3865.2
437.743	4088.43
437.95	3983.98
438.157	4149.87
438.364	4354.66
438.571	4336.23
438.778	4334.18
438.985	4813.41
439.192	4555.37
439.399	4727.39
439.606	4620.9
439.813	4874.85
440.02	5245.53
440.227	5098.08
440.433	5012.06
440.64	5063.26
440.847	5089.89
441.054	5198.43
441.261	5497.43
441.467	5569.11
441.674	5567.06
441.881	5775.95
442.088	5636.69
442.294	5749.33
442.501	5933.65
442.708	6128.21
442.914	6376.01
443.121	6509.13
443.328	6253.13
443.534	6793.8
443.741	6560.33
443.948	6634.05
444.154	6935.1
444.361	6957.63
444.568	6920.77
444.774	7182.91
444.981	7100.99
445.187	7373.37
445.394	7727.67
445.6	7428.67
445.807	8260.14
446.013	7879.22
446.22	7971.38
446.426	8307.24
446.633	8430.12
446.839	8999.46
447.046	8553
447.252	8897.06
447.459	8858.15
447.665	8931.87
447.871	9333.28
448.078	9583.13
448.284	9251.36
448.491	9462.3
448.697	9863.7
448.903	10007.06
449.11	10027.54
449.316	9806.36
449.522	10048.02
449.728	10492.43
449.935	10463.75
450.141	10594.82
450.347	10953.22
450.553	10267.15
450.76	10576.39
450.966	10832.39
451.172	10760.71
451.378	10807.81
451.584	10713.61
451.791	10965.51
451.997	11067.91
452.203	11229.7
452.409	11170.3
452.615	11350.53
452.821	10711.56
453.027	10531.34
453.233	11174.4
453.44	10873.35
453.646	10918.4
453.852	10990.08
454.058	11108.87
454.264	10820.1
454.47	11209.22
454.676	10899.97
454.882	11196.93
455.088	10357.26
455.294	10342.92
455.5	10600.97
455.705	10729.99
455.911	10258.96
456.117	10037.78
456.323	10005.01
456.529	9585.18
456.735	9826.84
456.941	9493.02
457.147	9437.72
457.352	9312.8
457.558	8895.01
457.764	9130.53
457.97	8938.02
458.176	8495.66
458.381	8661.54
458.587	8241.71
458.793	8389.16
458.999	8098.35
459.204	8462.89
459.41	8202.8
459.616	7858.74
459.821	7832.12
460.027	7762.48
460.233	7498.3
460.438	7219.77
460.644	7473.72
460.85	6918.72
461.055	6795.84
461.261	6777.41
461.466	6320.71
461.672	6271.56
461.878	6500.94
462.083	5921.36
462.289	6185.55
462.494	6007.38
462.7	5618.26
462.905	5616.21
463.111	5710.42
463.316	5784.15
463.522	5620.31
463.727	5538.39
463.932	5558.87
464.138	5497.43
464.343	5481.05
464.549	5329.5
464.754	5505.62
464.959	5325.4
465.165	5538.39
465.37	5231.19
465.575	5180
465.781	5263.96
465.986	5491.29
466.191	5104.22
466.397	4940.38
466.602	4768.35
466.807	5040.73
467.012	5016.16
467.218	4985.44
467.423	4813.41
467.628	5032.54
467.833	5059.17
468.038	5020.25
468.244	4792.93
468.449	4969.05
468.654	4909.66
468.859	4854.37
469.064	4833.89
469.269	4772.45
469.474	4645.48
469.679	4745.83
469.885	4506.21
470.09	4782.69
470.295	4534.89
