Data from USB4F104151__256__14-01-37-224.txt Node

Date: Thu Mar 13 14:01:37 EDT 2025
User: louis
Spectrometer: USB4F10415
Trigger mode: 4
Integration Time (sec): 1.000000E-2
Scans to average: 1
Electric dark correction enabled: true
Nonlinearity correction enabled: false
Boxcar width: 0
XAxis mode: Wavelengths
Number of Pixels in Spectrum: 3648
>>>>>Begin Spectral Data<<<<<
178.204	19.97
178.424	19.97
178.644	19.97
178.864	-41.47
179.084	-20.99
179.304	26.11
179.524	5.63
179.744	-37.38
179.964	30.21
180.184	-41.47
180.404	7.68
180.624	-6.66
180.844	-8.7
181.064	-12.8
181.283	-14.85
181.503	-10.75
181.723	62.98
181.943	30.21
182.163	-0.51
182.383	-0.51
182.602	17.92
182.822	38.4
183.042	24.06
183.262	26.11
183.482	11.78
183.701	26.11
183.921	34.3
184.141	-43.52
184.361	22.02
184.58	-27.14
184.8	38.4
185.02	71.17
185.239	32.26
185.459	83.45
185.679	-6.66
185.898	-51.71
186.118	48.64
186.338	32.26
186.557	62.98
186.777	40.45
186.997	-43.52
187.216	50.69
187.436	13.82
187.655	65.02
187.875	17.92
188.095	-8.7
188.314	38.4
188.534	24.06
188.753	40.45
188.973	-2.56
189.192	13.82
189.412	44.54
189.631	-23.04
189.851	67.07
190.07	22.02
190.29	-29.18
190.509	34.3
190.729	9.73
190.948	38.4
191.168	58.88
191.387	1.54
191.607	-51.71
191.826	91.65
192.045	-10.75
192.265	38.4
192.484	-25.09
192.704	-6.66
192.923	-80.38
193.142	3.58
193.362	-6.66
193.581	26.11
193.8	-78.33
194.02	30.21
194.239	62.98
194.458	22.02
194.678	11.78
194.897	67.07
195.116	108.03
195.335	-6.66
195.555	17.92
195.774	22.02
195.993	-37.38
196.212	30.21
196.432	-2.56
196.651	19.97
196.87	62.98
197.089	36.35
197.308	-10.75
197.528	50.69
197.747	54.78
197.966	15.87
198.185	-55.81
198.404	-43.52
198.623	38.4
198.842	-18.94
199.062	-55.81
199.281	-16.9
199.5	-0.51
199.719	-8.7
199.938	-25.09
200.157	52.74
200.376	67.07
200.595	105.98
200.814	11.78
201.033	22.02
201.252	-23.04
201.471	-23.04
201.69	120.32
201.909	73.21
202.128	42.5
202.347	54.78
202.566	-4.61
202.785	28.16
203.004	38.4
203.223	-55.81
203.442	-51.71
203.661	69.12
203.879	11.78
204.098	40.45
204.317	15.87
204.536	30.21
204.755	38.4
204.974	-10.75
205.193	30.21
205.411	-10.75
205.63	75.26
205.849	30.21
206.068	-27.14
206.287	-27.14
206.505	62.98
206.724	58.88
206.943	3.58
207.162	17.92
207.381	7.68
207.599	-33.28
207.818	128.51
208.037	-0.51
208.255	105.98
208.474	5.63
208.693	79.36
208.911	62.98
209.13	46.59
209.349	-10.75
209.567	81.41
209.786	46.59
210.005	85.5
210.223	24.06
210.442	-0.51
210.661	26.11
210.879	-49.66
211.098	5.63
211.316	11.78
211.535	22.02
211.753	-20.99
211.972	-59.9
212.191	71.17
212.409	38.4
212.628	-14.85
212.846	9.73
213.065	-55.81
213.283	-10.75
213.502	42.5
213.72	-18.94
213.938	65.02
214.157	15.87
214.375	46.59
214.594	-12.8
214.812	54.78
215.031	1.54
215.249	-61.95
215.467	22.02
215.686	34.3
215.904	75.26
216.122	54.78
216.341	85.5
216.559	15.87
216.778	-0.51
216.996	46.59
217.214	5.63
217.432	38.4
217.651	28.16
217.869	50.69
218.087	-10.75
218.306	56.83
218.524	7.68
218.742	-0.51
218.96	26.11
219.179	38.4
219.397	-37.38
219.615	9.73
219.833	83.45
220.051	-45.57
220.27	52.74
220.488	97.79
220.706	9.73
220.924	24.06
221.142	58.88
221.36	-10.75
221.578	71.17
221.796	103.93
222.015	-37.38
222.233	46.59
222.451	-14.85
222.669	-10.75
222.887	11.78
223.105	-20.99
223.323	7.68
223.541	40.45
223.759	54.78
223.977	-45.57
224.195	73.21
224.413	42.5
224.631	46.59
224.849	-35.33
225.067	79.36
225.285	-16.9
225.503	-0.51
225.721	7.68
225.939	60.93
226.157	103.93
226.375	69.12
226.592	75.26
226.81	22.02
227.028	60.93
227.246	34.3
227.464	-51.71
227.682	1.54
227.9	-4.61
228.117	52.74
228.335	46.59
228.553	44.54
228.771	9.73
228.989	5.63
229.206	5.63
229.424	26.11
229.642	36.35
229.86	17.92
230.077	-12.8
230.295	-2.56
230.513	36.35
230.731	-0.51
230.948	85.5
231.166	48.64
231.384	-20.99
231.601	79.36
231.819	48.64
232.037	24.06
232.254	-12.8
232.472	38.4
232.689	24.06
232.907	83.45
233.125	5.63
233.342	81.41
233.56	9.73
233.777	15.87
233.995	11.78
234.213	24.06
234.43	17.92
234.648	-31.23
234.865	-33.28
235.083	30.21
235.3	-76.29
235.518	50.69
235.735	7.68
235.953	17.92
236.17	-23.04
236.388	52.74
236.605	-8.7
236.822	36.35
237.04	17.92
237.257	50.69
237.475	11.78
237.692	-0.51
237.909	44.54
238.127	-8.7
238.344	-4.61
238.562	-2.56
238.779	9.73
238.996	44.54
239.214	-2.56
239.431	15.87
239.648	-41.47
239.865	5.63
240.083	56.83
240.3	46.59
240.517	24.06
240.735	54.78
240.952	38.4
241.169	1.54
241.386	-12.8
241.603	3.58
241.821	3.58
242.038	26.11
242.255	-25.09
242.472	-2.56
242.689	48.64
242.907	79.36
243.124	13.82
243.341	-23.04
243.558	-20.99
243.775	13.82
243.992	-8.7
244.209	-10.75
244.426	-10.75
244.643	30.21
244.86	30.21
245.078	13.82
245.295	32.26
245.512	-8.7
245.729	34.3
245.946	28.16
246.163	17.92
246.38	-18.94
246.597	69.12
246.814	26.11
247.031	-41.47
247.248	40.45
247.464	22.02
247.681	-49.66
247.898	24.06
248.115	26.11
248.332	-2.56
248.549	28.16
248.766	69.12
248.983	-16.9
249.2	50.69
249.417	-25.09
249.633	5.63
249.85	-4.61
250.067	9.73
250.284	62.98
250.501	15.87
250.717	-43.52
250.934	-49.66
251.151	73.21
251.368	3.58
251.585	65.02
251.801	28.16
252.018	46.59
252.235	-23.04
252.451	-27.14
252.668	22.02
252.885	15.87
253.102	46.59
253.318	46.59
253.535	22.02
253.752	15.87
253.968	26.11
254.185	60.93
254.401	-31.23
254.618	73.21
254.835	-0.51
255.051	-2.56
255.268	9.73
255.484	-14.85
255.701	9.73
255.917	-8.7
256.134	38.4
256.351	13.82
256.567	71.17
256.784	91.65
257	38.4
257.217	5.63
257.433	-8.7
257.65	65.02
257.866	7.68
258.082	-29.18
258.299	15.87
258.515	71.17
258.732	-53.76
258.948	1.54
259.165	99.84
259.381	17.92
259.597	34.3
259.814	24.06
260.03	73.21
260.246	-0.51
260.463	54.78
260.679	30.21
260.895	-43.52
261.112	56.83
261.328	17.92
261.544	85.5
261.761	108.03
261.977	-61.95
262.193	-18.94
262.409	75.26
262.626	5.63
262.842	-68.09
263.058	22.02
263.274	-2.56
263.49	-12.8
263.707	38.4
263.923	36.35
264.139	1.54
264.355	56.83
264.571	30.21
264.787	3.58
265.004	-0.51
265.22	22.02
265.436	-18.94
265.652	-23.04
265.868	32.26
266.084	99.84
266.3	62.98
266.516	30.21
266.732	22.02
266.948	22.02
267.164	7.68
267.38	-39.42
267.596	-49.66
267.812	30.21
268.028	48.64
268.244	-10.75
268.46	-29.18
268.676	26.11
268.892	50.69
269.108	-61.95
269.324	22.02
269.54	13.82
269.756	-57.86
269.972	54.78
270.188	46.59
270.403	-57.86
270.619	-10.75
270.835	62.98
271.051	52.74
271.267	-68.09
271.483	-2.56
271.698	-49.66
271.914	13.82
272.13	-2.56
272.346	7.68
272.562	15.87
272.777	58.88
272.993	17.92
273.209	81.41
273.425	1.54
273.64	5.63
273.856	62.98
274.072	17.92
274.287	-64
274.503	-0.51
274.719	3.58
274.934	50.69
275.15	-31.23
275.366	1.54
275.581	28.16
275.797	-0.51
276.012	19.97
276.228	38.4
276.444	-12.8
276.659	44.54
276.875	-43.52
277.09	-27.14
277.306	-14.85
277.521	77.31
277.737	32.26
277.952	-0.51
278.168	79.36
278.383	5.63
278.599	34.3
278.814	-0.51
279.03	3.58
279.245	-45.57
279.461	-10.75
279.676	17.92
279.892	32.26
280.107	13.82
280.322	-6.66
280.538	-2.56
280.753	3.58
280.969	32.26
281.184	24.06
281.399	32.26
281.615	17.92
281.83	46.59
282.045	-14.85
282.26	28.16
282.476	30.21
282.691	30.21
282.906	42.5
283.122	22.02
283.337	26.11
283.552	56.83
283.767	30.21
283.983	-43.52
284.198	-51.71
284.413	54.78
284.628	15.87
284.843	40.45
285.058	1.54
285.274	5.63
285.489	-33.28
285.704	71.17
285.919	9.73
286.134	26.11
286.349	71.17
286.564	38.4
286.779	26.11
286.995	30.21
287.21	-18.94
287.425	13.82
287.64	28.16
287.855	44.54
288.07	105.98
288.285	32.26
288.5	50.69
288.715	-35.33
288.93	22.02
289.145	65.02
289.36	22.02
289.575	15.87
289.79	38.4
290.004	5.63
290.219	62.98
290.434	34.3
290.649	32.26
290.864	71.17
291.079	26.11
291.294	62.98
291.509	30.21
291.724	62.98
291.938	19.97
292.153	3.58
292.368	-8.7
292.583	15.87
292.798	19.97
293.012	38.4
293.227	62.98
293.442	32.26
293.657	24.06
293.871	60.93
294.086	3.58
294.301	30.21
294.516	28.16
294.73	-6.66
294.945	91.65
295.16	-10.75
295.374	28.16
295.589	-2.56
295.804	-55.81
296.018	62.98
296.233	-23.04
296.447	91.65
296.662	65.02
296.877	56.83
297.091	7.68
297.306	38.4
297.52	65.02
297.735	-37.38
297.949	48.64
298.164	-0.51
298.378	62.98
298.593	13.82
298.807	24.06
299.022	30.21
299.236	1.54
299.451	38.4
299.665	3.58
299.88	15.87
300.094	24.06
300.309	-12.8
300.523	46.59
300.737	15.87
300.952	28.16
301.166	-6.66
301.381	26.11
301.595	77.31
301.809	118.27
302.024	13.82
302.238	62.98
302.452	46.59
302.667	-43.52
302.881	3.58
303.095	-10.75
303.309	44.54
303.524	-2.56
303.738	24.06
303.952	15.87
304.166	75.26
304.381	5.63
304.595	-10.75
304.809	44.54
305.023	93.69
305.237	-27.14
305.452	34.3
305.666	40.45
305.88	36.35
306.094	24.06
306.308	-35.33
306.522	28.16
306.736	11.78
306.95	56.83
307.164	38.4
307.379	110.08
307.593	36.35
307.807	42.5
308.021	7.68
308.235	-2.56
308.449	-16.9
308.663	-2.56
308.877	15.87
309.091	79.36
309.305	42.5
309.519	-45.57
309.733	62.98
309.947	13.82
310.161	-6.66
310.374	-31.23
310.588	54.78
310.802	52.74
311.016	-2.56
311.23	26.11
311.444	62.98
311.658	-2.56
311.872	67.07
312.085	1.54
312.299	48.64
312.513	-10.75
312.727	62.98
312.941	-6.66
313.154	22.02
313.368	81.41
313.582	-64
313.796	9.73
314.009	15.87
314.223	62.98
314.437	73.21
314.651	30.21
314.864	15.87
315.078	13.82
315.292	5.63
315.505	13.82
315.719	15.87
315.933	1.54
316.146	11.78
316.36	-0.51
316.573	65.02
316.787	91.65
317.001	54.78
317.214	-43.52
317.428	1.54
317.641	22.02
317.855	-12.8
318.068	87.55
318.282	32.26
318.495	42.5
318.709	77.31
318.922	24.06
319.136	97.79
319.349	30.21
319.563	-18.94
319.776	114.17
319.99	34.3
320.203	50.69
320.417	52.74
320.63	34.3
320.843	44.54
321.057	38.4
321.27	60.93
321.483	-10.75
321.697	-6.66
321.91	62.98
322.124	46.59
322.337	-20.99
322.55	56.83
322.763	48.64
322.977	67.07
323.19	75.26
323.403	34.3
323.617	71.17
323.83	48.64
324.043	22.02
324.256	-10.75
324.469	56.83
324.683	-6.66
324.896	36.35
325.109	-6.66
325.322	-12.8
325.535	38.4
325.748	-43.52
325.962	32.26
326.175	-2.56
326.388	79.36
326.601	-0.51
326.814	7.68
327.027	26.11
327.24	105.98
327.453	-6.66
327.666	36.35
327.879	40.45
328.092	62.98
328.305	48.64
328.518	71.17
328.731	79.36
328.944	28.16
329.157	-16.9
329.37	-47.62
329.583	24.06
329.796	28.16
330.009	24.06
330.222	5.63
330.435	42.5
330.648	62.98
330.861	19.97
331.073	38.4
331.286	52.74
331.499	69.12
331.712	1.54
331.925	-14.85
332.138	-29.18
332.35	-49.66
332.563	-25.09
332.776	30.21
332.989	-39.42
333.202	38.4
333.414	22.02
333.627	-18.94
333.84	79.36
334.053	81.41
334.265	-12.8
334.478	75.26
334.691	15.87
334.903	-6.66
335.116	24.06
335.329	30.21
335.541	1.54
335.754	56.83
335.966	73.21
336.179	13.82
336.392	5.63
336.604	24.06
336.817	1.54
337.029	48.64
337.242	3.58
337.454	58.88
337.667	22.02
337.88	65.02
338.092	58.88
338.305	17.92
338.517	30.21
338.729	-41.47
338.942	54.78
339.154	-23.04
339.367	-25.09
339.579	42.5
339.792	-6.66
340.004	87.55
340.217	48.64
340.429	15.87
340.641	26.11
340.854	32.26
341.066	-31.23
341.278	17.92
341.491	-0.51
341.703	13.82
341.915	19.97
342.128	17.92
342.34	48.64
342.552	24.06
342.764	48.64
342.977	54.78
343.189	48.64
343.401	40.45
343.613	58.88
343.826	-27.14
344.038	-31.23
344.25	36.35
344.462	62.98
344.674	28.16
344.886	50.69
345.099	19.97
345.311	9.73
345.523	-10.75
345.735	28.16
345.947	34.3
346.159	15.87
346.371	40.45
346.583	42.5
346.795	67.07
347.007	32.26
347.219	34.3
347.431	24.06
347.643	71.17
347.855	58.88
348.067	24.06
348.279	54.78
348.491	-12.8
348.703	87.55
348.915	22.02
349.127	-27.14
349.339	62.98
349.551	28.16
349.763	77.31
349.975	9.73
350.187	-2.56
350.399	34.3
350.61	1.54
350.822	15.87
351.034	67.07
351.246	79.36
351.458	24.06
351.669	130.56
351.881	13.82
352.093	-10.75
352.305	48.64
352.517	65.02
352.728	36.35
352.94	26.11
353.152	65.02
353.363	-51.71
353.575	89.6
353.787	48.64
353.999	30.21
354.21	52.74
354.422	110.08
354.633	-25.09
354.845	-27.14
355.057	-14.85
355.268	60.93
355.48	-10.75
355.692	26.11
355.903	-8.7
356.115	75.26
356.326	-76.29
356.538	-25.09
356.749	34.3
356.961	-8.7
357.172	32.26
357.384	-10.75
357.595	112.13
357.807	11.78
358.018	46.59
358.23	54.78
358.441	56.83
358.653	56.83
358.864	26.11
359.075	28.16
359.287	52.74
359.498	75.26
359.709	-18.94
359.921	69.12
360.132	-39.42
360.344	-49.66
360.555	30.21
360.766	-29.18
360.977	-43.52
361.189	54.78
361.4	32.26
361.611	22.02
361.823	46.59
362.034	120.32
362.245	28.16
362.456	28.16
362.667	7.68
362.879	-8.7
363.09	46.59
363.301	40.45
363.512	13.82
363.723	-27.14
363.935	50.69
364.146	42.5
364.357	-20.99
364.568	112.13
364.779	24.06
364.99	-0.51
365.201	26.11
365.412	-0.51
365.623	-86.53
365.834	-10.75
366.045	7.68
366.256	-2.56
366.467	38.4
366.678	40.45
366.889	30.21
367.1	30.21
367.311	-25.09
367.522	-23.04
367.733	19.97
367.944	34.3
368.155	-12.8
368.366	13.82
368.577	30.21
368.788	34.3
368.999	-18.94
369.209	-70.14
369.42	46.59
369.631	95.74
369.842	58.88
370.053	24.06
370.264	-6.66
370.474	7.68
370.685	38.4
370.896	50.69
371.107	19.97
371.317	99.84
371.528	42.5
371.739	114.17
371.95	-0.51
372.16	60.93
372.371	128.51
372.582	30.21
372.792	36.35
373.003	138.75
373.214	40.45
373.424	87.55
373.635	34.3
373.846	13.82
374.056	-20.99
374.267	-6.66
374.477	75.26
374.688	22.02
374.898	56.83
375.109	-70.14
375.319	38.4
375.53	58.88
375.74	-25.09
375.951	58.88
376.161	-14.85
376.372	38.4
376.582	77.31
376.793	32.26
377.003	62.98
377.214	-2.56
377.424	52.74
377.635	24.06
377.845	-0.51
378.055	56.83
378.266	-27.14
378.476	93.69
378.686	73.21
378.897	54.78
379.107	38.4
379.317	13.82
379.528	38.4
379.738	73.21
379.948	32.26
380.158	-41.47
380.369	3.58
380.579	1.54
380.789	-0.51
380.999	-18.94
381.21	52.74
381.42	54.78
381.63	13.82
381.84	30.21
382.05	-6.66
382.261	87.55
382.471	30.21
382.681	67.07
382.891	30.21
383.101	58.88
383.311	5.63
383.521	19.97
383.731	30.21
383.941	32.26
384.151	46.59
384.361	50.69
384.571	-4.61
384.781	71.17
384.991	22.02
385.201	38.4
385.411	46.59
385.621	83.45
385.831	17.92
386.041	36.35
386.251	54.78
386.461	-10.75
386.671	-64
386.881	89.6
387.091	73.21
387.301	32.26
387.511	-2.56
387.72	22.02
387.93	79.36
388.14	30.21
388.35	15.87
388.56	83.45
388.769	71.17
388.979	71.17
389.189	15.87
389.399	1.54
389.609	83.45
389.818	89.6
390.028	-18.94
390.238	15.87
390.447	91.65
390.657	103.93
390.867	62.98
391.076	1.54
391.286	56.83
391.496	22.02
391.705	56.83
391.915	108.03
392.125	32.26
392.334	71.17
392.544	79.36
392.753	1.54
392.963	28.16
393.172	83.45
393.382	-20.99
393.591	7.68
393.801	11.78
394.01	91.65
394.22	42.5
394.429	-6.66
394.639	24.06
394.848	-25.09
395.058	95.74
395.267	56.83
395.477	13.82
395.686	46.59
395.895	62.98
396.105	114.17
396.314	34.3
396.524	58.88
396.733	58.88
396.942	-2.56
397.152	42.5
397.361	83.45
397.57	48.64
397.78	38.4
397.989	30.21
398.198	79.36
398.407	34.3
398.617	22.02
398.826	54.78
399.035	108.03
399.244	40.45
399.453	50.69
399.663	114.17
399.872	83.45
400.081	65.02
400.29	42.5
400.499	-4.61
400.708	67.07
400.917	50.69
401.127	73.21
401.336	77.31
401.545	48.64
401.754	24.06
401.963	114.17
402.172	-2.56
402.381	30.21
402.59	52.74
402.799	40.45
403.008	83.45
403.217	120.32
403.426	58.88
403.635	28.16
403.844	50.69
404.053	62.98
404.262	65.02
404.471	118.27
404.68	124.41
404.888	56.83
405.097	120.32
405.306	87.55
405.515	73.21
405.724	65.02
405.933	85.5
406.142	112.13
406.35	91.65
406.559	120.32
406.768	83.45
406.977	62.98
407.185	79.36
407.394	105.98
407.603	52.74
407.812	65.02
408.02	122.37
408.229	146.94
408.438	140.8
408.646	128.51
408.855	75.26
409.064	220.67
409.272	103.93
409.481	136.7
409.69	122.37
409.898	56.83
410.107	144.89
410.315	91.65
410.524	163.33
410.733	189.95
410.941	155.13
411.15	120.32
411.358	185.85
411.567	224.76
411.775	187.9
411.984	42.5
412.192	189.95
412.401	210.43
412.609	169.47
412.818	278.01
413.026	235
413.234	210.43
413.443	171.52
413.651	208.38
413.86	253.44
414.068	194.05
414.276	321.02
414.485	183.81
414.693	312.83
414.901	314.88
415.11	278.01
415.318	288.25
415.526	368.12
415.734	263.68
415.943	269.82
416.151	374.27
416.359	392.7
416.567	368.12
416.776	333.31
416.984	368.12
417.192	353.79
417.4	431.61
417.608	407.03
417.817	435.71
418.025	398.84
418.233	466.42
418.441	464.38
418.649	521.72
418.857	501.24
419.065	468.47
419.273	456.19
419.481	466.42
419.689	511.48
419.897	663.03
420.105	527.86
420.313	656.89
420.521	585.21
420.729	597.49
420.937	583.16
421.145	667.13
421.353	677.37
421.561	738.8
421.769	826.87
421.977	794.1
422.185	767.48
422.393	902.64
422.601	900.59
422.809	943.6
423.017	876.02
423.224	959.99
423.432	994.8
423.64	933.36
423.848	1033.71
424.056	1048.05
424.263	1013.23
424.471	1080.82
424.679	1099.25
424.887	1168.88
425.094	1185.26
425.302	1215.98
425.51	1308.14
425.718	1285.61
425.925	1326.57
426.133	1299.95
426.341	1437.16
426.548	1353.2
426.756	1517.03
426.964	1557.99
427.171	1637.86
427.379	1547.75
427.586	1601
427.794	1734.12
428.001	1691.11
428.209	1758.69
428.417	1746.41
428.624	1932.77
428.832	1926.63
429.039	1910.24
429.247	1963.49
429.454	2168.29
429.662	2301.4
429.869	2110.94
430.076	2299.36
430.284	2176.48
430.491	2350.56
430.699	2448.86
430.906	2465.24
431.114	2512.35
431.321	2434.52
431.528	2602.46
431.736	2772.44
431.943	2913.75
432.15	2760.15
432.358	2919.89
432.565	3030.48
432.772	2932.18
432.979	3132.88
433.187	3126.74
433.394	3323.34
433.601	3470.8
433.808	3374.54
434.016	3392.97
434.223	3487.18
434.43	3777.99
434.637	3601.87
434.844	3898.82
435.052	3884.48
435.259	4072.9
435.466	3866.05
435.673	3960.26
435.88	4148.67
436.087	4398.52
436.294	4306.37
436.501	4328.89
436.708	4449.72
436.915	4634.04
437.122	4697.53
437.329	4806.07
437.537	5025.2
437.743	4976.05
437.95	4937.14
438.157	5332.4
438.364	5324.21
438.571	5197.23
438.778	5455.28
438.985	5830.06
439.192	5512.62
439.399	5889.45
439.606	5643.69
439.813	5957.03
440.02	6317.47
440.227	6196.64
440.433	6030.76
440.64	6258.08
440.847	6344.1
441.054	6538.65
441.261	6821.27
441.467	6782.36
441.674	6886.81
441.881	7343.5
442.088	7286.16
442.294	7001.49
442.501	7376.27
442.708	7478.67
442.914	7732.62
443.121	8015.24
443.328	7771.53
443.534	8412.54
443.741	8121.73
443.948	8131.97
444.154	8508.8
444.361	8521.09
444.568	8519.04
444.774	8594.81
444.981	9053.56
445.187	9012.6
445.394	9227.64
445.6	9221.49
445.807	10028.39
446.013	9678.19
446.22	9880.94
446.426	10364.26
446.633	10290.53
446.839	10728.8
447.046	10435.94
447.252	10886.49
447.459	10708.32
447.665	10886.49
447.871	11212.12
448.078	11842.89
448.284	11269.46
448.491	11400.53
448.697	12078.41
448.903	12051.78
449.11	12219.72
449.316	12043.59
449.522	12125.51
449.728	12531.01
449.935	12715.33
450.141	12600.64
450.347	12866.88
450.553	12416.32
450.76	12744
450.966	13045.05
451.172	12698.94
451.378	13223.22
451.584	13022.52
451.791	13278.52
451.997	13112.63
452.203	13317.43
452.409	13473.07
452.615	13327.67
452.821	12752.19
453.027	12506.43
453.233	13387.06
453.44	12893.5
453.646	12913.98
453.852	12909.88
454.058	13325.62
454.264	12860.73
454.47	12981.56
454.676	12782.91
454.882	13157.69
455.088	12047.69
455.294	12195.14
455.5	12186.95
455.705	12320.07
455.911	11982.15
456.117	11623.76
456.323	11646.29
456.529	10939.74
456.735	11400.53
456.941	10990.94
457.147	10982.74
457.352	10612.06
457.558	10427.74
457.764	10491.23
457.97	10167.65
458.176	10304.87
458.381	10304.87
458.587	9272.69
458.793	9663.85
458.999	9100.66
459.204	9870.7
459.41	9495.92
459.616	8746.36
459.821	8828.28
460.027	8910.2
460.233	8641.92
460.438	8238.47
460.644	8494.46
460.85	7789.96
461.055	7673.23
461.261	7736.71
461.466	7349.65
461.672	7003.54
461.878	7499.15
462.083	6845.85
462.289	6927.77
462.494	6829.46
462.7	6626.71
462.905	6538.65
463.111	6626.71
463.316	6602.14
463.522	6540.7
463.727	6677.91
463.932	6485.41
464.138	6350.24
464.343	6444.45
464.549	6210.98
464.754	6618.52
464.959	6321.57
465.165	6378.91
465.37	6108.58
465.575	5932.45
465.781	6073.76
465.986	6184.35
466.191	6022.56
466.397	5875.11
466.602	5590.44
466.807	5760.42
467.012	5895.59
467.218	5780.9
467.423	5664.17
467.628	5715.37
467.833	6059.43
468.038	5823.91
468.244	5572.01
468.449	5916.07
468.654	5559.72
468.859	5739.94
469.064	5610.92
469.269	5289.39
469.474	5404.08
469.679	5461.42
469.885	5180.85
