Data from USB4F104151__250__14-01-30-931.txt Node

Date: Thu Mar 13 14:01:30 EDT 2025
User: louis
Spectrometer: USB4F10415
Trigger mode: 4
Integration Time (sec): 1.000000E-2
Scans to average: 1
Electric dark correction enabled: true
Nonlinearity correction enabled: false
Boxcar width: 0
XAxis mode: Wavelengths
Number of Pixels in Spectrum: 3648
>>>>>Begin Spectral Data<<<<<
178.204	-8.87
178.424	-8.87
178.644	-8.87
178.864	-31.4
179.084	-53.93
179.304	17.75
179.524	32.08
179.744	19.8
179.964	30.04
180.184	7.51
180.404	-45.74
180.624	-12.97
180.844	32.08
181.064	-25.26
181.283	11.61
181.503	-17.07
181.723	-49.83
181.943	-41.64
182.163	3.41
182.383	-35.5
182.602	25.94
182.822	44.37
183.042	30.04
183.262	85.33
183.482	58.71
183.701	30.04
183.921	50.52
184.141	64.85
184.361	-23.21
184.58	-10.92
184.8	81.24
185.02	1.37
185.239	19.8
185.459	32.08
185.679	50.52
185.898	-27.31
186.118	-43.69
186.338	23.89
186.557	40.28
186.777	-35.5
186.997	15.7
187.216	-19.11
187.436	52.56
187.655	25.94
187.875	-0.68
188.095	9.56
188.314	58.71
188.534	11.61
188.753	56.66
188.973	48.47
189.192	42.32
189.412	-25.26
189.631	62.8
189.851	60.76
190.07	46.42
190.29	48.47
190.509	1.37
190.729	23.89
190.948	-43.69
191.168	75.09
191.387	17.75
191.607	-2.73
191.826	23.89
192.045	64.85
192.265	-29.35
192.484	-4.78
192.704	32.08
192.923	42.32
193.142	-27.31
193.362	19.8
193.581	77.14
193.8	64.85
194.02	83.28
194.239	25.94
194.458	36.18
194.678	25.94
194.897	40.28
195.116	-49.83
195.335	60.76
195.555	56.66
195.774	15.7
195.993	68.95
196.212	93.52
196.432	-39.59
196.651	13.65
196.87	38.23
197.089	-8.87
197.308	3.41
197.528	109.91
197.747	13.65
197.966	7.51
198.185	42.32
198.404	58.71
198.623	25.94
198.842	34.13
199.062	36.18
199.281	64.85
199.5	52.56
199.719	-25.26
199.938	7.51
200.157	34.13
200.376	66.9
200.595	50.52
200.814	79.19
201.033	-27.31
201.252	1.37
201.471	58.71
201.69	3.41
201.909	44.37
202.128	-17.07
202.347	-25.26
202.566	-51.88
202.785	25.94
203.004	-21.16
203.223	71
203.442	17.75
203.661	81.24
203.879	42.32
204.098	-6.83
204.317	81.24
204.536	68.95
204.755	-53.93
204.974	44.37
205.193	87.38
205.411	107.86
205.63	81.24
205.849	38.23
206.068	-12.97
206.287	38.23
206.505	40.28
206.724	-17.07
206.943	91.48
207.162	23.89
207.381	19.8
207.599	-49.83
207.818	-15.02
208.037	11.61
208.255	17.75
208.474	9.56
208.693	91.48
208.911	-10.92
209.13	68.95
209.349	56.66
209.567	19.8
209.786	-25.26
210.005	15.7
210.223	-43.69
210.442	-0.68
210.661	50.52
210.879	7.51
211.098	52.56
211.316	-17.07
211.535	54.61
211.753	-0.68
211.972	15.7
212.191	7.51
212.409	21.85
212.628	32.08
212.846	48.47
213.065	40.28
213.283	81.24
213.502	13.65
213.72	25.94
213.938	48.47
214.157	11.61
214.375	89.43
214.594	71
214.812	-19.11
215.031	23.89
215.249	60.76
215.467	13.65
215.686	9.56
215.904	105.81
216.122	99.67
216.341	93.52
216.559	50.52
216.778	122.2
216.996	73.04
217.214	87.38
217.432	19.8
217.651	64.85
217.869	40.28
218.087	58.71
218.306	34.13
218.524	48.47
218.742	38.23
218.96	-6.83
219.179	-49.83
219.397	-4.78
219.615	-17.07
219.833	15.7
220.051	38.23
220.27	91.48
220.488	-23.21
220.706	81.24
220.924	40.28
221.142	77.14
221.36	-23.21
221.578	-15.02
221.796	-21.16
222.015	40.28
222.233	32.08
222.451	42.32
222.669	-47.79
222.887	56.66
223.105	13.65
223.323	-25.26
223.541	-6.83
223.759	73.04
223.977	40.28
224.195	66.9
224.413	42.32
224.631	21.85
224.849	44.37
225.067	169.3
225.285	1.37
225.503	38.23
225.721	48.47
225.939	95.57
226.157	-29.35
226.375	3.41
226.592	15.7
226.81	32.08
227.028	73.04
227.246	54.61
227.464	48.47
227.682	64.85
227.9	60.76
228.117	50.52
228.335	36.18
228.553	-4.78
228.771	40.28
228.989	7.51
229.206	-29.35
229.424	144.72
229.642	89.43
229.86	13.65
230.077	58.71
230.295	101.72
230.513	13.65
230.731	34.13
230.948	75.09
231.166	99.67
231.384	34.13
231.601	44.37
231.819	83.28
232.037	50.52
232.254	-29.35
232.472	-0.68
232.689	15.7
232.907	50.52
233.125	56.66
233.342	7.51
233.56	13.65
233.777	38.23
233.995	-2.73
234.213	105.81
234.43	42.32
234.648	60.76
234.865	-6.83
235.083	79.19
235.3	73.04
235.518	71
235.735	40.28
235.953	40.28
236.17	40.28
236.388	64.85
236.605	44.37
236.822	34.13
237.04	40.28
237.257	58.71
237.475	21.85
237.692	140.63
237.909	-21.16
238.127	56.66
238.344	-49.83
238.562	13.65
238.779	38.23
238.996	-8.87
239.214	34.13
239.431	23.89
239.648	-4.78
239.865	9.56
240.083	-6.83
240.3	42.32
240.517	11.61
240.735	38.23
240.952	-55.98
241.169	23.89
241.386	-17.07
241.603	25.94
241.821	32.08
242.038	101.72
242.255	44.37
242.472	21.85
242.689	34.13
242.907	11.61
243.124	60.76
243.341	9.56
243.558	44.37
243.775	13.65
243.992	-8.87
244.209	62.8
244.426	81.24
244.643	42.32
244.86	5.46
245.078	81.24
245.295	46.42
245.512	68.95
245.729	-12.97
245.946	56.66
246.163	68.95
246.38	-2.73
246.597	7.51
246.814	-21.16
247.031	19.8
247.248	44.37
247.464	5.46
247.681	34.13
247.898	7.51
248.115	-39.59
248.332	54.61
248.549	79.19
248.766	52.56
248.983	66.9
249.2	21.85
249.417	97.62
249.633	-4.78
249.85	1.37
250.067	40.28
250.284	11.61
250.501	23.89
250.717	58.71
250.934	60.76
251.151	-0.68
251.368	44.37
251.585	32.08
251.801	-21.16
252.018	-0.68
252.235	9.56
252.451	99.67
252.668	40.28
252.885	34.13
253.102	-0.68
253.318	23.89
253.535	-15.02
253.752	-33.45
253.968	52.56
254.185	-10.92
254.401	95.57
254.618	66.9
254.835	30.04
255.051	40.28
255.268	48.47
255.484	-58.03
255.701	42.32
255.917	38.23
256.134	54.61
256.351	32.08
256.567	-76.46
256.784	48.47
257	-25.26
257.217	73.04
257.433	30.04
257.65	-2.73
257.866	54.61
258.082	-6.83
258.299	19.8
258.515	50.52
258.732	-10.92
258.948	42.32
259.165	32.08
259.381	95.57
259.597	54.61
259.814	27.99
260.03	30.04
260.246	-8.87
260.463	9.56
260.679	-0.68
260.895	40.28
261.112	46.42
261.328	17.75
261.544	56.66
261.761	60.76
261.977	91.48
262.193	-0.68
262.409	40.28
262.626	21.85
262.842	25.94
263.058	-37.55
263.274	48.47
263.49	64.85
263.707	38.23
263.923	36.18
264.139	48.47
264.355	60.76
264.571	85.33
264.787	77.14
265.004	64.85
265.22	38.23
265.436	-25.26
265.652	-2.73
265.868	66.9
266.084	52.56
266.3	56.66
266.516	-43.69
266.732	7.51
266.948	81.24
267.164	11.61
267.38	-33.45
267.596	66.9
267.812	71
268.028	3.41
268.244	48.47
268.46	105.81
268.676	23.89
268.892	73.04
269.108	42.32
269.324	-2.73
269.54	-0.68
269.756	111.96
269.972	42.32
270.188	73.04
270.403	54.61
270.619	81.24
270.835	50.52
271.051	73.04
271.267	23.89
271.483	44.37
271.698	58.71
271.914	73.04
272.13	54.61
272.346	17.75
272.562	48.47
272.777	1.37
272.993	52.56
273.209	-4.78
273.425	15.7
273.64	-8.87
273.856	62.8
274.072	11.61
274.287	85.33
274.503	27.99
274.719	-39.59
274.934	7.51
275.15	7.51
275.366	7.51
275.581	-29.35
275.797	-43.69
276.012	68.95
276.228	68.95
276.444	75.09
276.659	148.82
276.875	11.61
277.09	109.91
277.306	-23.21
277.521	-27.31
277.737	38.23
277.952	56.66
278.168	42.32
278.383	23.89
278.599	64.85
278.814	75.09
279.03	66.9
279.245	32.08
279.461	46.42
279.676	-0.68
279.892	21.85
280.107	-49.83
280.322	7.51
280.538	83.28
280.753	-4.78
280.969	89.43
281.184	-47.79
281.399	68.95
281.615	85.33
281.83	75.09
282.045	15.7
282.26	-6.83
282.476	25.94
282.691	83.28
282.906	-8.87
283.122	93.52
283.337	48.47
283.552	83.28
283.767	42.32
283.983	11.61
284.198	64.85
284.413	42.32
284.628	-49.83
284.843	25.94
285.058	-39.59
285.274	32.08
285.489	21.85
285.704	23.89
285.919	25.94
286.134	-23.21
286.349	34.13
286.564	17.75
286.779	46.42
286.995	23.89
287.21	11.61
287.425	9.56
287.64	-41.64
287.855	9.56
288.07	23.89
288.285	36.18
288.5	3.41
288.715	40.28
288.93	38.23
289.145	32.08
289.36	-10.92
289.575	9.56
289.79	48.47
290.004	101.72
290.219	25.94
290.434	64.85
290.649	-33.45
290.864	9.56
291.079	-0.68
291.294	54.61
291.509	7.51
291.724	7.51
291.938	99.67
292.153	93.52
292.368	32.08
292.583	58.71
292.798	73.04
293.012	42.32
293.227	83.28
293.442	83.28
293.657	5.46
293.871	46.42
294.086	77.14
294.301	81.24
294.516	52.56
294.73	25.94
294.945	-45.74
295.16	32.08
295.374	48.47
295.589	23.89
295.804	56.66
296.018	56.66
296.233	23.89
296.447	85.33
296.662	52.56
296.877	11.61
297.091	21.85
297.306	87.38
297.52	1.37
297.735	32.08
297.949	64.85
298.164	-8.87
298.378	19.8
298.593	48.47
298.807	60.76
299.022	93.52
299.236	62.8
299.451	-29.35
299.665	-8.87
299.88	11.61
300.094	38.23
300.309	46.42
300.523	38.23
300.737	42.32
300.952	19.8
301.166	85.33
301.381	21.85
301.595	34.13
301.809	3.41
302.024	42.32
302.238	5.46
302.452	56.66
302.667	68.95
302.881	25.94
303.095	13.65
303.309	13.65
303.524	1.37
303.738	23.89
303.952	68.95
304.166	73.04
304.381	-17.07
304.595	19.8
304.809	9.56
305.023	62.8
305.237	48.47
305.452	97.62
305.666	38.23
305.88	56.66
306.094	46.42
306.308	25.94
306.522	5.46
306.736	138.58
306.95	30.04
307.164	71
307.379	7.51
307.593	89.43
307.807	11.61
308.021	32.08
308.235	64.85
308.449	52.56
308.663	34.13
308.877	34.13
309.091	15.7
309.305	83.28
309.519	40.28
309.733	3.41
309.947	58.71
310.161	34.13
310.374	75.09
310.588	52.56
310.802	32.08
311.016	54.61
311.23	27.99
311.444	7.51
311.658	27.99
311.872	46.42
312.085	5.46
312.299	124.24
312.513	62.8
312.727	64.85
312.941	34.13
313.154	64.85
313.368	85.33
313.582	58.71
313.796	23.89
314.009	42.32
314.223	23.89
314.437	3.41
314.651	40.28
314.864	32.08
315.078	79.19
315.292	-6.83
315.505	7.51
315.719	25.94
315.933	23.89
316.146	-2.73
316.36	17.75
316.573	-2.73
316.787	40.28
317.001	5.46
317.214	11.61
317.428	68.95
317.641	34.13
317.855	48.47
318.068	15.7
318.282	-21.16
318.495	-8.87
318.709	83.28
318.922	101.72
319.136	19.8
319.349	42.32
319.563	81.24
319.776	68.95
319.99	-31.4
320.203	40.28
320.417	122.2
320.63	34.13
320.843	85.33
321.057	52.56
321.27	83.28
321.483	42.32
321.697	56.66
321.91	3.41
322.124	46.42
322.337	25.94
322.55	64.85
322.763	38.23
322.977	50.52
323.19	-8.87
323.403	-31.4
323.617	3.41
323.83	54.61
324.043	73.04
324.256	42.32
324.469	52.56
324.683	32.08
324.896	-8.87
325.109	17.75
325.322	9.56
325.535	64.85
325.748	-25.26
325.962	50.52
326.175	3.41
326.388	15.7
326.601	48.47
326.814	11.61
327.027	9.56
327.24	79.19
327.453	58.71
327.666	17.75
327.879	42.32
328.092	85.33
328.305	-8.87
328.518	46.42
328.731	87.38
328.944	15.7
329.157	17.75
329.37	109.91
329.583	56.66
329.796	-2.73
330.009	-6.83
330.222	71
330.435	-72.36
330.648	60.76
330.861	60.76
331.073	32.08
331.286	15.7
331.499	17.75
331.712	-10.92
331.925	73.04
332.138	1.37
332.35	64.85
332.563	32.08
332.776	60.76
332.989	34.13
333.202	48.47
333.414	36.18
333.627	40.28
333.84	83.28
334.053	23.89
334.265	46.42
334.478	-10.92
334.691	-37.55
334.903	97.62
335.116	68.95
335.329	11.61
335.541	-17.07
335.754	34.13
335.966	-0.68
336.179	111.96
336.392	23.89
336.604	17.75
336.817	116.05
337.029	21.85
337.242	15.7
337.454	60.76
337.667	21.85
337.88	34.13
338.092	42.32
338.305	1.37
338.517	54.61
338.729	66.9
338.942	17.75
339.154	7.51
339.367	9.56
339.579	64.85
339.792	124.24
340.004	36.18
340.217	66.9
340.429	34.13
340.641	-35.5
340.854	97.62
341.066	73.04
341.278	36.18
341.491	38.23
341.703	81.24
341.915	126.29
342.128	38.23
342.34	27.99
342.552	23.89
342.764	93.52
342.977	83.28
343.189	-6.83
343.401	52.56
343.613	81.24
343.826	40.28
344.038	-0.68
344.25	60.76
344.462	58.71
344.674	52.56
344.886	91.48
345.099	73.04
345.311	-2.73
345.523	58.71
345.735	19.8
345.947	66.9
346.159	52.56
346.371	34.13
346.583	-12.97
346.795	81.24
347.007	25.94
347.219	-0.68
347.431	27.99
347.643	3.41
347.855	85.33
348.067	52.56
348.279	44.37
348.491	21.85
348.703	85.33
348.915	56.66
349.127	-78.51
349.339	48.47
349.551	52.56
349.763	15.7
349.975	27.99
350.187	95.57
350.399	-4.78
350.61	66.9
350.822	1.37
351.034	38.23
351.246	27.99
351.458	23.89
351.669	40.28
351.881	44.37
352.093	64.85
352.305	56.66
352.517	-78.51
352.728	62.8
352.94	-23.21
353.152	89.43
353.363	62.8
353.575	38.23
353.787	138.58
353.999	44.37
354.21	-8.87
354.422	54.61
354.633	68.95
354.845	34.13
355.057	9.56
355.268	-15.02
355.48	54.61
355.692	46.42
355.903	34.13
356.115	93.52
356.326	-19.11
356.538	93.52
356.749	19.8
356.961	25.94
357.172	11.61
357.384	23.89
357.595	32.08
357.807	21.85
358.018	-17.07
358.23	25.94
358.441	64.85
358.653	71
358.864	48.47
359.075	32.08
359.287	30.04
359.498	56.66
359.709	109.91
359.921	42.32
360.132	3.41
360.344	52.56
360.555	48.47
360.766	-8.87
360.977	56.66
361.189	9.56
361.4	89.43
361.611	19.8
361.823	83.28
362.034	87.38
362.245	13.65
362.456	52.56
362.667	124.24
362.879	64.85
363.09	103.76
363.301	15.7
363.512	83.28
363.723	42.32
363.935	52.56
364.146	71
364.357	-31.4
364.568	13.65
364.779	34.13
364.99	7.51
365.201	50.52
365.412	50.52
365.623	36.18
365.834	7.51
366.045	62.8
366.256	-0.68
366.467	89.43
366.678	40.28
366.889	62.8
367.1	60.76
367.311	11.61
367.522	42.32
367.733	23.89
367.944	175.44
368.155	21.85
368.366	23.89
368.577	89.43
368.788	64.85
368.999	46.42
369.209	77.14
369.42	32.08
369.631	116.05
369.842	15.7
370.053	56.66
370.264	97.62
370.474	7.51
370.685	3.41
370.896	23.89
371.107	132.44
371.317	77.14
371.528	-6.83
371.739	27.99
371.95	126.29
372.16	40.28
372.371	89.43
372.582	34.13
372.792	73.04
373.003	42.32
373.214	32.08
373.424	71
373.635	46.42
373.846	73.04
374.056	-0.68
374.267	81.24
374.477	46.42
374.688	36.18
374.898	40.28
375.109	7.51
375.319	48.47
375.53	52.56
375.74	89.43
375.951	60.76
376.161	101.72
376.372	68.95
376.582	1.37
376.793	52.56
377.003	52.56
377.214	-10.92
377.424	91.48
377.635	27.99
377.845	15.7
378.055	101.72
378.266	19.8
378.476	40.28
378.686	15.7
378.897	40.28
379.107	48.47
379.317	68.95
379.528	42.32
379.738	99.67
379.948	19.8
380.158	77.14
380.369	27.99
380.579	17.75
380.789	38.23
380.999	46.42
381.21	48.47
381.42	66.9
381.63	-27.31
381.84	77.14
382.05	-58.03
382.261	60.76
382.471	44.37
382.681	34.13
382.891	81.24
383.101	40.28
383.311	81.24
383.521	81.24
383.731	36.18
383.941	130.39
384.151	87.38
384.361	-2.73
384.571	64.85
384.781	75.09
384.991	120.15
385.201	97.62
385.411	95.57
385.621	44.37
385.831	68.95
386.041	56.66
386.251	120.15
386.461	81.24
386.671	-15.02
386.881	50.52
387.091	23.89
387.301	64.85
387.511	19.8
387.72	30.04
387.93	34.13
388.14	32.08
388.35	7.51
388.56	73.04
388.769	64.85
388.979	60.76
389.189	15.7
389.399	62.8
389.609	105.81
389.818	60.76
390.028	23.89
390.238	44.37
390.447	89.43
390.657	68.95
390.867	97.62
391.076	85.33
391.286	17.75
391.496	107.86
391.705	15.7
391.915	23.89
392.125	81.24
392.334	42.32
392.544	83.28
392.753	114
392.963	3.41
393.172	85.33
393.382	64.85
393.591	148.82
393.801	3.41
394.01	50.52
394.22	27.99
394.429	122.2
394.639	83.28
394.848	103.76
395.058	97.62
395.267	116.05
395.477	56.66
395.686	75.09
395.895	83.28
396.105	79.19
396.314	25.94
396.524	54.61
396.733	111.96
396.942	64.85
397.152	15.7
397.361	91.48
397.57	71
397.78	52.56
397.989	99.67
398.198	66.9
398.407	52.56
398.617	56.66
398.826	42.32
399.035	122.2
399.244	81.24
399.453	42.32
399.663	87.38
399.872	81.24
400.081	130.39
400.29	114
400.499	75.09
400.708	107.86
400.917	34.13
401.127	56.66
401.336	66.9
401.545	122.2
401.754	-25.26
401.963	-10.92
402.172	50.52
402.381	91.48
402.59	58.71
402.799	111.96
403.008	36.18
403.217	142.68
403.426	157.01
403.635	114
403.844	91.48
404.053	85.33
404.262	120.15
404.471	73.04
404.68	66.9
404.888	114
405.097	165.2
405.306	66.9
405.515	68.95
405.724	83.28
405.933	36.18
406.142	122.2
406.35	75.09
406.559	105.81
406.768	154.96
406.977	75.09
407.185	161.11
407.394	75.09
407.603	175.44
407.812	144.72
408.02	177.49
408.229	87.38
408.438	114
408.646	161.11
408.855	128.34
409.064	99.67
409.272	118.1
409.481	177.49
409.69	171.35
409.898	157.01
410.107	150.87
410.315	200.02
410.524	148.82
410.733	224.59
410.941	52.56
411.15	257.36
411.358	234.83
411.567	302.42
411.775	281.94
411.984	294.22
412.192	253.27
412.401	208.21
412.609	245.07
412.818	265.55
413.026	318.8
413.234	281.94
413.443	243.03
413.651	314.7
413.86	353.62
414.068	267.6
414.276	355.66
414.485	386.38
414.693	312.66
414.901	410.96
415.11	281.94
415.318	367.95
415.526	337.23
415.734	306.51
415.943	396.62
416.151	511.31
416.359	413.01
416.567	488.78
416.776	449.87
416.984	449.87
417.192	482.64
417.4	572.75
417.608	562.51
417.817	537.93
418.025	585.04
418.233	634.19
418.441	576.84
418.649	621.9
418.857	677.19
419.065	750.92
419.273	703.82
419.481	687.43
419.689	791.88
419.897	785.74
420.105	853.32
420.313	908.62
420.521	881.99
420.729	804.17
420.937	933.19
421.145	1000.77
421.353	1021.25
421.561	1006.92
421.769	1135.94
421.977	1062.21
422.185	1094.98
422.393	1158.47
422.601	1160.52
422.809	1236.29
423.017	1260.87
423.224	1400.13
423.432	1359.17
423.64	1361.22
423.848	1391.94
424.056	1490.24
424.263	1539.39
424.471	1520.96
424.679	1563.97
424.887	1664.32
425.094	1703.23
425.302	1666.36
425.51	1695.04
425.718	1797.43
425.925	1822.01
426.133	1752.38
426.341	1977.66
426.548	1998.13
426.756	2176.31
426.964	2178.36
427.171	2250.03
427.379	2262.32
427.586	2237.75
427.794	2385.2
428.001	2465.07
428.209	2495.79
428.417	2524.46
428.624	2702.64
428.832	2653.48
429.039	2725.16
429.247	2678.06
429.454	3007.78
429.662	3104.04
429.869	3013.93
430.076	3210.53
430.284	2946.34
430.491	3169.57
430.699	3497.25
430.906	3448.1
431.114	3403.04
431.321	3595.55
431.528	3708.19
431.736	3812.64
431.943	4031.77
432.15	4027.67
432.358	3960.09
432.565	4226.32
432.772	4195.61
432.979	4461.84
433.187	4453.65
433.394	4447.51
433.601	4840.72
433.808	4723.98
434.016	4814.09
434.223	4930.83
434.43	5207.3
434.637	5156.1
434.844	5588.22
435.052	5584.13
435.259	5676.29
435.466	5504.26
435.673	5551.36
435.88	5799.16
436.087	6241.53
436.294	6243.57
436.501	6092.02
436.708	6300.92
436.915	6405.36
437.122	6720.75
437.329	6618.35
437.537	6847.72
437.743	6810.86
437.95	7036.14
438.157	7230.7
438.364	7613.67
438.571	7376.1
438.778	7603.43
438.985	8221.91
439.192	7947.48
439.399	8228.06
439.606	7929.05
439.813	8535.25
440.02	8875.21
440.227	8791.25
440.433	8670.42
440.64	8893.65
440.847	8957.13
441.054	9239.75
441.261	9682.11
441.467	9460.93
441.674	9936.06
441.881	10288.31
442.088	10169.53
442.294	10255.54
442.501	10382.52
442.708	10550.45
442.914	10874.03
443.121	11461.8
443.328	11146.41
443.534	11820.19
443.741	11760.8
443.948	11439.27
444.154	12139.68
444.361	12184.73
444.568	12131.48
444.774	12563.61
444.981	12573.85
445.187	12903.57
445.394	13458.57
445.6	13165.71
445.807	14478.46
446.013	13849.73
446.22	13835.39
446.426	14634.1
446.633	14689.4
446.839	15217.77
447.046	14550.14
447.252	15055.98
447.459	15402.09
447.665	15346.8
447.871	16034.91
448.078	16512.09
448.284	15832.16
448.491	16299.1
448.697	17032.27
448.903	17251.41
449.11	17458.25
449.316	17222.73
449.522	17314.89
449.728	17917
449.935	18111.55
450.141	17968.2
450.347	18553.91
450.553	17290.32
450.76	17878.08
450.966	18732.09
451.172	18334.78
451.378	18957.36
451.584	18361.41
451.791	18783.29
451.997	18598.97
452.203	19221.55
452.409	19264.56
452.615	19373.1
452.821	18170.94
453.027	18209.86
453.233	19072.05
453.44	18555.96
453.646	18410.56
453.852	18738.23
454.058	19115.06
454.264	18181.18
454.47	18916.4
454.676	18332.73
454.882	18889.78
455.088	17292.37
455.294	17673.29
455.5	17759.3
455.705	17931.33
455.911	17501.26
456.117	16917.59
456.323	16768.09
456.529	15670.37
456.735	16647.26
456.941	15950.95
457.147	15629.41
457.352	15584.36
457.558	14963.82
457.764	15121.52
457.97	14877.81
458.176	14507.13
458.381	14543.99
458.587	14036.1
458.793	13698.18
458.999	13171.85
459.204	14351.48
459.41	13814.91
459.616	12723.35
459.821	12936.34
460.027	12797.07
460.233	12651.67
460.438	12057.76
460.644	12027.04
460.85	11375.78
461.055	11326.63
461.261	11398.31
461.466	10529.97
461.672	10165.43
461.878	10833.07
462.083	10126.52
462.289	10036.41
462.494	9915.58
462.7	9616.58
462.905	9202.89
463.111	9485.51
463.316	9637.06
463.522	9403.59
463.727	9307.34
463.932	9323.72
464.138	9247.94
464.343	9307.34
464.549	9118.92
464.754	9342.15
464.959	9211.08
465.165	9290.95
465.37	8879.31
465.575	8670.42
465.781	8846.54
465.986	8989.9
466.191	8715.47
466.397	8578.26
466.602	8021.21
466.807	8422.61
467.012	8545.49
467.218	8439
467.423	8232.15
467.628	8160.47
467.833	8768.72
468.038	8346.84
468.244	8146.14
468.449	8535.25
468.654	8236.25
468.859	7875.81
469.064	8109.27
469.269	7814.37
469.474	7699.68
469.679	7888.09
469.885	7658.72
