Data from USB4F104151__224__14-00-16-883.txt Node

Date: Thu Mar 13 14:00:16 EDT 2025
User: louis
Spectrometer: USB4F10415
Trigger mode: 4
Integration Time (sec): 1.000000E-2
Scans to average: 1
Electric dark correction enabled: true
Nonlinearity correction enabled: false
Boxcar width: 0
XAxis mode: Wavelengths
Number of Pixels in Spectrum: 3648
>>>>>Begin Spectral Data<<<<<
178.204	-2.56
178.424	-2.56
178.644	-2.56
178.864	5.63
179.084	-4.61
179.304	-57.86
179.524	3.58
179.744	11.78
179.964	3.58
180.184	40.45
180.404	1.54
180.624	44.54
180.844	3.58
181.064	17.92
181.283	-27.14
181.503	7.68
181.723	-49.66
181.943	-43.52
182.163	22.02
182.383	-14.85
182.602	50.69
182.822	83.45
183.042	34.3
183.262	91.65
183.482	11.78
183.701	-31.23
183.921	48.64
184.141	-35.33
184.361	118.27
184.58	-0.51
184.8	-0.51
185.02	9.73
185.239	-51.71
185.459	71.17
185.679	42.5
185.898	-51.71
186.118	48.64
186.338	-45.57
186.557	7.68
186.777	-37.38
186.997	-20.99
187.216	36.35
187.436	36.35
187.655	85.5
187.875	34.3
188.095	11.78
188.314	101.89
188.534	93.69
188.753	26.11
188.973	28.16
189.192	11.78
189.412	-37.38
189.631	34.3
189.851	-43.52
190.07	44.54
190.29	-6.66
190.509	19.97
190.729	54.78
190.948	105.98
191.168	97.79
191.387	56.83
191.607	13.82
191.826	62.98
192.045	-0.51
192.265	28.16
192.484	48.64
192.704	34.3
192.923	69.12
193.142	101.89
193.362	93.69
193.581	83.45
193.8	77.31
194.02	97.79
194.239	101.89
194.458	73.21
194.678	71.17
194.897	28.16
195.116	-8.7
195.335	73.21
195.555	85.5
195.774	7.68
195.993	36.35
196.212	19.97
196.432	36.35
196.651	99.84
196.87	-4.61
197.089	99.84
197.308	15.87
197.528	77.31
197.747	52.74
197.966	-25.09
198.185	52.74
198.404	58.88
198.623	36.35
198.842	3.58
199.062	34.3
199.281	40.45
199.5	56.83
199.719	52.74
199.938	50.69
200.157	-0.51
200.376	134.65
200.595	65.02
200.814	28.16
201.033	87.55
201.252	13.82
201.471	30.21
201.69	69.12
201.909	75.26
202.128	36.35
202.347	93.69
202.566	-25.09
202.785	50.69
203.004	11.78
203.223	67.07
203.442	110.08
203.661	38.4
203.879	44.54
204.098	79.36
204.317	46.59
204.536	54.78
204.755	69.12
204.974	36.35
205.193	9.73
205.411	52.74
205.63	5.63
205.849	32.26
206.068	32.26
206.287	11.78
206.505	22.02
206.724	122.37
206.943	38.4
207.162	83.45
207.381	32.26
207.599	-2.56
207.818	22.02
208.037	44.54
208.255	11.78
208.474	7.68
208.693	22.02
208.911	44.54
209.13	44.54
209.349	40.45
209.567	17.92
209.786	30.21
210.005	97.79
210.223	112.13
210.442	-25.09
210.661	32.26
210.879	44.54
211.098	22.02
211.316	-0.51
211.535	26.11
211.753	-4.61
211.972	-18.94
212.191	46.59
212.409	-4.61
212.628	105.98
212.846	44.54
213.065	65.02
213.283	30.21
213.502	11.78
213.72	22.02
213.938	77.31
214.157	-0.51
214.375	19.97
214.594	3.58
214.812	32.26
215.031	65.02
215.249	24.06
215.467	93.69
215.686	71.17
215.904	19.97
216.122	38.4
216.341	69.12
216.559	26.11
216.778	101.89
216.996	130.56
217.214	67.07
217.432	83.45
217.651	24.06
217.869	36.35
218.087	67.07
218.306	54.78
218.524	7.68
218.742	69.12
218.96	38.4
219.179	1.54
219.397	95.74
219.615	24.06
219.833	19.97
220.051	26.11
220.27	36.35
220.488	87.55
220.706	-10.75
220.924	3.58
221.142	5.63
221.36	15.87
221.578	71.17
221.796	73.21
222.015	85.5
222.233	130.56
222.451	65.02
222.669	15.87
222.887	38.4
223.105	13.82
223.323	69.12
223.541	93.69
223.759	52.74
223.977	-23.04
224.195	87.55
224.413	22.02
224.631	77.31
224.849	-53.76
225.067	97.79
225.285	15.87
225.503	79.36
225.721	-16.9
225.939	40.45
226.157	38.4
226.375	32.26
226.592	58.88
226.81	48.64
227.028	34.3
227.246	44.54
227.464	26.11
227.682	69.12
227.9	-12.8
228.117	62.98
228.335	65.02
228.553	13.82
228.771	54.78
228.989	17.92
229.206	38.4
229.424	69.12
229.642	38.4
229.86	36.35
230.077	97.79
230.295	73.21
230.513	44.54
230.731	-14.85
230.948	5.63
231.166	40.45
231.384	-14.85
231.601	103.93
231.819	38.4
232.037	32.26
232.254	65.02
232.472	58.88
232.689	69.12
232.907	60.93
233.125	7.68
233.342	93.69
233.56	-31.23
233.777	-6.66
233.995	101.89
234.213	48.64
234.43	1.54
234.648	24.06
234.865	-8.7
235.083	60.93
235.3	58.88
235.518	46.59
235.735	54.78
235.953	71.17
236.17	71.17
236.388	54.78
236.605	52.74
236.822	38.4
237.04	79.36
237.257	24.06
237.475	77.31
237.692	46.59
237.909	77.31
238.127	36.35
238.344	62.98
238.562	108.03
238.779	28.16
238.996	36.35
239.214	3.58
239.431	42.5
239.648	19.97
239.865	54.78
240.083	93.69
240.3	89.6
240.517	40.45
240.735	22.02
240.952	83.45
241.169	46.59
241.386	95.74
241.603	44.54
241.821	52.74
242.038	67.07
242.255	77.31
242.472	58.88
242.689	65.02
242.907	60.93
243.124	-23.04
243.341	87.55
243.558	54.78
243.775	52.74
243.992	52.74
244.209	19.97
244.426	83.45
244.643	79.36
244.86	56.83
245.078	58.88
245.295	-45.57
245.512	91.65
245.729	65.02
245.946	54.78
246.163	-14.85
246.38	95.74
246.597	58.88
246.814	89.6
247.031	54.78
247.248	77.31
247.464	-31.23
247.681	40.45
247.898	62.98
248.115	-16.9
248.332	36.35
248.549	28.16
248.766	60.93
248.983	19.97
249.2	5.63
249.417	-6.66
249.633	28.16
249.85	36.35
250.067	60.93
250.284	89.6
250.501	40.45
250.717	60.93
250.934	38.4
251.151	19.97
251.368	36.35
251.585	103.93
251.801	75.26
252.018	19.97
252.235	73.21
252.451	56.83
252.668	-20.99
252.885	60.93
253.102	46.59
253.318	48.64
253.535	83.45
253.752	40.45
253.968	60.93
254.185	38.4
254.401	5.63
254.618	22.02
254.835	-20.99
255.051	17.92
255.268	9.73
255.484	15.87
255.701	73.21
255.917	28.16
256.134	17.92
256.351	7.68
256.567	65.02
256.784	93.69
257	46.59
257.217	32.26
257.433	24.06
257.65	69.12
257.866	44.54
258.082	36.35
258.299	54.78
258.515	85.5
258.732	110.08
258.948	-37.38
259.165	19.97
259.381	44.54
259.597	15.87
259.814	54.78
260.03	83.45
260.246	44.54
260.463	73.21
260.679	30.21
260.895	81.41
261.112	62.98
261.328	40.45
261.544	60.93
261.761	32.26
261.977	93.69
262.193	52.74
262.409	22.02
262.626	-8.7
262.842	50.69
263.058	62.98
263.274	32.26
263.49	40.45
263.707	93.69
263.923	65.02
264.139	-35.33
264.355	81.41
264.571	50.69
264.787	69.12
265.004	93.69
265.22	52.74
265.436	36.35
265.652	52.74
265.868	24.06
266.084	26.11
266.3	32.26
266.516	40.45
266.732	56.83
266.948	-18.94
267.164	-12.8
267.38	85.5
267.596	122.37
267.812	99.84
268.028	67.07
268.244	65.02
268.46	71.17
268.676	-16.9
268.892	112.13
269.108	81.41
269.324	15.87
269.54	44.54
269.756	99.84
269.972	54.78
270.188	110.08
270.403	44.54
270.619	75.26
270.835	73.21
271.051	5.63
271.267	81.41
271.483	54.78
271.698	-49.66
271.914	28.16
272.13	11.78
272.346	30.21
272.562	69.12
272.777	7.68
272.993	28.16
273.209	87.55
273.425	105.98
273.64	36.35
273.856	34.3
274.072	67.07
274.287	13.82
274.503	126.46
274.719	83.45
274.934	60.93
275.15	7.68
275.366	65.02
275.581	79.36
275.797	36.35
276.012	19.97
276.228	56.83
276.444	79.36
276.659	56.83
276.875	60.93
277.09	87.55
277.306	46.59
277.521	69.12
277.737	60.93
277.952	38.4
278.168	46.59
278.383	22.02
278.599	79.36
278.814	48.64
279.03	44.54
279.245	32.26
279.461	105.98
279.676	79.36
279.892	58.88
280.107	-0.51
280.322	36.35
280.538	54.78
280.753	62.98
280.969	13.82
281.184	36.35
281.399	142.85
281.615	124.41
281.83	7.68
282.045	122.37
282.26	-4.61
282.476	36.35
282.691	28.16
282.906	56.83
283.122	46.59
283.337	42.5
283.552	54.78
283.767	46.59
283.983	60.93
284.198	118.27
284.413	79.36
284.628	105.98
284.843	24.06
285.058	75.26
285.274	87.55
285.489	24.06
285.704	44.54
285.919	48.64
286.134	87.55
286.349	-4.61
286.564	65.02
286.779	19.97
286.995	44.54
287.21	52.74
287.425	62.98
287.64	-18.94
287.855	54.78
288.07	7.68
288.285	58.88
288.5	-23.04
288.715	-20.99
288.93	56.83
289.145	-0.51
289.36	87.55
289.575	38.4
289.79	87.55
290.004	101.89
290.219	24.06
290.434	58.88
290.649	34.3
290.864	54.78
291.079	40.45
291.294	24.06
291.509	58.88
291.724	-29.18
291.938	65.02
292.153	22.02
292.368	58.88
292.583	65.02
292.798	3.58
293.012	60.93
293.227	79.36
293.442	97.79
293.657	38.4
293.871	87.55
294.086	7.68
294.301	87.55
294.516	15.87
294.73	73.21
294.945	-18.94
295.16	65.02
295.374	69.12
295.589	11.78
295.804	19.97
296.018	-18.94
296.233	7.68
296.447	46.59
296.662	38.4
296.877	52.74
297.091	93.69
297.306	83.45
297.52	32.26
297.735	11.78
297.949	65.02
298.164	75.26
298.378	56.83
298.593	81.41
298.807	108.03
299.022	50.69
299.236	93.69
299.451	19.97
299.665	46.59
299.88	95.74
300.094	97.79
300.309	89.6
300.523	54.78
300.737	48.64
300.952	60.93
301.166	110.08
301.381	9.73
301.595	60.93
301.809	95.74
302.024	36.35
302.238	1.54
302.452	22.02
302.667	22.02
302.881	36.35
303.095	73.21
303.309	93.69
303.524	11.78
303.738	9.73
303.952	3.58
304.166	97.79
304.381	17.92
304.595	15.87
304.809	11.78
305.023	77.31
305.237	44.54
305.452	40.45
305.666	65.02
305.88	62.98
306.094	48.64
306.308	122.37
306.522	52.74
306.736	46.59
306.95	-12.8
307.164	36.35
307.379	62.98
307.593	128.51
307.807	103.93
308.021	-6.66
308.235	42.5
308.449	40.45
308.663	56.83
308.877	73.21
309.091	44.54
309.305	120.32
309.519	46.59
309.733	52.74
309.947	79.36
310.161	48.64
310.374	56.83
310.588	148.99
310.802	81.41
311.016	-27.14
311.23	44.54
311.444	-43.52
311.658	24.06
311.872	13.82
312.085	7.68
312.299	69.12
312.513	-53.76
312.727	36.35
312.941	-39.42
313.154	60.93
313.368	26.11
313.582	83.45
313.796	15.87
314.009	48.64
314.223	40.45
314.437	46.59
314.651	60.93
314.864	134.65
315.078	69.12
315.292	71.17
315.505	46.59
315.719	19.97
315.933	34.3
316.146	-10.75
316.36	44.54
316.573	73.21
316.787	56.83
317.001	126.46
317.214	28.16
317.428	85.5
317.641	81.41
317.855	42.5
318.068	40.45
318.282	69.12
318.495	40.45
318.709	7.68
318.922	67.07
319.136	-2.56
319.349	17.92
319.563	89.6
319.776	71.17
319.99	5.63
320.203	167.42
320.417	-8.7
320.63	79.36
320.843	60.93
321.057	62.98
321.27	36.35
321.483	50.69
321.697	101.89
321.91	103.93
322.124	126.46
322.337	75.26
322.55	30.21
322.763	42.5
322.977	46.59
323.19	-10.75
323.403	114.17
323.617	60.93
323.83	79.36
324.043	26.11
324.256	83.45
324.469	58.88
324.683	73.21
324.896	71.17
325.109	-12.8
325.322	-8.7
325.535	38.4
325.748	91.65
325.962	112.13
326.175	28.16
326.388	114.17
326.601	54.78
326.814	93.69
327.027	108.03
327.24	42.5
327.453	30.21
327.666	83.45
327.879	24.06
328.092	-0.51
328.305	81.41
328.518	62.98
328.731	95.74
328.944	60.93
329.157	44.54
329.37	54.78
329.583	105.98
329.796	22.02
330.009	-8.7
330.222	36.35
330.435	71.17
330.648	46.59
330.861	19.97
331.073	60.93
331.286	24.06
331.499	85.5
331.712	108.03
331.925	79.36
332.138	75.26
332.35	81.41
332.563	38.4
332.776	144.89
332.989	101.89
333.202	44.54
333.414	52.74
333.627	60.93
333.84	3.58
334.053	54.78
334.265	75.26
334.478	69.12
334.691	46.59
334.903	46.59
335.116	77.31
335.329	54.78
335.541	44.54
335.754	85.5
335.966	32.26
336.179	36.35
336.392	34.3
336.604	103.93
336.817	81.41
337.029	24.06
337.242	40.45
337.454	38.4
337.667	40.45
337.88	83.45
338.092	22.02
338.305	83.45
338.517	62.98
338.729	69.12
338.942	75.26
339.154	54.78
339.367	58.88
339.579	28.16
339.792	36.35
340.004	95.74
340.217	62.98
340.429	60.93
340.641	32.26
340.854	81.41
341.066	13.82
341.278	118.27
341.491	56.83
341.703	30.21
341.915	28.16
342.128	46.59
342.34	65.02
342.552	40.45
342.764	77.31
342.977	65.02
343.189	38.4
343.401	19.97
343.613	-16.9
343.826	95.74
344.038	-16.9
344.25	40.45
344.462	79.36
344.674	44.54
344.886	40.45
345.099	77.31
345.311	67.07
345.523	-6.66
345.735	42.5
345.947	142.85
346.159	52.74
346.371	79.36
346.583	50.69
346.795	24.06
347.007	85.5
347.219	112.13
347.431	32.26
347.643	118.27
347.855	85.5
348.067	44.54
348.279	32.26
348.491	85.5
348.703	50.69
348.915	52.74
349.127	91.65
349.339	-4.61
349.551	71.17
349.763	67.07
349.975	17.92
350.187	50.69
350.399	79.36
350.61	81.41
350.822	38.4
351.034	67.07
351.246	83.45
351.458	101.89
351.669	108.03
351.881	60.93
352.093	67.07
352.305	69.12
352.517	93.69
352.728	103.93
352.94	11.78
353.152	87.55
353.363	52.74
353.575	103.93
353.787	73.21
353.999	-2.56
354.21	-2.56
354.422	15.87
354.633	-18.94
354.845	30.21
355.057	77.31
355.268	110.08
355.48	58.88
355.692	48.64
355.903	85.5
356.115	120.32
356.326	79.36
356.538	93.69
356.749	99.84
356.961	-0.51
357.172	142.85
357.384	157.18
357.595	65.02
357.807	101.89
358.018	26.11
358.23	60.93
358.441	48.64
358.653	48.64
358.864	108.03
359.075	9.73
359.287	130.56
359.498	71.17
359.709	-0.51
359.921	112.13
360.132	173.57
360.344	52.74
360.555	54.78
360.766	5.63
360.977	15.87
361.189	136.7
361.4	19.97
361.611	128.51
361.823	62.98
362.034	87.55
362.245	65.02
362.456	89.6
362.667	1.54
362.879	-31.23
363.09	73.21
363.301	48.64
363.512	71.17
363.723	54.78
363.935	75.26
364.146	79.36
364.357	71.17
364.568	171.52
364.779	56.83
364.99	-2.56
365.201	17.92
365.412	85.5
365.623	62.98
365.834	81.41
366.045	11.78
366.256	101.89
366.467	75.26
366.678	81.41
366.889	36.35
367.1	60.93
367.311	30.21
367.522	65.02
367.733	32.26
367.944	50.69
368.155	50.69
368.366	36.35
368.577	87.55
368.788	75.26
368.999	112.13
369.209	28.16
369.42	11.78
369.631	101.89
369.842	48.64
370.053	38.4
370.264	58.88
370.474	-4.61
370.685	67.07
370.896	9.73
371.107	103.93
371.317	105.98
371.528	73.21
371.739	67.07
371.95	73.21
372.16	32.26
372.371	91.65
372.582	52.74
372.792	65.02
373.003	120.32
373.214	97.79
373.424	79.36
373.635	87.55
373.846	58.88
374.056	15.87
374.267	73.21
374.477	-4.61
374.688	79.36
374.898	38.4
375.109	99.84
375.319	79.36
375.53	116.22
375.74	50.69
375.951	71.17
376.161	151.04
376.372	65.02
376.582	46.59
376.793	56.83
377.003	103.93
377.214	36.35
377.424	42.5
377.635	81.41
377.845	19.97
378.055	58.88
378.266	67.07
378.476	134.65
378.686	83.45
378.897	142.85
379.107	67.07
379.317	108.03
379.528	73.21
379.738	58.88
379.948	26.11
380.158	54.78
380.369	103.93
380.579	28.16
380.789	50.69
380.999	60.93
381.21	38.4
381.42	32.26
381.63	103.93
381.84	50.69
382.05	32.26
382.261	151.04
382.471	-0.51
382.681	97.79
382.891	103.93
383.101	77.31
383.311	136.7
383.521	126.46
383.731	116.22
383.941	144.89
384.151	65.02
384.361	32.26
384.571	89.6
384.781	134.65
384.991	85.5
385.201	134.65
385.411	36.35
385.621	103.93
385.831	9.73
386.041	71.17
386.251	126.46
386.461	75.26
386.671	95.74
386.881	54.78
387.091	67.07
387.301	97.79
387.511	91.65
387.72	56.83
387.93	126.46
388.14	54.78
388.35	46.59
388.56	114.17
388.769	114.17
388.979	71.17
389.189	67.07
389.399	58.88
389.609	9.73
389.818	134.65
390.028	38.4
390.238	30.21
390.447	60.93
390.657	114.17
390.867	38.4
391.076	38.4
391.286	144.89
391.496	93.69
391.705	58.88
391.915	110.08
392.125	17.92
392.334	79.36
392.544	108.03
392.753	69.12
392.963	116.22
393.172	83.45
393.382	32.26
393.591	138.75
393.801	99.84
394.01	54.78
394.22	134.65
394.429	138.75
394.639	126.46
394.848	116.22
395.058	105.98
395.267	112.13
395.477	169.47
395.686	142.85
395.895	87.55
396.105	97.79
396.314	110.08
396.524	114.17
396.733	103.93
396.942	75.26
397.152	157.18
397.361	146.94
397.57	56.83
397.78	77.31
397.989	142.85
398.198	163.33
398.407	103.93
398.617	155.13
398.826	120.32
399.035	153.09
399.244	120.32
399.453	120.32
399.663	103.93
399.872	173.57
400.081	120.32
400.29	159.23
400.499	114.17
400.708	200.19
400.917	67.07
401.127	142.85
401.336	151.04
401.545	185.85
401.754	118.27
401.963	181.76
402.172	60.93
402.381	83.45
402.59	105.98
402.799	138.75
403.008	60.93
403.217	159.23
403.426	167.42
403.635	151.04
403.844	144.89
404.053	171.52
404.262	183.81
404.471	142.85
404.68	134.65
404.888	165.37
405.097	155.13
405.306	187.9
405.515	175.61
405.724	130.56
405.933	159.23
406.142	179.71
406.35	97.79
406.559	198.14
406.768	200.19
406.977	185.85
407.185	232.96
407.394	232.96
407.603	200.19
407.812	222.72
408.02	249.34
408.229	230.91
408.438	206.33
408.646	269.82
408.855	253.44
409.064	261.63
409.272	327.16
409.481	331.26
409.69	304.64
409.898	353.79
410.107	382.46
410.315	298.49
410.524	372.22
410.733	370.17
410.941	339.45
411.15	366.07
411.358	343.55
411.567	443.9
411.775	380.41
411.984	411.13
412.192	398.84
412.401	411.13
412.609	501.24
412.818	439.8
413.026	491
413.234	480.76
413.443	478.71
413.651	525.82
413.86	538.1
414.068	568.82
414.276	599.54
414.485	617.97
414.693	628.21
414.901	562.68
415.11	667.13
415.318	710.13
415.526	747
415.734	742.9
415.943	830.96
416.151	822.77
416.359	736.76
416.567	910.83
416.776	951.79
416.984	916.98
417.192	904.69
417.4	943.6
417.608	914.93
417.817	1021.42
418.025	1076.72
418.233	1211.89
418.441	1101.3
418.649	1226.22
418.857	1408.49
419.065	1211.89
419.273	1222.13
419.481	1242.61
419.689	1414.63
419.897	1488.36
420.105	1590.76
420.313	1469.93
420.521	1431.02
420.729	1584.62
420.937	1580.52
421.145	1650.15
421.353	1738.21
421.561	1783.27
421.769	1848.8
421.977	1988.07
422.185	1969.63
422.393	2010.59
422.601	2104.8
422.809	2156
423.017	2203.1
423.224	2233.82
423.432	2418.14
423.64	2446.81
423.848	2643.42
424.056	2655.7
424.263	2721.24
424.471	2749.91
424.679	2862.55
424.887	2913.75
425.094	3083.73
425.302	3063.25
425.51	3108.3
425.718	3304.91
425.925	3370.44
426.133	3427.79
426.341	3501.51
426.548	3712.46
426.756	3812.81
426.964	3872.2
427.171	4124.1
427.379	4251.07
427.586	4195.78
427.794	4289.98
428.001	4621.75
428.209	4656.57
428.417	4767.16
428.624	4912.57
428.832	4849.08
429.039	4976.05
429.247	5076.4
429.454	5334.45
429.662	5641.64
429.869	5434.8
430.076	5928.36
430.284	5651.88
430.491	5928.36
430.699	6116.77
430.906	6262.18
431.114	6301.09
431.321	6542.75
431.528	6741.4
431.736	7073.17
431.943	7314.83
432.15	7028.12
432.358	7243.15
432.565	7845.26
432.772	7601.55
432.979	7916.94
433.187	8005
433.394	8271.23
433.601	8654.2
433.808	8660.35
434.016	8619.39
434.223	9209.2
434.43	9635.18
434.637	9362.8
434.844	9846.12
435.052	10063.21
435.259	10163.56
435.466	10110.31
435.673	10046.82
435.88	10712.41
436.087	11400.53
436.294	11289.94
436.501	10980.7
436.708	11232.6
436.915	11677.01
437.122	11978.06
437.329	12162.37
437.537	12766.53
437.743	12744
437.95	12606.78
438.157	13223.22
438.364	14013.74
438.571	13839.66
438.778	13870.38
438.985	15064.35
439.192	14578.98
439.399	15039.77
439.606	14574.88
439.813	15353.11
440.02	16266.5
440.227	15973.64
440.433	15721.74
440.64	16534.79
440.847	16274.7
441.054	16631.04
441.261	17999.09
441.467	17720.56
441.674	17882.35
441.881	18619.62
442.088	18492.65
442.294	18396.39
442.501	18967.77
442.708	19215.58
442.914	20063.44
443.121	21044.41
443.328	20319.43
443.534	21791.92
443.741	20888.77
443.948	21038.27
444.154	22205.61
444.361	21925.04
444.568	22305.96
444.774	22404.27
444.981	22596.78
445.187	23116.96
445.394	24214.67
445.6	23880.85
445.807	26496.11
446.013	25078.91
446.22	25676.92
446.426	26739.82
446.633	26852.45
446.839	27815
447.046	26651.75
447.252	27774.04
447.459	28261.46
447.665	27972.69
447.871	29152.32
448.078	30350.38
448.284	28867.66
448.491	29645.88
448.697	30835.75
448.903	31355.94
449.11	31493.15
449.316	31157.28
449.522	31489.06
449.728	32494.61
449.935	32625.68
450.141	32705.55
450.347	33678.33
450.553	32293.91
450.76	32750.6
450.966	33659.9
451.172	33524.74
451.378	34307.06
451.584	33459.2
451.791	34325.49
451.997	34044.92
452.203	34876.4
452.409	34696.17
452.615	34550.77
452.821	33086.47
453.027	33258.5
453.233	34425.84
453.44	33358.85
453.646	33856.51
453.852	33840.12
454.058	34366.45
454.264	33199.11
454.47	33856.51
454.676	33209.35
454.882	34169.85
455.088	31282.21
455.294	31847.45
455.5	32025.62
455.705	32435.22
455.911	31036.45
456.117	30538.8
456.323	30350.38
456.529	28814.41
456.735	29674.56
456.941	29129.8
457.147	28626
457.352	27741.27
457.558	27628.63
457.764	27765.85
457.97	27487.32
458.176	26420.33
458.381	26655.85
458.587	25123.97
458.793	24974.47
458.999	23891.09
459.204	25758.84
459.41	24849.54
459.616	23094.43
459.821	23325.85
460.027	23047.33
460.233	22703.27
460.438	21650.61
460.644	21810.36
460.85	20530.37
461.055	20548.81
461.261	20657.35
461.466	19236.06
461.672	18300.14
461.878	19590.36
462.083	18349.29
462.289	18228.46
462.494	18115.82
462.7	17235.19
462.905	16553.22
463.111	17380.6
463.316	17507.57
463.522	17059.07
463.727	16919.81
463.932	16876.8
464.138	16811.26
464.343	17034.49
464.549	16336.13
464.754	17177.85
464.959	16807.17
465.165	16618.75
465.37	15781.14
465.575	15521.04
465.781	16317.7
465.986	16502.02
466.191	15645.97
466.397	15541.52
466.602	14847.26
466.807	15559.95
467.012	15224.09
467.218	15160.6
467.423	15004.96
467.628	15111.45
