Data from USB4F104151__25__13-52-39-702.txt Node

Date: Thu Mar 13 13:52:39 EDT 2025
User: louis
Spectrometer: USB4F10415
Trigger mode: 4
Integration Time (sec): 1.000000E-2
Scans to average: 1
Electric dark correction enabled: true
Nonlinearity correction enabled: false
Boxcar width: 0
XAxis mode: Wavelengths
Number of Pixels in Spectrum: 3648
>>>>>Begin Spectral Data<<<<<
178.204	-7
178.424	-7
178.644	-7
178.864	-47.96
179.084	-31.57
179.304	27.82
179.524	5.29
179.744	-56.15
179.964	-7
180.184	7.34
180.404	7.34
180.624	17.58
180.844	-4.95
181.064	-52.05
181.283	36.01
181.503	25.77
181.723	-7
181.943	89.26
182.163	33.96
182.383	-21.33
182.602	-2.9
182.822	-17.24
183.042	-56.15
183.262	44.2
183.482	36.01
183.701	33.96
183.921	72.87
184.141	5.29
184.361	-52.05
184.58	81.07
184.8	36.01
185.02	42.15
185.239	-7
185.459	23.72
185.679	44.2
185.898	-17.24
186.118	-23.38
186.338	3.24
186.557	-19.29
186.777	-15.19
186.997	-50
187.216	-84.82
187.436	29.87
187.655	7.34
187.875	48.3
188.095	40.11
188.314	44.2
188.534	27.82
188.753	21.67
188.973	52.39
189.192	5.29
189.412	15.53
189.631	21.67
189.851	-17.24
190.07	-15.19
190.29	15.53
190.509	1.19
190.729	56.49
190.948	68.78
191.168	9.39
191.387	60.59
191.607	-50
191.826	13.48
192.045	-27.48
192.265	-21.33
192.484	3.24
192.704	64.68
192.923	-35.67
193.142	27.82
193.362	-11.09
193.581	21.67
193.8	3.24
194.02	72.87
194.239	-33.62
194.458	29.87
194.678	-70.48
194.897	74.92
195.116	103.59
195.335	-9.05
195.555	-9.05
195.774	-15.19
195.993	1.19
196.212	-43.86
196.432	9.39
196.651	38.06
196.87	1.19
197.089	87.21
197.308	-25.43
197.528	-39.76
197.747	-0.85
197.966	31.91
198.185	-58.2
198.404	-31.57
198.623	48.3
198.842	-2.9
199.062	44.2
199.281	72.87
199.5	-23.38
199.719	54.44
199.938	27.82
200.157	-4.95
200.376	-31.57
200.595	50.35
200.814	-9.05
201.033	11.43
201.252	23.72
201.471	-21.33
201.69	7.34
201.909	33.96
202.128	5.29
202.347	9.39
202.566	-29.52
202.785	15.53
203.004	17.58
203.223	42.15
203.442	56.49
203.661	-23.38
203.879	-4.95
204.098	64.68
204.317	-37.72
204.536	38.06
204.755	29.87
204.974	-19.29
205.193	9.39
205.411	44.2
205.63	-52.05
205.849	-21.33
206.068	72.87
206.287	-2.9
206.505	-45.91
206.724	19.63
206.943	19.63
207.162	83.11
207.381	-0.85
207.599	21.67
207.818	5.29
208.037	19.63
208.255	-2.9
208.474	19.63
208.693	-47.96
208.911	-4.95
209.13	31.91
209.349	-68.44
209.567	31.91
209.786	40.11
210.005	-11.09
210.223	-37.72
210.442	-41.81
210.661	3.24
210.879	44.2
211.098	5.29
211.316	3.24
211.535	-33.62
211.753	-0.85
211.972	-15.19
212.191	50.35
212.409	1.19
212.628	13.48
212.846	-15.19
213.065	48.3
213.283	11.43
213.502	48.3
213.72	33.96
213.938	1.19
214.157	89.26
214.375	25.77
214.594	-11.09
214.812	15.53
215.031	44.2
215.249	-70.48
215.467	-41.81
215.686	23.72
215.904	17.58
216.122	54.44
216.341	13.48
216.559	-2.9
216.778	1.19
216.996	76.97
217.214	15.53
217.432	15.53
217.651	-35.67
217.869	-13.14
218.087	23.72
218.306	1.19
218.524	66.73
218.742	-54.1
218.96	27.82
219.179	-17.24
219.397	15.53
219.615	52.39
219.833	33.96
220.051	-7
220.27	52.39
220.488	-58.2
220.706	-23.38
220.924	7.34
221.142	54.44
221.36	58.54
221.578	19.63
221.796	33.96
222.015	11.43
222.233	38.06
222.451	11.43
222.669	17.58
222.887	17.58
223.105	103.59
223.323	23.72
223.541	-11.09
223.759	31.91
223.977	3.24
224.195	-21.33
224.413	-9.05
224.631	40.11
224.849	31.91
225.067	50.35
225.285	-4.95
225.503	19.63
225.721	13.48
225.939	31.91
226.157	15.53
226.375	38.06
226.592	31.91
226.81	-23.38
227.028	33.96
227.246	31.91
227.464	-90.96
227.682	62.63
227.9	-27.48
228.117	83.11
228.335	-11.09
228.553	15.53
228.771	42.15
228.989	-7
229.206	-9.05
229.424	-29.52
229.642	9.39
229.86	-7
230.077	15.53
230.295	3.24
230.513	-56.15
230.731	-35.67
230.948	81.07
231.166	7.34
231.384	13.48
231.601	1.19
231.819	23.72
232.037	52.39
232.254	42.15
232.472	48.3
232.689	-7
232.907	-41.81
233.125	5.29
233.342	68.78
233.56	42.15
233.777	42.15
233.995	46.25
234.213	15.53
234.43	31.91
234.648	-7
234.865	7.34
235.083	-2.9
235.3	23.72
235.518	-39.76
235.735	13.48
235.953	23.72
236.17	-23.38
236.388	19.63
236.605	5.29
236.822	36.01
237.04	54.44
237.257	17.58
237.475	33.96
237.692	74.92
237.909	72.87
238.127	27.82
238.344	-9.05
238.562	19.63
238.779	-2.9
238.996	81.07
239.214	3.24
239.431	9.39
239.648	27.82
239.865	-15.19
240.083	17.58
240.3	38.06
240.517	-35.67
240.735	40.11
240.952	50.35
241.169	3.24
241.386	-2.9
241.603	38.06
241.821	-41.81
242.038	-7
242.255	70.83
242.472	-17.24
242.689	17.58
242.907	42.15
243.124	58.54
243.341	3.24
243.558	-4.95
243.775	-0.85
243.992	62.63
244.209	21.67
244.426	50.35
244.643	40.11
244.86	36.01
245.078	-13.14
245.295	48.3
245.512	25.77
245.729	27.82
245.946	60.59
246.163	-43.86
246.38	-25.43
246.597	3.24
246.814	91.31
247.031	48.3
247.248	50.35
247.464	74.92
247.681	1.19
247.898	81.07
248.115	40.11
248.332	-93.01
248.549	46.25
248.766	58.54
248.983	52.39
249.2	56.49
249.417	3.24
249.633	36.01
249.85	-15.19
250.067	101.55
250.284	21.67
250.501	76.97
250.717	9.39
250.934	83.11
251.151	83.11
251.368	44.2
251.585	29.87
251.801	83.11
252.018	27.82
252.235	42.15
252.451	-0.85
252.668	17.58
252.885	36.01
253.102	-27.48
253.318	29.87
253.535	-19.29
253.752	-37.72
253.968	46.25
254.185	101.55
254.401	-35.67
254.618	33.96
254.835	-4.95
255.051	1.19
255.268	62.63
255.484	31.91
255.701	23.72
255.917	60.59
256.134	1.19
256.351	33.96
256.567	-0.85
256.784	-15.19
257	58.54
257.217	56.49
257.433	13.48
257.65	-29.52
257.866	-17.24
258.082	-4.95
258.299	-37.72
258.515	-31.57
258.732	62.63
258.948	83.11
259.165	72.87
259.381	95.4
259.597	52.39
259.814	83.11
260.03	46.25
260.246	29.87
260.463	-19.29
260.679	17.58
260.895	105.64
261.112	33.96
261.328	81.07
261.544	-27.48
261.761	38.06
261.977	-17.24
262.193	38.06
262.409	48.3
262.626	-15.19
262.842	23.72
263.058	-33.62
263.274	31.91
263.49	19.63
263.707	72.87
263.923	-33.62
264.139	7.34
264.355	89.26
264.571	44.2
264.787	25.77
265.004	44.2
265.22	52.39
265.436	46.25
265.652	-4.95
265.868	76.97
266.084	-33.62
266.3	21.67
266.516	74.92
266.732	3.24
266.948	-41.81
267.164	76.97
267.38	-15.19
267.596	19.63
267.812	40.11
268.028	19.63
268.244	38.06
268.46	62.63
268.676	-62.29
268.892	17.58
269.108	5.29
269.324	66.73
269.54	7.34
269.756	-27.48
269.972	-86.87
270.188	38.06
270.403	62.63
270.619	-23.38
270.835	-0.85
271.051	-21.33
271.267	-4.95
271.483	-7
271.698	48.3
271.914	25.77
272.13	-9.05
272.346	-23.38
272.562	-13.14
272.777	62.63
272.993	48.3
273.209	5.29
273.425	117.93
273.64	-11.09
273.856	56.49
274.072	-45.91
274.287	44.2
274.503	23.72
274.719	54.44
274.934	-29.52
275.15	21.67
275.366	36.01
275.581	7.34
275.797	48.3
276.012	31.91
276.228	31.91
276.444	29.87
276.659	-35.67
276.875	60.59
277.09	17.58
277.306	52.39
277.521	58.54
277.737	46.25
277.952	17.58
278.168	58.54
278.383	64.68
278.599	-2.9
278.814	70.83
279.03	62.63
279.245	31.91
279.461	40.11
279.676	50.35
279.892	-0.85
280.107	23.72
280.322	48.3
280.538	11.43
280.753	-0.85
280.969	36.01
281.184	7.34
281.399	48.3
281.615	46.25
281.83	13.48
282.045	25.77
282.26	81.07
282.476	48.3
282.691	3.24
282.906	7.34
283.122	-9.05
283.337	87.21
283.552	58.54
283.767	-33.62
283.983	3.24
284.198	11.43
284.413	-11.09
284.628	64.68
284.843	89.26
285.058	27.82
285.274	72.87
285.489	3.24
285.704	38.06
285.919	-11.09
286.134	62.63
286.349	91.31
286.564	13.48
286.779	5.29
286.995	50.35
287.21	-27.48
287.425	3.24
287.64	-17.24
287.855	31.91
288.07	3.24
288.285	23.72
288.5	-17.24
288.715	79.02
288.93	76.97
289.145	64.68
289.36	74.92
289.575	60.59
289.79	15.53
290.004	50.35
290.219	33.96
290.434	54.44
290.649	38.06
290.864	54.44
291.079	23.72
291.294	21.67
291.509	13.48
291.724	3.24
291.938	27.82
292.153	91.31
292.368	-0.85
292.583	76.97
292.798	44.2
293.012	113.83
293.227	13.48
293.442	23.72
293.657	50.35
293.871	85.16
294.086	44.2
294.301	58.54
294.516	1.19
294.73	48.3
294.945	97.45
295.16	3.24
295.374	3.24
295.589	44.2
295.804	1.19
296.018	54.44
296.233	40.11
296.447	-7
296.662	23.72
296.877	70.83
297.091	23.72
297.306	19.63
297.52	128.17
297.735	33.96
297.949	11.43
298.164	9.39
298.378	40.11
298.593	44.2
298.807	-15.19
299.022	119.98
299.236	29.87
299.451	50.35
299.665	40.11
299.88	-33.62
300.094	-11.09
300.309	-47.96
300.523	50.35
300.737	93.35
300.952	46.25
301.166	72.87
301.381	33.96
301.595	58.54
301.809	9.39
302.024	-11.09
302.238	-4.95
302.452	40.11
302.667	-2.9
302.881	91.31
303.095	40.11
303.309	66.73
303.524	27.82
303.738	15.53
303.952	7.34
304.166	89.26
304.381	-2.9
304.595	33.96
304.809	31.91
305.023	5.29
305.237	42.15
305.452	27.82
305.666	93.35
305.88	70.83
306.094	66.73
306.308	50.35
306.522	-41.81
306.736	-17.24
306.95	56.49
307.164	-9.05
307.379	44.2
307.593	52.39
307.807	-0.85
308.021	85.16
308.235	38.06
308.449	-19.29
308.663	25.77
308.877	126.12
309.091	48.3
309.305	17.58
309.519	42.15
309.733	74.92
309.947	-4.95
310.161	46.25
310.374	33.96
310.588	93.35
310.802	17.58
311.016	29.87
311.23	36.01
311.444	66.73
311.658	44.2
311.872	25.77
312.085	19.63
312.299	83.11
312.513	38.06
312.727	46.25
312.941	54.44
313.154	38.06
313.368	48.3
313.582	58.54
313.796	13.48
314.009	-4.95
314.223	9.39
314.437	52.39
314.651	-17.24
314.864	27.82
315.078	-52.05
315.292	-21.33
315.505	-0.85
315.719	9.39
315.933	-17.24
316.146	11.43
316.36	-13.14
316.573	21.67
316.787	5.29
317.001	87.21
317.214	87.21
317.428	36.01
317.641	38.06
317.855	-39.76
318.068	44.2
318.282	3.24
318.495	5.29
318.709	-29.52
318.922	33.96
319.136	50.35
319.349	36.01
319.563	40.11
319.776	42.15
319.99	-11.09
320.203	56.49
320.417	68.78
320.63	54.44
320.843	44.2
321.057	72.87
321.27	79.02
321.483	79.02
321.697	19.63
321.91	-27.48
322.124	52.39
322.337	21.67
322.55	9.39
322.763	85.16
322.977	13.48
323.19	-21.33
323.403	19.63
323.617	62.63
323.83	85.16
324.043	38.06
324.256	40.11
324.469	68.78
324.683	33.96
324.896	36.01
325.109	87.21
325.322	23.72
325.535	70.83
325.748	-41.81
325.962	52.39
326.175	15.53
326.388	42.15
326.601	-45.91
326.814	56.49
327.027	33.96
327.24	33.96
327.453	58.54
327.666	38.06
327.879	64.68
328.092	66.73
328.305	62.63
328.518	15.53
328.731	62.63
328.944	54.44
329.157	-13.14
329.37	-21.33
329.583	38.06
329.796	5.29
330.009	31.91
330.222	-35.67
330.435	-13.14
330.648	29.87
330.861	23.72
331.073	-13.14
331.286	33.96
331.499	15.53
331.712	52.39
331.925	31.91
332.138	1.19
332.35	-11.09
332.563	3.24
332.776	52.39
332.989	-13.14
333.202	21.67
333.414	-25.43
333.627	42.15
333.84	-15.19
334.053	21.67
334.265	31.91
334.478	5.29
334.691	7.34
334.903	27.82
335.116	-0.85
335.329	-13.14
335.541	85.16
335.754	56.49
335.966	13.48
336.179	56.49
336.392	56.49
336.604	-39.76
336.817	81.07
337.029	7.34
337.242	-25.43
337.454	17.58
337.667	64.68
337.88	-15.19
338.092	33.96
338.305	33.96
338.517	31.91
338.729	66.73
338.942	-0.85
339.154	91.31
339.367	-11.09
339.579	11.43
339.792	52.39
340.004	9.39
340.217	5.29
340.429	29.87
340.641	103.59
340.854	64.68
341.066	-4.95
341.278	60.59
341.491	-2.9
341.703	-39.76
341.915	48.3
342.128	52.39
342.34	52.39
342.552	40.11
342.764	-21.33
342.977	36.01
343.189	36.01
343.401	33.96
343.613	27.82
343.826	89.26
344.038	-19.29
344.25	-7
344.462	-31.57
344.674	31.91
344.886	27.82
345.099	19.63
345.311	25.77
345.523	76.97
345.735	36.01
345.947	56.49
346.159	36.01
346.371	74.92
346.583	68.78
346.795	89.26
347.007	21.67
347.219	31.91
347.431	103.59
347.643	40.11
347.855	54.44
348.067	19.63
348.279	19.63
348.491	52.39
348.703	42.15
348.915	68.78
349.127	1.19
349.339	-66.39
349.551	33.96
349.763	36.01
349.975	-43.86
350.187	48.3
350.399	-4.95
350.61	19.63
350.822	-15.19
351.034	7.34
351.246	15.53
351.458	72.87
351.669	-11.09
351.881	38.06
352.093	3.24
352.305	66.73
352.517	-9.05
352.728	81.07
352.94	76.97
353.152	3.24
353.363	31.91
353.575	81.07
353.787	42.15
353.999	95.4
354.21	19.63
354.422	29.87
354.633	13.48
354.845	60.59
355.057	13.48
355.268	42.15
355.48	101.55
355.692	-17.24
355.903	54.44
356.115	64.68
356.326	-35.67
356.538	81.07
356.749	72.87
356.961	-2.9
357.172	85.16
357.384	31.91
357.595	111.78
357.807	23.72
358.018	-19.29
358.23	7.34
358.441	-21.33
358.653	7.34
358.864	23.72
359.075	-7
359.287	79.02
359.498	46.25
359.709	9.39
359.921	87.21
360.132	-11.09
360.344	33.96
360.555	103.59
360.766	3.24
360.977	62.63
361.189	-29.52
361.4	58.54
361.611	93.35
361.823	36.01
362.034	76.97
362.245	62.63
362.456	11.43
362.667	-9.05
362.879	25.77
363.09	11.43
363.301	-29.52
363.512	5.29
363.723	44.2
363.935	-33.62
364.146	74.92
364.357	40.11
364.568	74.92
364.779	72.87
364.99	21.67
365.201	68.78
365.412	111.78
365.623	-39.76
365.834	17.58
366.045	79.02
366.256	72.87
366.467	25.77
366.678	68.78
366.889	19.63
367.1	66.73
367.311	17.58
367.522	-9.05
367.733	83.11
367.944	52.39
368.155	15.53
368.366	44.2
368.577	105.64
368.788	33.96
368.999	40.11
369.209	23.72
369.42	52.39
369.631	54.44
369.842	-17.24
370.053	46.25
370.264	17.58
370.474	-0.85
370.685	31.91
370.896	-13.14
371.107	31.91
371.317	93.35
371.528	101.55
371.739	48.3
371.95	-39.76
372.16	29.87
372.371	70.83
372.582	27.82
372.792	-29.52
373.003	36.01
373.214	-19.29
373.424	7.34
373.635	7.34
373.846	-2.9
374.056	29.87
374.267	101.55
374.477	66.73
374.688	1.19
374.898	-27.48
375.109	105.64
375.319	46.25
375.53	91.31
375.74	173.22
375.951	122.02
376.161	-31.57
376.372	54.44
376.582	29.87
376.793	27.82
377.003	81.07
377.214	-15.19
377.424	52.39
377.635	31.91
377.845	87.21
378.055	44.2
378.266	3.24
378.476	40.11
378.686	13.48
378.897	36.01
379.107	46.25
379.317	68.78
379.528	33.96
379.738	23.72
379.948	56.49
380.158	99.5
380.369	-56.15
380.579	1.19
380.789	81.07
380.999	50.35
381.21	50.35
381.42	17.58
381.63	89.26
381.84	66.73
382.05	44.2
382.261	62.63
382.471	40.11
382.681	66.73
382.891	48.3
383.101	36.01
383.311	3.24
383.521	85.16
383.731	40.11
383.941	60.59
384.151	-43.86
384.361	19.63
384.571	97.45
384.781	15.53
384.991	44.2
385.201	66.73
385.411	85.16
385.621	38.06
385.831	31.91
386.041	48.3
386.251	17.58
386.461	42.15
386.671	7.34
386.881	79.02
387.091	-41.81
387.301	101.55
387.511	-21.33
387.72	79.02
387.93	23.72
388.14	33.96
388.35	52.39
388.56	58.54
388.769	62.63
388.979	50.35
389.189	64.68
389.399	60.59
389.609	44.2
389.818	48.3
390.028	-31.57
390.238	68.78
390.447	1.19
390.657	72.87
390.867	101.55
391.076	60.59
391.286	72.87
391.496	62.63
391.705	70.83
391.915	19.63
392.125	79.02
392.334	117.93
392.544	70.83
392.753	76.97
392.963	56.49
393.172	103.59
393.382	25.77
393.591	44.2
393.801	126.12
394.01	83.11
394.22	1.19
394.429	21.67
394.639	23.72
394.848	58.54
395.058	60.59
395.267	13.48
395.477	44.2
395.686	91.31
395.895	111.78
396.105	50.35
396.314	66.73
396.524	31.91
396.733	50.35
396.942	85.16
397.152	68.78
397.361	85.16
397.57	-11.09
397.78	25.77
397.989	50.35
398.198	-0.85
398.407	52.39
398.617	60.59
398.826	62.63
399.035	124.07
399.244	99.5
399.453	42.15
399.663	62.63
399.872	38.06
400.081	79.02
400.29	95.4
400.499	62.63
400.708	62.63
400.917	36.01
401.127	66.73
401.336	115.88
401.545	109.74
401.754	95.4
401.963	56.49
402.172	134.31
402.381	113.83
402.59	87.21
402.799	140.46
403.008	50.35
403.217	99.5
403.426	146.6
403.635	13.48
403.844	165.03
404.053	107.69
404.262	187.56
404.471	173.22
404.68	134.31
404.888	99.5
405.097	89.26
405.306	42.15
405.515	76.97
405.724	107.69
405.933	119.98
406.142	83.11
406.35	109.74
406.559	134.31
406.768	132.26
406.977	167.08
407.185	136.36
407.394	148.65
407.603	173.22
407.812	189.61
408.02	210.09
408.229	105.64
408.438	144.55
408.646	253.09
408.855	113.83
409.064	150.7
409.272	230.57
409.481	189.61
409.69	165.03
409.898	199.85
410.107	234.66
410.315	203.94
410.524	199.85
410.733	261.29
410.941	222.38
411.15	259.24
411.358	339.11
411.567	271.53
411.775	281.77
411.984	261.29
412.192	302.25
412.401	296.1
412.609	351.4
412.818	404.64
413.026	408.74
413.234	255.14
413.443	294.05
413.651	355.49
413.86	371.88
414.068	423.08
414.276	373.92
414.485	425.12
414.693	470.18
414.901	511.14
415.11	513.19
415.318	509.09
415.526	470.18
415.734	496.8
415.943	545.95
416.151	593.06
416.359	584.87
416.567	537.76
416.776	603.3
416.984	586.91
417.192	681.12
417.4	677.02
417.608	650.4
417.817	728.22
418.025	734.37
418.233	822.43
418.441	758.94
418.649	705.7
418.857	873.63
419.065	871.58
419.273	951.45
419.481	1033.37
419.689	1078.43
419.897	992.41
420.105	1074.33
420.313	1137.82
420.521	1146.01
420.729	1197.21
420.937	1182.87
421.145	1174.68
421.353	1242.26
421.561	1338.52
421.769	1299.61
421.977	1514.64
422.185	1328.28
422.393	1524.88
422.601	1649.81
422.809	1563.79
423.017	1547.41
423.224	1590.42
423.432	1744.02
423.64	1754.26
423.848	1883.28
424.056	1832.08
424.263	1889.42
424.471	1922.19
424.679	1901.71
424.887	2079.88
425.094	2292.87
425.302	2067.6
425.51	2163.85
425.718	2251.91
425.925	2370.69
426.133	2335.88
426.341	2483.33
426.548	2653.31
426.756	2630.79
426.964	2669.7
427.171	2864.25
427.379	2808.96
427.586	2837.63
427.794	3110.01
428.001	3175.55
428.209	3333.24
428.417	3353.72
428.624	3642.48
428.832	3576.95
429.039	3542.13
429.247	3415.16
429.454	3806.32
429.662	4062.32
429.869	3734.64
430.076	4174.95
430.284	4105.32
430.491	4201.58
430.699	4459.62
430.906	4430.95
431.114	4463.72
431.321	4627.56
431.528	4699.23
431.736	5149.79
431.943	5129.31
432.15	5203.04
432.358	5086.3
432.565	5487.7
432.772	5428.31
432.979	5862.48
433.187	5792.85
433.394	5876.82
433.601	6177.87
433.808	6145.1
434.016	6106.19
434.223	6517.83
434.43	6861.89
434.637	6716.48
434.844	6988.86
435.052	7177.28
435.259	7140.41
435.466	7308.35
435.673	7191.61
435.88	7650.36
436.087	7998.51
436.294	8170.54
436.501	7871.54
436.708	8076.34
436.915	8211.5
437.122	8844.32
437.329	8703.01
437.537	8969.25
437.743	9194.53
437.95	9036.83
438.157	9579.54
438.364	9919.51
438.571	9763.86
438.778	9919.51
438.985	10738.69
439.192	10314.77
439.399	10847.24
439.606	10578.95
439.813	11084.8
440.02	11760.63
440.227	11682.81
440.433	11607.03
440.64	11715.58
440.847	11758.58
441.054	12071.92
441.261	12860.39
441.467	12680.17
441.674	12968.93
441.881	13558.75
442.088	13335.52
442.294	13198.31
442.501	13638.62
442.708	13894.61
442.914	14582.73
443.121	15115.2
443.328	14584.78
443.534	15553.47
443.741	15354.82
443.948	15078.34
444.154	16118.71
444.361	15958.97
444.568	16315.31
444.774	16034.74
444.981	16518.06
445.187	16944.04
445.394	17542.05
445.6	16958.38
445.807	19032.97
446.013	18150.29
446.22	18363.28
446.426	19291.01
446.633	19555.2
446.839	20507.51
447.046	19434.37
447.252	20224.89
447.459	20609.9
447.665	20325.24
447.871	21191.53
448.078	22043.48
448.284	20974.44
448.491	21640.03
448.697	22342.49
448.903	23042.89
449.11	22520.66
449.316	22291.29
449.522	22809.42
449.728	23438.15
449.935	23696.19
450.141	23700.29
450.347	24269.62
450.553	23477.06
450.76	23630.66
450.966	24466.23
451.172	24193.85
451.378	24773.42
451.584	24300.34
451.791	24849.2
451.997	24795.95
452.203	25199.4
452.409	25273.13
452.615	24816.43
452.821	24245.05
453.027	23782.21
453.233	25301.8
453.44	24206.14
453.646	24513.33
453.852	24453.94
454.058	24845.1
454.264	24386.36
454.47	24736.56
454.676	23808.83
454.882	24585.01
455.088	22739.79
455.294	22698.83
455.5	23186.25
455.705	23442.24
455.911	22354.77
456.117	21805.92
456.323	21803.87
456.529	20730.73
456.735	21355.36
456.941	21425
457.147	20632.43
457.352	19739.52
457.558	19843.96
457.764	19831.68
457.97	19342.21
458.176	18983.82
458.381	18852.75
458.587	18113.43
458.793	18058.14
458.999	16987.05
459.204	18258.84
459.41	17890.2
459.616	16550.83
459.821	16688.04
460.027	16694.19
460.233	15993.78
460.438	15567.81
460.644	15578.04
460.85	15014.85
461.055	14588.88
461.261	14709.71
461.466	13669.34
461.672	13175.78
461.878	14177.23
462.083	13360.09
462.289	13145.06
462.494	12864.49
462.7	12239.86
462.905	11983.86
463.111	12368.88
463.316	12196.85
463.522	11992.05
463.727	12225.52
463.932	12192.75
464.138	12088.31
464.343	12248.05
464.549	11863.03
464.754	12166.13
464.959	12059.63
465.165	12030.96
465.37	11572.22
465.575	11332.61
465.781	11707.38
465.986	11731.96
466.191	11242.5
466.397	11181.06
466.602	10480.65
466.807	10931.2
467.012	11074.56
467.218	11201.54
467.423	10783.75
467.628	10691.59
467.833	11262.97
468.038	10937.35
468.244	10484.75
468.449	10986.5
468.654	10777.61
468.859	10660.87
