Data from USB4F104151__98__13-54-37-929.txt Node

Date: Thu Mar 13 13:54:37 EDT 2025
User: louis
Spectrometer: USB4F10415
Trigger mode: 4
Integration Time (sec): 1.000000E-2
Scans to average: 1
Electric dark correction enabled: true
Nonlinearity correction enabled: false
Boxcar width: 0
XAxis mode: Wavelengths
Number of Pixels in Spectrum: 3648
>>>>>Begin Spectral Data<<<<<
178.204	-13.99
178.424	-13.99
178.644	-13.99
178.864	-34.47
179.084	18.77
179.304	26.96
179.524	-87.72
179.744	47.44
179.964	45.4
180.184	55.64
180.404	-20.14
180.624	-71.34
180.844	-48.81
181.064	31.06
181.283	41.3
181.503	-71.34
181.723	51.54
181.943	-20.14
182.163	-9.9
182.383	-3.75
182.602	-38.57
182.822	33.11
183.042	-16.04
183.262	59.73
183.482	-69.29
183.701	-11.95
183.921	-34.47
184.141	-5.8
184.361	20.82
184.58	0.34
184.8	-54.95
185.02	43.35
185.239	63.83
185.459	-20.14
185.679	-13.99
185.898	33.11
186.118	49.49
186.338	6.49
186.557	33.11
186.777	-71.34
186.997	65.88
187.216	-46.76
187.436	-20.14
187.655	55.64
187.875	10.58
188.095	-40.62
188.314	49.49
188.534	39.25
188.753	16.73
188.973	10.58
189.192	43.35
189.412	8.53
189.631	20.82
189.851	49.49
190.07	-18.09
190.29	20.82
190.509	-24.23
190.729	47.44
190.948	39.25
191.168	10.58
191.387	-28.33
191.607	20.82
191.826	-16.04
192.045	-57
192.265	-20.14
192.484	-75.43
192.704	-50.86
192.923	59.73
193.142	35.16
193.362	0.34
193.581	-50.86
193.8	20.82
194.02	12.63
194.239	-22.19
194.458	10.58
194.678	47.44
194.897	-5.8
195.116	-30.38
195.335	-1.71
195.555	-32.43
195.774	4.44
195.993	-38.57
196.212	-30.38
196.432	-28.33
196.651	37.2
196.87	2.39
197.089	-16.04
197.308	26.96
197.528	-18.09
197.747	55.64
197.966	12.63
198.185	-36.52
198.404	33.11
198.623	-20.14
198.842	35.16
199.062	2.39
199.281	4.44
199.5	-22.19
199.719	-28.33
199.938	-22.19
200.157	18.77
200.376	37.2
200.595	-7.85
200.814	-38.57
201.033	-34.47
201.252	0.34
201.471	6.49
201.69	22.87
201.909	0.34
202.128	26.96
202.347	16.73
202.566	18.77
202.785	51.54
203.004	20.82
203.223	76.12
203.442	37.2
203.661	6.49
203.879	-11.95
204.098	-34.47
204.317	-30.38
204.536	33.11
204.755	-5.8
204.974	6.49
205.193	51.54
205.411	41.3
205.63	12.63
205.849	-16.04
206.068	6.49
206.287	33.11
206.505	-75.43
206.724	-40.62
206.943	43.35
207.162	4.44
207.381	-24.23
207.599	2.39
207.818	-95.91
208.037	-83.63
208.255	-59.05
208.474	29.01
208.693	-36.52
208.911	18.77
209.13	-16.04
209.349	12.63
209.567	-26.28
209.786	-20.14
210.005	-16.04
210.223	-26.28
210.442	-16.04
210.661	-5.8
210.879	-28.33
211.098	12.63
211.316	20.82
211.535	74.07
211.753	10.58
211.972	-1.71
212.191	2.39
212.409	-1.71
212.628	-26.28
212.846	-24.23
213.065	-7.85
213.283	-7.85
213.502	-20.14
213.72	-32.43
213.938	-18.09
214.157	29.01
214.375	55.64
214.594	-42.67
214.812	-13.99
215.031	-9.9
215.249	-36.52
215.467	26.96
215.686	10.58
215.904	57.68
216.122	59.73
216.341	-38.57
216.559	65.88
216.778	84.31
216.996	72.02
217.214	-16.04
217.432	-30.38
217.651	8.53
217.869	-50.86
218.087	72.02
218.306	-40.62
218.524	-30.38
218.742	-38.57
218.96	-20.14
219.179	-61.1
219.397	16.73
219.615	26.96
219.833	31.06
220.051	12.63
220.27	41.3
220.488	-3.75
220.706	-1.71
220.924	-38.57
221.142	0.34
221.36	-20.14
221.578	-30.38
221.796	-11.95
222.015	-34.47
222.233	-38.57
222.451	26.96
222.669	-26.28
222.887	20.82
223.105	-38.57
223.323	35.16
223.541	-34.47
223.759	-13.99
223.977	6.49
224.195	-3.75
224.413	22.87
224.631	2.39
224.849	-36.52
225.067	33.11
225.285	14.68
225.503	-5.8
225.721	8.53
225.939	-20.14
226.157	-5.8
226.375	39.25
226.592	-20.14
226.81	10.58
227.028	14.68
227.246	49.49
227.464	-7.85
227.682	35.16
227.9	-59.05
228.117	-28.33
228.335	26.96
228.553	41.3
228.771	-59.05
228.989	16.73
229.206	-46.76
229.424	-28.33
229.642	-20.14
229.86	2.39
230.077	-44.71
230.295	59.73
230.513	26.96
230.731	8.53
230.948	-30.38
231.166	65.88
231.384	39.25
231.601	-85.67
231.819	43.35
232.037	2.39
232.254	74.07
232.472	0.34
232.689	31.06
232.907	-16.04
233.125	-32.43
233.342	-7.85
233.56	16.73
233.777	-18.09
233.995	-44.71
234.213	-22.19
234.43	-18.09
234.648	22.87
234.865	-26.28
235.083	-48.81
235.3	10.58
235.518	14.68
235.735	2.39
235.953	-61.1
236.17	20.82
236.388	-5.8
236.605	-22.19
236.822	84.31
237.04	-24.23
237.257	29.01
237.475	12.63
237.692	18.77
237.909	-26.28
238.127	31.06
238.344	43.35
238.562	63.83
238.779	12.63
238.996	29.01
239.214	-42.67
239.431	59.73
239.648	-36.52
239.865	-30.38
240.083	-22.19
240.3	39.25
240.517	35.16
240.735	-40.62
240.952	24.92
241.169	86.36
241.386	18.77
241.603	20.82
241.821	-20.14
242.038	29.01
242.255	4.44
242.472	-13.99
242.689	20.82
242.907	-38.57
243.124	78.16
243.341	16.73
243.558	2.39
243.775	-50.86
243.992	-52.91
244.209	-16.04
244.426	-18.09
244.643	-44.71
244.86	59.73
245.078	-13.99
245.295	47.44
245.512	-16.04
245.729	-44.71
245.946	-22.19
246.163	2.39
246.38	-22.19
246.597	18.77
246.814	74.07
247.031	12.63
247.248	-30.38
247.464	-34.47
247.681	-18.09
247.898	-38.57
248.115	26.96
248.332	8.53
248.549	29.01
248.766	24.92
248.983	18.77
249.2	12.63
249.417	-3.75
249.633	-36.52
249.85	20.82
250.067	-65.19
250.284	24.92
250.501	-20.14
250.717	-5.8
250.934	57.68
251.151	35.16
251.368	14.68
251.585	-7.85
251.801	-9.9
252.018	12.63
252.235	59.73
252.451	0.34
252.668	24.92
252.885	-11.95
253.102	12.63
253.318	14.68
253.535	4.44
253.752	10.58
253.968	-42.67
254.185	39.25
254.401	8.53
254.618	16.73
254.835	-16.04
255.051	-18.09
255.268	10.58
255.484	-3.75
255.701	80.21
255.917	-5.8
256.134	-28.33
256.351	-42.67
256.567	22.87
256.784	-42.67
257	-40.62
257.217	31.06
257.433	-3.75
257.65	0.34
257.866	45.4
258.082	53.59
258.299	37.2
258.515	0.34
258.732	-9.9
258.948	-13.99
259.165	18.77
259.381	16.73
259.597	-11.95
259.814	41.3
260.03	22.87
260.246	-16.04
260.463	96.6
260.679	-30.38
260.895	14.68
261.112	65.88
261.328	-18.09
261.544	29.01
261.761	-18.09
261.977	14.68
262.193	51.54
262.409	33.11
262.626	10.58
262.842	31.06
263.058	-16.04
263.274	47.44
263.49	10.58
263.707	18.77
263.923	-77.48
264.139	45.4
264.355	4.44
264.571	33.11
264.787	20.82
265.004	-9.9
265.22	92.5
265.436	18.77
265.652	-9.9
265.868	20.82
266.084	-28.33
266.3	31.06
266.516	8.53
266.732	63.83
266.948	-3.75
267.164	51.54
267.38	18.77
267.596	47.44
267.812	39.25
268.028	55.64
268.244	-11.95
268.46	2.39
268.676	6.49
268.892	29.01
269.108	20.82
269.324	-7.85
269.54	4.44
269.756	8.53
269.972	-46.76
270.188	-20.14
270.403	6.49
270.619	-13.99
270.835	43.35
271.051	-20.14
271.267	-32.43
271.483	-5.8
271.698	-9.9
271.914	-22.19
272.13	24.92
272.346	-30.38
272.562	65.88
272.777	-20.14
272.993	33.11
273.209	39.25
273.425	-50.86
273.64	61.78
273.856	41.3
274.072	26.96
274.287	-65.19
274.503	43.35
274.719	-11.95
274.934	12.63
275.15	74.07
275.366	-13.99
275.581	-1.71
275.797	-16.04
276.012	31.06
276.228	-67.24
276.444	55.64
276.659	-40.62
276.875	-5.8
277.09	4.44
277.306	16.73
277.521	-13.99
277.737	-5.8
277.952	51.54
278.168	80.21
278.383	-44.71
278.599	67.92
278.814	55.64
279.03	55.64
279.245	-11.95
279.461	-100.01
279.676	-42.67
279.892	31.06
280.107	4.44
280.322	-7.85
280.538	57.68
280.753	-42.67
280.969	115.03
281.184	-54.95
281.399	22.87
281.615	-79.53
281.83	12.63
282.045	-13.99
282.26	-59.05
282.476	35.16
282.691	94.55
282.906	-75.43
283.122	-26.28
283.337	-7.85
283.552	-24.23
283.767	2.39
283.983	-69.29
284.198	-16.04
284.413	35.16
284.628	22.87
284.843	18.77
285.058	90.45
285.274	-11.95
285.489	2.39
285.704	-24.23
285.919	-16.04
286.134	-22.19
286.349	-65.19
286.564	-7.85
286.779	0.34
286.995	-48.81
287.21	18.77
287.425	37.2
287.64	6.49
287.855	-52.91
288.07	-26.28
288.285	31.06
288.5	63.83
288.715	29.01
288.93	20.82
289.145	-38.57
289.36	-9.9
289.575	-9.9
289.79	29.01
290.004	29.01
290.219	26.96
290.434	6.49
290.649	76.12
290.864	90.45
291.079	45.4
291.294	-83.63
291.509	-5.8
291.724	39.25
291.938	-3.75
292.153	20.82
292.368	-28.33
292.583	39.25
292.798	57.68
293.012	16.73
293.227	35.16
293.442	29.01
293.657	10.58
293.871	0.34
294.086	35.16
294.301	22.87
294.516	6.49
294.73	37.2
294.945	29.01
295.16	29.01
295.374	29.01
295.589	24.92
295.804	-7.85
296.018	39.25
296.233	26.96
296.447	26.96
296.662	24.92
296.877	-7.85
297.091	-40.62
297.306	26.96
297.52	33.11
297.735	20.82
297.949	8.53
298.164	-7.85
298.378	-34.47
298.593	-30.38
298.807	-11.95
299.022	39.25
299.236	53.59
299.451	24.92
299.665	31.06
299.88	4.44
300.094	-11.95
300.309	12.63
300.523	-57
300.737	-26.28
300.952	18.77
301.166	31.06
301.381	41.3
301.595	33.11
301.809	72.02
302.024	31.06
302.238	4.44
302.452	0.34
302.667	-24.23
302.881	37.2
303.095	-30.38
303.309	-16.04
303.524	-1.71
303.738	12.63
303.952	8.53
304.166	-69.29
304.381	-22.19
304.595	55.64
304.809	51.54
305.023	-16.04
305.237	10.58
305.452	-28.33
305.666	4.44
305.88	20.82
306.094	-28.33
306.308	22.87
306.522	6.49
306.736	4.44
306.95	-22.19
307.164	-20.14
307.379	-48.81
307.593	43.35
307.807	2.39
308.021	47.44
308.235	-18.09
308.449	51.54
308.663	-44.71
308.877	-1.71
309.091	-18.09
309.305	-65.19
309.519	-34.47
309.733	43.35
309.947	-32.43
310.161	-20.14
310.374	51.54
310.588	22.87
310.802	-36.52
311.016	-7.85
311.23	22.87
311.444	57.68
311.658	-1.71
311.872	-20.14
312.085	61.78
312.299	29.01
312.513	6.49
312.727	45.4
312.941	-83.63
313.154	61.78
313.368	55.64
313.582	35.16
313.796	22.87
314.009	14.68
314.223	-26.28
314.437	-5.8
314.651	12.63
314.864	6.49
315.078	55.64
315.292	-3.75
315.505	-71.34
315.719	20.82
315.933	47.44
316.146	41.3
316.36	39.25
316.573	45.4
316.787	47.44
317.001	45.4
317.214	10.58
317.428	55.64
317.641	45.4
317.855	51.54
318.068	0.34
318.282	14.68
318.495	-24.23
318.709	6.49
318.922	33.11
319.136	-11.95
319.349	37.2
319.563	61.78
319.776	14.68
319.99	-20.14
320.203	-36.52
320.417	-48.81
320.63	49.49
320.843	-3.75
321.057	22.87
321.27	76.12
321.483	-22.19
321.697	20.82
321.91	31.06
322.124	20.82
322.337	2.39
322.55	-54.95
322.763	29.01
322.977	22.87
323.19	8.53
323.403	41.3
323.617	-28.33
323.83	-28.33
324.043	26.96
324.256	49.49
324.469	8.53
324.683	-18.09
324.896	22.87
325.109	-36.52
325.322	45.4
325.535	8.53
325.748	4.44
325.962	-34.47
326.175	6.49
326.388	106.84
326.601	45.4
326.814	-34.47
327.027	-28.33
327.24	47.44
327.453	-18.09
327.666	-61.1
327.879	-3.75
328.092	10.58
328.305	-24.23
328.518	53.59
328.731	-32.43
328.944	16.73
329.157	20.82
329.37	14.68
329.583	20.82
329.796	-30.38
330.009	10.58
330.222	-26.28
330.435	-1.71
330.648	6.49
330.861	0.34
331.073	22.87
331.286	-46.76
331.499	43.35
331.712	-26.28
331.925	61.78
332.138	-24.23
332.35	20.82
332.563	2.39
332.776	41.3
332.989	-81.58
333.202	-3.75
333.414	-40.62
333.627	6.49
333.84	35.16
334.053	45.4
334.265	-16.04
334.478	8.53
334.691	2.39
334.903	57.68
335.116	-11.95
335.329	-11.95
335.541	24.92
335.754	43.35
335.966	76.12
336.179	12.63
336.392	0.34
336.604	31.06
336.817	76.12
337.029	29.01
337.242	29.01
337.454	-28.33
337.667	33.11
337.88	-3.75
338.092	4.44
338.305	-5.8
338.517	35.16
338.729	-52.91
338.942	2.39
339.154	57.68
339.367	0.34
339.579	100.69
339.792	49.49
340.004	10.58
340.217	6.49
340.429	14.68
340.641	59.73
340.854	-7.85
341.066	-3.75
341.278	10.58
341.491	-26.28
341.703	-11.95
341.915	-30.38
342.128	-5.8
342.34	-44.71
342.552	20.82
342.764	55.64
342.977	22.87
343.189	22.87
343.401	74.07
343.613	29.01
343.826	-69.29
344.038	-26.28
344.25	-59.05
344.462	45.4
344.674	14.68
344.886	31.06
345.099	63.83
345.311	26.96
345.523	20.82
345.735	0.34
345.947	29.01
346.159	55.64
346.371	31.06
346.583	-24.23
346.795	-13.99
347.007	20.82
347.219	-11.95
347.431	12.63
347.643	24.92
347.855	-1.71
348.067	22.87
348.279	18.77
348.491	45.4
348.703	4.44
348.915	2.39
349.127	-16.04
349.339	78.16
349.551	-36.52
349.763	-3.75
349.975	37.2
350.187	12.63
350.399	123.22
350.61	31.06
350.822	37.2
351.034	14.68
351.246	-9.9
351.458	37.2
351.669	29.01
351.881	78.16
352.093	90.45
352.305	59.73
352.517	-5.8
352.728	-7.85
352.94	-11.95
353.152	-18.09
353.363	-40.62
353.575	18.77
353.787	-26.28
353.999	-18.09
354.21	-3.75
354.422	61.78
354.633	41.3
354.845	-5.8
355.057	-1.71
355.268	45.4
355.48	8.53
355.692	45.4
355.903	-11.95
356.115	59.73
356.326	2.39
356.538	-13.99
356.749	18.77
356.961	53.59
357.172	2.39
357.384	-16.04
357.595	55.64
357.807	26.96
358.018	33.11
358.23	8.53
358.441	102.74
358.653	6.49
358.864	-40.62
359.075	-22.19
359.287	-16.04
359.498	92.5
359.709	20.82
359.921	61.78
360.132	16.73
360.344	29.01
360.555	-18.09
360.766	78.16
360.977	-28.33
361.189	39.25
361.4	-22.19
361.611	26.96
361.823	63.83
362.034	41.3
362.245	14.68
362.456	-75.43
362.667	6.49
362.879	35.16
363.09	16.73
363.301	-9.9
363.512	26.96
363.723	14.68
363.935	35.16
364.146	-16.04
364.357	80.21
364.568	-24.23
364.779	14.68
364.99	33.11
365.201	-28.33
365.412	72.02
365.623	45.4
365.834	59.73
366.045	26.96
366.256	18.77
366.467	20.82
366.678	8.53
366.889	4.44
367.1	35.16
367.311	37.2
367.522	43.35
367.733	33.11
367.944	65.88
368.155	29.01
368.366	10.58
368.577	26.96
368.788	72.02
368.999	-26.28
369.209	84.31
369.42	20.82
369.631	8.53
369.842	-24.23
370.053	-69.29
370.264	0.34
370.474	-38.57
370.685	14.68
370.896	90.45
371.107	8.53
371.317	-42.67
371.528	8.53
371.739	-11.95
371.95	24.92
372.16	-44.71
372.371	-28.33
372.582	6.49
372.792	55.64
373.003	72.02
373.214	51.54
373.424	2.39
373.635	35.16
373.846	18.77
374.056	22.87
374.267	10.58
374.477	12.63
374.688	16.73
374.898	-18.09
375.109	31.06
375.319	4.44
375.53	78.16
375.74	-22.19
375.951	14.68
376.161	-1.71
376.372	74.07
376.582	49.49
376.793	0.34
377.003	-57
377.214	-28.33
377.424	76.12
377.635	-9.9
377.845	14.68
378.055	43.35
378.266	-18.09
378.476	127.32
378.686	22.87
378.897	59.73
379.107	90.45
379.317	31.06
379.528	39.25
379.738	-11.95
379.948	6.49
380.158	41.3
380.369	-44.71
380.579	4.44
380.789	14.68
380.999	31.06
381.21	67.92
381.42	12.63
381.63	24.92
381.84	37.2
382.05	-5.8
382.261	55.64
382.471	-5.8
382.681	-20.14
382.891	20.82
383.101	39.25
383.311	-40.62
383.521	20.82
383.731	49.49
383.941	-5.8
384.151	-30.38
384.361	76.12
384.571	51.54
384.781	16.73
384.991	90.45
385.201	98.64
385.411	47.44
385.621	74.07
385.831	61.78
386.041	31.06
386.251	-5.8
386.461	0.34
386.671	-42.67
386.881	29.01
387.091	29.01
387.301	47.44
387.511	8.53
387.72	63.83
387.93	-13.99
388.14	26.96
388.35	-16.04
388.56	59.73
388.769	-20.14
388.979	65.88
389.189	18.77
389.399	41.3
389.609	74.07
389.818	65.88
390.028	24.92
390.238	6.49
390.447	61.78
390.657	-69.29
390.867	-38.57
391.076	45.4
391.286	0.34
391.496	80.21
391.705	33.11
391.915	4.44
392.125	0.34
392.334	49.49
392.544	-36.52
392.753	-22.19
392.963	67.92
393.172	-20.14
393.382	22.87
393.591	49.49
393.801	0.34
394.01	10.58
394.22	-1.71
394.429	-11.95
394.639	61.78
394.848	110.93
395.058	24.92
395.267	115.03
395.477	59.73
395.686	39.25
395.895	45.4
396.105	127.32
396.314	74.07
396.524	78.16
396.733	41.3
396.942	18.77
397.152	69.97
397.361	106.84
397.57	47.44
397.78	129.36
397.989	78.16
398.198	39.25
398.407	80.21
398.617	78.16
398.826	100.69
399.035	49.49
399.244	33.11
399.453	80.21
399.663	65.88
399.872	65.88
400.081	106.84
400.29	141.65
400.499	26.96
400.708	84.31
400.917	100.69
401.127	104.79
401.336	65.88
401.545	43.35
401.754	96.6
401.963	98.64
402.172	37.2
402.381	76.12
402.59	76.12
402.799	123.22
403.008	74.07
403.217	115.03
403.426	112.98
403.635	29.01
403.844	69.97
404.053	147.8
404.262	47.44
404.471	129.36
404.68	57.68
404.888	110.93
405.097	100.69
405.306	69.97
405.515	59.73
405.724	94.55
405.933	117.08
406.142	72.02
406.35	102.74
406.559	192.85
406.768	131.41
406.977	164.18
407.185	162.13
407.394	131.41
407.603	90.45
407.812	151.89
408.02	227.67
408.229	145.75
408.438	194.9
408.646	121.17
408.855	217.43
409.064	121.17
409.272	133.46
409.481	213.33
409.69	233.81
409.898	258.39
410.107	164.18
410.315	182.61
410.524	217.43
410.733	278.87
410.941	196.95
411.15	231.76
411.358	235.86
411.567	258.39
411.775	237.91
411.984	362.83
412.192	346.45
412.401	260.43
412.609	246.1
412.818	348.5
413.026	342.35
413.234	368.98
413.443	379.22
413.651	346.45
413.86	399.7
414.068	414.03
414.276	389.46
414.485	477.52
414.693	454.99
414.901	483.66
415.11	483.66
415.318	426.32
415.526	504.14
415.734	590.16
415.943	606.54
416.151	573.77
416.359	602.44
416.567	680.27
416.776	633.16
416.984	708.94
417.192	661.84
417.4	682.31
417.608	690.51
417.817	694.6
418.025	862.54
418.233	797
418.441	840.01
418.649	829.77
418.857	907.59
419.065	868.68
419.273	973.13
419.481	995.65
419.689	1028.42
419.897	1055.05
420.105	1116.48
420.313	1118.53
420.521	1163.59
420.729	1118.53
420.937	1233.22
421.145	1196.36
421.353	1335.62
421.561	1446.21
421.769	1487.17
421.977	1540.41
422.185	1429.82
422.393	1601.85
422.601	1691.96
422.809	1679.68
423.017	1712.44
423.224	1796.41
423.432	1749.31
423.64	1892.66
423.848	1896.76
424.056	1851.71
424.263	2138.42
424.471	2238.77
424.679	2144.56
424.887	2208.05
425.094	2224.44
425.302	2359.6
425.51	2384.18
425.718	2529.58
425.925	2464.05
426.133	2709.8
426.341	2701.61
426.548	2937.13
426.756	2836.78
426.964	2887.98
427.171	2902.31
427.379	3127.59
427.586	3291.43
427.794	3318.05
428.001	3363.11
428.209	3721.5
428.417	3588.38
428.624	3764.51
428.832	3690.78
429.039	3748.12
429.247	3719.45
429.454	4032.79
429.662	4319.51
429.869	4002.07
430.076	4342.04
430.284	4372.75
430.491	4327.7
430.699	4725.01
430.906	4698.38
431.114	4800.78
431.321	4892.94
431.528	4913.42
431.736	5300.48
431.943	5476.61
432.15	5384.45
432.358	5568.77
432.565	5767.42
432.772	5783.81
432.979	6009.08
433.187	6129.91
433.394	6189.3
433.601	6709.49
433.808	6574.32
434.016	6594.8
434.223	6828.27
434.43	7211.24
434.637	7100.65
434.844	7612.64
435.052	7837.92
435.259	7680.22
435.466	7753.95
435.673	7721.18
435.88	8229.08
436.087	8495.32
436.294	8503.51
436.501	8376.53
436.708	8558.8
436.915	8853.71
437.122	9369.8
437.329	9257.16
437.537	9496.77
437.743	9812.16
437.95	9500.87
438.157	10039.48
438.364	10438.84
438.571	10356.92
438.778	10598.58
438.985	11483.3
439.192	11143.34
439.399	11530.41
439.606	11028.65
439.813	11870.37
440.02	12572.82
440.227	12134.56
440.433	12128.41
440.64	12564.63
440.847	12619.92
441.054	12910.74
441.261	13607.05
441.467	13435.02
441.674	13584.52
441.881	14284.92
442.088	14065.79
442.294	13887.62
442.501	14684.28
442.708	14659.7
442.914	15421.55
443.121	15829.09
443.328	15716.45
443.534	16574.55
443.741	16083.04
443.948	15968.35
444.154	17131.6
444.361	16822.36
444.568	17199.18
444.774	16887.89
444.981	17383.5
445.187	17674.31
445.394	18708.54
445.6	18544.7
445.807	19947.56
446.013	19206.19
446.22	19519.53
446.426	20207.65
446.633	20598.81
446.839	21059.6
447.046	20250.66
447.252	21452.81
447.459	21405.71
447.665	21282.83
447.871	22345.73
448.078	23556.08
448.284	22206.47
448.491	22732.79
448.697	23504.88
448.903	23973.86
449.11	23943.14
449.316	23668.72
449.522	24375.27
449.728	24481.76
449.935	24913.88
450.141	24786.91
450.347	25194.45
450.553	24604.64
450.76	24745.95
450.966	25862.09
451.172	25558.99
451.378	26165.19
451.584	25688.01
451.791	26312.64
451.997	26226.63
452.203	26562.5
452.409	26734.53
452.615	26425.28
452.821	25438.16
453.027	25069.53
453.233	26570.69
453.44	25309.14
453.646	25667.53
453.852	25749.45
454.058	26390.47
454.264	25030.62
454.47	26179.53
454.676	25415.63
454.882	26265.54
455.088	24070.12
455.294	24362.98
455.5	24295.39
455.705	24793.05
455.911	23451.63
456.117	23162.87
456.323	23001.08
456.529	21874.7
456.735	22589.44
456.941	22106.12
457.147	21819.4
457.352	21176.34
457.558	20817.94
457.764	20916.25
457.97	20588.57
458.176	19945.51
458.381	19875.88
458.587	19284.02
458.793	19198
458.999	18227.26
459.204	19484.72
459.41	18911.28
459.616	17369.16
459.821	17711.18
460.027	17596.49
460.233	17168.46
460.438	16156.77
460.644	16605.27
460.85	15734.89
461.055	15349.87
461.261	15564.9
461.466	14297.21
461.672	13930.62
461.878	15097.97
462.083	14188.67
462.289	13471.88
462.494	13523.08
462.7	12908.69
462.905	12726.42
463.111	13140.11
463.316	13117.58
463.522	12791.95
463.727	12849.3
463.932	12755.09
464.138	12765.33
464.343	12767.38
464.549	12353.69
464.754	12826.77
464.959	12843.15
465.165	12486.81
465.37	12052.64
465.575	12058.78
465.781	12128.41
465.986	12394.65
466.191	11808.93
466.397	11729.06
466.602	10922.16
466.807	11493.54
467.012	11493.54
