Data from USB4F104151__38__13-53-13-399.txt Node

Date: Thu Mar 13 13:53:13 EDT 2025
User: louis
Spectrometer: USB4F10415
Trigger mode: 4
Integration Time (sec): 1.000000E-2
Scans to average: 1
Electric dark correction enabled: true
Nonlinearity correction enabled: false
Boxcar width: 0
XAxis mode: Wavelengths
Number of Pixels in Spectrum: 3648
>>>>>Begin Spectral Data<<<<<
178.204	-27.48
178.424	-27.48
178.644	-27.48
178.864	-13.14
179.084	50.35
179.304	-52.05
179.524	-17.24
179.744	-43.86
179.964	-29.52
180.184	-0.85
180.404	25.77
180.624	5.29
180.844	33.96
181.064	-11.09
181.283	7.34
181.503	33.96
181.723	48.3
181.943	50.35
182.163	105.64
182.383	-27.48
182.602	9.39
182.822	13.48
183.042	27.82
183.262	21.67
183.482	21.67
183.701	72.87
183.921	64.68
184.141	50.35
184.361	81.07
184.58	1.19
184.8	29.87
185.02	-0.85
185.239	58.54
185.459	-4.95
185.679	81.07
185.898	-41.81
186.118	50.35
186.338	36.01
186.557	76.97
186.777	-4.95
186.997	72.87
187.216	21.67
187.436	15.53
187.655	-13.14
187.875	54.44
188.095	5.29
188.314	42.15
188.534	11.43
188.753	21.67
188.973	76.97
189.192	-11.09
189.412	66.73
189.631	44.2
189.851	58.54
190.07	-15.19
190.29	60.59
190.509	91.31
190.729	11.43
190.948	36.01
191.168	83.11
191.387	-9.05
191.607	66.73
191.826	-72.53
192.045	46.25
192.265	29.87
192.484	42.15
192.704	-4.95
192.923	74.92
193.142	64.68
193.362	31.91
193.581	-47.96
193.8	-13.14
194.02	27.82
194.239	-0.85
194.458	50.35
194.678	15.53
194.897	44.2
195.116	21.67
195.335	-33.62
195.555	-56.15
195.774	7.34
195.993	-37.72
196.212	68.78
196.432	36.01
196.651	81.07
196.87	-17.24
197.089	89.26
197.308	25.77
197.528	79.02
197.747	81.07
197.966	-27.48
198.185	60.59
198.404	54.44
198.623	25.77
198.842	50.35
199.062	-23.38
199.281	33.96
199.5	56.49
199.719	95.4
199.938	31.91
200.157	29.87
200.376	-7
200.595	21.67
200.814	-99.16
201.033	-2.9
201.252	7.34
201.471	-25.43
201.69	11.43
201.909	76.97
202.128	72.87
202.347	42.15
202.566	-72.53
202.785	44.2
203.004	19.63
203.223	19.63
203.442	-43.86
203.661	38.06
203.879	62.63
204.098	64.68
204.317	60.59
204.536	36.01
204.755	-11.09
204.974	33.96
205.193	9.39
205.411	3.24
205.63	-9.05
205.849	44.2
206.068	-33.62
206.287	40.11
206.505	-17.24
206.724	-0.85
206.943	87.21
207.162	64.68
207.381	3.24
207.599	64.68
207.818	36.01
208.037	54.44
208.255	36.01
208.474	-0.85
208.693	13.48
208.911	11.43
209.13	1.19
209.349	23.72
209.567	72.87
209.786	40.11
210.005	50.35
210.223	15.53
210.442	19.63
210.661	99.5
210.879	33.96
211.098	42.15
211.316	70.83
211.535	40.11
211.753	23.72
211.972	52.39
212.191	9.39
212.409	25.77
212.628	29.87
212.846	72.87
213.065	103.59
213.283	25.77
213.502	11.43
213.72	15.53
213.938	31.91
214.157	-4.95
214.375	-50
214.594	40.11
214.812	85.16
215.031	76.97
215.249	-37.72
215.467	-25.43
215.686	93.35
215.904	-25.43
216.122	-23.38
216.341	9.39
216.559	60.59
216.778	40.11
216.996	15.53
217.214	13.48
217.432	97.45
217.651	21.67
217.869	38.06
218.087	38.06
218.306	5.29
218.524	-7
218.742	72.87
218.96	-19.29
219.179	-50
219.397	23.72
219.615	5.29
219.833	97.45
220.051	21.67
220.27	19.63
220.488	7.34
220.706	36.01
220.924	31.91
221.142	64.68
221.36	62.63
221.578	52.39
221.796	7.34
222.015	-2.9
222.233	5.29
222.451	101.55
222.669	52.39
222.887	33.96
223.105	9.39
223.323	1.19
223.541	56.49
223.759	40.11
223.977	31.91
224.195	52.39
224.413	27.82
224.631	17.58
224.849	36.01
225.067	-19.29
225.285	72.87
225.503	9.39
225.721	11.43
225.939	72.87
226.157	-25.43
226.375	-25.43
226.592	42.15
226.81	66.73
227.028	48.3
227.246	68.78
227.464	-52.05
227.682	-2.9
227.9	-0.85
228.117	33.96
228.335	-17.24
228.553	66.73
228.771	48.3
228.989	44.2
229.206	19.63
229.424	11.43
229.642	33.96
229.86	3.24
230.077	38.06
230.295	-41.81
230.513	56.49
230.731	29.87
230.948	-7
231.166	-27.48
231.384	25.77
231.601	25.77
231.819	42.15
232.037	58.54
232.254	11.43
232.472	17.58
232.689	-19.29
232.907	44.2
233.125	-0.85
233.342	21.67
233.56	31.91
233.777	-41.81
233.995	-4.95
234.213	62.63
234.43	33.96
234.648	17.58
234.865	-4.95
235.083	52.39
235.3	91.31
235.518	46.25
235.735	-33.62
235.953	23.72
236.17	29.87
236.388	-2.9
236.605	76.97
236.822	50.35
237.04	-27.48
237.257	48.3
237.475	74.92
237.692	42.15
237.909	95.4
238.127	60.59
238.344	29.87
238.562	9.39
238.779	-9.05
238.996	-31.57
239.214	-88.92
239.431	29.87
239.648	-4.95
239.865	25.77
240.083	27.82
240.3	40.11
240.517	74.92
240.735	-41.81
240.952	-27.48
241.169	44.2
241.386	122.02
241.603	21.67
241.821	36.01
242.038	48.3
242.255	70.83
242.472	64.68
242.689	44.2
242.907	1.19
243.124	-13.14
243.341	105.64
243.558	31.91
243.775	-23.38
243.992	62.63
244.209	42.15
244.426	72.87
244.643	1.19
244.86	54.44
245.078	81.07
245.295	31.91
245.512	-29.52
245.729	-21.33
245.946	33.96
246.163	52.39
246.38	13.48
246.597	-50
246.814	42.15
247.031	-58.2
247.248	-31.57
247.464	13.48
247.681	-4.95
247.898	66.73
248.115	64.68
248.332	54.44
248.549	40.11
248.766	60.59
248.983	33.96
249.2	31.91
249.417	42.15
249.633	60.59
249.85	70.83
250.067	52.39
250.284	42.15
250.501	76.97
250.717	17.58
250.934	31.91
251.151	-31.57
251.368	70.83
251.585	-17.24
251.801	79.02
252.018	11.43
252.235	-29.52
252.451	-21.33
252.668	-68.44
252.885	25.77
253.102	52.39
253.318	89.26
253.535	29.87
253.752	-23.38
253.968	-66.39
254.185	-35.67
254.401	-13.14
254.618	-23.38
254.835	42.15
255.051	48.3
255.268	27.82
255.484	36.01
255.701	40.11
255.917	11.43
256.134	52.39
256.351	15.53
256.567	29.87
256.784	27.82
257	91.31
257.217	-7
257.433	36.01
257.65	44.2
257.866	36.01
258.082	31.91
258.299	-29.52
258.515	25.77
258.732	44.2
258.948	29.87
259.165	79.02
259.381	38.06
259.597	83.11
259.814	17.58
260.03	-47.96
260.246	83.11
260.463	7.34
260.679	23.72
260.895	-37.72
261.112	89.26
261.328	3.24
261.544	13.48
261.761	126.12
261.977	-11.09
262.193	38.06
262.409	66.73
262.626	31.91
262.842	99.5
263.058	54.44
263.274	-74.58
263.49	-31.57
263.707	46.25
263.923	17.58
264.139	15.53
264.355	-21.33
264.571	113.83
264.787	5.29
265.004	9.39
265.22	-33.62
265.436	46.25
265.652	-29.52
265.868	13.48
266.084	-21.33
266.3	95.4
266.516	68.78
266.732	-23.38
266.948	36.01
267.164	-7
267.38	5.29
267.596	-15.19
267.812	68.78
268.028	105.64
268.244	46.25
268.46	31.91
268.676	-4.95
268.892	36.01
269.108	-15.19
269.324	64.68
269.54	31.91
269.756	27.82
269.972	11.43
270.188	29.87
270.403	-37.72
270.619	13.48
270.835	31.91
271.051	33.96
271.267	15.53
271.483	70.83
271.698	50.35
271.914	-31.57
272.13	-9.05
272.346	15.53
272.562	19.63
272.777	21.67
272.993	29.87
273.209	48.3
273.425	27.82
273.64	54.44
273.856	-27.48
274.072	1.19
274.287	-31.57
274.503	13.48
274.719	-17.24
274.934	-2.9
275.15	9.39
275.366	66.73
275.581	-54.1
275.797	19.63
276.012	66.73
276.228	76.97
276.444	-41.81
276.659	-13.14
276.875	27.82
277.09	-7
277.306	-68.44
277.521	70.83
277.737	-35.67
277.952	79.02
278.168	48.3
278.383	52.39
278.599	9.39
278.814	48.3
279.03	-31.57
279.245	60.59
279.461	5.29
279.676	62.63
279.892	7.34
280.107	46.25
280.322	56.49
280.538	-19.29
280.753	64.68
280.969	19.63
281.184	25.77
281.399	128.17
281.615	36.01
281.83	60.59
282.045	-33.62
282.26	40.11
282.476	9.39
282.691	44.2
282.906	-11.09
283.122	50.35
283.337	17.58
283.552	19.63
283.767	15.53
283.983	70.83
284.198	31.91
284.413	50.35
284.628	17.58
284.843	48.3
285.058	21.67
285.274	42.15
285.489	54.44
285.704	11.43
285.919	9.39
286.134	38.06
286.349	40.11
286.564	36.01
286.779	31.91
286.995	31.91
287.21	21.67
287.425	40.11
287.64	76.97
287.855	23.72
288.07	60.59
288.285	-13.14
288.5	-9.05
288.715	103.59
288.93	31.91
289.145	-0.85
289.36	83.11
289.575	70.83
289.79	21.67
290.004	95.4
290.219	109.74
290.434	13.48
290.649	105.64
290.864	74.92
291.079	72.87
291.294	29.87
291.509	50.35
291.724	23.72
291.938	3.24
292.153	50.35
292.368	132.26
292.583	68.78
292.798	64.68
293.012	11.43
293.227	-41.81
293.442	46.25
293.657	56.49
293.871	13.48
294.086	-0.85
294.301	46.25
294.516	70.83
294.73	23.72
294.945	15.53
295.16	48.3
295.374	33.96
295.589	68.78
295.804	46.25
296.018	89.26
296.233	38.06
296.447	81.07
296.662	38.06
296.877	-7
297.091	50.35
297.306	83.11
297.52	50.35
297.735	15.53
297.949	-17.24
298.164	27.82
298.378	70.83
298.593	23.72
298.807	64.68
299.022	91.31
299.236	25.77
299.451	38.06
299.665	-47.96
299.88	21.67
300.094	68.78
300.309	44.2
300.523	-37.72
300.737	-9.05
300.952	7.34
301.166	46.25
301.381	48.3
301.595	19.63
301.809	-7
302.024	50.35
302.238	11.43
302.452	60.59
302.667	19.63
302.881	56.49
303.095	25.77
303.309	13.48
303.524	48.3
303.738	93.35
303.952	29.87
304.166	21.67
304.381	-11.09
304.595	-11.09
304.809	-33.62
305.023	36.01
305.237	-84.82
305.452	44.2
305.666	29.87
305.88	33.96
306.094	-27.48
306.308	95.4
306.522	-31.57
306.736	17.58
306.95	-25.43
307.164	44.2
307.379	128.17
307.593	-13.14
307.807	48.3
308.021	46.25
308.235	50.35
308.449	1.19
308.663	38.06
308.877	27.82
309.091	17.58
309.305	7.34
309.519	23.72
309.733	-0.85
309.947	3.24
310.161	5.29
310.374	23.72
310.588	-15.19
310.802	70.83
311.016	50.35
311.23	23.72
311.444	33.96
311.658	9.39
311.872	64.68
312.085	40.11
312.299	-2.9
312.513	81.07
312.727	85.16
312.941	-23.38
313.154	66.73
313.368	31.91
313.582	128.17
313.796	46.25
314.009	25.77
314.223	46.25
314.437	-21.33
314.651	42.15
314.864	13.48
315.078	44.2
315.292	29.87
315.505	-17.24
315.719	36.01
315.933	-2.9
316.146	54.44
316.36	64.68
316.573	38.06
316.787	-37.72
317.001	50.35
317.214	1.19
317.428	56.49
317.641	-15.19
317.855	13.48
318.068	31.91
318.282	-13.14
318.495	5.29
318.709	54.44
318.922	72.87
319.136	25.77
319.349	42.15
319.563	56.49
319.776	74.92
319.99	19.63
320.203	7.34
320.417	7.34
320.63	7.34
320.843	5.29
321.057	33.96
321.27	3.24
321.483	93.35
321.697	17.58
321.91	60.59
322.124	19.63
322.337	-33.62
322.55	36.01
322.763	46.25
322.977	40.11
323.19	31.91
323.403	3.24
323.617	21.67
323.83	76.97
324.043	66.73
324.256	93.35
324.469	-9.05
324.683	52.39
324.896	-15.19
325.109	-29.52
325.322	31.91
325.535	56.49
325.748	-17.24
325.962	91.31
326.175	15.53
326.388	128.17
326.601	56.49
326.814	23.72
327.027	64.68
327.24	74.92
327.453	9.39
327.666	31.91
327.879	81.07
328.092	-37.72
328.305	105.64
328.518	44.2
328.731	7.34
328.944	19.63
329.157	68.78
329.37	99.5
329.583	74.92
329.796	-7
330.009	-7
330.222	44.2
330.435	1.19
330.648	103.59
330.861	23.72
331.073	36.01
331.286	-39.76
331.499	52.39
331.712	7.34
331.925	27.82
332.138	3.24
332.35	27.82
332.563	40.11
332.776	66.73
332.989	31.91
333.202	50.35
333.414	99.5
333.627	-58.2
333.84	15.53
334.053	144.55
334.265	23.72
334.478	25.77
334.691	40.11
334.903	46.25
335.116	-62.29
335.329	54.44
335.541	81.07
335.754	83.11
335.966	85.16
336.179	-21.33
336.392	36.01
336.604	79.02
336.817	42.15
337.029	76.97
337.242	117.93
337.454	42.15
337.667	50.35
337.88	85.16
338.092	66.73
338.305	68.78
338.517	-47.96
338.729	1.19
338.942	31.91
339.154	-15.19
339.367	-13.14
339.579	79.02
339.792	72.87
340.004	64.68
340.217	-52.05
340.429	58.54
340.641	-25.43
340.854	36.01
341.066	31.91
341.278	50.35
341.491	-25.43
341.703	23.72
341.915	13.48
342.128	52.39
342.34	70.83
342.552	74.92
342.764	31.91
342.977	62.63
343.189	85.16
343.401	64.68
343.613	23.72
343.826	89.26
344.038	40.11
344.25	64.68
344.462	-4.95
344.674	3.24
344.886	70.83
345.099	40.11
345.311	115.88
345.523	5.29
345.735	-13.14
345.947	33.96
346.159	19.63
346.371	17.58
346.583	58.54
346.795	66.73
347.007	33.96
347.219	-50
347.431	66.73
347.643	52.39
347.855	97.45
348.067	70.83
348.279	48.3
348.491	148.65
348.703	31.91
348.915	27.82
349.127	42.15
349.339	52.39
349.551	23.72
349.763	-17.24
349.975	85.16
350.187	93.35
350.399	-2.9
350.61	87.21
350.822	-62.29
351.034	72.87
351.246	50.35
351.458	46.25
351.669	-45.91
351.881	31.91
352.093	-9.05
352.305	9.39
352.517	33.96
352.728	126.12
352.94	81.07
353.152	36.01
353.363	25.77
353.575	117.93
353.787	79.02
353.999	76.97
354.21	52.39
354.422	25.77
354.633	97.45
354.845	15.53
355.057	29.87
355.268	50.35
355.48	58.54
355.692	5.29
355.903	-4.95
356.115	9.39
356.326	-45.91
356.538	31.91
356.749	38.06
356.961	60.59
357.172	17.58
357.384	3.24
357.595	50.35
357.807	74.92
358.018	74.92
358.23	7.34
358.441	52.39
358.653	46.25
358.864	11.43
359.075	-17.24
359.287	48.3
359.498	58.54
359.709	60.59
359.921	29.87
360.132	15.53
360.344	-29.52
360.555	38.06
360.766	44.2
360.977	95.4
361.189	124.07
361.4	-25.43
361.611	27.82
361.823	19.63
362.034	76.97
362.245	9.39
362.456	-7
362.667	19.63
362.879	111.78
363.09	66.73
363.301	91.31
363.512	66.73
363.723	70.83
363.935	25.77
364.146	46.25
364.357	9.39
364.568	29.87
364.779	5.29
364.99	89.26
365.201	-52.05
365.412	81.07
365.623	15.53
365.834	83.11
366.045	-31.57
366.256	91.31
366.467	48.3
366.678	13.48
366.889	81.07
367.1	1.19
367.311	48.3
367.522	-35.67
367.733	36.01
367.944	97.45
368.155	15.53
368.366	93.35
368.577	42.15
368.788	54.44
368.999	-17.24
369.209	44.2
369.42	31.91
369.631	48.3
369.842	31.91
370.053	19.63
370.264	-17.24
370.474	11.43
370.685	40.11
370.896	17.58
371.107	25.77
371.317	19.63
371.528	-9.05
371.739	91.31
371.95	19.63
372.16	5.29
372.371	-15.19
372.582	44.2
372.792	-7
373.003	66.73
373.214	9.39
373.424	54.44
373.635	9.39
373.846	-7
374.056	64.68
374.267	42.15
374.477	36.01
374.688	17.58
374.898	62.63
375.109	48.3
375.319	-9.05
375.53	89.26
375.74	31.91
375.951	107.69
376.161	132.26
376.372	-2.9
376.582	7.34
376.793	-45.91
377.003	29.87
377.214	66.73
377.424	103.59
377.635	115.88
377.845	48.3
378.055	81.07
378.266	-43.86
378.476	25.77
378.686	-21.33
378.897	50.35
379.107	52.39
379.317	60.59
379.528	7.34
379.738	58.54
379.948	36.01
380.158	70.83
380.369	66.73
380.579	50.35
380.789	52.39
380.999	-7
381.21	31.91
381.42	-25.43
381.63	33.96
381.84	52.39
382.05	5.29
382.261	42.15
382.471	52.39
382.681	23.72
382.891	105.64
383.101	87.21
383.311	64.68
383.521	87.21
383.731	52.39
383.941	50.35
384.151	42.15
384.361	17.58
384.571	64.68
384.781	89.26
384.991	38.06
385.201	87.21
385.411	93.35
385.621	29.87
385.831	1.19
386.041	42.15
386.251	54.44
386.461	95.4
386.671	7.34
386.881	109.74
387.091	-27.48
387.301	56.49
387.511	66.73
387.72	101.55
387.93	-11.09
388.14	72.87
388.35	52.39
388.56	66.73
388.769	56.49
388.979	36.01
389.189	46.25
389.399	101.55
389.609	74.92
389.818	68.78
390.028	-17.24
390.238	60.59
390.447	124.07
390.657	19.63
390.867	17.58
391.076	52.39
391.286	25.77
391.496	56.49
391.705	46.25
391.915	97.45
392.125	-2.9
392.334	95.4
392.544	27.82
392.753	95.4
392.963	97.45
393.172	87.21
393.382	-2.9
393.591	79.02
393.801	66.73
394.01	115.88
394.22	89.26
394.429	64.68
394.639	81.07
394.848	66.73
395.058	81.07
395.267	27.82
395.477	103.59
395.686	95.4
395.895	15.53
396.105	113.83
396.314	97.45
396.524	25.77
396.733	66.73
396.942	72.87
397.152	103.59
397.361	70.83
397.57	70.83
397.78	81.07
397.989	42.15
398.198	113.83
398.407	-27.48
398.617	72.87
398.826	72.87
399.035	101.55
399.244	56.49
399.453	142.5
399.663	111.78
399.872	5.29
400.081	132.26
400.29	134.31
400.499	76.97
400.708	122.02
400.917	33.96
401.127	99.5
401.336	79.02
401.545	95.4
401.754	17.58
401.963	158.89
402.172	64.68
402.381	58.54
402.59	68.78
402.799	91.31
403.008	66.73
403.217	54.44
403.426	76.97
403.635	150.7
403.844	91.31
404.053	113.83
404.262	124.07
404.471	87.21
404.68	103.59
404.888	85.16
405.097	52.39
405.306	124.07
405.515	156.84
405.724	152.74
405.933	119.98
406.142	107.69
406.35	113.83
406.559	117.93
406.768	58.54
406.977	160.94
407.185	97.45
407.394	115.88
407.603	148.65
407.812	140.46
408.02	191.66
408.229	189.61
408.438	154.79
408.646	189.61
408.855	197.8
409.064	142.5
409.272	169.13
409.481	242.85
409.69	228.52
409.898	195.75
410.107	249
410.315	283.81
410.524	189.61
410.733	242.85
410.941	212.14
411.15	263.33
411.358	332.97
411.567	292.01
411.775	261.29
411.984	210.09
412.192	300.2
412.401	410.79
412.609	353.45
412.818	390.31
413.026	318.63
413.234	457.89
413.443	347.3
413.651	371.88
413.86	328.87
414.068	396.45
414.276	345.25
414.485	429.22
414.693	394.4
414.901	556.19
415.11	482.47
415.318	521.38
415.526	445.6
415.734	500.9
415.943	398.5
416.151	533.67
416.359	607.39
416.567	588.96
416.776	609.44
416.984	654.5
417.192	636.06
417.4	760.99
417.608	654.5
417.817	677.02
418.025	674.98
418.233	760.99
418.441	746.66
418.649	724.13
418.857	785.57
419.065	904.35
419.273	838.81
419.481	896.16
419.689	1019.04
419.897	984.22
420.105	1078.43
420.313	1014.94
420.521	1096.86
420.729	1105.05
420.937	1197.21
421.145	1133.72
421.353	1244.31
421.561	1244.31
421.769	1324.18
421.977	1524.88
422.185	1254.55
422.393	1526.93
422.601	1516.69
422.809	1508.5
423.017	1559.7
423.224	1625.23
423.432	1725.58
423.64	1715.34
423.848	1811.6
424.056	1754.26
424.263	1887.37
424.471	2008.2
424.679	1932.43
424.887	2094.22
425.094	2143.37
425.302	2249.86
425.51	2311.3
425.718	2266.25
425.925	2276.49
426.133	2477.19
426.341	2501.76
426.548	2679.94
426.756	2612.35
426.964	2653.31
427.171	2872.45
427.379	2897.02
427.586	2849.92
427.794	3058.81
428.001	3083.39
428.209	3406.97
428.417	3234.94
428.624	3400.82
428.832	3556.47
429.039	3517.56
429.247	3437.69
429.454	3878
429.662	3970.16
429.869	3740.79
430.076	4066.41
430.284	3970.16
430.491	4107.37
430.699	4369.51
430.906	4484.2
431.114	4381.8
431.321	4594.79
431.528	4619.36
431.736	4856.93
431.943	5307.48
432.15	5137.5
432.358	5078.11
432.565	5330.01
432.772	5590.1
432.979	5551.19
433.187	5858.39
433.394	5831.76
433.601	6057.04
433.808	6081.61
434.016	6085.71
434.223	6372.43
434.43	6734.92
434.637	6702.15
434.844	7083.07
435.052	7130.17
435.259	7121.98
435.466	7085.12
435.673	7042.11
435.88	7636.02
436.087	7949.36
436.294	7975.98
436.501	7812.15
436.708	7920.69
436.915	8021.04
437.122	8795.17
437.329	8649.77
437.537	8793.12
437.743	8993.83
437.95	8893.47
438.157	9354.27
438.364	9671.7
438.571	9729.05
438.778	9933.84
438.985	10671.11
439.192	10177.55
439.399	10535.95
439.606	10306.57
439.813	10769.41
440.02	11392
440.227	11322.37
440.433	11394.04
440.64	11674.62
440.847	11555.83
441.054	11996.15
441.261	12684.27
441.467	12545
441.674	12768.23
441.881	13034.47
442.088	13239.26
442.294	12919.78
442.501	13300.7
442.708	13718.49
442.914	14355.41
443.121	14689.23
443.328	14298.06
443.534	15442.88
443.741	14941.13
443.948	14980.04
444.154	15983.54
444.361	15748.03
444.568	15680.44
444.774	15948.73
444.981	15909.82
445.187	16460.72
445.394	17210.28
445.6	17107.88
445.807	18963.34
446.013	17771.42
446.22	18193.3
446.426	19014.54
446.633	19094.41
446.839	19780.48
447.046	18934.67
447.252	19823.48
447.459	19895.16
447.665	19854.2
447.871	20855.66
448.078	21316.45
448.284	20491.12
448.491	20992.87
448.697	21853.02
448.903	22172.5
449.11	22295.38
449.316	22068.06
449.522	22328.15
449.728	23186.25
449.935	23038.8
450.141	23151.43
450.347	23659.33
450.553	22786.89
450.76	23462.72
450.966	23831.36
451.172	23604.03
451.378	24154.94
451.584	23724.86
451.791	24427.32
451.997	24224.57
452.203	24372.02
452.409	24247.1
452.615	24400.69
452.821	23601.99
453.027	23219.02
453.233	24640.31
453.44	23628.61
453.646	23802.69
453.852	23694.15
454.058	24447.8
454.264	23505.73
454.47	23923.52
454.676	23229.26
454.882	24161.08
455.088	22195.03
455.294	22373.21
455.5	22319.96
455.705	22979.4
455.911	21769.05
456.117	21435.24
456.323	21107.56
456.529	19970.94
456.735	21046.12
456.941	20216.69
457.147	20050.81
457.352	19514.24
457.558	19022.73
457.764	19368.84
457.97	19041.16
458.176	18506.64
458.381	18318.23
458.587	17474.46
458.793	17548.19
458.999	16661.42
459.204	17879.96
459.41	17179.56
459.616	16272.31
459.821	16092.09
460.027	16403.38
460.233	15553.47
460.438	15082.44
460.644	15145.92
460.85	14562.25
461.055	14418.89
461.261	14285.78
461.466	13319.14
461.672	12805.1
461.878	13757.4
462.083	12766.18
462.289	12383.21
462.494	12518.38
462.7	12014.58
462.905	11695.1
463.111	12149.75
463.316	12149.75
463.522	11670.52
463.727	11897.85
463.932	11656.18
464.138	11777.01
464.343	11588.6
464.549	11435
464.754	11760.63
464.959	11781.11
465.165	11684.86
465.37	10814.47
465.575	10750.98
465.781	11258.88
465.986	11252.73
466.191	10865.67
466.397	10521.61
466.602	10122.26
466.807	10671.11
467.012	10605.58
467.218	10382.35
467.423	10456.08
467.628	10394.64
467.833	10800.13
468.038	10421.26
468.244	10327.05
468.449	10535.95
468.654	10302.48
468.859	10363.92
