Data from USB4F104151__24__13-52-38-963.txt Node

Date: Thu Mar 13 13:52:38 EDT 2025
User: louis
Spectrometer: USB4F10415
Trigger mode: 4
Integration Time (sec): 1.000000E-2
Scans to average: 1
Electric dark correction enabled: true
Nonlinearity correction enabled: false
Boxcar width: 0
XAxis mode: Wavelengths
Number of Pixels in Spectrum: 3648
>>>>>Begin Spectral Data<<<<<
178.204	-50.86
178.424	-50.86
178.644	-50.86
178.864	-100.01
179.084	-48.81
179.304	-42.67
179.524	-46.76
179.744	-52.91
179.964	31.06
180.184	51.54
180.404	-48.81
180.624	12.63
180.844	45.4
181.064	-34.47
181.283	51.54
181.503	-11.95
181.723	45.4
181.943	-50.86
182.163	-13.99
182.383	33.11
182.602	-24.23
182.822	-11.95
183.042	29.01
183.262	-83.63
183.482	-1.71
183.701	-13.99
183.921	24.92
184.141	-16.04
184.361	14.68
184.58	33.11
184.8	0.34
185.02	-13.99
185.239	-5.8
185.459	96.6
185.679	6.49
185.898	37.2
186.118	-26.28
186.338	14.68
186.557	-26.28
186.777	-13.99
186.997	51.54
187.216	-1.71
187.436	49.49
187.655	35.16
187.875	8.53
188.095	-20.14
188.314	2.39
188.534	78.16
188.753	8.53
188.973	-22.19
189.192	88.4
189.412	-20.14
189.631	-36.52
189.851	-5.8
190.07	86.36
190.29	-59.05
190.509	22.87
190.729	-5.8
190.948	-40.62
191.168	45.4
191.387	0.34
191.607	4.44
191.826	-22.19
192.045	-28.33
192.265	-36.52
192.484	-32.43
192.704	-3.75
192.923	-52.91
193.142	51.54
193.362	-65.19
193.581	53.59
193.8	4.44
194.02	-28.33
194.239	-26.28
194.458	-7.85
194.678	31.06
194.897	63.83
195.116	-42.67
195.335	6.49
195.555	33.11
195.774	6.49
195.993	-18.09
196.212	43.35
196.432	33.11
196.651	-7.85
196.87	-46.76
197.089	-18.09
197.308	-20.14
197.528	20.82
197.747	6.49
197.966	18.77
198.185	12.63
198.404	-46.76
198.623	-7.85
198.842	98.64
199.062	49.49
199.281	33.11
199.5	-71.34
199.719	65.88
199.938	41.3
200.157	33.11
200.376	55.64
200.595	-1.71
200.814	-5.8
201.033	-42.67
201.252	6.49
201.471	45.4
201.69	18.77
201.909	-18.09
202.128	-18.09
202.347	2.39
202.566	-40.62
202.785	14.68
203.004	37.2
203.223	-28.33
203.442	6.49
203.661	-7.85
203.879	35.16
204.098	-9.9
204.317	-5.8
204.536	53.59
204.755	-40.62
204.974	-16.04
205.193	24.92
205.411	14.68
205.63	59.73
205.849	-22.19
206.068	-48.81
206.287	-22.19
206.505	-7.85
206.724	-48.81
206.943	35.16
207.162	57.68
207.381	-34.47
207.599	-28.33
207.818	8.53
208.037	-32.43
208.255	-11.95
208.474	33.11
208.693	-44.71
208.911	-5.8
209.13	14.68
209.349	18.77
209.567	-5.8
209.786	26.96
210.005	82.26
210.223	31.06
210.442	-20.14
210.661	76.12
210.879	-38.57
211.098	-13.99
211.316	29.01
211.535	0.34
211.753	-1.71
211.972	-9.9
212.191	-16.04
212.409	10.58
212.628	-11.95
212.846	133.46
213.065	20.82
213.283	4.44
213.502	-16.04
213.72	51.54
213.938	-1.71
214.157	-16.04
214.375	59.73
214.594	-1.71
214.812	-3.75
215.031	-67.24
215.249	-3.75
215.467	-1.71
215.686	10.58
215.904	16.73
216.122	6.49
216.341	49.49
216.559	45.4
216.778	-3.75
216.996	-52.91
217.214	-61.1
217.432	-1.71
217.651	69.97
217.869	-20.14
218.087	12.63
218.306	-11.95
218.524	57.68
218.742	-20.14
218.96	41.3
219.179	33.11
219.397	-44.71
219.615	-18.09
219.833	6.49
220.051	-38.57
220.27	-16.04
220.488	35.16
220.706	-34.47
220.924	88.4
221.142	22.87
221.36	53.59
221.578	84.31
221.796	16.73
222.015	-34.47
222.233	-57
222.451	47.44
222.669	10.58
222.887	35.16
223.105	-93.87
223.323	-3.75
223.541	-18.09
223.759	-26.28
223.977	-11.95
224.195	35.16
224.413	16.73
224.631	-5.8
224.849	-59.05
225.067	10.58
225.285	-16.04
225.503	-48.81
225.721	4.44
225.939	-16.04
226.157	12.63
226.375	65.88
226.592	-16.04
226.81	55.64
227.028	4.44
227.246	67.92
227.464	-11.95
227.682	-38.57
227.9	-9.9
228.117	-26.28
228.335	2.39
228.553	24.92
228.771	26.96
228.989	-1.71
229.206	14.68
229.424	-16.04
229.642	-9.9
229.86	78.16
230.077	14.68
230.295	-22.19
230.513	-9.9
230.731	67.92
230.948	2.39
231.166	16.73
231.384	-16.04
231.601	22.87
231.819	10.58
232.037	24.92
232.254	6.49
232.472	115.03
232.689	-18.09
232.907	31.06
233.125	-59.05
233.342	57.68
233.56	6.49
233.777	47.44
233.995	-11.95
234.213	104.79
234.43	-40.62
234.648	31.06
234.865	-3.75
235.083	47.44
235.3	33.11
235.518	-63.15
235.735	-3.75
235.953	-9.9
236.17	29.01
236.388	26.96
236.605	63.83
236.822	26.96
237.04	69.97
237.257	-18.09
237.475	4.44
237.692	22.87
237.909	12.63
238.127	63.83
238.344	98.64
238.562	35.16
238.779	-32.43
238.996	-3.75
239.214	45.4
239.431	18.77
239.648	-9.9
239.865	18.77
240.083	20.82
240.3	10.58
240.517	33.11
240.735	57.68
240.952	-28.33
241.169	-5.8
241.386	-42.67
241.603	41.3
241.821	-1.71
242.038	84.31
242.255	16.73
242.472	6.49
242.689	33.11
242.907	72.02
243.124	-40.62
243.341	43.35
243.558	-7.85
243.775	10.58
243.992	57.68
244.209	22.87
244.426	59.73
244.643	4.44
244.86	-7.85
245.078	-16.04
245.295	-1.71
245.512	-7.85
245.729	-9.9
245.946	26.96
246.163	8.53
246.38	-63.15
246.597	-48.81
246.814	10.58
247.031	53.59
247.248	74.07
247.464	-11.95
247.681	55.64
247.898	57.68
248.115	57.68
248.332	20.82
248.549	8.53
248.766	26.96
248.983	-34.47
249.2	31.06
249.417	-44.71
249.633	26.96
249.85	45.4
250.067	92.5
250.284	16.73
250.501	-11.95
250.717	6.49
250.934	-5.8
251.151	16.73
251.368	45.4
251.585	86.36
251.801	-44.71
252.018	-9.9
252.235	-38.57
252.451	24.92
252.668	12.63
252.885	-9.9
253.102	53.59
253.318	-42.67
253.535	37.2
253.752	39.25
253.968	47.44
254.185	53.59
254.401	14.68
254.618	55.64
254.835	18.77
255.051	33.11
255.268	-1.71
255.484	-30.38
255.701	61.78
255.917	57.68
256.134	-24.23
256.351	37.2
256.567	31.06
256.784	49.49
257	-42.67
257.217	18.77
257.433	22.87
257.65	24.92
257.866	94.55
258.082	43.35
258.299	-44.71
258.515	41.3
258.732	-71.34
258.948	14.68
259.165	2.39
259.381	29.01
259.597	-26.28
259.814	45.4
260.03	49.49
260.246	63.83
260.463	-28.33
260.679	22.87
260.895	18.77
261.112	35.16
261.328	20.82
261.544	-26.28
261.761	-9.9
261.977	78.16
262.193	-7.85
262.409	8.53
262.626	-1.71
262.842	4.44
263.058	-38.57
263.274	-9.9
263.49	43.35
263.707	2.39
263.923	-26.28
264.139	14.68
264.355	-24.23
264.571	-24.23
264.787	-65.19
265.004	31.06
265.22	45.4
265.436	37.2
265.652	123.22
265.868	-32.43
266.084	57.68
266.3	-30.38
266.516	29.01
266.732	20.82
266.948	2.39
267.164	59.73
267.38	-16.04
267.596	41.3
267.812	-18.09
268.028	-5.8
268.244	53.59
268.46	47.44
268.676	10.58
268.892	-9.9
269.108	8.53
269.324	-57
269.54	-26.28
269.756	-46.76
269.972	55.64
270.188	20.82
270.403	6.49
270.619	-22.19
270.835	-32.43
271.051	8.53
271.267	-34.47
271.483	78.16
271.698	-1.71
271.914	45.4
272.13	33.11
272.346	57.68
272.562	-48.81
272.777	4.44
272.993	-40.62
273.209	63.83
273.425	31.06
273.64	45.4
273.856	49.49
274.072	-9.9
274.287	45.4
274.503	-22.19
274.719	-32.43
274.934	-38.57
275.15	37.2
275.366	39.25
275.581	63.83
275.797	-3.75
276.012	-1.71
276.228	16.73
276.444	-24.23
276.659	-69.29
276.875	43.35
277.09	31.06
277.306	-11.95
277.521	-13.99
277.737	2.39
277.952	0.34
278.168	72.02
278.383	106.84
278.599	-18.09
278.814	43.35
279.03	-5.8
279.245	-5.8
279.461	-22.19
279.676	14.68
279.892	59.73
280.107	-40.62
280.322	6.49
280.538	-9.9
280.753	-30.38
280.969	-40.62
281.184	37.2
281.399	-11.95
281.615	20.82
281.83	31.06
282.045	86.36
282.26	4.44
282.476	-30.38
282.691	26.96
282.906	-20.14
283.122	53.59
283.337	-38.57
283.552	90.45
283.767	-69.29
283.983	53.59
284.198	-32.43
284.413	-42.67
284.628	-26.28
284.843	4.44
285.058	22.87
285.274	47.44
285.489	12.63
285.704	4.44
285.919	-9.9
286.134	16.73
286.349	-26.28
286.564	-13.99
286.779	39.25
286.995	98.64
287.21	-16.04
287.425	12.63
287.64	39.25
287.855	88.4
288.07	39.25
288.285	22.87
288.5	26.96
288.715	-7.85
288.93	37.2
289.145	-16.04
289.36	16.73
289.575	53.59
289.79	37.2
290.004	-46.76
290.219	6.49
290.434	43.35
290.649	41.3
290.864	-30.38
291.079	18.77
291.294	16.73
291.509	-7.85
291.724	10.58
291.938	51.54
292.153	49.49
292.368	-40.62
292.583	80.21
292.798	6.49
293.012	10.58
293.227	-13.99
293.442	102.74
293.657	-13.99
293.871	47.44
294.086	-16.04
294.301	63.83
294.516	33.11
294.73	43.35
294.945	29.01
295.16	4.44
295.374	31.06
295.589	33.11
295.804	-42.67
296.018	31.06
296.233	26.96
296.447	-13.99
296.662	51.54
296.877	20.82
297.091	31.06
297.306	22.87
297.52	12.63
297.735	-24.23
297.949	-11.95
298.164	-28.33
298.378	43.35
298.593	12.63
298.807	37.2
299.022	76.12
299.236	41.3
299.451	24.92
299.665	6.49
299.88	-34.47
300.094	127.32
300.309	26.96
300.523	-1.71
300.737	74.07
300.952	22.87
301.166	37.2
301.381	31.06
301.595	24.92
301.809	57.68
302.024	53.59
302.238	18.77
302.452	37.2
302.667	-57
302.881	74.07
303.095	-9.9
303.309	72.02
303.524	24.92
303.738	-18.09
303.952	-26.28
304.166	-28.33
304.381	37.2
304.595	14.68
304.809	-11.95
305.023	55.64
305.237	-9.9
305.452	74.07
305.666	106.84
305.88	47.44
306.094	24.92
306.308	72.02
306.522	76.12
306.736	88.4
306.95	-28.33
307.164	35.16
307.379	35.16
307.593	-9.9
307.807	-1.71
308.021	-13.99
308.235	67.92
308.449	-20.14
308.663	74.07
308.877	33.11
309.091	-32.43
309.305	47.44
309.519	-52.91
309.733	2.39
309.947	0.34
310.161	18.77
310.374	41.3
310.588	2.39
310.802	-30.38
311.016	-46.76
311.23	31.06
311.444	47.44
311.658	57.68
311.872	47.44
312.085	39.25
312.299	69.97
312.513	22.87
312.727	51.54
312.941	-54.95
313.154	-38.57
313.368	4.44
313.582	33.11
313.796	10.58
314.009	69.97
314.223	29.01
314.437	-13.99
314.651	24.92
314.864	49.49
315.078	41.3
315.292	94.55
315.505	-63.15
315.719	24.92
315.933	-9.9
316.146	61.78
316.36	-79.53
316.573	51.54
316.787	67.92
317.001	-1.71
317.214	53.59
317.428	67.92
317.641	-34.47
317.855	22.87
318.068	74.07
318.282	6.49
318.495	29.01
318.709	-24.23
318.922	-3.75
319.136	-36.52
319.349	16.73
319.563	0.34
319.776	37.2
319.99	2.39
320.203	65.88
320.417	-50.86
320.63	45.4
320.843	39.25
321.057	53.59
321.27	-34.47
321.483	61.78
321.697	84.31
321.91	33.11
322.124	45.4
322.337	-9.9
322.55	-28.33
322.763	18.77
322.977	-3.75
323.19	59.73
323.403	61.78
323.617	0.34
323.83	6.49
324.043	4.44
324.256	6.49
324.469	45.4
324.683	43.35
324.896	20.82
325.109	2.39
325.322	-22.19
325.535	24.92
325.748	82.26
325.962	-13.99
326.175	-34.47
326.388	-42.67
326.601	-9.9
326.814	49.49
327.027	-24.23
327.24	59.73
327.453	18.77
327.666	49.49
327.879	82.26
328.092	2.39
328.305	55.64
328.518	22.87
328.731	31.06
328.944	26.96
329.157	22.87
329.37	2.39
329.583	8.53
329.796	33.11
330.009	43.35
330.222	24.92
330.435	14.68
330.648	6.49
330.861	-38.57
331.073	72.02
331.286	0.34
331.499	33.11
331.712	4.44
331.925	-40.62
332.138	-87.72
332.35	43.35
332.563	41.3
332.776	86.36
332.989	-5.8
333.202	-44.71
333.414	61.78
333.627	74.07
333.84	0.34
334.053	2.39
334.265	84.31
334.478	-30.38
334.691	22.87
334.903	-16.04
335.116	98.64
335.329	-67.24
335.541	-1.71
335.754	0.34
335.966	31.06
336.179	41.3
336.392	51.54
336.604	55.64
336.817	84.31
337.029	51.54
337.242	61.78
337.454	26.96
337.667	29.01
337.88	-24.23
338.092	24.92
338.305	37.2
338.517	22.87
338.729	0.34
338.942	4.44
339.154	63.83
339.367	26.96
339.579	41.3
339.792	-3.75
340.004	26.96
340.217	41.3
340.429	51.54
340.641	-81.58
340.854	65.88
341.066	-26.28
341.278	59.73
341.491	22.87
341.703	-26.28
341.915	-28.33
342.128	39.25
342.34	49.49
342.552	41.3
342.764	12.63
342.977	69.97
343.189	-13.99
343.401	39.25
343.613	78.16
343.826	-26.28
344.038	-13.99
344.25	63.83
344.462	76.12
344.674	49.49
344.886	-52.91
345.099	26.96
345.311	33.11
345.523	76.12
345.735	-36.52
345.947	72.02
346.159	2.39
346.371	37.2
346.583	-9.9
346.795	41.3
347.007	-5.8
347.219	53.59
347.431	-11.95
347.643	45.4
347.855	-30.38
348.067	-18.09
348.279	72.02
348.491	4.44
348.703	-11.95
348.915	41.3
349.127	22.87
349.339	26.96
349.551	-9.9
349.763	0.34
349.975	-48.81
350.187	-24.23
350.399	18.77
350.61	35.16
350.822	-46.76
351.034	69.97
351.246	-26.28
351.458	90.45
351.669	18.77
351.881	-18.09
352.093	2.39
352.305	24.92
352.517	78.16
352.728	39.25
352.94	74.07
353.152	49.49
353.363	49.49
353.575	49.49
353.787	6.49
353.999	35.16
354.21	-5.8
354.422	39.25
354.633	39.25
354.845	88.4
355.057	-16.04
355.268	6.49
355.48	39.25
355.692	57.68
355.903	55.64
356.115	20.82
356.326	67.92
356.538	78.16
356.749	20.82
356.961	18.77
357.172	2.39
357.384	78.16
357.595	45.4
357.807	43.35
358.018	31.06
358.23	12.63
358.441	18.77
358.653	-81.58
358.864	-5.8
359.075	-7.85
359.287	-65.19
359.498	39.25
359.709	-11.95
359.921	33.11
360.132	37.2
360.344	39.25
360.555	16.73
360.766	33.11
360.977	-13.99
361.189	-30.38
361.4	-28.33
361.611	24.92
361.823	-16.04
362.034	41.3
362.245	74.07
362.456	-40.62
362.667	16.73
362.879	-48.81
363.09	-13.99
363.301	49.49
363.512	14.68
363.723	22.87
363.935	63.83
364.146	47.44
364.357	-11.95
364.568	76.12
364.779	-7.85
364.99	82.26
365.201	-42.67
365.412	37.2
365.623	-36.52
365.834	14.68
366.045	31.06
366.256	16.73
366.467	45.4
366.678	43.35
366.889	10.58
367.1	26.96
367.311	29.01
367.522	78.16
367.733	26.96
367.944	-9.9
368.155	72.02
368.366	12.63
368.577	112.98
368.788	0.34
368.999	-9.9
369.209	35.16
369.42	18.77
369.631	63.83
369.842	-24.23
370.053	45.4
370.264	82.26
370.474	96.6
370.685	-16.04
370.896	-36.52
371.107	129.36
371.317	153.94
371.528	59.73
371.739	86.36
371.95	53.59
372.16	49.49
372.371	20.82
372.582	59.73
372.792	35.16
373.003	49.49
373.214	31.06
373.424	80.21
373.635	49.49
373.846	35.16
374.056	-30.38
374.267	63.83
374.477	10.58
374.688	37.2
374.898	47.44
375.109	-5.8
375.319	4.44
375.53	67.92
375.74	84.31
375.951	14.68
376.161	-5.8
376.372	43.35
376.582	-30.38
376.793	86.36
377.003	-11.95
377.214	63.83
377.424	-42.67
377.635	-34.47
377.845	74.07
378.055	61.78
378.266	16.73
378.476	33.11
378.686	29.01
378.897	2.39
379.107	-16.04
379.317	57.68
379.528	-18.09
379.738	22.87
379.948	26.96
380.158	80.21
380.369	-32.43
380.579	16.73
380.789	41.3
380.999	78.16
381.21	51.54
381.42	37.2
381.63	39.25
381.84	4.44
382.05	20.82
382.261	63.83
382.471	-1.71
382.681	47.44
382.891	78.16
383.101	39.25
383.311	20.82
383.521	37.2
383.731	24.92
383.941	47.44
384.151	67.92
384.361	88.4
384.571	31.06
384.781	49.49
384.991	22.87
385.201	96.6
385.411	43.35
385.621	-5.8
385.831	24.92
386.041	49.49
386.251	39.25
386.461	72.02
386.671	6.49
386.881	26.96
387.091	108.88
387.301	82.26
387.511	-1.71
387.72	39.25
387.93	29.01
388.14	-54.95
388.35	2.39
388.56	92.5
388.769	14.68
388.979	31.06
389.189	-22.19
389.399	92.5
389.609	26.96
389.818	31.06
390.028	-40.62
390.238	78.16
390.447	37.2
390.657	92.5
390.867	8.53
391.076	-36.52
391.286	78.16
391.496	43.35
391.705	0.34
391.915	59.73
392.125	51.54
392.334	20.82
392.544	41.3
392.753	41.3
392.963	-26.28
393.172	106.84
393.382	-1.71
393.591	67.92
393.801	51.54
394.01	80.21
394.22	14.68
394.429	22.87
394.639	-7.85
394.848	47.44
395.058	43.35
395.267	92.5
395.477	65.88
395.686	33.11
395.895	117.08
396.105	63.83
396.314	80.21
396.524	10.58
396.733	53.59
396.942	12.63
397.152	129.36
397.361	35.16
397.57	43.35
397.78	74.07
397.989	22.87
398.198	39.25
398.407	45.4
398.617	29.01
398.826	108.88
399.035	37.2
399.244	26.96
399.453	117.08
399.663	84.31
399.872	129.36
400.081	10.58
400.29	43.35
400.499	80.21
400.708	86.36
400.917	6.49
401.127	37.2
401.336	65.88
401.545	22.87
401.754	119.12
401.963	74.07
402.172	117.08
402.381	115.03
402.59	67.92
402.799	151.89
403.008	33.11
403.217	90.45
403.426	139.6
403.635	69.97
403.844	49.49
404.053	94.55
404.262	31.06
404.471	92.5
404.68	110.93
404.888	53.59
405.097	104.79
405.306	108.88
405.515	117.08
405.724	139.6
405.933	82.26
406.142	127.32
406.35	117.08
406.559	94.55
406.768	155.99
406.977	158.03
407.185	133.46
407.394	170.32
407.603	108.88
407.812	108.88
408.02	104.79
408.229	149.84
408.438	119.12
408.646	90.45
408.855	260.43
409.064	158.03
409.272	147.8
409.481	133.46
409.69	246.1
409.898	51.54
410.107	205.14
410.315	254.29
410.524	162.13
410.733	233.81
410.941	217.43
411.15	209.23
411.358	153.94
411.567	246.1
411.775	248.15
411.984	227.67
412.192	383.31
412.401	287.06
412.609	285.01
412.818	225.62
413.026	332.11
413.234	377.17
413.443	346.45
413.651	362.83
413.86	350.54
414.068	399.7
414.276	371.02
414.485	385.36
414.693	389.46
414.901	409.94
415.11	477.52
415.318	477.52
415.526	444.75
415.734	512.33
415.943	504.14
416.151	516.43
416.359	528.72
416.567	606.54
416.776	610.64
416.984	543.05
417.192	567.63
417.4	610.64
417.608	641.36
417.817	618.83
418.025	678.22
418.233	794.95
418.441	725.32
418.649	899.4
418.857	823.62
419.065	926.02
419.273	833.86
419.481	792.91
419.689	987.46
419.897	1053
420.105	987.46
420.313	1069.38
420.521	1044.81
420.729	1038.66
420.937	1110.34
421.145	1214.79
421.353	1163.59
421.561	1171.78
421.769	1306.95
421.977	1378.62
422.185	1419.58
422.393	1503.55
422.601	1511.74
422.809	1575.23
423.017	1481.02
423.224	1630.52
423.432	1622.33
423.64	1562.94
423.848	1765.69
424.056	1710.4
424.263	2001.21
424.471	1966.39
424.679	1790.27
424.887	2029.88
425.094	1970.49
425.302	2042.17
425.51	2220.34
425.718	2206
425.925	2150.71
426.133	2332.98
426.341	2439.47
426.548	2531.63
426.756	2562.35
426.964	2611.5
427.171	2758.96
427.379	3057.96
427.586	2922.79
427.794	3060.01
428.001	3100.97
428.209	3219.75
428.417	3164.45
428.624	3301.67
428.832	3522.85
429.039	3391.78
429.247	3363.11
429.454	3631.39
429.662	3967.26
429.869	3582.24
430.076	4186.39
430.284	3801.37
430.491	4170.01
430.699	4213.01
430.906	4184.34
431.114	4231.44
431.321	4516.11
431.528	4604.18
431.736	4815.12
431.943	5089.54
432.15	4878.6
432.358	4931.85
432.565	5177.61
432.772	5325.06
432.979	5536
433.187	5845.24
433.394	5622.02
433.601	5939.45
433.808	6113.53
434.016	6123.77
434.223	6328.56
434.43	6691.06
434.637	6553.84
434.844	6953.2
435.052	7018.73
435.259	7080.17
435.466	6949.1
435.673	7284.97
435.88	7497.95
436.087	7809.25
436.294	7921.88
436.501	7786.72
436.708	7811.29
436.915	8282.33
437.122	8480.98
437.329	8444.12
437.537	8761.55
437.743	8990.92
437.95	8896.72
438.157	9277.64
438.364	9590.98
438.571	9531.59
438.778	9447.62
438.985	10516.66
439.192	10121.4
439.399	10535.09
439.606	10381.49
439.813	10805.42
440.02	11288.75
440.227	11262.12
440.433	11276.46
440.64	11526.31
440.847	11442.34
441.054	11563.17
441.261	12624.02
441.467	12355.74
441.674	12312.73
441.881	12867.73
442.088	13060.24
442.294	12875.92
442.501	13082.77
442.708	13518.98
442.914	13981.82
443.121	14745.72
443.328	14295.16
443.534	15282.28
443.741	14893.17
443.948	14811.25
444.154	15732.84
444.361	15505.51
444.568	15566.95
444.774	15825
444.981	15896.67
445.187	16111.71
445.394	16961.62
445.6	17006.67
445.807	18446.4
446.013	17666.12
446.22	18155.58
446.426	18841.65
446.633	18796.6
446.839	19470.38
447.046	18700.34
447.252	19851.3
447.459	19910.69
447.665	19701.8
447.871	20613.15
448.078	21579.79
448.284	20561.95
448.491	20787.22
448.697	21819.4
448.903	22255.62
449.11	22126.6
449.316	22032.39
449.522	22181.89
449.728	22722.55
449.935	23126
450.141	23154.68
450.347	23547.89
450.553	22777.85
450.76	23396.34
450.966	23592.94
451.172	23554.03
451.378	24252.39
451.584	23400.43
451.791	24307.68
451.997	23881.7
452.203	24610.78
452.409	24522.72
452.615	24133.61
452.821	23674.86
453.027	23017.46
453.233	24715.23
453.44	23498.73
453.646	23756.78
453.852	23590.89
454.058	24031.21
454.264	23511.02
454.47	23883.75
454.676	23103.48
454.882	24121.32
455.088	21917.7
455.294	22214.66
455.5	22595.58
455.705	22847.48
455.911	21751.82
456.117	21626.89
456.323	21141.52
456.529	20303.9
456.735	21024.79
456.941	20316.19
457.147	19832.87
457.352	19376.17
457.558	19144.75
457.764	19167.28
457.97	18894.9
458.176	18380.86
458.381	18380.86
458.587	17651.78
458.793	17541.19
458.999	16828.5
459.204	18047.04
459.41	17289.29
459.616	16160.86
459.821	15927.39
460.027	15923.3
460.233	15900.77
460.438	15028.34
460.644	15239.28
460.85	14459
461.055	14323.83
461.261	14358.65
461.466	13123.73
461.672	13000.85
461.878	13887.62
462.083	12652.69
462.289	12554.39
462.494	12372.12
462.7	11894.94
462.905	11751.59
463.111	12331.16
463.316	12122.27
463.522	12126.36
463.727	11610.28
463.932	11927.71
464.138	11905.18
464.343	11813.03
464.549	11518.12
464.754	11896.99
464.959	11983.01
465.165	11552.93
465.37	11180.2
465.575	11102.38
465.781	11272.36
465.986	11202.73
466.191	11016.37
466.397	10815.66
466.602	10369.21
466.807	10891.44
467.012	10490.04
467.218	10561.72
467.423	10522.8
467.628	10561.72
467.833	11262.12
468.038	10621.11
