Data from USB4F104151__27__13-52-43-362.txt Node

Date: Thu Mar 13 13:52:43 EDT 2025
User: louis
Spectrometer: USB4F10415
Trigger mode: 4
Integration Time (sec): 1.000000E-2
Scans to average: 1
Electric dark correction enabled: true
Nonlinearity correction enabled: false
Boxcar width: 0
XAxis mode: Wavelengths
Number of Pixels in Spectrum: 3648
>>>>>Begin Spectral Data<<<<<
178.204	-46.42
178.424	-46.42
178.644	-46.42
178.864	-27.99
179.084	-60.76
179.304	23.21
179.524	33.45
179.744	-27.99
179.964	8.87
180.184	15.02
180.404	-68.95
180.624	29.35
180.844	-3.41
181.064	-54.61
181.283	37.55
181.503	15.02
181.723	-7.51
181.943	-13.65
182.163	88.75
182.383	0.68
182.602	60.07
182.822	33.45
183.042	66.22
183.262	4.78
183.482	6.83
183.701	-7.51
183.921	47.79
184.141	8.87
184.361	51.88
184.58	21.16
184.8	33.45
185.02	58.03
185.239	-9.56
185.459	29.35
185.679	-5.46
185.898	35.5
186.118	68.27
186.338	-3.41
186.557	70.31
186.777	41.64
186.997	6.83
187.216	37.55
187.436	70.31
187.655	51.88
187.875	84.65
188.095	84.65
188.314	76.46
188.534	35.5
188.753	64.17
188.973	53.93
189.192	74.41
189.412	49.83
189.631	49.83
189.851	21.16
190.07	78.51
190.29	15.02
190.509	-50.52
190.729	27.31
190.948	-7.51
191.168	4.78
191.387	133.8
191.607	10.92
191.826	8.87
192.045	86.7
192.265	33.45
192.484	66.22
192.704	31.4
192.923	-7.51
193.142	27.31
193.362	-1.37
193.581	78.51
193.8	35.5
194.02	47.79
194.239	88.75
194.458	86.7
194.678	119.46
194.897	80.55
195.116	-13.65
195.335	-19.8
195.555	78.51
195.774	47.79
195.993	4.78
196.212	55.98
196.432	-5.46
196.651	66.22
196.87	123.56
197.089	127.66
197.308	39.59
197.528	64.17
197.747	-11.61
197.966	12.97
198.185	6.83
198.404	39.59
198.623	31.4
198.842	80.55
199.062	21.16
199.281	45.74
199.5	-23.89
199.719	51.88
199.938	12.97
200.157	12.97
200.376	-1.37
200.595	117.42
200.814	-3.41
201.033	37.55
201.252	41.64
201.471	-25.94
201.69	80.55
201.909	49.83
202.128	-9.56
202.347	107.18
202.566	-7.51
202.785	68.27
203.004	4.78
203.223	82.6
203.442	10.92
203.661	19.11
203.879	19.11
204.098	21.16
204.317	29.35
204.536	15.02
204.755	10.92
204.974	72.36
205.193	53.93
205.411	68.27
205.63	-23.89
205.849	25.26
206.068	31.4
206.287	12.97
206.505	47.79
206.724	49.83
206.943	58.03
207.162	60.07
207.381	70.31
207.599	49.83
207.818	25.26
208.037	43.69
208.255	49.83
208.474	0.68
208.693	2.73
208.911	66.22
209.13	8.87
209.349	-9.56
209.567	45.74
209.786	82.6
210.005	4.78
210.223	12.97
210.442	12.97
210.661	33.45
210.879	15.02
211.098	41.64
211.316	41.64
211.535	-11.61
211.753	35.5
211.972	-15.7
212.191	6.83
212.409	70.31
212.628	58.03
212.846	45.74
213.065	-13.65
213.283	47.79
213.502	8.87
213.72	37.55
213.938	10.92
214.157	39.59
214.375	74.41
214.594	135.85
214.812	80.55
215.031	49.83
215.249	4.78
215.467	45.74
215.686	84.65
215.904	41.64
216.122	78.51
216.341	37.55
216.559	90.79
216.778	94.89
216.996	72.36
217.214	45.74
217.432	8.87
217.651	-11.61
217.869	12.97
218.087	37.55
218.306	98.99
218.524	58.03
218.742	64.17
218.96	41.64
219.179	8.87
219.397	0.68
219.615	78.51
219.833	-3.41
220.051	-19.8
220.27	31.4
220.488	12.97
220.706	78.51
220.924	8.87
221.142	29.35
221.36	4.78
221.578	96.94
221.796	39.59
222.015	2.73
222.233	131.75
222.451	-5.46
222.669	25.26
222.887	82.6
223.105	35.5
223.323	72.36
223.541	-3.41
223.759	74.41
223.977	-25.94
224.195	8.87
224.413	12.97
224.631	60.07
224.849	-9.56
225.067	64.17
225.285	-17.75
225.503	53.93
225.721	-48.47
225.939	98.99
226.157	47.79
226.375	72.36
226.592	37.55
226.81	12.97
227.028	76.46
227.246	72.36
227.464	47.79
227.682	41.64
227.9	17.07
228.117	35.5
228.335	78.51
228.553	6.83
228.771	64.17
228.989	70.31
229.206	15.02
229.424	76.46
229.642	-9.56
229.86	49.83
230.077	51.88
230.295	74.41
230.513	29.35
230.731	72.36
230.948	45.74
231.166	35.5
231.384	23.21
231.601	107.18
231.819	43.69
232.037	12.97
232.254	12.97
232.472	45.74
232.689	103.08
232.907	41.64
233.125	-7.51
233.342	49.83
233.56	60.07
233.777	0.68
233.995	82.6
234.213	-3.41
234.43	-25.94
234.648	60.07
234.865	105.13
235.083	37.55
235.3	43.69
235.518	-1.37
235.735	39.59
235.953	137.9
236.17	17.07
236.388	47.79
236.605	-7.51
236.822	31.4
237.04	53.93
237.257	-5.46
237.475	78.51
237.692	41.64
237.909	76.46
238.127	90.79
238.344	45.74
238.562	29.35
238.779	23.21
238.996	41.64
239.214	47.79
239.431	17.07
239.648	10.92
239.865	94.89
240.083	47.79
240.3	51.88
240.517	10.92
240.735	60.07
240.952	-3.41
241.169	68.27
241.386	25.26
241.603	86.7
241.821	-15.7
242.038	21.16
242.255	64.17
242.472	29.35
242.689	21.16
242.907	29.35
243.124	55.98
243.341	86.7
243.558	-34.13
243.775	49.83
243.992	6.83
244.209	31.4
244.426	76.46
244.643	74.41
244.86	58.03
245.078	94.89
245.295	37.55
245.512	64.17
245.729	35.5
245.946	129.7
246.163	17.07
246.38	19.11
246.597	17.07
246.814	39.59
247.031	64.17
247.248	-3.41
247.464	60.07
247.681	64.17
247.898	47.79
248.115	62.12
248.332	43.69
248.549	23.21
248.766	66.22
248.983	80.55
249.2	15.02
249.417	72.36
249.633	58.03
249.85	21.16
250.067	-56.66
250.284	35.5
250.501	-13.65
250.717	27.31
250.934	29.35
251.151	109.22
251.368	27.31
251.585	70.31
251.801	47.79
252.018	47.79
252.235	8.87
252.451	-40.28
252.668	-52.56
252.885	58.03
253.102	10.92
253.318	64.17
253.535	53.93
253.752	41.64
253.968	45.74
254.185	47.79
254.401	115.37
254.618	72.36
254.835	6.83
255.051	96.94
255.268	86.7
255.484	37.55
255.701	21.16
255.917	45.74
256.134	35.5
256.351	47.79
256.567	-30.04
256.784	4.78
257	17.07
257.217	6.83
257.433	39.59
257.65	47.79
257.866	15.02
258.082	29.35
258.299	70.31
258.515	74.41
258.732	82.6
258.948	33.45
259.165	76.46
259.381	66.22
259.597	15.02
259.814	12.97
260.03	121.51
260.246	41.64
260.463	58.03
260.679	53.93
260.895	88.75
261.112	80.55
261.328	31.4
261.544	51.88
261.761	94.89
261.977	0.68
262.193	92.84
262.409	98.99
262.626	66.22
262.842	25.26
263.058	33.45
263.274	-1.37
263.49	27.31
263.707	47.79
263.923	2.73
264.139	39.59
264.355	-11.61
264.571	82.6
264.787	66.22
265.004	4.78
265.22	25.26
265.436	6.83
265.652	17.07
265.868	68.27
266.084	94.89
266.3	25.26
266.516	-85.33
266.732	68.27
266.948	35.5
267.164	70.31
267.38	45.74
267.596	82.6
267.812	29.35
268.028	55.98
268.244	41.64
268.46	29.35
268.676	68.27
268.892	51.88
269.108	58.03
269.324	31.4
269.54	-3.41
269.756	29.35
269.972	-5.46
270.188	66.22
270.403	-9.56
270.619	82.6
270.835	119.46
271.051	47.79
271.267	76.46
271.483	41.64
271.698	-5.46
271.914	70.31
272.13	66.22
272.346	37.55
272.562	98.99
272.777	82.6
272.993	15.02
273.209	23.21
273.425	-5.46
273.64	6.83
273.856	-21.85
274.072	55.98
274.287	17.07
274.503	-15.7
274.719	4.78
274.934	25.26
275.15	-38.23
275.366	74.41
275.581	-3.41
275.797	-50.52
276.012	37.55
276.228	103.08
276.444	8.87
276.659	60.07
276.875	41.64
277.09	25.26
277.306	-48.47
277.521	119.46
277.737	103.08
277.952	74.41
278.168	55.98
278.383	0.68
278.599	-5.46
278.814	19.11
279.03	35.5
279.245	96.94
279.461	25.26
279.676	19.11
279.892	19.11
280.107	33.45
280.322	76.46
280.538	-13.65
280.753	29.35
280.969	29.35
281.184	64.17
281.399	101.03
281.615	80.55
281.83	82.6
282.045	33.45
282.26	-21.85
282.476	76.46
282.691	86.7
282.906	15.02
283.122	101.03
283.337	80.55
283.552	29.35
283.767	-21.85
283.983	0.68
284.198	88.75
284.413	84.65
284.628	43.69
284.843	96.94
285.058	76.46
285.274	-9.56
285.489	55.98
285.704	121.51
285.919	70.31
286.134	35.5
286.349	-7.51
286.564	-1.37
286.779	96.94
286.995	55.98
287.21	90.79
287.425	-25.94
287.64	29.35
287.855	84.65
288.07	27.31
288.285	64.17
288.5	27.31
288.715	35.5
288.93	49.83
289.145	39.59
289.36	103.08
289.575	43.69
289.79	72.36
290.004	15.02
290.219	-9.56
290.434	119.46
290.649	12.97
290.864	119.46
291.079	96.94
291.294	45.74
291.509	21.16
291.724	152.23
291.938	60.07
292.153	10.92
292.368	21.16
292.583	27.31
292.798	66.22
293.012	101.03
293.227	25.26
293.442	66.22
293.657	-42.32
293.871	-34.13
294.086	51.88
294.301	78.51
294.516	-25.94
294.73	37.55
294.945	43.69
295.16	70.31
295.374	105.13
295.589	55.98
295.804	2.73
296.018	45.74
296.233	49.83
296.447	64.17
296.662	58.03
296.877	86.7
297.091	58.03
297.306	94.89
297.52	137.9
297.735	2.73
297.949	86.7
298.164	105.13
298.378	-5.46
298.593	62.12
298.807	-11.61
299.022	29.35
299.236	27.31
299.451	66.22
299.665	53.93
299.88	29.35
300.094	96.94
300.309	47.79
300.523	115.37
300.737	82.6
300.952	53.93
301.166	66.22
301.381	-19.8
301.595	98.99
301.809	74.41
302.024	23.21
302.238	-7.51
302.452	70.31
302.667	-15.7
302.881	55.98
303.095	31.4
303.309	45.74
303.524	-21.85
303.738	74.41
303.952	76.46
304.166	49.83
304.381	17.07
304.595	64.17
304.809	80.55
305.023	25.26
305.237	-9.56
305.452	80.55
305.666	2.73
305.88	47.79
306.094	27.31
306.308	4.78
306.522	62.12
306.736	90.79
306.95	78.51
307.164	47.79
307.379	86.7
307.593	90.79
307.807	60.07
308.021	70.31
308.235	41.64
308.449	25.26
308.663	51.88
308.877	98.99
309.091	45.74
309.305	39.59
309.519	12.97
309.733	31.4
309.947	90.79
310.161	-1.37
310.374	45.74
310.588	51.88
310.802	78.51
311.016	78.51
311.23	8.87
311.444	-23.89
311.658	98.99
311.872	82.6
312.085	94.89
312.299	58.03
312.513	86.7
312.727	8.87
312.941	55.98
313.154	68.27
313.368	88.75
313.582	35.5
313.796	43.69
314.009	31.4
314.223	82.6
314.437	4.78
314.651	0.68
314.864	15.02
315.078	84.65
315.292	8.87
315.505	-21.85
315.719	29.35
315.933	64.17
316.146	68.27
316.36	-42.32
316.573	60.07
316.787	70.31
317.001	-15.7
317.214	101.03
317.428	-60.76
317.641	101.03
317.855	55.98
318.068	121.51
318.282	10.92
318.495	133.8
318.709	43.69
318.922	74.41
319.136	129.7
319.349	107.18
319.563	15.02
319.776	45.74
319.99	15.02
320.203	17.07
320.417	88.75
320.63	17.07
320.843	70.31
321.057	66.22
321.27	33.45
321.483	72.36
321.697	55.98
321.91	76.46
322.124	82.6
322.337	53.93
322.55	86.7
322.763	60.07
322.977	58.03
323.19	37.55
323.403	96.94
323.617	101.03
323.83	-9.56
324.043	0.68
324.256	43.69
324.469	17.07
324.683	12.97
324.896	19.11
325.109	103.08
325.322	131.75
325.535	41.64
325.748	-34.13
325.962	37.55
326.175	76.46
326.388	6.83
326.601	80.55
326.814	78.51
327.027	72.36
327.24	12.97
327.453	37.55
327.666	60.07
327.879	60.07
328.092	53.93
328.305	31.4
328.518	27.31
328.731	4.78
328.944	45.74
329.157	66.22
329.37	35.5
329.583	10.92
329.796	103.08
330.009	78.51
330.222	-38.23
330.435	53.93
330.648	39.59
330.861	45.74
331.073	66.22
331.286	49.83
331.499	74.41
331.712	55.98
331.925	33.45
332.138	92.84
332.35	55.98
332.563	74.41
332.776	31.4
332.989	60.07
333.202	86.7
333.414	23.21
333.627	55.98
333.84	33.45
334.053	62.12
334.265	74.41
334.478	64.17
334.691	66.22
334.903	15.02
335.116	111.27
335.329	58.03
335.541	82.6
335.754	109.22
335.966	121.51
336.179	19.11
336.392	86.7
336.604	49.83
336.817	53.93
337.029	21.16
337.242	70.31
337.454	10.92
337.667	-32.08
337.88	96.94
338.092	-25.94
338.305	53.93
338.517	-58.71
338.729	43.69
338.942	0.68
339.154	-3.41
339.367	49.83
339.579	25.26
339.792	25.26
340.004	47.79
340.217	0.68
340.429	53.93
340.641	119.46
340.854	-13.65
341.066	0.68
341.278	66.22
341.491	29.35
341.703	78.51
341.915	17.07
342.128	133.8
342.34	15.02
342.552	-7.51
342.764	-34.13
342.977	37.55
343.189	4.78
343.401	45.74
343.613	33.45
343.826	-19.8
344.038	72.36
344.25	4.78
344.462	47.79
344.674	119.46
344.886	29.35
345.099	41.64
345.311	43.69
345.523	62.12
345.735	74.41
345.947	31.4
346.159	21.16
346.371	53.93
346.583	-1.37
346.795	-1.37
347.007	62.12
347.219	25.26
347.431	80.55
347.643	66.22
347.855	-38.23
348.067	62.12
348.279	23.21
348.491	45.74
348.703	72.36
348.915	80.55
349.127	70.31
349.339	55.98
349.551	88.75
349.763	43.69
349.975	86.7
350.187	33.45
350.399	84.65
350.61	37.55
350.822	43.69
351.034	27.31
351.246	88.75
351.458	-34.13
351.669	60.07
351.881	58.03
352.093	4.78
352.305	41.64
352.517	70.31
352.728	27.31
352.94	53.93
353.152	62.12
353.363	-23.89
353.575	68.27
353.787	17.07
353.999	37.55
354.21	121.51
354.422	49.83
354.633	53.93
354.845	123.56
355.057	103.08
355.268	53.93
355.48	60.07
355.692	41.64
355.903	72.36
356.115	72.36
356.326	51.88
356.538	51.88
356.749	47.79
356.961	72.36
357.172	88.75
357.384	33.45
357.595	66.22
357.807	66.22
358.018	6.83
358.23	131.75
358.441	60.07
358.653	88.75
358.864	-36.18
359.075	-3.41
359.287	96.94
359.498	76.46
359.709	64.17
359.921	70.31
360.132	64.17
360.344	43.69
360.555	8.87
360.766	6.83
360.977	68.27
361.189	53.93
361.4	92.84
361.611	66.22
361.823	53.93
362.034	0.68
362.245	41.64
362.456	88.75
362.667	39.59
362.879	96.94
363.09	39.59
363.301	88.75
363.512	29.35
363.723	8.87
363.935	76.46
364.146	78.51
364.357	51.88
364.568	121.51
364.779	-7.51
364.99	74.41
365.201	-3.41
365.412	84.65
365.623	94.89
365.834	80.55
366.045	62.12
366.256	33.45
366.467	43.69
366.678	-3.41
366.889	25.26
367.1	37.55
367.311	111.27
367.522	51.88
367.733	17.07
367.944	141.99
368.155	86.7
368.366	-23.89
368.577	51.88
368.788	6.83
368.999	-11.61
369.209	10.92
369.42	141.99
369.631	105.13
369.842	4.78
370.053	119.46
370.264	21.16
370.474	31.4
370.685	53.93
370.896	43.69
371.107	43.69
371.317	80.55
371.528	113.32
371.739	68.27
371.95	39.59
372.16	17.07
372.371	60.07
372.582	101.03
372.792	47.79
373.003	39.59
373.214	15.02
373.424	29.35
373.635	55.98
373.846	94.89
374.056	92.84
374.267	55.98
374.477	49.83
374.688	125.61
374.898	68.27
375.109	76.46
375.319	41.64
375.53	84.65
375.74	129.7
375.951	90.79
376.161	-40.28
376.372	8.87
376.582	139.94
376.793	45.74
377.003	31.4
377.214	117.42
377.424	55.98
377.635	88.75
377.845	31.4
378.055	47.79
378.266	74.41
378.476	70.31
378.686	45.74
378.897	162.47
379.107	39.59
379.317	107.18
379.528	60.07
379.738	74.41
379.948	33.45
380.158	172.71
380.369	78.51
380.579	49.83
380.789	115.37
380.999	19.11
381.21	23.21
381.42	84.65
381.63	35.5
381.84	96.94
382.05	80.55
382.261	70.31
382.471	43.69
382.681	80.55
382.891	60.07
383.101	55.98
383.311	-5.46
383.521	92.84
383.731	47.79
383.941	107.18
384.151	88.75
384.361	74.41
384.571	37.55
384.781	6.83
384.991	15.02
385.201	78.51
385.411	64.17
385.621	17.07
385.831	12.97
386.041	31.4
386.251	64.17
386.461	43.69
386.671	78.51
386.881	117.42
387.091	127.66
387.301	103.08
387.511	27.31
387.72	107.18
387.93	113.32
388.14	60.07
388.35	101.03
388.56	25.26
388.769	70.31
388.979	150.18
389.189	37.55
389.399	10.92
389.609	90.79
389.818	115.37
390.028	55.98
390.238	19.11
390.447	15.02
390.657	-30.04
390.867	78.51
391.076	35.5
391.286	60.07
391.496	90.79
391.705	35.5
391.915	31.4
392.125	156.33
392.334	47.79
392.544	82.6
392.753	47.79
392.963	47.79
393.172	60.07
393.382	-13.65
393.591	74.41
393.801	86.7
394.01	133.8
394.22	60.07
394.429	15.02
394.639	43.69
394.848	96.94
395.058	72.36
395.267	90.79
395.477	68.27
395.686	121.51
395.895	84.65
396.105	37.55
396.314	43.69
396.524	90.79
396.733	70.31
396.942	47.79
397.152	115.37
397.361	68.27
397.57	-7.51
397.78	113.32
397.989	66.22
398.198	139.94
398.407	154.28
398.617	121.51
398.826	76.46
399.035	111.27
399.244	119.46
399.453	88.75
399.663	121.51
399.872	105.13
400.081	82.6
400.29	111.27
400.499	68.27
400.708	53.93
400.917	139.94
401.127	129.7
401.336	96.94
401.545	135.85
401.754	47.79
401.963	90.79
402.172	86.7
402.381	131.75
402.59	115.37
402.799	90.79
403.008	135.85
403.217	121.51
403.426	115.37
403.635	88.75
403.844	70.31
404.053	135.85
404.262	144.04
404.471	162.47
404.68	109.22
404.888	125.61
405.097	127.66
405.306	148.14
405.515	164.52
405.724	160.42
405.933	172.71
406.142	164.52
406.35	117.42
406.559	154.28
406.768	156.33
406.977	207.53
407.185	158.38
407.394	215.72
407.603	111.27
407.812	172.71
408.02	209.58
408.229	228.01
408.438	213.67
408.646	197.29
408.855	271.01
409.064	250.53
409.272	189.1
409.481	211.62
409.69	152.23
409.898	262.82
410.107	207.53
410.315	285.35
410.524	236.2
410.733	301.73
410.941	305.83
411.15	185
411.358	361.13
411.567	316.07
411.775	314.02
411.984	322.21
412.192	387.75
412.401	359.08
412.609	369.32
412.818	441
413.026	354.98
413.234	436.9
413.443	385.7
413.651	365.22
413.86	449.19
414.068	441
414.276	436.9
414.485	441
414.693	467.62
414.901	531.11
415.11	469.67
415.318	522.91
415.526	561.83
415.734	592.55
415.943	541.35
416.151	631.46
416.359	666.27
416.567	631.46
416.776	617.12
416.984	641.7
417.192	709.28
417.4	641.7
417.608	758.43
417.817	682.66
418.025	811.68
418.233	930.46
418.441	879.26
418.649	916.12
418.857	936.6
419.065	1010.33
419.273	828.06
419.481	1014.43
419.689	1065.63
419.897	1131.16
420.105	1079.96
420.313	1094.3
420.521	1204.89
420.729	1141.4
420.937	1186.46
421.145	1276.57
421.353	1301.14
421.561	1413.78
421.769	1479.32
421.977	1417.88
422.185	1458.84
422.393	1546.9
422.601	1581.71
422.809	1630.87
423.017	1596.05
423.224	1733.26
423.432	1755.79
423.64	1737.36
423.848	1907.34
424.056	1847.95
424.263	2060.94
424.471	1946.25
424.679	2097.8
424.887	2144.91
425.094	2292.36
425.302	2204.3
425.51	2314.89
425.718	2439.81
425.925	2499.2
426.133	2566.79
426.341	2730.62
426.548	2847.36
426.756	2701.95
426.964	2837.12
427.171	2962.05
427.379	3084.92
427.586	3107.45
427.794	3066.49
428.001	3338.87
428.209	3578.48
428.417	3408.5
428.624	3691.12
428.832	3768.95
429.039	3701.36
429.247	3703.41
429.454	4006.51
429.662	4219.5
429.869	4043.37
430.076	4180.59
430.284	4149.87
430.491	4321.9
430.699	4577.89
430.906	4559.46
431.114	4717.15
431.321	4815.46
431.528	4883.04
431.736	5427.8
431.943	5513.81
432.15	5204.57
432.358	5376.6
432.565	5636.69
432.772	5626.45
432.979	5921.36
433.187	5849.68
433.394	6001.23
433.601	6521.42
433.808	6478.41
434.016	6419.02
434.223	6873.67
434.43	7141.95
434.637	6785.6
434.844	7356.99
435.052	7547.45
435.259	7504.44
435.466	7434.81
435.673	7569.98
435.88	7971.38
436.087	8311.34
436.294	8430.12
436.501	8077.87
436.708	8319.53
436.915	8600.1
437.122	9171.49
437.329	9007.65
437.537	9388.57
437.743	9591.32
437.95	9404.96
438.157	9822.74
438.364	10254.86
438.571	10066.45
438.778	10215.95
438.985	11057.67
439.192	10689.03
439.399	11069.95
439.606	10818.05
439.813	11457.02
440.02	11993.59
440.227	11774.45
440.433	11670.01
440.64	12210.67
440.847	12075.51
441.054	12247.54
441.261	13359.58
441.467	13115.87
441.674	13320.67
441.881	13736.41
442.088	13773.27
442.294	13674.97
442.501	14027.22
442.708	14342.61
442.914	14860.74
443.121	15335.87
443.328	15317.44
443.534	16314.8
443.741	15880.63
443.948	15233.47
444.154	16855.47
444.361	16560.56
444.568	16751.02
444.774	16546.22
444.981	16851.37
445.187	17355.17
445.394	17934.74
445.6	17826.2
445.807	19585.41
446.013	19020.17
446.22	19204.49
446.426	19755.39
446.633	19923.32
446.839	20625.78
447.046	20035.96
447.252	21025.13
447.459	21211.49
447.665	20836.72
447.871	21780.83
448.078	22454.61
448.284	21815.65
448.491	22020.44
448.697	22792.53
448.903	23419.21
449.11	23609.67
449.316	23238.98
449.522	23306.57
449.728	23982.4
449.935	23839.04
450.141	24312.12
450.347	24875.31
450.553	24025.4
450.76	24541.49
450.966	25272.62
451.172	24887.6
451.378	25426.21
451.584	24996.14
451.791	25428.26
451.997	25366.82
452.203	25743.65
452.409	25745.7
452.615	25696.55
452.821	24658.23
453.027	24469.81
453.233	25606.44
453.44	24717.62
453.646	24750.38
453.852	24959.28
454.058	25682.21
454.264	24647.99
454.47	24914.22
454.676	24146.23
454.882	25282.86
455.088	22784.33
455.294	23505.22
455.5	23687.49
455.705	23931.2
455.911	22702.42
456.117	22384.98
456.323	22245.72
456.529	21027.18
456.735	21848.41
456.941	21342.56
457.147	20904.3
457.352	20273.53
457.558	20056.44
457.764	20076.92
457.97	19773.82
458.176	19386.75
458.381	19210.63
458.587	18444.69
458.793	18295.19
458.999	17189.28
459.204	18653.58
459.41	18008.47
459.616	16884.14
459.821	16964.01
460.027	16880.04
460.233	16648.62
460.438	15704.51
460.644	15702.46
460.85	15116.74
461.055	15075.78
461.261	14991.81
461.466	13984.21
461.672	13238.75
461.878	14295.5
462.083	13459.93
462.289	13197.79
462.494	13093.35
462.7	12481
462.905	12069.36
463.111	12671.47
463.316	12493.29
463.522	12444.14
463.727	12358.13
463.932	12384.75
464.138	12276.21
464.343	12247.54
464.549	11766.26
464.754	12378.61
464.959	12143.09
465.165	12263.92
465.37	11710.97
465.575	11334.14
465.781	11776.5
465.986	11864.57
466.191	11385.34
466.397	11106.82
466.602	10598.92
466.807	11227.65
467.012	11235.84
467.218	11049.47
467.423	10781.19
467.628	11010.56
467.833	11502.08
468.038	10717.7
468.244	10463.76
468.449	11340.29
