Data from USB4F104151__154__13-58-35-854.txt Node

Date: Thu Mar 13 13:58:35 EDT 2025
User: louis
Spectrometer: USB4F10415
Trigger mode: 4
Integration Time (sec): 1.000000E-2
Scans to average: 1
Electric dark correction enabled: true
Nonlinearity correction enabled: false
Boxcar width: 0
XAxis mode: Wavelengths
Number of Pixels in Spectrum: 3648
>>>>>Begin Spectral Data<<<<<
178.204	-21.16
178.424	-21.16
178.644	-21.16
178.864	-72.36
179.084	23.89
179.304	32.08
179.524	-55.98
179.744	-49.83
179.964	-8.87
180.184	30.04
180.404	42.32
180.624	-51.88
180.844	52.56
181.064	5.46
181.283	13.65
181.503	-8.87
181.723	-0.68
181.943	-25.26
182.163	-41.64
182.383	62.8
182.602	48.47
182.822	5.46
183.042	17.75
183.262	-58.03
183.482	19.8
183.701	1.37
183.921	-10.92
184.141	46.42
184.361	-31.4
184.58	-23.21
184.8	-35.5
185.02	5.46
185.239	-10.92
185.459	71
185.679	66.9
185.898	-21.16
186.118	30.04
186.338	-15.02
186.557	54.61
186.777	-0.68
186.997	-37.55
187.216	1.37
187.436	15.7
187.655	-27.31
187.875	11.61
188.095	7.51
188.314	75.09
188.534	50.52
188.753	19.8
188.973	34.13
189.192	23.89
189.412	48.47
189.631	68.95
189.851	13.65
190.07	27.99
190.29	-25.26
190.509	44.37
190.729	25.94
190.948	-0.68
191.168	89.43
191.387	25.94
191.607	40.28
191.826	-12.97
192.045	42.32
192.265	13.65
192.484	-27.31
192.704	-27.31
192.923	5.46
193.142	-2.73
193.362	-10.92
193.581	87.38
193.8	5.46
194.02	-6.83
194.239	36.18
194.458	54.61
194.678	17.75
194.897	50.52
195.116	36.18
195.335	1.37
195.555	1.37
195.774	62.8
195.993	23.89
196.212	30.04
196.432	-17.07
196.651	17.75
196.87	-21.16
197.089	27.99
197.308	7.51
197.528	-12.97
197.747	-6.83
197.966	68.95
198.185	-12.97
198.404	19.8
198.623	32.08
198.842	-66.22
199.062	50.52
199.281	-6.83
199.5	15.7
199.719	-10.92
199.938	3.41
200.157	5.46
200.376	50.52
200.595	9.56
200.814	52.56
201.033	42.32
201.252	30.04
201.471	36.18
201.69	-0.68
201.909	54.61
202.128	-55.98
202.347	38.23
202.566	85.33
202.785	25.94
203.004	30.04
203.223	44.37
203.442	-131.75
203.661	-4.78
203.879	19.8
204.098	9.56
204.317	3.41
204.536	15.7
204.755	40.28
204.974	50.52
205.193	-60.07
205.411	21.85
205.63	36.18
205.849	48.47
206.068	23.89
206.287	1.37
206.505	44.37
206.724	9.56
206.943	13.65
207.162	64.85
207.381	-17.07
207.599	-6.83
207.818	73.04
208.037	56.66
208.255	-25.26
208.474	62.8
208.693	36.18
208.911	62.8
209.13	50.52
209.349	52.56
209.567	-31.4
209.786	-0.68
210.005	5.46
210.223	19.8
210.442	42.32
210.661	44.37
210.879	21.85
211.098	50.52
211.316	11.61
211.535	17.75
211.753	21.85
211.972	7.51
212.191	-55.98
212.409	-33.45
212.628	19.8
212.846	23.89
213.065	38.23
213.283	38.23
213.502	25.94
213.72	75.09
213.938	9.56
214.157	30.04
214.375	13.65
214.594	-35.5
214.812	5.46
215.031	40.28
215.249	38.23
215.467	-43.69
215.686	21.85
215.904	-41.64
216.122	50.52
216.341	9.56
216.559	36.18
216.778	-2.73
216.996	-31.4
217.214	-17.07
217.432	42.32
217.651	5.46
217.869	-29.35
218.087	34.13
218.306	7.51
218.524	99.67
218.742	-0.68
218.96	58.71
219.179	-55.98
219.397	44.37
219.615	23.89
219.833	5.46
220.051	3.41
220.27	25.94
220.488	-43.69
220.706	21.85
220.924	-6.83
221.142	15.7
221.36	50.52
221.578	40.28
221.796	101.72
222.015	-51.88
222.233	13.65
222.451	34.13
222.669	19.8
222.887	114
223.105	17.75
223.323	-19.11
223.541	-6.83
223.759	46.42
223.977	-10.92
224.195	15.7
224.413	9.56
224.631	95.57
224.849	-43.69
225.067	19.8
225.285	75.09
225.503	32.08
225.721	30.04
225.939	5.46
226.157	9.56
226.375	144.72
226.592	17.75
226.81	-41.64
227.028	3.41
227.246	-2.73
227.464	-25.26
227.682	40.28
227.9	40.28
228.117	54.61
228.335	-4.78
228.553	-0.68
228.771	-4.78
228.989	-15.02
229.206	-4.78
229.424	36.18
229.642	11.61
229.86	48.47
230.077	3.41
230.295	-23.21
230.513	-17.07
230.731	44.37
230.948	36.18
231.166	-21.16
231.384	9.56
231.601	-0.68
231.819	-58.03
232.037	54.61
232.254	-62.12
232.472	19.8
232.689	25.94
232.907	-2.73
233.125	48.47
233.342	68.95
233.56	17.75
233.777	13.65
233.995	-10.92
234.213	64.85
234.43	11.61
234.648	44.37
234.865	-21.16
235.083	50.52
235.3	27.99
235.518	23.89
235.735	48.47
235.953	13.65
236.17	30.04
236.388	38.23
236.605	-41.64
236.822	21.85
237.04	50.52
237.257	15.7
237.475	36.18
237.692	75.09
237.909	13.65
238.127	42.32
238.344	52.56
238.562	-53.93
238.779	-43.69
238.996	30.04
239.214	48.47
239.431	56.66
239.648	-2.73
239.865	66.9
240.083	56.66
240.3	54.61
240.517	27.99
240.735	77.14
240.952	19.8
241.169	107.86
241.386	62.8
241.603	21.85
241.821	-25.26
242.038	-31.4
242.255	-6.83
242.472	17.75
242.689	25.94
242.907	21.85
243.124	-29.35
243.341	75.09
243.558	27.99
243.775	-15.02
243.992	77.14
244.209	-10.92
244.426	114
244.643	66.9
244.86	1.37
245.078	46.42
245.295	40.28
245.512	1.37
245.729	91.48
245.946	34.13
246.163	95.57
246.38	34.13
246.597	56.66
246.814	23.89
247.031	23.89
247.248	56.66
247.464	-10.92
247.681	64.85
247.898	11.61
248.115	40.28
248.332	15.7
248.549	54.61
248.766	36.18
248.983	9.56
249.2	23.89
249.417	71
249.633	30.04
249.85	-43.69
250.067	73.04
250.284	15.7
250.501	73.04
250.717	-0.68
250.934	60.76
251.151	23.89
251.368	-25.26
251.585	34.13
251.801	-0.68
252.018	1.37
252.235	83.28
252.451	-23.21
252.668	17.75
252.885	27.99
253.102	-2.73
253.318	7.51
253.535	-33.45
253.752	38.23
253.968	34.13
254.185	-12.97
254.401	3.41
254.618	-15.02
254.835	-41.64
255.051	5.46
255.268	34.13
255.484	21.85
255.701	-15.02
255.917	-19.11
256.134	9.56
256.351	30.04
256.567	1.37
256.784	27.99
257	75.09
257.217	52.56
257.433	95.57
257.65	42.32
257.866	54.61
258.082	-19.11
258.299	-43.69
258.515	-0.68
258.732	5.46
258.948	-12.97
259.165	-21.16
259.381	15.7
259.597	54.61
259.814	56.66
260.03	19.8
260.246	32.08
260.463	-8.87
260.679	-15.02
260.895	15.7
261.112	27.99
261.328	1.37
261.544	79.19
261.761	44.37
261.977	62.8
262.193	-55.98
262.409	46.42
262.626	-33.45
262.842	-12.97
263.058	48.47
263.274	-6.83
263.49	-49.83
263.707	30.04
263.923	9.56
264.139	-6.83
264.355	5.46
264.571	62.8
264.787	-25.26
265.004	13.65
265.22	-37.55
265.436	75.09
265.652	15.7
265.868	32.08
266.084	17.75
266.3	50.52
266.516	15.7
266.732	-53.93
266.948	27.99
267.164	36.18
267.38	15.7
267.596	27.99
267.812	83.28
268.028	25.94
268.244	-12.97
268.46	32.08
268.676	-15.02
268.892	7.51
269.108	56.66
269.324	-47.79
269.54	25.94
269.756	-19.11
269.972	13.65
270.188	40.28
270.403	48.47
270.619	23.89
270.835	11.61
271.051	79.19
271.267	-49.83
271.483	13.65
271.698	27.99
271.914	99.67
272.13	42.32
272.346	-51.88
272.562	11.61
272.777	40.28
272.993	-27.31
273.209	-19.11
273.425	-39.59
273.64	-12.97
273.856	52.56
274.072	-10.92
274.287	-6.83
274.503	-27.31
274.719	7.51
274.934	13.65
275.15	19.8
275.366	21.85
275.581	-23.21
275.797	54.61
276.012	5.46
276.228	27.99
276.444	25.94
276.659	23.89
276.875	71
277.09	40.28
277.306	-35.5
277.521	30.04
277.737	23.89
277.952	21.85
278.168	-27.31
278.383	71
278.599	-39.59
278.814	44.37
279.03	7.51
279.245	56.66
279.461	42.32
279.676	15.7
279.892	9.56
280.107	19.8
280.322	-12.97
280.538	79.19
280.753	13.65
280.969	91.48
281.184	46.42
281.399	30.04
281.615	21.85
281.83	-49.83
282.045	9.56
282.26	9.56
282.476	89.43
282.691	-19.11
282.906	48.47
283.122	-6.83
283.337	17.75
283.552	62.8
283.767	87.38
283.983	17.75
284.198	3.41
284.413	9.56
284.628	27.99
284.843	32.08
285.058	25.94
285.274	97.62
285.489	40.28
285.704	32.08
285.919	44.37
286.134	56.66
286.349	1.37
286.564	36.18
286.779	11.61
286.995	17.75
287.21	-4.78
287.425	42.32
287.64	-2.73
287.855	54.61
288.07	23.89
288.285	21.85
288.5	36.18
288.715	32.08
288.93	40.28
289.145	9.56
289.36	1.37
289.575	-2.73
289.79	40.28
290.004	-21.16
290.219	5.46
290.434	-17.07
290.649	23.89
290.864	60.76
291.079	-17.07
291.294	30.04
291.509	-51.88
291.724	19.8
291.938	-25.26
292.153	40.28
292.368	15.7
292.583	32.08
292.798	21.85
293.012	-41.64
293.227	21.85
293.442	21.85
293.657	89.43
293.871	1.37
294.086	25.94
294.301	54.61
294.516	7.51
294.73	25.94
294.945	-76.46
295.16	-6.83
295.374	-47.79
295.589	23.89
295.804	30.04
296.018	21.85
296.233	107.86
296.447	32.08
296.662	21.85
296.877	34.13
297.091	62.8
297.306	-21.16
297.52	42.32
297.735	54.61
297.949	34.13
298.164	38.23
298.378	54.61
298.593	15.7
298.807	21.85
299.022	27.99
299.236	-4.78
299.451	-8.87
299.665	15.7
299.88	32.08
300.094	48.47
300.309	60.76
300.523	3.41
300.737	30.04
300.952	75.09
301.166	17.75
301.381	3.41
301.595	-2.73
301.809	-0.68
302.024	-4.78
302.238	71
302.452	83.28
302.667	13.65
302.881	-19.11
303.095	19.8
303.309	38.23
303.524	7.51
303.738	-19.11
303.952	21.85
304.166	7.51
304.381	38.23
304.595	15.7
304.809	1.37
305.023	50.52
305.237	81.24
305.452	7.51
305.666	15.7
305.88	-4.78
306.094	5.46
306.308	30.04
306.522	-15.02
306.736	32.08
306.95	60.76
307.164	42.32
307.379	-29.35
307.593	38.23
307.807	68.95
308.021	54.61
308.235	89.43
308.449	23.89
308.663	-0.68
308.877	46.42
309.091	48.47
309.305	40.28
309.519	-8.87
309.733	7.51
309.947	-41.64
310.161	38.23
310.374	21.85
310.588	15.7
310.802	-0.68
311.016	23.89
311.23	97.62
311.444	71
311.658	13.65
311.872	30.04
312.085	-19.11
312.299	42.32
312.513	107.86
312.727	17.75
312.941	3.41
313.154	25.94
313.368	21.85
313.582	15.7
313.796	-27.31
314.009	19.8
314.223	7.51
314.437	44.37
314.651	40.28
314.864	38.23
315.078	5.46
315.292	1.37
315.505	54.61
315.719	71
315.933	54.61
316.146	-15.02
316.36	17.75
316.573	87.38
316.787	30.04
317.001	-15.02
317.214	-6.83
317.428	77.14
317.641	38.23
317.855	50.52
318.068	23.89
318.282	56.66
318.495	38.23
318.709	-0.68
318.922	17.75
319.136	95.57
319.349	48.47
319.563	38.23
319.776	56.66
319.99	52.56
320.203	48.47
320.417	23.89
320.63	79.19
320.843	9.56
321.057	58.71
321.27	-10.92
321.483	58.71
321.697	15.7
321.91	71
322.124	27.99
322.337	54.61
322.55	11.61
322.763	44.37
322.977	60.76
323.19	48.47
323.403	15.7
323.617	19.8
323.83	34.13
324.043	-0.68
324.256	5.46
324.469	79.19
324.683	77.14
324.896	46.42
325.109	7.51
325.322	46.42
325.535	-2.73
325.748	3.41
325.962	116.05
326.175	-4.78
326.388	44.37
326.601	58.71
326.814	42.32
327.027	27.99
327.24	42.32
327.453	30.04
327.666	3.41
327.879	42.32
328.092	73.04
328.305	23.89
328.518	54.61
328.731	21.85
328.944	87.38
329.157	95.57
329.37	-0.68
329.583	64.85
329.796	13.65
330.009	64.85
330.222	62.8
330.435	5.46
330.648	73.04
330.861	44.37
331.073	75.09
331.286	25.94
331.499	68.95
331.712	25.94
331.925	87.38
332.138	5.46
332.35	-2.73
332.563	38.23
332.776	44.37
332.989	23.89
333.202	-60.07
333.414	54.61
333.627	73.04
333.84	46.42
334.053	25.94
334.265	23.89
334.478	-19.11
334.691	95.57
334.903	36.18
335.116	38.23
335.329	81.24
335.541	-31.4
335.754	97.62
335.966	-0.68
336.179	27.99
336.392	44.37
336.604	56.66
336.817	30.04
337.029	15.7
337.242	-4.78
337.454	95.57
337.667	7.51
337.88	-0.68
338.092	-21.16
338.305	73.04
338.517	32.08
338.729	54.61
338.942	32.08
339.154	7.51
339.367	-12.97
339.579	13.65
339.792	87.38
340.004	77.14
340.217	11.61
340.429	142.68
340.641	23.89
340.854	15.7
341.066	15.7
341.278	54.61
341.491	-23.21
341.703	64.85
341.915	32.08
342.128	40.28
342.34	11.61
342.552	44.37
342.764	-8.87
342.977	25.94
343.189	13.65
343.401	-82.6
343.613	66.9
343.826	111.96
344.038	126.29
344.25	66.9
344.462	79.19
344.674	15.7
344.886	54.61
345.099	13.65
345.311	46.42
345.523	62.8
345.735	34.13
345.947	54.61
346.159	30.04
346.371	89.43
346.583	-68.27
346.795	-23.21
347.007	25.94
347.219	17.75
347.431	-37.55
347.643	40.28
347.855	32.08
348.067	25.94
348.279	-37.55
348.491	54.61
348.703	128.34
348.915	-15.02
349.127	40.28
349.339	40.28
349.551	5.46
349.763	-31.4
349.975	60.76
350.187	62.8
350.399	30.04
350.61	13.65
350.822	-15.02
351.034	38.23
351.246	7.51
351.458	46.42
351.669	-25.26
351.881	91.48
352.093	52.56
352.305	13.65
352.517	89.43
352.728	34.13
352.94	27.99
353.152	32.08
353.363	17.75
353.575	62.8
353.787	56.66
353.999	46.42
354.21	-27.31
354.422	68.95
354.633	83.28
354.845	50.52
355.057	71
355.268	56.66
355.48	40.28
355.692	-6.83
355.903	7.51
356.115	52.56
356.326	3.41
356.538	46.42
356.749	13.65
356.961	89.43
357.172	50.52
357.384	-37.55
357.595	-15.02
357.807	34.13
358.018	13.65
358.23	40.28
358.441	30.04
358.653	95.57
358.864	44.37
359.075	54.61
359.287	95.57
359.498	-0.68
359.709	7.51
359.921	44.37
360.132	30.04
360.344	54.61
360.555	62.8
360.766	25.94
360.977	99.67
361.189	40.28
361.4	17.75
361.611	56.66
361.823	27.99
362.034	87.38
362.245	17.75
362.456	21.85
362.667	62.8
362.879	52.56
363.09	1.37
363.301	58.71
363.512	9.56
363.723	54.61
363.935	-10.92
364.146	21.85
364.357	34.13
364.568	46.42
364.779	-19.11
364.99	38.23
365.201	3.41
365.412	-2.73
365.623	25.94
365.834	91.48
366.045	60.76
366.256	3.41
366.467	64.85
366.678	21.85
366.889	50.52
367.1	89.43
367.311	23.89
367.522	87.38
367.733	38.23
367.944	23.89
368.155	17.75
368.366	23.89
368.577	11.61
368.788	25.94
368.999	54.61
369.209	66.9
369.42	97.62
369.631	27.99
369.842	-8.87
370.053	87.38
370.264	64.85
370.474	48.47
370.685	56.66
370.896	38.23
371.107	34.13
371.317	-4.78
371.528	68.95
371.739	-8.87
371.95	52.56
372.16	36.18
372.371	36.18
372.582	103.76
372.792	30.04
373.003	42.32
373.214	-25.26
373.424	17.75
373.635	19.8
373.846	40.28
374.056	23.89
374.267	105.81
374.477	5.46
374.688	13.65
374.898	40.28
375.109	-17.07
375.319	13.65
375.53	73.04
375.74	-21.16
375.951	-10.92
376.161	-39.59
376.372	79.19
376.582	58.71
376.793	-29.35
377.003	36.18
377.214	62.8
377.424	50.52
377.635	17.75
377.845	-8.87
378.055	48.47
378.266	36.18
378.476	93.52
378.686	3.41
378.897	23.89
379.107	-23.21
379.317	7.51
379.528	9.56
379.738	77.14
379.948	-8.87
380.158	56.66
380.369	23.89
380.579	-29.35
380.789	99.67
380.999	-2.73
381.21	116.05
381.42	44.37
381.63	23.89
381.84	62.8
382.05	87.38
382.261	142.68
382.471	64.85
382.681	52.56
382.891	81.24
383.101	62.8
383.311	5.46
383.521	38.23
383.731	32.08
383.941	9.56
384.151	52.56
384.361	81.24
384.571	32.08
384.781	111.96
384.991	103.76
385.201	95.57
385.411	124.24
385.621	-12.97
385.831	48.47
386.041	46.42
386.251	-19.11
386.461	42.32
386.671	7.51
386.881	-2.73
387.091	58.71
387.301	30.04
387.511	48.47
387.72	132.44
387.93	17.75
388.14	30.04
388.35	-0.68
388.56	54.61
388.769	87.38
388.979	7.51
389.189	87.38
389.399	38.23
389.609	15.7
389.818	87.38
390.028	13.65
390.238	103.76
390.447	85.33
390.657	87.38
390.867	85.33
391.076	17.75
391.286	77.14
391.496	-6.83
391.705	23.89
391.915	19.8
392.125	111.96
392.334	109.91
392.544	54.61
392.753	68.95
392.963	-12.97
393.172	97.62
393.382	50.52
393.591	58.71
393.801	91.48
394.01	34.13
394.22	-6.83
394.429	60.76
394.639	77.14
394.848	68.95
395.058	77.14
395.267	40.28
395.477	15.7
395.686	85.33
395.895	93.52
396.105	134.48
396.314	17.75
396.524	73.04
396.733	97.62
396.942	140.63
397.152	68.95
397.361	91.48
397.57	95.57
397.78	54.61
397.989	87.38
398.198	111.96
398.407	77.14
398.617	58.71
398.826	38.23
399.035	30.04
399.244	101.72
399.453	38.23
399.663	73.04
399.872	46.42
400.081	52.56
400.29	173.39
400.499	109.91
400.708	128.34
400.917	75.09
401.127	54.61
401.336	44.37
401.545	62.8
401.754	95.57
401.963	75.09
402.172	68.95
402.381	54.61
402.59	99.67
402.799	64.85
403.008	71
403.217	118.1
403.426	146.77
403.635	5.46
403.844	103.76
404.053	152.92
404.262	95.57
404.471	152.92
404.68	79.19
404.888	75.09
405.097	101.72
405.306	81.24
405.515	128.34
405.724	54.61
405.933	146.77
406.142	165.2
406.35	146.77
406.559	105.81
406.768	157.01
406.977	165.2
407.185	169.3
407.394	144.72
407.603	157.01
407.812	130.39
408.02	206.16
408.229	150.87
408.438	118.1
408.646	163.15
408.855	138.58
409.064	185.68
409.272	185.68
409.481	251.22
409.69	144.72
409.898	247.12
410.107	249.17
410.315	122.2
410.524	277.84
410.733	253.27
410.941	226.64
411.15	224.59
411.358	283.99
411.567	324.94
411.775	238.93
411.984	290.13
412.192	355.66
412.401	329.04
412.609	320.85
412.818	294.22
413.026	406.86
413.234	376.14
413.443	316.75
413.651	413.01
413.86	410.96
414.068	486.73
414.276	437.58
414.485	382.29
414.693	482.64
414.901	523.6
415.11	425.29
415.318	593.23
415.526	560.46
415.734	546.12
415.943	568.65
416.151	531.79
416.359	628.04
416.567	671.05
416.776	587.08
416.984	709.96
417.192	687.43
417.4	705.87
417.608	687.43
417.817	802.12
418.025	732.49
418.233	861.51
418.441	771.4
418.649	771.4
418.857	929.1
419.065	830.79
419.273	892.23
419.481	998.73
419.689	1082.69
419.897	1033.54
420.105	994.63
420.313	1094.98
420.521	1164.61
420.729	1166.66
420.937	1211.71
421.145	1334.59
421.353	1330.5
421.561	1328.45
421.769	1361.22
421.977	1496.38
422.185	1432.9
422.393	1563.97
422.601	1643.84
422.809	1660.22
423.017	1621.31
423.224	1678.65
423.432	1762.62
423.64	1787.19
423.848	1938.74
424.056	1844.54
424.263	2028.85
424.471	1934.65
424.679	2055.48
424.887	2270.51
425.094	2282.8
425.302	2237.75
425.51	2385.2
425.718	2358.58
425.925	2278.71
426.133	2514.22
426.341	2659.63
426.548	2823.47
426.756	2706.73
426.964	2825.51
427.171	2950.44
427.379	2913.58
427.586	3147.05
427.794	3200.29
428.001	3288.36
428.209	3505.44
428.417	3366.18
428.624	3630.37
428.832	3618.08
429.039	3609.89
429.247	3630.37
429.454	3984.66
429.662	4179.22
429.869	4023.58
430.076	4341.01
430.284	4015.38
430.491	4302.1
430.699	4566.29
430.906	4541.71
431.114	4676.88
431.321	4988.17
431.528	4873.48
431.736	5170.44
431.943	5354.76
432.15	5324.04
432.358	5338.37
432.565	5747.97
432.772	5571.84
432.979	5780.73
433.187	6001.91
433.394	5891.32
433.601	6423.8
433.808	6491.38
434.016	6253.81
434.223	6667.5
434.43	7060.71
434.637	6917.36
434.844	7607.52
435.052	7374.05
435.259	7423.2
435.466	7308.52
435.673	7419.11
435.88	7785.69
436.087	8324.31
436.294	8201.43
436.501	8371.41
436.708	8148.19
436.915	8621.27
437.122	9008.33
437.329	8983.76
437.537	9290.95
437.743	9256.14
437.95	9379.01
438.157	9843.9
438.364	10206.39
438.571	10065.08
438.778	10110.14
438.985	11119.79
439.192	10679.47
439.399	11136.17
439.606	10687.67
439.813	11310.25
440.02	12113.05
440.227	11666.6
440.433	11742.37
440.64	12190.88
440.847	11986.08
441.054	12401.82
441.261	13143.18
441.467	12958.86
441.674	13051.02
441.881	13825.15
442.088	13548.68
442.294	13649.03
442.501	13988.99
442.708	14056.57
442.914	14886
443.121	15336.56
443.328	14779.51
443.534	16000.1
443.741	15645.8
443.948	15490.15
444.154	16481.37
444.361	16297.05
444.568	16542.81
444.774	16389.21
444.981	16694.36
445.187	17134.67
445.394	17804.36
445.6	17767.49
445.807	19244.08
446.013	18402.36
446.22	18826.29
446.426	19524.65
446.633	19831.85
446.839	20593.69
447.046	19575.85
447.252	20593.69
447.459	20585.5
447.665	20728.86
447.871	21548.04
448.078	22547.45
448.284	21306.38
448.491	21910.53
448.697	22801.4
448.903	23061.49
449.11	23131.12
449.316	22764.54
449.522	23217.14
449.728	23878.63
449.935	24173.54
450.141	24136.68
450.347	24484.83
450.553	23636.97
450.76	24153.06
450.966	24663
451.172	24450.02
451.378	25097.17
451.584	24566.75
451.791	25035.74
451.997	25263.06
452.203	25809.87
452.409	25662.41
452.615	25447.38
452.821	24527.84
453.027	24247.27
453.233	25211.86
453.44	24318.95
453.646	24845.27
453.852	24835.03
454.058	25179.09
454.264	24697.82
454.47	25029.59
454.676	24325.09
454.882	25023.45
455.088	22909.94
455.294	23389.17
455.5	23559.15
455.705	23845.87
455.911	22641.66
456.117	22512.64
456.323	22160.39
456.529	20749.34
456.735	21683.21
456.941	21120.02
457.147	20947.99
457.352	20407.33
457.558	20212.77
457.764	20227.1
457.97	19786.79
458.176	19629.1
458.381	19235.89
458.587	18306.11
458.793	18447.42
458.999	17337.42
459.204	18650.17
459.41	18152.51
459.616	16931.92
459.821	16839.76
460.027	17192.01
460.233	16534.62
460.438	15959.14
460.644	15955.04
460.85	15334.51
461.055	14859.38
461.261	15234.16
461.466	14023.81
461.672	13577.35
461.878	14265.47
462.083	13571.21
462.289	13304.97
462.494	13073.55
462.7	12471.45
462.905	12375.19
463.111	12678.29
463.316	12569.75
463.522	12377.24
463.727	12504.21
463.932	12287.13
464.138	12379.29
464.343	12311.71
464.549	11871.39
464.754	12475.54
464.959	12338.33
465.165	12283.03
465.37	11787.43
465.575	11465.89
465.781	11875.49
465.986	12016.8
466.191	11535.53
466.397	11289.77
466.602	10591.41
466.807	10921.13
467.012	11357.35
467.218	11017.39
467.423	11123.88
467.628	10886.32
467.833	11517.09
468.038	11150.51
468.244	10732.72
468.449	11271.34
468.654	10826.93
468.859	10658.99
