Data from USB4F104151__100__13-54-39-069.txt Node

Date: Thu Mar 13 13:54:39 EDT 2025
User: louis
Spectrometer: USB4F10415
Trigger mode: 4
Integration Time (sec): 1.000000E-2
Scans to average: 1
Electric dark correction enabled: true
Nonlinearity correction enabled: false
Boxcar width: 0
XAxis mode: Wavelengths
Number of Pixels in Spectrum: 3648
>>>>>Begin Spectral Data<<<<<
178.204	-22.87
178.424	-22.87
178.644	-22.87
178.864	-69.97
179.084	-18.77
179.304	-29.01
179.524	36.52
179.744	-14.68
179.964	-55.64
180.184	-29.01
180.404	-6.49
180.624	40.62
180.844	38.57
181.064	-39.25
181.283	9.9
181.503	-39.25
181.723	87.72
181.943	-41.3
182.163	13.99
182.383	1.71
182.602	100.01
182.822	-49.49
183.042	61.1
183.262	-47.44
183.482	13.99
183.701	61.1
183.921	-0.34
184.141	-12.63
184.361	44.71
184.58	-2.39
184.8	42.67
185.02	-20.82
185.239	-0.34
185.459	-12.63
185.679	22.19
185.898	42.67
186.118	1.71
186.338	11.95
186.557	-4.44
186.777	-14.68
186.997	38.57
187.216	-69.97
187.436	69.29
187.655	48.81
187.875	-22.87
188.095	24.23
188.314	20.14
188.534	-80.21
188.753	16.04
188.973	-18.77
189.192	52.91
189.412	-12.63
189.631	-2.39
189.851	-31.06
190.07	91.82
190.29	65.19
190.509	102.06
190.729	-24.92
190.948	-26.96
191.168	93.87
191.387	28.33
191.607	-74.07
191.826	16.04
192.045	-0.34
192.265	26.28
192.484	-18.77
192.704	-22.87
192.923	-2.39
193.142	65.19
193.362	61.1
193.581	44.71
193.8	13.99
194.02	11.95
194.239	22.19
194.458	65.19
194.678	-8.53
194.897	9.9
195.116	32.43
195.335	-8.53
195.555	-8.53
195.774	32.43
195.993	11.95
196.212	13.99
196.432	-72.02
196.651	9.9
196.87	54.95
197.089	30.38
197.308	-12.63
197.528	5.8
197.747	-24.92
197.966	16.04
198.185	81.58
198.404	36.52
198.623	1.71
198.842	-0.34
199.062	77.48
199.281	22.19
199.5	-14.68
199.719	61.1
199.938	63.15
200.157	-8.53
200.376	3.75
200.595	20.14
200.814	24.23
201.033	18.09
201.252	54.95
201.471	9.9
201.69	9.9
201.909	9.9
202.128	42.67
202.347	26.28
202.566	32.43
202.785	-47.44
203.004	11.95
203.223	34.47
203.442	-37.2
203.661	50.86
203.879	-53.59
204.098	65.19
204.317	-10.58
204.536	30.38
204.755	7.85
204.974	32.43
205.193	13.99
205.411	61.1
205.63	-4.44
205.849	-14.68
206.068	-20.82
206.287	46.76
206.505	18.09
206.724	-37.2
206.943	26.28
207.162	36.52
207.381	-24.92
207.599	30.38
207.818	-12.63
208.037	28.33
208.255	-33.11
208.474	-16.73
208.693	-14.68
208.911	48.81
209.13	42.67
209.349	44.71
209.567	9.9
209.786	-16.73
210.005	36.52
210.223	-8.53
210.442	-0.34
210.661	3.75
210.879	-43.35
211.098	44.71
211.316	9.9
211.535	77.48
211.753	-49.49
211.972	-6.49
212.191	65.19
212.409	-2.39
212.628	11.95
212.846	-6.49
213.065	7.85
213.283	42.67
213.502	100.01
213.72	34.47
213.938	36.52
214.157	-47.44
214.375	97.96
214.594	36.52
214.812	3.75
215.031	-57.68
215.249	5.8
215.467	54.95
215.686	20.14
215.904	13.99
216.122	63.15
216.341	-57.68
216.559	-6.49
216.778	52.91
216.996	-6.49
217.214	30.38
217.432	-41.3
217.651	5.8
217.869	-24.92
218.087	30.38
218.306	-76.12
218.524	18.09
218.742	-0.34
218.96	-22.87
219.179	38.57
219.397	28.33
219.615	28.33
219.833	-0.34
220.051	36.52
220.27	38.57
220.488	5.8
220.706	40.62
220.924	9.9
221.142	63.15
221.36	11.95
221.578	40.62
221.796	1.71
222.015	-8.53
222.233	7.85
222.451	75.43
222.669	-22.87
222.887	28.33
223.105	85.67
223.323	-20.82
223.541	18.09
223.759	57
223.977	36.52
224.195	81.58
224.413	5.8
224.631	16.04
224.849	24.23
225.067	67.24
225.285	-12.63
225.503	-8.53
225.721	-10.58
225.939	59.05
226.157	-4.44
226.375	91.82
226.592	5.8
226.81	89.77
227.028	-26.96
227.246	42.67
227.464	3.75
227.682	95.91
227.9	83.63
228.117	-51.54
228.335	9.9
228.553	-22.87
228.771	30.38
228.989	-8.53
229.206	40.62
229.424	28.33
229.642	32.43
229.86	52.91
230.077	44.71
230.295	83.63
230.513	50.86
230.731	48.81
230.948	-6.49
231.166	69.29
231.384	24.23
231.601	59.05
231.819	3.75
232.037	38.57
232.254	-20.82
232.472	28.33
232.689	-22.87
232.907	52.91
233.125	42.67
233.342	-33.11
233.56	-51.54
233.777	36.52
233.995	-33.11
234.213	61.1
234.43	59.05
234.648	-8.53
234.865	46.76
235.083	38.57
235.3	24.23
235.518	28.33
235.735	1.71
235.953	26.28
236.17	7.85
236.388	13.99
236.605	-26.96
236.822	-47.44
237.04	32.43
237.257	42.67
237.475	-6.49
237.692	-4.44
237.909	13.99
238.127	36.52
238.344	-4.44
238.562	13.99
238.779	-6.49
238.996	-45.4
239.214	-10.58
239.431	61.1
239.648	7.85
239.865	-2.39
240.083	52.91
240.3	-45.4
240.517	11.95
240.735	-24.92
240.952	28.33
241.169	26.28
241.386	-14.68
241.603	11.95
241.821	9.9
242.038	54.95
242.255	118.44
242.472	5.8
242.689	63.15
242.907	20.14
243.124	-29.01
243.341	26.28
243.558	-6.49
243.775	18.09
243.992	-33.11
244.209	24.23
244.426	-0.34
244.643	18.09
244.86	36.52
245.078	-4.44
245.295	-0.34
245.512	11.95
245.729	-49.49
245.946	59.05
246.163	-10.58
246.38	-18.77
246.597	-10.58
246.814	44.71
247.031	-4.44
247.248	11.95
247.464	-10.58
247.681	126.63
247.898	54.95
248.115	40.62
248.332	-29.01
248.549	9.9
248.766	46.76
248.983	69.29
249.2	32.43
249.417	52.91
249.633	40.62
249.85	89.77
250.067	30.38
250.284	69.29
250.501	-43.35
250.717	-53.59
250.934	26.28
251.151	18.09
251.368	46.76
251.585	-12.63
251.801	9.9
252.018	-8.53
252.235	44.71
252.451	5.8
252.668	9.9
252.885	63.15
253.102	-0.34
253.318	30.38
253.535	63.15
253.752	91.82
253.968	-47.44
254.185	5.8
254.401	65.19
254.618	-6.49
254.835	65.19
255.051	11.95
255.268	34.47
255.484	116.39
255.701	5.8
255.917	-59.73
256.134	38.57
256.351	-29.01
256.567	48.81
256.784	-51.54
257	32.43
257.217	57
257.433	-14.68
257.65	46.76
257.866	-35.16
258.082	42.67
258.299	71.34
258.515	42.67
258.732	9.9
258.948	48.81
259.165	5.8
259.381	-20.82
259.597	-4.44
259.814	81.58
260.03	63.15
260.246	30.38
260.463	13.99
260.679	38.57
260.895	-45.4
261.112	-47.44
261.328	-20.82
261.544	-12.63
261.761	91.82
261.977	42.67
262.193	9.9
262.409	-41.3
262.626	-43.35
262.842	48.81
263.058	48.81
263.274	-22.87
263.49	-0.34
263.707	1.71
263.923	38.57
264.139	42.67
264.355	16.04
264.571	1.71
264.787	-2.39
265.004	-22.87
265.22	61.1
265.436	-2.39
265.652	-72.02
265.868	-10.58
266.084	32.43
266.3	46.76
266.516	13.99
266.732	61.1
266.948	44.71
267.164	-18.77
267.38	-12.63
267.596	18.09
267.812	59.05
268.028	16.04
268.244	7.85
268.46	-24.92
268.676	-45.4
268.892	83.63
269.108	44.71
269.324	30.38
269.54	42.67
269.756	38.57
269.972	-8.53
270.188	32.43
270.403	22.19
270.619	46.76
270.835	11.95
271.051	26.28
271.267	-29.01
271.483	5.8
271.698	-2.39
271.914	85.67
272.13	13.99
272.346	42.67
272.562	-10.58
272.777	65.19
272.993	73.39
273.209	-29.01
273.425	57
273.64	65.19
273.856	-0.34
274.072	18.09
274.287	42.67
274.503	13.99
274.719	20.14
274.934	-31.06
275.15	24.23
275.366	44.71
275.581	28.33
275.797	13.99
276.012	9.9
276.228	-47.44
276.444	-39.25
276.659	79.53
276.875	52.91
277.09	20.14
277.306	57
277.521	30.38
277.737	-16.73
277.952	-20.82
278.168	9.9
278.383	7.85
278.599	-51.54
278.814	120.49
279.03	65.19
279.245	52.91
279.461	3.75
279.676	1.71
279.892	9.9
280.107	61.1
280.322	79.53
280.538	-20.82
280.753	18.09
280.969	63.15
281.184	24.23
281.399	11.95
281.615	-51.54
281.83	34.47
282.045	34.47
282.26	32.43
282.476	36.52
282.691	77.48
282.906	1.71
283.122	26.28
283.337	-4.44
283.552	106.15
283.767	-18.77
283.983	124.58
284.198	13.99
284.413	-24.92
284.628	46.76
284.843	34.47
285.058	5.8
285.274	13.99
285.489	28.33
285.704	79.53
285.919	57
286.134	75.43
286.349	-0.34
286.564	7.85
286.779	42.67
286.995	-26.96
287.21	-2.39
287.425	9.9
287.64	16.04
287.855	57
288.07	16.04
288.285	3.75
288.5	-12.63
288.715	40.62
288.93	-31.06
289.145	112.3
289.36	57
289.575	30.38
289.79	-51.54
290.004	-18.77
290.219	-18.77
290.434	79.53
290.649	-8.53
290.864	20.14
291.079	-41.3
291.294	59.05
291.509	61.1
291.724	30.38
291.938	46.76
292.153	42.67
292.368	16.04
292.583	-18.77
292.798	63.15
293.012	30.38
293.227	18.09
293.442	61.1
293.657	36.52
293.871	-16.73
294.086	46.76
294.301	-2.39
294.516	63.15
294.73	1.71
294.945	65.19
295.16	52.91
295.374	34.47
295.589	-39.25
295.804	13.99
296.018	46.76
296.233	73.39
296.447	-2.39
296.662	-10.58
296.877	81.58
297.091	16.04
297.306	-24.92
297.52	30.38
297.735	-12.63
297.949	13.99
298.164	59.05
298.378	42.67
298.593	54.95
298.807	-4.44
299.022	9.9
299.236	42.67
299.451	13.99
299.665	-78.16
299.88	69.29
300.094	-43.35
300.309	42.67
300.523	83.63
300.737	40.62
300.952	57
301.166	69.29
301.381	77.48
301.595	32.43
301.809	-72.02
302.024	54.95
302.238	-18.77
302.452	11.95
302.667	-26.96
302.881	91.82
303.095	52.91
303.309	91.82
303.524	3.75
303.738	87.72
303.952	-14.68
304.166	40.62
304.381	61.1
304.595	42.67
304.809	-39.25
305.023	30.38
305.237	-108.88
305.452	32.43
305.666	40.62
305.88	16.04
306.094	-37.2
306.308	3.75
306.522	42.67
306.736	40.62
306.95	-0.34
307.164	1.71
307.379	20.14
307.593	122.54
307.807	20.14
308.021	28.33
308.235	22.19
308.449	71.34
308.663	28.33
308.877	93.87
309.091	3.75
309.305	110.25
309.519	-14.68
309.733	-12.63
309.947	16.04
310.161	7.85
310.374	122.54
310.588	9.9
310.802	34.47
311.016	13.99
311.23	1.71
311.444	79.53
311.658	52.91
311.872	13.99
312.085	16.04
312.299	-43.35
312.513	-6.49
312.727	-49.49
312.941	1.71
313.154	-37.2
313.368	-10.58
313.582	65.19
313.796	83.63
314.009	48.81
314.223	69.29
314.437	7.85
314.651	-22.87
314.864	59.05
315.078	-8.53
315.292	34.47
315.505	34.47
315.719	124.58
315.933	57
316.146	-47.44
316.36	13.99
316.573	50.86
316.787	106.15
317.001	-14.68
317.214	-4.44
317.428	52.91
317.641	-18.77
317.855	34.47
318.068	9.9
318.282	-22.87
318.495	28.33
318.709	24.23
318.922	34.47
319.136	11.95
319.349	-2.39
319.563	11.95
319.776	67.24
319.99	24.23
320.203	-4.44
320.417	36.52
320.63	46.76
320.843	50.86
321.057	-18.77
321.27	40.62
321.483	-47.44
321.697	26.28
321.91	32.43
322.124	87.72
322.337	-33.11
322.55	-24.92
322.763	1.71
322.977	32.43
323.19	44.71
323.403	-0.34
323.617	-10.58
323.83	38.57
324.043	65.19
324.256	26.28
324.469	50.86
324.683	69.29
324.896	36.52
325.109	-0.34
325.322	79.53
325.535	-0.34
325.748	38.57
325.962	118.44
326.175	52.91
326.388	38.57
326.601	57
326.814	13.99
327.027	16.04
327.24	20.14
327.453	1.71
327.666	65.19
327.879	7.85
328.092	36.52
328.305	40.62
328.518	16.04
328.731	-43.35
328.944	75.43
329.157	11.95
329.37	79.53
329.583	42.67
329.796	59.05
330.009	50.86
330.222	26.28
330.435	-33.11
330.648	9.9
330.861	32.43
331.073	79.53
331.286	77.48
331.499	65.19
331.712	79.53
331.925	85.67
332.138	65.19
332.35	54.95
332.563	50.86
332.776	-2.39
332.989	16.04
333.202	-16.73
333.414	50.86
333.627	67.24
333.84	-22.87
334.053	85.67
334.265	-10.58
334.478	1.71
334.691	34.47
334.903	13.99
335.116	85.67
335.329	1.71
335.541	20.14
335.754	91.82
335.966	-18.77
336.179	13.99
336.392	69.29
336.604	79.53
336.817	7.85
337.029	61.1
337.242	18.09
337.454	-18.77
337.667	57
337.88	75.43
338.092	-43.35
338.305	52.91
338.517	7.85
338.729	13.99
338.942	52.91
339.154	32.43
339.367	24.23
339.579	42.67
339.792	30.38
340.004	18.09
340.217	52.91
340.429	190.12
340.641	-51.54
340.854	69.29
341.066	9.9
341.278	-18.77
341.491	91.82
341.703	30.38
341.915	-0.34
342.128	50.86
342.34	50.86
342.552	-0.34
342.764	18.09
342.977	42.67
343.189	81.58
343.401	-4.44
343.613	36.52
343.826	40.62
344.038	-51.54
344.25	-4.44
344.462	50.86
344.674	57
344.886	32.43
345.099	54.95
345.311	-8.53
345.523	22.19
345.735	-10.58
345.947	91.82
346.159	44.71
346.371	85.67
346.583	-35.16
346.795	1.71
347.007	-74.07
347.219	-8.53
347.431	7.85
347.643	36.52
347.855	28.33
348.067	81.58
348.279	36.52
348.491	-41.3
348.703	-16.73
348.915	-14.68
349.127	-78.16
349.339	32.43
349.551	-37.2
349.763	32.43
349.975	34.47
350.187	73.39
350.399	-0.34
350.61	40.62
350.822	3.75
351.034	48.81
351.246	42.67
351.458	38.57
351.669	-10.58
351.881	48.81
352.093	46.76
352.305	124.58
352.517	42.67
352.728	59.05
352.94	-14.68
353.152	100.01
353.363	-57.68
353.575	20.14
353.787	48.81
353.999	87.72
354.21	34.47
354.422	95.91
354.633	11.95
354.845	28.33
355.057	73.39
355.268	20.14
355.48	11.95
355.692	3.75
355.903	-24.92
356.115	-39.25
356.326	-35.16
356.538	95.91
356.749	18.09
356.961	93.87
357.172	69.29
357.384	48.81
357.595	20.14
357.807	-39.25
358.018	24.23
358.23	11.95
358.441	50.86
358.653	36.52
358.864	-6.49
359.075	-45.4
359.287	71.34
359.498	50.86
359.709	20.14
359.921	30.38
360.132	36.52
360.344	57
360.555	79.53
360.766	11.95
360.977	42.67
361.189	61.1
361.4	3.75
361.611	-12.63
361.823	54.95
362.034	30.38
362.245	-41.3
362.456	7.85
362.667	34.47
362.879	108.2
363.09	-12.63
363.301	118.44
363.512	16.04
363.723	48.81
363.935	-22.87
364.146	44.71
364.357	30.38
364.568	61.1
364.779	42.67
364.99	46.76
365.201	-6.49
365.412	32.43
365.623	16.04
365.834	16.04
366.045	28.33
366.256	65.19
366.467	73.39
366.678	20.14
366.889	59.05
367.1	20.14
367.311	73.39
367.522	7.85
367.733	40.62
367.944	42.67
368.155	-20.82
368.366	20.14
368.577	59.05
368.788	57
368.999	28.33
369.209	85.67
369.42	7.85
369.631	54.95
369.842	63.15
370.053	-24.92
370.264	48.81
370.474	36.52
370.685	13.99
370.896	50.86
371.107	-14.68
371.317	40.62
371.528	18.09
371.739	-0.34
371.95	36.52
372.16	22.19
372.371	-8.53
372.582	38.57
372.792	9.9
373.003	65.19
373.214	54.95
373.424	48.81
373.635	36.52
373.846	16.04
374.056	44.71
374.267	30.38
374.477	48.81
374.688	-26.96
374.898	42.67
375.109	16.04
375.319	38.57
375.53	63.15
375.74	-20.82
375.951	32.43
376.161	46.76
376.372	-10.58
376.582	-22.87
376.793	59.05
377.003	42.67
377.214	-26.96
377.424	79.53
377.635	81.58
377.845	-41.3
378.055	83.63
378.266	9.9
378.476	61.1
378.686	100.01
378.897	59.05
379.107	69.29
379.317	83.63
379.528	77.48
379.738	48.81
379.948	87.72
380.158	71.34
380.369	50.86
380.579	83.63
380.789	9.9
380.999	-94.55
381.21	9.9
381.42	83.63
381.63	104.11
381.84	-4.44
382.05	46.76
382.261	-53.59
382.471	34.47
382.681	-6.49
382.891	63.15
383.101	59.05
383.311	26.28
383.521	57
383.731	5.8
383.941	7.85
384.151	42.67
384.361	20.14
384.571	-8.53
384.781	106.15
384.991	108.2
385.201	75.43
385.411	18.09
385.621	-0.34
385.831	-2.39
386.041	-37.2
386.251	79.53
386.461	97.96
386.671	40.62
386.881	40.62
387.091	42.67
387.301	28.33
387.511	57
387.72	5.8
387.93	104.11
388.14	32.43
388.35	95.91
388.56	34.47
388.769	24.23
388.979	65.19
389.189	-4.44
389.399	118.44
389.609	44.71
389.818	50.86
390.028	75.43
390.238	97.96
390.447	13.99
390.657	63.15
390.867	73.39
391.076	42.67
391.286	32.43
391.496	52.91
391.705	-0.34
391.915	-6.49
392.125	95.91
392.334	40.62
392.544	28.33
392.753	11.95
392.963	44.71
393.172	73.39
393.382	75.43
393.591	9.9
393.801	61.1
394.01	61.1
394.22	69.29
394.429	7.85
394.639	30.38
394.848	93.87
395.058	61.1
395.267	48.81
395.477	83.63
395.686	81.58
395.895	81.58
396.105	54.95
396.314	95.91
396.524	48.81
396.733	93.87
396.942	83.63
397.152	36.52
397.361	40.62
397.57	50.86
397.78	20.14
397.989	11.95
398.198	67.24
398.407	20.14
398.617	69.29
398.826	114.34
399.035	83.63
399.244	9.9
399.453	132.78
399.663	118.44
399.872	79.53
400.081	77.48
400.29	46.76
400.499	9.9
400.708	83.63
400.917	50.86
401.127	83.63
401.336	1.71
401.545	42.67
401.754	132.78
401.963	112.3
402.172	18.09
402.381	30.38
402.59	11.95
402.799	67.24
403.008	40.62
403.217	128.68
403.426	140.97
403.635	120.49
403.844	149.16
404.053	104.11
404.262	1.71
404.471	196.26
404.68	163.5
404.888	52.91
405.097	77.48
405.306	118.44
405.515	116.39
405.724	42.67
405.933	114.34
406.142	65.19
406.35	134.82
406.559	91.82
406.768	120.49
406.977	102.06
407.185	120.49
407.394	196.26
407.603	157.35
407.812	181.93
408.02	81.58
408.229	169.64
408.438	220.84
408.646	231.08
408.855	208.55
409.064	143.02
409.272	210.6
409.481	161.45
409.69	149.16
409.898	202.41
410.107	239.27
410.315	290.47
410.524	163.5
410.733	241.32
410.941	276.13
411.15	245.41
411.358	255.65
411.567	253.61
411.775	399.01
411.984	345.77
412.192	251.56
412.401	370.34
412.609	372.39
412.818	362.15
413.026	374.44
413.234	362.15
413.443	380.58
413.651	399.01
413.86	335.53
414.068	450.21
414.276	452.26
414.485	437.92
414.693	532.13
414.901	521.89
415.11	493.22
415.318	517.79
415.526	548.51
415.734	462.5
415.943	487.08
416.151	530.08
416.359	558.75
416.567	581.28
416.776	560.8
416.984	755.36
417.192	724.64
417.4	665.25
417.608	714.4
417.817	747.17
418.025	802.46
418.233	878.24
418.441	829.09
418.649	802.46
418.857	898.72
419.065	949.92
419.273	923.29
419.481	933.53
419.689	1078.94
419.897	1109.66
420.105	1033.88
420.313	1115.8
420.521	1121.95
420.729	1128.09
420.937	1218.2
421.145	1332.89
421.353	1363.61
421.561	1404.57
421.769	1373.85
421.977	1429.14
422.185	1592.98
422.393	1527.44
422.601	1666.71
422.809	1652.37
423.017	1607.31
423.224	1781.39
423.432	1765.01
423.64	1810.06
423.848	1949.32
424.056	1816.21
424.263	2088.59
424.471	2176.65
424.679	2076.3
424.887	2227.85
425.094	2240.14
425.302	2330.25
425.51	2369.16
425.718	2514.56
425.925	2539.14
426.133	2627.2
426.341	2674.31
426.548	2821.76
426.756	2883.2
426.964	2838.14
427.171	2985.6
427.379	3122.81
427.586	3069.56
427.794	3157.63
428.001	3409.53
428.209	3499.64
428.417	3575.41
428.624	3759.73
428.832	3851.89
429.039	3739.25
429.247	3692.15
429.454	4136.56
429.662	4361.83
429.869	3978.86
430.076	4386.41
430.284	4169.32
430.491	4447.85
430.699	4662.88
430.906	4597.35
431.114	4767.33
431.321	4816.48
431.528	5072.48
431.736	5305.95
431.943	5607
432.15	5537.37
432.358	5367.38
432.565	5805.65
432.772	5744.21
432.979	5971.54
433.187	6121.04
433.394	6215.24
433.601	6723.14
433.808	6538.82
434.016	6620.74
434.223	6745.67
434.43	7245.37
434.637	7155.26
434.844	7499.32
435.052	7902.77
435.259	7507.51
435.466	7765.56
435.673	7511.61
435.88	8220.21
436.087	8599.08
436.294	8508.97
436.501	8347.18
436.708	8488.49
436.915	8818.21
437.122	9176.61
437.329	9111.07
437.537	9514.52
437.743	9784.85
437.95	9578.01
438.157	10075.66
438.364	10450.44
438.571	10341.9
438.778	10696.2
438.985	11257.34
439.192	11105.79
439.399	11519.48
439.606	10970.63
439.813	11865.59
440.02	12357.1
440.227	12361.2
440.433	12037.62
440.64	12520.94
440.847	12453.36
441.054	12525.04
441.261	13540.83
441.467	13301.22
441.674	13559.26
441.881	14083.54
442.088	14218.71
442.294	14230.99
442.501	14405.07
442.708	14497.23
442.914	15134.15
443.121	15939
443.328	15631.8
443.534	16375.22
443.741	15787.45
443.948	15904.18
444.154	17063.33
444.361	16668.08
444.568	16975.27
444.774	16962.98
444.981	17212.84
445.187	17669.53
445.394	18369.94
445.6	18154.9
445.807	19875.2
446.013	18879.88
446.22	19373.44
446.426	20120.95
446.633	20395.38
446.839	21183.85
447.046	20157.82
447.252	21441.89
447.459	21443.94
447.665	21075.31
447.871	22205.78
448.078	23256.39
448.284	21898.59
448.491	22250.84
448.697	23213.38
448.903	24038.72
449.11	23981.37
449.316	23500.1
449.522	23979.32
449.728	24536.37
449.935	24806.7
450.141	24628.53
450.347	25322.79
450.553	24571.19
450.76	25072.94
450.966	25795.87
451.172	25267.5
451.378	26107.16
451.584	25353.51
451.791	26223.9
451.997	26297.63
452.203	26645.78
452.409	26051.87
452.615	26125.6
452.821	25021.74
453.027	24986.93
453.233	26227.99
453.44	25204.01
453.646	25359.66
453.852	25716
454.058	26121.5
454.264	25158.95
454.47	25709.86
454.676	24948.01
454.882	26006.81
455.088	23868.73
455.294	24440.12
455.5	24171.83
455.705	24726.83
455.911	23745.86
456.117	23248.2
456.323	22728.02
456.529	21638.5
456.735	22662.48
456.941	21824.86
457.147	21898.59
457.352	20942.19
457.558	21058.92
457.764	20888.94
457.97	20518.26
458.176	20057.46
458.381	19817.85
458.587	19064.2
458.793	18840.97
458.999	18183.57
459.204	19074.44
459.41	18621.84
459.616	17280.42
459.821	17278.37
460.027	17184.16
460.233	17030.57
460.438	16162.23
460.644	16375.22
460.85	15615.42
461.055	15250.88
461.261	15402.43
461.466	14185.94
461.672	13886.93
461.878	14800.33
462.083	14155.22
462.289	13962.71
462.494	13620.7
462.7	12942.82
462.905	12561.9
463.111	13055.46
463.316	13020.64
463.522	12740.07
463.727	12484.08
463.932	12633.58
464.138	12473.84
464.343	12543.47
464.549	12320.24
464.754	12934.63
464.959	12500.46
465.165	12400.11
465.37	12199.41
465.575	11740.66
465.781	12013.04
465.986	12209.65
466.191	11711.99
466.397	11437.56
466.602	10974.72
466.807	11480.57
467.012	11333.12
467.218	11378.17
467.423	11159.04
467.628	11197.95
467.833	11767.29
468.038	11222.53
468.244	11058.69
468.449	11443.71
468.654	11179.52
