Data from USB4F104151__178__13-59-00-911.txt Node

Date: Thu Mar 13 13:59:00 EDT 2025
User: louis
Spectrometer: USB4F10415
Trigger mode: 4
Integration Time (sec): 1.000000E-2
Scans to average: 1
Electric dark correction enabled: true
Nonlinearity correction enabled: false
Boxcar width: 0
XAxis mode: Wavelengths
Number of Pixels in Spectrum: 3648
>>>>>Begin Spectral Data<<<<<
178.204	-27.14
178.424	-27.14
178.644	-27.14
178.864	-100.86
179.084	-33.28
179.304	-12.8
179.524	22.02
179.744	-12.8
179.964	26.11
180.184	34.3
180.404	38.4
180.624	7.68
180.844	-43.52
181.064	-59.9
181.283	-10.75
181.503	-6.66
181.723	17.92
181.943	-102.91
182.163	54.78
182.383	22.02
182.602	32.26
182.822	11.78
183.042	28.16
183.262	30.21
183.482	62.98
183.701	62.98
183.921	-25.09
184.141	-0.51
184.361	-2.56
184.58	-27.14
184.8	-37.38
185.02	-18.94
185.239	-0.51
185.459	-6.66
185.679	-43.52
185.898	-90.62
186.118	7.68
186.338	-23.04
186.557	71.17
186.777	46.59
186.997	32.26
187.216	28.16
187.436	32.26
187.655	40.45
187.875	-29.18
188.095	42.5
188.314	44.54
188.534	32.26
188.753	38.4
188.973	-33.28
189.192	89.6
189.412	38.4
189.631	-0.51
189.851	-8.7
190.07	13.82
190.29	-20.99
190.509	-59.9
190.729	-107.01
190.948	54.78
191.168	112.13
191.387	9.73
191.607	15.87
191.826	56.83
192.045	22.02
192.265	60.93
192.484	15.87
192.704	-8.7
192.923	-33.28
193.142	30.21
193.362	3.58
193.581	13.82
193.8	-35.33
194.02	-49.66
194.239	28.16
194.458	-8.7
194.678	-20.99
194.897	-2.56
195.116	-4.61
195.335	30.21
195.555	50.69
195.774	71.17
195.993	26.11
196.212	-10.75
196.432	50.69
196.651	32.26
196.87	-113.15
197.089	32.26
197.308	26.11
197.528	46.59
197.747	-10.75
197.966	69.12
198.185	81.41
198.404	-6.66
198.623	11.78
198.842	-31.23
199.062	11.78
199.281	42.5
199.5	-18.94
199.719	5.63
199.938	56.83
200.157	13.82
200.376	46.59
200.595	38.4
200.814	-35.33
201.033	54.78
201.252	9.73
201.471	-10.75
201.69	9.73
201.909	1.54
202.128	-33.28
202.347	-25.09
202.566	-23.04
202.785	79.36
203.004	5.63
203.223	24.06
203.442	-18.94
203.661	5.63
203.879	19.97
204.098	5.63
204.317	-2.56
204.536	13.82
204.755	-23.04
204.974	50.69
205.193	-16.9
205.411	32.26
205.63	52.74
205.849	13.82
206.068	-37.38
206.287	46.59
206.505	-14.85
206.724	-25.09
206.943	1.54
207.162	17.92
207.381	58.88
207.599	-35.33
207.818	13.82
208.037	-27.14
208.255	-27.14
208.474	17.92
208.693	-2.56
208.911	17.92
209.13	65.02
209.349	36.35
209.567	-41.47
209.786	-33.28
210.005	81.41
210.223	-25.09
210.442	7.68
210.661	22.02
210.879	69.12
211.098	-23.04
211.316	-2.56
211.535	40.45
211.753	40.45
211.972	-6.66
212.191	-14.85
212.409	5.63
212.628	34.3
212.846	26.11
213.065	5.63
213.283	15.87
213.502	5.63
213.72	32.26
213.938	52.74
214.157	48.64
214.375	22.02
214.594	-25.09
214.812	50.69
215.031	30.21
215.249	-0.51
215.467	79.36
215.686	46.59
215.904	1.54
216.122	9.73
216.341	48.64
216.559	38.4
216.778	83.45
216.996	48.64
217.214	-14.85
217.432	3.58
217.651	5.63
217.869	-37.38
218.087	34.3
218.306	26.11
218.524	7.68
218.742	-25.09
218.96	-35.33
219.179	17.92
219.397	-23.04
219.615	28.16
219.833	15.87
220.051	40.45
220.27	87.55
220.488	151.04
220.706	46.59
220.924	-8.7
221.142	-41.47
221.36	101.89
221.578	-27.14
221.796	34.3
222.015	95.74
222.233	-10.75
222.451	34.3
222.669	-16.9
222.887	13.82
223.105	1.54
223.323	-6.66
223.541	-10.75
223.759	38.4
223.977	1.54
224.195	56.83
224.413	-0.51
224.631	-12.8
224.849	28.16
225.067	19.97
225.285	26.11
225.503	48.64
225.721	19.97
225.939	13.82
226.157	32.26
226.375	67.07
226.592	62.98
226.81	28.16
227.028	-12.8
227.246	9.73
227.464	17.92
227.682	67.07
227.9	17.92
228.117	32.26
228.335	36.35
228.553	9.73
228.771	48.64
228.989	-18.94
229.206	5.63
229.424	-25.09
229.642	34.3
229.86	-18.94
230.077	38.4
230.295	-14.85
230.513	50.69
230.731	-10.75
230.948	34.3
231.166	28.16
231.384	-23.04
231.601	99.84
231.819	-20.99
232.037	17.92
232.254	34.3
232.472	54.78
232.689	-27.14
232.907	7.68
233.125	56.83
233.342	13.82
233.56	22.02
233.777	9.73
233.995	15.87
234.213	-27.14
234.43	50.69
234.648	75.26
234.865	3.58
235.083	81.41
235.3	-0.51
235.518	-2.56
235.735	-16.9
235.953	46.59
236.17	15.87
236.388	-20.99
236.605	-8.7
236.822	38.4
237.04	-20.99
237.257	9.73
237.475	54.78
237.692	62.98
237.909	42.5
238.127	52.74
238.344	77.31
238.562	58.88
238.779	-78.33
238.996	81.41
239.214	7.68
239.431	19.97
239.648	-80.38
239.865	22.02
240.083	15.87
240.3	79.36
240.517	26.11
240.735	-2.56
240.952	-4.61
241.169	50.69
241.386	24.06
241.603	58.88
241.821	-37.38
242.038	15.87
242.255	28.16
242.472	48.64
242.689	44.54
242.907	54.78
243.124	38.4
243.341	-12.8
243.558	-18.94
243.775	19.97
243.992	5.63
244.209	58.88
244.426	-8.7
244.643	32.26
244.86	116.22
245.078	40.45
245.295	-8.7
245.512	30.21
245.729	40.45
245.946	46.59
246.163	34.3
246.38	65.02
246.597	38.4
246.814	-20.99
247.031	42.5
247.248	11.78
247.464	-53.76
247.681	-4.61
247.898	67.07
248.115	34.3
248.332	5.63
248.549	-41.47
248.766	40.45
248.983	-10.75
249.2	103.93
249.417	-2.56
249.633	-6.66
249.85	42.5
250.067	-8.7
250.284	15.87
250.501	71.17
250.717	3.58
250.934	-64
251.151	15.87
251.368	-39.42
251.585	36.35
251.801	38.4
252.018	36.35
252.235	77.31
252.451	-23.04
252.668	5.63
252.885	-25.09
253.102	32.26
253.318	44.54
253.535	11.78
253.752	15.87
253.968	22.02
254.185	71.17
254.401	28.16
254.618	95.74
254.835	-0.51
255.051	40.45
255.268	36.35
255.484	34.3
255.701	60.93
255.917	30.21
256.134	81.41
256.351	-8.7
256.567	32.26
256.784	-6.66
257	62.98
257.217	22.02
257.433	26.11
257.65	-18.94
257.866	24.06
258.082	-51.71
258.299	-10.75
258.515	32.26
258.732	24.06
258.948	-4.61
259.165	-18.94
259.381	15.87
259.597	-4.61
259.814	60.93
260.03	69.12
260.246	89.6
260.463	1.54
260.679	9.73
260.895	-16.9
261.112	75.26
261.328	9.73
261.544	7.68
261.761	34.3
261.977	9.73
262.193	52.74
262.409	73.21
262.626	34.3
262.842	9.73
263.058	-31.23
263.274	-6.66
263.49	7.68
263.707	65.02
263.923	-55.81
264.139	40.45
264.355	38.4
264.571	87.55
264.787	22.02
265.004	38.4
265.22	5.63
265.436	15.87
265.652	1.54
265.868	-41.47
266.084	19.97
266.3	5.63
266.516	40.45
266.732	-43.52
266.948	22.02
267.164	-10.75
267.38	-6.66
267.596	19.97
267.812	77.31
268.028	52.74
268.244	26.11
268.46	42.5
268.676	50.69
268.892	5.63
269.108	-64
269.324	-35.33
269.54	22.02
269.756	58.88
269.972	-18.94
270.188	19.97
270.403	15.87
270.619	81.41
270.835	19.97
271.051	75.26
271.267	-8.7
271.483	36.35
271.698	13.82
271.914	34.3
272.13	26.11
272.346	-12.8
272.562	65.02
272.777	99.84
272.993	-57.86
273.209	30.21
273.425	-49.66
273.64	22.02
273.856	-0.51
274.072	71.17
274.287	5.63
274.503	42.5
274.719	7.68
274.934	120.32
275.15	-33.28
275.366	15.87
275.581	22.02
275.797	-10.75
276.012	-16.9
276.228	32.26
276.444	13.82
276.659	48.64
276.875	-0.51
277.09	9.73
277.306	13.82
277.521	95.74
277.737	52.74
277.952	89.6
278.168	19.97
278.383	42.5
278.599	-39.42
278.814	97.79
279.03	46.59
279.245	73.21
279.461	42.5
279.676	58.88
279.892	1.54
280.107	11.78
280.322	-47.62
280.538	1.54
280.753	81.41
280.969	22.02
281.184	30.21
281.399	26.11
281.615	-16.9
281.83	-25.09
282.045	17.92
282.26	65.02
282.476	81.41
282.691	81.41
282.906	9.73
283.122	-6.66
283.337	24.06
283.552	48.64
283.767	-10.75
283.983	19.97
284.198	30.21
284.413	42.5
284.628	32.26
284.843	79.36
285.058	40.45
285.274	-6.66
285.489	60.93
285.704	65.02
285.919	-43.52
286.134	5.63
286.349	-49.66
286.564	75.26
286.779	-18.94
286.995	-8.7
287.21	-4.61
287.425	58.88
287.64	30.21
287.855	56.83
288.07	9.73
288.285	79.36
288.5	34.3
288.715	50.69
288.93	11.78
289.145	-33.28
289.36	79.36
289.575	38.4
289.79	-55.81
290.004	42.5
290.219	44.54
290.434	46.59
290.649	22.02
290.864	-35.33
291.079	79.36
291.294	85.5
291.509	5.63
291.724	67.07
291.938	-27.14
292.153	56.83
292.368	34.3
292.583	17.92
292.798	36.35
293.012	7.68
293.227	-70.14
293.442	26.11
293.657	-39.42
293.871	81.41
294.086	17.92
294.301	5.63
294.516	67.07
294.73	60.93
294.945	9.73
295.16	38.4
295.374	-18.94
295.589	42.5
295.804	40.45
296.018	38.4
296.233	13.82
296.447	69.12
296.662	24.06
296.877	67.07
297.091	-25.09
297.306	-37.38
297.52	38.4
297.735	50.69
297.949	38.4
298.164	34.3
298.378	40.45
298.593	-82.43
298.807	3.58
299.022	9.73
299.236	-43.52
299.451	-16.9
299.665	-2.56
299.88	-45.57
300.094	9.73
300.309	-12.8
300.523	1.54
300.737	81.41
300.952	-8.7
301.166	-18.94
301.381	-6.66
301.595	30.21
301.809	-2.56
302.024	-0.51
302.238	-6.66
302.452	38.4
302.667	73.21
302.881	95.74
303.095	28.16
303.309	40.45
303.524	36.35
303.738	44.54
303.952	-35.33
304.166	24.06
304.381	-57.86
304.595	65.02
304.809	-70.14
305.023	87.55
305.237	9.73
305.452	34.3
305.666	65.02
305.88	-18.94
306.094	30.21
306.308	69.12
306.522	48.64
306.736	-16.9
306.95	-20.99
307.164	26.11
307.379	58.88
307.593	1.54
307.807	99.84
308.021	42.5
308.235	48.64
308.449	85.5
308.663	-0.51
308.877	48.64
309.091	44.54
309.305	38.4
309.519	30.21
309.733	81.41
309.947	36.35
310.161	71.17
310.374	24.06
310.588	62.98
310.802	-14.85
311.016	-6.66
311.23	71.17
311.444	-29.18
311.658	69.12
311.872	93.69
312.085	-2.56
312.299	46.59
312.513	50.69
312.727	81.41
312.941	32.26
313.154	24.06
313.368	46.59
313.582	38.4
313.796	17.92
314.009	-6.66
314.223	79.36
314.437	65.02
314.651	30.21
314.864	32.26
315.078	58.88
315.292	62.98
315.505	17.92
315.719	38.4
315.933	71.17
316.146	65.02
316.36	-18.94
316.573	-27.14
316.787	40.45
317.001	50.69
317.214	38.4
317.428	1.54
317.641	69.12
317.855	48.64
318.068	38.4
318.282	42.5
318.495	13.82
318.709	50.69
318.922	58.88
319.136	36.35
319.349	32.26
319.563	36.35
319.776	58.88
319.99	-35.33
320.203	26.11
320.417	56.83
320.63	3.58
320.843	52.74
321.057	-18.94
321.27	-6.66
321.483	17.92
321.697	-14.85
321.91	-4.61
322.124	42.5
322.337	48.64
322.55	85.5
322.763	15.87
322.977	77.31
323.19	5.63
323.403	-16.9
323.617	-47.62
323.83	62.98
324.043	7.68
324.256	50.69
324.469	-8.7
324.683	85.5
324.896	83.45
325.109	-8.7
325.322	3.58
325.535	58.88
325.748	62.98
325.962	19.97
326.175	17.92
326.388	26.11
326.601	87.55
326.814	54.78
327.027	36.35
327.24	44.54
327.453	44.54
327.666	28.16
327.879	13.82
328.092	118.27
328.305	56.83
328.518	-43.52
328.731	15.87
328.944	7.68
329.157	38.4
329.37	67.07
329.583	9.73
329.796	75.26
330.009	24.06
330.222	103.93
330.435	46.59
330.648	79.36
330.861	30.21
331.073	40.45
331.286	5.63
331.499	46.59
331.712	9.73
331.925	36.35
332.138	56.83
332.35	7.68
332.563	1.54
332.776	40.45
332.989	32.26
333.202	71.17
333.414	30.21
333.627	38.4
333.84	-31.23
334.053	122.37
334.265	-2.56
334.478	-10.75
334.691	44.54
334.903	13.82
335.116	-12.8
335.329	-0.51
335.541	38.4
335.754	62.98
335.966	-18.94
336.179	32.26
336.392	42.5
336.604	13.82
336.817	46.59
337.029	54.78
337.242	58.88
337.454	46.59
337.667	52.74
337.88	30.21
338.092	22.02
338.305	-8.7
338.517	58.88
338.729	17.92
338.942	42.5
339.154	54.78
339.367	81.41
339.579	71.17
339.792	11.78
340.004	13.82
340.217	24.06
340.429	116.22
340.641	34.3
340.854	71.17
341.066	54.78
341.278	87.55
341.491	26.11
341.703	15.87
341.915	108.03
342.128	69.12
342.34	19.97
342.552	-2.56
342.764	-8.7
342.977	32.26
343.189	38.4
343.401	93.69
343.613	11.78
343.826	56.83
344.038	81.41
344.25	-23.04
344.462	50.69
344.674	-0.51
344.886	116.22
345.099	60.93
345.311	-16.9
345.523	26.11
345.735	28.16
345.947	-31.23
346.159	58.88
346.371	32.26
346.583	67.07
346.795	75.26
347.007	-41.47
347.219	75.26
347.431	26.11
347.643	22.02
347.855	42.5
348.067	81.41
348.279	22.02
348.491	60.93
348.703	13.82
348.915	34.3
349.127	83.45
349.339	5.63
349.551	-14.85
349.763	114.17
349.975	22.02
350.187	24.06
350.399	-2.56
350.61	5.63
350.822	48.64
351.034	50.69
351.246	38.4
351.458	38.4
351.669	46.59
351.881	112.13
352.093	-8.7
352.305	38.4
352.517	50.69
352.728	22.02
352.94	-25.09
353.152	32.26
353.363	28.16
353.575	62.98
353.787	-6.66
353.999	1.54
354.21	-10.75
354.422	15.87
354.633	62.98
354.845	-43.52
355.057	99.84
355.268	71.17
355.48	30.21
355.692	9.73
355.903	-0.51
356.115	40.45
356.326	36.35
356.538	54.78
356.749	73.21
356.961	13.82
357.172	1.54
357.384	79.36
357.595	-16.9
357.807	5.63
358.018	73.21
358.23	13.82
358.441	65.02
358.653	24.06
358.864	24.06
359.075	48.64
359.287	34.3
359.498	81.41
359.709	9.73
359.921	108.03
360.132	40.45
360.344	5.63
360.555	48.64
360.766	-35.33
360.977	26.11
361.189	79.36
361.4	-4.61
361.611	60.93
361.823	28.16
362.034	-35.33
362.245	32.26
362.456	-10.75
362.667	95.74
362.879	71.17
363.09	44.54
363.301	130.56
363.512	46.59
363.723	24.06
363.935	11.78
364.146	48.64
364.357	-10.75
364.568	112.13
364.779	-33.28
364.99	44.54
365.201	19.97
365.412	54.78
365.623	26.11
365.834	120.32
366.045	62.98
366.256	44.54
366.467	-10.75
366.678	26.11
366.889	48.64
367.1	32.26
367.311	69.12
367.522	73.21
367.733	26.11
367.944	69.12
368.155	48.64
368.366	-10.75
368.577	17.92
368.788	13.82
368.999	56.83
369.209	38.4
369.42	95.74
369.631	52.74
369.842	56.83
370.053	58.88
370.264	60.93
370.474	1.54
370.685	-23.04
370.896	13.82
371.107	42.5
371.317	79.36
371.528	56.83
371.739	3.58
371.95	7.68
372.16	65.02
372.371	-16.9
372.582	65.02
372.792	56.83
373.003	38.4
373.214	65.02
373.424	46.59
373.635	60.93
373.846	46.59
374.056	50.69
374.267	95.74
374.477	157.18
374.688	30.21
374.898	73.21
375.109	112.13
375.319	122.37
375.53	-0.51
375.74	67.07
375.951	42.5
376.161	93.69
376.372	120.32
376.582	-16.9
376.793	-10.75
377.003	56.83
377.214	24.06
377.424	-8.7
377.635	30.21
377.845	38.4
378.055	97.79
378.266	-0.51
378.476	38.4
378.686	15.87
378.897	48.64
379.107	9.73
379.317	44.54
379.528	-12.8
379.738	114.17
379.948	15.87
380.158	46.59
380.369	103.93
380.579	75.26
380.789	-16.9
380.999	48.64
381.21	71.17
381.42	95.74
381.63	28.16
381.84	128.51
382.05	62.98
382.261	81.41
382.471	54.78
382.681	81.41
382.891	26.11
383.101	42.5
383.311	44.54
383.521	22.02
383.731	26.11
383.941	1.54
384.151	56.83
384.361	58.88
384.571	50.69
384.781	103.93
384.991	-10.75
385.201	-49.66
385.411	-6.66
385.621	75.26
385.831	77.31
386.041	58.88
386.251	75.26
386.461	-0.51
386.671	9.73
386.881	9.73
387.091	-16.9
387.301	85.5
387.511	32.26
387.72	26.11
387.93	79.36
388.14	85.5
388.35	83.45
388.56	108.03
388.769	-8.7
388.979	103.93
389.189	32.26
389.399	71.17
389.609	44.54
389.818	22.02
390.028	26.11
390.238	-4.61
390.447	22.02
390.657	32.26
390.867	44.54
391.076	22.02
391.286	42.5
391.496	67.07
391.705	67.07
391.915	91.65
392.125	83.45
392.334	42.5
392.544	46.59
392.753	173.57
392.963	46.59
393.172	83.45
393.382	30.21
393.591	85.5
393.801	69.12
394.01	24.06
394.22	54.78
394.429	138.75
394.639	38.4
394.848	118.27
395.058	19.97
395.267	116.22
395.477	103.93
395.686	30.21
395.895	73.21
396.105	54.78
396.314	-10.75
396.524	46.59
396.733	83.45
396.942	120.32
397.152	65.02
397.361	46.59
397.57	54.78
397.78	30.21
397.989	167.42
398.198	118.27
398.407	62.98
398.617	120.32
398.826	75.26
399.035	108.03
399.244	126.46
399.453	124.41
399.663	124.41
399.872	40.45
400.081	65.02
400.29	87.55
400.499	87.55
400.708	146.94
400.917	93.69
401.127	105.98
401.336	128.51
401.545	120.32
401.754	91.65
401.963	91.65
402.172	99.84
402.381	56.83
402.59	114.17
402.799	95.74
403.008	148.99
403.217	65.02
403.426	52.74
403.635	120.32
403.844	138.75
404.053	136.7
404.262	46.59
404.471	177.66
404.68	79.36
404.888	185.85
405.097	91.65
405.306	116.22
405.515	146.94
405.724	185.85
405.933	116.22
406.142	116.22
406.35	134.65
406.559	103.93
406.768	85.5
406.977	202.24
407.185	247.29
407.394	171.52
407.603	235
407.812	220.67
408.02	159.23
408.229	224.76
408.438	189.95
408.646	177.66
408.855	220.67
409.064	212.48
409.272	239.1
409.481	228.86
409.69	327.16
409.898	243.2
410.107	239.1
410.315	323.07
410.524	259.58
410.733	325.12
410.941	339.45
411.15	294.4
411.358	347.64
411.567	294.4
411.775	337.4
411.984	372.22
412.192	380.41
412.401	341.5
412.609	366.07
412.818	447.99
413.026	425.47
413.234	388.6
413.443	366.07
413.651	482.81
413.86	480.76
414.068	495.1
414.276	587.26
414.485	521.72
414.693	554.49
414.901	566.78
415.11	531.96
415.318	566.78
415.526	679.41
415.734	671.22
415.943	636.41
416.151	710.13
416.359	726.52
416.567	734.71
416.776	765.43
416.984	744.95
417.192	826.87
417.4	853.49
417.608	933.36
417.817	849.4
418.025	978.42
418.233	964.08
418.441	943.6
418.649	970.23
418.857	1103.34
419.065	1183.21
419.273	1203.69
419.481	1162.73
419.689	1121.77
419.897	1302
420.105	1328.62
420.313	1345
420.521	1283.56
420.729	1463.79
420.937	1496.55
421.145	1553.9
421.353	1541.61
421.561	1560.04
421.769	1734.12
421.977	1725.93
422.185	1713.64
422.393	1914.34
422.601	1926.63
422.809	2029.03
423.017	1893.86
423.224	2145.76
423.432	2145.76
423.64	2131.42
423.848	2217.44
424.056	2186.72
424.263	2399.71
424.471	2436.57
424.679	2479.58
424.887	2477.53
425.094	2711
425.302	2631.13
425.51	2713.05
425.718	2823.64
425.925	2860.5
426.133	2993.62
426.341	3079.63
426.548	3392.97
426.756	3323.34
426.964	3380.68
427.171	3601.87
427.379	3659.21
427.586	3728.84
427.794	3761.61
428.001	4021.7
428.209	4128.19
428.417	4152.77
428.624	4302.27
428.832	4339.13
429.039	4468.16
429.247	4353.47
429.454	4881.85
429.662	5125.55
429.869	4818.36
430.076	5158.32
430.284	4924.85
430.491	5199.28
430.699	5465.52
430.906	5477.8
431.114	5520.81
431.321	5701.03
431.528	5942.69
431.736	6272.42
431.943	6366.62
432.15	6245.79
432.358	6401.44
432.565	6821.27
432.772	6770.07
432.979	7112.08
433.187	7228.82
433.394	7028.12
433.601	7771.53
433.808	7576.97
434.016	7574.92
434.223	8217.99
434.43	8213.89
434.637	8334.72
434.844	8848.76
435.052	9065.85
435.259	9024.89
435.466	9121.14
435.673	8955.26
435.88	9569.65
436.087	9887.08
436.294	10030.44
436.501	9839.98
436.708	10032.49
436.915	10259.81
437.122	10751.32
437.329	10884.44
437.537	11431.25
437.743	11404.63
437.95	11128.15
438.157	11717.97
438.364	12131.65
438.571	12098.89
438.778	12266.82
438.985	13114.68
439.192	12776.77
439.399	13274.42
439.606	12653.89
439.813	13784.37
440.02	14337.32
440.227	14089.51
440.433	14083.37
440.64	14556.45
440.847	14531.87
441.054	14703.9
441.261	15631.63
441.467	15570.19
441.674	16086.28
441.881	16276.74
442.088	16254.22
442.294	16256.26
442.501	16622.85
442.708	17038.59
442.914	17675.51
443.121	18498.79
443.328	17913.07
443.534	19127.52
443.741	18429.16
443.948	18300.14
444.154	19817.68
444.361	19467.48
444.568	19623.12
444.774	19680.47
444.981	19846.35
445.187	20274.38
445.394	21683.38
445.6	21302.46
445.807	23213.21
446.013	22256.81
446.22	22660.26
446.426	23647.38
446.633	23901.33
446.839	24515.72
447.046	23551.13
447.252	24845.44
447.459	24855.68
447.665	24704.14
447.871	25681.02
448.078	27184.23
448.284	25678.97
448.491	26408.05
448.697	27589.72
448.903	27612.25
449.11	28071
449.316	27417.69
449.522	27960.41
449.728	28730.44
449.935	29160.52
450.141	29191.23
450.347	29668.41
450.553	28691.53
450.76	28771.4
450.966	29951.03
451.172	29506.62
451.378	30444.59
451.584	29701.18
451.791	30409.78
451.997	30626.86
452.203	30454.83
452.409	30932.01
452.615	30450.74
452.821	29410.37
453.027	29103.17
453.233	30757.93
453.44	29488.19
453.646	29862.97
453.852	29654.08
454.058	30508.08
454.264	29334.59
454.47	30090.29
454.676	29451.33
454.882	30198.84
455.088	27475.04
455.294	28249.17
455.5	28556.36
455.705	28982.34
455.911	27638.87
456.117	27300.96
456.323	26627.18
456.529	25281.66
456.735	26840.17
456.941	25087.11
457.147	25496.7
457.352	24302.73
457.558	24149.14
457.764	24419.47
457.97	23913.62
458.176	23512.22
458.381	23352.48
458.587	22371.5
458.793	22283.44
458.999	21028.03
459.204	22797.48
459.41	22275.24
459.616	20413.64
459.821	20436.17
460.027	20688.07
460.233	20139.21
460.438	19023.07
460.644	19449.05
460.85	18451.69
461.055	17898.73
461.261	18124.01
461.466	16887.04
461.672	16280.84
461.878	17573.11
462.083	16209.16
462.289	15934.73
462.494	15930.64
462.7	15551.76
462.905	14785.82
463.111	15516.95
463.316	15439.12
463.522	14902.56
463.727	15273.24
463.932	15121.69
464.138	14832.93
464.343	14939.42
464.549	14548.26
464.754	14976.28
464.959	14898.46
465.165	14751.01
465.37	14185.77
465.575	13890.86
465.781	14409
465.986	14705.95
466.191	13935.92
466.397	13737.26
466.602	13004.09
466.807	13585.71
467.012	13751.6
467.218	13423.92
467.423	13366.58
467.628	13458.74
467.833	13999.4
468.038	13516.08
468.244	13059.38
468.449	13667.63
