Data from USB4F104151__80__13-54-19-851.txt Node

Date: Thu Mar 13 13:54:19 EDT 2025
User: louis
Spectrometer: USB4F10415
Trigger mode: 4
Integration Time (sec): 1.000000E-2
Scans to average: 1
Electric dark correction enabled: true
Nonlinearity correction enabled: false
Boxcar width: 0
XAxis mode: Wavelengths
Number of Pixels in Spectrum: 3648
>>>>>Begin Spectral Data<<<<<
178.204	-46.76
178.424	-46.76
178.644	-46.76
178.864	-77.48
179.084	-40.62
179.304	41.3
179.524	-24.23
179.744	22.87
179.964	-34.47
180.184	-11.95
180.404	-52.91
180.624	8.53
180.844	49.49
181.064	0.34
181.283	-5.8
181.503	6.49
181.723	0.34
181.943	8.53
182.163	22.87
182.383	-7.85
182.602	53.59
182.822	20.82
183.042	-5.8
183.262	-20.14
183.482	22.87
183.701	-13.99
183.921	8.53
184.141	-71.34
184.361	16.73
184.58	-5.8
184.8	37.2
185.02	92.5
185.239	14.68
185.459	53.59
185.679	65.88
185.898	29.01
186.118	57.68
186.338	-9.9
186.557	24.92
186.777	-50.86
186.997	69.97
187.216	49.49
187.436	106.84
187.655	57.68
187.875	57.68
188.095	55.64
188.314	14.68
188.534	33.11
188.753	49.49
188.973	18.77
189.192	41.3
189.412	-42.67
189.631	26.96
189.851	8.53
190.07	-42.67
190.29	0.34
190.509	47.44
190.729	-20.14
190.948	-36.52
191.168	10.58
191.387	63.83
191.607	37.2
191.826	37.2
192.045	-34.47
192.265	119.12
192.484	18.77
192.704	47.44
192.923	14.68
193.142	65.88
193.362	-16.04
193.581	59.73
193.8	-7.85
194.02	10.58
194.239	24.92
194.458	-16.04
194.678	0.34
194.897	10.58
195.116	-18.09
195.335	4.44
195.555	6.49
195.774	4.44
195.993	-5.8
196.212	37.2
196.432	51.54
196.651	-5.8
196.87	-46.76
197.089	-7.85
197.308	4.44
197.528	-52.91
197.747	-5.8
197.966	33.11
198.185	39.25
198.404	-22.19
198.623	12.63
198.842	20.82
199.062	49.49
199.281	33.11
199.5	69.97
199.719	-22.19
199.938	-5.8
200.157	10.58
200.376	59.73
200.595	-38.57
200.814	-36.52
201.033	76.12
201.252	10.58
201.471	67.92
201.69	57.68
201.909	16.73
202.128	20.82
202.347	55.64
202.566	41.3
202.785	0.34
203.004	-24.23
203.223	31.06
203.442	33.11
203.661	2.39
203.879	31.06
204.098	-5.8
204.317	14.68
204.536	0.34
204.755	-20.14
204.974	-22.19
205.193	-38.57
205.411	31.06
205.63	0.34
205.849	51.54
206.068	49.49
206.287	-28.33
206.505	84.31
206.724	26.96
206.943	-3.75
207.162	43.35
207.381	-52.91
207.599	-11.95
207.818	8.53
208.037	-5.8
208.255	8.53
208.474	65.88
208.693	16.73
208.911	12.63
209.13	35.16
209.349	8.53
209.567	45.4
209.786	47.44
210.005	-16.04
210.223	-5.8
210.442	18.77
210.661	-24.23
210.879	14.68
211.098	-42.67
211.316	-28.33
211.535	24.92
211.753	61.78
211.972	59.73
212.191	10.58
212.409	67.92
212.628	104.79
212.846	-32.43
213.065	10.58
213.283	74.07
213.502	43.35
213.72	65.88
213.938	57.68
214.157	-44.71
214.375	-13.99
214.594	61.78
214.812	-22.19
215.031	-20.14
215.249	0.34
215.467	43.35
215.686	10.58
215.904	-28.33
216.122	100.69
216.341	76.12
216.559	37.2
216.778	10.58
216.996	65.88
217.214	65.88
217.432	14.68
217.651	-24.23
217.869	-24.23
218.087	14.68
218.306	12.63
218.524	-1.71
218.742	-22.19
218.96	-16.04
219.179	6.49
219.397	-40.62
219.615	0.34
219.833	16.73
220.051	12.63
220.27	-11.95
220.488	26.96
220.706	76.12
220.924	-26.28
221.142	-5.8
221.36	57.68
221.578	-28.33
221.796	-11.95
222.015	39.25
222.233	51.54
222.451	88.4
222.669	-16.04
222.887	-18.09
223.105	-46.76
223.323	39.25
223.541	-16.04
223.759	4.44
223.977	63.83
224.195	29.01
224.413	18.77
224.631	22.87
224.849	26.96
225.067	65.88
225.285	20.82
225.503	-20.14
225.721	-20.14
225.939	4.44
226.157	-1.71
226.375	0.34
226.592	51.54
226.81	69.97
227.028	33.11
227.246	106.84
227.464	-18.09
227.682	57.68
227.9	-18.09
228.117	0.34
228.335	43.35
228.553	-22.19
228.771	-16.04
228.989	18.77
229.206	2.39
229.424	41.3
229.642	63.83
229.86	90.45
230.077	37.2
230.295	2.39
230.513	-7.85
230.731	2.39
230.948	-16.04
231.166	-24.23
231.384	18.77
231.601	18.77
231.819	-7.85
232.037	-22.19
232.254	-44.71
232.472	6.49
232.689	-77.48
232.907	37.2
233.125	0.34
233.342	24.92
233.56	-7.85
233.777	6.49
233.995	-46.76
234.213	10.58
234.43	24.92
234.648	63.83
234.865	31.06
235.083	-1.71
235.3	2.39
235.518	39.25
235.735	-34.47
235.953	82.26
236.17	-5.8
236.388	53.59
236.605	31.06
236.822	51.54
237.04	74.07
237.257	35.16
237.475	0.34
237.692	-16.04
237.909	-54.95
238.127	39.25
238.344	22.87
238.562	8.53
238.779	22.87
238.996	8.53
239.214	24.92
239.431	74.07
239.648	8.53
239.865	35.16
240.083	53.59
240.3	55.64
240.517	31.06
240.735	-9.9
240.952	-7.85
241.169	8.53
241.386	41.3
241.603	10.58
241.821	-20.14
242.038	26.96
242.255	-30.38
242.472	24.92
242.689	-48.81
242.907	10.58
243.124	-5.8
243.341	-3.75
243.558	57.68
243.775	4.44
243.992	35.16
244.209	-1.71
244.426	63.83
244.643	-48.81
244.86	4.44
245.078	18.77
245.295	35.16
245.512	53.59
245.729	-28.33
245.946	12.63
246.163	72.02
246.38	59.73
246.597	22.87
246.814	35.16
247.031	-1.71
247.248	14.68
247.464	-11.95
247.681	69.97
247.898	53.59
248.115	-42.67
248.332	-38.57
248.549	67.92
248.766	41.3
248.983	-3.75
249.2	92.5
249.417	29.01
249.633	-44.71
249.85	16.73
250.067	-54.95
250.284	-11.95
250.501	84.31
250.717	45.4
250.934	-34.47
251.151	-67.24
251.368	18.77
251.585	92.5
251.801	24.92
252.018	31.06
252.235	47.44
252.451	-24.23
252.668	12.63
252.885	16.73
253.102	67.92
253.318	26.96
253.535	-32.43
253.752	26.96
253.968	53.59
254.185	57.68
254.401	-26.28
254.618	16.73
254.835	-13.99
255.051	55.64
255.268	22.87
255.484	67.92
255.701	14.68
255.917	29.01
256.134	-16.04
256.351	39.25
256.567	20.82
256.784	26.96
257	16.73
257.217	-5.8
257.433	37.2
257.65	-3.75
257.866	39.25
258.082	24.92
258.299	-11.95
258.515	-5.8
258.732	26.96
258.948	29.01
259.165	-13.99
259.381	-11.95
259.597	-40.62
259.814	-30.38
260.03	2.39
260.246	35.16
260.463	-34.47
260.679	-22.19
260.895	0.34
261.112	26.96
261.328	35.16
261.544	78.16
261.761	51.54
261.977	51.54
262.193	53.59
262.409	6.49
262.626	104.79
262.842	-7.85
263.058	-5.8
263.274	22.87
263.49	2.39
263.707	47.44
263.923	88.4
264.139	-1.71
264.355	26.96
264.571	12.63
264.787	4.44
265.004	65.88
265.22	6.49
265.436	88.4
265.652	10.58
265.868	78.16
266.084	-40.62
266.3	43.35
266.516	-26.28
266.732	47.44
266.948	24.92
267.164	8.53
267.38	2.39
267.596	26.96
267.812	6.49
268.028	43.35
268.244	-9.9
268.46	-11.95
268.676	41.3
268.892	-36.52
269.108	-24.23
269.324	49.49
269.54	-28.33
269.756	-18.09
269.972	-20.14
270.188	16.73
270.403	49.49
270.619	24.92
270.835	4.44
271.051	29.01
271.267	-22.19
271.483	55.64
271.698	53.59
271.914	0.34
272.13	-11.95
272.346	57.68
272.562	57.68
272.777	43.35
272.993	69.97
273.209	8.53
273.425	41.3
273.64	-20.14
273.856	41.3
274.072	-26.28
274.287	-7.85
274.503	12.63
274.719	-63.15
274.934	76.12
275.15	6.49
275.366	-36.52
275.581	20.82
275.797	-16.04
276.012	16.73
276.228	-46.76
276.444	24.92
276.659	18.77
276.875	47.44
277.09	12.63
277.306	57.68
277.521	35.16
277.737	12.63
277.952	-7.85
278.168	-18.09
278.383	88.4
278.599	-18.09
278.814	-34.47
279.03	12.63
279.245	69.97
279.461	-3.75
279.676	-11.95
279.892	26.96
280.107	41.3
280.322	37.2
280.538	78.16
280.753	-16.04
280.969	117.08
281.184	-24.23
281.399	26.96
281.615	-13.99
281.83	90.45
282.045	82.26
282.26	53.59
282.476	37.2
282.691	96.6
282.906	47.44
283.122	51.54
283.337	8.53
283.552	-32.43
283.767	12.63
283.983	2.39
284.198	29.01
284.413	-9.9
284.628	-38.57
284.843	33.11
285.058	10.58
285.274	43.35
285.489	31.06
285.704	37.2
285.919	35.16
286.134	57.68
286.349	55.64
286.564	8.53
286.779	53.59
286.995	-22.19
287.21	20.82
287.425	22.87
287.64	16.73
287.855	39.25
288.07	-57
288.285	63.83
288.5	-46.76
288.715	-18.09
288.93	0.34
289.145	57.68
289.36	-57
289.575	18.77
289.79	39.25
290.004	0.34
290.219	57.68
290.434	-32.43
290.649	-13.99
290.864	22.87
291.079	78.16
291.294	2.39
291.509	43.35
291.724	-1.71
291.938	-34.47
292.153	74.07
292.368	41.3
292.583	20.82
292.798	-3.75
293.012	2.39
293.227	57.68
293.442	0.34
293.657	0.34
293.871	2.39
294.086	6.49
294.301	16.73
294.516	-20.14
294.73	37.2
294.945	61.78
295.16	22.87
295.374	29.01
295.589	8.53
295.804	35.16
296.018	108.88
296.233	31.06
296.447	24.92
296.662	-11.95
296.877	24.92
297.091	29.01
297.306	59.73
297.52	-52.91
297.735	86.36
297.949	41.3
298.164	63.83
298.378	10.58
298.593	24.92
298.807	69.97
299.022	10.58
299.236	12.63
299.451	26.96
299.665	51.54
299.88	-7.85
300.094	35.16
300.309	51.54
300.523	-46.76
300.737	20.82
300.952	12.63
301.166	2.39
301.381	-44.71
301.595	92.5
301.809	149.84
302.024	102.74
302.238	6.49
302.452	16.73
302.667	4.44
302.881	61.78
303.095	22.87
303.309	-5.8
303.524	-1.71
303.738	-40.62
303.952	6.49
304.166	33.11
304.381	22.87
304.595	26.96
304.809	-11.95
305.023	65.88
305.237	-11.95
305.452	26.96
305.666	39.25
305.88	88.4
306.094	67.92
306.308	29.01
306.522	20.82
306.736	43.35
306.95	-7.85
307.164	61.78
307.379	12.63
307.593	26.96
307.807	61.78
308.021	18.77
308.235	24.92
308.449	26.96
308.663	10.58
308.877	31.06
309.091	35.16
309.305	2.39
309.519	-28.33
309.733	-30.38
309.947	0.34
310.161	78.16
310.374	-69.29
310.588	12.63
310.802	-11.95
311.016	22.87
311.23	12.63
311.444	-61.1
311.658	-1.71
311.872	92.5
312.085	-24.23
312.299	43.35
312.513	29.01
312.727	24.92
312.941	-52.91
313.154	72.02
313.368	31.06
313.582	26.96
313.796	2.39
314.009	-7.85
314.223	12.63
314.437	-24.23
314.651	33.11
314.864	16.73
315.078	72.02
315.292	43.35
315.505	-54.95
315.719	59.73
315.933	69.97
316.146	69.97
316.36	4.44
316.573	51.54
316.787	31.06
317.001	14.68
317.214	-7.85
317.428	49.49
317.641	4.44
317.855	4.44
318.068	12.63
318.282	45.4
318.495	33.11
318.709	10.58
318.922	14.68
319.136	31.06
319.349	29.01
319.563	10.58
319.776	63.83
319.99	47.44
320.203	92.5
320.417	-28.33
320.63	10.58
320.843	2.39
321.057	39.25
321.27	82.26
321.483	76.12
321.697	35.16
321.91	14.68
322.124	-20.14
322.337	-7.85
322.55	0.34
322.763	117.08
322.977	26.96
323.19	24.92
323.403	22.87
323.617	6.49
323.83	98.64
324.043	-13.99
324.256	2.39
324.469	0.34
324.683	16.73
324.896	37.2
325.109	2.39
325.322	45.4
325.535	-36.52
325.748	57.68
325.962	41.3
326.175	55.64
326.388	20.82
326.601	37.2
326.814	43.35
327.027	-3.75
327.24	2.39
327.453	43.35
327.666	24.92
327.879	59.73
328.092	14.68
328.305	26.96
328.518	-3.75
328.731	2.39
328.944	0.34
329.157	-16.04
329.37	67.92
329.583	51.54
329.796	8.53
330.009	53.59
330.222	41.3
330.435	69.97
330.648	86.36
330.861	-71.34
331.073	49.49
331.286	41.3
331.499	53.59
331.712	-67.24
331.925	43.35
332.138	35.16
332.35	22.87
332.563	82.26
332.776	-18.09
332.989	121.17
333.202	-22.19
333.414	2.39
333.627	-16.04
333.84	22.87
334.053	33.11
334.265	49.49
334.478	41.3
334.691	57.68
334.903	2.39
335.116	49.49
335.329	63.83
335.541	84.31
335.754	26.96
335.966	33.11
336.179	22.87
336.392	35.16
336.604	31.06
336.817	37.2
337.029	33.11
337.242	-28.33
337.454	22.87
337.667	-36.52
337.88	-7.85
338.092	53.59
338.305	80.21
338.517	2.39
338.729	49.49
338.942	26.96
339.154	18.77
339.367	-46.76
339.579	-18.09
339.792	22.87
340.004	53.59
340.217	22.87
340.429	16.73
340.641	43.35
340.854	31.06
341.066	78.16
341.278	55.64
341.491	61.78
341.703	65.88
341.915	-9.9
342.128	35.16
342.34	43.35
342.552	0.34
342.764	-42.67
342.977	26.96
343.189	4.44
343.401	4.44
343.613	33.11
343.826	-11.95
344.038	14.68
344.25	26.96
344.462	45.4
344.674	-24.23
344.886	57.68
345.099	41.3
345.311	29.01
345.523	53.59
345.735	29.01
345.947	0.34
346.159	12.63
346.371	16.73
346.583	47.44
346.795	29.01
347.007	41.3
347.219	29.01
347.431	33.11
347.643	22.87
347.855	18.77
348.067	76.12
348.279	-18.09
348.491	35.16
348.703	20.82
348.915	-48.81
349.127	67.92
349.339	35.16
349.551	-24.23
349.763	-54.95
349.975	67.92
350.187	-9.9
350.399	31.06
350.61	92.5
350.822	-32.43
351.034	39.25
351.246	0.34
351.458	43.35
351.669	14.68
351.881	6.49
352.093	-1.71
352.305	51.54
352.517	-16.04
352.728	104.79
352.94	26.96
353.152	12.63
353.363	45.4
353.575	29.01
353.787	41.3
353.999	-26.28
354.21	45.4
354.422	49.49
354.633	8.53
354.845	22.87
355.057	41.3
355.268	26.96
355.48	41.3
355.692	16.73
355.903	65.88
356.115	47.44
356.326	29.01
356.538	26.96
356.749	10.58
356.961	-3.75
357.172	47.44
357.384	4.44
357.595	-20.14
357.807	8.53
358.018	12.63
358.23	29.01
358.441	-36.52
358.653	-13.99
358.864	29.01
359.075	80.21
359.287	35.16
359.498	12.63
359.709	72.02
359.921	-11.95
360.132	8.53
360.344	67.92
360.555	31.06
360.766	33.11
360.977	-20.14
361.189	49.49
361.4	-9.9
361.611	6.49
361.823	49.49
362.034	20.82
362.245	-18.09
362.456	-9.9
362.667	-24.23
362.879	43.35
363.09	-1.71
363.301	49.49
363.512	-24.23
363.723	100.69
363.935	-5.8
364.146	-16.04
364.357	35.16
364.568	104.79
364.779	12.63
364.99	-18.09
365.201	12.63
365.412	12.63
365.623	-11.95
365.834	49.49
366.045	16.73
366.256	43.35
366.467	0.34
366.678	12.63
366.889	90.45
367.1	14.68
367.311	4.44
367.522	84.31
367.733	100.69
367.944	135.51
368.155	59.73
368.366	6.49
368.577	-13.99
368.788	-3.75
368.999	-16.04
369.209	57.68
369.42	-3.75
369.631	49.49
369.842	29.01
370.053	29.01
370.264	45.4
370.474	88.4
370.685	119.12
370.896	53.59
371.107	33.11
371.317	115.03
371.528	63.83
371.739	10.58
371.95	18.77
372.16	131.41
372.371	10.58
372.582	86.36
372.792	-20.14
373.003	26.96
373.214	61.78
373.424	59.73
373.635	20.82
373.846	80.21
374.056	24.92
374.267	90.45
374.477	78.16
374.688	49.49
374.898	49.49
375.109	20.82
375.319	78.16
375.53	67.92
375.74	61.78
375.951	53.59
376.161	-11.95
376.372	18.77
376.582	33.11
376.793	98.64
377.003	74.07
377.214	-7.85
377.424	98.64
377.635	10.58
377.845	26.96
378.055	63.83
378.266	22.87
378.476	-1.71
378.686	-46.76
378.897	-40.62
379.107	-11.95
379.317	10.58
379.528	22.87
379.738	-5.8
379.948	29.01
380.158	51.54
380.369	24.92
380.579	-40.62
380.789	65.88
380.999	88.4
381.21	33.11
381.42	51.54
381.63	90.45
381.84	94.55
382.05	-1.71
382.261	72.02
382.471	29.01
382.681	92.5
382.891	12.63
383.101	-13.99
383.311	-5.8
383.521	49.49
383.731	63.83
383.941	135.51
384.151	14.68
384.361	-13.99
384.571	4.44
384.781	104.79
384.991	61.78
385.201	76.12
385.411	4.44
385.621	31.06
385.831	6.49
386.041	24.92
386.251	55.64
386.461	18.77
386.671	-26.28
386.881	12.63
387.091	22.87
387.301	137.56
387.511	35.16
387.72	84.31
387.93	76.12
388.14	47.44
388.35	35.16
388.56	61.78
388.769	20.82
388.979	51.54
389.189	59.73
389.399	35.16
389.609	47.44
389.818	0.34
390.028	33.11
390.238	31.06
390.447	55.64
390.657	0.34
390.867	57.68
391.076	29.01
391.286	59.73
391.496	8.53
391.705	31.06
391.915	26.96
392.125	55.64
392.334	82.26
392.544	72.02
392.753	57.68
392.963	-22.19
393.172	41.3
393.382	41.3
393.591	35.16
393.801	67.92
394.01	88.4
394.22	53.59
394.429	65.88
394.639	43.35
394.848	67.92
395.058	74.07
395.267	51.54
395.477	84.31
395.686	67.92
395.895	69.97
396.105	37.2
396.314	67.92
396.524	72.02
396.733	29.01
396.942	4.44
397.152	102.74
397.361	78.16
397.57	-18.09
397.78	67.92
397.989	16.73
398.198	4.44
398.407	121.17
398.617	43.35
398.826	39.25
399.035	69.97
399.244	43.35
399.453	125.27
399.663	108.88
399.872	82.26
400.081	39.25
400.29	84.31
400.499	119.12
400.708	76.12
400.917	80.21
401.127	33.11
401.336	55.64
401.545	90.45
401.754	88.4
401.963	160.08
402.172	88.4
402.381	59.73
402.59	84.31
402.799	69.97
403.008	84.31
403.217	74.07
403.426	69.97
403.635	94.55
403.844	72.02
404.053	139.6
404.262	84.31
404.471	100.69
404.68	112.98
404.888	86.36
405.097	158.03
405.306	108.88
405.515	69.97
405.724	153.94
405.933	88.4
406.142	88.4
406.35	106.84
406.559	98.64
406.768	125.27
406.977	125.27
407.185	123.22
407.394	115.03
407.603	74.07
407.812	178.51
408.02	196.95
408.229	170.32
408.438	102.74
408.646	123.22
408.855	233.81
409.064	151.89
409.272	158.03
409.481	192.85
409.69	137.56
409.898	160.08
410.107	145.75
410.315	176.47
410.524	246.1
410.733	196.95
410.941	158.03
411.15	229.71
411.358	215.38
411.567	244.05
411.775	235.86
411.984	301.39
412.192	317.78
412.401	184.66
412.609	268.63
412.818	280.91
413.026	258.39
413.234	319.82
413.443	330.06
413.651	477.52
413.86	358.74
414.068	332.11
414.276	358.74
414.485	432.46
414.693	293.2
414.901	422.22
415.11	422.22
415.318	450.89
415.526	532.81
415.734	510.29
415.943	549.2
416.151	491.85
416.359	557.39
416.567	649.55
416.776	629.07
416.984	536.91
417.192	631.12
417.4	674.12
417.608	612.68
417.817	602.44
418.025	682.31
418.233	661.84
418.441	690.51
418.649	850.25
418.857	784.71
419.065	762.19
419.273	823.62
419.481	889.16
419.689	969.03
419.897	975.17
420.105	932.17
420.313	1001.8
420.521	1001.8
420.729	977.22
420.937	1030.47
421.145	1165.64
421.353	1106.24
421.561	1225.03
421.769	1163.59
421.977	1263.94
422.185	1376.58
422.393	1409.34
422.601	1429.82
422.809	1417.54
423.017	1409.34
423.224	1544.51
423.432	1612.09
423.64	1651
423.848	1685.82
424.056	1608
424.263	1802.55
424.471	1773.88
424.679	1843.51
424.887	2009.4
425.094	1993.01
425.302	1982.78
425.51	2107.7
425.718	2081.08
425.925	2142.52
426.133	2193.72
426.341	2437.42
426.548	2447.66
426.756	2373.94
426.964	2453.81
427.171	2611.5
427.379	2660.65
427.586	2824.49
427.794	2793.77
428.001	2973.99
428.209	3057.96
428.417	3008.81
428.624	3311.91
428.832	3281.19
429.039	3195.17
429.247	3250.47
429.454	3518.75
429.662	3852.57
429.869	3557.66
430.076	3801.37
430.284	3647.77
430.491	3899.67
430.699	4057.37
430.906	4036.89
431.114	4075.8
431.321	4190.49
431.528	4362.51
431.736	4704.53
431.943	5058.82
432.15	4571.41
432.358	4849.93
432.565	5011.72
432.772	4796.68
432.979	5245.19
433.187	5429.51
433.394	5146.89
433.601	5667.07
433.808	5710.08
434.016	5798.14
434.223	5914.88
434.43	6402.29
434.637	6156.54
434.844	6584.56
435.052	6732.01
435.259	6725.87
435.466	6652.14
435.673	6596.85
435.88	7233.77
436.087	7454.95
436.294	7512.29
436.501	7258.34
436.708	7446.76
436.915	7565.54
437.122	7985.37
437.329	8077.53
437.537	8050.91
437.743	8399.06
437.95	8284.37
438.157	8874.19
438.364	9119.95
438.571	8974.54
438.778	9099.47
438.985	9808.06
439.192	9584.84
439.399	9912.51
439.606	9613.51
439.813	10154.17
440.02	10674.35
440.227	10383.54
440.433	10549.43
440.64	10809.52
440.847	10813.62
441.054	10895.54
441.261	11698.34
441.467	11585.7
441.674	11761.83
441.881	12284.06
442.088	12099.74
442.294	12112.03
442.501	12247.19
442.708	12538.01
442.914	12826.77
443.121	13639.81
443.328	13314.19
443.534	14196.86
443.741	13615.24
443.948	13664.39
444.154	14719.09
444.361	14624.89
444.568	14794.87
444.774	14508.15
444.981	14809.2
445.187	15265.9
445.394	15853.67
445.6	15876.2
445.807	17270.86
446.013	16580.7
446.22	16666.71
446.426	17107.02
446.633	17526.86
446.839	18157.63
447.046	17387.6
447.252	18458.68
447.459	18559.03
447.665	18368.57
447.871	18731.06
448.078	19910.69
448.284	19013.68
448.491	19394.61
448.697	20238.37
448.903	20537.37
449.11	20584.48
449.316	20230.18
449.522	20600.86
449.728	21186.58
449.935	21256.21
450.141	21383.18
450.347	21729.29
450.553	21049.36
450.76	21282.83
450.966	21743.63
451.172	21835.78
451.378	22345.73
451.584	21714.95
451.791	22423.55
451.997	22478.85
452.203	22405.12
452.409	22605.82
452.615	22157.32
452.821	21778.44
453.027	21542.92
453.233	22487.04
453.44	21737.48
453.646	21997.57
453.852	21866.5
454.058	22067.2
454.264	21346.32
454.47	21970.95
454.676	21344.27
454.882	22161.41
455.088	20033.57
455.294	20387.87
455.5	20840.47
455.705	20932.63
455.911	19961.89
456.117	19587.11
456.323	19415.09
456.529	18387
456.735	19157.04
456.941	18655.29
457.147	18147.39
457.352	17842.25
457.558	17420.36
457.764	17453.13
457.97	17279.05
458.176	16855.12
458.381	17008.72
458.587	16040.03
458.793	15892.58
458.999	15186.03
459.204	16380
459.41	15771.75
459.616	14665.85
459.821	14909.55
460.027	14686.33
460.233	14366.84
460.438	13805.7
460.644	13906.05
460.85	13365.39
461.055	13093.01
461.261	12939.41
461.466	12208.28
461.672	11800.74
461.878	12593.3
462.083	11595.94
462.289	11645.09
462.494	11409.58
462.7	10967.21
462.905	10606.77
463.111	10873.01
463.316	11083.95
463.522	10801.33
463.727	10676.4
463.932	10594.48
464.138	10569.91
464.343	10913.97
464.549	10264.76
464.754	10725.55
464.959	10639.54
465.165	10672.31
465.37	10166.46
465.575	10188.99
465.781	10299.58
465.986	10387.64
466.191	9949.37
466.397	9875.65
466.602	9400.52
466.807	9752.77
467.012	9750.72
467.218	9672.9
467.423	9603.27
467.628	9652.42
467.833	9922.75
468.038	9601.22
468.244	9349.32
468.449	9803.97
468.654	9492.68
468.859	9367.75
