Data from USB4F104151__23__13-52-38-203.txt Node

Date: Thu Mar 13 13:52:38 EDT 2025
User: louis
Spectrometer: USB4F10415
Trigger mode: 4
Integration Time (sec): 1.000000E-2
Scans to average: 1
Electric dark correction enabled: true
Nonlinearity correction enabled: false
Boxcar width: 0
XAxis mode: Wavelengths
Number of Pixels in Spectrum: 3648
>>>>>Begin Spectral Data<<<<<
178.204	-54.61
178.424	-54.61
178.644	-54.61
178.864	-93.52
179.084	-21.85
179.304	-5.46
179.524	-5.46
179.744	25.26
179.964	35.5
180.184	-5.46
180.404	-7.51
180.624	25.26
180.844	51.88
181.064	-68.95
181.283	25.26
181.503	-44.37
181.723	-25.94
181.943	-30.04
182.163	31.4
182.383	-85.33
182.602	127.66
182.822	23.21
183.042	0.68
183.262	-50.52
183.482	2.73
183.701	-46.42
183.921	35.5
184.141	12.97
184.361	-36.18
184.58	-50.52
184.8	21.16
185.02	33.45
185.239	-13.65
185.459	-5.46
185.679	33.45
185.898	-25.94
186.118	49.83
186.338	2.73
186.557	15.02
186.777	68.27
186.997	-40.28
187.216	6.83
187.436	39.59
187.655	-5.46
187.875	74.41
188.095	-5.46
188.314	58.03
188.534	78.51
188.753	60.07
188.973	-30.04
189.192	27.31
189.412	39.59
189.631	49.83
189.851	-5.46
190.07	0.68
190.29	-23.89
190.509	62.12
190.729	2.73
190.948	-1.37
191.168	27.31
191.387	27.31
191.607	-7.51
191.826	-15.7
192.045	19.11
192.265	39.59
192.484	10.92
192.704	64.17
192.923	74.41
193.142	66.22
193.362	-42.32
193.581	39.59
193.8	80.55
194.02	23.21
194.239	-27.99
194.458	17.07
194.678	0.68
194.897	-79.19
195.116	-9.56
195.335	21.16
195.555	66.22
195.774	70.31
195.993	-52.56
196.212	6.83
196.432	4.78
196.651	-46.42
196.87	53.93
197.089	58.03
197.308	8.87
197.528	-3.41
197.747	-1.37
197.966	-64.85
198.185	-42.32
198.404	35.5
198.623	49.83
198.842	68.27
199.062	66.22
199.281	-11.61
199.5	-23.89
199.719	55.98
199.938	35.5
200.157	-23.89
200.376	17.07
200.595	64.17
200.814	25.26
201.033	39.59
201.252	6.83
201.471	72.36
201.69	31.4
201.909	29.35
202.128	6.83
202.347	8.87
202.566	-5.46
202.785	29.35
203.004	60.07
203.223	-15.7
203.442	-1.37
203.661	-40.28
203.879	21.16
204.098	-27.99
204.317	-34.13
204.536	25.26
204.755	-58.71
204.974	41.64
205.193	0.68
205.411	58.03
205.63	47.79
205.849	-32.08
206.068	-52.56
206.287	12.97
206.505	23.21
206.724	19.11
206.943	-1.37
207.162	-75.09
207.381	8.87
207.599	33.45
207.818	-27.99
208.037	33.45
208.255	12.97
208.474	19.11
208.693	17.07
208.911	17.07
209.13	23.21
209.349	4.78
209.567	98.99
209.786	23.21
210.005	6.83
210.223	60.07
210.442	29.35
210.661	82.6
210.879	-21.85
211.098	33.45
211.316	-1.37
211.535	76.46
211.753	41.64
211.972	47.79
212.191	2.73
212.409	12.97
212.628	-17.75
212.846	39.59
213.065	68.27
213.283	-3.41
213.502	15.02
213.72	17.07
213.938	2.73
214.157	17.07
214.375	64.17
214.594	39.59
214.812	-19.8
215.031	39.59
215.249	-79.19
215.467	17.07
215.686	43.69
215.904	45.74
216.122	49.83
216.341	0.68
216.559	-19.8
216.778	17.07
216.996	0.68
217.214	-13.65
217.432	-23.89
217.651	0.68
217.869	-32.08
218.087	43.69
218.306	-36.18
218.524	-42.32
218.742	17.07
218.96	25.26
219.179	70.31
219.397	4.78
219.615	-11.61
219.833	64.17
220.051	35.5
220.27	66.22
220.488	17.07
220.706	25.26
220.924	37.55
221.142	0.68
221.36	49.83
221.578	60.07
221.796	-27.99
222.015	23.21
222.233	-21.85
222.451	35.5
222.669	21.16
222.887	41.64
223.105	-9.56
223.323	64.17
223.541	37.55
223.759	-34.13
223.977	-40.28
224.195	47.79
224.413	23.21
224.631	94.89
224.849	-38.23
225.067	-1.37
225.285	66.22
225.503	72.36
225.721	-13.65
225.939	-32.08
226.157	60.07
226.375	8.87
226.592	33.45
226.81	-40.28
227.028	62.12
227.246	-48.47
227.464	35.5
227.682	17.07
227.9	35.5
228.117	-27.99
228.335	10.92
228.553	10.92
228.771	-32.08
228.989	15.02
229.206	43.69
229.424	-1.37
229.642	-9.56
229.86	-1.37
230.077	12.97
230.295	-5.46
230.513	19.11
230.731	10.92
230.948	66.22
231.166	19.11
231.384	8.87
231.601	55.98
231.819	23.21
232.037	41.64
232.254	2.73
232.472	2.73
232.689	51.88
232.907	29.35
233.125	-19.8
233.342	21.16
233.56	39.59
233.777	29.35
233.995	-15.7
234.213	33.45
234.43	0.68
234.648	33.45
234.865	82.6
235.083	41.64
235.3	-52.56
235.518	51.88
235.735	60.07
235.953	-7.51
236.17	72.36
236.388	51.88
236.605	2.73
236.822	68.27
237.04	51.88
237.257	68.27
237.475	-21.85
237.692	37.55
237.909	82.6
238.127	-75.09
238.344	-13.65
238.562	105.13
238.779	0.68
238.996	-3.41
239.214	109.22
239.431	70.31
239.648	-7.51
239.865	-34.13
240.083	27.31
240.3	10.92
240.517	27.31
240.735	-81.24
240.952	23.21
241.169	25.26
241.386	-17.75
241.603	-5.46
241.821	-40.28
242.038	-21.85
242.255	-13.65
242.472	-23.89
242.689	45.74
242.907	15.02
243.124	-11.61
243.341	0.68
243.558	-5.46
243.775	107.18
243.992	76.46
244.209	72.36
244.426	12.97
244.643	23.21
244.86	23.21
245.078	51.88
245.295	-27.99
245.512	-15.7
245.729	51.88
245.946	15.02
246.163	21.16
246.38	17.07
246.597	37.55
246.814	27.31
247.031	-17.75
247.248	6.83
247.464	21.16
247.681	21.16
247.898	96.94
248.115	10.92
248.332	-46.42
248.549	-7.51
248.766	-25.94
248.983	78.51
249.2	-3.41
249.417	53.93
249.633	-11.61
249.85	19.11
250.067	29.35
250.284	68.27
250.501	-15.7
250.717	51.88
250.934	12.97
251.151	29.35
251.368	-1.37
251.585	43.69
251.801	86.7
252.018	31.4
252.235	-9.56
252.451	-7.51
252.668	-44.37
252.885	37.55
253.102	-58.71
253.318	0.68
253.535	4.78
253.752	70.31
253.968	-68.95
254.185	12.97
254.401	47.79
254.618	-5.46
254.835	-36.18
255.051	-5.46
255.268	-30.04
255.484	-15.7
255.701	74.41
255.917	17.07
256.134	35.5
256.351	25.26
256.567	31.4
256.784	-34.13
257	-44.37
257.217	43.69
257.433	64.17
257.65	29.35
257.866	51.88
258.082	-46.42
258.299	60.07
258.515	12.97
258.732	25.26
258.948	82.6
259.165	-48.47
259.381	2.73
259.597	10.92
259.814	37.55
260.03	2.73
260.246	15.02
260.463	43.69
260.679	76.46
260.895	-19.8
261.112	66.22
261.328	17.07
261.544	17.07
261.761	0.68
261.977	39.59
262.193	19.11
262.409	58.03
262.626	-19.8
262.842	80.55
263.058	-13.65
263.274	25.26
263.49	33.45
263.707	19.11
263.923	19.11
264.139	29.35
264.355	19.11
264.571	70.31
264.787	21.16
265.004	-44.37
265.22	47.79
265.436	-25.94
265.652	-32.08
265.868	4.78
266.084	-1.37
266.3	-23.89
266.516	27.31
266.732	39.59
266.948	58.03
267.164	-5.46
267.38	64.17
267.596	0.68
267.812	-19.8
268.028	-46.42
268.244	43.69
268.46	64.17
268.676	51.88
268.892	60.07
269.108	53.93
269.324	6.83
269.54	10.92
269.756	35.5
269.972	23.21
270.188	-23.89
270.403	64.17
270.619	33.45
270.835	23.21
271.051	51.88
271.267	6.83
271.483	-32.08
271.698	76.46
271.914	-3.41
272.13	-1.37
272.346	35.5
272.562	51.88
272.777	0.68
272.993	31.4
273.209	47.79
273.425	80.55
273.64	-13.65
273.856	76.46
274.072	12.97
274.287	58.03
274.503	105.13
274.719	-1.37
274.934	55.98
275.15	72.36
275.366	-32.08
275.581	-34.13
275.797	-13.65
276.012	-1.37
276.228	-3.41
276.444	-7.51
276.659	66.22
276.875	17.07
277.09	80.55
277.306	72.36
277.521	2.73
277.737	74.41
277.952	74.41
278.168	-5.46
278.383	0.68
278.599	64.17
278.814	115.37
279.03	53.93
279.245	33.45
279.461	62.12
279.676	4.78
279.892	10.92
280.107	-38.23
280.322	-27.99
280.538	58.03
280.753	12.97
280.969	103.08
281.184	35.5
281.399	-1.37
281.615	72.36
281.83	51.88
282.045	-11.61
282.26	80.55
282.476	72.36
282.691	0.68
282.906	-27.99
283.122	35.5
283.337	-5.46
283.552	80.55
283.767	-25.94
283.983	-7.51
284.198	60.07
284.413	-27.99
284.628	-15.7
284.843	6.83
285.058	-27.99
285.274	39.59
285.489	-5.46
285.704	8.87
285.919	51.88
286.134	19.11
286.349	-17.75
286.564	-5.46
286.779	4.78
286.995	10.92
287.21	2.73
287.425	-7.51
287.64	0.68
287.855	21.16
288.07	12.97
288.285	33.45
288.5	4.78
288.715	21.16
288.93	49.83
289.145	-9.56
289.36	8.87
289.575	-1.37
289.79	-25.94
290.004	72.36
290.219	33.45
290.434	21.16
290.649	-23.89
290.864	-17.75
291.079	55.98
291.294	101.03
291.509	15.02
291.724	70.31
291.938	-30.04
292.153	-1.37
292.368	47.79
292.583	78.51
292.798	-21.85
293.012	12.97
293.227	68.27
293.442	-52.56
293.657	119.46
293.871	66.22
294.086	27.31
294.301	88.75
294.516	15.02
294.73	6.83
294.945	39.59
295.16	45.74
295.374	68.27
295.589	45.74
295.804	41.64
296.018	-7.51
296.233	49.83
296.447	107.18
296.662	55.98
296.877	25.26
297.091	8.87
297.306	-5.46
297.52	-23.89
297.735	-7.51
297.949	-3.41
298.164	80.55
298.378	-25.94
298.593	80.55
298.807	-9.56
299.022	4.78
299.236	27.31
299.451	84.65
299.665	-25.94
299.88	60.07
300.094	-19.8
300.309	29.35
300.523	84.65
300.737	15.02
300.952	-17.75
301.166	55.98
301.381	21.16
301.595	-13.65
301.809	19.11
302.024	105.13
302.238	-32.08
302.452	45.74
302.667	84.65
302.881	35.5
303.095	19.11
303.309	4.78
303.524	-30.04
303.738	-42.32
303.952	-48.47
304.166	58.03
304.381	-38.23
304.595	58.03
304.809	-1.37
305.023	41.64
305.237	-3.41
305.452	-1.37
305.666	31.4
305.88	72.36
306.094	33.45
306.308	37.55
306.522	55.98
306.736	-11.61
306.95	27.31
307.164	27.31
307.379	43.69
307.593	12.97
307.807	82.6
308.021	-25.94
308.235	27.31
308.449	45.74
308.663	-11.61
308.877	19.11
309.091	6.83
309.305	-3.41
309.519	15.02
309.733	41.64
309.947	51.88
310.161	39.59
310.374	47.79
310.588	23.21
310.802	39.59
311.016	-25.94
311.23	39.59
311.444	53.93
311.658	-1.37
311.872	6.83
312.085	-42.32
312.299	45.74
312.513	6.83
312.727	39.59
312.941	88.75
313.154	45.74
313.368	2.73
313.582	-71
313.796	6.83
314.009	86.7
314.223	-21.85
314.437	105.13
314.651	33.45
314.864	4.78
315.078	-44.37
315.292	21.16
315.505	43.69
315.719	43.69
315.933	49.83
316.146	27.31
316.36	19.11
316.573	-42.32
316.787	41.64
317.001	51.88
317.214	8.87
317.428	12.97
317.641	8.87
317.855	45.74
318.068	35.5
318.282	74.41
318.495	41.64
318.709	39.59
318.922	125.61
319.136	-36.18
319.349	41.64
319.563	49.83
319.776	39.59
319.99	62.12
320.203	10.92
320.417	47.79
320.63	-5.46
320.843	107.18
321.057	29.35
321.27	19.11
321.483	43.69
321.697	37.55
321.91	19.11
322.124	29.35
322.337	-21.85
322.55	64.17
322.763	17.07
322.977	119.46
323.19	-5.46
323.403	4.78
323.617	68.27
323.83	45.74
324.043	10.92
324.256	10.92
324.469	-15.7
324.683	70.31
324.896	25.26
325.109	2.73
325.322	66.22
325.535	8.87
325.748	29.35
325.962	31.4
326.175	6.83
326.388	-13.65
326.601	-13.65
326.814	103.08
327.027	-11.61
327.24	-7.51
327.453	49.83
327.666	39.59
327.879	10.92
328.092	35.5
328.305	21.16
328.518	17.07
328.731	70.31
328.944	19.11
329.157	-5.46
329.37	68.27
329.583	6.83
329.796	45.74
330.009	-13.65
330.222	8.87
330.435	94.89
330.648	29.35
330.861	-34.13
331.073	68.27
331.286	39.59
331.499	25.26
331.712	64.17
331.925	-34.13
332.138	-30.04
332.35	76.46
332.563	-42.32
332.776	47.79
332.989	-17.75
333.202	47.79
333.414	6.83
333.627	43.69
333.84	84.65
334.053	-7.51
334.265	19.11
334.478	35.5
334.691	-9.56
334.903	27.31
335.116	53.93
335.329	12.97
335.541	27.31
335.754	135.85
335.966	-58.71
336.179	17.07
336.392	-13.65
336.604	-32.08
336.817	6.83
337.029	23.21
337.242	23.21
337.454	66.22
337.667	80.55
337.88	64.17
338.092	101.03
338.305	53.93
338.517	25.26
338.729	84.65
338.942	-30.04
339.154	43.69
339.367	6.83
339.579	31.4
339.792	-54.61
340.004	-1.37
340.217	6.83
340.429	33.45
340.641	23.21
340.854	-19.8
341.066	62.12
341.278	55.98
341.491	8.87
341.703	84.65
341.915	68.27
342.128	76.46
342.34	53.93
342.552	-21.85
342.764	43.69
342.977	53.93
343.189	-5.46
343.401	-9.56
343.613	43.69
343.826	53.93
344.038	62.12
344.25	90.79
344.462	41.64
344.674	51.88
344.886	6.83
345.099	10.92
345.311	86.7
345.523	-30.04
345.735	15.02
345.947	17.07
346.159	55.98
346.371	49.83
346.583	35.5
346.795	94.89
347.007	10.92
347.219	119.46
347.431	27.31
347.643	23.21
347.855	17.07
348.067	23.21
348.279	-17.75
348.491	47.79
348.703	-71
348.915	64.17
349.127	58.03
349.339	80.55
349.551	-13.65
349.763	94.89
349.975	39.59
350.187	12.97
350.399	62.12
350.61	49.83
350.822	64.17
351.034	-11.61
351.246	70.31
351.458	19.11
351.669	53.93
351.881	2.73
352.093	49.83
352.305	4.78
352.517	0.68
352.728	35.5
352.94	43.69
353.152	37.55
353.363	31.4
353.575	47.79
353.787	-5.46
353.999	37.55
354.21	55.98
354.422	31.4
354.633	55.98
354.845	70.31
355.057	8.87
355.268	68.27
355.48	-1.37
355.692	80.55
355.903	78.51
356.115	72.36
356.326	-40.28
356.538	23.21
356.749	-17.75
356.961	19.11
357.172	-27.99
357.384	-21.85
357.595	41.64
357.807	15.02
358.018	-17.75
358.23	35.5
358.441	68.27
358.653	55.98
358.864	45.74
359.075	-1.37
359.287	-9.56
359.498	45.74
359.709	35.5
359.921	74.41
360.132	31.4
360.344	-17.75
360.555	8.87
360.766	23.21
360.977	58.03
361.189	94.89
361.4	15.02
361.611	6.83
361.823	64.17
362.034	82.6
362.245	33.45
362.456	58.03
362.667	-48.47
362.879	23.21
363.09	31.4
363.301	12.97
363.512	10.92
363.723	-36.18
363.935	6.83
364.146	2.73
364.357	62.12
364.568	88.75
364.779	49.83
364.99	53.93
365.201	43.69
365.412	86.7
365.623	33.45
365.834	84.65
366.045	31.4
366.256	-1.37
366.467	84.65
366.678	109.22
366.889	41.64
367.1	6.83
367.311	88.75
367.522	-3.41
367.733	-11.61
367.944	90.79
368.155	-21.85
368.366	66.22
368.577	74.41
368.788	98.99
368.999	17.07
369.209	58.03
369.42	39.59
369.631	62.12
369.842	43.69
370.053	84.65
370.264	47.79
370.474	49.83
370.685	37.55
370.896	15.02
371.107	10.92
371.317	37.55
371.528	74.41
371.739	-13.65
371.95	51.88
372.16	68.27
372.371	60.07
372.582	82.6
372.792	25.26
373.003	64.17
373.214	45.74
373.424	78.51
373.635	8.87
373.846	27.31
374.056	39.59
374.267	31.4
374.477	4.78
374.688	80.55
374.898	37.55
375.109	-9.56
375.319	98.99
375.53	51.88
375.74	70.31
375.951	-13.65
376.161	21.16
376.372	49.83
376.582	41.64
376.793	39.59
377.003	76.46
377.214	72.36
377.424	55.98
377.635	66.22
377.845	12.97
378.055	51.88
378.266	4.78
378.476	27.31
378.686	-62.8
378.897	82.6
379.107	19.11
379.317	82.6
379.528	17.07
379.738	10.92
379.948	23.21
380.158	0.68
380.369	31.4
380.579	-9.56
380.789	68.27
380.999	17.07
381.21	39.59
381.42	29.35
381.63	25.26
381.84	43.69
382.05	-40.28
382.261	39.59
382.471	76.46
382.681	17.07
382.891	-19.8
383.101	-19.8
383.311	10.92
383.521	43.69
383.731	84.65
383.941	33.45
384.151	25.26
384.361	55.98
384.571	82.6
384.781	10.92
384.991	41.64
385.201	55.98
385.411	-13.65
385.621	35.5
385.831	68.27
386.041	123.56
386.251	2.73
386.461	74.41
386.671	-19.8
386.881	2.73
387.091	129.7
387.301	62.12
387.511	23.21
387.72	78.51
387.93	-5.46
388.14	51.88
388.35	10.92
388.56	39.59
388.769	49.83
388.979	66.22
389.189	8.87
389.399	66.22
389.609	84.65
389.818	-13.65
390.028	41.64
390.238	88.75
390.447	39.59
390.657	33.45
390.867	-3.41
391.076	53.93
391.286	150.18
391.496	-5.46
391.705	29.35
391.915	-42.32
392.125	84.65
392.334	25.26
392.544	68.27
392.753	-1.37
392.963	41.64
393.172	29.35
393.382	23.21
393.591	55.98
393.801	92.84
394.01	70.31
394.22	35.5
394.429	105.13
394.639	51.88
394.848	70.31
395.058	58.03
395.267	125.61
395.477	76.46
395.686	55.98
395.895	144.04
396.105	131.75
396.314	-11.61
396.524	19.11
396.733	74.41
396.942	35.5
397.152	64.17
397.361	47.79
397.57	94.89
397.78	55.98
397.989	15.02
398.198	78.51
398.407	78.51
398.617	47.79
398.826	60.07
399.035	129.7
399.244	88.75
399.453	15.02
399.663	82.6
399.872	21.16
400.081	-7.51
400.29	84.65
400.499	47.79
400.708	27.31
400.917	88.75
401.127	86.7
401.336	101.03
401.545	82.6
401.754	82.6
401.963	127.66
402.172	80.55
402.381	107.18
402.59	107.18
402.799	25.26
403.008	37.55
403.217	88.75
403.426	70.31
403.635	74.41
403.844	129.7
404.053	74.41
404.262	2.73
404.471	92.84
404.68	98.99
404.888	58.03
405.097	68.27
405.306	168.62
405.515	111.27
405.724	64.17
405.933	68.27
406.142	150.18
406.35	117.42
406.559	166.57
406.768	166.57
406.977	98.99
407.185	74.41
407.394	148.14
407.603	76.46
407.812	109.22
408.02	197.29
408.229	105.13
408.438	117.42
408.646	273.06
408.855	170.66
409.064	209.58
409.272	193.19
409.481	221.86
409.69	221.86
409.898	160.42
410.107	189.1
410.315	252.58
410.524	250.53
410.733	154.28
410.941	271.01
411.15	250.53
411.358	225.96
411.567	252.58
411.775	248.49
411.984	246.44
412.192	260.77
412.401	236.2
412.609	342.69
412.818	273.06
413.026	363.17
413.234	363.17
413.443	359.08
413.651	326.31
413.86	389.8
414.068	361.13
414.276	387.75
414.485	418.47
414.693	432.8
414.901	434.85
415.11	420.52
415.318	406.18
415.526	494.24
415.734	463.52
415.943	449.19
416.151	520.87
416.359	512.67
416.567	535.2
416.776	598.69
416.984	590.5
417.192	637.6
417.4	629.41
417.608	580.26
417.817	717.47
418.025	723.62
418.233	774.81
418.441	737.95
418.649	805.53
418.857	869.02
419.065	848.54
419.273	793.25
419.481	912.03
419.689	940.7
419.897	944.8
420.105	934.56
420.313	1082.01
420.521	1041.05
420.729	1069.72
420.937	1096.35
421.145	1217.18
421.353	1190.55
421.561	1217.18
421.769	1327.77
421.977	1333.91
422.185	1362.58
422.393	1438.36
422.601	1501.84
422.809	1516.18
423.017	1450.64
423.224	1583.76
423.432	1729.17
423.64	1786.51
423.848	1792.66
424.056	1815.18
424.263	1923.73
424.471	1890.96
424.679	1866.38
424.887	1931.92
425.094	2114.19
425.302	2103.95
425.51	2101.9
425.718	2194.06
425.925	2198.15
426.133	2355.85
426.341	2378.37
426.548	2527.88
426.756	2474.63
426.964	2622.08
427.171	2689.67
427.379	2738.82
427.586	2902.65
427.794	2982.53
428.001	3013.24
428.209	3289.72
428.417	3084.92
428.624	3410.55
428.832	3359.35
429.039	3428.98
429.247	3443.32
429.454	3674.74
429.662	3922.54
429.869	3592.82
430.076	3959.41
430.284	3914.35
430.491	3885.68
430.699	4102.76
430.906	4151.92
431.114	4254.31
431.321	4334.18
431.528	4598.37
431.736	4747.87
431.943	4999.77
432.15	4840.03
432.358	5016.16
432.565	5251.67
432.772	5284.44
432.979	5384.79
433.187	5524.05
433.394	5573.21
433.601	6017.61
433.808	5890.64
434.016	6068.81
434.223	6318.67
434.43	6494.79
434.637	6357.58
434.844	6736.45
435.052	6914.63
435.259	6748.74
435.466	6963.78
435.673	6859.33
435.88	7244.35
436.087	7850.55
436.294	7811.64
436.501	7371.32
436.708	7721.52
436.915	7971.38
437.122	8297
437.329	8364.59
437.537	8579.62
437.743	8749.61
437.95	8624.68
438.157	9108
438.364	9329.18
438.571	9335.32
438.778	9613.85
438.985	10295.82
439.192	9912.85
439.399	10240.53
439.606	9929.24
439.813	10541.58
440.02	10963.46
440.227	11016.71
440.433	10879.49
440.64	11235.84
440.847	11254.27
441.054	11645.43
441.261	12157.43
441.467	11969.01
441.674	12175.86
441.881	12773.86
442.088	12569.07
442.294	12569.07
442.501	12880.36
442.708	13015.52
442.914	13607.39
443.121	14348.75
443.328	13877.72
443.534	14952.9
443.741	14565.84
443.948	14311.89
444.154	15387.07
444.361	15079.88
444.568	15471.04
444.774	15514.05
444.981	15616.44
445.187	15993.27
445.394	16558.51
445.6	16470.45
445.807	18237.84
446.013	17207.72
446.22	17645.98
446.426	18299.28
446.633	18280.85
446.839	18995.59
447.046	18270.61
447.252	19448.19
447.459	19128.71
447.665	19513.73
447.871	19876.22
448.078	20777.33
448.284	20046.2
448.491	20646.26
448.697	21416.29
448.903	22030.68
449.11	21602.66
449.316	21582.18
449.522	21791.07
449.728	22425.94
449.935	22528.34
450.141	22405.46
450.347	22786.38
450.553	22139.22
450.76	22636.88
450.966	23107.91
451.172	23109.96
451.378	23505.22
451.584	23069
451.791	23693.63
451.997	23357.77
452.203	24109.37
452.409	23757.12
452.615	23836.99
452.821	22694.22
453.027	22460.76
453.233	23804.22
453.44	22645.07
453.646	23212.36
453.852	23212.36
454.058	23523.65
454.264	22853.97
454.47	23353.67
454.676	22788.43
454.882	23716.16
455.088	21461.35
455.294	21991.77
455.5	21991.77
455.705	22366.55
455.911	21385.57
456.117	20713.84
456.323	20498.8
456.529	19474.82
456.735	20273.53
456.941	19868.03
457.147	19708.29
457.352	19112.33
457.558	18860.43
457.764	18737.55
457.97	18172.31
458.176	17875.35
458.381	17942.94
458.587	16912.81
458.793	17277.35
458.999	16599.47
459.204	17457.57
459.41	17084.84
459.616	15778.23
459.821	15636.92
460.027	15833.53
460.233	15509.95
460.438	14719.43
460.644	15020.49
460.85	14123.48
461.055	14045.65
461.261	13773.27
461.466	12818.92
461.672	12351.98
461.878	13386.21
462.083	12726.76
462.289	12321.26
462.494	12464.62
462.7	11581.95
462.905	11426.3
463.111	11758.07
463.316	11749.88
463.522	11745.78
463.727	11618.81
463.932	11397.63
464.138	11471.36
464.343	11659.77
464.549	11198.98
464.754	11661.82
464.959	11450.88
465.165	11428.35
465.37	11192.83
465.575	10555.91
465.781	11006.47
465.986	11227.65
466.191	10902.02
466.397	10494.47
466.602	10123.79
466.807	10263.05
467.012	10267.15
467.218	10471.95
467.423	10172.94
467.628	10439.18
467.833	10732.04
468.038	10396.17
468.244	10158.61
