Data from USB4F104151__68__13-53-54-414.txt Node

Date: Thu Mar 13 13:53:54 EDT 2025
User: louis
Spectrometer: USB4F10415
Trigger mode: 4
Integration Time (sec): 1.000000E-2
Scans to average: 1
Electric dark correction enabled: true
Nonlinearity correction enabled: false
Boxcar width: 0
XAxis mode: Wavelengths
Number of Pixels in Spectrum: 3648
>>>>>Begin Spectral Data<<<<<
178.204	-32.6
178.424	-32.6
178.644	-32.6
178.864	-28.5
179.084	20.65
179.304	55.47
179.524	-20.31
179.744	-32.6
179.964	0.17
180.184	0.17
180.404	-16.21
180.624	47.27
180.844	-12.12
181.064	-77.65
181.283	-3.93
181.503	12.46
181.723	47.27
181.943	12.46
182.163	-24.4
182.383	8.36
182.602	59.56
182.822	4.27
183.042	16.55
183.262	6.31
183.482	80.04
183.701	8.36
183.921	32.94
184.141	-24.4
184.361	-16.21
184.58	-34.64
184.8	0.17
185.02	18.6
185.239	-12.12
185.459	8.36
185.679	-3.93
185.898	-48.98
186.118	47.27
186.338	47.27
186.557	-18.26
186.777	4.27
186.997	32.94
187.216	14.51
187.436	4.27
187.655	22.7
187.875	20.65
188.095	-8.02
188.314	24.75
188.534	28.84
188.753	39.08
188.973	-10.07
189.192	-38.74
189.412	75.95
189.631	34.99
189.851	63.66
190.07	45.23
190.29	4.27
190.509	-8.02
190.729	-16.21
190.948	41.13
191.168	69.8
191.387	71.85
191.607	-65.36
191.826	37.03
192.045	-5.97
192.265	-24.4
192.484	-30.55
192.704	39.08
192.923	-1.88
193.142	75.95
193.362	37.03
193.581	22.7
193.8	47.27
194.02	45.23
194.239	-3.93
194.458	4.27
194.678	-20.31
194.897	86.19
195.116	26.79
195.335	0.17
195.555	-1.88
195.774	-3.93
195.993	118.95
196.212	61.61
196.432	-44.88
196.651	24.75
196.87	-57.17
197.089	55.47
197.308	16.55
197.528	75.95
197.747	-67.41
197.966	57.51
198.185	16.55
198.404	-12.12
198.623	0.17
198.842	16.55
199.062	-28.5
199.281	16.55
199.5	-34.64
199.719	43.18
199.938	14.51
200.157	59.56
200.376	37.03
200.595	8.36
200.814	-22.36
201.033	24.75
201.252	-10.07
201.471	18.6
201.69	45.23
201.909	28.84
202.128	18.6
202.347	-42.84
202.566	67.75
202.785	57.51
203.004	-59.22
203.223	75.95
203.442	-10.07
203.661	-16.21
203.879	34.99
204.098	-26.45
204.317	4.27
204.536	47.27
204.755	-3.93
204.974	24.75
205.193	22.7
205.411	63.66
205.63	41.13
205.849	4.27
206.068	-42.84
206.287	-1.88
206.505	41.13
206.724	41.13
206.943	-55.12
207.162	-61.27
207.381	-8.02
207.599	41.13
207.818	20.65
208.037	30.89
208.255	34.99
208.474	-12.12
208.693	41.13
208.911	20.65
209.13	30.89
209.349	-10.07
209.567	51.37
209.786	12.46
210.005	96.43
210.223	37.03
210.442	26.79
210.661	-12.12
210.879	8.36
211.098	8.36
211.316	18.6
211.535	18.6
211.753	-8.02
211.972	12.46
212.191	41.13
212.409	12.46
212.628	28.84
212.846	18.6
213.065	32.94
213.283	-12.12
213.502	10.41
213.72	32.94
213.938	-24.4
214.157	34.99
214.375	10.41
214.594	30.89
214.812	18.6
215.031	96.43
215.249	4.27
215.467	-16.21
215.686	49.32
215.904	37.03
216.122	-34.64
216.341	-16.21
216.559	-10.07
216.778	0.17
216.996	-57.17
217.214	-20.31
217.432	0.17
217.651	-42.84
217.869	34.99
218.087	-12.12
218.306	-53.08
218.524	49.32
218.742	-48.98
218.96	-5.97
219.179	8.36
219.397	55.47
219.615	39.08
219.833	0.17
220.051	-24.4
220.27	-61.27
220.488	12.46
220.706	39.08
220.924	-16.21
221.142	88.23
221.36	49.32
221.578	-22.36
221.796	-38.74
222.015	43.18
222.233	102.57
222.451	22.7
222.669	-42.84
222.887	-40.79
223.105	73.9
223.323	51.37
223.541	20.65
223.759	-10.07
223.977	8.36
224.195	65.71
224.413	53.42
224.631	-16.21
224.849	8.36
225.067	59.56
225.285	39.08
225.503	14.51
225.721	71.85
225.939	26.79
226.157	28.84
226.375	20.65
226.592	20.65
226.81	-20.31
227.028	0.17
227.246	47.27
227.464	16.55
227.682	49.32
227.9	14.51
228.117	6.31
228.335	-14.17
228.553	-8.02
228.771	-14.17
228.989	2.22
229.206	2.22
229.424	-10.07
229.642	51.37
229.86	-20.31
230.077	26.79
230.295	39.08
230.513	6.31
230.731	18.6
230.948	67.75
231.166	63.66
231.384	16.55
231.601	-30.55
231.819	-12.12
232.037	47.27
232.254	24.75
232.472	-5.97
232.689	-28.5
232.907	57.51
233.125	-3.93
233.342	-8.02
233.56	61.61
233.777	12.46
233.995	69.8
234.213	26.79
234.43	34.99
234.648	55.47
234.865	49.32
235.083	28.84
235.3	77.99
235.518	14.51
235.735	14.51
235.953	16.55
236.17	47.27
236.388	-38.74
236.605	20.65
236.822	73.9
237.04	-32.6
237.257	-1.88
237.475	-8.02
237.692	24.75
237.909	4.27
238.127	-28.5
238.344	20.65
238.562	10.41
238.779	-8.02
238.996	-16.21
239.214	4.27
239.431	49.32
239.648	39.08
239.865	10.41
240.083	-67.41
240.3	6.31
240.517	-16.21
240.735	-18.26
240.952	-3.93
241.169	104.62
241.386	24.75
241.603	39.08
241.821	-10.07
242.038	-18.26
242.255	-20.31
242.472	18.6
242.689	96.43
242.907	26.79
243.124	0.17
243.341	-14.17
243.558	-30.55
243.775	32.94
243.992	-26.45
244.209	65.71
244.426	53.42
244.643	-18.26
244.86	8.36
245.078	-5.97
245.295	49.32
245.512	-16.21
245.729	-16.21
245.946	12.46
246.163	-28.5
246.38	-44.88
246.597	6.31
246.814	8.36
247.031	10.41
247.248	14.51
247.464	22.7
247.681	-12.12
247.898	-18.26
248.115	65.71
248.332	-20.31
248.549	-57.17
248.766	39.08
248.983	10.41
249.2	0.17
249.417	-16.21
249.633	6.31
249.85	-38.74
250.067	-32.6
250.284	59.56
250.501	-55.12
250.717	-14.17
250.934	16.55
251.151	-28.5
251.368	-30.55
251.585	-3.93
251.801	-46.93
252.018	-16.21
252.235	-12.12
252.451	-12.12
252.668	-16.21
252.885	26.79
253.102	45.23
253.318	-69.46
253.535	20.65
253.752	-22.36
253.968	-67.41
254.185	-53.08
254.401	69.8
254.618	28.84
254.835	-63.32
255.051	49.32
255.268	41.13
255.484	-12.12
255.701	2.22
255.917	75.95
256.134	82.09
256.351	22.7
256.567	14.51
256.784	4.27
257	39.08
257.217	108.71
257.433	-42.84
257.65	53.42
257.866	0.17
258.082	41.13
258.299	6.31
258.515	12.46
258.732	28.84
258.948	12.46
259.165	65.71
259.381	-1.88
259.597	-26.45
259.814	86.19
260.03	-26.45
260.246	-28.5
260.463	-46.93
260.679	47.27
260.895	-10.07
261.112	16.55
261.328	12.46
261.544	14.51
261.761	-26.45
261.977	98.47
262.193	-67.41
262.409	-28.5
262.626	80.04
262.842	20.65
263.058	-12.12
263.274	32.94
263.49	-16.21
263.707	69.8
263.923	8.36
264.139	-20.31
264.355	8.36
264.571	30.89
264.787	39.08
265.004	63.66
265.22	20.65
265.436	-8.02
265.652	-3.93
265.868	16.55
266.084	28.84
266.3	2.22
266.516	-40.79
266.732	14.51
266.948	24.75
267.164	45.23
267.38	49.32
267.596	65.71
267.812	102.57
268.028	24.75
268.244	-18.26
268.46	0.17
268.676	90.28
268.892	-28.5
269.108	-3.93
269.324	24.75
269.54	8.36
269.756	2.22
269.972	-24.4
270.188	-20.31
270.403	14.51
270.619	-32.6
270.835	-28.5
271.051	-3.93
271.267	18.6
271.483	-61.27
271.698	16.55
271.914	137.38
272.13	10.41
272.346	-3.93
272.562	47.27
272.777	-10.07
272.993	41.13
273.209	-14.17
273.425	-3.93
273.64	20.65
273.856	47.27
274.072	20.65
274.287	49.32
274.503	16.55
274.719	-5.97
274.934	-38.74
275.15	41.13
275.366	104.62
275.581	2.22
275.797	-20.31
276.012	10.41
276.228	-59.22
276.444	28.84
276.659	61.61
276.875	-12.12
277.09	-8.02
277.306	26.79
277.521	92.33
277.737	55.47
277.952	-24.4
278.168	18.6
278.383	20.65
278.599	20.65
278.814	-1.88
279.03	65.71
279.245	84.14
279.461	18.6
279.676	-26.45
279.892	37.03
280.107	37.03
280.322	-69.46
280.538	61.61
280.753	57.51
280.969	71.85
281.184	37.03
281.399	100.52
281.615	55.47
281.83	8.36
282.045	2.22
282.26	-42.84
282.476	14.51
282.691	51.37
282.906	-24.4
283.122	22.7
283.337	12.46
283.552	39.08
283.767	77.99
283.983	30.89
284.198	39.08
284.413	51.37
284.628	34.99
284.843	84.14
285.058	-57.17
285.274	2.22
285.489	-3.93
285.704	-16.21
285.919	6.31
286.134	39.08
286.349	30.89
286.564	24.75
286.779	-5.97
286.995	32.94
287.21	-71.51
287.425	49.32
287.64	69.8
287.855	24.75
288.07	2.22
288.285	67.75
288.5	86.19
288.715	-32.6
288.93	-83.8
289.145	49.32
289.36	22.7
289.575	14.51
289.79	20.65
290.004	0.17
290.219	45.23
290.434	-10.07
290.649	94.38
290.864	-32.6
291.079	-30.55
291.294	22.7
291.509	41.13
291.724	24.75
291.938	-8.02
292.153	82.09
292.368	55.47
292.583	12.46
292.798	-26.45
293.012	16.55
293.227	-44.88
293.442	0.17
293.657	53.42
293.871	47.27
294.086	41.13
294.301	63.66
294.516	2.22
294.73	10.41
294.945	16.55
295.16	41.13
295.374	14.51
295.589	-32.6
295.804	-14.17
296.018	-18.26
296.233	53.42
296.447	14.51
296.662	-16.21
296.877	30.89
297.091	-8.02
297.306	28.84
297.52	14.51
297.735	-42.84
297.949	14.51
298.164	28.84
298.378	77.99
298.593	28.84
298.807	10.41
299.022	6.31
299.236	37.03
299.451	-8.02
299.665	84.14
299.88	22.7
300.094	-14.17
300.309	10.41
300.523	14.51
300.737	6.31
300.952	-14.17
301.166	-8.02
301.381	37.03
301.595	28.84
301.809	10.41
302.024	16.55
302.238	34.99
302.452	2.22
302.667	14.51
302.881	4.27
303.095	30.89
303.309	55.47
303.524	-24.4
303.738	-32.6
303.952	-16.21
304.166	102.57
304.381	-5.97
304.595	30.89
304.809	22.7
305.023	22.7
305.237	-24.4
305.452	-10.07
305.666	16.55
305.88	32.94
306.094	22.7
306.308	39.08
306.522	-16.21
306.736	53.42
306.95	-69.46
307.164	102.57
307.379	34.99
307.593	53.42
307.807	92.33
308.021	49.32
308.235	-16.21
308.449	-57.17
308.663	-42.84
308.877	28.84
309.091	65.71
309.305	30.89
309.519	-53.08
309.733	-16.21
309.947	-65.36
310.161	49.32
310.374	30.89
310.588	26.79
310.802	51.37
311.016	4.27
311.23	92.33
311.444	16.55
311.658	18.6
311.872	63.66
312.085	41.13
312.299	10.41
312.513	73.9
312.727	84.14
312.941	0.17
313.154	47.27
313.368	43.18
313.582	37.03
313.796	59.56
314.009	-40.79
314.223	47.27
314.437	30.89
314.651	-98.13
314.864	22.7
315.078	-55.12
315.292	28.84
315.505	-28.5
315.719	47.27
315.933	18.6
316.146	-67.41
316.36	-20.31
316.573	34.99
316.787	8.36
317.001	-8.02
317.214	-28.5
317.428	-36.69
317.641	-16.21
317.855	37.03
318.068	59.56
318.282	65.71
318.495	18.6
318.709	80.04
318.922	80.04
319.136	18.6
319.349	18.6
319.563	53.42
319.776	26.79
319.99	-3.93
320.203	82.09
320.417	47.27
320.63	-32.6
320.843	71.85
321.057	67.75
321.27	16.55
321.483	47.27
321.697	114.86
321.91	22.7
322.124	-3.93
322.337	28.84
322.55	8.36
322.763	39.08
322.977	14.51
323.19	-12.12
323.403	41.13
323.617	14.51
323.83	57.51
324.043	59.56
324.256	-16.21
324.469	-42.84
324.683	77.99
324.896	61.61
325.109	24.75
325.322	30.89
325.535	-8.02
325.748	-1.88
325.962	-8.02
326.175	-10.07
326.388	-59.22
326.601	57.51
326.814	20.65
327.027	-14.17
327.24	37.03
327.453	18.6
327.666	-40.79
327.879	41.13
328.092	12.46
328.305	-38.74
328.518	39.08
328.731	12.46
328.944	32.94
329.157	32.94
329.37	49.32
329.583	-32.6
329.796	-8.02
330.009	53.42
330.222	6.31
330.435	34.99
330.648	28.84
330.861	22.7
331.073	69.8
331.286	39.08
331.499	-53.08
331.712	41.13
331.925	24.75
332.138	-16.21
332.35	22.7
332.563	2.22
332.776	34.99
332.989	6.31
333.202	14.51
333.414	14.51
333.627	-3.93
333.84	-5.97
334.053	73.9
334.265	-3.93
334.478	69.8
334.691	30.89
334.903	6.31
335.116	30.89
335.329	-40.79
335.541	28.84
335.754	26.79
335.966	-18.26
336.179	61.61
336.392	0.17
336.604	47.27
336.817	82.09
337.029	-8.02
337.242	-1.88
337.454	-32.6
337.667	20.65
337.88	14.51
338.092	-12.12
338.305	43.18
338.517	8.36
338.729	41.13
338.942	-12.12
339.154	110.76
339.367	32.94
339.579	-22.36
339.792	-5.97
340.004	45.23
340.217	6.31
340.429	92.33
340.641	12.46
340.854	-14.17
341.066	-8.02
341.278	39.08
341.491	49.32
341.703	53.42
341.915	-14.17
342.128	2.22
342.34	32.94
342.552	-24.4
342.764	16.55
342.977	59.56
343.189	4.27
343.401	24.75
343.613	6.31
343.826	77.99
344.038	106.67
344.25	73.9
344.462	10.41
344.674	49.32
344.886	110.76
345.099	-24.4
345.311	39.08
345.523	45.23
345.735	24.75
345.947	30.89
346.159	-10.07
346.371	-34.64
346.583	30.89
346.795	55.47
347.007	-3.93
347.219	-26.45
347.431	2.22
347.643	43.18
347.855	26.79
348.067	63.66
348.279	32.94
348.491	0.17
348.703	51.37
348.915	26.79
349.127	24.75
349.339	98.47
349.551	-10.07
349.763	28.84
349.975	-18.26
350.187	22.7
350.399	2.22
350.61	-10.07
350.822	51.37
351.034	32.94
351.246	51.37
351.458	20.65
351.669	-57.17
351.881	53.42
352.093	-12.12
352.305	14.51
352.517	20.65
352.728	73.9
352.94	6.31
353.152	24.75
353.363	-8.02
353.575	-8.02
353.787	43.18
353.999	32.94
354.21	67.75
354.422	63.66
354.633	-65.36
354.845	-30.55
355.057	26.79
355.268	12.46
355.48	45.23
355.692	6.31
355.903	-38.74
356.115	41.13
356.326	-16.21
356.538	67.75
356.749	39.08
356.961	73.9
357.172	20.65
357.384	41.13
357.595	86.19
357.807	59.56
358.018	55.47
358.23	14.51
358.441	73.9
358.653	34.99
358.864	22.7
359.075	39.08
359.287	28.84
359.498	55.47
359.709	14.51
359.921	49.32
360.132	18.6
360.344	-3.93
360.555	37.03
360.766	-85.84
360.977	-26.45
361.189	49.32
361.4	-8.02
361.611	-1.88
361.823	77.99
362.034	37.03
362.245	-8.02
362.456	26.79
362.667	92.33
362.879	86.19
363.09	43.18
363.301	6.31
363.512	-40.79
363.723	-55.12
363.935	41.13
364.146	16.55
364.357	61.61
364.568	-22.36
364.779	4.27
364.99	-12.12
365.201	-18.26
365.412	41.13
365.623	22.7
365.834	-102.23
366.045	34.99
366.256	16.55
366.467	39.08
366.678	65.71
366.889	-26.45
367.1	30.89
367.311	59.56
367.522	-24.4
367.733	37.03
367.944	47.27
368.155	37.03
368.366	-18.26
368.577	32.94
368.788	-12.12
368.999	-28.5
369.209	-42.84
369.42	88.23
369.631	4.27
369.842	28.84
370.053	69.8
370.264	4.27
370.474	-55.12
370.685	-12.12
370.896	-14.17
371.107	30.89
371.317	41.13
371.528	-44.88
371.739	47.27
371.95	16.55
372.16	22.7
372.371	82.09
372.582	108.71
372.792	0.17
373.003	-34.64
373.214	45.23
373.424	45.23
373.635	22.7
373.846	43.18
374.056	30.89
374.267	65.71
374.477	75.95
374.688	20.65
374.898	-12.12
375.109	0.17
375.319	-28.5
375.53	135.34
375.74	6.31
375.951	8.36
376.161	-22.36
376.372	49.32
376.582	28.84
376.793	39.08
377.003	8.36
377.214	-51.03
377.424	-28.5
377.635	0.17
377.845	43.18
378.055	153.77
378.266	-5.97
378.476	49.32
378.686	6.31
378.897	12.46
379.107	26.79
379.317	65.71
379.528	55.47
379.738	22.7
379.948	-3.93
380.158	71.85
380.369	-48.98
380.579	49.32
380.789	2.22
380.999	39.08
381.21	-18.26
381.42	14.51
381.63	-22.36
381.84	10.41
382.05	-10.07
382.261	32.94
382.471	57.51
382.681	-18.26
382.891	51.37
383.101	57.51
383.311	-3.93
383.521	49.32
383.731	45.23
383.941	20.65
384.151	-18.26
384.361	39.08
384.571	-44.88
384.781	63.66
384.991	-5.97
385.201	67.75
385.411	57.51
385.621	71.85
385.831	-5.97
386.041	22.7
386.251	-10.07
386.461	73.9
386.671	4.27
386.881	34.99
387.091	22.7
387.301	24.75
387.511	-53.08
387.72	-22.36
387.93	34.99
388.14	24.75
388.35	-77.65
388.56	49.32
388.769	24.75
388.979	37.03
389.189	30.89
389.399	41.13
389.609	34.99
389.818	106.67
390.028	-20.31
390.238	61.61
390.447	69.8
390.657	30.89
390.867	20.65
391.076	37.03
391.286	41.13
391.496	2.22
391.705	49.32
391.915	37.03
392.125	100.52
392.334	12.46
392.544	53.42
392.753	49.32
392.963	41.13
393.172	49.32
393.382	65.71
393.591	49.32
393.801	8.36
394.01	80.04
394.22	20.65
394.429	131.24
394.639	16.55
394.848	-1.88
395.058	-30.55
395.267	28.84
395.477	30.89
395.686	45.23
395.895	37.03
396.105	53.42
396.314	53.42
396.524	100.52
396.733	53.42
396.942	84.14
397.152	34.99
397.361	88.23
397.57	28.84
397.78	-20.31
397.989	69.8
398.198	47.27
398.407	34.99
398.617	121
398.826	8.36
399.035	39.08
399.244	65.71
399.453	71.85
399.663	55.47
399.872	131.24
400.081	-42.84
400.29	63.66
400.499	63.66
400.708	96.43
400.917	14.51
401.127	12.46
401.336	41.13
401.545	51.37
401.754	-16.21
401.963	51.37
402.172	67.75
402.381	8.36
402.59	14.51
402.799	51.37
403.008	69.8
403.217	75.95
403.426	88.23
403.635	14.51
403.844	92.33
404.053	37.03
404.262	55.47
404.471	30.89
404.68	26.79
404.888	118.95
405.097	41.13
405.306	-8.02
405.515	67.75
405.724	51.37
405.933	151.72
406.142	73.9
406.35	57.51
406.559	59.56
406.768	24.75
406.977	49.32
407.185	143.53
407.394	71.85
407.603	106.67
407.812	84.14
408.02	188.58
408.229	170.15
408.438	80.04
408.646	100.52
408.855	102.57
409.064	116.9
409.272	143.53
409.481	188.58
409.69	94.38
409.898	135.34
410.107	114.86
410.315	209.06
410.524	159.91
410.733	207.02
410.941	159.91
411.15	190.63
411.358	215.21
411.567	133.29
411.775	166.06
411.984	145.58
412.192	182.44
412.401	164.01
412.609	207.02
412.818	213.16
413.026	223.4
413.234	186.54
413.443	272.55
413.651	227.5
413.86	270.5
414.068	207.02
414.276	207.02
414.485	293.03
414.693	231.59
414.901	272.55
415.11	266.41
415.318	305.32
415.526	258.21
415.734	243.88
415.943	411.81
416.151	454.82
416.359	379.04
416.567	409.76
416.776	389.28
416.984	397.48
417.192	350.37
417.4	413.86
417.608	364.71
417.817	438.44
418.025	546.98
418.233	491.68
418.441	540.83
418.649	520.35
418.857	630.95
419.065	577.7
419.273	577.7
419.481	579.75
419.689	643.23
419.897	655.52
420.105	641.18
420.313	643.23
420.521	647.33
420.729	716.96
420.937	729.25
421.145	731.3
421.353	753.82
421.561	811.17
421.769	891.04
421.977	805.02
422.185	772.25
422.393	1024.16
422.601	907.42
422.809	1034.39
423.017	954.52
423.224	981.15
423.432	1054.87
423.64	1073.31
423.848	1159.32
424.056	1065.11
424.263	1231
424.471	1218.71
424.679	1337.49
424.887	1384.6
425.094	1245.34
425.302	1300.63
425.51	1288.34
425.718	1433.75
425.925	1429.65
426.133	1534.1
426.341	1527.96
426.548	1679.51
426.756	1622.16
426.964	1630.35
427.171	1712.27
427.379	1775.76
427.586	1822.86
427.794	1915.02
428.001	2027.66
428.209	1984.65
428.417	1990.8
428.624	2154.63
428.832	2177.16
429.039	2093.19
429.247	2158.73
429.454	2394.25
429.662	2537.6
429.869	2373.77
430.076	2545.8
430.284	2451.59
430.491	2576.52
430.699	2652.29
430.906	2703.49
431.114	2730.11
431.321	2826.37
431.528	3008.64
431.736	3070.08
431.943	3252.35
432.15	3055.74
432.358	3348.6
432.565	3293.3
432.772	3334.26
432.979	3514.49
433.187	3530.87
433.394	3563.64
433.601	3860.59
433.808	3829.87
434.016	3825.78
434.223	3799.15
434.43	4190.31
434.637	4126.83
434.844	4225.13
435.052	4339.82
435.259	4452.45
435.466	4565.09
435.673	4421.74
435.88	4683.88
436.087	4937.82
436.294	5042.27
436.501	4900.96
436.708	4911.2
436.915	5226.59
437.122	5371.99
437.329	5218.4
437.537	5566.55
437.743	5574.74
437.95	5582.93
438.157	5709.91
438.364	6045.77
438.571	6043.73
438.778	5957.71
438.985	6604.87
439.192	6475.85
439.399	6502.47
439.606	6453.32
439.813	6869.06
440.02	7127.1
440.227	7022.66
440.433	7006.27
440.64	7360.57
440.847	7149.63
441.054	7372.86
441.261	7876.66
441.467	7764.02
441.674	7835.7
441.881	8075.31
442.088	8290.35
442.294	8003.63
442.501	8357.93
442.708	8634.41
442.914	8804.39
443.121	9209.89
443.328	8863.78
443.534	9633.82
443.741	9388.06
443.948	9064.48
444.154	9758.74
444.361	9623.58
444.568	9656.34
444.774	9883.67
444.981	10063.89
445.187	10096.66
445.394	10588.17
445.6	10573.83
445.807	11470.84
446.013	11065.35
446.22	11403.26
446.426	11782.13
446.633	11935.73
446.839	12292.08
447.046	11628.54
447.252	12312.56
447.459	12173.3
447.665	12189.68
447.871	12869.61
448.078	13357.02
448.284	12783.59
448.491	12990.44
448.697	13633.5
448.903	13555.68
449.11	14016.47
449.316	13756.38
449.522	13678.55
449.728	14401.49
449.935	14299.09
450.141	14581.71
450.347	14555.08
450.553	14174.16
450.76	14481.36
450.966	14700.49
451.172	14491.6
451.378	15071.17
451.584	14792.65
451.791	15310.79
451.997	15138.76
452.203	15230.91
452.409	15153.09
452.615	15062.98
452.821	14579.66
453.027	14374.86
453.233	15122.37
453.44	14518.22
453.646	14743.5
453.852	14682.06
454.058	14925.77
454.264	14653.39
454.47	14829.51
454.676	14514.13
454.882	14944.2
455.088	13660.12
455.294	13952.98
455.5	13934.55
455.705	14084.05
455.911	13588.44
456.117	13191.14
456.323	13238.24
456.529	12328.94
456.735	13178.85
456.941	12586.99
457.147	12427.25
457.352	11862.01
457.558	11716.6
457.764	11853.81
457.97	11558.91
458.176	11448.32
458.381	11253.76
458.587	10831.88
458.793	10921.99
458.999	10399.76
459.204	11008
459.41	10678.28
459.616	9902.1
459.821	10080.27
460.027	9916.44
460.233	9855
460.438	9429.02
460.644	9224.22
460.85	8876.07
461.055	8953.89
461.261	8908.83
461.466	8247.34
461.672	7860.27
461.878	8417.32
462.083	8142.89
462.289	7718.96
462.494	7741.49
462.7	7268.41
462.905	7108.67
463.111	7381.05
463.316	7600.18
463.522	7397.43
463.727	7219.26
463.932	7284.8
464.138	7071.81
464.343	7272.51
464.549	7112.77
464.754	7172.16
464.959	7254.08
465.165	7176.25
465.37	6756.42
465.575	6848.58
465.781	7022.66
465.986	6975.55
466.191	6598.73
466.397	6613.06
466.602	6357.07
466.807	6531.14
467.012	6539.33
467.218	6633.54
467.423	6510.66
467.628	6484.04
467.833	6844.48
468.038	6447.18
468.244	6389.83
468.449	6488.14
468.654	6432.84
468.859	6398.03
469.064	6152.27
