Data from USB4F104151__69__13-53-54-974.txt Node

Date: Thu Mar 13 13:53:54 EDT 2025
User: louis
Spectrometer: USB4F10415
Trigger mode: 4
Integration Time (sec): 1.000000E-2
Scans to average: 1
Electric dark correction enabled: true
Nonlinearity correction enabled: false
Boxcar width: 0
XAxis mode: Wavelengths
Number of Pixels in Spectrum: 3648
>>>>>Begin Spectral Data<<<<<
178.204	-40.79
178.424	-40.79
178.644	-40.79
178.864	-81.75
179.084	-12.12
179.304	-38.74
179.524	39.08
179.744	-32.6
179.964	4.27
180.184	39.08
180.404	28.84
180.624	-18.26
180.844	2.22
181.064	-12.12
181.283	39.08
181.503	-26.45
181.723	-24.4
181.943	49.32
182.163	77.99
182.383	12.46
182.602	-8.02
182.822	16.55
183.042	0.17
183.262	10.41
183.482	-14.17
183.701	-10.07
183.921	80.04
184.141	0.17
184.361	28.84
184.58	24.75
184.8	67.75
185.02	-34.64
185.239	-14.17
185.459	28.84
185.679	49.32
185.898	51.37
186.118	28.84
186.338	-10.07
186.557	82.09
186.777	-5.97
186.997	34.99
187.216	22.7
187.436	51.37
187.655	-12.12
187.875	37.03
188.095	94.38
188.314	-26.45
188.534	57.51
188.753	45.23
188.973	6.31
189.192	57.51
189.412	32.94
189.631	-16.21
189.851	-20.31
190.07	-22.36
190.29	43.18
190.509	-3.93
190.729	34.99
190.948	39.08
191.168	174.25
191.387	57.51
191.607	2.22
191.826	14.51
192.045	-36.69
192.265	-48.98
192.484	16.55
192.704	41.13
192.923	41.13
193.142	41.13
193.362	22.7
193.581	63.66
193.8	20.65
194.02	-5.97
194.239	18.6
194.458	53.42
194.678	-16.21
194.897	82.09
195.116	-30.55
195.335	-3.93
195.555	4.27
195.774	28.84
195.993	16.55
196.212	67.75
196.432	43.18
196.651	-16.21
196.87	-14.17
197.089	69.8
197.308	-3.93
197.528	4.27
197.747	24.75
197.966	90.28
198.185	100.52
198.404	77.99
198.623	28.84
198.842	100.52
199.062	88.23
199.281	-12.12
199.5	-14.17
199.719	82.09
199.938	4.27
200.157	26.79
200.376	77.99
200.595	0.17
200.814	67.75
201.033	-1.88
201.252	-3.93
201.471	0.17
201.69	63.66
201.909	2.22
202.128	51.37
202.347	20.65
202.566	-12.12
202.785	-8.02
203.004	10.41
203.223	30.89
203.442	43.18
203.661	90.28
203.879	121
204.098	8.36
204.317	-3.93
204.536	-28.5
204.755	73.9
204.974	-5.97
205.193	32.94
205.411	39.08
205.63	-18.26
205.849	-10.07
206.068	18.6
206.287	-5.97
206.505	65.71
206.724	20.65
206.943	0.17
207.162	65.71
207.381	12.46
207.599	-32.6
207.818	63.66
208.037	-18.26
208.255	59.56
208.474	8.36
208.693	-83.8
208.911	4.27
209.13	39.08
209.349	22.7
209.567	67.75
209.786	22.7
210.005	26.79
210.223	2.22
210.442	14.51
210.661	28.84
210.879	45.23
211.098	45.23
211.316	92.33
211.535	65.71
211.753	-28.5
211.972	104.62
212.191	-10.07
212.409	22.7
212.628	6.31
212.846	65.71
213.065	30.89
213.283	69.8
213.502	59.56
213.72	80.04
213.938	-8.02
214.157	8.36
214.375	16.55
214.594	28.84
214.812	-14.17
215.031	69.8
215.249	67.75
215.467	47.27
215.686	67.75
215.904	61.61
216.122	24.75
216.341	18.6
216.559	-10.07
216.778	37.03
216.996	125.1
217.214	108.71
217.432	2.22
217.651	63.66
217.869	75.95
218.087	71.85
218.306	8.36
218.524	73.9
218.742	22.7
218.96	63.66
219.179	22.7
219.397	10.41
219.615	18.6
219.833	28.84
220.051	90.28
220.27	-3.93
220.488	14.51
220.706	10.41
220.924	32.94
221.142	-8.02
221.36	34.99
221.578	-10.07
221.796	45.23
222.015	65.71
222.233	88.23
222.451	96.43
222.669	20.65
222.887	59.56
223.105	-28.5
223.323	28.84
223.541	10.41
223.759	30.89
223.977	12.46
224.195	24.75
224.413	49.32
224.631	100.52
224.849	6.31
225.067	28.84
225.285	-22.36
225.503	-20.31
225.721	-30.55
225.939	-22.36
226.157	47.27
226.375	71.85
226.592	61.61
226.81	-16.21
227.028	77.99
227.246	61.61
227.464	80.04
227.682	10.41
227.9	49.32
228.117	-16.21
228.335	-18.26
228.553	6.31
228.771	-12.12
228.989	45.23
229.206	-20.31
229.424	88.23
229.642	49.32
229.86	-8.02
230.077	22.7
230.295	12.46
230.513	26.79
230.731	18.6
230.948	137.38
231.166	90.28
231.384	-5.97
231.601	26.79
231.819	37.03
232.037	73.9
232.254	-20.31
232.472	28.84
232.689	18.6
232.907	22.7
233.125	71.85
233.342	37.03
233.56	-10.07
233.777	59.56
233.995	-10.07
234.213	90.28
234.43	28.84
234.648	14.51
234.865	4.27
235.083	94.38
235.3	14.51
235.518	32.94
235.735	14.51
235.953	55.47
236.17	22.7
236.388	-3.93
236.605	32.94
236.822	90.28
237.04	75.95
237.257	-14.17
237.475	43.18
237.692	18.6
237.909	-24.4
238.127	-36.69
238.344	32.94
238.562	18.6
238.779	32.94
238.996	49.32
239.214	-5.97
239.431	127.14
239.648	92.33
239.865	6.31
240.083	49.32
240.3	-34.64
240.517	34.99
240.735	59.56
240.952	71.85
241.169	-26.45
241.386	-44.88
241.603	53.42
241.821	-8.02
242.038	53.42
242.255	45.23
242.472	12.46
242.689	6.31
242.907	32.94
243.124	34.99
243.341	59.56
243.558	-16.21
243.775	-12.12
243.992	53.42
244.209	69.8
244.426	-16.21
244.643	-24.4
244.86	-26.45
245.078	55.47
245.295	57.51
245.512	71.85
245.729	-73.56
245.946	37.03
246.163	10.41
246.38	4.27
246.597	71.85
246.814	43.18
247.031	-5.97
247.248	45.23
247.464	10.41
247.681	14.51
247.898	-22.36
248.115	59.56
248.332	6.31
248.549	39.08
248.766	63.66
248.983	-8.02
249.2	161.96
249.417	0.17
249.633	51.37
249.85	49.32
250.067	37.03
250.284	118.95
250.501	6.31
250.717	53.42
250.934	-12.12
251.151	-14.17
251.368	53.42
251.585	12.46
251.801	41.13
252.018	110.76
252.235	57.51
252.451	43.18
252.668	51.37
252.885	-1.88
253.102	82.09
253.318	-8.02
253.535	100.52
253.752	14.51
253.968	39.08
254.185	67.75
254.401	10.41
254.618	61.61
254.835	75.95
255.051	86.19
255.268	-3.93
255.484	53.42
255.701	63.66
255.917	94.38
256.134	-30.55
256.351	59.56
256.567	80.04
256.784	-8.02
257	26.79
257.217	53.42
257.433	65.71
257.65	-30.55
257.866	10.41
258.082	49.32
258.299	-55.12
258.515	-55.12
258.732	57.51
258.948	8.36
259.165	-8.02
259.381	39.08
259.597	12.46
259.814	112.81
260.03	16.55
260.246	86.19
260.463	100.52
260.679	8.36
260.895	55.47
261.112	65.71
261.328	30.89
261.544	32.94
261.761	49.32
261.977	22.7
262.193	47.27
262.409	-3.93
262.626	18.6
262.842	20.65
263.058	41.13
263.274	20.65
263.49	32.94
263.707	20.65
263.923	20.65
264.139	86.19
264.355	39.08
264.571	18.6
264.787	41.13
265.004	-51.03
265.22	4.27
265.436	-5.97
265.652	34.99
265.868	65.71
266.084	-16.21
266.3	24.75
266.516	10.41
266.732	77.99
266.948	22.7
267.164	6.31
267.38	59.56
267.596	28.84
267.812	-67.41
268.028	16.55
268.244	59.56
268.46	8.36
268.676	106.67
268.892	37.03
269.108	96.43
269.324	65.71
269.54	-40.79
269.756	45.23
269.972	-10.07
270.188	-26.45
270.403	65.71
270.619	-8.02
270.835	4.27
271.051	24.75
271.267	63.66
271.483	0.17
271.698	49.32
271.914	53.42
272.13	-5.97
272.346	-24.4
272.562	45.23
272.777	43.18
272.993	-34.64
273.209	-40.79
273.425	0.17
273.64	51.37
273.856	45.23
274.072	41.13
274.287	14.51
274.503	2.22
274.719	80.04
274.934	30.89
275.15	8.36
275.366	55.47
275.581	-57.17
275.797	22.7
276.012	-44.88
276.228	-26.45
276.444	-1.88
276.659	80.04
276.875	39.08
277.09	16.55
277.306	16.55
277.521	41.13
277.737	-1.88
277.952	92.33
278.168	47.27
278.383	-24.4
278.599	4.27
278.814	34.99
279.03	12.46
279.245	67.75
279.461	30.89
279.676	65.71
279.892	8.36
280.107	67.75
280.322	41.13
280.538	77.99
280.753	16.55
280.969	73.9
281.184	34.99
281.399	30.89
281.615	90.28
281.83	-34.64
282.045	6.31
282.26	65.71
282.476	86.19
282.691	-1.88
282.906	8.36
283.122	43.18
283.337	28.84
283.552	59.56
283.767	86.19
283.983	28.84
284.198	-10.07
284.413	69.8
284.628	24.75
284.843	28.84
285.058	116.9
285.274	16.55
285.489	28.84
285.704	55.47
285.919	26.79
286.134	86.19
286.349	6.31
286.564	14.51
286.779	63.66
286.995	59.56
287.21	12.46
287.425	22.7
287.64	8.36
287.855	96.43
288.07	53.42
288.285	26.79
288.5	94.38
288.715	108.71
288.93	8.36
289.145	39.08
289.36	63.66
289.575	22.7
289.79	22.7
290.004	80.04
290.219	8.36
290.434	-18.26
290.649	2.22
290.864	59.56
291.079	57.51
291.294	16.55
291.509	39.08
291.724	28.84
291.938	18.6
292.153	67.75
292.368	80.04
292.583	8.36
292.798	16.55
293.012	-16.21
293.227	16.55
293.442	-1.88
293.657	22.7
293.871	34.99
294.086	84.14
294.301	32.94
294.516	41.13
294.73	14.51
294.945	32.94
295.16	28.84
295.374	37.03
295.589	51.37
295.804	32.94
296.018	30.89
296.233	69.8
296.447	57.51
296.662	-18.26
296.877	43.18
297.091	82.09
297.306	118.95
297.52	26.79
297.735	82.09
297.949	28.84
298.164	77.99
298.378	69.8
298.593	55.47
298.807	10.41
299.022	49.32
299.236	59.56
299.451	-24.4
299.665	16.55
299.88	39.08
300.094	20.65
300.309	14.51
300.523	-8.02
300.737	34.99
300.952	43.18
301.166	71.85
301.381	18.6
301.595	63.66
301.809	57.51
302.024	6.31
302.238	53.42
302.452	108.71
302.667	20.65
302.881	59.56
303.095	20.65
303.309	24.75
303.524	16.55
303.738	6.31
303.952	-14.17
304.166	14.51
304.381	49.32
304.595	26.79
304.809	47.27
305.023	77.99
305.237	0.17
305.452	61.61
305.666	43.18
305.88	30.89
306.094	45.23
306.308	24.75
306.522	45.23
306.736	139.43
306.95	77.99
307.164	51.37
307.379	49.32
307.593	57.51
307.807	-14.17
308.021	26.79
308.235	-28.5
308.449	80.04
308.663	45.23
308.877	10.41
309.091	84.14
309.305	96.43
309.519	2.22
309.733	22.7
309.947	49.32
310.161	55.47
310.374	51.37
310.588	80.04
310.802	6.31
311.016	26.79
311.23	90.28
311.444	34.99
311.658	-12.12
311.872	51.37
312.085	32.94
312.299	108.71
312.513	26.79
312.727	55.47
312.941	37.03
313.154	67.75
313.368	45.23
313.582	2.22
313.796	-28.5
314.009	24.75
314.223	108.71
314.437	-1.88
314.651	43.18
314.864	-24.4
315.078	4.27
315.292	108.71
315.505	-12.12
315.719	43.18
315.933	-10.07
316.146	32.94
316.36	-3.93
316.573	6.31
316.787	51.37
317.001	18.6
317.214	8.36
317.428	75.95
317.641	2.22
317.855	34.99
318.068	22.7
318.282	-3.93
318.495	82.09
318.709	77.99
318.922	22.7
319.136	45.23
319.349	49.32
319.563	37.03
319.776	18.6
319.99	-42.84
320.203	57.51
320.417	71.85
320.63	10.41
320.843	129.19
321.057	18.6
321.27	45.23
321.483	-1.88
321.697	71.85
321.91	43.18
322.124	53.42
322.337	16.55
322.55	30.89
322.763	18.6
322.977	-1.88
323.19	32.94
323.403	92.33
323.617	2.22
323.83	80.04
324.043	-10.07
324.256	-30.55
324.469	43.18
324.683	14.51
324.896	6.31
325.109	24.75
325.322	24.75
325.535	47.27
325.748	57.51
325.962	16.55
326.175	65.71
326.388	14.51
326.601	100.52
326.814	-3.93
327.027	59.56
327.24	-12.12
327.453	12.46
327.666	61.61
327.879	32.94
328.092	90.28
328.305	14.51
328.518	37.03
328.731	10.41
328.944	22.7
329.157	34.99
329.37	34.99
329.583	59.56
329.796	43.18
330.009	20.65
330.222	69.8
330.435	10.41
330.648	8.36
330.861	22.7
331.073	16.55
331.286	80.04
331.499	-16.21
331.712	106.67
331.925	12.46
332.138	20.65
332.35	94.38
332.563	14.51
332.776	61.61
332.989	24.75
333.202	-30.55
333.414	8.36
333.627	100.52
333.84	18.6
334.053	49.32
334.265	28.84
334.478	65.71
334.691	-16.21
334.903	94.38
335.116	2.22
335.329	34.99
335.541	53.42
335.754	24.75
335.966	-12.12
336.179	20.65
336.392	26.79
336.604	20.65
336.817	16.55
337.029	39.08
337.242	61.61
337.454	53.42
337.667	10.41
337.88	73.9
338.092	37.03
338.305	41.13
338.517	45.23
338.729	12.46
338.942	-5.97
339.154	2.22
339.367	-22.36
339.579	84.14
339.792	12.46
340.004	39.08
340.217	0.17
340.429	37.03
340.641	0.17
340.854	26.79
341.066	47.27
341.278	45.23
341.491	18.6
341.703	118.95
341.915	-3.93
342.128	55.47
342.34	63.66
342.552	-5.97
342.764	47.27
342.977	30.89
343.189	2.22
343.401	100.52
343.613	16.55
343.826	39.08
344.038	39.08
344.25	37.03
344.462	39.08
344.674	61.61
344.886	22.7
345.099	71.85
345.311	8.36
345.523	4.27
345.735	-18.26
345.947	102.57
346.159	34.99
346.371	73.9
346.583	69.8
346.795	43.18
347.007	-3.93
347.219	37.03
347.431	-26.45
347.643	90.28
347.855	12.46
348.067	16.55
348.279	41.13
348.491	80.04
348.703	-30.55
348.915	90.28
349.127	-18.26
349.339	51.37
349.551	53.42
349.763	84.14
349.975	14.51
350.187	155.82
350.399	61.61
350.61	55.47
350.822	65.71
351.034	24.75
351.246	71.85
351.458	24.75
351.669	49.32
351.881	59.56
352.093	49.32
352.305	22.7
352.517	34.99
352.728	112.81
352.94	39.08
353.152	135.34
353.363	20.65
353.575	77.99
353.787	45.23
353.999	141.48
354.21	12.46
354.422	-65.36
354.633	30.89
354.845	53.42
355.057	28.84
355.268	-14.17
355.48	22.7
355.692	22.7
355.903	49.32
356.115	2.22
356.326	-3.93
356.538	86.19
356.749	22.7
356.961	57.51
357.172	71.85
357.384	41.13
357.595	41.13
357.807	-3.93
358.018	28.84
358.23	63.66
358.441	-8.02
358.653	98.47
358.864	10.41
359.075	49.32
359.287	30.89
359.498	10.41
359.709	12.46
359.921	71.85
360.132	0.17
360.344	92.33
360.555	82.09
360.766	43.18
360.977	34.99
361.189	45.23
361.4	69.8
361.611	100.52
361.823	39.08
362.034	18.6
362.245	34.99
362.456	127.14
362.667	39.08
362.879	53.42
363.09	12.46
363.301	96.43
363.512	8.36
363.723	53.42
363.935	-10.07
364.146	137.38
364.357	82.09
364.568	45.23
364.779	-44.88
364.99	53.42
365.201	4.27
365.412	123.05
365.623	43.18
365.834	12.46
366.045	51.37
366.256	22.7
366.467	45.23
366.678	102.57
366.889	6.31
367.1	-14.17
367.311	-14.17
367.522	6.31
367.733	22.7
367.944	61.61
368.155	32.94
368.366	30.89
368.577	49.32
368.788	47.27
368.999	26.79
369.209	59.56
369.42	20.65
369.631	145.58
369.842	69.8
370.053	47.27
370.264	28.84
370.474	0.17
370.685	28.84
370.896	0.17
371.107	2.22
371.317	30.89
371.528	-1.88
371.739	34.99
371.95	10.41
372.16	12.46
372.371	-5.97
372.582	26.79
372.792	75.95
373.003	-5.97
373.214	37.03
373.424	77.99
373.635	10.41
373.846	63.66
374.056	41.13
374.267	24.75
374.477	71.85
374.688	151.72
374.898	55.47
375.109	65.71
375.319	41.13
375.53	-42.84
375.74	51.37
375.951	30.89
376.161	39.08
376.372	45.23
376.582	0.17
376.793	26.79
377.003	88.23
377.214	34.99
377.424	43.18
377.635	12.46
377.845	30.89
378.055	28.84
378.266	30.89
378.476	-26.45
378.686	0.17
378.897	86.19
379.107	16.55
379.317	92.33
379.528	16.55
379.738	43.18
379.948	-22.36
380.158	71.85
380.369	14.51
380.579	12.46
380.789	108.71
380.999	22.7
381.21	65.71
381.42	45.23
381.63	-5.97
381.84	45.23
382.05	98.47
382.261	92.33
382.471	86.19
382.681	59.56
382.891	59.56
383.101	86.19
383.311	77.99
383.521	22.7
383.731	24.75
383.941	51.37
384.151	73.9
384.361	57.51
384.571	61.61
384.781	4.27
384.991	39.08
385.201	61.61
385.411	53.42
385.621	4.27
385.831	41.13
386.041	32.94
386.251	65.71
386.461	34.99
386.671	71.85
386.881	88.23
387.091	4.27
387.301	39.08
387.511	22.7
387.72	34.99
387.93	20.65
388.14	55.47
388.35	102.57
388.56	110.76
388.769	110.76
388.979	94.38
389.189	32.94
389.399	86.19
389.609	32.94
389.818	-14.17
390.028	30.89
390.238	69.8
390.447	82.09
390.657	94.38
390.867	71.85
391.076	65.71
391.286	18.6
391.496	26.79
391.705	37.03
391.915	108.71
392.125	90.28
392.334	135.34
392.544	43.18
392.753	-28.5
392.963	96.43
393.172	32.94
393.382	49.32
393.591	18.6
393.801	59.56
394.01	57.51
394.22	16.55
394.429	86.19
394.639	69.8
394.848	63.66
395.058	57.51
395.267	16.55
395.477	47.27
395.686	129.19
395.895	57.51
396.105	24.75
396.314	16.55
396.524	20.65
396.733	86.19
396.942	104.62
397.152	82.09
397.361	104.62
397.57	143.53
397.78	41.13
397.989	77.99
398.198	110.76
398.407	-10.07
398.617	77.99
398.826	71.85
399.035	45.23
399.244	75.95
399.453	49.32
399.663	18.6
399.872	92.33
400.081	86.19
400.29	118.95
400.499	32.94
400.708	57.51
400.917	84.14
401.127	82.09
401.336	55.47
401.545	155.82
401.754	82.09
401.963	43.18
402.172	73.9
402.381	127.14
402.59	80.04
402.799	39.08
403.008	49.32
403.217	102.57
403.426	26.79
403.635	137.38
403.844	41.13
404.053	104.62
404.262	100.52
404.471	137.38
404.68	84.14
404.888	77.99
405.097	49.32
405.306	75.95
405.515	30.89
405.724	96.43
405.933	141.48
406.142	121
406.35	86.19
406.559	26.79
406.768	114.86
406.977	112.81
407.185	104.62
407.394	102.57
407.603	104.62
407.812	69.8
408.02	73.9
408.229	172.2
408.438	159.91
408.646	123.05
408.855	133.29
409.064	125.1
409.272	168.1
409.481	180.39
409.69	182.44
409.898	98.47
410.107	98.47
410.315	178.34
410.524	204.97
410.733	75.95
410.941	182.44
411.15	200.87
411.358	166.06
411.567	186.54
411.775	258.21
411.984	147.62
412.192	219.3
412.401	225.45
412.609	182.44
412.818	262.31
413.026	254.12
413.234	288.93
413.443	272.55
413.651	301.22
413.86	288.93
414.068	254.12
414.276	280.74
414.485	293.03
414.693	340.13
414.901	331.94
415.11	352.42
415.318	391.33
415.526	297.13
415.734	385.19
415.943	395.43
416.151	346.28
416.359	315.56
416.567	481.44
416.776	385.19
416.984	409.76
417.192	432.29
417.4	499.88
417.608	463.01
417.817	514.21
418.025	540.83
418.233	534.69
418.441	536.74
418.649	536.74
418.857	577.7
419.065	682.14
419.273	567.46
419.481	616.61
419.689	618.66
419.897	686.24
420.105	688.29
420.313	706.72
420.521	700.58
420.729	755.87
420.937	706.72
421.145	753.82
421.353	817.31
421.561	862.37
421.769	878.75
421.977	854.17
422.185	919.71
422.393	997.53
422.601	981.15
422.809	1007.77
423.017	1026.2
423.224	977.05
423.432	1087.64
423.64	1177.75
423.848	1214.62
424.056	1181.85
424.263	1249.43
424.471	1181.85
424.679	1284.25
424.887	1415.32
425.094	1317.01
425.302	1331.35
425.51	1484.95
425.718	1530
425.925	1542.29
426.133	1505.43
426.341	1677.46
426.548	1671.31
426.756	1775.76
426.964	1679.51
427.171	1822.86
427.379	1945.74
427.586	1912.97
427.794	1980.56
428.001	1943.69
428.209	2238.6
428.417	2123.91
428.624	2263.18
428.832	2234.5
429.039	2171.02
429.247	2330.76
429.454	2488.45
429.662	2588.8
429.869	2500.74
430.076	2590.85
430.284	2472.07
430.491	2680.96
430.699	2869.37
430.906	2871.42
431.114	2936.96
431.321	3039.36
431.528	2986.11
431.736	3219.58
431.943	3401.85
432.15	3295.35
432.358	3342.46
432.565	3489.91
432.772	3475.57
432.979	3686.51
433.187	3594.36
433.394	3846.26
433.601	3944.56
433.808	4071.53
434.016	3952.75
434.223	4180.07
434.43	4446.31
434.637	4323.43
434.844	4735.07
435.052	4694.12
435.259	4690.02
435.466	4630.63
435.673	4599.91
435.88	4819.04
436.087	5298.27
436.294	5232.73
436.501	5066.85
436.708	5081.18
436.915	5210.2
437.122	5636.18
437.329	5474.39
437.537	5949.52
437.743	5908.56
437.95	5814.35
438.157	6090.83
438.364	6101.07
438.571	6375.5
438.778	6377.55
438.985	7026.75
439.192	6580.29
439.399	6803.52
439.606	6631.49
439.813	7000.13
440.02	7610.42
440.227	7233.6
440.433	7147.58
440.64	7520.31
440.847	7454.78
441.054	7710.77
441.261	7999.54
441.467	8093.74
441.674	8136.75
441.881	8462.38
442.088	8409.13
442.294	8269.87
442.501	8548.39
442.708	8857.64
442.914	9132.06
443.121	9717.78
443.328	9279.52
443.534	10049.55
443.741	9605.14
443.948	9596.95
444.154	10375.18
444.361	10080.27
444.568	10225.68
444.774	10227.73
444.981	10444.81
445.187	10604.55
445.394	11216.9
445.6	10936.32
445.807	11876.34
446.013	11554.81
446.22	11524.09
446.426	12025.84
446.633	12103.67
446.839	12611.56
447.046	12068.85
447.252	13092.83
447.459	12744.68
447.665	12804.07
447.871	13402.08
448.078	13850.58
448.284	13223.9
448.491	13842.39
448.697	14030.8
448.903	14184.4
449.11	14456.78
449.316	13991.89
449.522	14485.45
449.728	15146.95
449.935	14940.1
450.141	14862.28
450.347	15347.65
450.553	14651.34
450.76	14884.81
450.966	15327.17
451.172	15380.42
451.378	15609.79
451.584	15538.11
451.791	15783.87
451.997	15556.54
452.203	15962.04
452.409	15939.51
452.615	15747
452.821	15292.35
453.027	15007.69
453.233	15622.08
453.44	15114.18
453.646	15255.49
453.852	15464.38
454.058	15486.91
454.264	14825.42
454.47	15525.82
454.676	14876.62
454.882	15536.06
455.088	14288.85
455.294	14401.49
455.5	14469.07
455.705	14718.92
455.911	14039
456.117	13795.29
456.323	13434.85
456.529	12974.05
456.735	13682.65
456.941	12965.86
457.147	12910.57
457.352	12507.12
457.558	12183.54
457.764	12294.13
457.97	12189.68
458.176	12044.27
458.381	11956.21
458.587	11284.48
458.793	11419.64
458.999	10758.15
459.204	11622.39
459.41	11057.15
459.616	10506.25
459.821	10278.93
460.027	10311.69
460.233	10338.32
460.438	9590.81
460.644	9646.1
460.85	9279.52
461.055	9207.84
461.261	9111.58
461.466	8523.82
461.672	8355.88
461.878	8910.88
462.083	8294.44
462.289	8202.29
462.494	8128.56
462.7	7721.01
462.905	7718.96
463.111	7886.9
463.316	7823.41
463.522	7823.41
463.727	7780.4
463.932	7659.57
464.138	7501.88
464.343	7802.93
464.549	7319.61
464.754	7649.33
464.959	7452.73
465.165	7514.17
465.37	7229.5
465.575	7061.57
465.781	7221.31
465.986	7436.35
466.191	7053.38
466.397	6817.86
466.602	6656.07
466.807	6838.34
467.012	6746.18
467.218	6713.41
467.423	6481.99
467.628	6860.87
467.833	7116.86
468.038	6760.52
468.244	6715.46
468.449	7028.8
468.654	6629.45
468.859	6527.05
469.064	6553.67
469.269	6295.63
469.474	6492.23
469.679	6514.76
