Data from USB4F104151__155__13-58-36-413.txt Node

Date: Thu Mar 13 13:58:36 EDT 2025
User: louis
Spectrometer: USB4F10415
Trigger mode: 4
Integration Time (sec): 1.000000E-2
Scans to average: 1
Electric dark correction enabled: true
Nonlinearity correction enabled: false
Boxcar width: 0
XAxis mode: Wavelengths
Number of Pixels in Spectrum: 3648
>>>>>Begin Spectral Data<<<<<
178.204	-37.89
178.424	-37.89
178.644	-37.89
178.864	-23.55
179.084	11.26
179.304	33.79
179.524	-3.07
179.744	-25.6
179.964	56.32
180.184	19.46
180.404	-37.89
180.624	-13.31
180.844	-25.6
181.064	-7.17
181.283	-9.22
181.503	7.17
181.723	5.12
181.943	-11.26
182.163	21.5
182.383	3.07
182.602	52.22
182.822	13.31
183.042	48.13
183.262	19.46
183.482	56.32
183.701	11.26
183.921	66.56
184.141	-13.31
184.361	31.74
184.58	9.22
184.8	-5.12
185.02	54.27
185.239	-15.36
185.459	-5.12
185.679	128
185.898	9.22
186.118	1.02
186.338	-19.46
186.557	50.18
186.777	25.6
186.997	99.33
187.216	11.26
187.436	50.18
187.655	78.85
187.875	37.89
188.095	19.46
188.314	50.18
188.534	13.31
188.753	27.65
188.973	60.42
189.192	58.37
189.412	17.41
189.631	82.94
189.851	3.07
190.07	-1.02
190.29	7.17
190.509	-7.17
190.729	-17.41
190.948	13.31
191.168	62.46
191.387	29.7
191.607	-5.12
191.826	33.79
192.045	-13.31
192.265	68.61
192.484	44.03
192.704	41.98
192.923	64.51
193.142	70.65
193.362	25.6
193.581	23.55
193.8	-3.07
194.02	-74.75
194.239	76.8
194.458	56.32
194.678	1.02
194.897	33.79
195.116	44.03
195.335	-23.55
195.555	-46.08
195.774	101.37
195.993	-39.94
196.212	33.79
196.432	1.02
196.651	95.23
196.87	39.94
197.089	58.37
197.308	72.7
197.528	52.22
197.747	-13.31
197.966	27.65
198.185	27.65
198.404	29.7
198.623	56.32
198.842	46.08
199.062	66.56
199.281	44.03
199.5	52.22
199.719	44.03
199.938	33.79
200.157	115.71
200.376	-5.12
200.595	7.17
200.814	82.94
201.033	-5.12
201.252	15.36
201.471	70.65
201.69	125.95
201.909	21.5
202.128	-11.26
202.347	72.7
202.566	19.46
202.785	21.5
203.004	41.98
203.223	62.46
203.442	23.55
203.661	109.57
203.879	-17.41
204.098	84.99
204.317	19.46
204.536	76.8
204.755	19.46
204.974	5.12
205.193	70.65
205.411	64.51
205.63	72.7
205.849	41.98
206.068	31.74
206.287	-31.74
206.505	41.98
206.724	52.22
206.943	13.31
207.162	68.61
207.381	15.36
207.599	29.7
207.818	-19.46
208.037	29.7
208.255	37.89
208.474	-1.02
208.693	60.42
208.911	52.22
209.13	44.03
209.349	37.89
209.567	7.17
209.786	48.13
210.005	60.42
210.223	15.36
210.442	-60.42
210.661	5.12
210.879	66.56
211.098	66.56
211.316	1.02
211.535	76.8
211.753	3.07
211.972	3.07
212.191	-44.03
212.409	44.03
212.628	29.7
212.846	23.55
213.065	-52.22
213.283	93.18
213.502	9.22
213.72	-37.89
213.938	33.79
214.157	60.42
214.375	1.02
214.594	-23.55
214.812	37.89
215.031	50.18
215.249	44.03
215.467	111.61
215.686	-23.55
215.904	-7.17
216.122	-3.07
216.341	-5.12
216.559	82.94
216.778	35.84
216.996	46.08
217.214	99.33
217.432	3.07
217.651	25.6
217.869	58.37
218.087	48.13
218.306	7.17
218.524	-7.17
218.742	27.65
218.96	21.5
219.179	31.74
219.397	21.5
219.615	87.04
219.833	33.79
220.051	23.55
220.27	66.56
220.488	89.09
220.706	-3.07
220.924	54.27
221.142	35.84
221.36	72.7
221.578	50.18
221.796	-21.5
222.015	39.94
222.233	58.37
222.451	62.46
222.669	46.08
222.887	41.98
223.105	23.55
223.323	1.02
223.541	-29.7
223.759	66.56
223.977	44.03
224.195	60.42
224.413	58.37
224.631	29.7
224.849	23.55
225.067	68.61
225.285	27.65
225.503	54.27
225.721	54.27
225.939	-11.26
226.157	33.79
226.375	64.51
226.592	15.36
226.81	9.22
227.028	13.31
227.246	64.51
227.464	-7.17
227.682	87.04
227.9	91.13
228.117	99.33
228.335	54.27
228.553	-50.18
228.771	70.65
228.989	72.7
229.206	46.08
229.424	89.09
229.642	3.07
229.86	15.36
230.077	48.13
230.295	58.37
230.513	19.46
230.731	-7.17
230.948	33.79
231.166	52.22
231.384	37.89
231.601	33.79
231.819	13.31
232.037	3.07
232.254	29.7
232.472	66.56
232.689	50.18
232.907	29.7
233.125	68.61
233.342	68.61
233.56	-19.46
233.777	-31.74
233.995	11.26
234.213	68.61
234.43	25.6
234.648	58.37
234.865	-23.55
235.083	25.6
235.3	33.79
235.518	3.07
235.735	21.5
235.953	41.98
236.17	-31.74
236.388	54.27
236.605	44.03
236.822	-17.41
237.04	17.41
237.257	11.26
237.475	21.5
237.692	58.37
237.909	-19.46
238.127	74.75
238.344	-7.17
238.562	62.46
238.779	64.51
238.996	11.26
239.214	19.46
239.431	37.89
239.648	31.74
239.865	115.71
240.083	46.08
240.3	33.79
240.517	44.03
240.735	27.65
240.952	52.22
241.169	-27.65
241.386	119.81
241.603	35.84
241.821	29.7
242.038	134.14
242.255	87.04
242.472	21.5
242.689	15.36
242.907	105.47
243.124	52.22
243.341	3.07
243.558	15.36
243.775	44.03
243.992	-5.12
244.209	56.32
244.426	58.37
244.643	21.5
244.86	46.08
245.078	48.13
245.295	23.55
245.512	52.22
245.729	72.7
245.946	46.08
246.163	-9.22
246.38	78.85
246.597	46.08
246.814	58.37
247.031	7.17
247.248	35.84
247.464	78.85
247.681	66.56
247.898	-25.6
248.115	101.37
248.332	54.27
248.549	80.89
248.766	87.04
248.983	37.89
249.2	68.61
249.417	78.85
249.633	11.26
249.85	5.12
250.067	-41.98
250.284	72.7
250.501	11.26
250.717	-46.08
250.934	29.7
251.151	23.55
251.368	23.55
251.585	35.84
251.801	13.31
252.018	50.18
252.235	-11.26
252.451	11.26
252.668	-7.17
252.885	66.56
253.102	13.31
253.318	1.02
253.535	41.98
253.752	17.41
253.968	56.32
254.185	101.37
254.401	23.55
254.618	39.94
254.835	-23.55
255.051	103.42
255.268	23.55
255.484	54.27
255.701	-1.02
255.917	103.42
256.134	9.22
256.351	7.17
256.567	46.08
256.784	35.84
257	48.13
257.217	52.22
257.433	21.5
257.65	72.7
257.866	41.98
258.082	35.84
258.299	60.42
258.515	7.17
258.732	23.55
258.948	19.46
259.165	-29.7
259.381	-33.79
259.597	25.6
259.814	3.07
260.03	64.51
260.246	29.7
260.463	15.36
260.679	-46.08
260.895	82.94
261.112	68.61
261.328	54.27
261.544	35.84
261.761	33.79
261.977	-41.98
262.193	78.85
262.409	82.94
262.626	39.94
262.842	52.22
263.058	-7.17
263.274	27.65
263.49	-7.17
263.707	60.42
263.923	5.12
264.139	62.46
264.355	23.55
264.571	115.71
264.787	39.94
265.004	-39.94
265.22	52.22
265.436	9.22
265.652	13.31
265.868	87.04
266.084	-21.5
266.3	93.18
266.516	-66.56
266.732	-15.36
266.948	62.46
267.164	35.84
267.38	41.98
267.596	52.22
267.812	52.22
268.028	-35.84
268.244	-7.17
268.46	41.98
268.676	58.37
268.892	44.03
269.108	93.18
269.324	99.33
269.54	-9.22
269.756	66.56
269.972	74.75
270.188	-9.22
270.403	-7.17
270.619	-66.56
270.835	41.98
271.051	91.13
271.267	17.41
271.483	11.26
271.698	-3.07
271.914	62.46
272.13	64.51
272.346	35.84
272.562	23.55
272.777	99.33
272.993	-1.02
273.209	58.37
273.425	21.5
273.64	13.31
273.856	-25.6
274.072	91.13
274.287	-17.41
274.503	35.84
274.719	76.8
274.934	23.55
275.15	23.55
275.366	7.17
275.581	44.03
275.797	9.22
276.012	33.79
276.228	62.46
276.444	31.74
276.659	-7.17
276.875	41.98
277.09	87.04
277.306	-7.17
277.521	64.51
277.737	13.31
277.952	25.6
278.168	60.42
278.383	136.19
278.599	76.8
278.814	13.31
279.03	-58.37
279.245	113.66
279.461	31.74
279.676	-21.5
279.892	-29.7
280.107	-15.36
280.322	-9.22
280.538	19.46
280.753	25.6
280.969	-70.65
281.184	99.33
281.399	-5.12
281.615	7.17
281.83	25.6
282.045	29.7
282.26	-33.79
282.476	62.46
282.691	13.31
282.906	1.02
283.122	25.6
283.337	-13.31
283.552	33.79
283.767	39.94
283.983	64.51
284.198	25.6
284.413	41.98
284.628	1.02
284.843	21.5
285.058	-37.89
285.274	91.13
285.489	23.55
285.704	64.51
285.919	5.12
286.134	54.27
286.349	29.7
286.564	68.61
286.779	95.23
286.995	-7.17
287.21	1.02
287.425	64.51
287.64	9.22
287.855	7.17
288.07	31.74
288.285	64.51
288.5	25.6
288.715	52.22
288.93	95.23
289.145	56.32
289.36	35.84
289.575	-5.12
289.79	68.61
290.004	52.22
290.219	48.13
290.434	87.04
290.649	44.03
290.864	103.42
291.079	19.46
291.294	-23.55
291.509	56.32
291.724	62.46
291.938	44.03
292.153	62.46
292.368	56.32
292.583	50.18
292.798	17.41
293.012	9.22
293.227	27.65
293.442	5.12
293.657	48.13
293.871	9.22
294.086	7.17
294.301	82.94
294.516	27.65
294.73	95.23
294.945	17.41
295.16	93.18
295.374	50.18
295.589	17.41
295.804	-54.27
296.018	68.61
296.233	5.12
296.447	52.22
296.662	-7.17
296.877	11.26
297.091	15.36
297.306	1.02
297.52	23.55
297.735	29.7
297.949	76.8
298.164	46.08
298.378	-37.89
298.593	15.36
298.807	-11.26
299.022	25.6
299.236	111.61
299.451	84.99
299.665	3.07
299.88	66.56
300.094	11.26
300.309	54.27
300.523	91.13
300.737	11.26
300.952	41.98
301.166	33.79
301.381	-54.27
301.595	33.79
301.809	93.18
302.024	78.85
302.238	66.56
302.452	62.46
302.667	78.85
302.881	128
303.095	-13.31
303.309	19.46
303.524	-46.08
303.738	23.55
303.952	72.7
304.166	101.37
304.381	46.08
304.595	33.79
304.809	72.7
305.023	7.17
305.237	66.56
305.452	17.41
305.666	33.79
305.88	68.61
306.094	35.84
306.308	125.95
306.522	44.03
306.736	52.22
306.95	72.7
307.164	33.79
307.379	-11.26
307.593	44.03
307.807	1.02
308.021	17.41
308.235	13.31
308.449	21.5
308.663	46.08
308.877	41.98
309.091	105.47
309.305	95.23
309.519	-3.07
309.733	82.94
309.947	62.46
310.161	68.61
310.374	50.18
310.588	37.89
310.802	39.94
311.016	78.85
311.23	46.08
311.444	1.02
311.658	1.02
311.872	76.8
312.085	-11.26
312.299	101.37
312.513	39.94
312.727	134.14
312.941	44.03
313.154	95.23
313.368	33.79
313.582	52.22
313.796	60.42
314.009	66.56
314.223	33.79
314.437	80.89
314.651	25.6
314.864	9.22
315.078	80.89
315.292	48.13
315.505	9.22
315.719	60.42
315.933	107.52
316.146	117.76
316.36	-5.12
316.573	52.22
316.787	41.98
317.001	58.37
317.214	66.56
317.428	21.5
317.641	-25.6
317.855	17.41
318.068	19.46
318.282	35.84
318.495	46.08
318.709	72.7
318.922	78.85
319.136	17.41
319.349	54.27
319.563	64.51
319.776	33.79
319.99	48.13
320.203	70.65
320.417	11.26
320.63	148.48
320.843	48.13
321.057	1.02
321.27	29.7
321.483	35.84
321.697	31.74
321.91	5.12
322.124	64.51
322.337	13.31
322.55	68.61
322.763	27.65
322.977	25.6
323.19	29.7
323.403	41.98
323.617	33.79
323.83	107.52
324.043	54.27
324.256	13.31
324.469	33.79
324.683	64.51
324.896	9.22
325.109	31.74
325.322	13.31
325.535	5.12
325.748	19.46
325.962	-1.02
326.175	78.85
326.388	84.99
326.601	3.07
326.814	35.84
327.027	37.89
327.24	9.22
327.453	1.02
327.666	3.07
327.879	52.22
328.092	9.22
328.305	33.79
328.518	54.27
328.731	27.65
328.944	-3.07
329.157	50.18
329.37	-17.41
329.583	41.98
329.796	107.52
330.009	52.22
330.222	9.22
330.435	27.65
330.648	105.47
330.861	7.17
331.073	111.61
331.286	119.81
331.499	115.71
331.712	44.03
331.925	58.37
332.138	13.31
332.35	64.51
332.563	-50.18
332.776	64.51
332.989	-23.55
333.202	123.9
333.414	21.5
333.627	52.22
333.84	7.17
334.053	58.37
334.265	1.02
334.478	37.89
334.691	62.46
334.903	54.27
335.116	17.41
335.329	21.5
335.541	41.98
335.754	101.37
335.966	11.26
336.179	-7.17
336.392	-7.17
336.604	76.8
336.817	13.31
337.029	46.08
337.242	-27.65
337.454	80.89
337.667	78.85
337.88	23.55
338.092	72.7
338.305	62.46
338.517	97.28
338.729	56.32
338.942	48.13
339.154	1.02
339.367	82.94
339.579	82.94
339.792	9.22
340.004	70.65
340.217	66.56
340.429	21.5
340.641	19.46
340.854	74.75
341.066	7.17
341.278	29.7
341.491	64.51
341.703	82.94
341.915	-11.26
342.128	17.41
342.34	33.79
342.552	66.56
342.764	60.42
342.977	3.07
343.189	3.07
343.401	-15.36
343.613	7.17
343.826	-39.94
344.038	107.52
344.25	19.46
344.462	25.6
344.674	-31.74
344.886	44.03
345.099	60.42
345.311	91.13
345.523	105.47
345.735	140.29
345.947	46.08
346.159	23.55
346.371	44.03
346.583	1.02
346.795	66.56
347.007	52.22
347.219	46.08
347.431	21.5
347.643	33.79
347.855	70.65
348.067	31.74
348.279	72.7
348.491	19.46
348.703	39.94
348.915	91.13
349.127	74.75
349.339	103.42
349.551	9.22
349.763	50.18
349.975	62.46
350.187	33.79
350.399	15.36
350.61	25.6
350.822	21.5
351.034	52.22
351.246	39.94
351.458	31.74
351.669	15.36
351.881	58.37
352.093	39.94
352.305	48.13
352.517	70.65
352.728	76.8
352.94	35.84
353.152	84.99
353.363	17.41
353.575	31.74
353.787	9.22
353.999	-5.12
354.21	13.31
354.422	-21.5
354.633	31.74
354.845	29.7
355.057	13.31
355.268	41.98
355.48	89.09
355.692	50.18
355.903	25.6
356.115	17.41
356.326	52.22
356.538	50.18
356.749	27.65
356.961	107.52
357.172	107.52
357.384	74.75
357.595	140.29
357.807	25.6
358.018	25.6
358.23	3.07
358.441	-11.26
358.653	9.22
358.864	29.7
359.075	64.51
359.287	1.02
359.498	68.61
359.709	50.18
359.921	15.36
360.132	68.61
360.344	48.13
360.555	-27.65
360.766	107.52
360.977	46.08
361.189	60.42
361.4	23.55
361.611	87.04
361.823	21.5
362.034	115.71
362.245	68.61
362.456	66.56
362.667	54.27
362.879	-1.02
363.09	82.94
363.301	119.81
363.512	87.04
363.723	35.84
363.935	50.18
364.146	54.27
364.357	91.13
364.568	138.24
364.779	3.07
364.99	70.65
365.201	-19.46
365.412	56.32
365.623	-7.17
365.834	60.42
366.045	1.02
366.256	80.89
366.467	33.79
366.678	111.61
366.889	15.36
367.1	62.46
367.311	105.47
367.522	76.8
367.733	72.7
367.944	115.71
368.155	62.46
368.366	11.26
368.577	125.95
368.788	66.56
368.999	52.22
369.209	107.52
369.42	78.85
369.631	97.28
369.842	54.27
370.053	113.66
370.264	148.48
370.474	23.55
370.685	21.5
370.896	29.7
371.107	-19.46
371.317	44.03
371.528	-13.31
371.739	1.02
371.95	93.18
372.16	54.27
372.371	27.65
372.582	66.56
372.792	60.42
373.003	52.22
373.214	33.79
373.424	27.65
373.635	44.03
373.846	68.61
374.056	60.42
374.267	11.26
374.477	11.26
374.688	70.65
374.898	56.32
375.109	74.75
375.319	31.74
375.53	76.8
375.74	123.9
375.951	52.22
376.161	125.95
376.372	29.7
376.582	21.5
376.793	93.18
377.003	84.99
377.214	91.13
377.424	52.22
377.635	66.56
377.845	101.37
378.055	66.56
378.266	72.7
378.476	46.08
378.686	74.75
378.897	107.52
379.107	35.84
379.317	3.07
379.528	15.36
379.738	148.48
379.948	82.94
380.158	99.33
380.369	50.18
380.579	13.31
380.789	80.89
380.999	66.56
381.21	3.07
381.42	82.94
381.63	1.02
381.84	78.85
382.05	58.37
382.261	64.51
382.471	68.61
382.681	58.37
382.891	29.7
383.101	50.18
383.311	-5.12
383.521	17.41
383.731	29.7
383.941	64.51
384.151	54.27
384.361	44.03
384.571	9.22
384.781	76.8
384.991	58.37
385.201	78.85
385.411	52.22
385.621	84.99
385.831	29.7
386.041	7.17
386.251	23.55
386.461	91.13
386.671	97.28
386.881	29.7
387.091	17.41
387.301	68.61
387.511	44.03
387.72	62.46
387.93	35.84
388.14	9.22
388.35	23.55
388.56	97.28
388.769	5.12
388.979	64.51
389.189	121.85
389.399	111.61
389.609	46.08
389.818	29.7
390.028	27.65
390.238	50.18
390.447	25.6
390.657	95.23
390.867	15.36
391.076	76.8
391.286	31.74
391.496	105.47
391.705	82.94
391.915	148.48
392.125	97.28
392.334	87.04
392.544	37.89
392.753	78.85
392.963	1.02
393.172	9.22
393.382	33.79
393.591	74.75
393.801	64.51
394.01	107.52
394.22	84.99
394.429	103.42
394.639	3.07
394.848	70.65
395.058	74.75
395.267	99.33
395.477	103.42
395.686	134.14
395.895	21.5
396.105	128
396.314	25.6
396.524	99.33
396.733	123.9
396.942	44.03
397.152	78.85
397.361	39.94
397.57	72.7
397.78	33.79
397.989	84.99
398.198	164.86
398.407	91.13
398.617	123.9
398.826	93.18
399.035	91.13
399.244	130.05
399.453	109.57
399.663	140.29
399.872	78.85
400.081	66.56
400.29	148.48
400.499	103.42
400.708	52.22
400.917	117.76
401.127	66.56
401.336	17.41
401.545	66.56
401.754	99.33
401.963	97.28
402.172	111.61
402.381	95.23
402.59	103.42
402.799	78.85
403.008	29.7
403.217	177.15
403.426	62.46
403.635	115.71
403.844	189.44
404.053	134.14
404.262	164.86
404.471	191.49
404.68	70.65
404.888	115.71
405.097	125.95
405.306	150.53
405.515	164.86
405.724	95.23
405.933	199.68
406.142	134.14
406.35	146.43
406.559	107.52
406.768	138.24
406.977	238.59
407.185	177.15
407.394	164.86
407.603	111.61
407.812	152.57
408.02	160.77
408.229	209.92
408.438	123.9
408.646	156.67
408.855	197.63
409.064	230.4
409.272	128
409.481	240.64
409.69	183.29
409.898	183.29
410.107	248.83
410.315	189.44
410.524	201.72
410.733	271.36
410.941	357.37
411.15	289.79
411.358	279.55
411.567	302.08
411.775	365.56
411.984	361.47
412.192	386.04
412.401	222.2
412.609	295.93
412.818	324.6
413.026	359.42
413.234	369.66
413.443	402.43
413.651	371.71
413.86	394.23
414.068	383.99
414.276	437.24
414.485	453.63
414.693	500.73
414.901	400.38
415.11	515.06
415.318	564.22
415.526	633.85
415.734	556.02
415.943	492.54
416.151	633.85
416.359	547.83
416.567	635.89
416.776	562.17
416.984	726
417.192	654.33
417.4	705.53
417.608	662.52
417.817	805.88
418.025	715.77
418.233	867.31
418.441	820.21
418.649	846.84
418.857	930.8
419.065	916.47
419.273	959.47
419.481	932.85
419.689	992.24
419.897	1149.93
420.105	1145.84
420.313	1125.36
420.521	1094.64
420.729	1188.85
420.937	1025.01
421.145	1303.53
421.353	1238
421.561	1418.22
421.769	1418.22
421.977	1459.18
422.185	1397.74
422.393	1446.89
422.601	1629.16
422.809	1592.3
423.017	1586.15
423.224	1627.11
423.432	1815.52
423.64	1864.68
423.848	1911.78
424.056	1913.83
424.263	1985.51
424.471	1975.27
424.679	2005.99
424.887	2208.73
425.094	2163.68
425.302	2247.65
425.51	2216.93
425.718	2468.83
425.925	2440.15
426.133	2603.99
426.341	2644.95
426.548	2786.26
426.756	2569.18
426.964	2679.77
427.171	2794.45
427.379	2982.87
427.586	3083.22
427.794	3140.56
428.001	3202
428.209	3298.25
428.417	3320.78
428.624	3503.05
428.832	3679.18
429.039	3527.63
429.247	3519.43
429.454	3990.47
429.662	4060.1
429.869	3871.68
430.076	4058.05
430.284	4064.19
430.491	4094.91
430.699	4385.73
430.906	4467.64
431.114	4637.63
431.321	4604.86
431.528	4867
431.736	5231.54
431.943	5370.8
432.15	5233.58
432.358	5219.25
432.565	5487.53
432.772	5497.77
432.979	5874.6
433.187	5893.03
433.394	5946.28
433.601	6343.58
433.808	6405.02
434.016	6202.27
434.223	6654.87
434.43	6982.55
434.637	6847.38
434.844	7191.44
435.052	7256.98
435.259	7353.23
435.466	7308.18
435.673	7347.09
435.88	7736.2
436.087	8104.84
436.294	8219.52
436.501	7932.81
436.708	8090.5
436.915	8555.39
437.122	8596.35
437.329	8762.23
437.537	9061.24
437.743	9253.75
437.95	8946.55
438.157	9577.33
438.364	9808.75
438.571	9966.44
438.778	10007.4
438.985	10922.84
439.192	10328.93
439.399	10836.83
439.606	10546.02
439.813	11221.84
440.02	11674.45
440.227	11567.95
440.433	11467.6
440.64	11838.28
440.847	11821.9
441.054	12135.24
441.261	12774.21
441.467	12651.33
441.674	13046.58
441.881	13316.92
442.088	13542.19
442.294	13179.7
442.501	13814.57
442.708	14027.56
442.914	14617.38
443.121	14760.73
443.328	14619.42
443.534	15760.14
443.741	15293.21
443.948	15096.6
444.154	16259.85
444.361	15731.47
444.568	16053
444.774	16157.45
444.981	16319.24
445.187	16775.94
445.394	17478.39
445.6	17310.46
445.807	19131.1
446.013	18066.16
446.22	18428.65
446.426	19018.46
446.633	19178.2
446.839	19831.51
447.046	19020.51
447.252	20169.42
447.459	20282.06
447.665	20372.17
447.871	21091.01
448.078	22028.98
448.284	20656.84
448.491	21273.28
448.697	22035.12
448.903	22590.12
449.11	22796.96
449.316	22287.02
449.522	22647.46
449.728	23501.47
449.935	23749.27
450.141	23364.25
450.347	23923.35
450.553	23055.01
450.76	23556.76
450.966	24273.55
451.172	23771.8
451.378	24730.25
451.584	24289.93
451.791	24609.42
451.997	24631.94
452.203	24982.15
452.409	25121.41
452.615	24939.14
452.821	23876.24
453.027	23575.19
453.233	24994.43
453.44	23911.06
453.646	23904.92
453.852	24289.93
454.058	24584.84
454.264	23825.04
454.47	24318.6
454.676	23779.99
454.882	24584.84
455.088	22397.61
455.294	22696.61
455.5	23155.36
455.705	23149.21
455.911	22338.22
456.117	21893.81
456.323	21674.68
456.529	20464.33
456.735	21377.72
456.941	20984.51
457.147	20581.06
457.352	19624.66
457.558	19845.84
457.764	19606.23
457.97	19067.61
458.176	18776.8
458.381	18905.82
458.587	18008.81
458.793	18014.96
458.999	17079.04
459.204	18369.26
459.41	17650.42
459.616	16528.13
459.821	16466.69
460.027	16605.95
460.233	16106.25
460.438	15303.45
460.644	15493.91
460.85	14879.52
461.055	14482.21
461.261	14390.05
461.466	13677.36
461.672	12944.19
461.878	14027.56
462.083	13075.26
462.289	12786.49
462.494	12895.04
462.7	12215.11
462.905	11703.12
463.111	12383.04
463.316	12389.19
463.522	12077.9
463.727	12102.47
463.932	12155.72
464.138	12190.53
464.343	12018.5
464.549	11799.37
464.754	12016.46
464.959	11930.44
465.165	11782.99
465.37	11330.39
465.575	11203.41
465.781	11631.44
465.986	11735.88
466.191	11457.36
466.397	11025.24
466.602	10584.93
466.807	10881.88
467.012	11000.66
467.218	10791.77
467.423	10802.01
467.628	10795.87
467.833	11227.99
468.038	10679.13
468.244	10529.63
468.449	11002.71
468.654	10650.46
468.859	10525.54
469.064	10687.32
469.269	9984.87
