Data from USB4F104151__125__13-57-54-318.txt Node

Date: Thu Mar 13 13:57:54 EDT 2025
User: louis
Spectrometer: USB4F10415
Trigger mode: 4
Integration Time (sec): 1.000000E-2
Scans to average: 1
Electric dark correction enabled: true
Nonlinearity correction enabled: false
Boxcar width: 0
XAxis mode: Wavelengths
Number of Pixels in Spectrum: 3648
>>>>>Begin Spectral Data<<<<<
178.204	-49.49
178.424	-49.49
178.644	-49.49
178.864	-72.02
179.084	-65.88
179.304	28.33
179.524	61.1
179.744	28.33
179.964	1.71
180.184	-55.64
180.404	-47.44
180.624	-33.11
180.844	5.8
181.064	-4.44
181.283	-47.44
181.503	-16.73
181.723	79.53
181.943	1.71
182.163	16.04
182.383	32.43
182.602	48.81
182.822	1.71
183.042	-22.87
183.262	-63.83
183.482	40.62
183.701	-59.73
183.921	59.05
184.141	5.8
184.361	-57.68
184.58	-12.63
184.8	-16.73
185.02	18.09
185.239	-31.06
185.459	-4.44
185.679	22.19
185.898	-76.12
186.118	40.62
186.338	-20.82
186.557	18.09
186.777	50.86
186.997	-39.25
187.216	-92.5
187.436	-24.92
187.655	-35.16
187.875	-14.68
188.095	-51.54
188.314	59.05
188.534	-2.39
188.753	-35.16
188.973	24.23
189.192	-8.53
189.412	9.9
189.631	36.52
189.851	46.76
190.07	5.8
190.29	-16.73
190.509	7.85
190.729	-49.49
190.948	22.19
191.168	79.53
191.387	7.85
191.607	-35.16
191.826	24.23
192.045	-74.07
192.265	13.99
192.484	95.91
192.704	-26.96
192.923	-33.11
193.142	-12.63
193.362	-41.3
193.581	-35.16
193.8	-51.54
194.02	-57.68
194.239	22.19
194.458	54.95
194.678	1.71
194.897	-12.63
195.116	-26.96
195.335	-63.83
195.555	13.99
195.774	11.95
195.993	24.23
196.212	-45.4
196.432	13.99
196.651	40.62
196.87	3.75
197.089	22.19
197.308	11.95
197.528	-6.49
197.747	-24.92
197.966	18.09
198.185	-31.06
198.404	-16.73
198.623	63.15
198.842	26.28
199.062	-8.53
199.281	-18.77
199.5	-53.59
199.719	-22.87
199.938	11.95
200.157	9.9
200.376	-24.92
200.595	-31.06
200.814	46.76
201.033	-8.53
201.252	-51.54
201.471	-16.73
201.69	13.99
201.909	-16.73
202.128	-10.58
202.347	46.76
202.566	-59.73
202.785	-31.06
203.004	3.75
203.223	-14.68
203.442	9.9
203.661	24.23
203.879	-67.92
204.098	-33.11
204.317	-57.68
204.536	-2.39
204.755	18.09
204.974	59.05
205.193	-6.49
205.411	-0.34
205.63	-18.77
205.849	73.39
206.068	-37.2
206.287	-14.68
206.505	7.85
206.724	-4.44
206.943	36.52
207.162	-8.53
207.381	50.86
207.599	-67.92
207.818	-39.25
208.037	44.71
208.255	-43.35
208.474	30.38
208.693	1.71
208.911	1.71
209.13	-49.49
209.349	46.76
209.567	32.43
209.786	36.52
210.005	-45.4
210.223	-24.92
210.442	-76.12
210.661	48.81
210.879	7.85
211.098	-20.82
211.316	-6.49
211.535	95.91
211.753	38.57
211.972	-31.06
212.191	-65.88
212.409	16.04
212.628	-2.39
212.846	-22.87
213.065	3.75
213.283	-20.82
213.502	-92.5
213.72	-41.3
213.938	42.67
214.157	22.19
214.375	-22.87
214.594	36.52
214.812	54.95
215.031	-31.06
215.249	22.19
215.467	-45.4
215.686	9.9
215.904	-12.63
216.122	-65.88
216.341	28.33
216.559	5.8
216.778	57
216.996	-55.64
217.214	18.09
217.432	22.19
217.651	-33.11
217.869	44.71
218.087	40.62
218.306	-33.11
218.524	3.75
218.742	54.95
218.96	-45.4
219.179	-43.35
219.397	-35.16
219.615	3.75
219.833	5.8
220.051	-39.25
220.27	16.04
220.488	-14.68
220.706	40.62
220.924	-96.6
221.142	11.95
221.36	-26.96
221.578	-22.87
221.796	28.33
222.015	-22.87
222.233	-24.92
222.451	-20.82
222.669	-4.44
222.887	-31.06
223.105	-47.44
223.323	-55.64
223.541	26.28
223.759	38.57
223.977	-8.53
224.195	-6.49
224.413	-4.44
224.631	38.57
224.849	26.28
225.067	9.9
225.285	-96.6
225.503	-29.01
225.721	18.09
225.939	-24.92
226.157	-0.34
226.375	-12.63
226.592	13.99
226.81	-22.87
227.028	13.99
227.246	81.58
227.464	-20.82
227.682	50.86
227.9	-16.73
228.117	38.57
228.335	-37.2
228.553	3.75
228.771	-57.68
228.989	-14.68
229.206	-0.34
229.424	52.91
229.642	-47.44
229.86	44.71
230.077	-61.78
230.295	24.23
230.513	1.71
230.731	18.09
230.948	-12.63
231.166	61.1
231.384	-26.96
231.601	-49.49
231.819	46.76
232.037	7.85
232.254	1.71
232.472	-82.26
232.689	24.23
232.907	44.71
233.125	-4.44
233.342	-18.77
233.56	-86.36
233.777	-6.49
233.995	9.9
234.213	50.86
234.43	3.75
234.648	-20.82
234.865	-33.11
235.083	3.75
235.3	-43.35
235.518	-74.07
235.735	-18.77
235.953	65.19
236.17	34.47
236.388	24.23
236.605	-24.92
236.822	18.09
237.04	-18.77
237.257	20.14
237.475	-92.5
237.692	11.95
237.909	42.67
238.127	-6.49
238.344	-6.49
238.562	28.33
238.779	13.99
238.996	-14.68
239.214	24.23
239.431	1.71
239.648	-10.58
239.865	-8.53
240.083	7.85
240.3	-43.35
240.517	-0.34
240.735	38.57
240.952	57
241.169	32.43
241.386	57
241.603	-6.49
241.821	-10.58
242.038	46.76
242.255	50.86
242.472	-26.96
242.689	20.14
242.907	-43.35
243.124	1.71
243.341	1.71
243.558	11.95
243.775	-47.44
243.992	-2.39
244.209	16.04
244.426	22.19
244.643	-2.39
244.86	1.71
245.078	26.28
245.295	-90.45
245.512	24.23
245.729	9.9
245.946	57
246.163	-14.68
246.38	11.95
246.597	-53.59
246.814	-74.07
247.031	3.75
247.248	16.04
247.464	-16.73
247.681	81.58
247.898	-2.39
248.115	-2.39
248.332	20.14
248.549	16.04
248.766	-57.68
248.983	-24.92
249.2	54.95
249.417	20.14
249.633	11.95
249.85	48.81
250.067	26.28
250.284	100.01
250.501	-10.58
250.717	79.53
250.934	7.85
251.151	-8.53
251.368	5.8
251.585	57
251.801	30.38
252.018	38.57
252.235	-10.58
252.451	71.34
252.668	22.19
252.885	81.58
253.102	42.67
253.318	-49.49
253.535	-35.16
253.752	34.47
253.968	24.23
254.185	20.14
254.401	-39.25
254.618	-26.96
254.835	24.23
255.051	18.09
255.268	20.14
255.484	-37.2
255.701	13.99
255.917	9.9
256.134	-8.53
256.351	-24.92
256.567	-47.44
256.784	32.43
257	-26.96
257.217	38.57
257.433	13.99
257.65	-6.49
257.866	-8.53
258.082	-33.11
258.299	-55.64
258.515	18.09
258.732	-55.64
258.948	-35.16
259.165	11.95
259.381	-51.54
259.597	-29.01
259.814	-47.44
260.03	38.57
260.246	46.76
260.463	38.57
260.679	50.86
260.895	7.85
261.112	-53.59
261.328	-6.49
261.544	5.8
261.761	63.15
261.977	-2.39
262.193	-22.87
262.409	7.85
262.626	16.04
262.842	13.99
263.058	-29.01
263.274	54.95
263.49	-18.77
263.707	-6.49
263.923	38.57
264.139	54.95
264.355	34.47
264.571	42.67
264.787	-16.73
265.004	-31.06
265.22	91.82
265.436	11.95
265.652	-6.49
265.868	13.99
266.084	-22.87
266.3	24.23
266.516	95.91
266.732	71.34
266.948	9.9
267.164	-2.39
267.38	-10.58
267.596	9.9
267.812	-63.83
268.028	22.19
268.244	-41.3
268.46	-45.4
268.676	5.8
268.892	59.05
269.108	32.43
269.324	40.62
269.54	1.71
269.756	20.14
269.972	-14.68
270.188	28.33
270.403	-31.06
270.619	-45.4
270.835	-55.64
271.051	11.95
271.267	18.09
271.483	32.43
271.698	40.62
271.914	40.62
272.13	5.8
272.346	-47.44
272.562	5.8
272.777	-20.82
272.993	-51.54
273.209	22.19
273.425	-0.34
273.64	1.71
273.856	-35.16
274.072	59.05
274.287	38.57
274.503	28.33
274.719	-59.73
274.934	-24.92
275.15	-0.34
275.366	67.24
275.581	13.99
275.797	-67.92
276.012	-18.77
276.228	79.53
276.444	-16.73
276.659	38.57
276.875	5.8
277.09	32.43
277.306	59.05
277.521	-35.16
277.737	3.75
277.952	-0.34
278.168	-20.82
278.383	18.09
278.599	-14.68
278.814	-47.44
279.03	-24.92
279.245	5.8
279.461	-61.78
279.676	26.28
279.892	-72.02
280.107	-41.3
280.322	-4.44
280.538	-8.53
280.753	13.99
280.969	-12.63
281.184	61.1
281.399	18.09
281.615	-65.88
281.83	-2.39
282.045	-47.44
282.26	13.99
282.476	13.99
282.691	89.77
282.906	34.47
283.122	13.99
283.337	87.72
283.552	13.99
283.767	18.09
283.983	-39.25
284.198	54.95
284.413	11.95
284.628	-18.77
284.843	-2.39
285.058	-18.77
285.274	46.76
285.489	54.95
285.704	-2.39
285.919	-55.64
286.134	42.67
286.349	-35.16
286.564	-12.63
286.779	7.85
286.995	-12.63
287.21	-0.34
287.425	-39.25
287.64	65.19
287.855	22.19
288.07	-26.96
288.285	54.95
288.5	-53.59
288.715	28.33
288.93	-0.34
289.145	18.09
289.36	-51.54
289.575	16.04
289.79	-6.49
290.004	91.82
290.219	48.81
290.434	63.15
290.649	-10.58
290.864	-14.68
291.079	-16.73
291.294	32.43
291.509	57
291.724	16.04
291.938	30.38
292.153	32.43
292.368	-22.87
292.583	-14.68
292.798	26.28
293.012	40.62
293.227	11.95
293.442	52.91
293.657	-35.16
293.871	-12.63
294.086	-0.34
294.301	50.86
294.516	22.19
294.73	34.47
294.945	13.99
295.16	50.86
295.374	-0.34
295.589	-24.92
295.804	-0.34
296.018	5.8
296.233	32.43
296.447	-6.49
296.662	-4.44
296.877	-20.82
297.091	7.85
297.306	-31.06
297.52	-82.26
297.735	26.28
297.949	77.48
298.164	5.8
298.378	30.38
298.593	-0.34
298.807	-26.96
299.022	42.67
299.236	-6.49
299.451	28.33
299.665	-51.54
299.88	28.33
300.094	7.85
300.309	-6.49
300.523	-0.34
300.737	20.14
300.952	-31.06
301.166	22.19
301.381	-51.54
301.595	30.38
301.809	-76.12
302.024	-22.87
302.238	18.09
302.452	-24.92
302.667	1.71
302.881	13.99
303.095	-8.53
303.309	-41.3
303.524	20.14
303.738	5.8
303.952	22.19
304.166	44.71
304.381	13.99
304.595	106.15
304.809	-0.34
305.023	32.43
305.237	-47.44
305.452	-74.07
305.666	16.04
305.88	-4.44
306.094	1.71
306.308	-53.59
306.522	-16.73
306.736	18.09
306.95	-26.96
307.164	-65.88
307.379	-76.12
307.593	46.76
307.807	-26.96
308.021	1.71
308.235	-16.73
308.449	9.9
308.663	-4.44
308.877	-16.73
309.091	-14.68
309.305	75.43
309.519	24.23
309.733	-31.06
309.947	16.04
310.161	-0.34
310.374	-24.92
310.588	-45.4
310.802	-57.68
311.016	3.75
311.23	-0.34
311.444	-0.34
311.658	11.95
311.872	46.76
312.085	-84.31
312.299	-6.49
312.513	-18.77
312.727	24.23
312.941	7.85
313.154	32.43
313.368	67.24
313.582	3.75
313.796	-12.63
314.009	-72.02
314.223	9.9
314.437	16.04
314.651	42.67
314.864	13.99
315.078	-59.73
315.292	7.85
315.505	-45.4
315.719	-2.39
315.933	3.75
316.146	75.43
316.36	67.24
316.573	52.91
316.787	7.85
317.001	7.85
317.214	-33.11
317.428	-12.63
317.641	7.85
317.855	-20.82
318.068	22.19
318.282	48.81
318.495	54.95
318.709	28.33
318.922	20.14
319.136	50.86
319.349	48.81
319.563	-41.3
319.776	-4.44
319.99	28.33
320.203	-29.01
320.417	28.33
320.63	-47.44
320.843	-10.58
321.057	-72.02
321.27	79.53
321.483	-35.16
321.697	26.28
321.91	-12.63
322.124	13.99
322.337	20.14
322.55	-18.77
322.763	36.52
322.977	-24.92
323.19	22.19
323.403	-16.73
323.617	-33.11
323.83	7.85
324.043	30.38
324.256	-0.34
324.469	-16.73
324.683	-41.3
324.896	-45.4
325.109	24.23
325.322	-43.35
325.535	-2.39
325.748	26.28
325.962	28.33
326.175	-43.35
326.388	13.99
326.601	83.63
326.814	-18.77
327.027	18.09
327.24	-63.83
327.453	-43.35
327.666	3.75
327.879	26.28
328.092	71.34
328.305	-2.39
328.518	32.43
328.731	-2.39
328.944	38.57
329.157	16.04
329.37	-4.44
329.583	59.05
329.796	-49.49
330.009	-8.53
330.222	100.01
330.435	28.33
330.648	34.47
330.861	5.8
331.073	32.43
331.286	-43.35
331.499	73.39
331.712	38.57
331.925	18.09
332.138	-6.49
332.35	81.58
332.563	57
332.776	-78.16
332.989	16.04
333.202	13.99
333.414	-2.39
333.627	-2.39
333.84	13.99
334.053	-16.73
334.265	24.23
334.478	-26.96
334.691	30.38
334.903	-8.53
335.116	73.39
335.329	48.81
335.541	7.85
335.754	22.19
335.966	48.81
336.179	-6.49
336.392	-18.77
336.604	-8.53
336.817	46.76
337.029	13.99
337.242	-24.92
337.454	24.23
337.667	-24.92
337.88	-4.44
338.092	52.91
338.305	-2.39
338.517	3.75
338.729	-39.25
338.942	20.14
339.154	9.9
339.367	40.62
339.579	-47.44
339.792	28.33
340.004	-2.39
340.217	-74.07
340.429	5.8
340.641	-24.92
340.854	-8.53
341.066	110.25
341.278	22.19
341.491	77.48
341.703	1.71
341.915	18.09
342.128	40.62
342.34	-39.25
342.552	59.05
342.764	16.04
342.977	-26.96
343.189	-29.01
343.401	46.76
343.613	-76.12
343.826	-12.63
344.038	5.8
344.25	13.99
344.462	-57.68
344.674	-8.53
344.886	61.1
345.099	24.23
345.311	13.99
345.523	59.05
345.735	63.15
345.947	30.38
346.159	-29.01
346.371	50.86
346.583	-8.53
346.795	54.95
347.007	22.19
347.219	-37.2
347.431	22.19
347.643	22.19
347.855	32.43
348.067	-22.87
348.279	16.04
348.491	13.99
348.703	1.71
348.915	65.19
349.127	-35.16
349.339	22.19
349.551	-31.06
349.763	-10.58
349.975	-33.11
350.187	89.77
350.399	24.23
350.61	-12.63
350.822	50.86
351.034	3.75
351.246	-6.49
351.458	79.53
351.669	3.75
351.881	13.99
352.093	20.14
352.305	46.76
352.517	28.33
352.728	65.19
352.94	13.99
353.152	54.95
353.363	34.47
353.575	13.99
353.787	-33.11
353.999	-55.64
354.21	-14.68
354.422	-31.06
354.633	24.23
354.845	24.23
355.057	-24.92
355.268	22.19
355.48	-2.39
355.692	18.09
355.903	-39.25
356.115	13.99
356.326	-26.96
356.538	30.38
356.749	34.47
356.961	-16.73
357.172	18.09
357.384	-51.54
357.595	22.19
357.807	48.81
358.018	85.67
358.23	40.62
358.441	44.71
358.653	50.86
358.864	-18.77
359.075	18.09
359.287	-24.92
359.498	38.57
359.709	54.95
359.921	-18.77
360.132	-0.34
360.344	46.76
360.555	34.47
360.766	-37.2
360.977	11.95
361.189	18.09
361.4	-41.3
361.611	48.81
361.823	-22.87
362.034	7.85
362.245	-43.35
362.456	38.57
362.667	1.71
362.879	-0.34
363.09	-16.73
363.301	26.28
363.512	5.8
363.723	-2.39
363.935	16.04
364.146	26.28
364.357	18.09
364.568	5.8
364.779	5.8
364.99	112.3
365.201	42.67
365.412	5.8
365.623	34.47
365.834	91.82
366.045	-2.39
366.256	-16.73
366.467	116.39
366.678	-51.54
366.889	-26.96
367.1	34.47
367.311	-18.77
367.522	16.04
367.733	22.19
367.944	-57.68
368.155	9.9
368.366	22.19
368.577	7.85
368.788	30.38
368.999	38.57
369.209	-8.53
369.42	18.09
369.631	30.38
369.842	5.8
370.053	30.38
370.264	26.28
370.474	36.52
370.685	-49.49
370.896	-47.44
371.107	-8.53
371.317	-4.44
371.528	36.52
371.739	20.14
371.95	-4.44
372.16	24.23
372.371	24.23
372.582	-24.92
372.792	-16.73
373.003	-0.34
373.214	3.75
373.424	77.48
373.635	18.09
373.846	-18.77
374.056	-33.11
374.267	-49.49
374.477	-20.82
374.688	-8.53
374.898	-2.39
375.109	-29.01
375.319	63.15
375.53	22.19
375.74	16.04
375.951	65.19
376.161	-10.58
376.372	52.91
376.582	-8.53
376.793	7.85
377.003	7.85
377.214	-51.54
377.424	38.57
377.635	1.71
377.845	1.71
378.055	102.06
378.266	-6.49
378.476	11.95
378.686	-22.87
378.897	22.19
379.107	28.33
379.317	36.52
379.528	13.99
379.738	77.48
379.948	7.85
380.158	40.62
380.369	-33.11
380.579	-18.77
380.789	13.99
380.999	30.38
381.21	-2.39
381.42	42.67
381.63	1.71
381.84	16.04
382.05	57
382.261	73.39
382.471	46.76
382.681	-33.11
382.891	73.39
383.101	36.52
383.311	61.1
383.521	1.71
383.731	5.8
383.941	97.96
384.151	77.48
384.361	26.28
384.571	-14.68
384.781	97.96
384.991	63.15
385.201	26.28
385.411	11.95
385.621	77.48
385.831	30.38
386.041	11.95
386.251	1.71
386.461	1.71
386.671	40.62
386.881	38.57
387.091	65.19
387.301	13.99
387.511	-12.63
387.72	20.14
387.93	16.04
388.14	13.99
388.35	-20.82
388.56	13.99
388.769	28.33
388.979	-41.3
389.189	-33.11
389.399	71.34
389.609	-61.78
389.818	30.38
390.028	5.8
390.238	112.3
390.447	42.67
390.657	63.15
390.867	-22.87
391.076	-78.16
391.286	16.04
391.496	71.34
391.705	-26.96
391.915	71.34
392.125	16.04
392.334	85.67
392.544	128.68
392.753	48.81
392.963	-8.53
393.172	46.76
393.382	38.57
393.591	1.71
393.801	40.62
394.01	83.63
394.22	95.91
394.429	48.81
394.639	-2.39
394.848	71.34
395.058	-18.77
395.267	95.91
395.477	46.76
395.686	24.23
395.895	52.91
396.105	77.48
396.314	-18.77
396.524	52.91
396.733	54.95
396.942	104.11
397.152	-16.73
397.361	104.11
397.57	38.57
397.78	-14.68
397.989	81.58
398.198	38.57
398.407	44.71
398.617	95.91
398.826	38.57
399.035	1.71
399.244	30.38
399.453	44.71
399.663	81.58
399.872	46.76
400.081	83.63
400.29	1.71
400.499	26.28
400.708	104.11
400.917	11.95
401.127	54.95
401.336	30.38
401.545	104.11
401.754	73.39
401.963	120.49
402.172	116.39
402.381	24.23
402.59	71.34
402.799	57
403.008	67.24
403.217	69.29
403.426	-43.35
403.635	118.44
403.844	71.34
404.053	26.28
404.262	75.43
404.471	145.06
404.68	120.49
404.888	79.53
405.097	44.71
405.306	126.63
405.515	57
405.724	204.46
405.933	138.92
406.142	145.06
406.35	50.86
406.559	79.53
406.768	116.39
406.977	116.39
407.185	177.83
407.394	110.25
407.603	108.2
407.812	79.53
408.02	138.92
408.229	220.84
408.438	204.46
408.646	177.83
408.855	218.79
409.064	186.02
409.272	175.78
409.481	194.22
409.69	261.8
409.898	200.36
410.107	214.7
410.315	253.61
410.524	226.98
410.733	231.08
410.941	208.55
411.15	282.28
411.358	356.01
411.567	306.85
411.775	325.29
411.984	353.96
412.192	302.76
412.401	343.72
412.609	296.61
412.818	364.2
413.026	290.47
413.234	439.97
413.443	364.2
413.651	388.77
413.86	401.06
414.068	548.51
414.276	456.36
414.485	439.97
414.693	437.92
414.901	589.47
415.11	534.18
415.318	573.09
415.526	517.79
415.734	646.82
415.943	575.14
416.151	616.1
416.359	648.86
416.567	687.78
416.776	695.97
416.984	734.88
417.192	745.12
417.4	738.98
417.608	749.22
417.817	796.32
418.025	890.53
418.233	1029.79
418.441	855.71
418.649	954.01
418.857	1005.21
419.065	1021.6
419.273	956.06
419.481	1070.75
419.689	1089.18
419.897	1130.14
420.105	1156.76
420.313	1232.54
420.521	1367.7
420.729	1259.16
420.937	1379.99
421.145	1390.23
421.353	1492.63
421.561	1474.2
421.769	1568.4
421.977	1678.99
422.185	1662.61
422.393	1672.85
422.601	1750.67
422.809	1889.93
423.017	1765.01
423.224	1914.51
423.432	1992.33
423.64	2072.2
423.848	2119.31
424.056	2111.11
424.263	2082.44
424.471	2193.03
424.679	2410.12
424.887	2395.78
425.094	2543.24
425.302	2416.26
425.51	2696.83
425.718	2576
425.925	2606.72
426.133	2774.66
426.341	2856.58
426.548	3176.06
426.756	3108.48
426.964	3190.39
427.171	3292.79
427.379	3526.26
427.586	3546.74
427.794	3610.23
428.001	3696.24
428.209	3958.38
428.417	3784.3
428.624	3997.29
428.832	4087.4
429.039	4101.74
429.247	4142.7
429.454	4365.93
429.662	4544.1
429.869	4372.07
430.076	4793.95
430.284	4683.36
430.491	4849.25
430.699	5152.35
430.906	5207.64
431.114	5215.84
431.321	5432.92
431.528	5443.16
431.736	5942.86
431.943	6018.64
432.15	5959.25
432.358	6030.93
432.565	6364.75
432.772	6291.02
432.979	6919.75
433.187	6839.87
433.394	6897.22
433.601	7153.21
433.808	7294.52
434.016	7300.67
434.223	7470.65
434.43	7888.43
434.637	7685.69
434.844	8336.94
435.052	8549.93
435.259	8449.58
435.466	8396.33
435.673	8369.71
435.88	8801.83
436.087	9356.83
436.294	9354.78
436.501	9295.39
436.708	9459.23
436.915	9590.3
437.122	10077.71
437.329	9995.79
437.537	10403.34
437.743	10491.4
437.95	10315.28
438.157	10960.39
438.364	11597.31
438.571	11279.87
438.778	11365.89
438.985	12484.08
439.192	11939.32
439.399	12479.98
439.606	12228.08
439.813	12967.4
440.02	13487.58
440.227	13325.79
440.433	13360.61
440.64	13641.18
440.847	13514.2
441.054	13829.59
441.261	14646.73
441.467	14538.19
441.674	14861.77
441.881	15474.11
442.088	15615.42
442.294	15295.94
442.501	15680.96
442.708	15939
442.914	16559.53
443.121	17270.18
443.328	16905.64
443.534	17984.92
443.741	17536.42
443.948	17286.56
444.154	18548.11
444.361	18498.96
444.568	18707.85
444.774	18371.99
444.981	18834.83
445.187	19481.99
445.394	20225.4
445.6	19780.99
445.807	22041.95
446.013	20741.49
446.22	21353.83
446.426	22048.09
446.633	22191.45
446.839	22988.11
447.046	21998.94
447.252	22867.28
447.459	23188.81
447.665	23297.35
447.871	24337.72
448.078	25275.69
448.284	24249.66
448.491	24569.14
448.697	25453.86
448.903	26131.74
449.11	26223.9
449.316	25517.35
449.522	26051.87
449.728	27018.51
449.935	26815.76
450.141	27430.15
450.347	27536.65
450.553	26735.89
450.76	27204.88
450.966	27999.49
451.172	27557.13
451.378	28224.76
451.584	27514.12
451.791	28140.8
451.997	28550.39
452.203	28898.55
452.409	28611.83
452.615	28818.67
452.821	27823.36
453.027	27208.97
453.233	28865.78
453.44	27403.53
453.646	27585.8
453.852	27997.44
454.058	28384.51
454.264	27585.8
454.47	28294.39
454.676	27632.9
454.882	28577.01
455.088	26047.77
455.294	26238.23
455.5	26858.77
455.705	27206.92
455.911	25916.7
456.117	25163.05
456.323	25126.19
456.529	23688.51
456.735	25048.36
456.941	24151.35
457.147	24081.72
457.352	22828.37
457.558	22924.62
457.764	22549.84
457.97	22244.7
458.176	22035.8
458.381	21710.18
458.587	20864.36
458.793	20821.36
458.999	19576.19
459.204	21095.78
459.41	20424.05
459.616	18988.42
459.821	19322.24
460.027	19078.54
460.233	18793.87
460.438	17835.42
460.644	18128.28
460.85	17118.63
461.055	17081.77
461.261	16811.43
461.466	15461.82
461.672	15334.85
461.878	16178.61
462.083	15244.74
462.289	14835.14
462.494	14702.03
462.7	14204.37
462.905	13759.96
463.111	14185.94
463.316	14341.58
463.522	13790.68
463.727	14018
463.932	13970.9
464.138	13825.5
464.343	13946.33
464.549	13327.84
464.754	13989.33
464.959	13741.53
465.165	13753.82
465.37	13077.99
465.575	12680.68
465.781	13290.98
465.986	13456.86
466.191	12975.59
466.397	12711.4
466.602	12027.38
466.807	12729.83
