Data from USB4F104151__37__13-53-12-659.txt Node

Date: Thu Mar 13 13:53:12 EDT 2025
User: louis
Spectrometer: USB4F10415
Trigger mode: 4
Integration Time (sec): 1.000000E-2
Scans to average: 1
Electric dark correction enabled: true
Nonlinearity correction enabled: false
Boxcar width: 0
XAxis mode: Wavelengths
Number of Pixels in Spectrum: 3648
>>>>>Begin Spectral Data<<<<<
178.204	3.93
178.424	3.93
178.644	3.93
178.864	-75.95
179.084	-20.65
179.304	-8.36
179.524	14.17
179.744	-65.71
179.964	-2.22
180.184	30.55
180.404	-32.94
180.624	-43.18
180.844	3.93
181.064	-32.94
181.283	85.84
181.503	-4.27
181.723	55.12
181.943	-30.89
182.163	75.6
182.383	-37.03
182.602	1.88
182.822	42.84
183.042	-39.08
183.262	55.12
183.482	26.45
183.701	10.07
183.921	28.5
184.141	16.21
184.361	-14.51
184.58	-16.55
184.8	-8.36
185.02	46.93
185.239	26.45
185.459	-55.47
185.679	42.84
185.898	-12.46
186.118	40.79
186.338	46.93
186.557	24.4
186.777	44.88
186.997	10.07
187.216	53.08
187.436	59.22
187.655	-24.75
187.875	-14.51
188.095	22.36
188.314	32.6
188.534	14.17
188.753	18.26
188.973	-2.22
189.192	44.88
189.412	8.02
189.631	24.4
189.851	-24.75
190.07	18.26
190.29	-61.61
190.509	-26.79
190.729	-43.18
190.948	-8.36
191.168	63.32
191.387	55.12
191.607	-6.31
191.826	28.5
192.045	18.26
192.265	38.74
192.484	51.03
192.704	32.6
192.923	26.45
193.142	-45.23
193.362	22.36
193.581	10.07
193.8	85.84
194.02	5.97
194.239	34.64
194.458	20.31
194.678	44.88
194.897	51.03
195.116	-53.42
195.335	46.93
195.555	-22.7
195.774	-2.22
195.993	-0.17
196.212	3.93
196.432	30.55
196.651	-34.99
196.87	20.31
197.089	61.27
197.308	-16.55
197.528	-2.22
197.747	-43.18
197.966	38.74
198.185	18.26
198.404	51.03
198.623	18.26
198.842	40.79
199.062	-6.31
199.281	44.88
199.5	36.69
199.719	3.93
199.938	-8.36
200.157	-65.71
200.376	-20.65
200.595	14.17
200.814	38.74
201.033	124.76
201.252	-12.46
201.471	12.12
201.69	14.17
201.909	-2.22
202.128	55.12
202.347	-57.51
202.566	55.12
202.785	12.12
203.004	1.88
203.223	34.64
203.442	85.84
203.661	-100.52
203.879	22.36
204.098	46.93
204.317	-8.36
204.536	36.69
204.755	-49.32
204.974	73.56
205.193	34.64
205.411	14.17
205.63	26.45
205.849	20.31
206.068	96.08
206.287	75.6
206.505	-22.7
206.724	28.5
206.943	-30.89
207.162	16.21
207.381	51.03
207.599	3.93
207.818	53.08
208.037	-12.46
208.255	-0.17
208.474	32.6
208.693	-94.38
208.911	55.12
209.13	38.74
209.349	81.75
209.567	-28.84
209.786	63.32
210.005	30.55
210.223	-45.23
210.442	-18.6
210.661	5.97
210.879	42.84
211.098	100.18
211.316	8.02
211.535	65.36
211.753	36.69
211.972	5.97
212.191	20.31
212.409	-8.36
212.628	-20.65
212.846	5.97
213.065	18.26
213.283	59.22
213.502	26.45
213.72	16.21
213.938	57.17
214.157	-4.27
214.375	46.93
214.594	1.88
214.812	-20.65
215.031	94.04
215.249	59.22
215.467	71.51
215.686	24.4
215.904	26.45
216.122	-20.65
216.341	22.36
216.559	-24.75
216.778	100.18
216.996	40.79
217.214	24.4
217.432	-37.03
217.651	65.36
217.869	1.88
218.087	79.7
218.306	-16.55
218.524	1.88
218.742	12.12
218.96	-8.36
219.179	10.07
219.397	22.36
219.615	69.46
219.833	-2.22
220.051	63.32
220.27	75.6
220.488	48.98
220.706	14.17
220.924	24.4
221.142	42.84
221.36	12.12
221.578	-0.17
221.796	3.93
222.015	32.6
222.233	16.21
222.451	-8.36
222.669	-39.08
222.887	53.08
223.105	-10.41
223.323	-6.31
223.541	-41.13
223.759	67.41
223.977	5.97
224.195	53.08
224.413	118.61
224.631	51.03
224.849	-65.71
225.067	51.03
225.285	18.26
225.503	-14.51
225.721	-20.65
225.939	-57.51
226.157	32.6
226.375	-10.41
226.592	-8.36
226.81	51.03
227.028	16.21
227.246	14.17
227.464	32.6
227.682	96.08
227.9	20.31
228.117	18.26
228.335	32.6
228.553	73.56
228.771	38.74
228.989	40.79
229.206	24.4
229.424	-30.89
229.642	44.88
229.86	32.6
230.077	-18.6
230.295	46.93
230.513	10.07
230.731	30.55
230.948	-12.46
231.166	42.84
231.384	32.6
231.601	-16.55
231.819	-34.99
232.037	-18.6
232.254	85.84
232.472	-8.36
232.689	34.64
232.907	16.21
233.125	34.64
233.342	20.31
233.56	-53.42
233.777	5.97
233.995	32.6
234.213	102.23
234.43	-0.17
234.648	14.17
234.865	42.84
235.083	-6.31
235.3	34.64
235.518	-0.17
235.735	51.03
235.953	-10.41
236.17	-37.03
236.388	75.6
236.605	-47.27
236.822	71.51
237.04	44.88
237.257	-39.08
237.475	26.45
237.692	-6.31
237.909	57.17
238.127	51.03
238.344	51.03
238.562	-49.32
238.779	24.4
238.996	108.37
239.214	61.27
239.431	14.17
239.648	71.51
239.865	51.03
240.083	42.84
240.3	10.07
240.517	110.42
240.735	20.31
240.952	42.84
241.169	63.32
241.386	-32.94
241.603	-4.27
241.821	-37.03
242.038	118.61
242.255	-24.75
242.472	83.8
242.689	26.45
242.907	36.69
243.124	-10.41
243.341	48.98
243.558	26.45
243.775	-24.75
243.992	-18.6
244.209	10.07
244.426	102.23
244.643	65.36
244.86	59.22
245.078	-12.46
245.295	55.12
245.512	16.21
245.729	38.74
245.946	5.97
246.163	26.45
246.38	116.56
246.597	8.02
246.814	48.98
247.031	14.17
247.248	8.02
247.464	71.51
247.681	30.55
247.898	28.5
248.115	26.45
248.332	-22.7
248.549	12.12
248.766	26.45
248.983	-20.65
249.2	16.21
249.417	22.36
249.633	14.17
249.85	34.64
250.067	75.6
250.284	63.32
250.501	-2.22
250.717	16.21
250.934	102.23
251.151	65.36
251.368	63.32
251.585	32.6
251.801	40.79
252.018	65.36
252.235	-43.18
252.451	18.26
252.668	12.12
252.885	53.08
253.102	-4.27
253.318	-8.36
253.535	-34.99
253.752	10.07
253.968	-14.51
254.185	26.45
254.401	-18.6
254.618	77.65
254.835	79.7
255.051	3.93
255.268	-26.79
255.484	87.89
255.701	69.46
255.917	38.74
256.134	30.55
256.351	79.7
256.567	22.36
256.784	-32.94
257	20.31
257.217	83.8
257.433	-47.27
257.65	44.88
257.866	12.12
258.082	1.88
258.299	51.03
258.515	-2.22
258.732	73.56
258.948	3.93
259.165	-75.95
259.381	87.89
259.597	24.4
259.814	10.07
260.03	-32.94
260.246	18.26
260.463	59.22
260.679	48.98
260.895	-51.37
261.112	5.97
261.328	-16.55
261.544	34.64
261.761	44.88
261.977	16.21
262.193	-4.27
262.409	24.4
262.626	16.21
262.842	18.26
263.058	12.12
263.274	16.21
263.49	32.6
263.707	32.6
263.923	20.31
264.139	-2.22
264.355	16.21
264.571	61.27
264.787	-43.18
265.004	-45.23
265.22	-6.31
265.436	5.97
265.652	34.64
265.868	38.74
266.084	34.64
266.3	42.84
266.516	-6.31
266.732	30.55
266.948	34.64
267.164	16.21
267.38	10.07
267.596	51.03
267.812	22.36
268.028	18.26
268.244	48.98
268.46	71.51
268.676	69.46
268.892	89.94
269.108	8.02
269.324	36.69
269.54	1.88
269.756	30.55
269.972	16.21
270.188	32.6
270.403	18.26
270.619	1.88
270.835	-22.7
271.051	5.97
271.267	73.56
271.483	-8.36
271.698	1.88
271.914	10.07
272.13	53.08
272.346	-18.6
272.562	34.64
272.777	48.98
272.993	-8.36
273.209	16.21
273.425	42.84
273.64	-4.27
273.856	98.13
274.072	63.32
274.287	55.12
274.503	8.02
274.719	38.74
274.934	-43.18
275.15	28.5
275.366	57.17
275.581	-24.75
275.797	10.07
276.012	26.45
276.228	44.88
276.444	12.12
276.659	30.55
276.875	5.97
277.09	116.56
277.306	-75.95
277.521	94.04
277.737	-10.41
277.952	61.27
278.168	26.45
278.383	65.36
278.599	5.97
278.814	65.36
279.03	18.26
279.245	-53.42
279.461	79.7
279.676	77.65
279.892	12.12
280.107	1.88
280.322	16.21
280.538	30.55
280.753	61.27
280.969	8.02
281.184	51.03
281.399	32.6
281.615	110.42
281.83	51.03
282.045	-4.27
282.26	-10.41
282.476	-16.55
282.691	12.12
282.906	-37.03
283.122	69.46
283.337	63.32
283.552	51.03
283.767	53.08
283.983	110.42
284.198	73.56
284.413	55.12
284.628	42.84
284.843	-47.27
285.058	14.17
285.274	-0.17
285.489	30.55
285.704	-6.31
285.919	57.17
286.134	42.84
286.349	-41.13
286.564	44.88
286.779	-4.27
286.995	30.55
287.21	24.4
287.425	44.88
287.64	28.5
287.855	26.45
288.07	8.02
288.285	67.41
288.5	55.12
288.715	53.08
288.93	-14.51
289.145	-4.27
289.36	-73.9
289.575	77.65
289.79	65.36
290.004	16.21
290.219	28.5
290.434	-43.18
290.649	-6.31
290.864	-47.27
291.079	1.88
291.294	-4.27
291.509	24.4
291.724	5.97
291.938	14.17
292.153	10.07
292.368	63.32
292.583	20.31
292.798	32.6
293.012	14.17
293.227	-30.89
293.442	10.07
293.657	-18.6
293.871	28.5
294.086	108.37
294.301	18.26
294.516	85.84
294.73	-41.13
294.945	77.65
295.16	5.97
295.374	18.26
295.589	-18.6
295.804	-12.46
296.018	59.22
296.233	24.4
296.447	5.97
296.662	36.69
296.877	40.79
297.091	-2.22
297.306	20.31
297.52	42.84
297.735	14.17
297.949	-61.61
298.164	48.98
298.378	-20.65
298.593	-20.65
298.807	24.4
299.022	14.17
299.236	22.36
299.451	63.32
299.665	-8.36
299.88	12.12
300.094	26.45
300.309	63.32
300.523	26.45
300.737	26.45
300.952	32.6
301.166	-20.65
301.381	34.64
301.595	-12.46
301.809	-30.89
302.024	-30.89
302.238	-0.17
302.452	77.65
302.667	51.03
302.881	12.12
303.095	96.08
303.309	51.03
303.524	-8.36
303.738	77.65
303.952	-47.27
304.166	-26.79
304.381	12.12
304.595	46.93
304.809	73.56
305.023	26.45
305.237	98.13
305.452	81.75
305.666	40.79
305.88	8.02
306.094	14.17
306.308	3.93
306.522	10.07
306.736	5.97
306.95	3.93
307.164	59.22
307.379	24.4
307.593	44.88
307.807	12.12
308.021	-41.13
308.235	-0.17
308.449	30.55
308.663	38.74
308.877	65.36
309.091	-30.89
309.305	51.03
309.519	24.4
309.733	122.71
309.947	87.89
310.161	61.27
310.374	59.22
310.588	132.95
310.802	16.21
311.016	67.41
311.23	1.88
311.444	-30.89
311.658	14.17
311.872	77.65
312.085	38.74
312.299	42.84
312.513	20.31
312.727	-0.17
312.941	-49.32
313.154	30.55
313.368	30.55
313.582	40.79
313.796	-16.55
314.009	10.07
314.223	-39.08
314.437	42.84
314.651	55.12
314.864	32.6
315.078	91.99
315.292	59.22
315.505	71.51
315.719	38.74
315.933	30.55
316.146	40.79
316.36	46.93
316.573	-16.55
316.787	-8.36
317.001	16.21
317.214	-20.65
317.428	-22.7
317.641	-16.55
317.855	24.4
318.068	-12.46
318.282	-6.31
318.495	57.17
318.709	114.52
318.922	94.04
319.136	75.6
319.349	44.88
319.563	63.32
319.776	83.8
319.99	73.56
320.203	34.64
320.417	55.12
320.63	22.36
320.843	59.22
321.057	-2.22
321.27	14.17
321.483	-0.17
321.697	34.64
321.91	55.12
322.124	71.51
322.337	22.36
322.55	65.36
322.763	-12.46
322.977	-12.46
323.19	12.12
323.403	65.36
323.617	67.41
323.83	12.12
324.043	65.36
324.256	24.4
324.469	61.27
324.683	81.75
324.896	51.03
325.109	30.55
325.322	-32.94
325.535	8.02
325.748	-8.36
325.962	48.98
326.175	48.98
326.388	63.32
326.601	-0.17
326.814	69.46
327.027	-0.17
327.24	34.64
327.453	14.17
327.666	69.46
327.879	44.88
328.092	-6.31
328.305	12.12
328.518	36.69
328.731	61.27
328.944	44.88
329.157	-8.36
329.37	20.31
329.583	63.32
329.796	40.79
330.009	1.88
330.222	-14.51
330.435	53.08
330.648	59.22
330.861	20.31
331.073	36.69
331.286	59.22
331.499	59.22
331.712	34.64
331.925	20.31
332.138	5.97
332.35	-2.22
332.563	-4.27
332.776	91.99
332.989	-8.36
333.202	1.88
333.414	46.93
333.627	22.36
333.84	51.03
334.053	-22.7
334.265	-18.6
334.478	65.36
334.691	61.27
334.903	38.74
335.116	-12.46
335.329	5.97
335.541	-12.46
335.754	34.64
335.966	120.66
336.179	51.03
336.392	-22.7
336.604	104.28
336.817	-30.89
337.029	8.02
337.242	61.27
337.454	5.97
337.667	44.88
337.88	5.97
338.092	18.26
338.305	85.84
338.517	91.99
338.729	36.69
338.942	77.65
339.154	18.26
339.367	1.88
339.579	104.28
339.792	30.55
340.004	38.74
340.217	12.12
340.429	18.26
340.641	-4.27
340.854	98.13
341.066	-2.22
341.278	42.84
341.491	28.5
341.703	14.17
341.915	-4.27
342.128	20.31
342.34	16.21
342.552	26.45
342.764	-30.89
342.977	26.45
343.189	-8.36
343.401	22.36
343.613	44.88
343.826	59.22
344.038	10.07
344.25	73.56
344.462	96.08
344.674	87.89
344.886	24.4
345.099	51.03
345.311	36.69
345.523	73.56
345.735	61.27
345.947	30.55
346.159	55.12
346.371	44.88
346.583	-55.47
346.795	30.55
347.007	63.32
347.219	51.03
347.431	83.8
347.643	14.17
347.855	30.55
348.067	32.6
348.279	-14.51
348.491	-71.85
348.703	22.36
348.915	-8.36
349.127	14.17
349.339	34.64
349.551	48.98
349.763	83.8
349.975	20.31
350.187	51.03
350.399	-8.36
350.61	63.32
350.822	-47.27
351.034	36.69
351.246	34.64
351.458	-10.41
351.669	-10.41
351.881	-16.55
352.093	36.69
352.305	89.94
352.517	69.46
352.728	-28.84
352.94	-4.27
353.152	67.41
353.363	32.6
353.575	40.79
353.787	-2.22
353.999	22.36
354.21	-6.31
354.422	16.21
354.633	104.28
354.845	-41.13
355.057	-16.55
355.268	57.17
355.48	30.55
355.692	34.64
355.903	-16.55
356.115	61.27
356.326	14.17
356.538	73.56
356.749	8.02
356.961	75.6
357.172	46.93
357.384	81.75
357.595	20.31
357.807	-18.6
358.018	69.46
358.23	12.12
358.441	-4.27
358.653	40.79
358.864	24.4
359.075	75.6
359.287	1.88
359.498	-22.7
359.709	51.03
359.921	8.02
360.132	98.13
360.344	14.17
360.555	81.75
360.766	46.93
360.977	30.55
361.189	55.12
361.4	22.36
361.611	22.36
361.823	67.41
362.034	36.69
362.245	26.45
362.456	30.55
362.667	-18.6
362.879	-2.22
363.09	53.08
363.301	-0.17
363.512	-0.17
363.723	8.02
363.935	-4.27
364.146	16.21
364.357	42.84
364.568	40.79
364.779	-8.36
364.99	-10.41
365.201	8.02
365.412	77.65
365.623	61.27
365.834	16.21
366.045	-14.51
366.256	34.64
366.467	1.88
366.678	22.36
366.889	51.03
367.1	3.93
367.311	96.08
367.522	18.26
367.733	48.98
367.944	48.98
368.155	67.41
368.366	32.6
368.577	-22.7
368.788	-30.89
368.999	38.74
369.209	77.65
369.42	61.27
369.631	57.17
369.842	24.4
370.053	69.46
370.264	83.8
370.474	65.36
370.685	26.45
370.896	83.8
371.107	67.41
371.317	55.12
371.528	57.17
371.739	26.45
371.95	51.03
372.16	24.4
372.371	69.46
372.582	24.4
372.792	30.55
373.003	81.75
373.214	24.4
373.424	53.08
373.635	-71.85
373.846	83.8
374.056	55.12
374.267	-18.6
374.477	81.75
374.688	-26.79
374.898	51.03
375.109	67.41
375.319	40.79
375.53	124.76
375.74	59.22
375.951	75.6
376.161	-34.99
376.372	104.28
376.582	26.45
376.793	-8.36
377.003	-24.75
377.214	40.79
377.424	77.65
377.635	5.97
377.845	-12.46
378.055	40.79
378.266	32.6
378.476	61.27
378.686	16.21
378.897	-2.22
379.107	53.08
379.317	53.08
379.528	18.26
379.738	77.65
379.948	55.12
380.158	63.32
380.369	-14.51
380.579	73.56
380.789	-10.41
380.999	81.75
381.21	-16.55
381.42	22.36
381.63	34.64
381.84	24.4
382.05	110.42
382.261	65.36
382.471	3.93
382.681	26.45
382.891	5.97
383.101	110.42
383.311	98.13
383.521	-2.22
383.731	44.88
383.941	122.71
384.151	8.02
384.361	69.46
384.571	-24.75
384.781	69.46
384.991	63.32
385.201	83.8
385.411	110.42
385.621	75.6
385.831	96.08
386.041	46.93
386.251	-43.18
386.461	100.18
386.671	34.64
386.881	18.26
387.091	34.64
387.301	48.98
387.511	51.03
387.72	75.6
387.93	116.56
388.14	55.12
388.35	55.12
388.56	81.75
388.769	63.32
388.979	18.26
389.189	59.22
389.399	14.17
389.609	38.74
389.818	44.88
390.028	67.41
390.238	32.6
390.447	81.75
390.657	77.65
390.867	24.4
391.076	51.03
391.286	67.41
391.496	3.93
391.705	40.79
391.915	87.89
392.125	42.84
392.334	26.45
392.544	102.23
392.753	12.12
392.963	32.6
393.172	151.38
393.382	-18.6
393.591	120.66
393.801	10.07
394.01	94.04
394.22	1.88
394.429	18.26
394.639	61.27
394.848	48.98
395.058	96.08
395.267	114.52
395.477	32.6
395.686	135
395.895	128.85
396.105	87.89
396.314	63.32
396.524	34.64
396.733	44.88
396.942	94.04
397.152	151.38
397.361	102.23
397.57	126.8
397.78	67.41
397.989	120.66
398.198	69.46
398.407	53.08
398.617	75.6
398.826	22.36
399.035	83.8
399.244	149.33
399.453	116.56
399.663	112.47
399.872	147.28
400.081	26.45
400.29	87.89
400.499	30.55
400.708	126.8
400.917	96.08
401.127	63.32
401.336	124.76
401.545	151.38
401.754	73.56
401.963	85.84
402.172	87.89
402.381	124.76
402.59	61.27
402.799	42.84
403.008	116.56
403.217	100.18
403.426	87.89
403.635	63.32
403.844	155.47
404.053	141.14
404.262	61.27
404.471	135
404.68	34.64
404.888	110.42
405.097	139.09
405.306	96.08
405.515	139.09
405.724	139.09
405.933	104.28
406.142	94.04
406.35	145.24
406.559	135
406.768	147.28
406.977	135
407.185	159.57
407.394	153.43
407.603	126.8
407.812	128.85
408.02	169.81
408.229	184.15
408.438	145.24
408.646	132.95
408.855	163.67
409.064	122.71
409.272	214.87
409.481	221.01
409.69	169.81
409.898	245.59
410.107	208.72
410.315	243.54
410.524	216.91
410.733	257.87
410.941	214.87
411.15	270.16
411.358	274.26
411.567	360.27
411.775	210.77
411.984	268.11
412.192	298.83
412.401	292.69
412.609	313.17
412.818	401.23
413.026	347.98
413.234	352.08
413.443	372.56
413.651	450.38
413.86	380.75
414.068	448.33
414.276	427.85
414.485	384.85
414.693	390.99
414.901	464.72
415.11	485.2
415.318	515.92
415.526	444.24
415.734	522.06
415.943	538.45
416.151	569.16
416.359	497.49
416.567	630.6
416.776	603.98
416.984	689.99
417.192	665.42
417.4	585.55
417.608	669.52
417.817	741.19
418.025	763.72
418.233	718.67
418.441	722.76
418.649	831.3
418.857	800.59
419.065	923.46
419.273	853.83
419.481	958.28
419.689	1001.29
419.897	1052.49
420.105	999.24
420.313	1062.73
420.521	1115.97
420.729	1058.63
420.937	1105.73
421.145	1255.23
421.353	1267.52
421.561	1306.43
421.769	1275.71
421.977	1333.06
422.185	1351.49
422.393	1550.14
422.601	1576.77
422.809	1601.34
423.017	1439.55
423.224	1668.92
423.432	1632.06
423.64	1652.54
423.848	1808.19
424.056	1754.94
424.263	1924.92
424.471	1943.35
424.679	1963.83
424.887	2125.62
425.094	2103.09
425.302	2215.73
425.51	2219.83
425.718	2248.5
425.925	2291.51
426.133	2400.05
426.341	2488.11
426.548	2572.08
426.756	2633.52
426.964	2643.76
427.171	2836.27
427.379	2903.85
427.586	2955.05
427.794	3014.44
428.001	3082.02
428.209	3233.57
428.417	3172.13
428.624	3467.04
428.832	3467.04
429.039	3333.92
429.247	3262.24
429.454	3780.38
429.662	3991.32
429.869	3880.73
430.076	4114.2
430.284	3948.31
430.491	4247.32
430.699	4339.48
430.906	4308.76
431.114	4413.2
431.321	4658.96
431.528	4681.49
431.736	4835.08
431.943	5254.92
432.15	5152.52
432.358	5105.42
432.565	5338.88
432.772	5353.22
432.979	5541.63
433.187	5750.53
433.394	5619.46
433.601	6299.38
433.808	6168.31
434.016	6090.49
434.223	6186.74
434.43	6801.13
434.637	6541.04
434.844	7030.51
435.052	7137
435.259	7040.75
435.466	7255.78
435.673	7036.65
435.88	7585.51
436.087	7960.28
436.294	8031.96
436.501	7575.27
436.708	7962.33
436.915	8128.22
437.122	8580.82
437.329	8623.83
437.537	8902.35
437.743	8941.26
437.95	8957.64
438.157	9287.37
438.364	9744.06
438.571	9782.98
438.778	9758.4
438.985	10657.46
439.192	10024.64
439.399	10458.81
439.606	10204.86
439.813	10860.21
440.02	11665.06
440.227	11386.54
440.433	11355.82
440.64	11607.72
440.847	11484.84
441.054	11753.12
441.261	12445.34
441.467	12449.43
441.674	12682.9
441.881	12902.03
442.088	13102.73
442.294	12801.68
442.501	13442.7
442.708	13555.33
442.914	14081.66
443.121	14741.11
443.328	14255.74
443.534	15394.41
443.741	14790.26
443.948	14577.27
444.154	15783.52
444.361	15556.2
444.568	15847.01
444.774	15857.25
444.981	15847.01
445.187	16395.87
445.394	16934.48
445.6	16770.65
445.807	18437.69
446.013	17532.49
446.22	18183.74
446.426	18669.11
446.633	19142.19
446.839	19535.4
447.046	18708.02
447.252	19615.27
447.459	19994.15
447.665	19789.35
447.871	20770.33
448.078	21566.99
448.284	20225.57
448.491	21075.48
448.697	21841.42
448.903	22087.17
449.11	22185.47
449.316	21898.76
449.522	22357.5
449.728	22676.99
449.935	23184.88
450.141	22783.48
450.347	23461.36
450.553	22777.34
450.76	23139.83
450.966	23502.32
451.172	23678.44
451.378	23672.3
451.584	23569.9
451.791	23936.49
451.997	24221.16
452.203	24499.68
452.409	24440.29
452.615	24239.59
452.821	23414.26
453.027	23188.98
453.233	24337.89
453.44	23363.06
453.646	23803.37
453.852	23920.1
454.058	24110.57
454.264	23397.87
454.47	23803.37
454.676	23203.32
454.882	24118.76
455.088	21937.67
455.294	22111.75
455.5	22631.93
455.705	22838.78
455.911	21927.43
456.117	21409.29
456.323	21257.74
456.529	20205.09
456.735	21255.7
456.941	20315.68
457.147	19908.13
457.352	19506.73
457.558	18998.84
457.764	19258.93
457.97	18476.6
458.176	18169.41
458.381	18482.75
458.587	17184.34
458.793	17673.8
458.999	16666.2
459.204	17899.08
459.41	17352.27
459.616	16133.73
459.821	15971.94
460.027	16012.9
460.233	15636.07
460.438	14941.81
460.644	15029.87
460.85	14507.64
461.055	14358.14
461.261	14050.94
461.466	13053.58
461.672	12861.07
461.878	13522.57
462.083	12633.75
462.289	12455.58
462.494	12365.46
462.7	11869.86
462.905	11370.15
463.111	12070.56
463.316	11992.73
463.522	11865.76
463.727	11585.19
463.932	11728.55
464.138	11738.79
464.343	11550.37
464.549	11460.26
464.754	11804.32
464.959	11550.37
465.165	11544.23
465.37	10929.84
465.575	10677.94
465.781	11220.65
465.986	11445.93
466.191	10888.88
466.397	10636.98
466.602	10098.36
466.807	10651.31
467.012	10485.43
467.218	10436.28
467.423	10323.64
467.628	10364.6
467.833	10901.17
468.038	10305.21
468.244	10088.12
