Data from USB4F104151__171__13-58-55-631.txt Node

Date: Thu Mar 13 13:58:55 EDT 2025
User: louis
Spectrometer: USB4F10415
Trigger mode: 4
Integration Time (sec): 1.000000E-2
Scans to average: 1
Electric dark correction enabled: true
Nonlinearity correction enabled: false
Boxcar width: 0
XAxis mode: Wavelengths
Number of Pixels in Spectrum: 3648
>>>>>Begin Spectral Data<<<<<
178.204	-33.96
178.424	-33.96
178.644	-33.96
178.864	-83.11
179.084	41.81
179.304	-3.24
179.524	4.95
179.744	-33.96
179.964	-3.24
180.184	2.9
180.404	-13.48
180.624	33.62
180.844	-5.29
181.064	-23.72
181.283	-29.87
181.503	52.05
181.723	19.29
181.943	-46.25
182.163	62.29
182.383	-23.72
182.602	-15.53
182.822	-3.24
183.042	11.09
183.262	41.81
183.482	35.67
183.701	-29.87
183.921	-42.15
184.141	-3.24
184.361	80.72
184.58	-38.06
184.8	97.11
185.02	0.85
185.239	41.81
185.459	35.67
185.679	47.96
185.898	-54.44
186.118	19.29
186.338	-21.67
186.557	-25.77
186.777	-29.87
186.997	95.06
187.216	29.52
187.436	64.34
187.655	-7.34
187.875	13.14
188.095	-83.11
188.314	70.48
188.534	68.44
188.753	19.29
188.973	-5.29
189.192	60.24
189.412	23.38
189.631	7
189.851	-19.63
190.07	-21.67
190.29	-33.96
190.509	52.05
190.729	-50.35
190.948	-48.3
191.168	7
191.387	27.48
191.607	-5.29
191.826	0.85
192.045	37.72
192.265	68.44
192.484	-13.48
192.704	23.38
192.923	-11.43
193.142	109.4
193.362	-31.91
193.581	58.2
193.8	-31.91
194.02	43.86
194.239	-27.82
194.458	37.72
194.678	0.85
194.897	58.2
195.116	-19.63
195.335	-38.06
195.555	-40.11
195.774	25.43
195.993	23.38
196.212	68.44
196.432	2.9
196.651	-52.39
196.87	37.72
197.089	11.09
197.308	15.19
197.528	23.38
197.747	-40.11
197.966	74.58
198.185	-62.63
198.404	21.33
198.623	97.11
198.842	45.91
199.062	84.82
199.281	2.9
199.5	-42.15
199.719	74.58
199.938	-36.01
200.157	15.19
200.376	4.95
200.595	19.29
200.814	33.62
201.033	27.48
201.252	-9.39
201.471	27.48
201.69	17.24
201.909	33.62
202.128	19.29
202.347	90.96
202.566	-27.82
202.785	37.72
203.004	-93.35
203.223	35.67
203.442	-13.48
203.661	31.57
203.879	21.33
204.098	7
204.317	23.38
204.536	29.52
204.755	-19.63
204.974	9.05
205.193	37.72
205.411	35.67
205.63	19.29
205.849	86.87
206.068	29.52
206.287	60.24
206.505	-29.87
206.724	21.33
206.943	64.34
207.162	-38.06
207.381	-46.25
207.599	-29.87
207.818	60.24
208.037	13.14
208.255	-31.91
208.474	-21.67
208.693	31.57
208.911	-1.19
209.13	4.95
209.349	35.67
209.567	21.33
209.786	13.14
210.005	15.19
210.223	-36.01
210.442	-7.34
210.661	23.38
210.879	45.91
211.098	19.29
211.316	64.34
211.535	41.81
211.753	41.81
211.972	-13.48
212.191	11.09
212.409	-33.96
212.628	35.67
212.846	37.72
213.065	13.14
213.283	90.96
213.502	31.57
213.72	60.24
213.938	-64.68
214.157	7
214.375	39.76
214.594	-29.87
214.812	-1.19
215.031	-38.06
215.249	7
215.467	35.67
215.686	23.38
215.904	-21.67
216.122	-3.24
216.341	-15.53
216.559	13.14
216.778	35.67
216.996	-7.34
217.214	21.33
217.432	23.38
217.651	7
217.869	-13.48
218.087	-23.72
218.306	37.72
218.524	-38.06
218.742	-103.59
218.96	68.44
219.179	7
219.397	54.1
219.615	13.14
219.833	50
220.051	27.48
220.27	9.05
220.488	39.76
220.706	-1.19
220.924	-19.63
221.142	27.48
221.36	56.15
221.578	9.05
221.796	62.29
222.015	35.67
222.233	68.44
222.451	11.09
222.669	17.24
222.887	4.95
223.105	7
223.323	68.44
223.541	21.33
223.759	62.29
223.977	-36.01
224.195	-44.2
224.413	52.05
224.631	35.67
224.849	2.9
225.067	62.29
225.285	9.05
225.503	4.95
225.721	37.72
225.939	-36.01
226.157	-1.19
226.375	68.44
226.592	7
226.81	-9.39
227.028	-7.34
227.246	2.9
227.464	-13.48
227.682	2.9
227.9	68.44
228.117	13.14
228.335	-38.06
228.553	-42.15
228.771	68.44
228.989	15.19
229.206	-21.67
229.424	13.14
229.642	-1.19
229.86	-1.19
230.077	78.68
230.295	50
230.513	43.86
230.731	45.91
230.948	39.76
231.166	-13.48
231.384	39.76
231.601	-19.63
231.819	33.62
232.037	-36.01
232.254	84.82
232.472	62.29
232.689	72.53
232.907	56.15
233.125	21.33
233.342	33.62
233.56	39.76
233.777	-9.39
233.995	-13.48
234.213	-70.83
234.43	45.91
234.648	2.9
234.865	-38.06
235.083	76.63
235.3	23.38
235.518	52.05
235.735	33.62
235.953	-9.39
236.17	7
236.388	105.3
236.605	23.38
236.822	-1.19
237.04	-19.63
237.257	19.29
237.475	4.95
237.692	50
237.909	45.91
238.127	-17.58
238.344	72.53
238.562	52.05
238.779	0.85
238.996	23.38
239.214	37.72
239.431	-7.34
239.648	4.95
239.865	9.05
240.083	76.63
240.3	60.24
240.517	66.39
240.735	21.33
240.952	-21.67
241.169	70.48
241.386	-38.06
241.603	-33.96
241.821	99.16
242.038	9.05
242.255	35.67
242.472	-58.54
242.689	11.09
242.907	19.29
243.124	64.34
243.341	-52.39
243.558	29.52
243.775	78.68
243.992	-38.06
244.209	41.81
244.426	0.85
244.643	17.24
244.86	78.68
245.078	88.92
245.295	-1.19
245.512	19.29
245.729	-58.54
245.946	15.19
246.163	-25.77
246.38	-56.49
246.597	64.34
246.814	-23.72
247.031	-25.77
247.248	-21.67
247.464	33.62
247.681	64.34
247.898	-11.43
248.115	21.33
248.332	15.19
248.549	15.19
248.766	29.52
248.983	43.86
249.2	-5.29
249.417	-48.3
249.633	9.05
249.85	25.43
250.067	15.19
250.284	103.25
250.501	52.05
250.717	29.52
250.934	25.43
251.151	19.29
251.368	47.96
251.585	33.62
251.801	-13.48
252.018	-33.96
252.235	7
252.451	80.72
252.668	82.77
252.885	-3.24
253.102	31.57
253.318	-1.19
253.535	-7.34
253.752	-21.67
253.968	37.72
254.185	9.05
254.401	39.76
254.618	43.86
254.835	-38.06
255.051	19.29
255.268	76.63
255.484	11.09
255.701	66.39
255.917	17.24
256.134	15.19
256.351	39.76
256.567	37.72
256.784	25.43
257	25.43
257.217	58.2
257.433	-42.15
257.65	0.85
257.866	25.43
258.082	0.85
258.299	-29.87
258.515	64.34
258.732	-44.2
258.948	27.48
259.165	-56.49
259.381	23.38
259.597	70.48
259.814	-42.15
260.03	-7.34
260.246	23.38
260.463	4.95
260.679	0.85
260.895	-5.29
261.112	62.29
261.328	-7.34
261.544	-38.06
261.761	13.14
261.977	4.95
262.193	0.85
262.409	11.09
262.626	-13.48
262.842	2.9
263.058	21.33
263.274	-5.29
263.49	54.1
263.707	-9.39
263.923	52.05
264.139	-3.24
264.355	-1.19
264.571	78.68
264.787	25.43
265.004	39.76
265.22	7
265.436	13.14
265.652	-13.48
265.868	2.9
266.084	9.05
266.3	19.29
266.516	17.24
266.732	70.48
266.948	-9.39
267.164	-54.44
267.38	15.19
267.596	68.44
267.812	62.29
268.028	52.05
268.244	37.72
268.46	41.81
268.676	21.33
268.892	62.29
269.108	29.52
269.324	-23.72
269.54	43.86
269.756	25.43
269.972	-23.72
270.188	62.29
270.403	45.91
270.619	2.9
270.835	25.43
271.051	-5.29
271.267	17.24
271.483	23.38
271.698	19.29
271.914	82.77
272.13	25.43
272.346	23.38
272.562	9.05
272.777	-9.39
272.993	-50.35
273.209	2.9
273.425	-36.01
273.64	47.96
273.856	15.19
274.072	-9.39
274.287	-7.34
274.503	41.81
274.719	56.15
274.934	23.38
275.15	-25.77
275.366	45.91
275.581	-27.82
275.797	45.91
276.012	15.19
276.228	29.52
276.444	19.29
276.659	76.63
276.875	11.09
277.09	84.82
277.306	33.62
277.521	7
277.737	66.39
277.952	15.19
278.168	-5.29
278.383	-9.39
278.599	31.57
278.814	23.38
279.03	17.24
279.245	21.33
279.461	62.29
279.676	23.38
279.892	4.95
280.107	33.62
280.322	-5.29
280.538	56.15
280.753	0.85
280.969	60.24
281.184	9.05
281.399	27.48
281.615	15.19
281.83	39.76
282.045	-17.58
282.26	41.81
282.476	2.9
282.691	62.29
282.906	52.05
283.122	33.62
283.337	-25.77
283.552	-25.77
283.767	56.15
283.983	-11.43
284.198	33.62
284.413	43.86
284.628	-15.53
284.843	39.76
285.058	29.52
285.274	17.24
285.489	-3.24
285.704	66.39
285.919	17.24
286.134	21.33
286.349	23.38
286.564	37.72
286.779	29.52
286.995	25.43
287.21	-38.06
287.425	50
287.64	21.33
287.855	-1.19
288.07	64.34
288.285	9.05
288.5	66.39
288.715	4.95
288.93	-29.87
289.145	-31.91
289.36	35.67
289.575	56.15
289.79	-31.91
290.004	84.82
290.219	19.29
290.434	76.63
290.649	-70.83
290.864	-29.87
291.079	-42.15
291.294	23.38
291.509	90.96
291.724	39.76
291.938	-13.48
292.153	17.24
292.368	2.9
292.583	78.68
292.798	50
293.012	47.96
293.227	-42.15
293.442	60.24
293.657	62.29
293.871	29.52
294.086	-7.34
294.301	37.72
294.516	41.81
294.73	97.11
294.945	-7.34
295.16	-5.29
295.374	-5.29
295.589	-13.48
295.804	23.38
296.018	-1.19
296.233	93.01
296.447	50
296.662	-42.15
296.877	56.15
297.091	2.9
297.306	23.38
297.52	7
297.735	23.38
297.949	52.05
298.164	-5.29
298.378	21.33
298.593	9.05
298.807	-11.43
299.022	39.76
299.236	-23.72
299.451	56.15
299.665	27.48
299.88	95.06
300.094	27.48
300.309	15.19
300.523	-9.39
300.737	0.85
300.952	-5.29
301.166	11.09
301.381	27.48
301.595	54.1
301.809	-11.43
302.024	13.14
302.238	-13.48
302.452	39.76
302.667	7
302.881	15.19
303.095	56.15
303.309	-1.19
303.524	27.48
303.738	37.72
303.952	25.43
304.166	39.76
304.381	25.43
304.595	27.48
304.809	41.81
305.023	105.3
305.237	-27.82
305.452	19.29
305.666	-9.39
305.88	41.81
306.094	29.52
306.308	78.68
306.522	-29.87
306.736	97.11
306.95	-17.58
307.164	-21.67
307.379	47.96
307.593	84.82
307.807	-13.48
308.021	84.82
308.235	35.67
308.449	-7.34
308.663	37.72
308.877	-19.63
309.091	76.63
309.305	-13.48
309.519	-9.39
309.733	25.43
309.947	-5.29
310.161	58.2
310.374	54.1
310.588	88.92
310.802	54.1
311.016	-21.67
311.23	52.05
311.444	-21.67
311.658	35.67
311.872	15.19
312.085	50
312.299	13.14
312.513	-54.44
312.727	-1.19
312.941	-11.43
313.154	29.52
313.368	88.92
313.582	35.67
313.796	-68.78
314.009	35.67
314.223	70.48
314.437	33.62
314.651	29.52
314.864	50
315.078	-21.67
315.292	93.01
315.505	-25.77
315.719	33.62
315.933	52.05
316.146	47.96
316.36	25.43
316.573	41.81
316.787	-9.39
317.001	-3.24
317.214	-29.87
317.428	13.14
317.641	17.24
317.855	60.24
318.068	-15.53
318.282	35.67
318.495	-11.43
318.709	76.63
318.922	-29.87
319.136	-36.01
319.349	47.96
319.563	13.14
319.776	62.29
319.99	27.48
320.203	7
320.417	80.72
320.63	47.96
320.843	68.44
321.057	-54.44
321.27	0.85
321.483	13.14
321.697	25.43
321.91	41.81
322.124	47.96
322.337	4.95
322.55	68.44
322.763	88.92
322.977	47.96
323.19	-33.96
323.403	31.57
323.617	29.52
323.83	78.68
324.043	52.05
324.256	56.15
324.469	88.92
324.683	-58.54
324.896	50
325.109	50
325.322	-21.67
325.535	-13.48
325.748	64.34
325.962	27.48
326.175	35.67
326.388	50
326.601	-70.83
326.814	-15.53
327.027	31.57
327.24	70.48
327.453	-68.78
327.666	-3.24
327.879	-50.35
328.092	0.85
328.305	-13.48
328.518	-42.15
328.731	-3.24
328.944	21.33
329.157	35.67
329.37	84.82
329.583	27.48
329.796	78.68
330.009	19.29
330.222	23.38
330.435	23.38
330.648	43.86
330.861	31.57
331.073	21.33
331.286	21.33
331.499	-70.83
331.712	50
331.925	-40.11
332.138	25.43
332.35	0.85
332.563	-1.19
332.776	56.15
332.989	11.09
333.202	66.39
333.414	33.62
333.627	-7.34
333.84	-13.48
334.053	35.67
334.265	-7.34
334.478	-7.34
334.691	-36.01
334.903	4.95
335.116	-33.96
335.329	33.62
335.541	41.81
335.754	31.57
335.966	-21.67
336.179	68.44
336.392	-11.43
336.604	72.53
336.817	93.01
337.029	45.91
337.242	76.63
337.454	90.96
337.667	62.29
337.88	52.05
338.092	-46.25
338.305	35.67
338.517	-33.96
338.729	31.57
338.942	68.44
339.154	41.81
339.367	-1.19
339.579	-13.48
339.792	50
340.004	-54.44
340.217	68.44
340.429	68.44
340.641	-9.39
340.854	-9.39
341.066	29.52
341.278	11.09
341.491	29.52
341.703	84.82
341.915	43.86
342.128	29.52
342.34	7
342.552	62.29
342.764	11.09
342.977	-40.11
343.189	56.15
343.401	41.81
343.613	35.67
343.826	66.39
344.038	11.09
344.25	-3.24
344.462	2.9
344.674	52.05
344.886	39.76
345.099	52.05
345.311	27.48
345.523	7
345.735	11.09
345.947	54.1
346.159	43.86
346.371	33.62
346.583	17.24
346.795	86.87
347.007	-29.87
347.219	27.48
347.431	54.1
347.643	29.52
347.855	-19.63
348.067	80.72
348.279	19.29
348.491	-36.01
348.703	-23.72
348.915	23.38
349.127	-11.43
349.339	7
349.551	45.91
349.763	29.52
349.975	9.05
350.187	13.14
350.399	37.72
350.61	31.57
350.822	-9.39
351.034	45.91
351.246	7
351.458	19.29
351.669	70.48
351.881	54.1
352.093	27.48
352.305	82.77
352.517	19.29
352.728	21.33
352.94	37.72
353.152	17.24
353.363	2.9
353.575	78.68
353.787	15.19
353.999	45.91
354.21	95.06
354.422	-21.67
354.633	19.29
354.845	-13.48
355.057	-33.96
355.268	23.38
355.48	-5.29
355.692	82.77
355.903	-85.16
356.115	66.39
356.326	9.05
356.538	105.3
356.749	52.05
356.961	23.38
357.172	21.33
357.384	133.97
357.595	78.68
357.807	13.14
358.018	11.09
358.23	101.2
358.441	52.05
358.653	4.95
358.864	17.24
359.075	35.67
359.287	68.44
359.498	11.09
359.709	13.14
359.921	7
360.132	-5.29
360.344	62.29
360.555	86.87
360.766	31.57
360.977	50
361.189	11.09
361.4	31.57
361.611	76.63
361.823	-9.39
362.034	66.39
362.245	-15.53
362.456	-17.58
362.667	25.43
362.879	7
363.09	-25.77
363.301	0.85
363.512	-3.24
363.723	23.38
363.935	0.85
364.146	-7.34
364.357	17.24
364.568	54.1
364.779	-56.49
364.99	13.14
365.201	56.15
365.412	29.52
365.623	50
365.834	-50.35
366.045	41.81
366.256	15.19
366.467	68.44
366.678	52.05
366.889	43.86
367.1	43.86
367.311	11.09
367.522	37.72
367.733	23.38
367.944	95.06
368.155	9.05
368.366	64.34
368.577	25.43
368.788	-13.48
368.999	33.62
369.209	2.9
369.42	15.19
369.631	35.67
369.842	52.05
370.053	-19.63
370.264	47.96
370.474	-36.01
370.685	31.57
370.896	-11.43
371.107	-1.19
371.317	97.11
371.528	-5.29
371.739	-13.48
371.95	66.39
372.16	17.24
372.371	-36.01
372.582	9.05
372.792	11.09
373.003	27.48
373.214	29.52
373.424	43.86
373.635	31.57
373.846	86.87
374.056	21.33
374.267	64.34
374.477	50
374.688	54.1
374.898	52.05
375.109	111.44
375.319	9.05
375.53	45.91
375.74	84.82
375.951	76.63
376.161	70.48
376.372	56.15
376.582	2.9
376.793	43.86
377.003	-19.63
377.214	78.68
377.424	95.06
377.635	-58.54
377.845	13.14
378.055	99.16
378.266	54.1
378.476	23.38
378.686	29.52
378.897	78.68
379.107	-1.19
379.317	54.1
379.528	84.82
379.738	39.76
379.948	7
380.158	74.58
380.369	50
380.579	33.62
380.789	35.67
380.999	-11.43
381.21	52.05
381.42	21.33
381.63	74.58
381.84	109.4
382.05	-33.96
382.261	0.85
382.471	-25.77
382.681	-15.53
382.891	13.14
383.101	-21.67
383.311	-19.63
383.521	-38.06
383.731	58.2
383.941	37.72
384.151	19.29
384.361	-25.77
384.571	56.15
384.781	76.63
384.991	19.29
385.201	35.67
385.411	45.91
385.621	21.33
385.831	37.72
386.041	95.06
386.251	11.09
386.461	35.67
386.671	-44.2
386.881	19.29
387.091	35.67
387.301	39.76
387.511	93.01
387.72	54.1
387.93	-60.59
388.14	113.49
388.35	21.33
388.56	60.24
388.769	43.86
388.979	56.15
389.189	21.33
389.399	-40.11
389.609	29.52
389.818	101.2
390.028	74.58
390.238	41.81
390.447	107.35
390.657	62.29
390.867	27.48
391.076	60.24
391.286	68.44
391.496	90.96
391.705	50
391.915	64.34
392.125	43.86
392.334	27.48
392.544	2.9
392.753	-58.54
392.963	68.44
393.172	39.76
393.382	45.91
393.591	27.48
393.801	27.48
394.01	86.87
394.22	17.24
394.429	27.48
394.639	11.09
394.848	11.09
395.058	7
395.267	0.85
395.477	60.24
395.686	56.15
395.895	45.91
396.105	56.15
396.314	11.09
396.524	45.91
396.733	-27.82
396.942	62.29
397.152	127.83
397.361	93.01
397.57	21.33
397.78	21.33
397.989	0.85
398.198	56.15
398.407	60.24
398.617	23.38
398.826	97.11
399.035	62.29
399.244	43.86
399.453	136.02
399.663	107.35
399.872	113.49
400.081	41.81
400.29	82.77
400.499	54.1
400.708	74.58
400.917	140.12
401.127	164.69
401.336	35.67
401.545	142.16
401.754	109.4
401.963	95.06
402.172	19.29
402.381	80.72
402.59	86.87
402.799	80.72
403.008	119.64
403.217	113.49
403.426	119.64
403.635	127.83
403.844	56.15
404.053	47.96
404.262	86.87
404.471	107.35
404.68	25.43
404.888	60.24
405.097	109.4
405.306	131.92
405.515	121.68
405.724	78.68
405.933	156.5
406.142	115.54
406.35	117.59
406.559	162.64
406.768	88.92
406.977	97.11
407.185	93.01
407.394	174.93
407.603	170.83
407.812	213.84
408.02	107.35
408.229	176.98
408.438	133.97
408.646	131.92
408.855	117.59
409.064	168.79
409.272	109.4
409.481	256.85
409.69	115.54
409.898	154.45
410.107	181.07
410.315	275.28
410.524	187.22
410.733	224.08
410.941	207.7
411.15	181.07
411.358	267.09
411.567	246.61
411.775	254.8
411.984	291.66
412.192	273.23
412.401	308.05
412.609	308.05
412.818	324.43
413.026	291.66
413.234	340.82
413.443	330.58
413.651	408.4
413.86	367.44
414.068	361.3
414.276	414.54
414.485	406.35
414.693	398.16
414.901	478.03
415.11	424.78
415.318	457.55
415.526	465.74
415.734	506.7
415.943	465.74
416.151	502.61
416.359	523.09
416.567	549.71
416.776	555.85
416.984	555.85
417.192	574.28
417.4	586.57
417.608	621.39
417.817	676.68
418.025	656.2
418.233	764.75
418.441	676.68
418.649	826.18
418.857	875.34
419.065	867.14
419.273	863.05
419.481	924.49
419.689	848.71
419.897	918.34
420.105	947.01
420.313	1076.04
420.521	1092.42
420.729	1022.79
420.937	1028.93
421.145	1092.42
421.353	1104.71
421.561	1229.63
421.769	1250.11
421.977	1233.73
422.185	1166.15
422.393	1401.66
422.601	1401.66
422.809	1481.53
423.017	1436.48
423.224	1461.06
423.432	1669.95
423.64	1487.68
423.848	1729.34
424.056	1583.93
424.263	1764.15
424.471	1686.33
424.679	1784.63
424.887	1891.13
425.094	1993.53
425.302	1983.29
425.51	2077.49
425.718	2093.88
425.925	2151.22
426.133	2167.6
426.341	2341.68
426.548	2503.47
426.756	2458.42
426.964	2472.75
427.171	2583.34
427.379	2601.77
427.586	2706.22
427.794	2835.24
428.001	2960.17
428.209	3076.9
428.417	3027.75
428.624	3167.01
428.832	3277.6
429.039	3210.02
429.247	3150.63
429.454	3623.71
429.662	3707.68
429.869	3463.97
430.076	3754.78
430.284	3619.61
430.491	3722.01
430.699	3904.28
430.906	3969.82
431.114	4113.17
431.321	4324.12
431.528	4455.19
431.736	4582.16
431.943	4707.09
432.15	4604.69
432.358	4686.61
432.565	4969.23
432.772	4944.65
432.979	5133.06
433.187	5225.22
433.394	5237.51
433.601	5479.17
433.808	5581.57
434.016	5657.34
434.223	5913.34
434.43	6066.94
434.637	6050.55
434.844	6556.4
435.052	6593.26
435.259	6367.99
435.466	6460.15
435.673	6621.94
435.88	6925.04
436.087	7258.85
436.294	7385.83
436.501	7156.46
436.708	7373.54
436.915	7727.84
437.122	7893.72
437.329	7871.2
437.537	7989.98
437.743	8217.3
437.95	8207.06
438.157	8430.29
438.364	8932.05
438.571	8714.96
438.778	8893.13
438.985	9847.49
439.192	9454.28
439.399	9673.41
439.606	9546.44
439.813	9921.21
440.02	10521.27
440.227	10160.83
440.433	10150.59
440.64	10771.12
440.847	10586.8
441.054	10801.84
441.261	11573.92
441.467	11395.75
441.674	11756.19
441.881	12040.86
442.088	12141.21
442.294	11707.04
442.501	12094.11
442.708	12464.79
442.914	13206.16
443.121	13560.45
443.328	13271.69
443.534	14148.22
443.741	13623.94
443.948	13486.73
444.154	14426.75
444.361	14189.18
444.568	14606.97
444.774	14486.14
444.981	14660.21
445.187	15063.66
445.394	15716.97
445.6	15567.46
445.807	17107.54
446.013	16132.7
446.22	16949.84
446.426	17211.98
446.633	17205.84
446.839	18080.32
447.046	17015.38
447.252	18278.97
447.459	18192.96
447.665	17914.44
447.871	19061.3
448.078	19974.69
448.284	18952.76
448.491	19477.04
448.697	19925.54
448.903	20226.59
449.11	20277.79
449.316	20023.84
449.522	20554.27
449.728	21180.95
449.935	21238.29
450.141	21242.39
450.347	21699.08
450.553	21047.83
450.76	21359.12
450.966	21993.99
451.172	21805.58
451.378	22303.23
451.584	21852.68
451.791	22381.06
451.997	21844.49
452.203	22682.11
452.409	22743.55
452.615	22759.93
452.821	21752.33
453.027	21684.75
453.233	22956.54
453.44	21572.11
453.646	21838.34
453.852	21963.27
454.058	22485.5
454.264	21637.64
454.47	22086.15
454.676	21361.17
454.882	22514.17
455.088	20736.54
455.294	20963.86
455.5	20931.09
455.705	21185.04
455.911	20320.8
456.117	20095.52
456.323	19939.88
456.529	18745.91
456.735	19477.04
456.941	18819.64
457.147	18528.83
457.352	17973.83
457.558	17975.88
457.764	17967.68
457.97	17562.19
458.176	17107.54
458.381	17404.49
458.587	16251.49
458.793	16206.43
458.999	15549.03
459.204	16613.98
459.41	16091.74
459.616	15383.15
459.821	15377
460.027	14998.13
460.233	14758.52
460.438	14105.21
460.644	14105.21
460.85	13806.21
461.055	13361.8
461.261	13425.29
461.466	12257.95
461.672	11993.76
461.878	12802.71
462.083	12057.25
462.289	11838.11
462.494	11711.14
462.7	11061.93
462.905	10984.11
463.111	11229.87
463.316	11289.26
463.522	11092.65
463.727	11084.46
463.932	11145.9
464.138	11139.76
464.343	11051.69
464.549	10900.14
464.754	10994.35
464.959	10955.44
465.165	10863.28
465.37	10310.33
465.575	10275.51
465.781	10449.59
465.986	10414.77
466.191	10353.34
466.397	10199.74
466.602	9759.42
466.807	10023.61
467.012	9986.75
467.218	9790.14
467.423	9816.77
467.628	9767.62
467.833	10273.46
468.038	9841.34
468.244	9566.92
468.449	9923.26
468.654	9693.89
468.859	9616.07
469.064	9470.66
469.269	9059.02
