Data from USB4F104151__160__13-58-42-353.txt Node

Date: Thu Mar 13 13:58:42 EDT 2025
User: louis
Spectrometer: USB4F10415
Trigger mode: 4
Integration Time (sec): 1.000000E-2
Scans to average: 1
Electric dark correction enabled: true
Nonlinearity correction enabled: false
Boxcar width: 0
XAxis mode: Wavelengths
Number of Pixels in Spectrum: 3648
>>>>>Begin Spectral Data<<<<<
178.204	-14.17
178.424	-14.17
178.644	-14.17
178.864	-55.12
179.084	-24.4
179.304	8.36
179.524	-14.17
179.744	-55.12
179.964	37.03
180.184	-28.5
180.404	55.47
180.624	12.46
180.844	-12.12
181.064	59.56
181.283	-28.5
181.503	-38.74
181.723	4.27
181.943	-42.84
182.163	57.51
182.383	-20.31
182.602	57.51
182.822	8.36
183.042	-12.12
183.262	37.03
183.482	16.55
183.701	4.27
183.921	0.17
184.141	6.31
184.361	61.61
184.58	6.31
184.8	45.23
185.02	-26.45
185.239	-1.88
185.459	12.46
185.679	-26.45
185.898	6.31
186.118	4.27
186.338	-8.02
186.557	28.84
186.777	-63.32
186.997	16.55
187.216	65.71
187.436	20.65
187.655	16.55
187.875	-1.88
188.095	37.03
188.314	14.51
188.534	57.51
188.753	-3.93
188.973	-16.21
189.192	20.65
189.412	8.36
189.631	-48.98
189.851	28.84
190.07	-1.88
190.29	0.17
190.509	10.41
190.729	28.84
190.948	67.75
191.168	-57.17
191.387	39.08
191.607	-28.5
191.826	45.23
192.045	14.51
192.265	0.17
192.484	20.65
192.704	4.27
192.923	59.56
193.142	18.6
193.362	-26.45
193.581	82.09
193.8	94.38
194.02	121
194.239	-48.98
194.458	43.18
194.678	-42.84
194.897	69.8
195.116	102.57
195.335	-3.93
195.555	34.99
195.774	86.19
195.993	-26.45
196.212	69.8
196.432	-16.21
196.651	-20.31
196.87	-20.31
197.089	86.19
197.308	77.99
197.528	-12.12
197.747	-59.22
197.966	6.31
198.185	-5.97
198.404	63.66
198.623	32.94
198.842	-28.5
199.062	4.27
199.281	-18.26
199.5	0.17
199.719	-12.12
199.938	-14.17
200.157	53.42
200.376	37.03
200.595	-81.75
200.814	32.94
201.033	41.13
201.252	-5.97
201.471	16.55
201.69	-63.32
201.909	20.65
202.128	-71.51
202.347	45.23
202.566	30.89
202.785	-71.51
203.004	16.55
203.223	75.95
203.442	-24.4
203.661	-3.93
203.879	-10.07
204.098	-28.5
204.317	-22.36
204.536	12.46
204.755	-46.93
204.974	67.75
205.193	-59.22
205.411	75.95
205.63	57.51
205.849	18.6
206.068	45.23
206.287	116.9
206.505	92.33
206.724	37.03
206.943	39.08
207.162	-36.69
207.381	10.41
207.599	6.31
207.818	39.08
208.037	-24.4
208.255	16.55
208.474	-20.31
208.693	-14.17
208.911	-10.07
209.13	0.17
209.349	2.22
209.567	110.76
209.786	39.08
210.005	-20.31
210.223	16.55
210.442	55.47
210.661	-14.17
210.879	28.84
211.098	-5.97
211.316	8.36
211.535	45.23
211.753	49.32
211.972	-16.21
212.191	37.03
212.409	45.23
212.628	24.75
212.846	-34.64
213.065	-30.55
213.283	73.9
213.502	-12.12
213.72	28.84
213.938	-20.31
214.157	53.42
214.375	14.51
214.594	51.37
214.812	4.27
215.031	-10.07
215.249	24.75
215.467	2.22
215.686	-48.98
215.904	32.94
216.122	4.27
216.341	-14.17
216.559	63.66
216.778	51.37
216.996	30.89
217.214	34.99
217.432	55.47
217.651	14.51
217.869	24.75
218.087	-14.17
218.306	59.56
218.524	20.65
218.742	4.27
218.96	61.61
219.179	-42.84
219.397	45.23
219.615	-8.02
219.833	84.14
220.051	10.41
220.27	30.89
220.488	-77.65
220.706	-38.74
220.924	26.79
221.142	-16.21
221.36	20.65
221.578	37.03
221.796	4.27
222.015	8.36
222.233	-10.07
222.451	45.23
222.669	-10.07
222.887	39.08
223.105	51.37
223.323	41.13
223.541	12.46
223.759	4.27
223.977	26.79
224.195	55.47
224.413	-14.17
224.631	14.51
224.849	-51.03
225.067	47.27
225.285	22.7
225.503	43.18
225.721	16.55
225.939	-30.55
226.157	10.41
226.375	67.75
226.592	8.36
226.81	24.75
227.028	-5.97
227.246	24.75
227.464	-22.36
227.682	12.46
227.9	-48.98
228.117	4.27
228.335	22.7
228.553	71.85
228.771	108.71
228.989	77.99
229.206	67.75
229.424	14.51
229.642	16.55
229.86	43.18
230.077	6.31
230.295	-8.02
230.513	6.31
230.731	112.81
230.948	55.47
231.166	108.71
231.384	10.41
231.601	45.23
231.819	14.51
232.037	108.71
232.254	-59.22
232.472	71.85
232.689	12.46
232.907	41.13
233.125	24.75
233.342	-1.88
233.56	28.84
233.777	55.47
233.995	49.32
234.213	-10.07
234.43	0.17
234.648	28.84
234.865	-20.31
235.083	49.32
235.3	-59.22
235.518	6.31
235.735	14.51
235.953	61.61
236.17	0.17
236.388	-10.07
236.605	4.27
236.822	73.9
237.04	77.99
237.257	-18.26
237.475	69.8
237.692	20.65
237.909	-36.69
238.127	-24.4
238.344	53.42
238.562	37.03
238.779	-30.55
238.996	77.99
239.214	-20.31
239.431	28.84
239.648	30.89
239.865	49.32
240.083	4.27
240.3	10.41
240.517	24.75
240.735	-40.79
240.952	-12.12
241.169	69.8
241.386	69.8
241.603	77.99
241.821	14.51
242.038	49.32
242.255	30.89
242.472	20.65
242.689	43.18
242.907	45.23
243.124	45.23
243.341	-12.12
243.558	-38.74
243.775	14.51
243.992	20.65
244.209	-12.12
244.426	-1.88
244.643	67.75
244.86	28.84
245.078	65.71
245.295	-61.27
245.512	65.71
245.729	57.51
245.946	-32.6
246.163	-5.97
246.38	90.28
246.597	-26.45
246.814	30.89
247.031	12.46
247.248	-38.74
247.464	16.55
247.681	45.23
247.898	8.36
248.115	69.8
248.332	4.27
248.549	69.8
248.766	-40.79
248.983	16.55
249.2	-12.12
249.417	24.75
249.633	8.36
249.85	94.38
250.067	41.13
250.284	32.94
250.501	30.89
250.717	20.65
250.934	-22.36
251.151	73.9
251.368	57.51
251.585	28.84
251.801	-12.12
252.018	-20.31
252.235	4.27
252.451	-18.26
252.668	-32.6
252.885	12.46
253.102	-10.07
253.318	28.84
253.535	-14.17
253.752	0.17
253.968	4.27
254.185	32.94
254.401	22.7
254.618	-24.4
254.835	-3.93
255.051	34.99
255.268	24.75
255.484	102.57
255.701	57.51
255.917	-40.79
256.134	55.47
256.351	2.22
256.567	-71.51
256.784	-28.5
257	-12.12
257.217	-1.88
257.433	-18.26
257.65	0.17
257.866	30.89
258.082	20.65
258.299	-40.79
258.515	-24.4
258.732	0.17
258.948	2.22
259.165	4.27
259.381	12.46
259.597	34.99
259.814	80.04
260.03	-28.5
260.246	45.23
260.463	12.46
260.679	49.32
260.895	4.27
261.112	8.36
261.328	45.23
261.544	24.75
261.761	8.36
261.977	43.18
262.193	41.13
262.409	-20.31
262.626	16.55
262.842	24.75
263.058	61.61
263.274	32.94
263.49	82.09
263.707	20.65
263.923	14.51
264.139	86.19
264.355	-61.27
264.571	-28.5
264.787	6.31
265.004	22.7
265.22	-8.02
265.436	77.99
265.652	47.27
265.868	39.08
266.084	2.22
266.3	-26.45
266.516	39.08
266.732	69.8
266.948	-20.31
267.164	65.71
267.38	-1.88
267.596	37.03
267.812	-10.07
268.028	-22.36
268.244	47.27
268.46	63.66
268.676	-30.55
268.892	-53.08
269.108	-65.36
269.324	32.94
269.54	-12.12
269.756	12.46
269.972	-53.08
270.188	41.13
270.403	63.66
270.619	16.55
270.835	2.22
271.051	18.6
271.267	20.65
271.483	24.75
271.698	32.94
271.914	22.7
272.13	10.41
272.346	18.6
272.562	-24.4
272.777	80.04
272.993	8.36
273.209	-5.97
273.425	-26.45
273.64	32.94
273.856	0.17
274.072	10.41
274.287	-24.4
274.503	30.89
274.719	12.46
274.934	37.03
275.15	20.65
275.366	-30.55
275.581	28.84
275.797	-36.69
276.012	37.03
276.228	26.79
276.444	0.17
276.659	-16.21
276.875	-22.36
277.09	22.7
277.306	-12.12
277.521	69.8
277.737	-30.55
277.952	-1.88
278.168	-20.31
278.383	57.51
278.599	45.23
278.814	49.32
279.03	-5.97
279.245	-12.12
279.461	-5.97
279.676	20.65
279.892	-10.07
280.107	10.41
280.322	-59.22
280.538	41.13
280.753	24.75
280.969	-3.93
281.184	39.08
281.399	28.84
281.615	-22.36
281.83	-5.97
282.045	-34.64
282.26	-38.74
282.476	-5.97
282.691	18.6
282.906	0.17
283.122	26.79
283.337	-20.31
283.552	69.8
283.767	-3.93
283.983	116.9
284.198	-8.02
284.413	69.8
284.628	22.7
284.843	75.95
285.058	-3.93
285.274	45.23
285.489	-22.36
285.704	28.84
285.919	-20.31
286.134	-42.84
286.349	-20.31
286.564	-26.45
286.779	32.94
286.995	-12.12
287.21	24.75
287.425	-20.31
287.64	-12.12
287.855	55.47
288.07	-14.17
288.285	92.33
288.5	-3.93
288.715	-100.18
288.93	6.31
289.145	-12.12
289.36	57.51
289.575	-42.84
289.79	57.51
290.004	4.27
290.219	37.03
290.434	106.67
290.649	47.27
290.864	-5.97
291.079	8.36
291.294	12.46
291.509	8.36
291.724	0.17
291.938	-59.22
292.153	55.47
292.368	-44.88
292.583	24.75
292.798	4.27
293.012	14.51
293.227	-32.6
293.442	10.41
293.657	12.46
293.871	-22.36
294.086	4.27
294.301	14.51
294.516	0.17
294.73	47.27
294.945	-38.74
295.16	37.03
295.374	69.8
295.589	69.8
295.804	43.18
296.018	-20.31
296.233	53.42
296.447	10.41
296.662	43.18
296.877	-18.26
297.091	4.27
297.306	-8.02
297.52	20.65
297.735	77.99
297.949	22.7
298.164	12.46
298.378	6.31
298.593	-22.36
298.807	-8.02
299.022	20.65
299.236	6.31
299.451	61.61
299.665	32.94
299.88	-10.07
300.094	2.22
300.309	14.51
300.523	-53.08
300.737	-3.93
300.952	37.03
301.166	37.03
301.381	43.18
301.595	51.37
301.809	-10.07
302.024	-53.08
302.238	-26.45
302.452	69.8
302.667	16.55
302.881	26.79
303.095	110.76
303.309	2.22
303.524	-8.02
303.738	-24.4
303.952	-1.88
304.166	41.13
304.381	-1.88
304.595	14.51
304.809	-42.84
305.023	45.23
305.237	-28.5
305.452	-26.45
305.666	-28.5
305.88	14.51
306.094	12.46
306.308	63.66
306.522	73.9
306.736	86.19
306.95	20.65
307.164	14.51
307.379	-30.55
307.593	22.7
307.807	2.22
308.021	77.99
308.235	80.04
308.449	69.8
308.663	20.65
308.877	98.47
309.091	-44.88
309.305	10.41
309.519	43.18
309.733	47.27
309.947	14.51
310.161	71.85
310.374	14.51
310.588	4.27
310.802	43.18
311.016	6.31
311.23	-16.21
311.444	-22.36
311.658	-3.93
311.872	24.75
312.085	53.42
312.299	53.42
312.513	-1.88
312.727	8.36
312.941	-18.26
313.154	-1.88
313.368	-51.03
313.582	-3.93
313.796	12.46
314.009	-40.79
314.223	88.23
314.437	-10.07
314.651	20.65
314.864	-44.88
315.078	45.23
315.292	47.27
315.505	24.75
315.719	39.08
315.933	-30.55
316.146	41.13
316.36	-20.31
316.573	77.99
316.787	75.95
317.001	53.42
317.214	4.27
317.428	-12.12
317.641	34.99
317.855	4.27
318.068	14.51
318.282	26.79
318.495	47.27
318.709	-18.26
318.922	4.27
319.136	32.94
319.349	10.41
319.563	-30.55
319.776	43.18
319.99	-32.6
320.203	69.8
320.417	51.37
320.63	-46.93
320.843	86.19
321.057	34.99
321.27	43.18
321.483	80.04
321.697	57.51
321.91	75.95
322.124	41.13
322.337	24.75
322.55	53.42
322.763	69.8
322.977	4.27
323.19	2.22
323.403	16.55
323.617	45.23
323.83	12.46
324.043	43.18
324.256	14.51
324.469	8.36
324.683	28.84
324.896	-14.17
325.109	45.23
325.322	18.6
325.535	43.18
325.748	24.75
325.962	28.84
326.175	73.9
326.388	-42.84
326.601	30.89
326.814	80.04
327.027	-34.64
327.24	37.03
327.453	37.03
327.666	28.84
327.879	14.51
328.092	39.08
328.305	53.42
328.518	110.76
328.731	6.31
328.944	2.22
329.157	57.51
329.37	45.23
329.583	4.27
329.796	84.14
330.009	-10.07
330.222	90.28
330.435	-3.93
330.648	49.32
330.861	39.08
331.073	20.65
331.286	65.71
331.499	-3.93
331.712	8.36
331.925	6.31
332.138	110.76
332.35	-42.84
332.563	28.84
332.776	63.66
332.989	49.32
333.202	-26.45
333.414	57.51
333.627	34.99
333.84	-24.4
334.053	32.94
334.265	8.36
334.478	28.84
334.691	34.99
334.903	12.46
335.116	77.99
335.329	71.85
335.541	14.51
335.754	-36.69
335.966	0.17
336.179	20.65
336.392	2.22
336.604	39.08
336.817	-28.5
337.029	2.22
337.242	-40.79
337.454	67.75
337.667	24.75
337.88	45.23
338.092	-24.4
338.305	20.65
338.517	-69.46
338.729	20.65
338.942	53.42
339.154	45.23
339.367	-1.88
339.579	88.23
339.792	-26.45
340.004	28.84
340.217	2.22
340.429	-53.08
340.641	-20.31
340.854	37.03
341.066	4.27
341.278	30.89
341.491	32.94
341.703	2.22
341.915	16.55
342.128	-1.88
342.34	-46.93
342.552	41.13
342.764	-18.26
342.977	57.51
343.189	59.56
343.401	43.18
343.613	63.66
343.826	80.04
344.038	37.03
344.25	57.51
344.462	-51.03
344.674	20.65
344.886	-20.31
345.099	34.99
345.311	16.55
345.523	22.7
345.735	30.89
345.947	37.03
346.159	37.03
346.371	53.42
346.583	129.19
346.795	75.95
347.007	-24.4
347.219	88.23
347.431	-28.5
347.643	32.94
347.855	-77.65
348.067	84.14
348.279	-10.07
348.491	-1.88
348.703	30.89
348.915	49.32
349.127	39.08
349.339	32.94
349.551	67.75
349.763	20.65
349.975	-10.07
350.187	16.55
350.399	-32.6
350.61	127.14
350.822	45.23
351.034	37.03
351.246	24.75
351.458	69.8
351.669	90.28
351.881	2.22
352.093	51.37
352.305	53.42
352.517	30.89
352.728	24.75
352.94	90.28
353.152	77.99
353.363	6.31
353.575	24.75
353.787	28.84
353.999	37.03
354.21	65.71
354.422	14.51
354.633	22.7
354.845	30.89
355.057	14.51
355.268	10.41
355.48	6.31
355.692	61.61
355.903	45.23
356.115	-65.36
356.326	75.95
356.538	28.84
356.749	96.43
356.961	-10.07
357.172	37.03
357.384	-26.45
357.595	14.51
357.807	14.51
358.018	-57.17
358.23	2.22
358.441	75.95
358.653	30.89
358.864	-10.07
359.075	-10.07
359.287	34.99
359.498	41.13
359.709	86.19
359.921	96.43
360.132	28.84
360.344	37.03
360.555	4.27
360.766	55.47
360.977	16.55
361.189	63.66
361.4	-46.93
361.611	47.27
361.823	86.19
362.034	55.47
362.245	41.13
362.456	55.47
362.667	57.51
362.879	86.19
363.09	37.03
363.301	-32.6
363.512	47.27
363.723	47.27
363.935	22.7
364.146	37.03
364.357	-26.45
364.568	28.84
364.779	45.23
364.99	69.8
365.201	4.27
365.412	4.27
365.623	53.42
365.834	45.23
366.045	-48.98
366.256	12.46
366.467	55.47
366.678	12.46
366.889	39.08
367.1	59.56
367.311	-10.07
367.522	65.71
367.733	61.61
367.944	80.04
368.155	28.84
368.366	12.46
368.577	61.61
368.788	69.8
368.999	-36.69
369.209	-14.17
369.42	28.84
369.631	-30.55
369.842	16.55
370.053	-8.02
370.264	6.31
370.474	26.79
370.685	34.99
370.896	39.08
371.107	47.27
371.317	55.47
371.528	8.36
371.739	12.46
371.95	108.71
372.16	-36.69
372.371	8.36
372.582	77.99
372.792	0.17
373.003	16.55
373.214	67.75
373.424	75.95
373.635	-42.84
373.846	53.42
374.056	43.18
374.267	47.27
374.477	49.32
374.688	22.7
374.898	77.99
375.109	-55.12
375.319	16.55
375.53	20.65
375.74	73.9
375.951	47.27
376.161	80.04
376.372	32.94
376.582	77.99
376.793	43.18
377.003	49.32
377.214	80.04
377.424	16.55
377.635	90.28
377.845	-8.02
378.055	45.23
378.266	55.47
378.476	53.42
378.686	61.61
378.897	18.6
379.107	20.65
379.317	118.95
379.528	4.27
379.738	63.66
379.948	39.08
380.158	39.08
380.369	43.18
380.579	45.23
380.789	67.75
380.999	30.89
381.21	-1.88
381.42	69.8
381.63	16.55
381.84	90.28
382.05	53.42
382.261	-20.31
382.471	75.95
382.681	71.85
382.891	6.31
383.101	61.61
383.311	80.04
383.521	-51.03
383.731	63.66
383.941	45.23
384.151	129.19
384.361	12.46
384.571	-1.88
384.781	73.9
384.991	24.75
385.201	24.75
385.411	37.03
385.621	2.22
385.831	37.03
386.041	41.13
386.251	73.9
386.461	8.36
386.671	110.76
386.881	6.31
387.091	2.22
387.301	57.51
387.511	30.89
387.72	41.13
387.93	57.51
388.14	80.04
388.35	14.51
388.56	57.51
388.769	80.04
388.979	28.84
389.189	-20.31
389.399	80.04
389.609	14.51
389.818	-1.88
390.028	18.6
390.238	37.03
390.447	6.31
390.657	43.18
390.867	80.04
391.076	-20.31
391.286	6.31
391.496	108.71
391.705	88.23
391.915	37.03
392.125	41.13
392.334	55.47
392.544	55.47
392.753	110.76
392.963	28.84
393.172	34.99
393.382	43.18
393.591	164.01
393.801	53.42
394.01	86.19
394.22	12.46
394.429	26.79
394.639	75.95
394.848	53.42
395.058	4.27
395.267	-18.26
395.477	116.9
395.686	45.23
395.895	63.66
396.105	88.23
396.314	65.71
396.524	69.8
396.733	28.84
396.942	-3.93
397.152	20.65
397.361	106.67
397.57	69.8
397.78	53.42
397.989	26.79
398.198	102.57
398.407	94.38
398.617	28.84
398.826	14.51
399.035	55.47
399.244	16.55
399.453	137.38
399.663	69.8
399.872	88.23
400.081	37.03
400.29	86.19
400.499	59.56
400.708	80.04
400.917	63.66
401.127	98.47
401.336	96.43
401.545	77.99
401.754	100.52
401.963	32.94
402.172	90.28
402.381	59.56
402.59	88.23
402.799	121
403.008	86.19
403.217	131.24
403.426	67.75
403.635	94.38
403.844	61.61
404.053	129.19
404.262	121
404.471	63.66
404.68	127.14
404.888	45.23
405.097	98.47
405.306	114.86
405.515	37.03
405.724	194.73
405.933	86.19
406.142	168.1
406.35	82.09
406.559	110.76
406.768	135.34
406.977	92.33
407.185	110.76
407.394	168.1
407.603	166.06
407.812	247.97
408.02	157.86
408.229	174.25
408.438	141.48
408.646	194.73
408.855	174.25
409.064	166.06
409.272	282.79
409.481	198.82
409.69	155.82
409.898	164.01
410.107	176.3
410.315	274.6
410.524	239.78
410.733	198.82
410.941	290.98
411.15	309.41
411.358	241.83
411.567	243.88
411.775	284.84
411.984	270.5
412.192	342.18
412.401	348.33
412.609	268.45
412.818	348.33
413.026	377
413.234	426.15
413.443	397.48
413.651	356.52
413.86	467.11
414.068	381.09
414.276	518.31
414.485	469.16
414.693	503.97
414.901	506.02
415.11	495.78
415.318	553.12
415.526	508.07
415.734	643.23
415.943	526.5
416.151	651.42
416.359	540.83
416.567	587.94
416.776	669.86
416.984	719.01
417.192	780.45
417.4	694.43
417.608	655.52
417.817	768.16
418.025	825.5
418.233	874.65
418.441	782.49
418.649	843.93
418.857	962.72
419.065	1009.82
419.273	954.52
419.481	944.28
419.689	1116.31
419.897	1101.98
420.105	1128.6
420.313	1104.03
420.521	1175.7
420.729	1194.14
420.937	1290.39
421.145	1296.53
421.353	1396.89
421.561	1384.6
421.769	1495.19
421.977	1511.57
422.185	1431.7
422.393	1478.8
422.601	1630.35
422.809	1593.49
423.017	1622.16
423.224	1814.67
423.432	1761.42
423.64	1771.66
423.848	1935.5
424.056	2011.28
424.263	2056.33
424.471	2056.33
424.679	2097.29
424.887	2314.38
425.094	2271.37
425.302	2326.66
425.51	2359.43
425.718	2496.64
425.925	2441.35
426.133	2666.63
426.341	2771.07
426.548	2863.23
426.756	2891.9
426.964	2910.33
427.171	3125.37
427.379	3059.84
427.586	3180.67
427.794	3250.3
428.001	3479.67
428.209	3698.8
428.417	3516.53
428.624	3852.4
428.832	3706.99
429.039	3690.61
429.247	3823.73
429.454	4024.43
429.662	4298.86
429.869	4042.86
430.076	4274.28
430.284	4255.85
430.491	4497.51
430.699	4802.66
430.906	4587.62
431.114	4757.6
431.321	4837.47
431.528	5099.61
431.736	5392.47
431.943	5613.65
432.15	5462.1
432.358	5539.93
432.565	5783.63
432.772	5855.31
432.979	6021.2
433.187	6264.91
433.394	6107.21
433.601	6662.21
433.808	6584.39
434.016	6537.29
434.223	6836.29
434.43	7311.42
434.637	7120.96
434.844	7583.8
435.052	7899.19
435.259	7641.14
435.466	7774.26
435.673	7845.94
435.88	8194.09
436.087	8489
436.294	8671.27
436.501	8507.43
436.708	8427.56
436.915	8796.2
437.122	9113.63
437.329	9300
437.537	9564.18
437.743	9678.87
437.95	9664.54
438.157	10047.51
438.364	10250.25
438.571	10366.99
438.778	10620.94
438.985	11194.37
439.192	10999.81
439.399	11313.15
439.606	11012.1
439.813	11606.01
440.02	12410.86
440.227	12113.91
440.433	12046.32
440.64	12468.2
440.847	12396.53
441.054	12709.86
441.261	13404.13
441.467	13365.21
441.674	13733.85
441.881	14137.3
442.088	14157.78
442.294	14133.2
442.501	14077.91
442.708	14596.04
442.914	15085.51
443.121	15947.7
443.328	15263.68
443.534	16508.85
443.741	16068.53
443.948	15775.67
444.154	16961.45
444.361	16922.54
444.568	16889.77
444.774	16789.42
444.981	17414.05
445.187	17682.33
445.394	18071.45
445.6	18175.89
445.807	19838.84
446.013	19044.23
446.22	19425.15
446.426	19976.06
446.633	20074.36
446.839	20946.8
447.046	20143.99
447.252	21274.47
447.459	21258.09
447.665	21149.54
447.871	22153.05
448.078	23170.89
448.284	21811.04
448.491	22429.52
448.697	23273.29
448.903	23715.65
449.11	23961.41
449.316	23668.55
449.522	23873.34
449.728	24753.97
449.935	24747.83
450.141	25044.78
450.347	25190.19
450.553	24317.75
450.76	24805.17
450.966	25532.2
451.172	25290.54
451.378	25743.14
451.584	25358.12
451.791	25693.99
451.997	25775.91
452.203	26365.72
452.409	26595.09
452.615	26181.4
452.821	25048.88
453.027	24811.31
453.233	26134.3
453.44	25231.15
453.646	25333.54
453.852	25603.88
454.058	25968.41
454.264	25100.08
454.47	25683.75
454.676	25116.46
454.882	25646.88
455.088	23678.79
455.294	24059.71
455.5	24536.88
455.705	24461.11
455.911	23486.28
456.117	23301.96
456.323	22916.94
456.529	21503.84
456.735	22589.27
456.941	21817.18
457.147	21413.73
457.352	21034.86
457.558	20563.82
457.764	20875.12
457.97	20680.56
458.176	19806.08
458.381	19863.42
458.587	18835.34
458.793	18812.81
458.999	18073.49
459.204	19193.73
459.41	18718.61
459.616	17432.48
459.821	17575.84
460.027	17508.26
460.233	16957.35
460.438	16390.06
460.644	16293.81
460.85	15476.67
461.055	15484.86
461.261	15251.39
461.466	14184.4
461.672	13785.05
461.878	14942.15
462.083	13582.3
462.289	13432.8
462.494	13512.67
462.7	12691.43
462.905	12392.43
463.111	13000.68
463.316	13127.65
463.522	12670.95
463.727	12781.54
463.932	12777.45
464.138	12716.01
464.343	12736.49
464.549	12351.47
464.754	12873.7
464.959	12658.67
465.165	12662.76
465.37	12021.75
465.575	11847.67
465.781	12257.26
465.986	12296.18
466.191	11917.3
466.397	11681.78
466.602	11032.58
466.807	11612.15
467.012	11503.61
467.218	11345.92
467.423	11327.49
467.628	11335.68
467.833	11999.22
468.038	11503.61
