Data from USB4F104151__12__13-52-19-364.txt Node

Date: Thu Mar 13 13:52:19 EDT 2025
User: louis
Spectrometer: USB4F10415
Trigger mode: 4
Integration Time (sec): 1.000000E-2
Scans to average: 1
Electric dark correction enabled: true
Nonlinearity correction enabled: false
Boxcar width: 0
XAxis mode: Wavelengths
Number of Pixels in Spectrum: 3648
>>>>>Begin Spectral Data<<<<<
178.204	-79.02
178.424	-79.02
178.644	-79.02
178.864	-19.63
179.084	-29.87
179.304	-25.77
179.524	-50.35
179.744	11.09
179.964	-11.43
180.184	-7.34
180.404	54.1
180.624	-7.34
180.844	0.85
181.064	-85.16
181.283	33.62
181.503	21.33
181.723	66.39
181.943	-36.01
182.163	-76.97
182.383	25.43
182.602	2.9
182.822	27.48
183.042	27.48
183.262	-76.97
183.482	76.63
183.701	19.29
183.921	33.62
184.141	-19.63
184.361	-9.39
184.58	-70.83
184.8	-23.72
185.02	-15.53
185.239	29.52
185.459	-52.39
185.679	62.29
185.898	-46.25
186.118	-13.48
186.338	-11.43
186.557	21.33
186.777	-9.39
186.997	33.62
187.216	7
187.436	66.39
187.655	-1.19
187.875	29.52
188.095	-36.01
188.314	31.57
188.534	2.9
188.753	-29.87
188.973	7
189.192	-60.59
189.412	2.9
189.631	54.1
189.851	2.9
190.07	25.43
190.29	-19.63
190.509	25.43
190.729	-42.15
190.948	-1.19
191.168	56.15
191.387	-7.34
191.607	-83.11
191.826	39.76
192.045	-132.26
192.265	-1.19
192.484	-38.06
192.704	45.91
192.923	52.05
193.142	17.24
193.362	-52.39
193.581	66.39
193.8	25.43
194.02	4.95
194.239	9.05
194.458	-27.82
194.678	2.9
194.897	25.43
195.116	43.86
195.335	0.85
195.555	-31.91
195.774	-17.58
195.993	-11.43
196.212	-13.48
196.432	-11.43
196.651	33.62
196.87	-27.82
197.089	13.14
197.308	74.58
197.528	-3.24
197.747	33.62
197.966	-21.67
198.185	35.67
198.404	-60.59
198.623	-36.01
198.842	-33.96
199.062	-83.11
199.281	-15.53
199.5	-66.73
199.719	-3.24
199.938	31.57
200.157	-13.48
200.376	-13.48
200.595	-7.34
200.814	64.34
201.033	41.81
201.252	0.85
201.471	27.48
201.69	37.72
201.909	60.24
202.128	29.52
202.347	0.85
202.566	-9.39
202.785	-42.15
203.004	52.05
203.223	-7.34
203.442	27.48
203.661	29.52
203.879	2.9
204.098	-48.3
204.317	21.33
204.536	4.95
204.755	-11.43
204.974	43.86
205.193	47.96
205.411	45.91
205.63	43.86
205.849	17.24
206.068	52.05
206.287	4.95
206.505	-52.39
206.724	-1.19
206.943	64.34
207.162	13.14
207.381	35.67
207.599	21.33
207.818	-40.11
208.037	19.29
208.255	13.14
208.474	-11.43
208.693	-7.34
208.911	60.24
209.13	-11.43
209.349	31.57
209.567	-25.77
209.786	70.48
210.005	4.95
210.223	-46.25
210.442	-44.2
210.661	13.14
210.879	-40.11
211.098	136.02
211.316	7
211.535	25.43
211.753	9.05
211.972	13.14
212.191	9.05
212.409	7
212.628	-52.39
212.846	-56.49
213.065	-9.39
213.283	9.05
213.502	2.9
213.72	19.29
213.938	-9.39
214.157	-11.43
214.375	35.67
214.594	50
214.812	64.34
215.031	17.24
215.249	25.43
215.467	29.52
215.686	35.67
215.904	0.85
216.122	43.86
216.341	-29.87
216.559	-56.49
216.778	13.14
216.996	-13.48
217.214	13.14
217.432	33.62
217.651	-70.83
217.869	-36.01
218.087	17.24
218.306	9.05
218.524	54.1
218.742	25.43
218.96	58.2
219.179	47.96
219.397	29.52
219.615	31.57
219.833	29.52
220.051	-109.74
220.27	29.52
220.488	-3.24
220.706	72.53
220.924	-36.01
221.142	-60.59
221.36	21.33
221.578	-31.91
221.796	9.05
222.015	11.09
222.233	-3.24
222.451	-29.87
222.669	90.96
222.887	-11.43
223.105	43.86
223.323	23.38
223.541	-25.77
223.759	60.24
223.977	25.43
224.195	47.96
224.413	-60.59
224.631	64.34
224.849	9.05
225.067	-7.34
225.285	13.14
225.503	13.14
225.721	39.76
225.939	-46.25
226.157	-9.39
226.375	9.05
226.592	-5.29
226.81	39.76
227.028	21.33
227.246	68.44
227.464	-17.58
227.682	50
227.9	-46.25
228.117	-3.24
228.335	-25.77
228.553	13.14
228.771	11.09
228.989	66.39
229.206	4.95
229.424	33.62
229.642	-13.48
229.86	-83.11
230.077	33.62
230.295	23.38
230.513	-79.02
230.731	39.76
230.948	56.15
231.166	29.52
231.384	-64.68
231.601	58.2
231.819	2.9
232.037	-5.29
232.254	-5.29
232.472	-7.34
232.689	31.57
232.907	21.33
233.125	-11.43
233.342	-23.72
233.56	-42.15
233.777	-68.78
233.995	13.14
234.213	7
234.43	31.57
234.648	7
234.865	-11.43
235.083	-3.24
235.3	13.14
235.518	15.19
235.735	52.05
235.953	0.85
236.17	-19.63
236.388	-31.91
236.605	0.85
236.822	41.81
237.04	21.33
237.257	62.29
237.475	-7.34
237.692	-15.53
237.909	7
238.127	-19.63
238.344	-15.53
238.562	43.86
238.779	56.15
238.996	-33.96
239.214	-29.87
239.431	23.38
239.648	31.57
239.865	-42.15
240.083	-5.29
240.3	19.29
240.517	-5.29
240.735	62.29
240.952	58.2
241.169	62.29
241.386	-60.59
241.603	-48.3
241.821	-54.44
242.038	50
242.255	-29.87
242.472	-36.01
242.689	13.14
242.907	70.48
243.124	-25.77
243.341	11.09
243.558	-23.72
243.775	15.19
243.992	15.19
244.209	9.05
244.426	66.39
244.643	4.95
244.86	-38.06
245.078	7
245.295	9.05
245.512	45.91
245.729	2.9
245.946	-23.72
246.163	0.85
246.38	68.44
246.597	-19.63
246.814	37.72
247.031	4.95
247.248	-42.15
247.464	-5.29
247.681	-48.3
247.898	-9.39
248.115	-21.67
248.332	50
248.549	41.81
248.766	25.43
248.983	21.33
249.2	0.85
249.417	29.52
249.633	9.05
249.85	0.85
250.067	-46.25
250.284	-21.67
250.501	11.09
250.717	-44.2
250.934	4.95
251.151	41.81
251.368	-68.78
251.585	-36.01
251.801	13.14
252.018	27.48
252.235	-25.77
252.451	-3.24
252.668	-52.39
252.885	11.09
253.102	-64.68
253.318	9.05
253.535	0.85
253.752	23.38
253.968	-33.96
254.185	4.95
254.401	17.24
254.618	37.72
254.835	78.68
255.051	58.2
255.268	7
255.484	-3.24
255.701	-25.77
255.917	-17.58
256.134	0.85
256.351	0.85
256.567	-17.58
256.784	88.92
257	76.63
257.217	93.01
257.433	47.96
257.65	29.52
257.866	9.05
258.082	-48.3
258.299	-15.53
258.515	41.81
258.732	-15.53
258.948	17.24
259.165	-5.29
259.381	-7.34
259.597	21.33
259.814	33.62
260.03	37.72
260.246	-21.67
260.463	-7.34
260.679	31.57
260.895	9.05
261.112	-42.15
261.328	-15.53
261.544	25.43
261.761	17.24
261.977	11.09
262.193	-23.72
262.409	0.85
262.626	17.24
262.842	62.29
263.058	-81.07
263.274	15.19
263.49	-21.67
263.707	-11.43
263.923	13.14
264.139	45.91
264.355	-19.63
264.571	39.76
264.787	-21.67
265.004	-1.19
265.22	31.57
265.436	35.67
265.652	37.72
265.868	-9.39
266.084	-5.29
266.3	27.48
266.516	-15.53
266.732	17.24
266.948	39.76
267.164	33.62
267.38	-19.63
267.596	-1.19
267.812	-62.63
268.028	27.48
268.244	-36.01
268.46	54.1
268.676	-89.26
268.892	31.57
269.108	13.14
269.324	-29.87
269.54	-54.44
269.756	-3.24
269.972	11.09
270.188	84.82
270.403	-9.39
270.619	37.72
270.835	39.76
271.051	-36.01
271.267	29.52
271.483	27.48
271.698	74.58
271.914	76.63
272.13	11.09
272.346	13.14
272.562	-3.24
272.777	-40.11
272.993	-38.06
273.209	27.48
273.425	-7.34
273.64	-50.35
273.856	13.14
274.072	-46.25
274.287	17.24
274.503	88.92
274.719	-21.67
274.934	-40.11
275.15	-5.29
275.366	52.05
275.581	-29.87
275.797	-21.67
276.012	23.38
276.228	-15.53
276.444	-7.34
276.659	62.29
276.875	-11.43
277.09	19.29
277.306	-9.39
277.521	41.81
277.737	-5.29
277.952	56.15
278.168	-19.63
278.383	86.87
278.599	-91.31
278.814	35.67
279.03	56.15
279.245	72.53
279.461	37.72
279.676	82.77
279.892	-13.48
280.107	-13.48
280.322	29.52
280.538	7
280.753	37.72
280.969	74.58
281.184	7
281.399	17.24
281.615	58.2
281.83	52.05
282.045	-19.63
282.26	97.11
282.476	9.05
282.691	45.91
282.906	0.85
283.122	45.91
283.337	50
283.552	66.39
283.767	17.24
283.983	-33.96
284.198	-36.01
284.413	74.58
284.628	-27.82
284.843	-27.82
285.058	58.2
285.274	66.39
285.489	-27.82
285.704	-13.48
285.919	-29.87
286.134	-25.77
286.349	-56.49
286.564	93.01
286.779	13.14
286.995	33.62
287.21	-52.39
287.425	70.48
287.64	-1.19
287.855	37.72
288.07	50
288.285	58.2
288.5	-42.15
288.715	-21.67
288.93	11.09
289.145	17.24
289.36	-11.43
289.575	-11.43
289.79	37.72
290.004	29.52
290.219	23.38
290.434	37.72
290.649	-40.11
290.864	9.05
291.079	72.53
291.294	31.57
291.509	13.14
291.724	11.09
291.938	19.29
292.153	58.2
292.368	-23.72
292.583	27.48
292.798	-44.2
293.012	19.29
293.227	-17.58
293.442	19.29
293.657	0.85
293.871	60.24
294.086	41.81
294.301	52.05
294.516	31.57
294.73	19.29
294.945	9.05
295.16	19.29
295.374	-23.72
295.589	15.19
295.804	15.19
296.018	78.68
296.233	54.1
296.447	64.34
296.662	-19.63
296.877	-31.91
297.091	-29.87
297.306	-1.19
297.52	-29.87
297.735	17.24
297.949	-56.49
298.164	41.81
298.378	39.76
298.593	74.58
298.807	-15.53
299.022	86.87
299.236	43.86
299.451	45.91
299.665	-23.72
299.88	39.76
300.094	33.62
300.309	-21.67
300.523	4.95
300.737	80.72
300.952	4.95
301.166	43.86
301.381	82.77
301.595	-29.87
301.809	-21.67
302.024	-19.63
302.238	-33.96
302.452	103.25
302.667	-1.19
302.881	13.14
303.095	58.2
303.309	35.67
303.524	58.2
303.738	-29.87
303.952	25.43
304.166	27.48
304.381	-31.91
304.595	0.85
304.809	-54.44
305.023	-7.34
305.237	35.67
305.452	31.57
305.666	39.76
305.88	39.76
306.094	41.81
306.308	-33.96
306.522	-27.82
306.736	41.81
306.95	35.67
307.164	-19.63
307.379	-1.19
307.593	11.09
307.807	68.44
308.021	11.09
308.235	-17.58
308.449	-7.34
308.663	-50.35
308.877	2.9
309.091	11.09
309.305	-3.24
309.519	-19.63
309.733	15.19
309.947	-17.58
310.161	39.76
310.374	-11.43
310.588	58.2
310.802	2.9
311.016	68.44
311.23	2.9
311.444	-46.25
311.658	29.52
311.872	45.91
312.085	56.15
312.299	21.33
312.513	35.67
312.727	-11.43
312.941	2.9
313.154	-5.29
313.368	4.95
313.582	43.86
313.796	64.34
314.009	29.52
314.223	-21.67
314.437	58.2
314.651	2.9
314.864	11.09
315.078	2.9
315.292	27.48
315.505	15.19
315.719	-31.91
315.933	52.05
316.146	52.05
316.36	0.85
316.573	-83.11
316.787	39.76
317.001	15.19
317.214	41.81
317.428	0.85
317.641	-11.43
317.855	64.34
318.068	0.85
318.282	47.96
318.495	72.53
318.709	107.35
318.922	-52.39
319.136	-23.72
319.349	-1.19
319.563	-11.43
319.776	19.29
319.99	-1.19
320.203	50
320.417	35.67
320.63	9.05
320.843	41.81
321.057	-13.48
321.27	13.14
321.483	37.72
321.697	21.33
321.91	7
322.124	52.05
322.337	35.67
322.55	11.09
322.763	33.62
322.977	-17.58
323.19	-17.58
323.403	-17.58
323.617	-58.54
323.83	-17.58
324.043	27.48
324.256	64.34
324.469	-27.82
324.683	-38.06
324.896	43.86
325.109	-5.29
325.322	-19.63
325.535	25.43
325.748	-3.24
325.962	31.57
326.175	2.9
326.388	7
326.601	13.14
326.814	64.34
327.027	-13.48
327.24	82.77
327.453	-68.78
327.666	15.19
327.879	66.39
328.092	-9.39
328.305	56.15
328.518	-3.24
328.731	11.09
328.944	7
329.157	47.96
329.37	82.77
329.583	45.91
329.796	31.57
330.009	64.34
330.222	31.57
330.435	-68.78
330.648	19.29
330.861	52.05
331.073	80.72
331.286	19.29
331.499	25.43
331.712	11.09
331.925	-46.25
332.138	88.92
332.35	43.86
332.563	-9.39
332.776	70.48
332.989	-5.29
333.202	-1.19
333.414	72.53
333.627	-5.29
333.84	2.9
334.053	2.9
334.265	50
334.478	86.87
334.691	27.48
334.903	56.15
335.116	-5.29
335.329	82.77
335.541	0.85
335.754	4.95
335.966	-15.53
336.179	54.1
336.392	-3.24
336.604	-23.72
336.817	-72.87
337.029	33.62
337.242	-38.06
337.454	-19.63
337.667	-17.58
337.88	31.57
338.092	17.24
338.305	66.39
338.517	-58.54
338.729	25.43
338.942	64.34
339.154	-7.34
339.367	-11.43
339.579	-3.24
339.792	-36.01
340.004	31.57
340.217	-33.96
340.429	-19.63
340.641	-25.77
340.854	-33.96
341.066	19.29
341.278	15.19
341.491	23.38
341.703	72.53
341.915	37.72
342.128	-7.34
342.34	15.19
342.552	62.29
342.764	29.52
342.977	-11.43
343.189	15.19
343.401	33.62
343.613	-5.29
343.826	93.01
344.038	33.62
344.25	29.52
344.462	62.29
344.674	-44.2
344.886	-25.77
345.099	13.14
345.311	7
345.523	-36.01
345.735	4.95
345.947	-3.24
346.159	-5.29
346.371	2.9
346.583	-23.72
346.795	54.1
347.007	-27.82
347.219	29.52
347.431	19.29
347.643	37.72
347.855	-5.29
348.067	54.1
348.279	-15.53
348.491	7
348.703	27.48
348.915	-29.87
349.127	25.43
349.339	52.05
349.551	17.24
349.763	31.57
349.975	43.86
350.187	29.52
350.399	7
350.61	33.62
350.822	-76.97
351.034	101.2
351.246	-3.24
351.458	41.81
351.669	64.34
351.881	-25.77
352.093	-48.3
352.305	0.85
352.517	41.81
352.728	39.76
352.94	62.29
353.152	31.57
353.363	121.68
353.575	23.38
353.787	-15.53
353.999	70.48
354.21	-36.01
354.422	-31.91
354.633	-13.48
354.845	70.48
355.057	41.81
355.268	0.85
355.48	43.86
355.692	70.48
355.903	7
356.115	62.29
356.326	31.57
356.538	25.43
356.749	-27.82
356.961	43.86
357.172	17.24
357.384	0.85
357.595	52.05
357.807	2.9
358.018	17.24
358.23	-13.48
358.441	66.39
358.653	50
358.864	54.1
359.075	-31.91
359.287	13.14
359.498	58.2
359.709	64.34
359.921	41.81
360.132	43.86
360.344	25.43
360.555	-7.34
360.766	119.64
360.977	64.34
361.189	72.53
361.4	58.2
361.611	-15.53
361.823	23.38
362.034	-5.29
362.245	-48.3
362.456	37.72
362.667	-40.11
362.879	70.48
363.09	-3.24
363.301	25.43
363.512	82.77
363.723	-66.73
363.935	78.68
364.146	19.29
364.357	19.29
364.568	76.63
364.779	60.24
364.99	35.67
365.201	52.05
365.412	72.53
365.623	33.62
365.834	29.52
366.045	-15.53
366.256	19.29
366.467	101.2
366.678	17.24
366.889	-72.87
367.1	19.29
367.311	33.62
367.522	-17.58
367.733	13.14
367.944	35.67
368.155	25.43
368.366	31.57
368.577	-15.53
368.788	99.16
368.999	7
369.209	0.85
369.42	76.63
369.631	66.39
369.842	11.09
370.053	-48.3
370.264	41.81
370.474	82.77
370.685	52.05
370.896	52.05
371.107	50
371.317	-52.39
371.528	23.38
371.739	62.29
371.95	66.39
372.16	19.29
372.371	-23.72
372.582	35.67
372.792	-11.43
373.003	21.33
373.214	19.29
373.424	43.86
373.635	-60.59
373.846	64.34
374.056	17.24
374.267	-7.34
374.477	9.05
374.688	-5.29
374.898	37.72
375.109	0.85
375.319	72.53
375.53	11.09
375.74	11.09
375.951	37.72
376.161	31.57
376.372	27.48
376.582	52.05
376.793	7
377.003	9.05
377.214	80.72
377.424	7
377.635	27.48
377.845	76.63
378.055	45.91
378.266	-29.87
378.476	-27.82
378.686	9.05
378.897	101.2
379.107	15.19
379.317	29.52
379.528	-1.19
379.738	13.14
379.948	41.81
380.158	103.25
380.369	27.48
380.579	27.48
380.789	27.48
380.999	50
381.21	66.39
381.42	72.53
381.63	52.05
381.84	-3.24
382.05	19.29
382.261	50
382.471	62.29
382.681	25.43
382.891	23.38
383.101	25.43
383.311	-11.43
383.521	29.52
383.731	99.16
383.941	-42.15
384.151	35.67
384.361	37.72
384.571	80.72
384.781	50
384.991	27.48
385.201	2.9
385.411	17.24
385.621	29.52
385.831	80.72
386.041	17.24
386.251	23.38
386.461	78.68
386.671	99.16
386.881	70.48
387.091	-29.87
387.301	117.59
387.511	-27.82
387.72	47.96
387.93	119.64
388.14	-72.87
388.35	-7.34
388.56	72.53
388.769	50
388.979	47.96
389.189	52.05
389.399	7
389.609	21.33
389.818	39.76
390.028	2.9
390.238	82.77
390.447	15.19
390.657	111.44
390.867	37.72
391.076	54.1
391.286	70.48
391.496	45.91
391.705	76.63
391.915	-1.19
392.125	31.57
392.334	74.58
392.544	29.52
392.753	27.48
392.963	105.3
393.172	115.54
393.382	37.72
393.591	119.64
393.801	45.91
394.01	105.3
394.22	50
394.429	64.34
394.639	47.96
394.848	105.3
395.058	68.44
395.267	70.48
395.477	84.82
395.686	2.9
395.895	103.25
396.105	136.02
396.314	76.63
396.524	45.91
396.733	25.43
396.942	54.1
397.152	50
397.361	62.29
397.57	35.67
397.78	60.24
397.989	50
398.198	82.77
398.407	56.15
398.617	103.25
398.826	103.25
399.035	74.58
399.244	121.68
399.453	68.44
399.663	19.29
399.872	115.54
400.081	50
400.29	162.64
400.499	31.57
400.708	150.36
400.917	54.1
401.127	52.05
401.336	107.35
401.545	68.44
401.754	41.81
401.963	86.87
402.172	136.02
402.381	88.92
402.59	95.06
402.799	107.35
403.008	56.15
403.217	125.78
403.426	156.5
403.635	52.05
403.844	181.07
404.053	117.59
404.262	164.69
404.471	107.35
404.68	103.25
404.888	136.02
405.097	133.97
405.306	156.5
405.515	125.78
405.724	117.59
405.933	181.07
406.142	125.78
406.35	138.07
406.559	158.55
406.768	160.59
406.977	209.75
407.185	187.22
407.394	176.98
407.603	144.21
407.812	273.23
408.02	168.79
408.229	181.07
408.438	254.8
408.646	250.71
408.855	301.9
409.064	291.66
409.272	197.46
409.481	262.99
409.69	287.57
409.898	271.19
410.107	242.51
410.315	297.81
410.524	306
410.733	357.2
410.941	379.73
411.15	334.67
411.358	310.1
411.567	355.15
411.775	443.21
411.984	426.83
412.192	402.26
412.401	463.69
412.609	422.73
412.818	437.07
413.026	475.98
413.234	473.93
413.443	437.07
413.651	471.89
413.86	615.24
414.068	588.62
414.276	553.8
414.485	566.09
414.693	623.44
414.901	621.39
415.11	643.92
415.318	688.97
415.526	619.34
415.734	680.78
415.943	787.27
416.151	783.18
416.359	764.75
416.567	865.1
416.776	789.32
416.984	938.82
417.192	889.67
417.4	920.39
417.608	967.49
417.817	1010.5
418.025	990.02
418.233	1190.72
418.441	1139.52
418.649	1139.52
418.857	1127.24
419.065	1274.69
419.273	1254.21
419.481	1284.93
419.689	1405.76
419.897	1467.2
420.105	1428.29
420.313	1551.17
420.521	1581.89
420.729	1614.65
420.937	1573.69
421.145	1766.2
421.353	1825.59
421.561	1844.03
421.769	1805.11
421.977	1968.95
422.185	1973.05
422.393	2085.69
422.601	2147.12
422.809	2243.38
423.017	2145.08
423.224	2376.5
423.432	2315.06
423.64	2327.35
423.848	2612.01
424.056	2528.05
424.263	2749.23
424.471	2851.63
424.679	2781.99
424.887	3013.42
425.094	3081
425.302	2988.84
425.51	3287.84
425.718	3420.96
425.925	3314.47
426.133	3373.86
426.341	3703.58
426.548	3814.17
426.756	3791.64
426.964	3935
427.171	4293.4
427.379	4260.63
427.586	4236.05
427.794	4508.43
428.001	4471.57
428.209	4778.76
428.417	4741.9
428.624	5196.55
428.832	5016.33
429.039	4975.37
429.247	4987.66
429.454	5610.24
429.662	5722.88
429.869	5577.47
430.076	6032.12
430.284	5749.5
430.491	5987.07
430.699	6392.56
430.906	6310.65
431.114	6480.63
431.321	6769.39
431.528	6703.86
431.736	7041.77
431.943	7660.26
432.15	7400.16
432.358	7447.27
432.565	8067.8
432.772	7893.72
432.979	8327.89
433.187	8243.93
433.394	8170.2
433.601	9050.83
433.808	8977.1
434.016	8927.95
434.223	9329.35
434.43	9788.1
434.637	9603.78
434.844	10197.69
435.052	10349.24
435.259	10345.14
435.466	10527.41
435.673	10554.04
435.88	11029.17
436.087	11381.42
436.294	11647.65
436.501	11139.76
436.708	11594.4
436.915	12040.86
437.122	12591.77
437.329	12403.35
437.537	12946.06
437.743	12929.68
437.95	12929.68
438.157	13654.66
438.364	14043.78
438.571	14168.7
438.778	14172.8
438.985	15651.43
439.192	14881.39
439.399	15196.78
439.606	14948.98
439.813	15630.95
440.02	16581.21
440.227	16749.14
440.433	16570.97
440.64	17136.21
440.847	16720.47
441.054	17207.89
441.261	18420.28
441.467	18088.51
441.674	18704.95
441.881	19102.26
442.088	19243.57
442.294	18954.8
442.501	19233.33
442.708	19900.97
442.914	20541.98
443.121	21477.9
443.328	20939.29
443.534	22239.75
443.741	21627.4
443.948	21461.52
444.154	22886.9
444.361	22733.31
444.568	23108.08
444.774	23003.64
444.981	23425.52
445.187	23935.46
445.394	24754.65
445.6	24560.09
445.807	26976.7
446.013	25917.9
446.22	26415.55
446.426	27570.61
446.633	27367.86
446.839	28361.12
447.046	27316.66
447.252	28844.45
447.459	28856.73
447.665	28895.64
447.871	29950.35
448.078	30990.72
448.284	29964.68
448.491	30366.09
448.697	31572.34
448.903	32194.92
449.11	32104.81
449.316	31959.41
449.522	32139.63
449.728	33309.02
449.935	33503.57
450.141	33487.19
450.347	33960.27
450.553	33096.03
450.76	33550.68
450.966	34386.25
451.172	33884.5
451.378	34945.34
451.584	34238.79
451.791	35023.17
451.997	35076.41
452.203	35244.35
452.409	35572.02
452.615	35488.06
452.821	34056.53
453.027	33462.61
453.233	35451.19
453.44	34027.85
453.646	34390.34
453.852	34521.41
454.058	35080.51
454.264	33782.1
454.47	34308.43
454.676	33823.06
454.882	34885.95
455.088	31908.21
455.294	32252.27
455.5	33016.16
455.705	32792.93
455.911	31777.14
456.117	30947.71
456.323	30542.21
456.529	29188.5
456.735	30126.47
456.941	29383.06
457.147	29133.21
457.352	27896.24
457.558	27806.13
457.764	27711.92
457.97	27185.59
458.176	26218.95
458.381	26505.66
458.587	25352.66
458.793	25625.04
458.999	24113.64
459.204	25754.06
459.41	25131.48
459.616	23296.5
459.821	23593.45
460.027	23441.9
460.233	22934.01
460.438	21651.98
460.644	21783.05
460.85	20896.28
461.055	20521.5
461.261	20544.03
461.466	19139.12
461.672	18448.96
461.878	19800.62
462.083	18410.04
462.289	17848.9
462.494	17850.95
462.7	17371.72
462.905	16822.87
463.111	17377.87
463.316	17381.96
463.522	17177.17
463.727	17064.53
463.932	16890.45
464.138	16980.56
464.343	17130.06
464.549	16484.95
464.754	17150.54
464.959	16878.16
465.165	16767.57
465.37	16210.53
465.575	15669.86
465.781	16464.47
465.986	16599.64
466.191	15966.82
466.397	15452.78
466.602	14686.84
466.807	15037.04
467.012	15221.36
467.218	15264.36
467.423	14991.98
467.628	15032.94
467.833	15800.93
468.038	14901.87
468.244	14615.16
