Data from USB4F104151__79__13-54-19-292.txt Node

Date: Thu Mar 13 13:54:19 EDT 2025
User: louis
Spectrometer: USB4F10415
Trigger mode: 4
Integration Time (sec): 1.000000E-2
Scans to average: 1
Electric dark correction enabled: true
Nonlinearity correction enabled: false
Boxcar width: 0
XAxis mode: Wavelengths
Number of Pixels in Spectrum: 3648
>>>>>Begin Spectral Data<<<<<
178.204	-63.66
178.424	-63.66
178.644	-63.66
178.864	16.21
179.084	-55.47
179.304	-28.84
179.524	-61.61
179.744	30.55
179.964	36.69
180.184	-24.75
180.404	22.36
180.624	18.26
180.844	34.64
181.064	1.88
181.283	40.79
181.503	-57.51
181.723	-12.46
181.943	-26.79
182.163	12.12
182.383	14.17
182.602	18.26
182.822	-10.41
183.042	18.26
183.262	-30.89
183.482	30.55
183.701	-10.41
183.921	20.31
184.141	1.88
184.361	3.93
184.58	14.17
184.8	22.36
185.02	59.22
185.239	69.46
185.459	-26.79
185.679	12.12
185.898	-18.6
186.118	61.27
186.338	-37.03
186.557	-10.41
186.777	-49.32
186.997	-4.27
187.216	-4.27
187.436	110.42
187.655	-16.55
187.875	10.07
188.095	20.31
188.314	26.45
188.534	38.74
188.753	-57.51
188.973	24.4
189.192	36.69
189.412	83.8
189.631	36.69
189.851	12.12
190.07	3.93
190.29	-22.7
190.509	-63.66
190.729	18.26
190.948	28.5
191.168	36.69
191.387	-16.55
191.607	16.21
191.826	-22.7
192.045	-12.46
192.265	73.56
192.484	-28.84
192.704	57.17
192.923	32.6
193.142	-16.55
193.362	57.17
193.581	132.95
193.8	-28.84
194.02	16.21
194.239	51.03
194.458	63.32
194.678	-63.66
194.897	18.26
195.116	5.97
195.335	63.32
195.555	-10.41
195.774	10.07
195.993	5.97
196.212	12.12
196.432	-47.27
196.651	-8.36
196.87	42.84
197.089	14.17
197.308	-47.27
197.528	94.04
197.747	-39.08
197.966	-12.46
198.185	24.4
198.404	32.6
198.623	5.97
198.842	-71.85
199.062	44.88
199.281	20.31
199.5	1.88
199.719	12.12
199.938	-4.27
200.157	51.03
200.376	-14.51
200.595	14.17
200.814	18.26
201.033	42.84
201.252	24.4
201.471	53.08
201.69	34.64
201.909	42.84
202.128	28.5
202.347	59.22
202.566	-51.37
202.785	36.69
203.004	30.55
203.223	5.97
203.442	-47.27
203.661	-16.55
203.879	-96.43
204.098	-4.27
204.317	-6.31
204.536	30.55
204.755	-4.27
204.974	40.79
205.193	34.64
205.411	24.4
205.63	40.79
205.849	22.36
206.068	28.5
206.287	-10.41
206.505	57.17
206.724	20.31
206.943	-16.55
207.162	24.4
207.381	10.07
207.599	3.93
207.818	20.31
208.037	-0.17
208.255	24.4
208.474	34.64
208.693	38.74
208.911	-18.6
209.13	-22.7
209.349	28.5
209.567	51.03
209.786	38.74
210.005	-45.23
210.223	67.41
210.442	3.93
210.661	34.64
210.879	48.98
211.098	-2.22
211.316	-2.22
211.535	94.04
211.753	53.08
211.972	59.22
212.191	-32.94
212.409	-47.27
212.628	22.36
212.846	-37.03
213.065	10.07
213.283	120.66
213.502	-30.89
213.72	14.17
213.938	32.6
214.157	-4.27
214.375	-4.27
214.594	36.69
214.812	-37.03
215.031	-28.84
215.249	16.21
215.467	67.41
215.686	34.64
215.904	75.6
216.122	44.88
216.341	28.5
216.559	-16.55
216.778	18.26
216.996	14.17
217.214	-22.7
217.432	-22.7
217.651	-6.31
217.869	-41.13
218.087	-12.46
218.306	-67.75
218.524	28.5
218.742	40.79
218.96	63.32
219.179	44.88
219.397	-43.18
219.615	-39.08
219.833	-16.55
220.051	87.89
220.27	51.03
220.488	79.7
220.706	20.31
220.924	22.36
221.142	-22.7
221.36	38.74
221.578	-8.36
221.796	8.02
222.015	-2.22
222.233	24.4
222.451	75.6
222.669	10.07
222.887	20.31
223.105	28.5
223.323	44.88
223.541	55.12
223.759	12.12
223.977	59.22
224.195	22.36
224.413	-4.27
224.631	5.97
224.849	26.45
225.067	83.8
225.285	-10.41
225.503	26.45
225.721	12.12
225.939	59.22
226.157	5.97
226.375	16.21
226.592	-12.46
226.81	40.79
227.028	16.21
227.246	40.79
227.464	-26.79
227.682	63.32
227.9	10.07
228.117	-8.36
228.335	40.79
228.553	69.46
228.771	55.12
228.989	18.26
229.206	61.27
229.424	34.64
229.642	55.12
229.86	67.41
230.077	26.45
230.295	32.6
230.513	-20.65
230.731	1.88
230.948	12.12
231.166	46.93
231.384	-14.51
231.601	-8.36
231.819	-4.27
232.037	10.07
232.254	-14.51
232.472	12.12
232.689	-6.31
232.907	1.88
233.125	51.03
233.342	73.56
233.56	8.02
233.777	32.6
233.995	5.97
234.213	48.98
234.43	5.97
234.648	-0.17
234.865	69.46
235.083	16.21
235.3	8.02
235.518	12.12
235.735	61.27
235.953	61.27
236.17	96.08
236.388	22.36
236.605	-26.79
236.822	16.21
237.04	51.03
237.257	42.84
237.475	-8.36
237.692	-14.51
237.909	-8.36
238.127	65.36
238.344	-20.65
238.562	85.84
238.779	94.04
238.996	53.08
239.214	-0.17
239.431	-12.46
239.648	38.74
239.865	3.93
240.083	-6.31
240.3	89.94
240.517	-14.51
240.735	42.84
240.952	5.97
241.169	34.64
241.386	22.36
241.603	36.69
241.821	-55.47
242.038	-26.79
242.255	-30.89
242.472	14.17
242.689	-0.17
242.907	3.93
243.124	65.36
243.341	20.31
243.558	22.36
243.775	34.64
243.992	-32.94
244.209	36.69
244.426	42.84
244.643	5.97
244.86	3.93
245.078	8.02
245.295	12.12
245.512	-20.65
245.729	24.4
245.946	61.27
246.163	-20.65
246.38	81.75
246.597	65.36
246.814	28.5
247.031	36.69
247.248	5.97
247.464	-2.22
247.681	85.84
247.898	57.17
248.115	-20.65
248.332	1.88
248.549	44.88
248.766	114.52
248.983	14.17
249.2	10.07
249.417	67.41
249.633	-6.31
249.85	59.22
250.067	48.98
250.284	-30.89
250.501	38.74
250.717	-2.22
250.934	1.88
251.151	12.12
251.368	42.84
251.585	16.21
251.801	51.03
252.018	12.12
252.235	-0.17
252.451	63.32
252.668	-2.22
252.885	26.45
253.102	75.6
253.318	-30.89
253.535	20.31
253.752	16.21
253.968	1.88
254.185	-14.51
254.401	-8.36
254.618	16.21
254.835	8.02
255.051	-8.36
255.268	102.23
255.484	26.45
255.701	12.12
255.917	-8.36
256.134	26.45
256.351	24.4
256.567	14.17
256.784	40.79
257	44.88
257.217	91.99
257.433	24.4
257.65	71.51
257.866	32.6
258.082	32.6
258.299	5.97
258.515	-14.51
258.732	81.75
258.948	8.02
259.165	-8.36
259.381	42.84
259.597	34.64
259.814	77.65
260.03	-6.31
260.246	18.26
260.463	28.5
260.679	51.03
260.895	81.75
261.112	5.97
261.328	18.26
261.544	-45.23
261.761	30.55
261.977	61.27
262.193	55.12
262.409	59.22
262.626	-8.36
262.842	16.21
263.058	38.74
263.274	73.56
263.49	-57.51
263.707	38.74
263.923	65.36
264.139	51.03
264.355	12.12
264.571	36.69
264.787	12.12
265.004	67.41
265.22	12.12
265.436	-86.19
265.652	85.84
265.868	22.36
266.084	-6.31
266.3	32.6
266.516	42.84
266.732	20.31
266.948	-32.94
267.164	-6.31
267.38	14.17
267.596	67.41
267.812	-34.99
268.028	46.93
268.244	53.08
268.46	-24.75
268.676	3.93
268.892	24.4
269.108	-53.42
269.324	24.4
269.54	81.75
269.756	-30.89
269.972	71.51
270.188	46.93
270.403	-10.41
270.619	-55.47
270.835	-14.51
271.051	40.79
271.267	-34.99
271.483	42.84
271.698	36.69
271.914	46.93
272.13	-0.17
272.346	-6.31
272.562	71.51
272.777	-32.94
272.993	26.45
273.209	-6.31
273.425	87.89
273.64	14.17
273.856	5.97
274.072	12.12
274.287	-10.41
274.503	18.26
274.719	51.03
274.934	96.08
275.15	-39.08
275.366	-6.31
275.581	20.31
275.797	40.79
276.012	28.5
276.228	5.97
276.444	32.6
276.659	5.97
276.875	3.93
277.09	5.97
277.306	32.6
277.521	36.69
277.737	8.02
277.952	-28.84
278.168	-55.47
278.383	16.21
278.599	-20.65
278.814	75.6
279.03	34.64
279.245	20.31
279.461	24.4
279.676	40.79
279.892	34.64
280.107	53.08
280.322	1.88
280.538	53.08
280.753	-43.18
280.969	3.93
281.184	48.98
281.399	71.51
281.615	55.12
281.83	-37.03
282.045	36.69
282.26	-28.84
282.476	18.26
282.691	46.93
282.906	32.6
283.122	-4.27
283.337	18.26
283.552	24.4
283.767	46.93
283.983	-34.99
284.198	-71.85
284.413	83.8
284.628	5.97
284.843	-24.75
285.058	-59.56
285.274	28.5
285.489	20.31
285.704	81.75
285.919	38.74
286.134	-65.71
286.349	65.36
286.564	51.03
286.779	-6.31
286.995	32.6
287.21	24.4
287.425	59.22
287.64	32.6
287.855	-6.31
288.07	16.21
288.285	53.08
288.5	-28.84
288.715	18.26
288.93	-69.8
289.145	102.23
289.36	46.93
289.575	16.21
289.79	-57.51
290.004	42.84
290.219	22.36
290.434	53.08
290.649	12.12
290.864	-47.27
291.079	57.17
291.294	87.89
291.509	38.74
291.724	-80.04
291.938	-80.04
292.153	61.27
292.368	55.12
292.583	28.5
292.798	-16.55
293.012	36.69
293.227	71.51
293.442	36.69
293.657	-10.41
293.871	-47.27
294.086	18.26
294.301	-2.22
294.516	-0.17
294.73	3.93
294.945	-32.94
295.16	30.55
295.374	-20.65
295.589	12.12
295.804	10.07
296.018	8.02
296.233	40.79
296.447	-22.7
296.662	-4.27
296.877	83.8
297.091	-24.75
297.306	94.04
297.52	87.89
297.735	3.93
297.949	120.66
298.164	-43.18
298.378	24.4
298.593	-4.27
298.807	73.56
299.022	42.84
299.236	73.56
299.451	-34.99
299.665	38.74
299.88	42.84
300.094	32.6
300.309	8.02
300.523	36.69
300.737	106.32
300.952	71.51
301.166	8.02
301.381	8.02
301.595	34.64
301.809	46.93
302.024	-47.27
302.238	-10.41
302.452	81.75
302.667	16.21
302.881	14.17
303.095	65.36
303.309	44.88
303.524	34.64
303.738	-8.36
303.952	34.64
304.166	57.17
304.381	-6.31
304.595	73.56
304.809	-12.46
305.023	36.69
305.237	-22.7
305.452	24.4
305.666	-14.51
305.88	118.61
306.094	44.88
306.308	55.12
306.522	28.5
306.736	79.7
306.95	-39.08
307.164	-4.27
307.379	5.97
307.593	38.74
307.807	69.46
308.021	-28.84
308.235	26.45
308.449	-57.51
308.663	-24.75
308.877	14.17
309.091	1.88
309.305	5.97
309.519	-26.79
309.733	120.66
309.947	42.84
310.161	94.04
310.374	40.79
310.588	61.27
310.802	32.6
311.016	73.56
311.23	12.12
311.444	51.03
311.658	18.26
311.872	26.45
312.085	-39.08
312.299	77.65
312.513	38.74
312.727	-8.36
312.941	24.4
313.154	69.46
313.368	16.21
313.582	3.93
313.796	5.97
314.009	57.17
314.223	1.88
314.437	-12.46
314.651	38.74
314.864	14.17
315.078	24.4
315.292	20.31
315.505	24.4
315.719	-63.66
315.933	36.69
316.146	26.45
316.36	63.32
316.573	-2.22
316.787	18.26
317.001	32.6
317.214	26.45
317.428	108.37
317.641	-18.6
317.855	18.26
318.068	-6.31
318.282	124.76
318.495	44.88
318.709	-20.65
318.922	-67.75
319.136	42.84
319.349	16.21
319.563	44.88
319.776	26.45
319.99	36.69
320.203	-4.27
320.417	53.08
320.63	94.04
320.843	44.88
321.057	-30.89
321.27	-16.55
321.483	-0.17
321.697	34.64
321.91	71.51
322.124	42.84
322.337	38.74
322.55	22.36
322.763	24.4
322.977	42.84
323.19	26.45
323.403	-6.31
323.617	44.88
323.83	53.08
324.043	22.36
324.256	32.6
324.469	1.88
324.683	36.69
324.896	40.79
325.109	10.07
325.322	26.45
325.535	89.94
325.748	28.5
325.962	-30.89
326.175	-71.85
326.388	3.93
326.601	34.64
326.814	71.51
327.027	102.23
327.24	32.6
327.453	-26.79
327.666	40.79
327.879	-43.18
328.092	36.69
328.305	53.08
328.518	75.6
328.731	-16.55
328.944	26.45
329.157	16.21
329.37	10.07
329.583	77.65
329.796	42.84
330.009	10.07
330.222	-6.31
330.435	-6.31
330.648	18.26
330.861	24.4
331.073	85.84
331.286	55.12
331.499	38.74
331.712	-20.65
331.925	12.12
332.138	77.65
332.35	48.98
332.563	28.5
332.776	-8.36
332.989	26.45
333.202	57.17
333.414	-22.7
333.627	-65.71
333.84	-4.27
334.053	59.22
334.265	-18.6
334.478	46.93
334.691	22.36
334.903	36.69
335.116	26.45
335.329	-22.7
335.541	-26.79
335.754	-20.65
335.966	-28.84
336.179	8.02
336.392	36.69
336.604	87.89
336.817	44.88
337.029	65.36
337.242	26.45
337.454	87.89
337.667	55.12
337.88	98.13
338.092	-51.37
338.305	18.26
338.517	46.93
338.729	30.55
338.942	-6.31
339.154	-37.03
339.367	44.88
339.579	24.4
339.792	-4.27
340.004	34.64
340.217	75.6
340.429	18.26
340.641	57.17
340.854	91.99
341.066	-20.65
341.278	28.5
341.491	51.03
341.703	-55.47
341.915	8.02
342.128	71.51
342.34	-6.31
342.552	28.5
342.764	61.27
342.977	-0.17
343.189	16.21
343.401	40.79
343.613	48.98
343.826	48.98
344.038	-24.75
344.25	59.22
344.462	36.69
344.674	-57.51
344.886	53.08
345.099	-22.7
345.311	26.45
345.523	5.97
345.735	36.69
345.947	-14.51
346.159	46.93
346.371	46.93
346.583	26.45
346.795	69.46
347.007	-47.27
347.219	12.12
347.431	42.84
347.643	-8.36
347.855	-4.27
348.067	5.97
348.279	63.32
348.491	-2.22
348.703	38.74
348.915	28.5
349.127	69.46
349.339	24.4
349.551	51.03
349.763	3.93
349.975	-47.27
350.187	14.17
350.399	22.36
350.61	69.46
350.822	16.21
351.034	44.88
351.246	44.88
351.458	67.41
351.669	34.64
351.881	-6.31
352.093	-8.36
352.305	46.93
352.517	87.89
352.728	65.36
352.94	67.41
353.152	124.76
353.363	38.74
353.575	20.31
353.787	51.03
353.999	8.02
354.21	14.17
354.422	-59.56
354.633	-10.41
354.845	28.5
355.057	30.55
355.268	42.84
355.48	65.36
355.692	-22.7
355.903	57.17
356.115	14.17
356.326	22.36
356.538	51.03
356.749	1.88
356.961	30.55
357.172	57.17
357.384	-32.94
357.595	67.41
357.807	22.36
358.018	24.4
358.23	46.93
358.441	77.65
358.653	69.46
358.864	51.03
359.075	36.69
359.287	28.5
359.498	65.36
359.709	55.12
359.921	-20.65
360.132	122.71
360.344	61.27
360.555	55.12
360.766	44.88
360.977	-8.36
361.189	65.36
361.4	18.26
361.611	34.64
361.823	48.98
362.034	1.88
362.245	-22.7
362.456	65.36
362.667	106.32
362.879	102.23
363.09	14.17
363.301	71.51
363.512	-12.46
363.723	14.17
363.935	10.07
364.146	55.12
364.357	-104.62
364.568	-0.17
364.779	12.12
364.99	87.89
365.201	-8.36
365.412	69.46
365.623	-24.75
365.834	14.17
366.045	63.32
366.256	79.7
366.467	8.02
366.678	28.5
366.889	46.93
367.1	-20.65
367.311	96.08
367.522	28.5
367.733	-12.46
367.944	44.88
368.155	36.69
368.366	67.41
368.577	16.21
368.788	55.12
368.999	42.84
369.209	55.12
369.42	40.79
369.631	30.55
369.842	14.17
370.053	12.12
370.264	12.12
370.474	-4.27
370.685	18.26
370.896	36.69
371.107	69.46
371.317	-8.36
371.528	63.32
371.739	-4.27
371.95	55.12
372.16	24.4
372.371	40.79
372.582	91.99
372.792	51.03
373.003	71.51
373.214	75.6
373.424	57.17
373.635	-0.17
373.846	44.88
374.056	73.56
374.267	116.56
374.477	-28.84
374.688	57.17
374.898	114.52
375.109	26.45
375.319	-8.36
375.53	81.75
375.74	51.03
375.951	26.45
376.161	-24.75
376.372	-30.89
376.582	53.08
376.793	55.12
377.003	48.98
377.214	94.04
377.424	-26.79
377.635	83.8
377.845	34.64
378.055	40.79
378.266	26.45
378.476	28.5
378.686	-4.27
378.897	-16.55
379.107	71.51
379.317	44.88
379.528	1.88
379.738	59.22
379.948	106.32
380.158	18.26
380.369	81.75
380.579	91.99
380.789	48.98
380.999	67.41
381.21	34.64
381.42	130.9
381.63	-0.17
381.84	59.22
382.05	53.08
382.261	30.55
382.471	16.21
382.681	5.97
382.891	79.7
383.101	108.37
383.311	-14.51
383.521	61.27
383.731	46.93
383.941	112.47
384.151	135
384.361	16.21
384.571	59.22
384.781	69.46
384.991	16.21
385.201	26.45
385.411	22.36
385.621	51.03
385.831	40.79
386.041	38.74
386.251	20.31
386.461	32.6
386.671	-34.99
386.881	-6.31
387.091	-34.99
387.301	85.84
387.511	-14.51
387.72	51.03
387.93	22.36
388.14	-39.08
388.35	75.6
388.56	91.99
388.769	44.88
388.979	59.22
389.189	44.88
389.399	71.51
389.609	28.5
389.818	100.18
390.028	89.94
390.238	20.31
390.447	-16.55
390.657	106.32
390.867	8.02
391.076	3.93
391.286	46.93
391.496	63.32
391.705	69.46
391.915	40.79
392.125	48.98
392.334	-16.55
392.544	38.74
392.753	20.31
392.963	59.22
393.172	69.46
393.382	124.76
393.591	59.22
393.801	16.21
394.01	24.4
394.22	-18.6
394.429	102.23
394.639	-14.51
394.848	57.17
395.058	38.74
395.267	36.69
395.477	71.51
395.686	-6.31
395.895	12.12
396.105	91.99
396.314	73.56
396.524	94.04
396.733	16.21
396.942	110.42
397.152	108.37
397.361	94.04
397.57	61.27
397.78	75.6
397.989	77.65
398.198	104.28
398.407	100.18
398.617	102.23
398.826	118.61
399.035	20.31
399.244	32.6
399.453	75.6
399.663	71.51
399.872	98.13
400.081	55.12
400.29	75.6
400.499	75.6
400.708	75.6
400.917	18.26
401.127	38.74
401.336	57.17
401.545	118.61
401.754	67.41
401.963	163.67
402.172	73.56
402.381	-2.22
402.59	51.03
402.799	44.88
403.008	94.04
403.217	100.18
403.426	91.99
403.635	94.04
403.844	61.27
404.053	67.41
404.262	83.8
404.471	81.75
404.68	73.56
404.888	153.43
405.097	53.08
405.306	118.61
405.515	155.47
405.724	128.85
405.933	65.36
406.142	161.62
406.35	110.42
406.559	135
406.768	96.08
406.977	81.75
407.185	130.9
407.394	65.36
407.603	153.43
407.812	161.62
408.02	184.15
408.229	194.39
408.438	132.95
408.646	112.47
408.855	196.43
409.064	214.87
409.272	155.47
409.481	188.24
409.69	124.76
409.898	178
410.107	208.72
410.315	173.91
410.524	175.95
410.733	196.43
410.941	126.8
411.15	235.35
411.358	126.8
411.567	249.68
411.775	206.67
411.984	225.11
412.192	229.2
412.401	235.35
412.609	292.69
412.818	319.31
413.026	286.54
413.234	386.9
413.443	341.84
413.651	360.27
413.86	264.02
414.068	395.09
414.276	415.57
414.485	431.95
414.693	382.8
414.901	397.14
415.11	472.91
415.318	415.57
415.526	438.09
415.734	509.77
415.943	436.05
416.151	458.57
416.359	505.68
416.567	560.97
416.776	517.97
416.984	610.12
417.192	571.21
417.4	573.26
417.608	632.65
417.817	687.95
418.025	614.22
418.233	722.76
418.441	726.86
418.649	704.33
418.857	790.35
419.065	823.11
419.273	765.77
419.481	790.35
419.689	950.09
419.897	819.02
420.105	921.42
420.313	945.99
420.521	1029.96
420.729	993.09
420.937	1032.01
421.145	1068.87
421.353	1077.06
421.561	1220.42
421.769	1228.61
421.977	1249.09
422.185	1267.52
422.393	1290.05
422.601	1255.23
422.809	1441.6
423.017	1443.65
423.224	1515.33
423.432	1523.52
423.64	1513.28
423.848	1666.88
424.056	1656.64
424.263	1810.23
424.471	1670.97
424.679	1732.41
424.887	1863.48
425.094	1972.02
425.302	1859.38
425.51	2025.27
425.718	2033.46
425.925	2088.76
426.133	2266.93
426.341	2133.81
426.548	2361.14
426.756	2320.18
426.964	2365.23
427.171	2408.24
427.379	2647.85
427.586	2658.09
427.794	2746.16
428.001	2916.14
428.209	3049.25
428.417	2862.89
428.624	3110.69
428.832	3131.17
429.039	3071.78
429.247	3069.73
429.454	3475.23
429.662	3598.11
429.869	3516.19
430.076	3624.73
430.284	3647.26
430.491	3618.59
430.699	3761.95
430.906	3847.96
431.114	3970.84
431.321	4087.57
431.528	4192.02
431.736	4411.15
431.943	4609.81
432.15	4568.85
432.358	4613.9
432.565	4962.06
432.772	4923.15
432.979	5078.79
433.187	5076.74
433.394	5109.51
433.601	5437.19
433.808	5340.93
434.016	5623.55
434.223	5801.72
434.43	5973.75
434.637	5877.5
434.844	6168.31
435.052	6366.96
435.259	6225.65
435.466	6522.61
435.673	6405.88
435.88	6754.03
436.087	7034.6
436.294	7239.4
436.501	7014.12
436.708	7249.64
436.915	7403.24
437.122	7864.03
437.329	7790.3
437.537	8005.34
437.743	8128.22
437.95	7950.04
438.157	8400.6
438.364	8546
438.571	8830.67
438.778	8636.11
438.985	9746.11
439.192	9182.92
439.399	9332.42
439.606	9109.19
439.813	9678.53
440.02	10288.82
440.227	10307.26
440.433	9912
440.64	10514.1
440.847	10325.69
441.054	10628.79
441.261	11245.23
441.467	11183.79
441.674	11308.71
441.881	11663.01
442.088	11736.74
442.294	11673.25
442.501	12162.72
442.708	12334.75
442.914	12736.15
443.121	13033.1
443.328	12965.52
443.534	13928.06
443.741	13166.22
443.948	13227.66
444.154	14132.86
444.361	14116.48
444.568	14319.23
444.774	14153.34
444.981	14149.25
445.187	14782.07
445.394	15328.88
445.6	15052.4
445.807	16567.9
446.013	15693.41
446.22	16363.1
446.426	16840.28
446.633	16866.9
446.839	17536.59
447.046	16752.21
447.252	17698.38
447.459	17745.48
447.665	17575.5
447.871	18445.88
448.078	19142.19
448.284	18378.3
448.491	18873.91
448.697	19367.47
448.903	19543.6
449.11	19797.54
449.316	19557.93
449.522	19811.88
449.728	20217.38
449.935	20424.22
450.141	20526.62
450.347	20979.22
450.553	20194.85
450.76	20373.02
450.966	21026.32
451.172	21237.27
451.378	21247.51
451.584	21126.67
451.791	21489.17
451.997	21503.5
452.203	21739.02
452.409	21638.67
452.615	21767.69
452.821	20872.73
453.027	20655.64
453.233	21687.82
453.44	20532.76
453.646	20917.78
453.852	20905.49
454.058	21308.94
454.264	20491.8
454.47	21329.42
454.676	20497.95
454.882	21243.41
455.088	19334.7
455.294	19654.19
455.5	19926.57
455.705	19887.65
455.911	19353.13
456.117	18656.82
456.323	18386.49
456.529	17567.31
456.735	18308.67
456.941	17763.91
457.147	17575.5
457.352	16987.73
457.558	16774.74
457.764	17022.55
457.97	16535.13
458.176	16080.48
458.381	16303.71
458.587	15423.08
458.793	15337.07
458.999	14698.1
459.204	15799.91
459.41	15029.87
459.616	14239.36
459.821	14444.15
460.027	14278.27
460.233	13921.92
460.438	13256.33
460.644	13373.07
460.85	12752.53
461.055	12832.4
461.261	12660.37
461.466	11687.59
461.672	11183.79
461.878	11925.15
462.083	11286.19
462.289	11159.21
462.494	11095.72
462.7	10450.61
462.905	10301.11
463.111	10387.13
463.316	10645.17
463.522	10563.25
463.727	10378.93
463.932	10370.74
464.138	10251.96
464.343	10208.95
464.549	10157.75
464.754	10663.6
464.959	10180.28
465.165	10137.27
465.37	9832.13
465.575	9629.38
465.781	10008.25
465.986	10086.08
466.191	9707.2
466.397	9451.21
466.602	8867.53
466.807	9348.81
467.012	9232.07
467.218	9459.4
467.423	9158.35
467.628	9275.08
467.833	9400.01
468.038	9189.07
468.244	9084.62
468.449	9490.12
468.654	9037.52
