Data from USB4F104151__49__13-53-24-858.txt Node

Date: Thu Mar 13 13:53:24 EDT 2025
User: louis
Spectrometer: USB4F10415
Trigger mode: 4
Integration Time (sec): 1.000000E-2
Scans to average: 1
Electric dark correction enabled: true
Nonlinearity correction enabled: false
Boxcar width: 0
XAxis mode: Wavelengths
Number of Pixels in Spectrum: 3648
>>>>>Begin Spectral Data<<<<<
178.204	2.56
178.424	2.56
178.644	2.56
178.864	-34.3
179.084	12.8
179.304	-17.92
179.524	23.04
179.744	-26.11
179.964	59.9
180.184	29.18
180.404	-22.02
180.624	-9.73
180.844	-19.97
181.064	-19.97
181.283	-32.26
181.503	-11.78
181.723	47.62
181.943	-48.64
182.163	8.7
182.383	10.75
182.602	59.9
182.822	55.81
183.042	8.7
183.262	6.66
183.482	16.9
183.701	72.19
183.921	47.62
184.141	-48.64
184.361	20.99
184.58	43.52
184.8	-42.5
185.02	41.47
185.239	41.47
185.459	43.52
185.679	37.38
185.898	-15.87
186.118	45.57
186.338	35.33
186.557	27.14
186.777	8.7
186.997	20.99
187.216	27.14
187.436	41.47
187.655	61.95
187.875	41.47
188.095	6.66
188.314	53.76
188.534	49.66
188.753	-24.06
188.973	47.62
189.192	2.56
189.412	33.28
189.631	43.52
189.851	-1.54
190.07	-46.59
190.29	90.62
190.509	127.49
190.729	-62.98
190.948	45.57
191.168	43.52
191.387	-17.92
191.607	47.62
191.826	10.75
192.045	45.57
192.265	49.66
192.484	41.47
192.704	27.14
192.923	23.04
193.142	14.85
193.362	18.94
193.581	82.43
193.8	37.38
194.02	-13.82
194.239	35.33
194.458	23.04
194.678	74.24
194.897	25.09
195.116	-38.4
195.335	20.99
195.555	41.47
195.774	70.14
195.993	12.8
196.212	18.94
196.432	55.81
196.651	53.76
196.87	23.04
197.089	55.81
197.308	74.24
197.528	55.81
197.747	-17.92
197.966	70.14
198.185	-28.16
198.404	37.38
198.623	66.05
198.842	-38.4
199.062	31.23
199.281	107.01
199.5	16.9
199.719	55.81
199.938	-42.5
200.157	-3.58
200.376	4.61
200.595	-3.58
200.814	6.66
201.033	70.14
201.252	35.33
201.471	86.53
201.69	25.09
201.909	-38.4
202.128	55.81
202.347	59.9
202.566	39.42
202.785	-42.5
203.004	4.61
203.223	123.39
203.442	27.14
203.661	55.81
203.879	27.14
204.098	64
204.317	37.38
204.536	43.52
204.755	74.24
204.974	94.72
205.193	55.81
205.411	147.97
205.63	0.51
205.849	8.7
206.068	10.75
206.287	-11.78
206.505	45.57
206.724	18.94
206.943	78.33
207.162	76.29
207.381	78.33
207.599	-1.54
207.818	10.75
208.037	37.38
208.255	10.75
208.474	41.47
208.693	49.66
208.911	72.19
209.13	61.95
209.349	90.62
209.567	-9.73
209.786	-38.4
210.005	33.28
210.223	8.7
210.442	20.99
210.661	78.33
210.879	94.72
211.098	84.48
211.316	41.47
211.535	133.63
211.753	-5.63
211.972	35.33
212.191	102.91
212.409	-7.68
212.628	16.9
212.846	-40.45
213.065	39.42
213.283	86.53
213.502	0.51
213.72	64
213.938	-9.73
214.157	25.09
214.375	41.47
214.594	-62.98
214.812	39.42
215.031	39.42
215.249	27.14
215.467	49.66
215.686	-13.82
215.904	16.9
216.122	14.85
216.341	35.33
216.559	-19.97
216.778	51.71
216.996	31.23
217.214	-11.78
217.432	-15.87
217.651	4.61
217.869	78.33
218.087	0.51
218.306	76.29
218.524	31.23
218.742	33.28
218.96	49.66
219.179	20.99
219.397	10.75
219.615	43.52
219.833	55.81
220.051	39.42
220.27	80.38
220.488	4.61
220.706	41.47
220.924	2.56
221.142	109.05
221.36	37.38
221.578	29.18
221.796	23.04
222.015	23.04
222.233	57.86
222.451	12.8
222.669	86.53
222.887	39.42
223.105	66.05
223.323	86.53
223.541	-5.63
223.759	113.15
223.977	55.81
224.195	72.19
224.413	33.28
224.631	23.04
224.849	59.9
225.067	74.24
225.285	49.66
225.503	-32.26
225.721	-19.97
225.939	0.51
226.157	-22.02
226.375	45.57
226.592	18.94
226.81	41.47
227.028	55.81
227.246	-52.74
227.464	27.14
227.682	-5.63
227.9	-48.64
228.117	45.57
228.335	49.66
228.553	39.42
228.771	-28.16
228.989	8.7
229.206	-7.68
229.424	33.28
229.642	-13.82
229.86	35.33
230.077	8.7
230.295	66.05
230.513	-67.07
230.731	51.71
230.948	41.47
231.166	23.04
231.384	76.29
231.601	43.52
231.819	109.05
232.037	39.42
232.254	-9.73
232.472	16.9
232.689	4.61
232.907	172.54
233.125	18.94
233.342	4.61
233.56	31.23
233.777	37.38
233.995	20.99
234.213	109.05
234.43	4.61
234.648	78.33
234.865	8.7
235.083	61.95
235.3	-3.58
235.518	74.24
235.735	41.47
235.953	90.62
236.17	55.81
236.388	53.76
236.605	25.09
236.822	100.86
237.04	29.18
237.257	18.94
237.475	20.99
237.692	131.58
237.909	25.09
238.127	57.86
238.344	31.23
238.562	14.85
238.779	86.53
238.996	57.86
239.214	23.04
239.431	88.57
239.648	23.04
239.865	47.62
240.083	57.86
240.3	-1.54
240.517	-17.92
240.735	41.47
240.952	74.24
241.169	55.81
241.386	31.23
241.603	35.33
241.821	-22.02
242.038	4.61
242.255	70.14
242.472	57.86
242.689	35.33
242.907	18.94
243.124	55.81
243.341	107.01
243.558	-13.82
243.775	-5.63
243.992	68.09
244.209	-22.02
244.426	70.14
244.643	25.09
244.86	47.62
245.078	-22.02
245.295	57.86
245.512	-24.06
245.729	66.05
245.946	86.53
246.163	55.81
246.38	-11.78
246.597	94.72
246.814	80.38
247.031	35.33
247.248	35.33
247.464	-3.58
247.681	20.99
247.898	2.56
248.115	76.29
248.332	29.18
248.549	76.29
248.766	66.05
248.983	29.18
249.2	-5.63
249.417	66.05
249.633	27.14
249.85	-34.3
250.067	-28.16
250.284	-11.78
250.501	12.8
250.717	135.68
250.934	55.81
251.151	41.47
251.368	33.28
251.585	-9.73
251.801	72.19
252.018	133.63
252.235	16.9
252.451	47.62
252.668	39.42
252.885	66.05
253.102	51.71
253.318	31.23
253.535	53.76
253.752	-5.63
253.968	53.76
254.185	57.86
254.401	25.09
254.618	-11.78
254.835	12.8
255.051	-34.3
255.268	76.29
255.484	-17.92
255.701	14.85
255.917	43.52
256.134	-13.82
256.351	16.9
256.567	-1.54
256.784	4.61
257	31.23
257.217	23.04
257.433	43.52
257.65	59.9
257.866	23.04
258.082	64
258.299	72.19
258.515	29.18
258.732	39.42
258.948	18.94
259.165	47.62
259.381	100.86
259.597	64
259.814	37.38
260.03	80.38
260.246	8.7
260.463	20.99
260.679	53.76
260.895	-1.54
261.112	10.75
261.328	-11.78
261.544	14.85
261.761	4.61
261.977	76.29
262.193	82.43
262.409	-24.06
262.626	14.85
262.842	82.43
263.058	92.67
263.274	64
263.49	43.52
263.707	14.85
263.923	20.99
264.139	51.71
264.355	84.48
264.571	127.49
264.787	33.28
265.004	8.7
265.22	61.95
265.436	-3.58
265.652	31.23
265.868	90.62
266.084	-7.68
266.3	31.23
266.516	37.38
266.732	37.38
266.948	68.09
267.164	39.42
267.38	-9.73
267.596	33.28
267.812	12.8
268.028	94.72
268.244	14.85
268.46	86.53
268.676	16.9
268.892	51.71
269.108	25.09
269.324	2.56
269.54	0.51
269.756	47.62
269.972	53.76
270.188	0.51
270.403	80.38
270.619	82.43
270.835	23.04
271.051	43.52
271.267	104.96
271.483	57.86
271.698	-9.73
271.914	47.62
272.13	49.66
272.346	23.04
272.562	37.38
272.777	41.47
272.993	37.38
273.209	-13.82
273.425	41.47
273.64	47.62
273.856	37.38
274.072	39.42
274.287	-11.78
274.503	141.82
274.719	33.28
274.934	51.71
275.15	41.47
275.366	2.56
275.581	31.23
275.797	70.14
276.012	12.8
276.228	33.28
276.444	-26.11
276.659	90.62
276.875	-7.68
277.09	29.18
277.306	-5.63
277.521	41.47
277.737	8.7
277.952	-7.68
278.168	-13.82
278.383	45.57
278.599	-11.78
278.814	-22.02
279.03	8.7
279.245	12.8
279.461	43.52
279.676	18.94
279.892	74.24
280.107	14.85
280.322	12.8
280.538	76.29
280.753	-46.59
280.969	14.85
281.184	66.05
281.399	78.33
281.615	47.62
281.83	49.66
282.045	43.52
282.26	70.14
282.476	80.38
282.691	-22.02
282.906	61.95
283.122	23.04
283.337	88.57
283.552	31.23
283.767	64
283.983	23.04
284.198	35.33
284.413	20.99
284.628	20.99
284.843	23.04
285.058	20.99
285.274	41.47
285.489	14.85
285.704	45.57
285.919	37.38
286.134	-1.54
286.349	-13.82
286.564	39.42
286.779	82.43
286.995	-7.68
287.21	68.09
287.425	82.43
287.64	16.9
287.855	57.86
288.07	41.47
288.285	61.95
288.5	37.38
288.715	59.9
288.93	27.14
289.145	74.24
289.36	20.99
289.575	49.66
289.79	-1.54
290.004	78.33
290.219	98.81
290.434	-1.54
290.649	51.71
290.864	8.7
291.079	66.05
291.294	61.95
291.509	10.75
291.724	-17.92
291.938	8.7
292.153	123.39
292.368	55.81
292.583	18.94
292.798	41.47
293.012	31.23
293.227	20.99
293.442	-13.82
293.657	70.14
293.871	37.38
294.086	35.33
294.301	90.62
294.516	59.9
294.73	-13.82
294.945	70.14
295.16	-7.68
295.374	47.62
295.589	45.57
295.804	-3.58
296.018	-11.78
296.233	20.99
296.447	107.01
296.662	53.76
296.877	14.85
297.091	76.29
297.306	18.94
297.52	64
297.735	-1.54
297.949	18.94
298.164	61.95
298.378	2.56
298.593	12.8
298.807	14.85
299.022	80.38
299.236	31.23
299.451	20.99
299.665	20.99
299.88	-7.68
300.094	33.28
300.309	25.09
300.523	25.09
300.737	76.29
300.952	-5.63
301.166	18.94
301.381	31.23
301.595	14.85
301.809	14.85
302.024	45.57
302.238	-5.63
302.452	55.81
302.667	25.09
302.881	23.04
303.095	25.09
303.309	51.71
303.524	39.42
303.738	74.24
303.952	12.8
304.166	70.14
304.381	-56.83
304.595	35.33
304.809	57.86
305.023	33.28
305.237	-22.02
305.452	88.57
305.666	37.38
305.88	8.7
306.094	84.48
306.308	-17.92
306.522	53.76
306.736	29.18
306.95	55.81
307.164	66.05
307.379	18.94
307.593	31.23
307.807	203.26
308.021	27.14
308.235	55.81
308.449	96.77
308.663	8.7
308.877	-17.92
309.091	31.23
309.305	47.62
309.519	29.18
309.733	94.72
309.947	43.52
310.161	55.81
310.374	74.24
310.588	84.48
310.802	-24.06
311.016	37.38
311.23	90.62
311.444	55.81
311.658	39.42
311.872	82.43
312.085	59.9
312.299	16.9
312.513	55.81
312.727	98.81
312.941	78.33
313.154	100.86
313.368	41.47
313.582	14.85
313.796	0.51
314.009	-1.54
314.223	-26.11
314.437	39.42
314.651	6.66
314.864	66.05
315.078	-5.63
315.292	43.52
315.505	133.63
315.719	66.05
315.933	29.18
316.146	66.05
316.36	33.28
316.573	104.96
316.787	86.53
317.001	47.62
317.214	45.57
317.428	68.09
317.641	20.99
317.855	10.75
318.068	16.9
318.282	-22.02
318.495	47.62
318.709	35.33
318.922	55.81
319.136	98.81
319.349	64
319.563	-9.73
319.776	29.18
319.99	-11.78
320.203	12.8
320.417	-3.58
320.63	113.15
320.843	4.61
321.057	94.72
321.27	-3.58
321.483	6.66
321.697	49.66
321.91	12.8
322.124	25.09
322.337	64
322.55	-54.78
322.763	10.75
322.977	61.95
323.19	2.56
323.403	12.8
323.617	41.47
323.83	10.75
324.043	20.99
324.256	12.8
324.469	43.52
324.683	51.71
324.896	27.14
325.109	12.8
325.322	82.43
325.535	51.71
325.748	23.04
325.962	37.38
326.175	-48.64
326.388	107.01
326.601	39.42
326.814	47.62
327.027	-28.16
327.24	35.33
327.453	-19.97
327.666	29.18
327.879	-1.54
328.092	6.66
328.305	35.33
328.518	61.95
328.731	41.47
328.944	23.04
329.157	39.42
329.37	45.57
329.583	86.53
329.796	72.19
330.009	53.76
330.222	27.14
330.435	102.91
330.648	-15.87
330.861	27.14
331.073	14.85
331.286	20.99
331.499	2.56
331.712	20.99
331.925	86.53
332.138	92.67
332.35	55.81
332.563	47.62
332.776	29.18
332.989	41.47
333.202	41.47
333.414	-52.74
333.627	88.57
333.84	68.09
334.053	16.9
334.265	12.8
334.478	57.86
334.691	96.77
334.903	35.33
335.116	49.66
335.329	74.24
335.541	80.38
335.754	-5.63
335.966	66.05
336.179	107.01
336.392	37.38
336.604	35.33
336.817	-7.68
337.029	59.9
337.242	102.91
337.454	104.96
337.667	-11.78
337.88	41.47
338.092	53.76
338.305	82.43
338.517	29.18
338.729	33.28
338.942	-9.73
339.154	90.62
339.367	57.86
339.579	59.9
339.792	49.66
340.004	35.33
340.217	45.57
340.429	55.81
340.641	23.04
340.854	57.86
341.066	59.9
341.278	78.33
341.491	43.52
341.703	49.66
341.915	27.14
342.128	-44.54
342.34	88.57
342.552	45.57
342.764	49.66
342.977	29.18
343.189	53.76
343.401	55.81
343.613	55.81
343.826	12.8
344.038	2.56
344.25	27.14
344.462	102.91
344.674	14.85
344.886	51.71
345.099	152.06
345.311	0.51
345.523	0.51
345.735	27.14
345.947	55.81
346.159	23.04
346.371	27.14
346.583	78.33
346.795	111.1
347.007	109.05
347.219	29.18
347.431	-42.5
347.643	12.8
347.855	35.33
348.067	55.81
348.279	18.94
348.491	31.23
348.703	27.14
348.915	64
349.127	4.61
349.339	-17.92
349.551	37.38
349.763	51.71
349.975	-9.73
350.187	47.62
350.399	-17.92
350.61	0.51
350.822	78.33
351.034	94.72
351.246	70.14
351.458	72.19
351.669	55.81
351.881	70.14
352.093	-5.63
352.305	-22.02
352.517	74.24
352.728	20.99
352.94	107.01
353.152	-38.4
353.363	-11.78
353.575	-22.02
353.787	72.19
353.999	29.18
354.21	57.86
354.422	49.66
354.633	16.9
354.845	23.04
355.057	16.9
355.268	123.39
355.48	16.9
355.692	35.33
355.903	43.52
356.115	127.49
356.326	16.9
356.538	53.76
356.749	31.23
356.961	-3.58
357.172	57.86
357.384	55.81
357.595	57.86
357.807	35.33
358.018	-9.73
358.23	33.28
358.441	66.05
358.653	-65.02
358.864	35.33
359.075	8.7
359.287	27.14
359.498	37.38
359.709	33.28
359.921	16.9
360.132	51.71
360.344	92.67
360.555	47.62
360.766	92.67
360.977	23.04
361.189	90.62
361.4	37.38
361.611	59.9
361.823	123.39
362.034	53.76
362.245	-62.98
362.456	18.94
362.667	66.05
362.879	78.33
363.09	31.23
363.301	64
363.512	55.81
363.723	29.18
363.935	94.72
364.146	84.48
364.357	20.99
364.568	57.86
364.779	10.75
364.99	53.76
365.201	18.94
365.412	25.09
365.623	31.23
365.834	27.14
366.045	39.42
366.256	45.57
366.467	49.66
366.678	68.09
366.889	45.57
367.1	4.61
367.311	64
367.522	55.81
367.733	27.14
367.944	74.24
368.155	72.19
368.366	53.76
368.577	80.38
368.788	41.47
368.999	8.7
369.209	59.9
369.42	16.9
369.631	100.86
369.842	64
370.053	53.76
370.264	35.33
370.474	84.48
370.685	0.51
370.896	86.53
371.107	-44.54
371.317	10.75
371.528	0.51
371.739	121.34
371.95	20.99
372.16	18.94
372.371	-22.02
372.582	43.52
372.792	33.28
373.003	-22.02
373.214	27.14
373.424	-9.73
373.635	70.14
373.846	2.56
374.056	41.47
374.267	64
374.477	-1.54
374.688	37.38
374.898	121.34
375.109	10.75
375.319	39.42
375.53	43.52
375.74	76.29
375.951	104.96
376.161	45.57
376.372	41.47
376.582	104.96
376.793	-42.5
377.003	53.76
377.214	27.14
377.424	53.76
377.635	33.28
377.845	16.9
378.055	53.76
378.266	49.66
378.476	92.67
378.686	43.52
378.897	35.33
379.107	96.77
379.317	57.86
379.528	23.04
379.738	80.38
379.948	-11.78
380.158	31.23
380.369	31.23
380.579	57.86
380.789	55.81
380.999	84.48
381.21	86.53
381.42	33.28
381.63	66.05
381.84	39.42
382.05	100.86
382.261	23.04
382.471	37.38
382.681	59.9
382.891	78.33
383.101	74.24
383.311	115.2
383.521	29.18
383.731	57.86
383.941	18.94
384.151	53.76
384.361	-24.06
384.571	-11.78
384.781	-5.63
384.991	76.29
385.201	61.95
385.411	68.09
385.621	94.72
385.831	16.9
386.041	10.75
386.251	20.99
386.461	68.09
386.671	53.76
386.881	113.15
387.091	45.57
387.301	72.19
387.511	109.05
387.72	109.05
387.93	27.14
388.14	2.56
388.35	14.85
388.56	43.52
388.769	2.56
388.979	109.05
389.189	59.9
389.399	-1.54
389.609	-5.63
389.818	78.33
390.028	80.38
390.238	98.81
390.447	86.53
390.657	51.71
390.867	100.86
391.076	68.09
391.286	10.75
391.496	66.05
391.705	109.05
391.915	55.81
392.125	10.75
392.334	-9.73
392.544	113.15
392.753	39.42
392.963	25.09
393.172	55.81
393.382	29.18
393.591	111.1
393.801	131.58
394.01	78.33
394.22	68.09
394.429	80.38
394.639	70.14
394.848	70.14
395.058	51.71
395.267	113.15
395.477	4.61
395.686	90.62
395.895	96.77
396.105	107.01
396.314	66.05
396.524	33.28
396.733	90.62
396.942	98.81
397.152	96.77
397.361	68.09
397.57	111.1
397.78	92.67
397.989	66.05
398.198	33.28
398.407	72.19
398.617	137.73
398.826	127.49
399.035	55.81
399.244	4.61
399.453	145.92
399.663	109.05
399.872	20.99
400.081	59.9
400.29	55.81
400.499	43.52
400.708	86.53
400.917	82.43
401.127	88.57
401.336	96.77
401.545	88.57
401.754	66.05
401.963	104.96
402.172	82.43
402.381	139.77
402.59	82.43
402.799	98.81
403.008	51.71
403.217	139.77
403.426	131.58
403.635	70.14
403.844	117.25
404.053	96.77
404.262	119.29
404.471	61.95
404.68	66.05
404.888	98.81
405.097	86.53
405.306	135.68
405.515	113.15
405.724	51.71
405.933	96.77
406.142	82.43
406.35	135.68
406.559	59.9
406.768	90.62
406.977	88.57
407.185	102.91
407.394	182.78
407.603	123.39
407.812	109.05
408.02	152.06
408.229	51.71
408.438	119.29
408.646	152.06
408.855	123.39
409.064	147.97
409.272	147.97
409.481	215.55
409.69	160.25
409.898	162.3
410.107	209.4
410.315	256.51
410.524	223.74
410.733	223.74
410.941	147.97
411.15	217.6
411.358	182.78
411.567	211.45
411.775	154.11
411.984	215.55
412.192	248.32
412.401	201.21
412.609	322.04
412.818	272.89
413.026	348.67
413.234	258.56
413.443	342.52
413.651	231.93
413.86	299.52
414.068	387.58
414.276	371.19
414.485	299.52
414.693	399.87
414.901	371.19
415.11	406.01
415.318	387.58
415.526	412.15
415.734	428.54
415.943	459.26
416.151	496.12
416.359	414.2
416.567	516.6
416.776	541.18
416.984	541.18
417.192	528.89
417.4	561.66
417.608	487.93
417.817	588.28
418.025	578.04
418.233	573.94
418.441	575.99
418.649	705.01
418.857	752.12
419.065	727.54
419.273	688.63
419.481	758.26
419.689	758.26
419.897	801.27
420.105	862.71
420.313	803.32
420.521	911.86
420.729	858.61
420.937	940.53
421.145	997.87
421.353	999.92
421.561	1047.02
421.769	1110.51
421.977	1208.81
422.185	1102.32
422.393	1206.77
422.601	1208.81
422.809	1352.17
423.017	1255.92
423.224	1358.32
423.432	1423.85
423.64	1339.88
423.848	1516.01
424.056	1454.57
424.263	1477.1
424.471	1479.15
424.679	1657.32
424.887	1651.17
425.094	1733.09
425.302	1896.93
425.51	1876.45
425.718	1972.71
425.925	1954.27
426.133	1886.69
426.341	2238.94
426.548	2056.67
426.756	2138.59
426.964	2169.31
427.171	2329.05
427.379	2429.4
427.586	2445.79
427.794	2492.89
428.001	2591.19
428.209	2779.61
428.417	2529.75
428.624	2916.82
428.832	2783.7
429.039	2806.23
429.247	2720.21
429.454	3082.7
429.662	3185.1
429.869	3043.79
430.076	3244.49
430.284	3273.17
430.491	3353.04
430.699	3570.12
430.906	3563.98
431.114	3535.31
431.321	3856.84
431.528	3785.16
431.736	3865.03
431.943	4293.05
432.15	4161.98
432.358	4280.77
432.565	4286.91
432.772	4372.93
432.979	4518.33
433.187	4645.31
433.394	4633.02
433.601	5026.23
433.808	5003.7
434.016	4985.27
434.223	5214.64
434.43	5460.4
434.637	5349.81
434.844	5720.49
435.052	5880.23
435.259	5775.78
435.466	5710.25
435.673	5763.5
435.88	6373.79
436.087	6427.04
436.294	6494.62
436.501	6486.43
436.708	6525.34
436.915	6656.41
437.122	7098.77
437.329	6805.91
437.537	7235.99
437.743	7498.13
437.95	7281.04
438.157	7494.03
438.364	8030.6
438.571	7856.52
438.778	7942.53
438.985	8618.36
439.192	8403.33
439.399	8409.47
439.606	8458.62
439.813	8716.67
440.02	9312.63
440.227	9124.21
440.433	9101.69
440.64	9218.42
440.847	9275.76
441.054	9689.45
441.261	10125.67
441.467	10176.87
441.674	10307.94
441.881	10608.99
442.088	10670.43
442.294	10680.67
442.501	10889.56
442.708	10953.05
442.914	11506
443.121	12075.34
443.328	11596.11
443.534	12407.11
443.741	12390.72
443.948	12130.63
444.154	12802.36
444.361	12990.78
444.568	12941.63
444.774	12943.67
444.981	12947.77
445.187	13228.34
445.394	13920.56
445.6	13820.21
445.807	15221.02
446.013	14590.24
446.22	14596.39
446.426	15227.16
446.633	15210.78
446.839	15874.32
447.046	15333.65
447.252	16109.83
447.459	15976.72
447.665	15960.33
447.871	16824.58
448.078	17451.25
448.284	16728.32
448.491	16926.97
448.697	17484.02
448.903	17916.14
449.11	18106.6
449.316	17549.56
449.522	18049.26
449.728	18700.51
449.935	18739.43
450.141	18569.44
450.347	18981.09
450.553	18372.84
450.76	18591.97
450.966	19355.86
451.172	18964.7
451.378	19280.09
451.584	18946.27
451.791	19583.19
451.997	19648.72
452.203	19781.84
452.409	19792.08
452.615	19865.81
452.821	18989.28
453.027	18745.57
453.233	19884.24
453.44	19183.84
453.646	18823.39
453.852	19151.07
454.058	19525.85
454.264	18723.04
454.47	19353.82
454.676	18919.65
454.882	19362.01
455.088	17725.68
455.294	17852.66
455.5	18233.58
455.705	18321.64
455.911	17809.65
456.117	17250.55
456.323	17000.7
456.529	16328.97
456.735	16898.3
456.941	16257.29
457.147	15950.09
457.352	15657.23
457.558	15610.13
457.764	15769.87
457.97	15061.27
458.176	14739.74
458.381	14788.89
458.587	14049.58
458.793	14227.75
458.999	13183.29
459.204	14299.43
459.41	13809.97
459.616	12853.56
459.821	13050.17
460.027	13156.66
460.233	12632.38
460.438	12118.34
460.644	12142.92
460.85	11501.9
461.055	11456.85
461.261	11456.85
461.466	10703.2
461.672	10314.08
461.878	11049.3
462.083	10273.12
462.289	9988.46
462.494	10246.5
462.7	9539.95
462.905	9218.42
463.111	9623.92
463.316	9752.94
463.522	9408.88
463.727	9568.62
463.932	9443.7
464.138	9300.34
464.343	9482.61
464.549	9148.79
464.754	9335.15
464.959	9374.06
465.165	9210.23
465.37	8808.83
465.575	8733.05
465.781	9228.66
465.986	9001.33
466.191	8761.72
466.397	8497.53
466.602	8190.34
466.807	8583.55
467.012	8425.86
467.218	8454.53
467.423	8386.94
467.628	8329.6
467.833	8741.24
468.038	8329.6
468.244	8182.15
468.449	8614.27
468.654	8178.05
468.859	8245.63
469.064	8231.3
469.269	7803.27
469.474	7907.72
469.679	7866.76
