Data from USB4F104151__176__13-59-00-031.txt Node

Date: Thu Mar 13 13:59:00 EDT 2025
User: louis
Spectrometer: USB4F10415
Trigger mode: 4
Integration Time (sec): 1.000000E-2
Scans to average: 1
Electric dark correction enabled: true
Nonlinearity correction enabled: false
Boxcar width: 0
XAxis mode: Wavelengths
Number of Pixels in Spectrum: 3648
>>>>>Begin Spectral Data<<<<<
178.204	-40.96
178.424	-40.96
178.644	-40.96
178.864	-53.25
179.084	-69.63
179.304	10.24
179.524	-18.43
179.744	-2.05
179.964	32.77
180.184	36.86
180.404	-14.34
180.624	-73.73
180.844	40.96
181.064	12.29
181.283	18.43
181.503	-34.82
181.723	-8.19
181.943	-59.39
182.163	36.86
182.383	98.3
182.602	32.77
182.822	86.01
183.042	28.67
183.262	32.77
183.482	0
183.701	6.14
183.921	10.24
184.141	57.34
184.361	34.82
184.58	-8.19
184.8	-10.24
185.02	26.62
185.239	88.06
185.459	57.34
185.679	92.16
185.898	-40.96
186.118	36.86
186.338	77.82
186.557	10.24
186.777	43.01
186.997	-16.38
187.216	69.63
187.436	65.54
187.655	40.96
187.875	61.44
188.095	61.44
188.314	28.67
188.534	79.87
188.753	30.72
188.973	51.2
189.192	92.16
189.412	20.48
189.631	34.82
189.851	-24.58
190.07	51.2
190.29	-71.68
190.509	10.24
190.729	92.16
190.948	79.87
191.168	75.77
191.387	18.43
191.607	26.62
191.826	20.48
192.045	65.54
192.265	108.54
192.484	108.54
192.704	34.82
192.923	4.1
193.142	24.58
193.362	106.49
193.581	83.97
193.8	-8.19
194.02	26.62
194.239	-2.05
194.458	51.2
194.678	65.54
194.897	22.53
195.116	24.58
195.335	-40.96
195.555	90.11
195.774	57.34
195.993	59.39
196.212	0
196.432	57.34
196.651	40.96
196.87	106.49
197.089	32.77
197.308	2.05
197.528	-2.05
197.747	-24.58
197.966	51.2
198.185	26.62
198.404	45.06
198.623	20.48
198.842	38.91
199.062	-16.38
199.281	47.1
199.5	30.72
199.719	63.49
199.938	8.19
200.157	0
200.376	81.92
200.595	96.25
200.814	133.12
201.033	47.1
201.252	45.06
201.471	32.77
201.69	-14.34
201.909	79.87
202.128	-10.24
202.347	32.77
202.566	32.77
202.785	57.34
203.004	30.72
203.223	10.24
203.442	34.82
203.661	-14.34
203.879	4.1
204.098	114.69
204.317	-67.58
204.536	-16.38
204.755	22.53
204.974	69.63
205.193	40.96
205.411	90.11
205.63	6.14
205.849	-30.72
206.068	47.1
206.287	100.35
206.505	81.92
206.724	102.4
206.943	6.14
207.162	-43.01
207.381	32.77
207.599	24.58
207.818	-2.05
208.037	49.15
208.255	8.19
208.474	-2.05
208.693	26.62
208.911	65.54
209.13	-18.43
209.349	47.1
209.567	36.86
209.786	79.87
210.005	57.34
210.223	90.11
210.442	-4.1
210.661	100.35
210.879	2.05
211.098	67.58
211.316	57.34
211.535	-26.62
211.753	47.1
211.972	32.77
212.191	34.82
212.409	83.97
212.628	12.29
212.846	8.19
213.065	96.25
213.283	24.58
213.502	28.67
213.72	-30.72
213.938	92.16
214.157	8.19
214.375	38.91
214.594	49.15
214.812	36.86
215.031	49.15
215.249	24.58
215.467	53.25
215.686	26.62
215.904	49.15
216.122	-12.29
216.341	49.15
216.559	73.73
216.778	38.91
216.996	28.67
217.214	0
217.432	69.63
217.651	53.25
217.869	-32.77
218.087	-26.62
218.306	-16.38
218.524	22.53
218.742	61.44
218.96	24.58
219.179	-47.1
219.397	40.96
219.615	65.54
219.833	167.93
220.051	92.16
220.27	-16.38
220.488	59.39
220.706	26.62
220.924	98.3
221.142	24.58
221.36	47.1
221.578	34.82
221.796	18.43
222.015	30.72
222.233	-24.58
222.451	79.87
222.669	-8.19
222.887	102.4
223.105	20.48
223.323	36.86
223.541	69.63
223.759	94.21
223.977	45.06
224.195	36.86
224.413	32.77
224.631	81.92
224.849	-6.14
225.067	47.1
225.285	28.67
225.503	16.38
225.721	8.19
225.939	65.54
226.157	75.77
226.375	102.4
226.592	55.3
226.81	26.62
227.028	-40.96
227.246	108.54
227.464	34.82
227.682	73.73
227.9	63.49
228.117	26.62
228.335	81.92
228.553	-6.14
228.771	86.01
228.989	12.29
229.206	38.91
229.424	2.05
229.642	18.43
229.86	67.58
230.077	14.34
230.295	34.82
230.513	86.01
230.731	10.24
230.948	49.15
231.166	83.97
231.384	86.01
231.601	71.68
231.819	20.48
232.037	38.91
232.254	-4.1
232.472	-24.58
232.689	88.06
232.907	45.06
233.125	4.1
233.342	34.82
233.56	-12.29
233.777	2.05
233.995	-14.34
234.213	81.92
234.43	86.01
234.648	20.48
234.865	129.02
235.083	24.58
235.3	-43.01
235.518	16.38
235.735	14.34
235.953	57.34
236.17	-10.24
236.388	26.62
236.605	-28.67
236.822	-4.1
237.04	32.77
237.257	40.96
237.475	98.3
237.692	73.73
237.909	98.3
238.127	43.01
238.344	73.73
238.562	51.2
238.779	0
238.996	59.39
239.214	61.44
239.431	67.58
239.648	73.73
239.865	47.1
240.083	88.06
240.3	6.14
240.517	49.15
240.735	90.11
240.952	67.58
241.169	24.58
241.386	30.72
241.603	61.44
241.821	43.01
242.038	98.3
242.255	45.06
242.472	-16.38
242.689	90.11
242.907	43.01
243.124	49.15
243.341	69.63
243.558	124.93
243.775	28.67
243.992	77.82
244.209	-12.29
244.426	16.38
244.643	86.01
244.86	12.29
245.078	-4.1
245.295	79.87
245.512	53.25
245.729	49.15
245.946	24.58
246.163	22.53
246.38	32.77
246.597	69.63
246.814	47.1
247.031	92.16
247.248	-28.67
247.464	-26.62
247.681	88.06
247.898	36.86
248.115	61.44
248.332	57.34
248.549	57.34
248.766	67.58
248.983	102.4
249.2	28.67
249.417	6.14
249.633	-65.54
249.85	32.77
250.067	34.82
250.284	102.4
250.501	45.06
250.717	38.91
250.934	-22.53
251.151	-6.14
251.368	18.43
251.585	-4.1
251.801	79.87
252.018	24.58
252.235	53.25
252.451	-2.05
252.668	24.58
252.885	110.59
253.102	40.96
253.318	8.19
253.535	-6.14
253.752	32.77
253.968	26.62
254.185	71.68
254.401	38.91
254.618	71.68
254.835	51.2
255.051	28.67
255.268	45.06
255.484	51.2
255.701	65.54
255.917	61.44
256.134	26.62
256.351	81.92
256.567	32.77
256.784	12.29
257	81.92
257.217	81.92
257.433	-2.05
257.65	26.62
257.866	75.77
258.082	102.4
258.299	67.58
258.515	149.5
258.732	38.91
258.948	61.44
259.165	24.58
259.381	26.62
259.597	65.54
259.814	18.43
260.03	-10.24
260.246	8.19
260.463	51.2
260.679	65.54
260.895	24.58
261.112	71.68
261.328	67.58
261.544	-6.14
261.761	102.4
261.977	73.73
262.193	0
262.409	45.06
262.626	-12.29
262.842	57.34
263.058	34.82
263.274	98.3
263.49	-2.05
263.707	45.06
263.923	-45.06
264.139	47.1
264.355	-4.1
264.571	-32.77
264.787	100.35
265.004	63.49
265.22	-10.24
265.436	116.73
265.652	18.43
265.868	28.67
266.084	135.17
266.3	40.96
266.516	43.01
266.732	-8.19
266.948	16.38
267.164	8.19
267.38	61.44
267.596	-30.72
267.812	-10.24
268.028	98.3
268.244	61.44
268.46	40.96
268.676	59.39
268.892	67.58
269.108	-24.58
269.324	67.58
269.54	45.06
269.756	102.4
269.972	-38.91
270.188	73.73
270.403	26.62
270.619	45.06
270.835	40.96
271.051	28.67
271.267	34.82
271.483	-2.05
271.698	65.54
271.914	75.77
272.13	30.72
272.346	32.77
272.562	22.53
272.777	-8.19
272.993	96.25
273.209	49.15
273.425	92.16
273.64	49.15
273.856	30.72
274.072	40.96
274.287	67.58
274.503	51.2
274.719	81.92
274.934	108.54
275.15	47.1
275.366	45.06
275.581	45.06
275.797	77.82
276.012	69.63
276.228	69.63
276.444	47.1
276.659	10.24
276.875	83.97
277.09	67.58
277.306	67.58
277.521	40.96
277.737	24.58
277.952	0
278.168	32.77
278.383	53.25
278.599	53.25
278.814	30.72
279.03	57.34
279.245	86.01
279.461	51.2
279.676	0
279.892	28.67
280.107	30.72
280.322	6.14
280.538	43.01
280.753	75.77
280.969	40.96
281.184	34.82
281.399	45.06
281.615	-34.82
281.83	16.38
282.045	47.1
282.26	47.1
282.476	61.44
282.691	4.1
282.906	28.67
283.122	4.1
283.337	118.78
283.552	139.26
283.767	36.86
283.983	79.87
284.198	61.44
284.413	32.77
284.628	-4.1
284.843	18.43
285.058	81.92
285.274	83.97
285.489	-6.14
285.704	30.72
285.919	24.58
286.134	49.15
286.349	69.63
286.564	28.67
286.779	81.92
286.995	36.86
287.21	16.38
287.425	24.58
287.64	90.11
287.855	102.4
288.07	79.87
288.285	34.82
288.5	24.58
288.715	83.97
288.93	81.92
289.145	24.58
289.36	104.45
289.575	-6.14
289.79	55.3
290.004	26.62
290.219	81.92
290.434	-32.77
290.649	-4.1
290.864	61.44
291.079	45.06
291.294	96.25
291.509	28.67
291.724	2.05
291.938	108.54
292.153	57.34
292.368	79.87
292.583	45.06
292.798	40.96
293.012	57.34
293.227	2.05
293.442	32.77
293.657	65.54
293.871	-38.91
294.086	28.67
294.301	36.86
294.516	57.34
294.73	-16.38
294.945	26.62
295.16	77.82
295.374	55.3
295.589	-32.77
295.804	61.44
296.018	0
296.233	4.1
296.447	30.72
296.662	110.59
296.877	-22.53
297.091	79.87
297.306	51.2
297.52	-20.48
297.735	2.05
297.949	32.77
298.164	18.43
298.378	18.43
298.593	126.97
298.807	26.62
299.022	79.87
299.236	90.11
299.451	34.82
299.665	30.72
299.88	71.68
300.094	61.44
300.309	67.58
300.523	92.16
300.737	40.96
300.952	-20.48
301.166	65.54
301.381	24.58
301.595	71.68
301.809	71.68
302.024	2.05
302.238	49.15
302.452	14.34
302.667	86.01
302.881	49.15
303.095	94.21
303.309	8.19
303.524	57.34
303.738	83.97
303.952	0
304.166	69.63
304.381	83.97
304.595	67.58
304.809	90.11
305.023	75.77
305.237	65.54
305.452	100.35
305.666	90.11
305.88	67.58
306.094	73.73
306.308	102.4
306.522	51.2
306.736	116.73
306.95	2.05
307.164	32.77
307.379	92.16
307.593	38.91
307.807	79.87
308.021	65.54
308.235	73.73
308.449	20.48
308.663	86.01
308.877	118.78
309.091	18.43
309.305	45.06
309.519	45.06
309.733	14.34
309.947	26.62
310.161	26.62
310.374	110.59
310.588	149.5
310.802	63.49
311.016	51.2
311.23	71.68
311.444	59.39
311.658	71.68
311.872	86.01
312.085	98.3
312.299	73.73
312.513	67.58
312.727	43.01
312.941	88.06
313.154	24.58
313.368	-34.82
313.582	34.82
313.796	90.11
314.009	102.4
314.223	102.4
314.437	-20.48
314.651	51.2
314.864	90.11
315.078	83.97
315.292	40.96
315.505	40.96
315.719	61.44
315.933	18.43
316.146	77.82
316.36	49.15
316.573	43.01
316.787	81.92
317.001	45.06
317.214	51.2
317.428	32.77
317.641	20.48
317.855	16.38
318.068	24.58
318.282	126.97
318.495	67.58
318.709	61.44
318.922	12.29
319.136	40.96
319.349	18.43
319.563	49.15
319.776	57.34
319.99	53.25
320.203	6.14
320.417	38.91
320.63	6.14
320.843	53.25
321.057	59.39
321.27	16.38
321.483	77.82
321.697	79.87
321.91	81.92
322.124	26.62
322.337	143.36
322.55	73.73
322.763	55.3
322.977	28.67
323.19	36.86
323.403	116.73
323.617	90.11
323.83	126.97
324.043	90.11
324.256	18.43
324.469	61.44
324.683	126.97
324.896	61.44
325.109	2.05
325.322	143.36
325.535	104.45
325.748	102.4
325.962	65.54
326.175	36.86
326.388	-43.01
326.601	47.1
326.814	61.44
327.027	16.38
327.24	-28.67
327.453	53.25
327.666	65.54
327.879	28.67
328.092	106.49
328.305	67.58
328.518	40.96
328.731	-38.91
328.944	36.86
329.157	24.58
329.37	75.77
329.583	131.07
329.796	75.77
330.009	49.15
330.222	92.16
330.435	65.54
330.648	24.58
330.861	18.43
331.073	104.45
331.286	88.06
331.499	12.29
331.712	10.24
331.925	43.01
332.138	-4.1
332.35	57.34
332.563	38.91
332.776	22.53
332.989	55.3
333.202	61.44
333.414	67.58
333.627	36.86
333.84	45.06
334.053	49.15
334.265	40.96
334.478	51.2
334.691	-8.19
334.903	90.11
335.116	53.25
335.329	69.63
335.541	90.11
335.754	53.25
335.966	2.05
336.179	100.35
336.392	51.2
336.604	-10.24
336.817	8.19
337.029	102.4
337.242	51.2
337.454	0
337.667	47.1
337.88	81.92
338.092	-12.29
338.305	2.05
338.517	16.38
338.729	-4.1
338.942	71.68
339.154	38.91
339.367	0
339.579	43.01
339.792	135.17
340.004	65.54
340.217	43.01
340.429	24.58
340.641	53.25
340.854	51.2
341.066	26.62
341.278	65.54
341.491	131.07
341.703	-10.24
341.915	45.06
342.128	32.77
342.34	-2.05
342.552	34.82
342.764	6.14
342.977	0
343.189	43.01
343.401	83.97
343.613	28.67
343.826	108.54
344.038	73.73
344.25	36.86
344.462	49.15
344.674	67.58
344.886	94.21
345.099	73.73
345.311	124.93
345.523	90.11
345.735	45.06
345.947	57.34
346.159	-30.72
346.371	67.58
346.583	77.82
346.795	8.19
347.007	83.97
347.219	106.49
347.431	16.38
347.643	92.16
347.855	38.91
348.067	22.53
348.279	-4.1
348.491	122.88
348.703	47.1
348.915	65.54
349.127	-28.67
349.339	79.87
349.551	28.67
349.763	100.35
349.975	49.15
350.187	147.45
350.399	16.38
350.61	49.15
350.822	110.59
351.034	73.73
351.246	124.93
351.458	-6.14
351.669	108.54
351.881	40.96
352.093	28.67
352.305	116.73
352.517	22.53
352.728	20.48
352.94	77.82
353.152	75.77
353.363	86.01
353.575	59.39
353.787	71.68
353.999	40.96
354.21	81.92
354.422	90.11
354.633	22.53
354.845	47.1
355.057	32.77
355.268	36.86
355.48	49.15
355.692	104.45
355.903	65.54
356.115	40.96
356.326	112.64
356.538	137.21
356.749	2.05
356.961	59.39
357.172	102.4
357.384	57.34
357.595	45.06
357.807	47.1
358.018	40.96
358.23	86.01
358.441	38.91
358.653	55.3
358.864	-2.05
359.075	6.14
359.287	65.54
359.498	145.41
359.709	59.39
359.921	45.06
360.132	51.2
360.344	45.06
360.555	57.34
360.766	98.3
360.977	118.78
361.189	53.25
361.4	32.77
361.611	32.77
361.823	79.87
362.034	26.62
362.245	14.34
362.456	55.3
362.667	98.3
362.879	38.91
363.09	59.39
363.301	49.15
363.512	14.34
363.723	43.01
363.935	116.73
364.146	77.82
364.357	79.87
364.568	100.35
364.779	53.25
364.99	83.97
365.201	18.43
365.412	114.69
365.623	0
365.834	86.01
366.045	14.34
366.256	88.06
366.467	45.06
366.678	114.69
366.889	96.25
367.1	59.39
367.311	0
367.522	65.54
367.733	90.11
367.944	55.3
368.155	36.86
368.366	61.44
368.577	61.44
368.788	120.83
368.999	12.29
369.209	49.15
369.42	131.07
369.631	120.83
369.842	49.15
370.053	2.05
370.264	88.06
370.474	126.97
370.685	53.25
370.896	49.15
371.107	55.3
371.317	45.06
371.528	100.35
371.739	100.35
371.95	20.48
372.16	69.63
372.371	92.16
372.582	-2.05
372.792	79.87
373.003	94.21
373.214	45.06
373.424	55.3
373.635	45.06
373.846	79.87
374.056	100.35
374.267	51.2
374.477	81.92
374.688	116.73
374.898	83.97
375.109	86.01
375.319	59.39
375.53	139.26
375.74	32.77
375.951	100.35
376.161	53.25
376.372	114.69
376.582	8.19
376.793	90.11
377.003	114.69
377.214	67.58
377.424	-6.14
377.635	73.73
377.845	71.68
378.055	100.35
378.266	30.72
378.476	71.68
378.686	86.01
378.897	122.88
379.107	77.82
379.317	38.91
379.528	98.3
379.738	49.15
379.948	12.29
380.158	94.21
380.369	16.38
380.579	63.49
380.789	94.21
380.999	59.39
381.21	26.62
381.42	133.12
381.63	38.91
381.84	63.49
382.05	45.06
382.261	69.63
382.471	73.73
382.681	32.77
382.891	83.97
383.101	122.88
383.311	102.4
383.521	73.73
383.731	75.77
383.941	38.91
384.151	45.06
384.361	133.12
384.571	149.5
384.781	61.44
384.991	51.2
385.201	51.2
385.411	57.34
385.621	83.97
385.831	57.34
386.041	122.88
386.251	90.11
386.461	92.16
386.671	122.88
386.881	131.07
387.091	67.58
387.301	65.54
387.511	57.34
387.72	92.16
387.93	90.11
388.14	120.83
388.35	49.15
388.56	135.17
388.769	67.58
388.979	57.34
389.189	24.58
389.399	22.53
389.609	81.92
389.818	81.92
390.028	86.01
390.238	73.73
390.447	-8.19
390.657	126.97
390.867	86.01
391.076	104.45
391.286	67.58
391.496	143.36
391.705	6.14
391.915	137.21
392.125	32.77
392.334	92.16
392.544	94.21
392.753	71.68
392.963	69.63
393.172	67.58
393.382	155.65
393.591	137.21
393.801	57.34
394.01	71.68
394.22	36.86
394.429	8.19
394.639	83.97
394.848	86.01
395.058	86.01
395.267	-14.34
395.477	147.45
395.686	100.35
395.895	59.39
396.105	112.64
396.314	79.87
396.524	116.73
396.733	163.84
396.942	120.83
397.152	61.44
397.361	90.11
397.57	163.84
397.78	114.69
397.989	112.64
398.198	110.59
398.407	116.73
398.617	83.97
398.826	73.73
399.035	75.77
399.244	141.31
399.453	83.97
399.663	73.73
399.872	124.93
400.081	2.05
400.29	94.21
400.499	131.07
400.708	131.07
400.917	172.03
401.127	96.25
401.336	147.45
401.545	157.69
401.754	143.36
401.963	116.73
402.172	108.54
402.381	94.21
402.59	122.88
402.799	75.77
403.008	106.49
403.217	88.06
403.426	90.11
403.635	120.83
403.844	143.36
404.053	163.84
404.262	110.59
404.471	155.65
404.68	167.93
404.888	149.5
405.097	104.45
405.306	174.08
405.515	53.25
405.724	153.6
405.933	139.26
406.142	124.93
406.35	118.78
406.559	231.42
406.768	272.38
406.977	229.37
407.185	165.89
407.394	190.46
407.603	221.18
407.812	188.41
408.02	165.89
408.229	210.94
408.438	206.84
408.646	233.47
408.855	266.24
409.064	299
409.272	264.19
409.481	256
409.69	299
409.898	299
410.107	186.37
410.315	337.91
410.524	303.1
410.733	311.29
410.941	288.76
411.15	321.53
411.358	333.82
411.567	237.56
411.775	415.74
411.984	393.21
412.192	370.68
412.401	454.65
412.609	389.11
412.818	450.55
413.026	389.11
413.234	516.09
413.443	477.18
413.651	428.03
413.86	397.31
414.068	552.95
414.276	493.56
414.485	493.56
414.693	667.64
414.901	598.01
415.11	661.49
415.318	604.15
415.526	604.15
415.734	708.6
415.943	751.6
416.151	747.51
416.359	708.6
416.567	727.03
416.776	817.14
416.984	819.19
417.192	872.43
417.4	864.24
417.608	845.81
417.817	976.88
418.025	950.26
418.233	1015.79
418.441	995.31
418.649	987.12
418.857	1161.2
419.065	1185.77
419.273	1181.68
419.481	1089.52
419.689	1314.8
419.897	1294.32
420.105	1261.55
420.313	1392.62
420.521	1298.41
420.729	1320.94
420.937	1435.63
421.145	1468.39
421.353	1693.67
421.561	1583.08
421.769	1701.86
421.977	1681.38
422.185	1720.29
422.393	1851.36
422.601	1943.52
422.809	1923.04
423.017	1890.28
423.224	2064.35
423.432	2166.75
423.64	2199.52
423.848	2285.53
424.056	2293.72
424.263	2465.75
424.471	2277.34
424.679	2508.76
424.887	2654.17
425.094	2736.09
425.302	2740.18
425.51	2885.59
425.718	2807.77
425.925	2895.83
426.133	3028.95
426.341	3086.29
426.548	3350.48
426.756	3401.68
426.964	3424.2
427.171	3698.63
427.379	3809.22
427.586	3751.88
427.794	3735.49
428.001	4093.89
428.209	4067.27
428.417	4171.71
428.624	4460.48
428.832	4548.54
429.039	4261.82
429.247	4466.62
429.454	4665.27
429.662	5144.5
429.869	4769.72
430.076	5128.11
430.284	4929.46
430.491	5109.68
430.699	5494.7
430.906	5457.84
431.114	5623.72
431.321	5820.33
431.528	6039.46
431.736	6385.57
431.943	6664.09
432.15	6389.66
432.358	6424.48
432.565	6819.74
432.772	6819.74
432.979	7077.78
433.187	7251.86
433.394	7309.2
433.601	7671.69
433.808	7987.08
434.016	7835.53
434.223	8017.8
434.43	8454.01
434.637	8460.16
434.844	8859.51
435.052	9090.93
435.259	8943.48
435.466	9207.67
435.673	9025.4
435.88	9521.01
436.087	9965.42
436.294	10162.02
436.501	9756.52
436.708	9981.8
436.915	10461.02
437.122	10805.08
437.329	10987.35
437.537	10995.54
437.743	11331.41
437.95	11282.26
438.157	12017.48
438.364	12218.18
438.571	12171.08
438.778	12484.42
438.985	13424.44
439.192	12650.3
439.399	13256.5
439.606	12894.01
439.813	13655.86
440.02	14632.74
440.227	14333.73
440.433	14047.02
440.64	14628.64
440.847	14380.84
441.054	14999.32
441.261	15740.69
441.467	15804.17
441.674	15931.15
441.881	16670.47
442.088	16576.26
442.294	16514.82
442.501	16705.28
442.708	17053.44
442.914	18022.12
443.121	18460.39
443.328	17958.64
443.534	19465.94
443.741	18845.41
443.948	18466.53
444.154	20022.99
444.361	19810
444.568	20190.92
444.774	19967.7
444.981	20211.4
445.187	20821.7
445.394	21685.94
445.6	21321.4
445.807	23455.39
446.013	22396.59
446.22	22974.11
446.426	23713.43
446.633	24006.29
446.839	24866.44
447.046	23553.69
447.252	24770.18
447.459	25040.51
447.665	24807.05
447.871	25771.64
448.078	27283.04
448.284	25798.26
448.491	26513
448.697	27491.93
448.903	27860.57
449.11	28231.25
449.316	27764.31
449.522	28079.7
449.728	28702.28
449.935	29023.81
450.141	29068.87
450.347	29896.25
450.553	28595.79
450.76	29500.99
450.966	30373.42
451.172	29474.37
451.378	30539.31
451.584	29793.85
451.791	30625.32
451.997	30490.16
452.203	31186.47
452.409	30987.82
452.615	30629.42
452.821	29740.6
453.027	29515.33
453.233	30895.66
453.44	29791.8
453.646	29976.12
453.852	30402.1
454.058	30584.37
454.264	29556.28
454.47	30527.02
454.676	29490.75
454.882	30520.88
455.088	27895.38
455.294	28393.04
455.5	28741.19
455.705	29576.76
455.911	27792.98
456.117	27358.81
456.323	27237.98
456.529	25575.03
456.735	26740.33
456.941	26138.23
457.147	25482.88
457.352	24997.51
457.558	24829.57
457.764	24534.67
457.97	24047.25
458.176	23559.83
458.381	23568.02
458.587	22460.07
458.793	22314.67
458.999	21415.61
459.204	23002.78
459.41	22468.27
459.616	20670.15
459.821	20651.72
460.027	20752.07
460.233	20356.81
460.438	19148.51
460.644	19580.63
460.85	18587.36
461.055	18357.99
461.261	18253.55
461.466	16779.01
461.672	16623.36
461.878	17549.04
462.083	16518.92
462.289	16254.73
462.494	15888.14
462.7	15370.01
462.905	14964.51
463.111	15544.08
463.316	15339.29
463.522	15187.74
463.727	15327
463.932	15159.06
464.138	15042.33
464.343	15015.71
464.549	14702.37
464.754	15132.44
464.959	14845.73
465.165	14847.77
465.37	14149.42
465.575	14157.61
465.781	14563.11
465.986	14614.3
466.191	13870.89
466.397	13635.38
466.602	13043.51
466.807	13770.54
467.012	13647.66
467.218	13641.52
467.423	13360.95
467.628	13475.63
467.833	13995.82
468.038	13512.5
468.244	12971.83
468.449	13643.57
