Data from USB4F104151__96__13-54-36-790.txt Node

Date: Thu Mar 13 13:54:36 EDT 2025
User: louis
Spectrometer: USB4F10415
Trigger mode: 4
Integration Time (sec): 1.000000E-2
Scans to average: 1
Electric dark correction enabled: true
Nonlinearity correction enabled: false
Boxcar width: 0
XAxis mode: Wavelengths
Number of Pixels in Spectrum: 3648
>>>>>Begin Spectral Data<<<<<
178.204	9.39
178.424	9.39
178.644	9.39
178.864	-54.1
179.084	-97.11
179.304	-45.91
179.524	-2.9
179.744	-2.9
179.964	5.29
180.184	15.53
180.404	-15.19
180.624	-2.9
180.844	42.15
181.064	11.43
181.283	-31.57
181.503	-19.29
181.723	46.25
181.943	-19.29
182.163	25.77
182.383	38.06
182.602	68.78
182.822	27.82
183.042	62.63
183.262	-0.85
183.482	5.29
183.701	42.15
183.921	5.29
184.141	56.49
184.361	33.96
184.58	-23.38
184.8	81.07
185.02	-29.52
185.239	27.82
185.459	27.82
185.679	33.96
185.898	46.25
186.118	-2.9
186.338	5.29
186.557	19.63
186.777	-78.68
186.997	1.19
187.216	38.06
187.436	93.35
187.655	15.53
187.875	15.53
188.095	-33.62
188.314	5.29
188.534	-13.14
188.753	25.77
188.973	17.58
189.192	48.3
189.412	-0.85
189.631	44.2
189.851	-2.9
190.07	38.06
190.29	36.01
190.509	15.53
190.729	33.96
190.948	25.77
191.168	27.82
191.387	-2.9
191.607	23.72
191.826	56.49
192.045	-21.33
192.265	31.91
192.484	-33.62
192.704	-4.95
192.923	46.25
193.142	15.53
193.362	3.24
193.581	56.49
193.8	-19.29
194.02	36.01
194.239	11.43
194.458	9.39
194.678	58.54
194.897	56.49
195.116	3.24
195.335	-17.24
195.555	48.3
195.774	23.72
195.993	91.31
196.212	19.63
196.432	-43.86
196.651	15.53
196.87	9.39
197.089	-43.86
197.308	17.58
197.528	-33.62
197.747	-64.34
197.966	-33.62
198.185	-29.52
198.404	46.25
198.623	58.54
198.842	-15.19
199.062	54.44
199.281	13.48
199.5	-23.38
199.719	-19.29
199.938	42.15
200.157	52.39
200.376	3.24
200.595	70.83
200.814	-80.72
201.033	-52.05
201.252	23.72
201.471	-43.86
201.69	128.17
201.909	29.87
202.128	-0.85
202.347	113.83
202.566	58.54
202.785	40.11
203.004	33.96
203.223	-15.19
203.442	21.67
203.661	42.15
203.879	-58.2
204.098	85.16
204.317	-0.85
204.536	25.77
204.755	52.39
204.974	-15.19
205.193	25.77
205.411	89.26
205.63	-7
205.849	3.24
206.068	-13.14
206.287	48.3
206.505	52.39
206.724	46.25
206.943	7.34
207.162	64.68
207.381	-56.15
207.599	27.82
207.818	42.15
208.037	27.82
208.255	15.53
208.474	52.39
208.693	-7
208.911	-2.9
209.13	62.63
209.349	36.01
209.567	-35.67
209.786	60.59
210.005	31.91
210.223	33.96
210.442	72.87
210.661	-52.05
210.879	17.58
211.098	-39.76
211.316	66.73
211.535	1.19
211.753	-29.52
211.972	-17.24
212.191	25.77
212.409	113.83
212.628	31.91
212.846	-2.9
213.065	3.24
213.283	25.77
213.502	23.72
213.72	27.82
213.938	1.19
214.157	7.34
214.375	48.3
214.594	17.58
214.812	13.48
215.031	-4.95
215.249	-31.57
215.467	42.15
215.686	15.53
215.904	74.92
216.122	31.91
216.341	27.82
216.559	85.16
216.778	-43.86
216.996	7.34
217.214	13.48
217.432	62.63
217.651	7.34
217.869	36.01
218.087	-17.24
218.306	-0.85
218.524	7.34
218.742	-27.48
218.96	60.59
219.179	-7
219.397	7.34
219.615	60.59
219.833	60.59
220.051	9.39
220.27	33.96
220.488	23.72
220.706	46.25
220.924	-43.86
221.142	19.63
221.36	15.53
221.578	60.59
221.796	-35.67
222.015	17.58
222.233	17.58
222.451	31.91
222.669	-13.14
222.887	-2.9
223.105	25.77
223.323	-29.52
223.541	-9.05
223.759	56.49
223.977	-9.05
224.195	-64.34
224.413	25.77
224.631	40.11
224.849	31.91
225.067	46.25
225.285	38.06
225.503	85.16
225.721	44.2
225.939	21.67
226.157	15.53
226.375	29.87
226.592	46.25
226.81	56.49
227.028	31.91
227.246	38.06
227.464	25.77
227.682	21.67
227.9	-25.43
228.117	-50
228.335	9.39
228.553	56.49
228.771	33.96
228.989	38.06
229.206	29.87
229.424	-27.48
229.642	9.39
229.86	-37.72
230.077	-19.29
230.295	15.53
230.513	48.3
230.731	46.25
230.948	46.25
231.166	54.44
231.384	9.39
231.601	-15.19
231.819	58.54
232.037	29.87
232.254	-54.1
232.472	38.06
232.689	-11.09
232.907	38.06
233.125	-33.62
233.342	-45.91
233.56	33.96
233.777	87.21
233.995	-9.05
234.213	21.67
234.43	107.69
234.648	33.96
234.865	7.34
235.083	19.63
235.3	64.68
235.518	50.35
235.735	-13.14
235.953	15.53
236.17	-84.82
236.388	29.87
236.605	13.48
236.822	-21.33
237.04	15.53
237.257	19.63
237.475	-23.38
237.692	-9.05
237.909	103.59
238.127	38.06
238.344	1.19
238.562	52.39
238.779	111.78
238.996	21.67
239.214	40.11
239.431	66.73
239.648	-35.67
239.865	36.01
240.083	54.44
240.3	74.92
240.517	87.21
240.735	15.53
240.952	93.35
241.169	60.59
241.386	-2.9
241.603	-41.81
241.821	11.43
242.038	23.72
242.255	15.53
242.472	40.11
242.689	-0.85
242.907	36.01
243.124	-11.09
243.341	13.48
243.558	31.91
243.775	-7
243.992	27.82
244.209	-0.85
244.426	13.48
244.643	91.31
244.86	-82.77
245.078	-0.85
245.295	23.72
245.512	15.53
245.729	-39.76
245.946	111.78
246.163	99.5
246.38	-0.85
246.597	-82.77
246.814	-0.85
247.031	91.31
247.248	64.68
247.464	79.02
247.681	-23.38
247.898	29.87
248.115	-7
248.332	50.35
248.549	23.72
248.766	21.67
248.983	23.72
249.2	13.48
249.417	15.53
249.633	36.01
249.85	-62.29
250.067	23.72
250.284	15.53
250.501	5.29
250.717	38.06
250.934	7.34
251.151	-11.09
251.368	40.11
251.585	-23.38
251.801	-17.24
252.018	-17.24
252.235	58.54
252.451	27.82
252.668	42.15
252.885	1.19
253.102	7.34
253.318	-25.43
253.535	50.35
253.752	-0.85
253.968	23.72
254.185	38.06
254.401	7.34
254.618	13.48
254.835	29.87
255.051	33.96
255.268	-13.14
255.484	48.3
255.701	1.19
255.917	33.96
256.134	5.29
256.351	64.68
256.567	-13.14
256.784	89.26
257	29.87
257.217	19.63
257.433	40.11
257.65	25.77
257.866	42.15
258.082	44.2
258.299	40.11
258.515	113.83
258.732	52.39
258.948	27.82
259.165	132.26
259.381	42.15
259.597	17.58
259.814	13.48
260.03	31.91
260.246	-33.62
260.463	38.06
260.679	48.3
260.895	-9.05
261.112	42.15
261.328	-4.95
261.544	5.29
261.761	25.77
261.977	5.29
262.193	9.39
262.409	72.87
262.626	-33.62
262.842	54.44
263.058	21.67
263.274	-7
263.49	40.11
263.707	99.5
263.923	56.49
264.139	31.91
264.355	62.63
264.571	99.5
264.787	-13.14
265.004	44.2
265.22	62.63
265.436	46.25
265.652	58.54
265.868	-47.96
266.084	25.77
266.3	42.15
266.516	-11.09
266.732	58.54
266.948	25.77
267.164	62.63
267.38	7.34
267.596	46.25
267.812	33.96
268.028	70.83
268.244	27.82
268.46	11.43
268.676	70.83
268.892	101.55
269.108	-23.38
269.324	1.19
269.54	-25.43
269.756	-41.81
269.972	44.2
270.188	46.25
270.403	56.49
270.619	5.29
270.835	50.35
271.051	-11.09
271.267	-2.9
271.483	-4.95
271.698	17.58
271.914	-2.9
272.13	-21.33
272.346	31.91
272.562	81.07
272.777	48.3
272.993	58.54
273.209	-56.15
273.425	38.06
273.64	1.19
273.856	40.11
274.072	70.83
274.287	-9.05
274.503	60.59
274.719	13.48
274.934	36.01
275.15	-17.24
275.366	62.63
275.581	36.01
275.797	-7
276.012	-4.95
276.228	-72.53
276.444	13.48
276.659	105.64
276.875	95.4
277.09	70.83
277.306	1.19
277.521	66.73
277.737	23.72
277.952	42.15
278.168	17.58
278.383	64.68
278.599	21.67
278.814	-13.14
279.03	27.82
279.245	48.3
279.461	132.26
279.676	38.06
279.892	-19.29
280.107	31.91
280.322	23.72
280.538	5.29
280.753	48.3
280.969	17.58
281.184	72.87
281.399	50.35
281.615	-15.19
281.83	27.82
282.045	74.92
282.26	66.73
282.476	33.96
282.691	56.49
282.906	-9.05
283.122	40.11
283.337	-4.95
283.552	5.29
283.767	99.5
283.983	72.87
284.198	11.43
284.413	50.35
284.628	7.34
284.843	46.25
285.058	36.01
285.274	9.39
285.489	-27.48
285.704	33.96
285.919	11.43
286.134	52.39
286.349	81.07
286.564	60.59
286.779	-2.9
286.995	17.58
287.21	-41.81
287.425	62.63
287.64	27.82
287.855	72.87
288.07	21.67
288.285	64.68
288.5	-23.38
288.715	38.06
288.93	5.29
289.145	58.54
289.36	99.5
289.575	31.91
289.79	25.77
290.004	9.39
290.219	50.35
290.434	33.96
290.649	-13.14
290.864	52.39
291.079	5.29
291.294	-25.43
291.509	1.19
291.724	21.67
291.938	1.19
292.153	25.77
292.368	52.39
292.583	-0.85
292.798	46.25
293.012	15.53
293.227	33.96
293.442	48.3
293.657	19.63
293.871	38.06
294.086	46.25
294.301	64.68
294.516	9.39
294.73	19.63
294.945	1.19
295.16	42.15
295.374	13.48
295.589	-17.24
295.804	27.82
296.018	91.31
296.233	36.01
296.447	-41.81
296.662	9.39
296.877	54.44
297.091	36.01
297.306	25.77
297.52	27.82
297.735	101.55
297.949	27.82
298.164	29.87
298.378	68.78
298.593	-9.05
298.807	13.48
299.022	13.48
299.236	52.39
299.451	48.3
299.665	-54.1
299.88	74.92
300.094	-4.95
300.309	-0.85
300.523	-19.29
300.737	48.3
300.952	27.82
301.166	3.24
301.381	-7
301.595	-15.19
301.809	-31.57
302.024	-0.85
302.238	17.58
302.452	21.67
302.667	48.3
302.881	89.26
303.095	42.15
303.309	27.82
303.524	31.91
303.738	15.53
303.952	42.15
304.166	-2.9
304.381	11.43
304.595	29.87
304.809	54.44
305.023	-23.38
305.237	85.16
305.452	56.49
305.666	-45.91
305.88	31.91
306.094	68.78
306.308	48.3
306.522	66.73
306.736	-17.24
306.95	33.96
307.164	-4.95
307.379	-7
307.593	31.91
307.807	42.15
308.021	5.29
308.235	23.72
308.449	60.59
308.663	52.39
308.877	52.39
309.091	17.58
309.305	40.11
309.519	-0.85
309.733	-0.85
309.947	40.11
310.161	-0.85
310.374	74.92
310.588	23.72
310.802	-7
311.016	97.45
311.23	29.87
311.444	52.39
311.658	-4.95
311.872	40.11
312.085	46.25
312.299	115.88
312.513	72.87
312.727	1.19
312.941	54.44
313.154	19.63
313.368	87.21
313.582	3.24
313.796	3.24
314.009	66.73
314.223	-2.9
314.437	13.48
314.651	21.67
314.864	23.72
315.078	-13.14
315.292	13.48
315.505	15.53
315.719	40.11
315.933	40.11
316.146	-64.34
316.36	60.59
316.573	58.54
316.787	25.77
317.001	-35.67
317.214	15.53
317.428	-15.19
317.641	31.91
317.855	85.16
318.068	-11.09
318.282	105.64
318.495	1.19
318.709	48.3
318.922	-78.68
319.136	5.29
319.349	42.15
319.563	70.83
319.776	97.45
319.99	58.54
320.203	-17.24
320.417	74.92
320.63	103.59
320.843	27.82
321.057	25.77
321.27	-37.72
321.483	68.78
321.697	68.78
321.91	60.59
322.124	36.01
322.337	38.06
322.55	13.48
322.763	111.78
322.977	9.39
323.19	19.63
323.403	-23.38
323.617	21.67
323.83	72.87
324.043	7.34
324.256	54.44
324.469	19.63
324.683	-31.57
324.896	15.53
325.109	79.02
325.322	-11.09
325.535	48.3
325.748	5.29
325.962	17.58
326.175	52.39
326.388	1.19
326.601	7.34
326.814	60.59
327.027	40.11
327.24	62.63
327.453	-15.19
327.666	36.01
327.879	76.97
328.092	66.73
328.305	31.91
328.518	36.01
328.731	-2.9
328.944	-15.19
329.157	76.97
329.37	15.53
329.583	50.35
329.796	72.87
330.009	54.44
330.222	44.2
330.435	46.25
330.648	-27.48
330.861	5.29
331.073	-0.85
331.286	31.91
331.499	19.63
331.712	7.34
331.925	60.59
332.138	54.44
332.35	97.45
332.563	46.25
332.776	40.11
332.989	17.58
333.202	-21.33
333.414	7.34
333.627	68.78
333.84	17.58
334.053	-31.57
334.265	21.67
334.478	64.68
334.691	19.63
334.903	29.87
335.116	42.15
335.329	5.29
335.541	15.53
335.754	50.35
335.966	25.77
336.179	15.53
336.392	52.39
336.604	70.83
336.817	13.48
337.029	5.29
337.242	-11.09
337.454	17.58
337.667	13.48
337.88	66.73
338.092	-41.81
338.305	60.59
338.517	3.24
338.729	93.35
338.942	165.03
339.154	109.74
339.367	-7
339.579	72.87
339.792	-15.19
340.004	138.41
340.217	38.06
340.429	25.77
340.641	36.01
340.854	46.25
341.066	1.19
341.278	-13.14
341.491	21.67
341.703	48.3
341.915	1.19
342.128	-45.91
342.34	17.58
342.552	27.82
342.764	-19.29
342.977	1.19
343.189	54.44
343.401	56.49
343.613	-60.24
343.826	7.34
344.038	1.19
344.25	76.97
344.462	38.06
344.674	60.59
344.886	13.48
345.099	29.87
345.311	40.11
345.523	-25.43
345.735	31.91
345.947	27.82
346.159	48.3
346.371	54.44
346.583	15.53
346.795	36.01
347.007	-4.95
347.219	7.34
347.431	48.3
347.643	21.67
347.855	60.59
348.067	46.25
348.279	-29.52
348.491	52.39
348.703	-15.19
348.915	83.11
349.127	-35.67
349.339	27.82
349.551	9.39
349.763	81.07
349.975	52.39
350.187	93.35
350.399	23.72
350.61	52.39
350.822	9.39
351.034	-17.24
351.246	62.63
351.458	66.73
351.669	79.02
351.881	11.43
352.093	33.96
352.305	31.91
352.517	-0.85
352.728	38.06
352.94	33.96
353.152	-13.14
353.363	79.02
353.575	19.63
353.787	66.73
353.999	48.3
354.21	64.68
354.422	7.34
354.633	40.11
354.845	38.06
355.057	27.82
355.268	50.35
355.48	52.39
355.692	27.82
355.903	36.01
356.115	17.58
356.326	-17.24
356.538	36.01
356.749	50.35
356.961	9.39
357.172	46.25
357.384	36.01
357.595	19.63
357.807	89.26
358.018	-11.09
358.23	33.96
358.441	38.06
358.653	97.45
358.864	13.48
359.075	79.02
359.287	-45.91
359.498	85.16
359.709	-27.48
359.921	15.53
360.132	9.39
360.344	-23.38
360.555	-13.14
360.766	-13.14
360.977	-13.14
361.189	15.53
361.4	40.11
361.611	17.58
361.823	91.31
362.034	9.39
362.245	76.97
362.456	50.35
362.667	-0.85
362.879	85.16
363.09	9.39
363.301	89.26
363.512	60.59
363.723	9.39
363.935	-60.24
364.146	29.87
364.357	44.2
364.568	70.83
364.779	52.39
364.99	136.36
365.201	-15.19
365.412	29.87
365.623	29.87
365.834	23.72
366.045	-27.48
366.256	15.53
366.467	9.39
366.678	101.55
366.889	7.34
367.1	79.02
367.311	29.87
367.522	68.78
367.733	44.2
367.944	72.87
368.155	81.07
368.366	-0.85
368.577	5.29
368.788	36.01
368.999	52.39
369.209	-9.05
369.42	19.63
369.631	-39.76
369.842	-2.9
370.053	-21.33
370.264	19.63
370.474	15.53
370.685	-11.09
370.896	60.59
371.107	54.44
371.317	-15.19
371.528	113.83
371.739	89.26
371.95	70.83
372.16	64.68
372.371	85.16
372.582	-29.52
372.792	56.49
373.003	54.44
373.214	93.35
373.424	58.54
373.635	56.49
373.846	50.35
374.056	-2.9
374.267	21.67
374.477	56.49
374.688	-11.09
374.898	113.83
375.109	23.72
375.319	-39.76
375.53	60.59
375.74	44.2
375.951	40.11
376.161	89.26
376.372	56.49
376.582	-4.95
376.793	29.87
377.003	70.83
377.214	58.54
377.424	15.53
377.635	56.49
377.845	68.78
378.055	52.39
378.266	38.06
378.476	-4.95
378.686	5.29
378.897	42.15
379.107	52.39
379.317	11.43
379.528	31.91
379.738	50.35
379.948	15.53
380.158	76.97
380.369	31.91
380.579	81.07
380.789	9.39
380.999	38.06
381.21	56.49
381.42	64.68
381.63	72.87
381.84	40.11
382.05	-7
382.261	48.3
382.471	95.4
382.681	11.43
382.891	-15.19
383.101	36.01
383.311	79.02
383.521	23.72
383.731	-19.29
383.941	7.34
384.151	83.11
384.361	72.87
384.571	64.68
384.781	54.44
384.991	40.11
385.201	83.11
385.411	38.06
385.621	76.97
385.831	52.39
386.041	15.53
386.251	44.2
386.461	54.44
386.671	58.54
386.881	64.68
387.091	17.58
387.301	52.39
387.511	-15.19
387.72	72.87
387.93	74.92
388.14	11.43
388.35	66.73
388.56	5.29
388.769	54.44
388.979	76.97
389.189	66.73
389.399	44.2
389.609	64.68
389.818	62.63
390.028	42.15
390.238	95.4
390.447	-17.24
390.657	11.43
390.867	29.87
391.076	56.49
391.286	40.11
391.496	83.11
391.705	-43.86
391.915	107.69
392.125	101.55
392.334	38.06
392.544	29.87
392.753	44.2
392.963	46.25
393.172	60.59
393.382	42.15
393.591	74.92
393.801	25.77
394.01	103.59
394.22	74.92
394.429	13.48
394.639	19.63
394.848	109.74
395.058	99.5
395.267	117.93
395.477	-43.86
395.686	95.4
395.895	173.22
396.105	36.01
396.314	29.87
396.524	76.97
396.733	97.45
396.942	23.72
397.152	128.17
397.361	52.39
397.57	66.73
397.78	95.4
397.989	89.26
398.198	76.97
398.407	101.55
398.617	152.74
398.826	56.49
399.035	113.83
399.244	85.16
399.453	83.11
399.663	52.39
399.872	83.11
400.081	87.21
400.29	158.89
400.499	5.29
400.708	156.84
400.917	89.26
401.127	68.78
401.336	56.49
401.545	76.97
401.754	142.5
401.963	66.73
402.172	150.7
402.381	95.4
402.59	42.15
402.799	119.98
403.008	42.15
403.217	124.07
403.426	23.72
403.635	17.58
403.844	119.98
404.053	54.44
404.262	87.21
404.471	167.08
404.68	38.06
404.888	109.74
405.097	72.87
405.306	124.07
405.515	136.36
405.724	87.21
405.933	126.12
406.142	148.65
406.35	124.07
406.559	173.22
406.768	134.31
406.977	199.85
407.185	222.38
407.394	107.69
407.603	134.31
407.812	193.7
408.02	214.18
408.229	126.12
408.438	201.9
408.646	175.27
408.855	228.52
409.064	113.83
409.272	148.65
409.481	273.57
409.69	249
409.898	222.38
410.107	265.38
410.315	218.28
410.524	249
410.733	228.52
410.941	310.44
411.15	275.62
411.358	277.67
411.567	320.68
411.775	289.96
411.984	386.21
412.192	312.49
412.401	287.91
412.609	375.97
412.818	369.83
413.026	292.01
413.234	416.93
413.443	384.16
413.651	402.6
413.86	455.84
414.068	431.27
414.276	480.42
414.485	490.66
414.693	451.75
414.901	498.85
415.11	500.9
415.318	550.05
415.526	625.83
415.734	537.76
415.943	591.01
416.151	601.25
416.359	613.54
416.567	623.78
416.776	613.54
416.984	748.7
417.192	734.37
417.4	720.03
417.608	720.03
417.817	799.9
418.025	799.9
418.233	785.57
418.441	916.64
418.649	896.16
418.857	879.77
419.065	973.98
419.273	935.07
419.481	902.3
419.689	1103
419.897	1152.15
420.105	1121.43
420.313	1172.63
420.521	1211.54
420.729	1258.65
420.937	1373.33
421.145	1305.75
421.353	1289.37
421.561	1348.76
421.769	1387.67
421.977	1508.5
422.185	1391.77
422.393	1596.56
422.601	1635.47
422.809	1686.67
423.017	1625.23
423.224	1715.34
423.432	1787.02
423.64	1897.61
423.848	1950.86
424.056	1922.19
424.263	1985.68
424.471	2147.47
424.679	2092.17
424.887	2174.09
425.094	2346.12
425.302	2391.17
425.51	2309.26
425.718	2507.91
425.925	2352.26
426.133	2583.68
426.341	2761.86
426.548	2890.88
426.756	2825.34
426.964	2942.08
427.171	3056.76
427.379	3091.58
427.586	3253.37
427.794	3384.44
428.001	3490.93
428.209	3484.79
428.417	3519.6
428.624	3701.87
428.832	3697.78
429.039	3705.97
429.247	3716.21
429.454	4076.65
429.662	4334.7
429.869	3990.64
430.076	4336.74
430.284	4150.38
430.491	4324.46
430.699	4830.3
430.906	4576.36
431.114	4643.94
431.321	5059.68
431.528	5069.92
431.736	5432.41
431.943	5622.87
432.15	5448.79
432.358	5375.06
432.565	5774.42
432.772	5731.41
432.979	6032.46
433.187	6102.09
433.394	6204.49
433.601	6497.35
433.808	6716.48
434.016	6546.5
434.223	6765.64
434.43	7349.31
434.637	7035.97
434.844	7593.01
435.052	7783.48
435.259	7633.97
435.466	7615.54
435.673	7463.99
435.88	8010.8
436.087	8641.57
436.294	8535.08
436.501	8367.15
436.708	8510.5
436.915	8852.52
437.122	9255.97
437.329	9169.95
437.537	9475.1
437.743	9683.99
437.95	9683.99
438.157	9987.09
438.364	10382.35
438.571	10492.94
438.778	10468.36
438.985	11389.95
439.192	11015.17
439.399	11308.03
439.606	10894.34
439.813	11643.9
440.02	12418.03
440.227	12246
440.433	12035.06
440.64	12590.06
440.847	12465.13
441.054	12680.17
441.261	13388.77
441.467	13380.57
441.674	13698.01
441.881	14218.19
442.088	14052.31
442.294	13982.68
442.501	14253.01
442.708	14769.1
442.914	15158.21
443.121	15743.93
443.328	15270.85
443.534	16319.41
443.741	16135.09
443.948	15797.18
444.154	16937.9
444.361	16645.04
444.568	16972.71
444.774	17068.97
444.981	17226.66
445.187	17656.73
445.394	18473.87
445.6	18373.52
445.807	20095.86
446.013	19374.98
446.22	19549.06
446.426	20153.21
446.633	20304.76
446.839	21013.35
447.046	19907.45
447.252	21179.24
447.459	21564.26
447.665	21359.46
447.871	22506.32
448.078	22883.15
448.284	22055.77
448.491	22520.66
448.697	23567.17
448.903	23817.02
449.11	23948.09
449.316	23386.95
449.522	24120.12
449.728	24654.64
449.935	24458.04
450.141	24722.23
450.347	24982.32
450.553	24587.06
450.76	24892.21
450.966	25750.31
451.172	25393.96
451.378	25795.36
451.584	25281.32
451.791	25908
451.997	26022.69
452.203	26411.8
452.409	26424.09
452.615	26381.08
452.821	25369.38
453.027	24752.94
453.233	26241.82
453.44	25256.75
453.646	25602.85
453.852	25637.67
454.058	26055.45
454.264	25338.66
454.47	25869.09
454.676	24939.31
454.882	25643.81
455.088	23765.82
455.294	24140.6
455.5	24093.5
455.705	24924.97
455.911	23647.04
456.117	23100.23
456.323	22807.37
456.529	21240.68
456.735	22854.48
456.941	21963.61
457.147	21615.46
457.352	21005.16
457.558	20849.52
457.764	20896.62
457.97	20634.48
458.176	19899.26
458.381	19987.32
458.587	18875.27
458.793	18725.77
458.999	17769.37
459.204	19151.75
459.41	18951.05
459.616	17460.13
459.821	17628.06
460.027	17458.08
460.233	17232.8
460.438	16282.55
460.644	16202.68
460.85	15643.58
461.055	15596.48
461.261	15500.22
461.466	14365.65
461.672	13855.7
461.878	14930.89
462.083	13986.77
462.289	13575.13
462.494	13315.04
462.7	12919.78
462.905	12534.76
463.111	13016.04
463.316	13165.54
463.522	12604.39
463.727	12745.7
463.932	12792.81
464.138	12667.88
464.343	12665.83
464.549	12252.14
464.754	13079.52
464.959	12585.96
465.165	12620.78
465.37	12037.11
465.575	11611.13
465.781	12035.06
465.986	12157.94
466.191	11678.71
466.397	11437.05
466.602	11031.55
466.807	11330.56
467.012	11199.49
467.218	11062.27
467.423	11303.93
467.628	11348.99
467.833	11893.75
468.038	11312.13
468.244	10996.74
468.449	11410.43
468.654	11049.99
