Data from USB4F104151__144__13-58-16-315.txt Node

Date: Thu Mar 13 13:58:16 EDT 2025
User: louis
Spectrometer: USB4F10415
Trigger mode: 4
Integration Time (sec): 1.000000E-2
Scans to average: 1
Electric dark correction enabled: true
Nonlinearity correction enabled: false
Boxcar width: 0
XAxis mode: Wavelengths
Number of Pixels in Spectrum: 3648
>>>>>Begin Spectral Data<<<<<
178.204	-2.56
178.424	-2.56
178.644	-2.56
178.864	-2.56
179.084	69.12
179.304	1.54
179.524	-29.18
179.744	11.78
179.964	46.59
180.184	-25.09
180.404	19.97
180.624	15.87
180.844	-10.75
181.064	-12.8
181.283	-84.48
181.503	15.87
181.723	50.69
181.943	13.82
182.163	19.97
182.383	17.92
182.602	126.46
182.822	13.82
183.042	30.21
183.262	-51.71
183.482	83.45
183.701	60.93
183.921	-12.8
184.141	17.92
184.361	77.31
184.58	48.64
184.8	22.02
185.02	48.64
185.239	3.58
185.459	-2.56
185.679	-25.09
185.898	24.06
186.118	58.88
186.338	11.78
186.557	30.21
186.777	42.5
186.997	-27.14
187.216	50.69
187.436	79.36
187.655	58.88
187.875	87.55
188.095	22.02
188.314	24.06
188.534	-2.56
188.753	11.78
188.973	-2.56
189.192	60.93
189.412	-55.81
189.631	52.74
189.851	32.26
190.07	40.45
190.29	-20.99
190.509	13.82
190.729	-39.42
190.948	48.64
191.168	48.64
191.387	87.55
191.607	79.36
191.826	79.36
192.045	19.97
192.265	103.93
192.484	5.63
192.704	-10.75
192.923	36.35
193.142	87.55
193.362	-8.7
193.581	52.74
193.8	11.78
194.02	5.63
194.239	19.97
194.458	67.07
194.678	38.4
194.897	22.02
195.116	28.16
195.335	38.4
195.555	36.35
195.774	28.16
195.993	24.06
196.212	58.88
196.432	-23.04
196.651	42.5
196.87	17.92
197.089	42.5
197.308	97.79
197.528	24.06
197.747	81.41
197.966	17.92
198.185	69.12
198.404	-0.51
198.623	44.54
198.842	32.26
199.062	-64
199.281	62.98
199.5	65.02
199.719	36.35
199.938	34.3
200.157	-0.51
200.376	42.5
200.595	-33.28
200.814	22.02
201.033	-27.14
201.252	48.64
201.471	30.21
201.69	24.06
201.909	69.12
202.128	56.83
202.347	48.64
202.566	32.26
202.785	3.58
203.004	-61.95
203.223	108.03
203.442	-14.85
203.661	7.68
203.879	22.02
204.098	-0.51
204.317	7.68
204.536	30.21
204.755	97.79
204.974	71.17
205.193	-16.9
205.411	69.12
205.63	-45.57
205.849	9.73
206.068	34.3
206.287	-12.8
206.505	52.74
206.724	-2.56
206.943	5.63
207.162	42.5
207.381	58.88
207.599	95.74
207.818	-6.66
208.037	54.78
208.255	9.73
208.474	87.55
208.693	75.26
208.911	60.93
209.13	-18.94
209.349	7.68
209.567	22.02
209.786	62.98
210.005	3.58
210.223	62.98
210.442	44.54
210.661	97.79
210.879	-43.52
211.098	67.07
211.316	50.69
211.535	87.55
211.753	34.3
211.972	71.17
212.191	54.78
212.409	44.54
212.628	128.51
212.846	73.21
213.065	38.4
213.283	38.4
213.502	-20.99
213.72	-4.61
213.938	89.6
214.157	81.41
214.375	36.35
214.594	-0.51
214.812	38.4
215.031	65.02
215.249	30.21
215.467	99.84
215.686	114.17
215.904	30.21
216.122	40.45
216.341	13.82
216.559	-12.8
216.778	79.36
216.996	11.78
217.214	50.69
217.432	38.4
217.651	77.31
217.869	91.65
218.087	-4.61
218.306	30.21
218.524	13.82
218.742	15.87
218.96	38.4
219.179	56.83
219.397	81.41
219.615	95.74
219.833	77.31
220.051	50.69
220.27	67.07
220.488	60.93
220.706	-49.66
220.924	42.5
221.142	13.82
221.36	-14.85
221.578	30.21
221.796	22.02
222.015	89.6
222.233	11.78
222.451	46.59
222.669	26.11
222.887	44.54
223.105	-23.04
223.323	54.78
223.541	11.78
223.759	46.59
223.977	5.63
224.195	67.07
224.413	9.73
224.631	32.26
224.849	54.78
225.067	95.74
225.285	7.68
225.503	65.02
225.721	44.54
225.939	34.3
226.157	-51.71
226.375	40.45
226.592	-43.52
226.81	44.54
227.028	-10.75
227.246	46.59
227.464	-20.99
227.682	48.64
227.9	22.02
228.117	34.3
228.335	7.68
228.553	120.32
228.771	46.59
228.989	22.02
229.206	-12.8
229.424	-18.94
229.642	30.21
229.86	62.98
230.077	13.82
230.295	22.02
230.513	11.78
230.731	28.16
230.948	62.98
231.166	30.21
231.384	38.4
231.601	13.82
231.819	-41.47
232.037	36.35
232.254	-27.14
232.472	30.21
232.689	89.6
232.907	-20.99
233.125	19.97
233.342	101.89
233.56	28.16
233.777	89.6
233.995	67.07
234.213	62.98
234.43	34.3
234.648	52.74
234.865	-37.38
235.083	24.06
235.3	87.55
235.518	73.21
235.735	13.82
235.953	50.69
236.17	5.63
236.388	42.5
236.605	50.69
236.822	-18.94
237.04	24.06
237.257	65.02
237.475	-16.9
237.692	58.88
237.909	-31.23
238.127	11.78
238.344	38.4
238.562	7.68
238.779	11.78
238.996	42.5
239.214	26.11
239.431	62.98
239.648	-0.51
239.865	54.78
240.083	40.45
240.3	77.31
240.517	52.74
240.735	42.5
240.952	65.02
241.169	22.02
241.386	28.16
241.603	44.54
241.821	13.82
242.038	19.97
242.255	87.55
242.472	77.31
242.689	26.11
242.907	56.83
243.124	-2.56
243.341	22.02
243.558	-8.7
243.775	15.87
243.992	60.93
244.209	-18.94
244.426	105.98
244.643	58.88
244.86	46.59
245.078	24.06
245.295	62.98
245.512	-0.51
245.729	93.69
245.946	50.69
246.163	56.83
246.38	58.88
246.597	40.45
246.814	28.16
247.031	7.68
247.248	5.63
247.464	34.3
247.681	36.35
247.898	50.69
248.115	79.36
248.332	34.3
248.549	38.4
248.766	11.78
248.983	-0.51
249.2	87.55
249.417	46.59
249.633	19.97
249.85	36.35
250.067	-49.66
250.284	24.06
250.501	9.73
250.717	79.36
250.934	3.58
251.151	32.26
251.368	44.54
251.585	75.26
251.801	46.59
252.018	-2.56
252.235	-35.33
252.451	34.3
252.668	34.3
252.885	46.59
253.102	103.93
253.318	1.54
253.535	56.83
253.752	22.02
253.968	40.45
254.185	15.87
254.401	91.65
254.618	75.26
254.835	11.78
255.051	9.73
255.268	34.3
255.484	-14.85
255.701	17.92
255.917	69.12
256.134	91.65
256.351	42.5
256.567	67.07
256.784	50.69
257	11.78
257.217	7.68
257.433	30.21
257.65	32.26
257.866	65.02
258.082	93.69
258.299	114.17
258.515	48.64
258.732	-43.52
258.948	87.55
259.165	-18.94
259.381	52.74
259.597	81.41
259.814	93.69
260.03	38.4
260.246	26.11
260.463	28.16
260.679	38.4
260.895	1.54
261.112	22.02
261.328	71.17
261.544	42.5
261.761	56.83
261.977	-6.66
262.193	38.4
262.409	85.5
262.626	-10.75
262.842	22.02
263.058	-23.04
263.274	65.02
263.49	36.35
263.707	108.03
263.923	-35.33
264.139	19.97
264.355	67.07
264.571	81.41
264.787	48.64
265.004	69.12
265.22	-29.18
265.436	-10.75
265.652	38.4
265.868	-10.75
266.084	22.02
266.3	83.45
266.516	60.93
266.732	26.11
266.948	38.4
267.164	-8.7
267.38	48.64
267.596	83.45
267.812	81.41
268.028	124.41
268.244	54.78
268.46	105.98
268.676	9.73
268.892	52.74
269.108	46.59
269.324	85.5
269.54	44.54
269.756	83.45
269.972	-0.51
270.188	62.98
270.403	38.4
270.619	54.78
270.835	91.65
271.051	26.11
271.267	32.26
271.483	50.69
271.698	81.41
271.914	48.64
272.13	91.65
272.346	46.59
272.562	79.36
272.777	40.45
272.993	-12.8
273.209	56.83
273.425	65.02
273.64	48.64
273.856	26.11
274.072	62.98
274.287	62.98
274.503	7.68
274.719	13.82
274.934	108.03
275.15	40.45
275.366	44.54
275.581	-39.42
275.797	46.59
276.012	15.87
276.228	87.55
276.444	83.45
276.659	-10.75
276.875	11.78
277.09	-29.18
277.306	30.21
277.521	83.45
277.737	-37.38
277.952	22.02
278.168	58.88
278.383	50.69
278.599	42.5
278.814	54.78
279.03	50.69
279.245	79.36
279.461	-16.9
279.676	62.98
279.892	5.63
280.107	44.54
280.322	67.07
280.538	19.97
280.753	-0.51
280.969	7.68
281.184	17.92
281.399	13.82
281.615	32.26
281.83	54.78
282.045	34.3
282.26	32.26
282.476	65.02
282.691	118.27
282.906	65.02
283.122	89.6
283.337	56.83
283.552	56.83
283.767	30.21
283.983	58.88
284.198	48.64
284.413	9.73
284.628	-2.56
284.843	32.26
285.058	38.4
285.274	85.5
285.489	-18.94
285.704	56.83
285.919	32.26
286.134	67.07
286.349	58.88
286.564	-25.09
286.779	9.73
286.995	-14.85
287.21	-49.66
287.425	73.21
287.64	19.97
287.855	36.35
288.07	36.35
288.285	48.64
288.5	34.3
288.715	54.78
288.93	56.83
289.145	79.36
289.36	26.11
289.575	38.4
289.79	48.64
290.004	34.3
290.219	3.58
290.434	22.02
290.649	-31.23
290.864	58.88
291.079	17.92
291.294	91.65
291.509	26.11
291.724	83.45
291.938	11.78
292.153	56.83
292.368	-33.28
292.583	9.73
292.798	-12.8
293.012	83.45
293.227	69.12
293.442	26.11
293.657	1.54
293.871	83.45
294.086	34.3
294.301	22.02
294.516	11.78
294.73	97.79
294.945	71.17
295.16	38.4
295.374	48.64
295.589	-49.66
295.804	9.73
296.018	7.68
296.233	42.5
296.447	171.52
296.662	-2.56
296.877	71.17
297.091	112.13
297.306	15.87
297.52	13.82
297.735	24.06
297.949	30.21
298.164	71.17
298.378	26.11
298.593	73.21
298.807	46.59
299.022	-33.28
299.236	3.58
299.451	34.3
299.665	67.07
299.88	95.74
300.094	36.35
300.309	69.12
300.523	30.21
300.737	40.45
300.952	62.98
301.166	114.17
301.381	48.64
301.595	7.68
301.809	3.58
302.024	77.31
302.238	40.45
302.452	65.02
302.667	83.45
302.881	-33.28
303.095	71.17
303.309	50.69
303.524	42.5
303.738	62.98
303.952	67.07
304.166	75.26
304.381	42.5
304.595	112.13
304.809	1.54
305.023	38.4
305.237	34.3
305.452	62.98
305.666	19.97
305.88	101.89
306.094	28.16
306.308	87.55
306.522	1.54
306.736	56.83
306.95	5.63
307.164	-8.7
307.379	-12.8
307.593	105.98
307.807	42.5
308.021	81.41
308.235	46.59
308.449	56.83
308.663	58.88
308.877	93.69
309.091	69.12
309.305	34.3
309.519	-55.81
309.733	30.21
309.947	17.92
310.161	-0.51
310.374	71.17
310.588	-16.9
310.802	32.26
311.016	50.69
311.23	46.59
311.444	42.5
311.658	38.4
311.872	30.21
312.085	13.82
312.299	87.55
312.513	69.12
312.727	30.21
312.941	89.6
313.154	-8.7
313.368	-61.95
313.582	62.98
313.796	44.54
314.009	-0.51
314.223	71.17
314.437	54.78
314.651	38.4
314.864	87.55
315.078	48.64
315.292	1.54
315.505	-37.38
315.719	58.88
315.933	67.07
316.146	-27.14
316.36	1.54
316.573	30.21
316.787	26.11
317.001	38.4
317.214	-14.85
317.428	50.69
317.641	62.98
317.855	36.35
318.068	62.98
318.282	7.68
318.495	50.69
318.709	42.5
318.922	-39.42
319.136	42.5
319.349	26.11
319.563	44.54
319.776	13.82
319.99	60.93
320.203	48.64
320.417	34.3
320.63	65.02
320.843	50.69
321.057	5.63
321.27	30.21
321.483	30.21
321.697	-8.7
321.91	38.4
322.124	60.93
322.337	50.69
322.55	89.6
322.763	1.54
322.977	11.78
323.19	65.02
323.403	24.06
323.617	54.78
323.83	108.03
324.043	36.35
324.256	5.63
324.469	54.78
324.683	34.3
324.896	36.35
325.109	-6.66
325.322	3.58
325.535	24.06
325.748	60.93
325.962	38.4
326.175	-4.61
326.388	7.68
326.601	99.84
326.814	19.97
327.027	69.12
327.24	81.41
327.453	38.4
327.666	79.36
327.879	69.12
328.092	40.45
328.305	34.3
328.518	5.63
328.731	19.97
328.944	22.02
329.157	28.16
329.37	54.78
329.583	28.16
329.796	40.45
330.009	52.74
330.222	9.73
330.435	38.4
330.648	42.5
330.861	48.64
331.073	52.74
331.286	85.5
331.499	11.78
331.712	87.55
331.925	79.36
332.138	77.31
332.35	17.92
332.563	77.31
332.776	62.98
332.989	11.78
333.202	24.06
333.414	46.59
333.627	30.21
333.84	77.31
334.053	17.92
334.265	62.98
334.478	19.97
334.691	9.73
334.903	87.55
335.116	-47.62
335.329	38.4
335.541	136.7
335.754	79.36
335.966	79.36
336.179	83.45
336.392	40.45
336.604	50.69
336.817	11.78
337.029	79.36
337.242	69.12
337.454	56.83
337.667	-6.66
337.88	38.4
338.092	50.69
338.305	87.55
338.517	30.21
338.729	-0.51
338.942	34.3
339.154	-74.24
339.367	-33.28
339.579	114.17
339.792	42.5
340.004	95.74
340.217	50.69
340.429	30.21
340.641	19.97
340.854	9.73
341.066	9.73
341.278	-2.56
341.491	65.02
341.703	44.54
341.915	99.84
342.128	56.83
342.34	52.74
342.552	42.5
342.764	62.98
342.977	69.12
343.189	48.64
343.401	79.36
343.613	48.64
343.826	-0.51
344.038	99.84
344.25	44.54
344.462	-18.94
344.674	46.59
344.886	28.16
345.099	103.93
345.311	26.11
345.523	22.02
345.735	28.16
345.947	19.97
346.159	60.93
346.371	7.68
346.583	71.17
346.795	60.93
347.007	15.87
347.219	28.16
347.431	46.59
347.643	30.21
347.855	65.02
348.067	56.83
348.279	32.26
348.491	22.02
348.703	73.21
348.915	50.69
349.127	36.35
349.339	56.83
349.551	1.54
349.763	67.07
349.975	26.11
350.187	15.87
350.399	-0.51
350.61	85.5
350.822	24.06
351.034	87.55
351.246	40.45
351.458	28.16
351.669	-12.8
351.881	81.41
352.093	28.16
352.305	65.02
352.517	46.59
352.728	87.55
352.94	34.3
353.152	97.79
353.363	7.68
353.575	62.98
353.787	69.12
353.999	5.63
354.21	-4.61
354.422	69.12
354.633	-29.18
354.845	73.21
355.057	13.82
355.268	19.97
355.48	99.84
355.692	44.54
355.903	22.02
356.115	38.4
356.326	-4.61
356.538	26.11
356.749	26.11
356.961	56.83
357.172	-2.56
357.384	28.16
357.595	24.06
357.807	62.98
358.018	-2.56
358.23	48.64
358.441	116.22
358.653	-6.66
358.864	48.64
359.075	-23.04
359.287	56.83
359.498	99.84
359.709	103.93
359.921	15.87
360.132	-0.51
360.344	48.64
360.555	15.87
360.766	81.41
360.977	69.12
361.189	-0.51
361.4	13.82
361.611	36.35
361.823	9.73
362.034	32.26
362.245	-6.66
362.456	34.3
362.667	40.45
362.879	128.51
363.09	32.26
363.301	91.65
363.512	15.87
363.723	17.92
363.935	36.35
364.146	185.85
364.357	-23.04
364.568	99.84
364.779	17.92
364.99	124.41
365.201	-16.9
365.412	134.65
365.623	-8.7
365.834	-23.04
366.045	62.98
366.256	65.02
366.467	79.36
366.678	73.21
366.889	58.88
367.1	-16.9
367.311	83.45
367.522	65.02
367.733	13.82
367.944	62.98
368.155	79.36
368.366	87.55
368.577	56.83
368.788	11.78
368.999	-0.51
369.209	-2.56
369.42	81.41
369.631	71.17
369.842	58.88
370.053	60.93
370.264	36.35
370.474	17.92
370.685	83.45
370.896	-16.9
371.107	87.55
371.317	-2.56
371.528	62.98
371.739	79.36
371.95	54.78
372.16	103.93
372.371	-25.09
372.582	62.98
372.792	9.73
373.003	67.07
373.214	60.93
373.424	67.07
373.635	83.45
373.846	79.36
374.056	97.79
374.267	58.88
374.477	-4.61
374.688	22.02
374.898	-18.94
375.109	52.74
375.319	32.26
375.53	58.88
375.74	46.59
375.951	65.02
376.161	93.69
376.372	93.69
376.582	38.4
376.793	116.22
377.003	38.4
377.214	22.02
377.424	42.5
377.635	46.59
377.845	19.97
378.055	30.21
378.266	1.54
378.476	54.78
378.686	85.5
378.897	-0.51
379.107	28.16
379.317	32.26
379.528	83.45
379.738	62.98
379.948	54.78
380.158	87.55
380.369	83.45
380.579	19.97
380.789	48.64
380.999	30.21
381.21	17.92
381.42	46.59
381.63	85.5
381.84	89.6
382.05	28.16
382.261	46.59
382.471	126.46
382.681	103.93
382.891	71.17
383.101	95.74
383.311	89.6
383.521	56.83
383.731	22.02
383.941	91.65
384.151	17.92
384.361	95.74
384.571	62.98
384.781	167.42
384.991	56.83
385.201	89.6
385.411	62.98
385.621	24.06
385.831	50.69
386.041	75.26
386.251	5.63
386.461	97.79
386.671	26.11
386.881	89.6
387.091	75.26
387.301	128.51
387.511	-0.51
387.72	15.87
387.93	48.64
388.14	22.02
388.35	38.4
388.56	75.26
388.769	112.13
388.979	46.59
389.189	28.16
389.399	30.21
389.609	-23.04
389.818	52.74
390.028	34.3
390.238	56.83
390.447	60.93
390.657	103.93
390.867	15.87
391.076	48.64
391.286	69.12
391.496	-0.51
391.705	-10.75
391.915	50.69
392.125	36.35
392.334	79.36
392.544	87.55
392.753	30.21
392.963	130.56
393.172	116.22
393.382	46.59
393.591	32.26
393.801	138.75
394.01	48.64
394.22	83.45
394.429	-0.51
394.639	44.54
394.848	79.36
395.058	48.64
395.267	89.6
395.477	114.17
395.686	81.41
395.895	13.82
396.105	58.88
396.314	120.32
396.524	73.21
396.733	85.5
396.942	91.65
397.152	89.6
397.361	75.26
397.57	81.41
397.78	124.41
397.989	99.84
398.198	165.37
398.407	5.63
398.617	105.98
398.826	118.27
399.035	142.85
399.244	65.02
399.453	26.11
399.663	22.02
399.872	58.88
400.081	105.98
400.29	128.51
400.499	118.27
400.708	89.6
400.917	62.98
401.127	-4.61
401.336	169.47
401.545	120.32
401.754	36.35
401.963	79.36
402.172	5.63
402.381	148.99
402.59	46.59
402.799	91.65
403.008	142.85
403.217	153.09
403.426	103.93
403.635	153.09
403.844	134.65
404.053	89.6
404.262	99.84
404.471	95.74
404.68	83.45
404.888	105.98
405.097	185.85
405.306	187.9
405.515	103.93
405.724	101.89
405.933	81.41
406.142	91.65
406.35	159.23
406.559	185.85
406.768	206.33
406.977	73.21
407.185	97.79
407.394	200.19
407.603	249.34
407.812	157.18
408.02	151.04
408.229	212.48
408.438	214.52
408.646	189.95
408.855	196.09
409.064	165.37
409.272	181.76
409.481	214.52
409.69	257.53
409.898	206.33
410.107	237.05
410.315	265.72
410.524	253.44
410.733	302.59
410.941	265.72
411.15	290.3
411.358	284.16
411.567	333.31
411.775	361.98
411.984	241.15
412.192	318.97
412.401	177.66
412.609	300.54
412.818	386.55
413.026	359.93
413.234	400.89
413.443	413.18
413.651	425.47
413.86	349.69
414.068	431.61
414.276	400.89
414.485	439.8
414.693	476.66
414.901	466.42
415.11	542.2
415.318	450.04
415.526	437.75
415.734	521.72
415.943	546.3
416.151	597.49
416.359	591.35
416.567	667.13
416.776	622.07
416.984	615.93
417.192	593.4
417.4	665.08
417.608	691.7
417.817	687.61
418.025	720.37
418.233	787.96
418.441	773.62
418.649	820.72
418.857	892.4
419.065	906.74
419.273	873.97
419.481	921.07
419.689	990.7
419.897	1002.99
420.105	998.9
420.313	1064.43
420.521	1076.72
420.729	1013.23
420.937	1228.27
421.145	1250.8
421.353	1230.32
421.561	1297.9
421.769	1308.14
421.977	1410.54
422.185	1267.18
422.393	1457.64
422.601	1498.6
422.809	1482.22
423.017	1541.61
423.224	1584.62
423.432	1697.25
423.64	1732.07
423.848	1824.23
424.056	1768.93
424.263	1875.43
424.471	1922.53
424.679	1973.73
424.887	2162.14
425.094	2061.79
425.302	2160.1
425.51	2190.81
425.718	2242.01
425.925	2233.82
426.133	2274.78
426.341	2424.28
426.548	2635.22
426.756	2602.46
426.964	2684.38
427.171	2762.2
427.379	2823.64
427.586	2901.46
427.794	2979.28
428.001	2979.28
428.209	3341.77
428.417	3216.85
428.624	3483.08
428.832	3487.18
429.039	3388.88
429.247	3401.16
429.454	3798.47
429.662	3788.23
429.869	3757.51
430.076	4003.27
430.284	3739.08
430.491	4132.29
430.699	4294.08
430.906	4306.37
431.114	4132.29
431.321	4482.49
431.528	4507.07
431.736	4699.58
431.943	5021.11
432.15	4922.8
432.358	5074.35
432.565	5170.61
432.772	5199.28
432.979	5539.24
433.187	5641.64
433.394	5582.25
433.601	5975.46
433.808	6178.21
434.016	5811.62
434.223	6114.72
434.43	6532.51
434.637	6550.94
434.844	6657.43
435.052	6995.35
435.259	6981.01
435.466	7050.64
435.673	6927.77
435.88	7531.92
436.087	7886.22
436.294	7923.08
436.501	7423.37
436.708	7779.72
436.915	8080.77
437.122	8439.17
437.329	8250.75
437.537	8498.56
437.743	8746.36
437.95	8629.63
438.157	9110.9
438.364	9256.31
438.571	9346.42
438.778	9485.68
438.985	10450.27
439.192	9917.8
439.399	10317.15
439.606	9887.08
439.813	10388.83
440.02	11158.87
440.227	11009.37
440.433	11031.9
440.64	11228.5
440.847	11400.53
441.054	11421.01
441.261	12027.21
441.467	12207.43
441.674	12395.84
441.881	12524.86
442.088	12700.99
442.294	12651.84
442.501	13094.2
442.708	13317.43
442.914	13612.34
443.121	14349.61
443.328	13845.8
443.534	14910.75
443.741	14632.22
443.948	14251.3
444.154	15129.88
444.361	15133.98
444.568	15322.39
444.774	15334.68
444.981	15584.53
445.187	16010.51
445.394	16612.61
445.6	16585.99
445.807	17804.53
446.013	17075.45
446.22	17476.85
446.426	18306.28
446.633	18345.19
446.839	18754.79
447.046	18375.91
447.252	18975.97
447.459	19072.22
447.665	19092.7
447.871	19879.12
448.078	20550.85
448.284	19817.68
448.491	20464.84
448.697	21144.77
448.903	21339.32
449.11	21677.24
449.316	21281.98
449.522	21595.32
449.728	22236.33
449.935	22191.28
450.141	22334.64
450.347	23088.29
450.553	22340.78
450.76	22539.43
450.966	22908.07
451.172	23076
451.378	23624.86
451.584	22729.89
451.791	23614.62
451.997	23678.1
452.203	23743.64
452.409	23749.78
452.615	24003.73
452.821	22983.84
453.027	22836.39
453.233	23985.3
453.44	22955.17
453.646	23086.24
453.852	23276.7
454.058	23823.51
454.264	22682.79
454.47	23467.16
454.676	22766.76
454.882	23481.5
455.088	21611.7
455.294	22162.61
455.5	22480.04
455.705	22441.13
455.911	21578.93
456.117	21028.03
456.323	20851.91
456.529	19940.56
456.735	20526.28
456.941	20040.91
457.147	19621.08
457.352	19283.16
457.558	18969.82
457.764	18949.34
457.97	18662.63
458.176	18207.98
458.381	18351.34
458.587	17392.89
458.793	17407.22
458.999	16397.57
459.204	17741.04
459.41	17259.77
459.616	16125.19
459.821	16246.02
460.027	15928.59
460.233	15467.8
460.438	14957.85
460.644	15213.85
460.85	14525.73
461.055	14322.98
461.261	14060.84
461.466	13129.02
461.672	12883.26
461.878	13659.44
462.083	12918.07
462.289	12510.53
462.494	12416.32
462.7	11971.91
462.905	11525.46
463.111	11730.25
463.316	11887.95
463.522	11613.52
463.727	11736.4
463.932	11607.37
464.138	11584.85
464.343	11582.8
464.549	11234.64
464.754	11689.29
464.959	11498.83
465.165	11464.02
465.37	10878.3
465.575	10777.95
465.781	11035.99
465.986	10939.74
466.191	10788.19
466.397	10567.01
466.602	10024.3
466.807	10394.98
467.012	10569.05
467.218	10261.86
467.423	10132.84
467.628	10265.96
467.833	10771.8
468.038	10339.68
468.244	10038.63
468.449	10380.64
468.654	10259.81
468.859	10032.49
469.064	10196.32
469.269	9649.52
