Data from USB4F104151__284__14-02-30-399.txt Node

Date: Thu Mar 13 14:02:30 EDT 2025
User: louis
Spectrometer: USB4F10415
Trigger mode: 4
Integration Time (sec): 1.000000E-2
Scans to average: 1
Electric dark correction enabled: true
Nonlinearity correction enabled: false
Boxcar width: 0
XAxis mode: Wavelengths
Number of Pixels in Spectrum: 3648
>>>>>Begin Spectral Data<<<<<
178.204	-69.63
178.424	-69.63
178.644	-69.63
178.864	-45.06
179.084	-49.15
179.304	-16.38
179.524	8.19
179.744	-24.58
179.964	16.38
180.184	-45.06
180.404	-20.48
180.624	22.53
180.844	18.43
181.064	24.58
181.283	-43.01
181.503	22.53
181.723	36.86
181.943	-6.14
182.163	40.96
182.383	-28.67
182.602	-38.91
182.822	4.1
183.042	28.67
183.262	-59.39
183.482	-69.63
183.701	-32.77
183.921	-45.06
184.141	-12.29
184.361	47.1
184.58	-4.1
184.8	-4.1
185.02	-26.62
185.239	-24.58
185.459	69.63
185.679	49.15
185.898	-38.91
186.118	55.3
186.338	-18.43
186.557	8.19
186.777	4.1
186.997	26.62
187.216	14.34
187.436	28.67
187.655	-12.29
187.875	61.44
188.095	28.67
188.314	-4.1
188.534	10.24
188.753	14.34
188.973	53.25
189.192	36.86
189.412	22.53
189.631	6.14
189.851	-16.38
190.07	-20.48
190.29	-18.43
190.509	-34.82
190.729	12.29
190.948	14.34
191.168	94.21
191.387	8.19
191.607	-53.25
191.826	-47.1
192.045	14.34
192.265	-81.92
192.484	-26.62
192.704	83.97
192.923	67.58
193.142	49.15
193.362	-10.24
193.581	18.43
193.8	102.4
194.02	-69.63
194.239	-40.96
194.458	-34.82
194.678	4.1
194.897	-10.24
195.116	2.05
195.335	67.58
195.555	-45.06
195.774	-10.24
195.993	-12.29
196.212	36.86
196.432	61.44
196.651	-57.34
196.87	-53.25
197.089	69.63
197.308	30.72
197.528	61.44
197.747	-59.39
197.966	-8.19
198.185	-8.19
198.404	6.14
198.623	-40.96
198.842	12.29
199.062	126.97
199.281	38.91
199.5	-2.05
199.719	43.01
199.938	-43.01
200.157	24.58
200.376	18.43
200.595	61.44
200.814	-2.05
201.033	2.05
201.252	30.72
201.471	-4.1
201.69	14.34
201.909	-36.86
202.128	32.77
202.347	-45.06
202.566	4.1
202.785	-12.29
203.004	-92.16
203.223	22.53
203.442	-14.34
203.661	20.48
203.879	-10.24
204.098	40.96
204.317	51.2
204.536	18.43
204.755	-26.62
204.974	45.06
205.193	-4.1
205.411	51.2
205.63	24.58
205.849	38.91
206.068	-43.01
206.287	-10.24
206.505	53.25
206.724	55.3
206.943	-22.53
207.162	-8.19
207.381	30.72
207.599	57.34
207.818	-34.82
208.037	40.96
208.255	-34.82
208.474	67.58
208.693	32.77
208.911	69.63
209.13	22.53
209.349	8.19
209.567	69.63
209.786	12.29
210.005	-59.39
210.223	18.43
210.442	14.34
210.661	-53.25
210.879	2.05
211.098	-65.53
211.316	28.67
211.535	47.1
211.753	-14.34
211.972	47.1
212.191	8.19
212.409	6.14
212.628	67.58
212.846	36.86
213.065	6.14
213.283	57.34
213.502	6.14
213.72	-8.19
213.938	8.19
214.157	-24.58
214.375	16.38
214.594	34.82
214.812	38.91
215.031	4.1
215.249	28.67
215.467	0
215.686	-22.53
215.904	75.77
216.122	73.73
216.341	69.63
216.559	-38.91
216.778	57.34
216.996	65.54
217.214	-43.01
217.432	61.44
217.651	-16.38
217.869	16.38
218.087	-6.14
218.306	-90.11
218.524	4.1
218.742	4.1
218.96	-69.63
219.179	14.34
219.397	47.1
219.615	-10.24
219.833	53.25
220.051	45.06
220.27	69.63
220.488	4.1
220.706	4.1
220.924	-71.68
221.142	6.14
221.36	4.1
221.578	-24.58
221.796	88.06
222.015	51.2
222.233	-53.25
222.451	36.86
222.669	30.72
222.887	-18.43
223.105	-20.48
223.323	4.1
223.541	-6.14
223.759	-2.05
223.977	-40.96
224.195	12.29
224.413	-8.19
224.631	20.48
224.849	36.86
225.067	14.34
225.285	-12.29
225.503	-28.67
225.721	-4.1
225.939	-28.67
226.157	-40.96
226.375	38.91
226.592	38.91
226.81	57.34
227.028	8.19
227.246	-18.43
227.464	-45.06
227.682	-4.1
227.9	2.05
228.117	43.01
228.335	0
228.553	12.29
228.771	-20.48
228.989	-28.67
229.206	-4.1
229.424	-32.77
229.642	30.72
229.86	12.29
230.077	24.58
230.295	12.29
230.513	55.3
230.731	92.16
230.948	-8.19
231.166	47.1
231.384	-14.34
231.601	-40.96
231.819	-14.34
232.037	-12.29
232.254	-4.1
232.472	40.96
232.689	53.25
232.907	53.25
233.125	0
233.342	65.54
233.56	30.72
233.777	0
233.995	-75.77
234.213	32.77
234.43	6.14
234.648	-24.58
234.865	47.1
235.083	55.3
235.3	-12.29
235.518	-24.58
235.735	16.38
235.953	-18.43
236.17	26.62
236.388	36.86
236.605	22.53
236.822	40.96
237.04	63.49
237.257	38.91
237.475	26.62
237.692	14.34
237.909	28.67
238.127	-40.96
238.344	-12.29
238.562	24.58
238.779	8.19
238.996	4.1
239.214	16.38
239.431	28.67
239.648	61.44
239.865	59.39
240.083	65.54
240.3	-36.86
240.517	24.58
240.735	-28.67
240.952	40.96
241.169	22.53
241.386	40.96
241.603	16.38
241.821	-26.62
242.038	67.58
242.255	-26.62
242.472	-36.86
242.689	22.53
242.907	63.49
243.124	30.72
243.341	18.43
243.558	18.43
243.775	8.19
243.992	-10.24
244.209	-61.44
244.426	22.53
244.643	14.34
244.86	-20.48
245.078	34.82
245.295	-51.2
245.512	-26.62
245.729	-86.01
245.946	-36.86
246.163	16.38
246.38	16.38
246.597	-43.01
246.814	36.86
247.031	-4.1
247.248	-43.01
247.464	-43.01
247.681	6.14
247.898	-45.06
248.115	36.86
248.332	28.67
248.549	-28.67
248.766	16.38
248.983	30.72
249.2	45.06
249.417	4.1
249.633	-4.1
249.85	-10.24
250.067	28.67
250.284	14.34
250.501	92.16
250.717	-63.49
250.934	-14.34
251.151	-32.77
251.368	-8.19
251.585	-16.38
251.801	14.34
252.018	4.1
252.235	-20.48
252.451	16.38
252.668	45.06
252.885	30.72
253.102	28.67
253.318	26.62
253.535	88.06
253.752	32.77
253.968	-43.01
254.185	20.48
254.401	24.58
254.618	51.2
254.835	-26.62
255.051	0
255.268	32.77
255.484	-53.25
255.701	-16.38
255.917	4.1
256.134	59.39
256.351	-4.1
256.567	40.96
256.784	-28.67
257	24.58
257.217	-12.29
257.433	20.48
257.65	36.86
257.866	-49.15
258.082	28.67
258.299	-38.91
258.515	-12.29
258.732	-14.34
258.948	16.38
259.165	53.25
259.381	-12.29
259.597	-20.48
259.814	26.62
260.03	30.72
260.246	4.1
260.463	51.2
260.679	53.25
260.895	14.34
261.112	38.91
261.328	-14.34
261.544	-4.1
261.761	61.44
261.977	47.1
262.193	-59.39
262.409	36.86
262.626	-2.05
262.842	61.44
263.058	20.48
263.274	28.67
263.49	-34.82
263.707	-2.05
263.923	26.62
264.139	-59.39
264.355	75.77
264.571	47.1
264.787	14.34
265.004	-12.29
265.22	104.45
265.436	-14.34
265.652	24.58
265.868	6.14
266.084	10.24
266.3	-6.14
266.516	-10.24
266.732	4.1
266.948	20.48
267.164	47.1
267.38	57.34
267.596	-18.43
267.812	-12.29
268.028	69.63
268.244	55.3
268.46	28.67
268.676	53.25
268.892	16.38
269.108	-10.24
269.324	38.91
269.54	-38.91
269.756	55.3
269.972	-12.29
270.188	14.34
270.403	-20.48
270.619	34.82
270.835	40.96
271.051	30.72
271.267	16.38
271.483	-88.06
271.698	6.14
271.914	53.25
272.13	-14.34
272.346	-12.29
272.562	-43.01
272.777	43.01
272.993	36.86
273.209	-2.05
273.425	-8.19
273.64	38.91
273.856	4.1
274.072	-2.05
274.287	-10.24
274.503	-10.24
274.719	22.53
274.934	45.06
275.15	49.15
275.366	-10.24
275.581	22.53
275.797	81.92
276.012	6.14
276.228	40.96
276.444	0
276.659	-24.58
276.875	63.49
277.09	55.3
277.306	30.72
277.521	8.19
277.737	20.48
277.952	20.48
278.168	-16.38
278.383	24.58
278.599	-4.1
278.814	45.06
279.03	16.38
279.245	-55.3
279.461	71.68
279.676	36.86
279.892	88.06
280.107	6.14
280.322	73.73
280.538	-34.82
280.753	61.44
280.969	2.05
281.184	-8.19
281.399	6.14
281.615	-4.1
281.83	-10.24
282.045	-24.58
282.26	81.92
282.476	-8.19
282.691	24.58
282.906	-10.24
283.122	57.34
283.337	22.53
283.552	20.48
283.767	36.86
283.983	77.82
284.198	71.68
284.413	71.68
284.628	10.24
284.843	43.01
285.058	26.62
285.274	61.44
285.489	-36.86
285.704	53.25
285.919	12.29
286.134	8.19
286.349	8.19
286.564	-73.73
286.779	45.06
286.995	88.06
287.21	-40.96
287.425	38.91
287.64	32.77
287.855	24.58
288.07	-49.15
288.285	8.19
288.5	-28.67
288.715	45.06
288.93	61.44
289.145	26.62
289.36	0
289.575	-24.58
289.79	6.14
290.004	-2.05
290.219	26.62
290.434	28.67
290.649	20.48
290.864	45.06
291.079	-20.48
291.294	-6.14
291.509	26.62
291.724	49.15
291.938	0
292.153	90.11
292.368	24.58
292.583	-12.29
292.798	-20.48
293.012	40.96
293.227	36.86
293.442	24.58
293.657	-34.82
293.871	14.34
294.086	61.44
294.301	-4.1
294.516	32.77
294.73	-18.43
294.945	16.38
295.16	55.3
295.374	4.1
295.589	51.2
295.804	65.54
296.018	-24.58
296.233	51.2
296.447	-30.72
296.662	-12.29
296.877	69.63
297.091	63.49
297.306	63.49
297.52	4.1
297.735	30.72
297.949	-12.29
298.164	-4.1
298.378	45.06
298.593	20.48
298.807	-20.48
299.022	2.05
299.236	38.91
299.451	32.77
299.665	65.54
299.88	22.53
300.094	12.29
300.309	88.06
300.523	45.06
300.737	-4.1
300.952	34.82
301.166	71.68
301.381	-49.15
301.595	16.38
301.809	22.53
302.024	55.3
302.238	-30.72
302.452	55.3
302.667	-34.82
302.881	-30.72
303.095	20.48
303.309	65.54
303.524	-10.24
303.738	30.72
303.952	-24.58
304.166	40.96
304.381	4.1
304.595	55.3
304.809	20.48
305.023	14.34
305.237	20.48
305.452	28.67
305.666	8.19
305.88	6.14
306.094	47.1
306.308	34.82
306.522	47.1
306.736	28.67
306.95	0
307.164	94.21
307.379	-55.3
307.593	28.67
307.807	49.15
308.021	-2.05
308.235	8.19
308.449	24.58
308.663	-40.96
308.877	32.77
309.091	57.34
309.305	8.19
309.519	16.38
309.733	30.72
309.947	6.14
310.161	2.05
310.374	12.29
310.588	22.53
310.802	-10.24
311.016	28.67
311.23	2.05
311.444	28.67
311.658	20.48
311.872	18.43
312.085	14.34
312.299	32.77
312.513	14.34
312.727	69.63
312.941	-8.19
313.154	-86.01
313.368	126.97
313.582	30.72
313.796	69.63
314.009	10.24
314.223	22.53
314.437	-26.62
314.651	-24.58
314.864	45.06
315.078	86.01
315.292	-4.1
315.505	-16.38
315.719	73.73
315.933	36.86
316.146	92.16
316.36	14.34
316.573	-32.77
316.787	-10.24
317.001	38.91
317.214	6.14
317.428	-26.62
317.641	16.38
317.855	30.72
318.068	0
318.282	4.1
318.495	120.83
318.709	0
318.922	-6.14
319.136	8.19
319.349	120.83
319.563	20.48
319.776	-10.24
319.99	43.01
320.203	4.1
320.417	69.63
320.63	-2.05
320.843	77.82
321.057	67.58
321.27	10.24
321.483	4.1
321.697	81.92
321.91	20.48
322.124	32.77
322.337	-4.1
322.55	36.86
322.763	20.48
322.977	-4.1
323.19	-22.53
323.403	53.25
323.617	65.54
323.83	86.01
324.043	34.82
324.256	24.58
324.469	-10.24
324.683	26.62
324.896	36.86
325.109	10.24
325.322	-20.48
325.535	22.53
325.748	22.53
325.962	-12.29
326.175	49.15
326.388	-4.1
326.601	73.73
326.814	2.05
327.027	-8.19
327.24	65.54
327.453	38.91
327.666	135.17
327.879	-8.19
328.092	53.25
328.305	22.53
328.518	26.62
328.731	22.53
328.944	63.49
329.157	90.11
329.37	-2.05
329.583	2.05
329.796	118.78
330.009	71.68
330.222	63.49
330.435	0
330.648	90.11
330.861	55.3
331.073	12.29
331.286	-43.01
331.499	26.62
331.712	14.34
331.925	22.53
332.138	-6.14
332.35	45.06
332.563	36.86
332.776	-16.38
332.989	-16.38
333.202	47.1
333.414	6.14
333.627	28.67
333.84	36.86
334.053	-14.34
334.265	40.96
334.478	36.86
334.691	26.62
334.903	43.01
335.116	-24.58
335.329	12.29
335.541	102.4
335.754	75.77
335.966	61.44
336.179	47.1
336.392	30.72
336.604	16.38
336.817	-16.38
337.029	61.44
337.242	61.44
337.454	18.43
337.667	20.48
337.88	-2.05
338.092	65.54
338.305	28.67
338.517	65.54
338.729	86.01
338.942	83.97
339.154	34.82
339.367	-4.1
339.579	-24.58
339.792	28.67
340.004	-67.58
340.217	61.44
340.429	-32.77
340.641	6.14
340.854	-20.48
341.066	-12.29
341.278	-20.48
341.491	2.05
341.703	24.58
341.915	18.43
342.128	-36.86
342.34	8.19
342.552	14.34
342.764	0
342.977	94.21
343.189	-32.77
343.401	73.73
343.613	-34.82
343.826	10.24
344.038	55.3
344.25	63.49
344.462	-100.35
344.674	47.1
344.886	49.15
345.099	69.63
345.311	40.96
345.523	71.68
345.735	36.86
345.947	32.77
346.159	40.96
346.371	26.62
346.583	40.96
346.795	34.82
347.007	71.68
347.219	49.15
347.431	-38.91
347.643	0
347.855	63.49
348.067	10.24
348.279	65.54
348.491	14.34
348.703	2.05
348.915	22.53
349.127	16.38
349.339	38.91
349.551	24.58
349.763	49.15
349.975	-40.96
350.187	-26.62
350.399	59.39
350.61	18.43
350.822	63.49
351.034	32.77
351.246	45.06
351.458	20.48
351.669	-4.1
351.881	-30.72
352.093	26.62
352.305	94.21
352.517	16.38
352.728	36.86
352.94	49.15
353.152	55.3
353.363	4.1
353.575	47.1
353.787	36.86
353.999	-2.05
354.21	45.06
354.422	8.19
354.633	-10.24
354.845	22.53
355.057	6.14
355.268	-10.24
355.48	-20.48
355.692	53.25
355.903	-40.96
356.115	106.49
356.326	28.67
356.538	61.44
356.749	-10.24
356.961	88.06
357.172	12.29
357.384	86.01
357.595	55.3
357.807	-2.05
358.018	20.48
358.23	-30.72
358.441	18.43
358.653	71.68
358.864	22.53
359.075	86.01
359.287	55.3
359.498	83.97
359.709	4.1
359.921	-45.06
360.132	8.19
360.344	98.3
360.555	22.53
360.766	94.21
360.977	-61.44
361.189	65.54
361.4	36.86
361.611	36.86
361.823	40.96
362.034	53.25
362.245	36.86
362.456	14.34
362.667	-14.34
362.879	118.78
363.09	14.34
363.301	47.1
363.512	18.43
363.723	59.39
363.935	10.24
364.146	24.58
364.357	4.1
364.568	90.11
364.779	8.19
364.99	-20.48
365.201	51.2
365.412	32.77
365.623	77.82
365.834	45.06
366.045	61.44
366.256	26.62
366.467	55.3
366.678	-47.1
366.889	71.68
367.1	4.1
367.311	8.19
367.522	36.86
367.733	86.01
367.944	-45.06
368.155	6.14
368.366	79.87
368.577	96.25
368.788	61.44
368.999	16.38
369.209	75.77
369.42	22.53
369.631	28.67
369.842	65.54
370.053	38.91
370.264	-8.19
370.474	94.21
370.685	6.14
370.896	38.91
371.107	53.25
371.317	86.01
371.528	-4.1
371.739	88.06
371.95	30.72
372.16	38.91
372.371	-43.01
372.582	47.1
372.792	-12.29
373.003	-10.24
373.214	22.53
373.424	61.44
373.635	51.2
373.846	96.25
374.056	69.63
374.267	59.39
374.477	8.19
374.688	-10.24
374.898	36.86
375.109	28.67
375.319	137.21
375.53	12.29
375.74	67.58
375.951	69.63
376.161	45.06
376.372	12.29
376.582	47.1
376.793	88.06
377.003	2.05
377.214	24.58
377.424	73.73
377.635	-12.29
377.845	24.58
378.055	135.17
378.266	43.01
378.476	28.67
378.686	43.01
378.897	129.02
379.107	45.06
379.317	59.39
379.528	30.72
379.738	65.54
379.948	67.58
380.158	24.58
380.369	28.67
380.579	75.77
380.789	34.82
380.999	28.67
381.21	73.73
381.42	108.54
381.63	69.63
381.84	18.43
382.05	47.1
382.261	73.73
382.471	65.54
382.681	73.73
382.891	-10.24
383.101	88.06
383.311	16.38
383.521	59.39
383.731	92.16
383.941	86.01
384.151	22.53
384.361	71.68
384.571	-47.1
384.781	32.77
384.991	47.1
385.201	92.16
385.411	-2.05
385.621	-24.58
385.831	110.59
386.041	79.87
386.251	110.59
386.461	90.11
386.671	108.54
386.881	118.78
387.091	22.53
387.301	65.54
387.511	28.67
387.72	30.72
387.93	81.92
388.14	61.44
388.35	55.3
388.56	32.77
388.769	38.91
388.979	-4.1
389.189	-12.29
389.399	36.86
389.609	-18.43
389.818	12.29
390.028	18.43
390.238	73.73
390.447	96.25
390.657	75.77
390.867	34.82
391.076	49.15
391.286	61.44
391.496	163.84
391.705	104.45
391.915	63.49
392.125	30.72
392.334	24.58
392.544	16.38
392.753	-12.29
392.963	43.01
393.172	53.25
393.382	71.68
393.591	28.67
393.801	61.44
394.01	86.01
394.22	49.15
394.429	75.77
394.639	43.01
394.848	61.44
395.058	73.73
395.267	69.63
395.477	88.06
395.686	71.68
395.895	120.83
396.105	122.88
396.314	4.1
396.524	61.44
396.733	69.63
396.942	102.4
397.152	51.2
397.361	180.22
397.57	118.78
397.78	98.3
397.989	90.11
398.198	165.89
398.407	59.39
398.617	102.4
398.826	108.54
399.035	110.59
399.244	20.48
399.453	86.01
399.663	88.06
399.872	90.11
400.081	96.25
400.29	88.06
400.499	61.44
400.708	161.79
400.917	120.83
401.127	79.87
401.336	104.45
401.545	129.02
401.754	126.97
401.963	108.54
402.172	122.88
402.381	192.51
402.59	163.84
402.799	90.11
403.008	98.3
403.217	100.35
403.426	137.21
403.635	120.83
403.844	135.17
404.053	151.55
404.262	81.92
404.471	147.45
404.68	75.77
404.888	79.87
405.097	86.01
405.306	110.59
405.515	208.89
405.724	172.03
405.933	245.76
406.142	147.45
406.35	102.4
406.559	165.89
406.768	258.04
406.977	235.52
407.185	147.45
407.394	219.13
407.603	198.65
407.812	251.9
408.02	262.14
408.229	219.13
408.438	227.32
408.646	253.95
408.855	286.72
409.064	266.24
409.272	280.57
409.481	239.61
409.69	407.55
409.898	237.56
410.107	280.57
410.315	335.87
410.524	333.82
410.733	342.01
410.941	364.54
411.15	333.82
411.358	337.91
411.567	438.27
411.775	446.46
411.984	430.07
412.192	421.88
412.401	454.65
412.609	452.6
412.818	468.98
413.026	495.61
413.234	526.33
413.443	542.71
413.651	600.05
413.86	571.38
414.068	585.72
414.276	569.34
414.485	616.44
414.693	749.56
414.901	675.83
415.11	739.32
415.318	733.17
415.526	757.75
415.734	741.36
415.943	817.14
416.151	784.37
416.359	821.24
416.567	933.87
416.776	1017.84
416.984	872.43
417.192	1056.75
417.4	1038.32
417.608	1028.08
417.817	1069.04
418.025	1126.38
418.233	1159.15
418.441	1230.83
418.649	1261.55
418.857	1265.64
419.065	1361.9
419.273	1333.23
419.481	1415.15
419.689	1607.66
419.897	1523.69
420.105	1542.12
420.313	1660.9
420.521	1693.67
420.729	1814.5
420.937	1722.34
421.145	1863.65
421.353	1945.57
421.561	1961.95
421.769	2050.02
421.977	2193.37
422.185	2072.54
422.393	2273.25
422.601	2443.23
422.809	2473.95
423.017	2422.75
423.224	2631.64
423.432	2695.13
423.64	2697.17
423.848	2848.72
424.056	2803.67
424.263	3000.27
424.471	3069.91
424.679	3063.76
424.887	3166.16
425.094	3170.26
425.302	3325.9
425.51	3481.55
425.718	3538.89
425.925	3588.04
426.133	3700.68
426.341	3936.2
426.548	4122.56
426.756	4179.9
426.964	4243.39
427.171	4495.29
427.379	4530.11
427.586	4587.45
427.794	4755.38
428.001	4980.66
428.209	5130.16
428.417	5011.38
428.624	5533.61
428.832	5357.49
429.039	5445.55
429.247	5470.12
429.454	6053.8
429.662	6479.77
429.869	5885.86
430.076	6221.73
430.284	6156.19
430.491	6381.47
430.699	6983.57
430.906	6766.49
431.114	6801.3
431.321	7329.68
431.528	7350.16
431.736	7866.25
431.943	8206.21
432.15	7681.93
432.358	7880.58
432.565	8376.19
432.772	8368
432.979	8714.11
433.187	8839.03
433.394	9080.69
433.601	9568.11
433.808	9686.89
434.016	9566.06
434.223	9860.97
434.43	10327.91
434.637	10344.29
434.844	10983.26
435.052	11272.02
435.259	11022.17
435.466	11249.49
435.673	11147.09
435.88	11652.94
436.087	12300.1
436.294	12431.17
436.501	12222.28
436.708	12339.01
436.915	12928.83
437.122	13446.96
437.329	13598.51
437.537	13629.23
437.743	14053.16
437.95	13811.5
438.157	14704.42
438.364	15118.11
438.571	14872.35
438.778	15273.75
438.985	16518.92
439.192	15861.52
439.399	16795.39
439.606	15978.25
439.813	17092.35
440.02	18099.95
440.227	17706.74
440.433	17391.35
440.64	17999.6
440.847	17966.83
441.054	18489.06
441.261	19752.66
441.467	19347.16
441.674	19998.41
441.881	20504.26
442.088	20336.33
442.294	20491.98
442.501	20618.95
442.708	21083.84
442.914	22042.29
443.121	22828.71
443.328	22517.42
443.534	23723.67
443.741	23465.63
443.948	22607.53
444.154	24641.16
444.361	24460.94
444.568	24383.12
444.774	24563.34
444.981	24706.69
445.187	25759.35
445.394	26703.46
445.6	26316.4
445.807	28956.23
446.013	27338.33
446.22	27682.39
446.426	29224.51
446.633	29216.32
446.839	30455.34
447.046	28915.27
447.252	30842.41
447.459	30643.76
447.665	30404.14
447.871	32013.85
448.078	33383.94
448.284	31626.78
448.491	32376.34
448.697	33891.83
448.903	34702.83
449.11	34807.28
449.316	33779.2
449.522	34713.07
449.728	35501.54
449.935	35847.64
450.141	35671.52
450.347	36509.14
450.553	35577.31
450.76	35685.86
450.966	37017.04
451.172	36416.98
451.378	37678.53
451.584	36744.66
451.791	37428.68
451.997	37668.29
452.203	37858.75
452.409	38139.32
452.615	37623.23
452.821	36335.06
453.027	36314.58
453.233	38184.38
453.44	36259.29
453.646	36535.76
453.852	36804.05
454.058	38047.16
454.264	36863.44
454.47	36971.98
454.676	36376.02
454.882	37483.97
455.088	34514.42
455.294	34887.15
455.5	35284.45
455.705	35624.42
455.911	34176.5
456.117	33805.82
456.323	32951.82
456.529	31495.71
456.735	32767.5
456.941	32030.23
457.147	31460.9
457.352	30486.06
457.558	30170.68
457.764	30193.2
457.97	29693.5
458.176	29085.25
458.381	28894.79
458.587	27547.23
458.793	27694.68
458.999	26220.14
459.204	28182.1
459.41	27070.05
459.616	25386.62
459.821	25513.59
460.027	25503.35
460.233	24802.95
460.438	23371.42
460.644	24059.54
460.85	22892.19
461.055	22060.72
461.261	22482.6
461.466	20676.29
461.672	20078.29
461.878	21493.43
462.083	20135.63
462.289	19699.41
462.494	19883.73
462.7	18749.15
462.905	18306.79
463.111	18974.43
463.316	19156.7
463.522	18560.74
463.727	18779.87
463.932	18355.94
464.138	18175.72
464.343	18360.04
464.549	17749.75
464.754	18534.12
464.959	18366.18
465.165	18120.43
465.37	17460.98
465.575	16912.13
465.781	17762.03
465.986	17833.71
466.191	16789.25
466.397	16658.18
466.602	15898.38
466.807	16502.53
467.012	16598.79
467.218	16461.57
467.423	16148.23
467.628	16367.37
467.833	17032.96
