Data from USB4F104151__216__14-00-10-023.txt Node

Date: Thu Mar 13 14:00:10 EDT 2025
User: louis
Spectrometer: USB4F10415
Trigger mode: 4
Integration Time (sec): 1.000000E-2
Scans to average: 1
Electric dark correction enabled: true
Nonlinearity correction enabled: false
Boxcar width: 0
XAxis mode: Wavelengths
Number of Pixels in Spectrum: 3648
>>>>>Begin Spectral Data<<<<<
178.204	-32.26
178.424	-32.26
178.644	-32.26
178.864	-87.55
179.084	-89.6
179.304	-15.87
179.524	-1.54
179.744	-24.06
179.964	-15.87
180.184	0.51
180.404	66.05
180.624	27.14
180.844	43.52
181.064	0.51
181.283	-17.92
181.503	-13.82
181.723	-48.64
181.943	35.33
182.163	41.47
182.383	31.23
182.602	-5.63
182.822	18.94
183.042	31.23
183.262	0.51
183.482	14.85
183.701	68.09
183.921	33.28
184.141	-7.68
184.361	55.81
184.58	74.24
184.8	61.95
185.02	2.56
185.239	43.52
185.459	66.05
185.679	8.7
185.898	-22.02
186.118	86.53
186.338	41.47
186.557	121.34
186.777	41.47
186.997	33.28
187.216	49.66
187.436	68.09
187.655	10.75
187.875	51.71
188.095	39.42
188.314	10.75
188.534	25.09
188.753	27.14
188.973	68.09
189.192	94.72
189.412	16.9
189.631	43.52
189.851	31.23
190.07	78.33
190.29	35.33
190.509	35.33
190.729	66.05
190.948	61.95
191.168	115.2
191.387	109.05
191.607	-9.73
191.826	100.86
192.045	100.86
192.265	-11.78
192.484	0.51
192.704	100.86
192.923	82.43
193.142	127.49
193.362	111.1
193.581	31.23
193.8	-5.63
194.02	59.9
194.239	-44.54
194.458	82.43
194.678	-11.78
194.897	16.9
195.116	43.52
195.335	107.01
195.555	113.15
195.774	25.09
195.993	39.42
196.212	33.28
196.432	100.86
196.651	33.28
196.87	59.9
197.089	53.76
197.308	0.51
197.528	16.9
197.747	4.61
197.966	6.66
198.185	35.33
198.404	27.14
198.623	123.39
198.842	57.86
199.062	70.14
199.281	29.18
199.5	-15.87
199.719	41.47
199.938	92.67
200.157	27.14
200.376	45.57
200.595	-7.68
200.814	57.86
201.033	35.33
201.252	-11.78
201.471	78.33
201.69	133.63
201.909	31.23
202.128	27.14
202.347	49.66
202.566	37.38
202.785	20.99
203.004	29.18
203.223	-28.16
203.442	0.51
203.661	33.28
203.879	37.38
204.098	16.9
204.317	35.33
204.536	27.14
204.755	-3.58
204.974	47.62
205.193	-67.07
205.411	90.62
205.63	33.28
205.849	6.66
206.068	10.75
206.287	59.9
206.505	82.43
206.724	-7.68
206.943	72.19
207.162	0.51
207.381	109.05
207.599	16.9
207.818	59.9
208.037	98.81
208.255	23.04
208.474	51.71
208.693	20.99
208.911	6.66
209.13	-1.54
209.349	35.33
209.567	88.57
209.786	25.09
210.005	92.67
210.223	35.33
210.442	41.47
210.661	14.85
210.879	84.48
211.098	64
211.316	80.38
211.535	66.05
211.753	51.71
211.972	10.75
212.191	0.51
212.409	70.14
212.628	20.99
212.846	53.76
213.065	-1.54
213.283	57.86
213.502	41.47
213.72	-7.68
213.938	70.14
214.157	33.28
214.375	14.85
214.594	90.62
214.812	-77.31
215.031	55.81
215.249	35.33
215.467	0.51
215.686	76.29
215.904	86.53
216.122	70.14
216.341	41.47
216.559	2.56
216.778	82.43
216.996	72.19
217.214	115.2
217.432	57.86
217.651	57.86
217.869	64
218.087	8.7
218.306	53.76
218.524	23.04
218.742	90.62
218.96	78.33
219.179	53.76
219.397	74.24
219.615	31.23
219.833	66.05
220.051	51.71
220.27	96.77
220.488	68.09
220.706	25.09
220.924	25.09
221.142	-15.87
221.36	37.38
221.578	61.95
221.796	-30.21
222.015	27.14
222.233	-9.73
222.451	57.86
222.669	18.94
222.887	12.8
223.105	8.7
223.323	45.57
223.541	39.42
223.759	76.29
223.977	6.66
224.195	49.66
224.413	-28.16
224.631	76.29
224.849	68.09
225.067	129.53
225.285	55.81
225.503	37.38
225.721	35.33
225.939	35.33
226.157	51.71
226.375	59.9
226.592	-3.58
226.81	57.86
227.028	72.19
227.246	14.85
227.464	-7.68
227.682	53.76
227.9	53.76
228.117	2.56
228.335	61.95
228.553	-9.73
228.771	33.28
228.989	-3.58
229.206	-22.02
229.424	49.66
229.642	25.09
229.86	18.94
230.077	0.51
230.295	111.1
230.513	92.67
230.731	111.1
230.948	-5.63
231.166	27.14
231.384	66.05
231.601	29.18
231.819	39.42
232.037	18.94
232.254	43.52
232.472	111.1
232.689	16.9
232.907	23.04
233.125	29.18
233.342	41.47
233.56	-34.3
233.777	-19.97
233.995	53.76
234.213	25.09
234.43	10.75
234.648	-7.68
234.865	29.18
235.083	66.05
235.3	86.53
235.518	98.81
235.735	72.19
235.953	100.86
236.17	2.56
236.388	55.81
236.605	29.18
236.822	41.47
237.04	47.62
237.257	45.57
237.475	98.81
237.692	109.05
237.909	49.66
238.127	74.24
238.344	-11.78
238.562	29.18
238.779	37.38
238.996	-19.97
239.214	10.75
239.431	84.48
239.648	-3.58
239.865	66.05
240.083	76.29
240.3	78.33
240.517	135.68
240.735	43.52
240.952	20.99
241.169	16.9
241.386	59.9
241.603	66.05
241.821	72.19
242.038	43.52
242.255	43.52
242.472	61.95
242.689	10.75
242.907	-36.35
243.124	10.75
243.341	20.99
243.558	4.61
243.775	39.42
243.992	49.66
244.209	92.67
244.426	82.43
244.643	57.86
244.86	53.76
245.078	0.51
245.295	107.01
245.512	53.76
245.729	23.04
245.946	6.66
246.163	47.62
246.38	90.62
246.597	10.75
246.814	33.28
247.031	0.51
247.248	76.29
247.464	16.9
247.681	-46.59
247.898	53.76
248.115	119.29
248.332	18.94
248.549	139.77
248.766	76.29
248.983	115.2
249.2	68.09
249.417	-1.54
249.633	31.23
249.85	70.14
250.067	33.28
250.284	98.81
250.501	57.86
250.717	55.81
250.934	16.9
251.151	41.47
251.368	-22.02
251.585	76.29
251.801	12.8
252.018	27.14
252.235	107.01
252.451	4.61
252.668	80.38
252.885	55.81
253.102	59.9
253.318	35.33
253.535	43.52
253.752	78.33
253.968	82.43
254.185	43.52
254.401	43.52
254.618	27.14
254.835	-1.54
255.051	43.52
255.268	45.57
255.484	10.75
255.701	86.53
255.917	80.38
256.134	18.94
256.351	43.52
256.567	-3.58
256.784	98.81
257	2.56
257.217	20.99
257.433	-67.07
257.65	33.28
257.866	35.33
258.082	16.9
258.299	66.05
258.515	55.81
258.732	14.85
258.948	45.57
259.165	59.9
259.381	123.39
259.597	16.9
259.814	57.86
260.03	18.94
260.246	78.33
260.463	78.33
260.679	68.09
260.895	33.28
261.112	86.53
261.328	74.24
261.544	78.33
261.761	23.04
261.977	41.47
262.193	37.38
262.409	94.72
262.626	35.33
262.842	123.39
263.058	-11.78
263.274	90.62
263.49	66.05
263.707	102.91
263.923	45.57
264.139	-30.21
264.355	41.47
264.571	131.58
264.787	61.95
265.004	107.01
265.22	14.85
265.436	35.33
265.652	33.28
265.868	14.85
266.084	78.33
266.3	37.38
266.516	43.52
266.732	90.62
266.948	61.95
267.164	86.53
267.38	57.86
267.596	27.14
267.812	-1.54
268.028	6.66
268.244	35.33
268.46	25.09
268.676	0.51
268.892	35.33
269.108	0.51
269.324	23.04
269.54	-46.59
269.756	18.94
269.972	-40.45
270.188	-32.26
270.403	-24.06
270.619	102.91
270.835	129.53
271.051	70.14
271.267	10.75
271.483	41.47
271.698	51.71
271.914	88.57
272.13	10.75
272.346	45.57
272.562	61.95
272.777	55.81
272.993	59.9
273.209	-7.68
273.425	49.66
273.64	35.33
273.856	25.09
274.072	102.91
274.287	-3.58
274.503	29.18
274.719	23.04
274.934	29.18
275.15	68.09
275.366	94.72
275.581	27.14
275.797	78.33
276.012	-13.82
276.228	35.33
276.444	59.9
276.659	96.77
276.875	8.7
277.09	43.52
277.306	78.33
277.521	47.62
277.737	23.04
277.952	90.62
278.168	-9.73
278.383	76.29
278.599	78.33
278.814	70.14
279.03	-65.02
279.245	84.48
279.461	107.01
279.676	47.62
279.892	14.85
280.107	27.14
280.322	37.38
280.538	84.48
280.753	-46.59
280.969	-5.63
281.184	55.81
281.399	70.14
281.615	-34.3
281.83	100.86
282.045	86.53
282.26	6.66
282.476	-7.68
282.691	53.76
282.906	78.33
283.122	84.48
283.337	43.52
283.552	-30.21
283.767	90.62
283.983	12.8
284.198	61.95
284.413	55.81
284.628	98.81
284.843	53.76
285.058	45.57
285.274	68.09
285.489	2.56
285.704	111.1
285.919	20.99
286.134	109.05
286.349	35.33
286.564	74.24
286.779	-24.06
286.995	-7.68
287.21	53.76
287.425	66.05
287.64	45.57
287.855	66.05
288.07	41.47
288.285	29.18
288.5	57.86
288.715	86.53
288.93	57.86
289.145	18.94
289.36	66.05
289.575	-1.54
289.79	72.19
290.004	68.09
290.219	98.81
290.434	25.09
290.649	53.76
290.864	-5.63
291.079	16.9
291.294	55.81
291.509	64
291.724	51.71
291.938	68.09
292.153	35.33
292.368	41.47
292.583	33.28
292.798	6.66
293.012	64
293.227	8.7
293.442	41.47
293.657	80.38
293.871	49.66
294.086	12.8
294.301	76.29
294.516	27.14
294.73	20.99
294.945	51.71
295.16	10.75
295.374	8.7
295.589	92.67
295.804	59.9
296.018	59.9
296.233	66.05
296.447	74.24
296.662	-24.06
296.877	37.38
297.091	64
297.306	84.48
297.52	78.33
297.735	66.05
297.949	53.76
298.164	16.9
298.378	25.09
298.593	8.7
298.807	29.18
299.022	49.66
299.236	49.66
299.451	49.66
299.665	29.18
299.88	12.8
300.094	16.9
300.309	88.57
300.523	41.47
300.737	-15.87
300.952	82.43
301.166	16.9
301.381	10.75
301.595	57.86
301.809	55.81
302.024	55.81
302.238	51.71
302.452	45.57
302.667	41.47
302.881	55.81
303.095	18.94
303.309	35.33
303.524	55.81
303.738	76.29
303.952	37.38
304.166	39.42
304.381	51.71
304.595	14.85
304.809	53.76
305.023	10.75
305.237	47.62
305.452	31.23
305.666	119.29
305.88	76.29
306.094	20.99
306.308	147.97
306.522	37.38
306.736	94.72
306.95	-52.74
307.164	49.66
307.379	-50.69
307.593	29.18
307.807	55.81
308.021	39.42
308.235	123.39
308.449	-73.21
308.663	25.09
308.877	98.81
309.091	37.38
309.305	74.24
309.519	-1.54
309.733	41.47
309.947	-28.16
310.161	45.57
310.374	117.25
310.588	4.61
310.802	98.81
311.016	131.58
311.23	119.29
311.444	14.85
311.658	0.51
311.872	47.62
312.085	102.91
312.299	84.48
312.513	100.86
312.727	72.19
312.941	70.14
313.154	90.62
313.368	29.18
313.582	104.96
313.796	98.81
314.009	59.9
314.223	18.94
314.437	115.2
314.651	-15.87
314.864	37.38
315.078	16.9
315.292	41.47
315.505	53.76
315.719	16.9
315.933	98.81
316.146	102.91
316.36	109.05
316.573	53.76
316.787	57.86
317.001	18.94
317.214	49.66
317.428	90.62
317.641	-30.21
317.855	113.15
318.068	0.51
318.282	-22.02
318.495	55.81
318.709	76.29
318.922	8.7
319.136	129.53
319.349	94.72
319.563	-5.63
319.776	-7.68
319.99	-9.73
320.203	80.38
320.417	-3.58
320.63	29.18
320.843	25.09
321.057	53.76
321.27	92.67
321.483	100.86
321.697	76.29
321.91	49.66
322.124	-7.68
322.337	39.42
322.55	35.33
322.763	47.62
322.977	-3.58
323.19	-13.82
323.403	66.05
323.617	25.09
323.83	78.33
324.043	61.95
324.256	82.43
324.469	78.33
324.683	45.57
324.896	14.85
325.109	51.71
325.322	53.76
325.535	98.81
325.748	49.66
325.962	84.48
326.175	25.09
326.388	68.09
326.601	25.09
326.814	39.42
327.027	31.23
327.24	111.1
327.453	-1.54
327.666	49.66
327.879	68.09
328.092	84.48
328.305	49.66
328.518	10.75
328.731	66.05
328.944	51.71
329.157	82.43
329.37	8.7
329.583	61.95
329.796	70.14
330.009	-17.92
330.222	86.53
330.435	45.57
330.648	45.57
330.861	92.67
331.073	84.48
331.286	45.57
331.499	92.67
331.712	131.58
331.925	23.04
332.138	8.7
332.35	55.81
332.563	84.48
332.776	109.05
332.989	27.14
333.202	90.62
333.414	16.9
333.627	37.38
333.84	20.99
334.053	49.66
334.265	61.95
334.478	47.62
334.691	-28.16
334.903	82.43
335.116	92.67
335.329	18.94
335.541	16.9
335.754	117.25
335.966	45.57
336.179	27.14
336.392	76.29
336.604	31.23
336.817	20.99
337.029	68.09
337.242	98.81
337.454	82.43
337.667	14.85
337.88	113.15
338.092	-28.16
338.305	98.81
338.517	51.71
338.729	4.61
338.942	49.66
339.154	64
339.367	57.86
339.579	37.38
339.792	59.9
340.004	82.43
340.217	119.29
340.429	84.48
340.641	113.15
340.854	53.76
341.066	82.43
341.278	78.33
341.491	57.86
341.703	6.66
341.915	94.72
342.128	57.86
342.34	16.9
342.552	74.24
342.764	98.81
342.977	45.57
343.189	123.39
343.401	33.28
343.613	10.75
343.826	70.14
344.038	-5.63
344.25	68.09
344.462	41.47
344.674	2.56
344.886	43.52
345.099	82.43
345.311	49.66
345.523	88.57
345.735	49.66
345.947	74.24
346.159	70.14
346.371	53.76
346.583	-17.92
346.795	-9.73
347.007	27.14
347.219	66.05
347.431	49.66
347.643	76.29
347.855	76.29
348.067	53.76
348.279	61.95
348.491	33.28
348.703	92.67
348.915	41.47
349.127	33.28
349.339	82.43
349.551	111.1
349.763	78.33
349.975	66.05
350.187	57.86
350.399	115.2
350.61	33.28
350.822	51.71
351.034	-5.63
351.246	4.61
351.458	2.56
351.669	41.47
351.881	57.86
352.093	59.9
352.305	35.33
352.517	41.47
352.728	25.09
352.94	49.66
353.152	27.14
353.363	41.47
353.575	33.28
353.787	92.67
353.999	98.81
354.21	4.61
354.422	117.25
354.633	84.48
354.845	-5.63
355.057	4.61
355.268	74.24
355.48	33.28
355.692	100.86
355.903	92.67
356.115	59.9
356.326	51.71
356.538	84.48
356.749	31.23
356.961	57.86
357.172	80.38
357.384	16.9
357.595	88.57
357.807	92.67
358.018	53.76
358.23	74.24
358.441	86.53
358.653	57.86
358.864	86.53
359.075	131.58
359.287	6.66
359.498	66.05
359.709	100.86
359.921	41.47
360.132	-5.63
360.344	115.2
360.555	51.71
360.766	45.57
360.977	31.23
361.189	94.72
361.4	76.29
361.611	94.72
361.823	-30.21
362.034	18.94
362.245	4.61
362.456	78.33
362.667	84.48
362.879	86.53
363.09	55.81
363.301	49.66
363.512	152.06
363.723	84.48
363.935	43.52
364.146	43.52
364.357	-3.58
364.568	98.81
364.779	90.62
364.99	43.52
365.201	115.2
365.412	2.56
365.623	-11.78
365.834	100.86
366.045	49.66
366.256	53.76
366.467	16.9
366.678	61.95
366.889	76.29
367.1	45.57
367.311	78.33
367.522	2.56
367.733	80.38
367.944	74.24
368.155	-22.02
368.366	61.95
368.577	74.24
368.788	80.38
368.999	68.09
369.209	82.43
369.42	68.09
369.631	123.39
369.842	29.18
370.053	64
370.264	-81.41
370.474	72.19
370.685	102.91
370.896	86.53
371.107	51.71
371.317	90.62
371.528	16.9
371.739	154.11
371.95	51.71
372.16	59.9
372.371	70.14
372.582	86.53
372.792	20.99
373.003	33.28
373.214	59.9
373.424	100.86
373.635	55.81
373.846	18.94
374.056	104.96
374.267	49.66
374.477	61.95
374.688	137.73
374.898	-9.73
375.109	98.81
375.319	55.81
375.53	98.81
375.74	-1.54
375.951	68.09
376.161	31.23
376.372	59.9
376.582	92.67
376.793	150.01
377.003	10.75
377.214	61.95
377.424	43.52
377.635	80.38
377.845	37.38
378.055	94.72
378.266	45.57
378.476	109.05
378.686	61.95
378.897	53.76
379.107	-7.68
379.317	51.71
379.528	82.43
379.738	57.86
379.948	41.47
380.158	121.34
380.369	14.85
380.579	74.24
380.789	47.62
380.999	49.66
381.21	74.24
381.42	158.21
381.63	-3.58
381.84	59.9
382.05	61.95
382.261	139.77
382.471	20.99
382.681	125.44
382.891	86.53
383.101	8.7
383.311	84.48
383.521	59.9
383.731	72.19
383.941	45.57
384.151	-65.02
384.361	168.45
384.571	-13.82
384.781	35.33
384.991	59.9
385.201	92.67
385.411	25.09
385.621	59.9
385.831	57.86
386.041	152.06
386.251	100.86
386.461	74.24
386.671	80.38
386.881	37.38
387.091	55.81
387.301	72.19
387.511	53.76
387.72	66.05
387.93	57.86
388.14	70.14
388.35	92.67
388.56	33.28
388.769	104.96
388.979	72.19
389.189	27.14
389.399	27.14
389.609	41.47
389.818	98.81
390.028	16.9
390.238	64
390.447	33.28
390.657	125.44
390.867	109.05
391.076	18.94
391.286	96.77
391.496	113.15
391.705	109.05
391.915	78.33
392.125	133.63
392.334	8.7
392.544	160.25
392.753	33.28
392.963	66.05
393.172	111.1
393.382	25.09
393.591	123.39
393.801	94.72
394.01	113.15
394.22	39.42
394.429	61.95
394.639	72.19
394.848	90.62
395.058	111.1
395.267	27.14
395.477	92.67
395.686	98.81
395.895	150.01
396.105	119.29
396.314	92.67
396.524	133.63
396.733	102.91
396.942	186.88
397.152	158.21
397.361	117.25
397.57	102.91
397.78	84.48
397.989	137.73
398.198	127.49
398.407	94.72
398.617	107.01
398.826	78.33
399.035	74.24
399.244	111.1
399.453	111.1
399.663	119.29
399.872	160.25
400.081	64
400.29	121.34
400.499	129.53
400.708	84.48
400.917	90.62
401.127	96.77
401.336	141.82
401.545	186.88
401.754	78.33
401.963	188.93
402.172	131.58
402.381	141.82
402.59	162.3
402.799	190.97
403.008	154.11
403.217	182.78
403.426	107.01
403.635	115.2
403.844	135.68
404.053	143.87
404.262	160.25
404.471	188.93
404.68	190.97
404.888	154.11
405.097	147.97
405.306	199.16
405.515	182.78
405.724	174.59
405.933	180.73
406.142	150.01
406.35	209.4
406.559	211.45
406.768	197.12
406.977	182.78
407.185	242.17
407.394	254.46
407.603	266.75
407.812	225.79
408.02	289.28
408.229	279.04
408.438	162.3
408.646	205.31
408.855	172.54
409.064	299.52
409.272	287.23
409.481	393.72
409.69	262.65
409.898	297.47
410.107	242.17
410.315	320
410.524	369.15
410.733	369.15
410.941	369.15
411.15	367.1
411.358	410.11
411.567	463.35
411.775	395.77
411.984	356.86
412.192	401.91
412.401	489.98
412.609	475.64
412.818	498.17
413.026	473.59
413.234	551.42
413.443	518.65
413.651	557.56
413.86	543.22
414.068	631.29
414.276	614.9
414.485	666.1
414.693	647.67
414.901	686.58
415.11	623.09
415.318	598.52
415.526	737.78
415.734	748.02
415.943	723.44
416.151	756.21
416.359	795.12
416.567	868.85
416.776	862.71
416.984	893.43
417.192	965.11
417.4	934.39
417.608	1014.26
417.817	979.44
418.025	1096.18
418.233	1126.89
418.441	1204.72
418.649	1159.66
418.857	1288.68
419.065	1221.1
419.273	1188.33
419.481	1346.03
419.689	1450.47
419.897	1368.56
420.105	1477.1
420.313	1628.65
420.521	1479.15
420.729	1573.35
420.937	1552.87
421.145	1835.49
421.353	1739.24
421.561	2005.47
421.769	1946.08
421.977	2058.72
422.185	2011.62
422.393	2071.01
422.601	2154.98
422.809	2193.89
423.017	2243.04
423.224	2331.1
423.432	2441.69
423.64	2449.88
423.848	2652.63
424.056	2607.58
424.263	2750.93
424.471	2806.23
424.679	2800.09
424.887	2855.38
425.094	3129.81
425.302	3152.34
425.51	3170.77
425.718	3267.02
425.925	3297.74
426.133	3402.19
426.341	3672.52
426.548	3715.53
426.756	3793.35
426.964	3862.98
427.171	4102.59
427.379	4137.41
427.586	4129.22
427.794	4407.74
428.001	4743.61
428.209	4743.61
428.417	4633.02
428.624	5036.47
428.832	4995.51
429.039	5024.18
429.247	5075.38
429.454	5544.36
429.662	5857.7
429.869	5511.6
430.076	5749.16
430.284	5788.07
430.491	5779.88
430.699	6261.15
430.906	6154.66
431.114	6279.58
431.321	6605.21
431.528	6826.39
431.736	7092.63
431.943	7434.64
432.15	7248.27
432.358	7299.47
432.565	7698.83
432.772	7825.8
432.979	8024.45
433.187	8356.22
433.394	8143.24
433.601	8710.52
433.808	8683.9
434.016	8720.76
434.223	8972.66
434.43	9681.26
434.637	9564.53
434.844	9974.12
435.052	10232.16
435.259	10244.45
435.466	10432.86
435.673	10142.05
435.88	10975.58
436.087	11610.45
436.294	11329.88
436.501	11207
436.708	11321.68
436.915	11655.5
437.122	12417.35
437.329	12187.97
437.537	12755.26
437.743	12986.68
437.95	12726.59
438.157	13357.36
438.364	13857.07
438.571	13914.41
438.778	13924.65
438.985	15397.14
439.192	14610.72
439.399	15145.24
439.606	14795.04
439.813	15829.26
440.02	16666.88
440.227	16115.98
440.433	16064.78
440.64	16660.74
440.847	16449.8
441.054	16826.62
441.261	17838.32
441.467	17907.95
441.674	18032.88
441.881	18729.19
442.088	18677.99
442.294	18835.68
442.501	19237.08
442.708	19671.25
442.914	20302.03
443.121	21192.89
443.328	20662.47
443.534	22106.29
443.741	21080.25
443.948	20912.32
444.154	22450.35
444.361	22427.82
444.568	22800.55
444.774	22630.57
444.981	22786.21
445.187	23634.07
445.394	24680.58
445.6	24238.22
445.807	26450.03
446.013	25274.49
446.22	25766.01
446.426	27134.05
446.633	27074.66
446.839	27967.57
447.046	26669.16
447.252	28393.55
447.459	28321.87
447.665	28186.71
447.871	29143.11
448.078	30828.59
448.284	29194.31
448.491	30081.08
448.697	30937.13
448.903	31717.4
449.11	31922.2
449.316	31506.46
449.522	31854.62
449.728	32555.02
449.935	33009.67
450.141	32968.71
450.347	33667.07
450.553	32397.33
450.76	32970.76
450.966	34303.99
451.172	33437.7
451.378	34670.57
451.584	33603.58
451.791	34697.2
451.997	34158.58
452.203	35454.95
452.409	34981.87
452.615	34930.67
452.821	33533.95
453.027	33243.14
453.233	34881.52
453.44	33599.49
453.646	34062.33
453.852	34471.92
454.058	34592.75
454.264	33503.23
454.47	34441.2
454.676	33349.64
454.882	34398.2
455.088	31688.73
455.294	32184.34
455.5	32804.88
455.705	33067.02
455.911	31569.95
456.117	30799.91
456.323	30631.98
456.529	28823.62
456.735	30337.07
456.941	29540.41
457.147	28983.37
457.352	28141.65
457.558	27867.22
457.764	28155.99
457.97	27627.61
458.176	26595.43
458.381	27103.33
458.587	25569.4
458.793	25282.69
458.999	24359.05
459.204	26114.16
459.41	25020.55
459.616	23584.92
459.821	23756.95
460.027	23795.86
460.233	22739.11
460.438	21854.39
460.644	22253.74
460.85	21186.75
461.055	20984
461.261	20787.39
461.466	19534.04
461.672	18614.5
461.878	19996.88
462.083	18659.56
462.289	18479.33
462.494	18157.8
462.7	17266.94
462.905	17033.47
463.111	17393.91
463.316	17836.27
463.522	17254.65
463.727	17139.96
463.932	17275.13
464.138	16969.98
464.343	16980.22
464.549	16597.25
464.754	17125.63
464.959	17060.09
465.165	17025.28
465.37	16124.17
465.575	15814.93
465.781	16451.84
465.986	16593.15
466.191	15708.43
466.397	15585.55
466.602	14735.65
466.807	15044.89
467.012	15651.09
467.218	15239.45
467.423	14946.59
467.628	15163.67
467.833	15870.22
468.038	15384.85
