Data from USB4F104151__257__14-01-40-944.txt Node

Date: Thu Mar 13 14:01:40 EDT 2025
User: louis
Spectrometer: USB4F10415
Trigger mode: 4
Integration Time (sec): 1.000000E-2
Scans to average: 1
Electric dark correction enabled: true
Nonlinearity correction enabled: false
Boxcar width: 0
XAxis mode: Wavelengths
Number of Pixels in Spectrum: 3648
>>>>>Begin Spectral Data<<<<<
178.204	-30.21
178.424	-30.21
178.644	-30.21
178.864	-28.16
179.084	-22.02
179.304	10.75
179.524	-26.11
179.744	-50.69
179.964	-1.54
180.184	-3.58
180.404	4.61
180.624	-30.21
180.844	10.75
181.064	-7.68
181.283	-13.82
181.503	33.28
181.723	74.24
181.943	-24.06
182.163	47.62
182.383	-95.74
182.602	-28.16
182.822	59.9
183.042	14.85
183.262	59.9
183.482	-13.82
183.701	47.62
183.921	-1.54
184.141	12.8
184.361	10.75
184.58	27.14
184.8	23.04
185.02	-5.63
185.239	35.33
185.459	10.75
185.679	-3.58
185.898	27.14
186.118	4.61
186.338	-19.97
186.557	27.14
186.777	29.18
186.997	-19.97
187.216	94.72
187.436	47.62
187.655	25.09
187.875	-44.54
188.095	29.18
188.314	39.42
188.534	-17.92
188.753	35.33
188.973	72.19
189.192	31.23
189.412	-19.97
189.631	-5.63
189.851	6.66
190.07	-30.21
190.29	-9.73
190.509	82.43
190.729	-19.97
190.948	2.56
191.168	14.85
191.387	2.56
191.607	16.9
191.826	70.14
192.045	55.81
192.265	72.19
192.484	10.75
192.704	68.09
192.923	-48.64
193.142	12.8
193.362	66.05
193.581	31.23
193.8	-13.82
194.02	88.57
194.239	10.75
194.458	2.56
194.678	-34.3
194.897	96.77
195.116	10.75
195.335	35.33
195.555	-15.87
195.774	-3.58
195.993	6.66
196.212	37.38
196.432	72.19
196.651	-5.63
196.87	55.81
197.089	10.75
197.308	-11.78
197.528	14.85
197.747	18.94
197.966	33.28
198.185	31.23
198.404	12.8
198.623	-19.97
198.842	20.99
199.062	68.09
199.281	2.56
199.5	-54.78
199.719	35.33
199.938	80.38
200.157	68.09
200.376	10.75
200.595	51.71
200.814	-22.02
201.033	-3.58
201.252	27.14
201.471	61.95
201.69	39.42
201.909	43.52
202.128	29.18
202.347	31.23
202.566	20.99
202.785	76.29
203.004	-3.58
203.223	70.14
203.442	4.61
203.661	-30.21
203.879	29.18
204.098	20.99
204.317	61.95
204.536	31.23
204.755	-17.92
204.974	18.94
205.193	27.14
205.411	6.66
205.63	-3.58
205.849	6.66
206.068	53.76
206.287	-5.63
206.505	16.9
206.724	14.85
206.943	-46.59
207.162	-3.58
207.381	72.19
207.599	59.9
207.818	-34.3
208.037	23.04
208.255	-93.69
208.474	10.75
208.693	0.51
208.911	10.75
209.13	-22.02
209.349	-15.87
209.567	37.38
209.786	27.14
210.005	8.7
210.223	4.61
210.442	-22.02
210.661	10.75
210.879	119.29
211.098	-38.4
211.316	86.53
211.535	-44.54
211.753	8.7
211.972	10.75
212.191	72.19
212.409	10.75
212.628	78.33
212.846	-3.58
213.065	76.29
213.283	12.8
213.502	41.47
213.72	-7.68
213.938	88.57
214.157	47.62
214.375	18.94
214.594	-13.82
214.812	16.9
215.031	45.57
215.249	-17.92
215.467	14.85
215.686	39.42
215.904	-3.58
216.122	31.23
216.341	-3.58
216.559	94.72
216.778	74.24
216.996	18.94
217.214	61.95
217.432	41.47
217.651	45.57
217.869	-11.78
218.087	23.04
218.306	8.7
218.524	27.14
218.742	-19.97
218.96	14.85
219.179	-38.4
219.397	25.09
219.615	47.62
219.833	41.47
220.051	-38.4
220.27	51.71
220.488	20.99
220.706	35.33
220.924	49.66
221.142	12.8
221.36	33.28
221.578	18.94
221.796	39.42
222.015	86.53
222.233	70.14
222.451	18.94
222.669	18.94
222.887	35.33
223.105	18.94
223.323	12.8
223.541	-40.45
223.759	-3.58
223.977	18.94
224.195	43.52
224.413	49.66
224.631	86.53
224.849	-38.4
225.067	-19.97
225.285	61.95
225.503	33.28
225.721	-36.35
225.939	-52.74
226.157	18.94
226.375	86.53
226.592	-48.64
226.81	-22.02
227.028	82.43
227.246	72.19
227.464	82.43
227.682	27.14
227.9	-1.54
228.117	10.75
228.335	-26.11
228.553	14.85
228.771	43.52
228.989	98.81
229.206	18.94
229.424	35.33
229.642	14.85
229.86	-11.78
230.077	10.75
230.295	18.94
230.513	12.8
230.731	16.9
230.948	14.85
231.166	43.52
231.384	-69.12
231.601	61.95
231.819	68.09
232.037	35.33
232.254	-13.82
232.472	59.9
232.689	-1.54
232.907	-5.63
233.125	61.95
233.342	12.8
233.56	6.66
233.777	57.86
233.995	-34.3
234.213	35.33
234.43	-3.58
234.648	20.99
234.865	-22.02
235.083	59.9
235.3	6.66
235.518	70.14
235.735	53.76
235.953	33.28
236.17	29.18
236.388	-30.21
236.605	25.09
236.822	31.23
237.04	-13.82
237.257	18.94
237.475	12.8
237.692	100.86
237.909	20.99
238.127	76.29
238.344	8.7
238.562	-38.4
238.779	39.42
238.996	12.8
239.214	23.04
239.431	94.72
239.648	35.33
239.865	84.48
240.083	49.66
240.3	47.62
240.517	80.38
240.735	-17.92
240.952	-15.87
241.169	31.23
241.386	-13.82
241.603	29.18
241.821	-34.3
242.038	10.75
242.255	45.57
242.472	-7.68
242.689	51.71
242.907	6.66
243.124	18.94
243.341	66.05
243.558	-3.58
243.775	45.57
243.992	-38.4
244.209	14.85
244.426	20.99
244.643	10.75
244.86	20.99
245.078	2.56
245.295	-3.58
245.512	23.04
245.729	86.53
245.946	-38.4
246.163	-24.06
246.38	59.9
246.597	47.62
246.814	-40.45
247.031	6.66
247.248	29.18
247.464	37.38
247.681	-54.78
247.898	25.09
248.115	43.52
248.332	27.14
248.549	31.23
248.766	94.72
248.983	47.62
249.2	92.67
249.417	23.04
249.633	-7.68
249.85	35.33
250.067	92.67
250.284	37.38
250.501	74.24
250.717	16.9
250.934	25.09
251.151	12.8
251.368	20.99
251.585	29.18
251.801	12.8
252.018	-22.02
252.235	59.9
252.451	-30.21
252.668	45.57
252.885	80.38
253.102	-1.54
253.318	-9.73
253.535	25.09
253.752	12.8
253.968	25.09
254.185	43.52
254.401	18.94
254.618	8.7
254.835	25.09
255.051	8.7
255.268	18.94
255.484	18.94
255.701	76.29
255.917	55.81
256.134	84.48
256.351	10.75
256.567	53.76
256.784	35.33
257	-79.36
257.217	33.28
257.433	47.62
257.65	-34.3
257.866	41.47
258.082	68.09
258.299	8.7
258.515	27.14
258.732	-62.98
258.948	12.8
259.165	39.42
259.381	2.56
259.597	25.09
259.814	-17.92
260.03	55.81
260.246	18.94
260.463	27.14
260.679	-5.63
260.895	4.61
261.112	-13.82
261.328	-36.35
261.544	88.57
261.761	35.33
261.977	37.38
262.193	90.62
262.409	49.66
262.626	55.81
262.842	10.75
263.058	-36.35
263.274	20.99
263.49	35.33
263.707	23.04
263.923	2.56
264.139	-15.87
264.355	53.76
264.571	45.57
264.787	51.71
265.004	29.18
265.22	61.95
265.436	-60.93
265.652	27.14
265.868	23.04
266.084	6.66
266.3	10.75
266.516	80.38
266.732	33.28
266.948	0.51
267.164	18.94
267.38	47.62
267.596	43.52
267.812	72.19
268.028	18.94
268.244	18.94
268.46	59.9
268.676	68.09
268.892	104.96
269.108	35.33
269.324	-50.69
269.54	35.33
269.756	61.95
269.972	35.33
270.188	12.8
270.403	49.66
270.619	10.75
270.835	-26.11
271.051	119.29
271.267	-46.59
271.483	80.38
271.698	6.66
271.914	2.56
272.13	49.66
272.346	18.94
272.562	20.99
272.777	43.52
272.993	4.61
273.209	-40.45
273.425	6.66
273.64	4.61
273.856	-9.73
274.072	-17.92
274.287	0.51
274.503	72.19
274.719	12.8
274.934	12.8
275.15	23.04
275.366	27.14
275.581	-52.74
275.797	35.33
276.012	18.94
276.228	35.33
276.444	45.57
276.659	25.09
276.875	2.56
277.09	29.18
277.306	-9.73
277.521	-30.21
277.737	33.28
277.952	100.86
278.168	4.61
278.383	84.48
278.599	35.33
278.814	53.76
279.03	37.38
279.245	39.42
279.461	51.71
279.676	29.18
279.892	-5.63
280.107	29.18
280.322	8.7
280.538	59.9
280.753	33.28
280.969	10.75
281.184	-54.78
281.399	53.76
281.615	-1.54
281.83	18.94
282.045	-17.92
282.26	0.51
282.476	33.28
282.691	6.66
282.906	68.09
283.122	-24.06
283.337	12.8
283.552	33.28
283.767	51.71
283.983	14.85
284.198	-11.78
284.413	2.56
284.628	53.76
284.843	70.14
285.058	43.52
285.274	100.86
285.489	14.85
285.704	64
285.919	49.66
286.134	61.95
286.349	-58.88
286.564	-15.87
286.779	2.56
286.995	27.14
287.21	-44.54
287.425	18.94
287.64	53.76
287.855	29.18
288.07	4.61
288.285	43.52
288.5	45.57
288.715	-22.02
288.93	43.52
289.145	51.71
289.36	-19.97
289.575	-28.16
289.79	49.66
290.004	16.9
290.219	41.47
290.434	-13.82
290.649	-46.59
290.864	55.81
291.079	-3.58
291.294	80.38
291.509	23.04
291.724	16.9
291.938	-54.78
292.153	29.18
292.368	-48.64
292.583	53.76
292.798	68.09
293.012	47.62
293.227	-34.3
293.442	8.7
293.657	72.19
293.871	12.8
294.086	39.42
294.301	96.77
294.516	-5.63
294.73	12.8
294.945	-1.54
295.16	20.99
295.374	74.24
295.589	-17.92
295.804	86.53
296.018	72.19
296.233	31.23
296.447	33.28
296.662	12.8
296.877	33.28
297.091	25.09
297.306	86.53
297.52	80.38
297.735	82.43
297.949	2.56
298.164	-58.88
298.378	35.33
298.593	59.9
298.807	10.75
299.022	6.66
299.236	-7.68
299.451	-19.97
299.665	76.29
299.88	39.42
300.094	53.76
300.309	82.43
300.523	-9.73
300.737	47.62
300.952	-5.63
301.166	-22.02
301.381	94.72
301.595	61.95
301.809	49.66
302.024	49.66
302.238	10.75
302.452	74.24
302.667	-19.97
302.881	18.94
303.095	37.38
303.309	-13.82
303.524	12.8
303.738	-7.68
303.952	2.56
304.166	96.77
304.381	37.38
304.595	-38.4
304.809	20.99
305.023	80.38
305.237	25.09
305.452	-11.78
305.666	12.8
305.88	45.57
306.094	57.86
306.308	25.09
306.522	29.18
306.736	41.47
306.95	6.66
307.164	-19.97
307.379	68.09
307.593	-5.63
307.807	-15.87
308.021	25.09
308.235	107.01
308.449	64
308.663	78.33
308.877	88.57
309.091	-1.54
309.305	113.15
309.519	4.61
309.733	-28.16
309.947	27.14
310.161	-7.68
310.374	61.95
310.588	70.14
310.802	76.29
311.016	45.57
311.23	6.66
311.444	137.73
311.658	6.66
311.872	18.94
312.085	2.56
312.299	-22.02
312.513	61.95
312.727	68.09
312.941	14.85
313.154	76.29
313.368	45.57
313.582	-22.02
313.796	2.56
314.009	59.9
314.223	2.56
314.437	59.9
314.651	55.81
314.864	51.71
315.078	31.23
315.292	-19.97
315.505	18.94
315.719	70.14
315.933	43.52
316.146	4.61
316.36	35.33
316.573	94.72
316.787	68.09
317.001	20.99
317.214	37.38
317.428	41.47
317.641	-15.87
317.855	27.14
318.068	39.42
318.282	6.66
318.495	90.62
318.709	25.09
318.922	10.75
319.136	68.09
319.349	2.56
319.563	-42.5
319.776	33.28
319.99	37.38
320.203	47.62
320.417	61.95
320.63	12.8
320.843	125.44
321.057	59.9
321.27	-5.63
321.483	39.42
321.697	47.62
321.91	27.14
322.124	35.33
322.337	53.76
322.55	37.38
322.763	41.47
322.977	90.62
323.19	6.66
323.403	31.23
323.617	14.85
323.83	82.43
324.043	31.23
324.256	37.38
324.469	55.81
324.683	70.14
324.896	-13.82
325.109	84.48
325.322	-13.82
325.535	61.95
325.748	-19.97
325.962	29.18
326.175	31.23
326.388	12.8
326.601	-40.45
326.814	49.66
327.027	31.23
327.24	29.18
327.453	59.9
327.666	27.14
327.879	-15.87
328.092	23.04
328.305	27.14
328.518	39.42
328.731	-1.54
328.944	18.94
329.157	20.99
329.37	100.86
329.583	94.72
329.796	92.67
330.009	10.75
330.222	121.34
330.435	43.52
330.648	37.38
330.861	27.14
331.073	102.91
331.286	10.75
331.499	-7.68
331.712	68.09
331.925	10.75
332.138	47.62
332.35	59.9
332.563	43.52
332.776	49.66
332.989	45.57
333.202	35.33
333.414	61.95
333.627	47.62
333.84	64
334.053	41.47
334.265	14.85
334.478	-13.82
334.691	41.47
334.903	70.14
335.116	14.85
335.329	14.85
335.541	57.86
335.754	61.95
335.966	51.71
336.179	18.94
336.392	-36.35
336.604	68.09
336.817	6.66
337.029	76.29
337.242	51.71
337.454	8.7
337.667	33.28
337.88	45.57
338.092	-9.73
338.305	35.33
338.517	64
338.729	27.14
338.942	74.24
339.154	23.04
339.367	-15.87
339.579	78.33
339.792	6.66
340.004	-11.78
340.217	-5.63
340.429	31.23
340.641	6.66
340.854	53.76
341.066	78.33
341.278	16.9
341.491	78.33
341.703	53.76
341.915	18.94
342.128	47.62
342.34	18.94
342.552	59.9
342.764	51.71
342.977	8.7
343.189	37.38
343.401	76.29
343.613	4.61
343.826	78.33
344.038	88.57
344.25	51.71
344.462	-71.17
344.674	29.18
344.886	20.99
345.099	29.18
345.311	61.95
345.523	59.9
345.735	10.75
345.947	72.19
346.159	43.52
346.371	37.38
346.583	88.57
346.795	92.67
347.007	39.42
347.219	76.29
347.431	8.7
347.643	74.24
347.855	-34.3
348.067	70.14
348.279	88.57
348.491	43.52
348.703	25.09
348.915	59.9
349.127	51.71
349.339	47.62
349.551	80.38
349.763	51.71
349.975	68.09
350.187	20.99
350.399	47.62
350.61	43.52
350.822	117.25
351.034	31.23
351.246	-32.26
351.458	33.28
351.669	33.28
351.881	35.33
352.093	0.51
352.305	18.94
352.517	2.56
352.728	-26.11
352.94	16.9
353.152	55.81
353.363	45.57
353.575	37.38
353.787	43.52
353.999	102.91
354.21	43.52
354.422	16.9
354.633	39.42
354.845	31.23
355.057	18.94
355.268	4.61
355.48	43.52
355.692	53.76
355.903	82.43
356.115	53.76
356.326	-34.3
356.538	31.23
356.749	0.51
356.961	66.05
357.172	72.19
357.384	-9.73
357.595	80.38
357.807	64
358.018	51.71
358.23	61.95
358.441	37.38
358.653	92.67
358.864	10.75
359.075	-13.82
359.287	47.62
359.498	35.33
359.709	47.62
359.921	-30.21
360.132	23.04
360.344	-11.78
360.555	-15.87
360.766	0.51
360.977	-19.97
361.189	-46.59
361.4	31.23
361.611	90.62
361.823	80.38
362.034	31.23
362.245	53.76
362.456	86.53
362.667	51.71
362.879	14.85
363.09	47.62
363.301	-9.73
363.512	10.75
363.723	80.38
363.935	41.47
364.146	70.14
364.357	39.42
364.568	33.28
364.779	141.82
364.99	64
365.201	35.33
365.412	147.97
365.623	18.94
365.834	4.61
366.045	43.52
366.256	12.8
366.467	59.9
366.678	20.99
366.889	113.15
367.1	66.05
367.311	18.94
367.522	86.53
367.733	43.52
367.944	74.24
368.155	-5.63
368.366	59.9
368.577	70.14
368.788	16.9
368.999	8.7
369.209	70.14
369.42	64
369.631	98.81
369.842	94.72
370.053	45.57
370.264	-19.97
370.474	92.67
370.685	115.2
370.896	39.42
371.107	61.95
371.317	33.28
371.528	64
371.739	131.58
371.95	37.38
372.16	80.38
372.371	6.66
372.582	45.57
372.792	55.81
373.003	51.71
373.214	37.38
373.424	92.67
373.635	59.9
373.846	150.01
374.056	47.62
374.267	27.14
374.477	29.18
374.688	78.33
374.898	129.53
375.109	2.56
375.319	80.38
375.53	68.09
375.74	2.56
375.951	76.29
376.161	57.86
376.372	8.7
376.582	55.81
376.793	-1.54
377.003	23.04
377.214	35.33
377.424	72.19
377.635	-30.21
377.845	43.52
378.055	-30.21
378.266	4.61
378.476	47.62
378.686	37.38
378.897	72.19
379.107	53.76
379.317	100.86
379.528	84.48
379.738	41.47
379.948	12.8
380.158	141.82
380.369	72.19
380.579	80.38
380.789	82.43
380.999	8.7
381.21	80.38
381.42	27.14
381.63	51.71
381.84	109.05
382.05	12.8
382.261	10.75
382.471	37.38
382.681	-15.87
382.891	61.95
383.101	18.94
383.311	57.86
383.521	88.57
383.731	-3.58
383.941	43.52
384.151	10.75
384.361	59.9
384.571	-3.58
384.781	25.09
384.991	51.71
385.201	41.47
385.411	66.05
385.621	37.38
385.831	57.86
386.041	72.19
386.251	74.24
386.461	76.29
386.671	18.94
386.881	4.61
387.091	66.05
387.301	76.29
387.511	96.77
387.72	47.62
387.93	131.58
388.14	-5.63
388.35	37.38
388.56	39.42
388.769	72.19
388.979	88.57
389.189	66.05
389.399	59.9
389.609	6.66
389.818	35.33
390.028	8.7
390.238	-28.16
390.447	47.62
390.657	88.57
390.867	111.1
391.076	41.47
391.286	53.76
391.496	55.81
391.705	33.28
391.915	68.09
392.125	98.81
392.334	37.38
392.544	59.9
392.753	18.94
392.963	16.9
393.172	70.14
393.382	35.33
393.591	23.04
393.801	33.28
394.01	37.38
394.22	39.42
394.429	92.67
394.639	47.62
394.848	-13.82
395.058	66.05
395.267	92.67
395.477	84.48
395.686	102.91
395.895	61.95
396.105	84.48
396.314	2.56
396.524	43.52
396.733	107.01
396.942	88.57
397.152	47.62
397.361	84.48
397.57	76.29
397.78	74.24
397.989	47.62
398.198	115.2
398.407	27.14
398.617	115.2
398.826	90.62
399.035	115.2
399.244	29.18
399.453	76.29
399.663	49.66
399.872	104.96
400.081	113.15
400.29	66.05
400.499	84.48
400.708	160.25
400.917	41.47
401.127	156.16
401.336	53.76
401.545	150.01
401.754	94.72
401.963	131.58
402.172	70.14
402.381	70.14
402.59	186.88
402.799	35.33
403.008	111.1
403.217	172.54
403.426	49.66
403.635	145.92
403.844	102.91
404.053	119.29
404.262	174.59
404.471	170.49
404.68	109.05
404.888	131.58
405.097	184.83
405.306	51.71
405.515	109.05
405.724	150.01
405.933	154.11
406.142	164.35
406.35	203.26
406.559	119.29
406.768	64
406.977	174.59
407.185	160.25
407.394	205.31
407.603	139.77
407.812	209.4
408.02	170.49
408.229	172.54
408.438	248.32
408.646	141.82
408.855	256.51
409.064	156.16
409.272	197.12
409.481	182.78
409.69	190.97
409.898	264.7
410.107	285.18
410.315	254.46
410.524	254.46
410.733	199.16
410.941	236.03
411.15	305.66
411.358	287.23
411.567	334.33
411.775	254.46
411.984	320
412.192	313.85
412.401	391.67
412.609	426.49
412.818	408.06
413.026	459.26
413.234	297.47
413.443	414.2
413.651	397.82
413.86	428.54
414.068	469.5
414.276	483.83
414.485	442.87
414.693	469.5
414.901	526.84
415.11	506.36
415.318	553.46
415.526	559.61
415.734	641.53
415.943	621.05
416.151	592.37
416.359	549.37
416.567	604.66
416.776	705.01
416.984	696.82
417.192	711.16
417.4	772.6
417.608	758.26
417.817	731.64
418.025	881.14
418.233	817.65
418.441	821.75
418.649	815.6
418.857	856.56
419.065	922.1
419.273	1044.98
419.481	1036.78
419.689	1051.12
419.897	1001.97
420.105	1055.22
420.313	1141.23
420.521	1163.76
420.729	1174
420.937	1214.96
421.145	1239.53
421.353	1382.89
421.561	1483.24
421.769	1370.6
421.977	1462.76
422.185	1522.15
422.393	1628.65
422.601	1667.56
422.809	1739.24
423.017	1706.47
423.224	1753.57
423.432	1829.35
423.64	1849.83
423.848	1913.31
424.056	2025.95
424.263	2128.35
424.471	1989.09
424.679	2095.58
424.887	2159.07
425.094	2222.56
425.302	2331.1
425.51	2437.59
425.718	2478.55
425.925	2476.51
426.133	2648.54
426.341	2634.2
426.548	2910.68
426.756	2918.87
426.964	2994.64
427.171	3013.07
427.379	3164.62
427.586	3142.1
427.794	3428.81
428.001	3500.49
428.209	3604.94
428.417	3533.26
428.624	3768.77
428.832	3862.98
429.039	3731.91
429.247	3760.58
429.454	4161.98
429.662	4368.83
429.869	4078.02
430.076	4317.63
430.284	4356.54
430.491	4495.8
430.699	4764.09
430.906	4706.74
431.114	4962.74
431.321	5013.94
431.528	5106.1
431.736	5540.27
431.943	5714.34
432.15	5319.09
432.358	5534.12
432.565	5728.68
432.772	5818.79
432.979	6164.9
433.187	6320.54
433.394	6154.66
433.601	6824.34
433.808	6695.32
434.016	6533.53
434.223	6885.78
434.43	7199.12
434.637	7227.79
434.844	7840.14
435.052	7805.32
435.259	7795.08
435.466	7811.46
435.673	7788.94
435.88	8325.5
436.087	8751.48
436.294	8571.26
436.501	8466.81
436.708	8577.41
436.915	9103.73
437.122	9324.91
437.329	9331.06
437.537	9582.96
437.743	9824.62
437.95	9830.76
438.157	9963.88
438.364	10721.63
438.571	10385.76
438.778	10525.02
438.985	11546.96
439.192	11030.87
439.399	11489.62
439.606	11204.95
439.813	11954.51
440.02	12568.9
440.227	12228.93
440.433	12067.14
440.64	12443.97
440.847	12601.66
441.054	12685.63
441.261	13701.42
441.467	13535.54
441.674	13769.01
441.881	14281
442.088	14209.32
442.294	14086.44
442.501	14434.6
442.708	14711.07
442.914	15444.24
443.121	16050.44
443.328	15540.5
443.534	16679.17
443.741	16046.35
443.948	16087.31
444.154	17139.96
444.361	17027.32
444.568	17119.48
444.774	17240.31
444.981	17389.81
445.187	17817.84
445.394	18725.09
445.6	18292.97
445.807	20246.73
446.013	19106.01
446.22	19519.7
446.426	20711.62
446.633	20406.47
446.839	21151.93
447.046	20383.94
447.252	21348.54
447.459	21436.6
447.665	21315.77
447.871	22339.76
448.078	23333.02
448.284	22118.57
448.491	22589.61
448.697	23683.22
448.903	23869.59
449.11	24023.19
449.316	23586.97
449.522	24211.6
449.728	24705.16
449.935	25047.17
450.141	25090.18
450.347	25428.09
450.553	24737.93
450.76	24934.53
450.966	25639.03
451.172	25632.89
451.378	26273.9
451.584	25573.5
451.791	26091.63
451.997	26173.55
452.203	26447.98
452.409	26617.96
452.615	26425.45
452.821	25368.7
453.027	25227.39
453.233	26519.66
453.44	25772.15
453.646	25671.8
453.852	25788.53
454.058	26321.01
454.264	25436.28
454.47	26253.42
454.676	25178.24
454.882	26312.81
455.088	23785.62
455.294	24330.38
455.5	24531.08
455.705	24705.16
455.911	23840.92
456.117	23464.09
456.323	23038.11
456.529	22036.66
456.735	22601.9
456.941	22061.23
457.147	21895.35
457.352	21252.28
457.558	21227.71
457.764	20996.29
457.97	20672.71
458.176	20250.83
458.381	20203.72
458.587	19046.62
458.793	19294.43
458.999	18319.59
459.204	19341.53
459.41	18942.17
459.616	17664.24
459.821	17750.26
460.027	17674.48
460.233	17185.02
460.438	16593.15
460.644	16337.16
460.85	15886.61
461.055	15622.42
461.261	15513.88
461.466	14334.25
461.672	14240.04
461.878	14909.72
462.083	14006.57
462.289	13619.5
462.494	13965.61
462.7	13347.12
462.905	12800.32
463.111	13435.19
463.316	13199.67
463.522	12986.68
463.727	12960.06
463.932	13183.29
464.138	12798.27
464.343	12794.17
464.549	12382.53
464.754	13021.5
464.959	12757.31
465.165	12847.42
465.37	12269.89
465.575	11811.15
465.781	12226.89
465.986	12329.28
466.191	12161.35
466.397	11921.74
466.602	11094.36
466.807	11876.68
467.012	11536.72
467.218	11718.99
467.423	11565.39
467.628	11360.59
467.833	12042.57
468.038	11483.47
468.244	11008.34
468.449	11755.85
468.654	11303.25
468.859	11147.61
