Data from USB4F104151__158__13-58-41-253.txt Node

Date: Thu Mar 13 13:58:41 EDT 2025
User: louis
Spectrometer: USB4F10415
Trigger mode: 4
Integration Time (sec): 1.000000E-2
Scans to average: 1
Electric dark correction enabled: true
Nonlinearity correction enabled: false
Boxcar width: 0
XAxis mode: Wavelengths
Number of Pixels in Spectrum: 3648
>>>>>Begin Spectral Data<<<<<
178.204	-25.09
178.424	-25.09
178.644	-25.09
178.864	-10.75
179.084	-59.9
179.304	-107.01
179.524	42.5
179.744	-23.04
179.964	42.5
180.184	24.06
180.404	-14.85
180.624	-27.14
180.844	-25.09
181.064	15.87
181.283	-20.99
181.503	97.79
181.723	-4.61
181.943	-57.86
182.163	22.02
182.383	-47.62
182.602	34.3
182.822	77.31
183.042	13.82
183.262	-41.47
183.482	54.78
183.701	-12.8
183.921	99.84
184.141	40.45
184.361	24.06
184.58	5.63
184.8	48.64
185.02	-51.71
185.239	77.31
185.459	32.26
185.679	42.5
185.898	-43.52
186.118	30.21
186.338	-6.66
186.557	38.4
186.777	-0.51
186.997	15.87
187.216	-0.51
187.436	44.54
187.655	5.63
187.875	89.6
188.095	-51.71
188.314	87.55
188.534	30.21
188.753	-0.51
188.973	73.21
189.192	3.58
189.412	60.93
189.631	36.35
189.851	13.82
190.07	-16.9
190.29	-0.51
190.509	11.78
190.729	30.21
190.948	60.93
191.168	30.21
191.387	-4.61
191.607	-12.8
191.826	50.69
192.045	-80.38
192.265	-6.66
192.484	1.54
192.704	-66.05
192.923	11.78
193.142	48.64
193.362	38.4
193.581	60.93
193.8	5.63
194.02	22.02
194.239	3.58
194.458	-2.56
194.678	28.16
194.897	15.87
195.116	40.45
195.335	1.54
195.555	30.21
195.774	-37.38
195.993	-10.75
196.212	17.92
196.432	-31.23
196.651	11.78
196.87	-10.75
197.089	65.02
197.308	-39.42
197.528	58.88
197.747	36.35
197.966	-14.85
198.185	54.78
198.404	-23.04
198.623	32.26
198.842	56.83
199.062	75.26
199.281	17.92
199.5	1.54
199.719	48.64
199.938	32.26
200.157	7.68
200.376	-10.75
200.595	-2.56
200.814	40.45
201.033	-41.47
201.252	28.16
201.471	22.02
201.69	-23.04
201.909	-4.61
202.128	-2.56
202.347	19.97
202.566	-37.38
202.785	5.63
203.004	-16.9
203.223	30.21
203.442	-20.99
203.661	19.97
203.879	-27.14
204.098	40.45
204.317	34.3
204.536	95.74
204.755	-8.7
204.974	56.83
205.193	42.5
205.411	75.26
205.63	36.35
205.849	26.11
206.068	38.4
206.287	36.35
206.505	30.21
206.724	-27.14
206.943	67.07
207.162	101.89
207.381	28.16
207.599	13.82
207.818	22.02
208.037	7.68
208.255	-0.51
208.474	-2.56
208.693	11.78
208.911	-31.23
209.13	11.78
209.349	44.54
209.567	-14.85
209.786	28.16
210.005	15.87
210.223	42.5
210.442	-33.28
210.661	13.82
210.879	30.21
211.098	48.64
211.316	48.64
211.535	54.78
211.753	-4.61
211.972	-0.51
212.191	15.87
212.409	17.92
212.628	-14.85
212.846	52.74
213.065	-8.7
213.283	103.93
213.502	-6.66
213.72	30.21
213.938	46.59
214.157	-4.61
214.375	22.02
214.594	42.5
214.812	56.83
215.031	24.06
215.249	-0.51
215.467	44.54
215.686	42.5
215.904	58.88
216.122	91.65
216.341	-4.61
216.559	-96.77
216.778	17.92
216.996	58.88
217.214	5.63
217.432	28.16
217.651	-14.85
217.869	3.58
218.087	-27.14
218.306	48.64
218.524	62.98
218.742	48.64
218.96	-6.66
219.179	15.87
219.397	-4.61
219.615	-20.99
219.833	22.02
220.051	54.78
220.27	17.92
220.488	-8.7
220.706	-4.61
220.924	60.93
221.142	34.3
221.36	13.82
221.578	-35.33
221.796	22.02
222.015	54.78
222.233	30.21
222.451	71.17
222.669	40.45
222.887	56.83
223.105	-2.56
223.323	36.35
223.541	11.78
223.759	-12.8
223.977	65.02
224.195	97.79
224.413	105.98
224.631	30.21
224.849	40.45
225.067	71.17
225.285	69.12
225.503	-0.51
225.721	-47.62
225.939	3.58
226.157	-14.85
226.375	-29.18
226.592	46.59
226.81	7.68
227.028	11.78
227.246	11.78
227.464	13.82
227.682	99.84
227.9	44.54
228.117	44.54
228.335	62.98
228.553	9.73
228.771	-16.9
228.989	62.98
229.206	22.02
229.424	58.88
229.642	-0.51
229.86	24.06
230.077	87.55
230.295	36.35
230.513	36.35
230.731	7.68
230.948	-4.61
231.166	24.06
231.384	71.17
231.601	-18.94
231.819	34.3
232.037	-12.8
232.254	3.58
232.472	-16.9
232.689	15.87
232.907	-2.56
233.125	24.06
233.342	-4.61
233.56	-25.09
233.777	15.87
233.995	67.07
234.213	24.06
234.43	-0.51
234.648	3.58
234.865	-10.75
235.083	44.54
235.3	-31.23
235.518	-12.8
235.735	38.4
235.953	17.92
236.17	-27.14
236.388	24.06
236.605	11.78
236.822	-18.94
237.04	30.21
237.257	77.31
237.475	-51.71
237.692	75.26
237.909	77.31
238.127	15.87
238.344	22.02
238.562	34.3
238.779	19.97
238.996	30.21
239.214	-27.14
239.431	-47.62
239.648	17.92
239.865	62.98
240.083	-0.51
240.3	-0.51
240.517	83.45
240.735	52.74
240.952	15.87
241.169	60.93
241.386	-59.9
241.603	11.78
241.821	17.92
242.038	54.78
242.255	-78.33
242.472	-23.04
242.689	28.16
242.907	52.74
243.124	62.98
243.341	-0.51
243.558	36.35
243.775	26.11
243.992	-45.57
244.209	73.21
244.426	36.35
244.643	91.65
244.86	62.98
245.078	7.68
245.295	11.78
245.512	7.68
245.729	26.11
245.946	48.64
246.163	-2.56
246.38	22.02
246.597	-6.66
246.814	3.58
247.031	5.63
247.248	13.82
247.464	120.32
247.681	-45.57
247.898	56.83
248.115	60.93
248.332	11.78
248.549	105.98
248.766	-35.33
248.983	-12.8
249.2	1.54
249.417	52.74
249.633	9.73
249.85	65.02
250.067	-4.61
250.284	19.97
250.501	-18.94
250.717	-29.18
250.934	-53.76
251.151	44.54
251.368	44.54
251.585	-31.23
251.801	-2.56
252.018	7.68
252.235	40.45
252.451	77.31
252.668	50.69
252.885	24.06
253.102	40.45
253.318	1.54
253.535	48.64
253.752	46.59
253.968	28.16
254.185	-23.04
254.401	22.02
254.618	-0.51
254.835	38.4
255.051	52.74
255.268	36.35
255.484	11.78
255.701	79.36
255.917	-2.56
256.134	24.06
256.351	13.82
256.567	122.37
256.784	34.3
257	-16.9
257.217	-14.85
257.433	30.21
257.65	28.16
257.866	-12.8
258.082	-14.85
258.299	1.54
258.515	22.02
258.732	-37.38
258.948	42.5
259.165	52.74
259.381	32.26
259.597	1.54
259.814	3.58
260.03	9.73
260.246	22.02
260.463	-12.8
260.679	40.45
260.895	69.12
261.112	28.16
261.328	-33.28
261.544	24.06
261.761	36.35
261.977	-25.09
262.193	-70.14
262.409	-25.09
262.626	11.78
262.842	56.83
263.058	-25.09
263.274	22.02
263.49	7.68
263.707	11.78
263.923	73.21
264.139	5.63
264.355	-20.99
264.571	42.5
264.787	15.87
265.004	50.69
265.22	73.21
265.436	17.92
265.652	69.12
265.868	-27.14
266.084	17.92
266.3	28.16
266.516	9.73
266.732	48.64
266.948	26.11
267.164	46.59
267.38	52.74
267.596	30.21
267.812	-12.8
268.028	118.27
268.244	-18.94
268.46	44.54
268.676	24.06
268.892	9.73
269.108	-41.47
269.324	24.06
269.54	52.74
269.756	54.78
269.972	65.02
270.188	-57.86
270.403	-57.86
270.619	-45.57
270.835	58.88
271.051	-20.99
271.267	44.54
271.483	65.02
271.698	67.07
271.914	120.32
272.13	56.83
272.346	67.07
272.562	11.78
272.777	32.26
272.993	-6.66
273.209	-0.51
273.425	52.74
273.64	9.73
273.856	19.97
274.072	60.93
274.287	19.97
274.503	28.16
274.719	7.68
274.934	28.16
275.15	-0.51
275.366	-43.52
275.581	-10.75
275.797	19.97
276.012	11.78
276.228	-0.51
276.444	60.93
276.659	44.54
276.875	-6.66
277.09	97.79
277.306	52.74
277.521	93.69
277.737	60.93
277.952	69.12
278.168	44.54
278.383	60.93
278.599	15.87
278.814	32.26
279.03	5.63
279.245	46.59
279.461	67.07
279.676	192
279.892	-47.62
280.107	9.73
280.322	11.78
280.538	-4.61
280.753	44.54
280.969	50.69
281.184	38.4
281.399	19.97
281.615	3.58
281.83	34.3
282.045	40.45
282.26	-23.04
282.476	5.63
282.691	83.45
282.906	28.16
283.122	69.12
283.337	-31.23
283.552	-8.7
283.767	28.16
283.983	22.02
284.198	-53.76
284.413	-29.18
284.628	69.12
284.843	28.16
285.058	44.54
285.274	-10.75
285.489	32.26
285.704	85.5
285.919	11.78
286.134	-33.28
286.349	-64
286.564	-0.51
286.779	-16.9
286.995	1.54
287.21	30.21
287.425	77.31
287.64	3.58
287.855	38.4
288.07	36.35
288.285	-35.33
288.5	60.93
288.715	-12.8
288.93	-2.56
289.145	52.74
289.36	40.45
289.575	13.82
289.79	67.07
290.004	-2.56
290.219	46.59
290.434	3.58
290.649	-18.94
290.864	52.74
291.079	11.78
291.294	22.02
291.509	9.73
291.724	-35.33
291.938	44.54
292.153	32.26
292.368	83.45
292.583	44.54
292.798	24.06
293.012	95.74
293.227	124.41
293.442	15.87
293.657	79.36
293.871	38.4
294.086	34.3
294.301	105.98
294.516	54.78
294.73	99.84
294.945	-10.75
295.16	112.13
295.374	-8.7
295.589	50.69
295.804	17.92
296.018	75.26
296.233	30.21
296.447	54.78
296.662	-47.62
296.877	38.4
297.091	-8.7
297.306	73.21
297.52	54.78
297.735	60.93
297.949	67.07
298.164	48.64
298.378	-0.51
298.593	77.31
298.807	65.02
299.022	11.78
299.236	32.26
299.451	-8.7
299.665	44.54
299.88	46.59
300.094	71.17
300.309	77.31
300.523	56.83
300.737	62.98
300.952	5.63
301.166	87.55
301.381	30.21
301.595	-29.18
301.809	22.02
302.024	38.4
302.238	38.4
302.452	40.45
302.667	-14.85
302.881	42.5
303.095	-10.75
303.309	9.73
303.524	50.69
303.738	65.02
303.952	5.63
304.166	22.02
304.381	30.21
304.595	38.4
304.809	-31.23
305.023	48.64
305.237	-4.61
305.452	7.68
305.666	9.73
305.88	52.74
306.094	79.36
306.308	42.5
306.522	17.92
306.736	17.92
306.95	97.79
307.164	36.35
307.379	-8.7
307.593	134.65
307.807	89.6
308.021	48.64
308.235	-29.18
308.449	-6.66
308.663	65.02
308.877	71.17
309.091	-25.09
309.305	-4.61
309.519	54.78
309.733	54.78
309.947	71.17
310.161	54.78
310.374	38.4
310.588	22.02
310.802	34.3
311.016	3.58
311.23	-18.94
311.444	44.54
311.658	15.87
311.872	93.69
312.085	99.84
312.299	54.78
312.513	-14.85
312.727	-27.14
312.941	-35.33
313.154	3.58
313.368	1.54
313.582	22.02
313.796	38.4
314.009	46.59
314.223	-23.04
314.437	-8.7
314.651	75.26
314.864	36.35
315.078	9.73
315.292	44.54
315.505	24.06
315.719	48.64
315.933	-8.7
316.146	46.59
316.36	-27.14
316.573	52.74
316.787	38.4
317.001	36.35
317.214	1.54
317.428	28.16
317.641	50.69
317.855	34.3
318.068	81.41
318.282	7.68
318.495	17.92
318.709	36.35
318.922	-27.14
319.136	114.17
319.349	3.58
319.563	-18.94
319.776	5.63
319.99	-39.42
320.203	17.92
320.417	44.54
320.63	77.31
320.843	3.58
321.057	-10.75
321.27	-18.94
321.483	24.06
321.697	58.88
321.91	7.68
322.124	13.82
322.337	36.35
322.55	11.78
322.763	-20.99
322.977	3.58
323.19	-20.99
323.403	-4.61
323.617	11.78
323.83	62.98
324.043	19.97
324.256	38.4
324.469	9.73
324.683	50.69
324.896	-37.38
325.109	62.98
325.322	-18.94
325.535	54.78
325.748	17.92
325.962	71.17
326.175	-37.38
326.388	69.12
326.601	19.97
326.814	50.69
327.027	19.97
327.24	75.26
327.453	38.4
327.666	17.92
327.879	32.26
328.092	9.73
328.305	-25.09
328.518	50.69
328.731	-25.09
328.944	30.21
329.157	58.88
329.37	118.27
329.583	-25.09
329.796	32.26
330.009	26.11
330.222	36.35
330.435	116.22
330.648	54.78
330.861	22.02
331.073	-14.85
331.286	54.78
331.499	58.88
331.712	3.58
331.925	19.97
332.138	-2.56
332.35	1.54
332.563	60.93
332.776	56.83
332.989	-109.05
333.202	-8.7
333.414	19.97
333.627	15.87
333.84	22.02
334.053	26.11
334.265	56.83
334.478	30.21
334.691	36.35
334.903	15.87
335.116	-8.7
335.329	5.63
335.541	40.45
335.754	19.97
335.966	54.78
336.179	36.35
336.392	36.35
336.604	85.5
336.817	110.08
337.029	69.12
337.242	-6.66
337.454	32.26
337.667	34.3
337.88	79.36
338.092	44.54
338.305	42.5
338.517	85.5
338.729	44.54
338.942	24.06
339.154	56.83
339.367	19.97
339.579	67.07
339.792	22.02
340.004	-2.56
340.217	40.45
340.429	26.11
340.641	48.64
340.854	56.83
341.066	36.35
341.278	71.17
341.491	-6.66
341.703	5.63
341.915	-43.52
342.128	38.4
342.34	-8.7
342.552	52.74
342.764	67.07
342.977	73.21
343.189	-23.04
343.401	52.74
343.613	69.12
343.826	87.55
344.038	65.02
344.25	77.31
344.462	17.92
344.674	24.06
344.886	17.92
345.099	-33.28
345.311	-76.29
345.523	11.78
345.735	3.58
345.947	22.02
346.159	46.59
346.371	110.08
346.583	-2.56
346.795	36.35
347.007	-29.18
347.219	-12.8
347.431	-14.85
347.643	19.97
347.855	19.97
348.067	50.69
348.279	73.21
348.491	-10.75
348.703	5.63
348.915	24.06
349.127	-6.66
349.339	-12.8
349.551	-33.28
349.763	36.35
349.975	89.6
350.187	122.37
350.399	-33.28
350.61	44.54
350.822	48.64
351.034	11.78
351.246	67.07
351.458	73.21
351.669	77.31
351.881	-64
352.093	-23.04
352.305	26.11
352.517	19.97
352.728	77.31
352.94	11.78
353.152	19.97
353.363	40.45
353.575	-4.61
353.787	40.45
353.999	93.69
354.21	13.82
354.422	52.74
354.633	67.07
354.845	9.73
355.057	-0.51
355.268	3.58
355.48	50.69
355.692	15.87
355.903	30.21
356.115	103.93
356.326	-37.38
356.538	73.21
356.749	34.3
356.961	11.78
357.172	58.88
357.384	62.98
357.595	71.17
357.807	73.21
358.018	-37.38
358.23	122.37
358.441	54.78
358.653	50.69
358.864	95.74
359.075	-4.61
359.287	36.35
359.498	65.02
359.709	52.74
359.921	-0.51
360.132	60.93
360.344	50.69
360.555	-102.91
360.766	-4.61
360.977	-0.51
361.189	-2.56
361.4	-16.9
361.611	-39.42
361.823	26.11
362.034	3.58
362.245	50.69
362.456	5.63
362.667	103.93
362.879	-27.14
363.09	13.82
363.301	77.31
363.512	-6.66
363.723	1.54
363.935	36.35
364.146	77.31
364.357	52.74
364.568	81.41
364.779	97.79
364.99	36.35
365.201	1.54
365.412	22.02
365.623	38.4
365.834	83.45
366.045	15.87
366.256	-20.99
366.467	44.54
366.678	87.55
366.889	11.78
367.1	-4.61
367.311	42.5
367.522	19.97
367.733	5.63
367.944	128.51
368.155	71.17
368.366	69.12
368.577	44.54
368.788	87.55
368.999	17.92
369.209	52.74
369.42	52.74
369.631	24.06
369.842	19.97
370.053	48.64
370.264	7.68
370.474	120.32
370.685	75.26
370.896	5.63
371.107	60.93
371.317	-6.66
371.528	50.69
371.739	30.21
371.95	44.54
372.16	99.84
372.371	-25.09
372.582	-6.66
372.792	81.41
373.003	-25.09
373.214	-16.9
373.424	65.02
373.635	85.5
373.846	69.12
374.056	46.59
374.267	67.07
374.477	3.58
374.688	48.64
374.898	19.97
375.109	50.69
375.319	46.59
375.53	-33.28
375.74	71.17
375.951	58.88
376.161	5.63
376.372	71.17
376.582	65.02
376.793	-8.7
377.003	40.45
377.214	36.35
377.424	122.37
377.635	105.98
377.845	-0.51
378.055	65.02
378.266	81.41
378.476	56.83
378.686	81.41
378.897	50.69
379.107	81.41
379.317	38.4
379.528	22.02
379.738	38.4
379.948	30.21
380.158	19.97
380.369	-43.52
380.579	-10.75
380.789	-12.8
380.999	54.78
381.21	52.74
381.42	3.58
381.63	11.78
381.84	30.21
382.05	9.73
382.261	116.22
382.471	83.45
382.681	65.02
382.891	91.65
383.101	93.69
383.311	19.97
383.521	-12.8
383.731	26.11
383.941	11.78
384.151	50.69
384.361	85.5
384.571	1.54
384.781	46.59
384.991	67.07
385.201	79.36
385.411	-10.75
385.621	48.64
385.831	9.73
386.041	101.89
386.251	3.58
386.461	50.69
386.671	112.13
386.881	19.97
387.091	1.54
387.301	99.84
387.511	46.59
387.72	-6.66
387.93	77.31
388.14	79.36
388.35	73.21
388.56	-0.51
388.769	71.17
388.979	-4.61
389.189	60.93
389.399	97.79
389.609	56.83
389.818	87.55
390.028	22.02
390.238	-16.9
390.447	73.21
390.657	77.31
390.867	65.02
391.076	1.54
391.286	95.74
391.496	110.08
391.705	26.11
391.915	69.12
392.125	5.63
392.334	69.12
392.544	15.87
392.753	-23.04
392.963	50.69
393.172	11.78
393.382	-2.56
393.591	17.92
393.801	5.63
394.01	32.26
394.22	42.5
394.429	77.31
394.639	95.74
394.848	44.54
395.058	17.92
395.267	138.75
395.477	97.79
395.686	85.5
395.895	40.45
396.105	101.89
396.314	42.5
396.524	7.68
396.733	46.59
396.942	87.55
397.152	13.82
397.361	60.93
397.57	71.17
397.78	58.88
397.989	50.69
398.198	81.41
398.407	36.35
398.617	120.32
398.826	62.98
399.035	89.6
399.244	60.93
399.453	60.93
399.663	128.51
399.872	118.27
400.081	89.6
400.29	75.26
400.499	122.37
400.708	130.56
400.917	89.6
401.127	48.64
401.336	42.5
401.545	56.83
401.754	146.94
401.963	79.36
402.172	73.21
402.381	91.65
402.59	69.12
402.799	87.55
403.008	108.03
403.217	52.74
403.426	71.17
403.635	112.13
403.844	54.78
404.053	171.52
404.262	101.89
404.471	165.37
404.68	93.69
404.888	103.93
405.097	126.46
405.306	62.98
405.515	136.7
405.724	99.84
405.933	40.45
406.142	62.98
406.35	116.22
406.559	183.81
406.768	140.8
406.977	163.33
407.185	167.42
407.394	112.13
407.603	134.65
407.812	165.37
408.02	267.77
408.229	204.28
408.438	206.33
408.646	198.14
408.855	183.81
409.064	120.32
409.272	173.57
409.481	169.47
409.69	175.61
409.898	255.48
410.107	263.68
410.315	228.86
410.524	161.28
410.733	237.05
410.941	220.67
411.15	323.07
411.358	249.34
411.567	310.78
411.775	235
411.984	353.79
412.192	335.35
412.401	275.96
412.609	384.51
412.818	372.22
413.026	347.64
413.234	364.03
413.443	384.51
413.651	314.88
413.86	390.65
414.068	435.71
414.276	392.7
414.485	456.19
414.693	466.42
414.901	527.86
415.11	560.63
415.318	587.26
415.526	589.3
415.734	558.58
415.943	558.58
416.151	519.67
416.359	538.1
416.567	617.97
416.776	699.89
416.984	710.13
417.192	716.28
417.4	757.24
417.608	753.14
417.817	728.56
418.025	742.9
418.233	882.16
418.441	720.37
418.649	867.83
418.857	949.75
419.065	929.27
419.273	916.98
419.481	1021.42
419.689	1056.24
419.897	1054.19
420.105	1107.44
420.313	1089.01
420.521	1240.56
420.729	1232.37
420.937	1172.97
421.145	1381.87
421.353	1302
421.561	1461.74
421.769	1385.96
421.977	1428.97
422.185	1535.46
422.393	1564.14
422.601	1586.66
422.809	1633.77
423.017	1705.45
423.224	1740.26
423.432	1809.89
423.64	1818.08
423.848	1932.77
424.056	1924.58
424.263	2108.9
424.471	2006.5
424.679	2121.18
424.887	2242.01
425.094	2319.84
425.302	2272.73
425.51	2432.47
425.718	2412
425.925	2547.16
426.133	2581.98
426.341	2696.66
426.548	2829.78
426.756	2883.03
426.964	2833.88
427.171	3005.91
427.379	3063.25
427.586	3120.59
427.794	3374.54
428.001	3573.19
428.209	3591.63
428.417	3458.51
428.624	3714.5
428.832	3714.5
429.039	3765.7
429.247	3608.01
429.454	4015.55
429.662	4292.03
429.869	4052.42
430.076	4246.98
430.284	4076.99
430.491	4509.12
430.699	4638.14
430.906	4593.08
431.114	4703.67
431.321	4808.12
431.528	4871.61
431.736	5172.66
431.943	5612.97
432.15	5459.37
432.358	5486
432.565	5795.24
432.772	5703.08
432.979	6100.39
433.187	5989.8
433.394	6182.31
433.601	6557.08
433.808	6483.36
434.016	6450.59
434.223	6948.25
434.43	7296.4
434.637	7079.32
434.844	7490.96
435.052	7685.51
435.259	7628.17
435.466	7566.73
435.673	7517.58
435.88	8203.65
436.087	8359.3
436.294	8641.92
436.501	8207.75
436.708	8453.5
436.915	8912.25
437.122	9256.31
437.329	9194.87
437.537	9524.59
437.743	9713
437.95	9602.41
438.157	10100.07
438.364	10321.25
438.571	10325.35
438.778	10284.39
438.985	11322.71
439.192	10968.41
439.399	11218.26
439.606	10927.45
439.813	11627.85
440.02	12363.08
440.227	12080.46
440.433	11986.25
440.64	12242.25
440.847	12252.49
441.054	12475.71
441.261	13366.58
441.467	13307.19
441.674	13546.8
441.881	13876.52
442.088	13835.56
442.294	14021.93
442.501	13960.49
442.708	14271.78
442.914	14712.1
443.121	15734.03
443.328	15181.08
443.534	16309.51
443.741	15953.16
443.948	15785.23
444.154	16665.86
444.361	16637.19
444.568	16874.75
444.774	16702.72
444.981	16784.64
445.187	17288.44
445.394	18328.81
445.6	18119.92
445.807	19752.15
446.013	18873.57
446.22	19053.79
446.426	20139.21
446.633	20163.79
446.839	20829.38
447.046	19535.06
447.252	21234.88
447.459	21112
447.665	20964.54
447.871	21822.64
448.078	22766.76
448.284	21761.2
448.491	22265
448.697	23039.14
448.903	23295.13
449.11	23817.36
449.316	22998.18
449.522	23710.87
449.728	24480.91
449.935	24720.52
450.141	25001.09
450.347	25058.43
450.553	24153.23
450.76	24679.56
450.966	25502.84
451.172	25072.77
451.378	25859.19
451.584	25130.11
451.791	25580.67
451.997	25922.68
452.203	26313.84
452.409	26131.57
452.615	25705.59
452.821	24898.69
453.027	24525.96
453.233	26176.62
453.44	25007.23
453.646	25240.7
453.852	25193.6
454.058	25580.67
454.264	25214.08
454.47	25418.88
454.676	24771.72
454.882	25787.51
455.088	23303.32
455.294	23747.73
455.5	23993.49
455.705	24388.75
455.911	23309.47
456.117	22863.01
456.323	22471.85
456.529	21365.95
456.735	22521
456.941	21705.91
457.147	21281.98
457.352	20870.34
457.558	20659.4
457.764	20546.76
457.97	20016.33
458.176	19776.72
458.381	19614.93
458.587	18605.28
458.793	18887.9
458.999	17560.82
459.204	18969.82
459.41	18615.52
459.616	17323.26
459.821	17386.74
460.027	17452.28
460.233	16884.99
460.438	16037.13
460.644	16325.89
460.85	15559.95
461.055	15516.95
461.261	15252.76
461.466	14101.8
461.672	13583.66
461.878	14820.64
462.083	13839.66
462.289	13321.52
462.494	13647.15
462.7	12537.15
462.905	12424.51
463.111	12860.73
463.316	13010.23
463.522	12571.97
463.727	12604.74
463.932	12817.72
464.138	12510.53
464.343	12838.2
464.549	12270.92
464.754	12498.24
464.959	12555.58
465.165	12514.63
465.37	12088.65
465.575	11658.57
465.781	12084.55
465.986	12340.55
466.191	11998.54
466.397	11685.2
466.602	10919.26
466.807	11504.98
467.012	11455.83
467.218	11386.19
467.423	10984.79
467.628	11279.7
467.833	11681.1
468.038	11257.17
468.244	10990.94
468.449	11330.9
468.654	11246.93
