Data from USB4F104151__43__13-53-18-238.txt Node

Date: Thu Mar 13 13:53:18 EDT 2025
User: louis
Spectrometer: USB4F10415
Trigger mode: 4
Integration Time (sec): 1.000000E-2
Scans to average: 1
Electric dark correction enabled: true
Nonlinearity correction enabled: false
Boxcar width: 0
XAxis mode: Wavelengths
Number of Pixels in Spectrum: 3648
>>>>>Begin Spectral Data<<<<<
178.204	15.7
178.424	15.7
178.644	15.7
178.864	-17.07
179.084	-29.35
179.304	-55.98
179.524	-8.87
179.744	27.99
179.964	17.75
180.184	-0.68
180.404	64.85
180.624	-23.21
180.844	-2.73
181.064	9.56
181.283	-8.87
181.503	-6.83
181.723	-12.97
181.943	-51.88
182.163	77.14
182.383	-43.69
182.602	13.65
182.822	-33.45
183.042	-29.35
183.262	-62.12
183.482	17.75
183.701	-23.21
183.921	19.8
184.141	42.32
184.361	17.75
184.58	62.8
184.8	-21.16
185.02	-37.55
185.239	-19.11
185.459	19.8
185.679	-4.78
185.898	-23.21
186.118	-6.83
186.338	-8.87
186.557	1.37
186.777	50.52
186.997	-25.26
187.216	25.94
187.436	40.28
187.655	-6.83
187.875	21.85
188.095	7.51
188.314	-0.68
188.534	-0.68
188.753	13.65
188.973	-6.83
189.192	1.37
189.412	-17.07
189.631	-27.31
189.851	30.04
190.07	-6.83
190.29	-62.12
190.509	91.48
190.729	1.37
190.948	-43.69
191.168	42.32
191.387	-17.07
191.607	66.9
191.826	-21.16
192.045	9.56
192.265	-15.02
192.484	52.56
192.704	-37.55
192.923	-0.68
193.142	62.8
193.362	-27.31
193.581	-12.97
193.8	-82.6
194.02	3.41
194.239	-15.02
194.458	-15.02
194.678	87.38
194.897	1.37
195.116	42.32
195.335	-60.07
195.555	17.75
195.774	-25.26
195.993	-19.11
196.212	-53.93
196.432	-35.5
196.651	9.56
196.87	25.94
197.089	50.52
197.308	-2.73
197.528	40.28
197.747	3.41
197.966	27.99
198.185	7.51
198.404	-29.35
198.623	-43.69
198.842	50.52
199.062	50.52
199.281	52.56
199.5	32.08
199.719	30.04
199.938	50.52
200.157	30.04
200.376	-10.92
200.595	-21.16
200.814	25.94
201.033	-19.11
201.252	15.7
201.471	-53.93
201.69	40.28
201.909	-25.26
202.128	-15.02
202.347	-27.31
202.566	19.8
202.785	3.41
203.004	-27.31
203.223	60.76
203.442	19.8
203.661	5.46
203.879	-23.21
204.098	-41.64
204.317	44.37
204.536	7.51
204.755	19.8
204.974	3.41
205.193	-2.73
205.411	17.75
205.63	-6.83
205.849	25.94
206.068	-70.31
206.287	95.57
206.505	9.56
206.724	46.42
206.943	1.37
207.162	42.32
207.381	34.13
207.599	-45.74
207.818	3.41
208.037	13.65
208.255	-19.11
208.474	58.71
208.693	-37.55
208.911	-19.11
209.13	-6.83
209.349	-88.75
209.567	15.7
209.786	34.13
210.005	7.51
210.223	34.13
210.442	-70.31
210.661	3.41
210.879	-74.41
211.098	52.56
211.316	-23.21
211.535	-27.31
211.753	-6.83
211.972	-10.92
212.191	15.7
212.409	79.19
212.628	27.99
212.846	60.76
213.065	5.46
213.283	25.94
213.502	-62.12
213.72	64.85
213.938	-49.83
214.157	-0.68
214.375	3.41
214.594	3.41
214.812	-10.92
215.031	-15.02
215.249	-15.02
215.467	-12.97
215.686	-78.51
215.904	54.61
216.122	-45.74
216.341	42.32
216.559	-72.36
216.778	-29.35
216.996	-21.16
217.214	7.51
217.432	21.85
217.651	-12.97
217.869	-55.98
218.087	17.75
218.306	-12.97
218.524	50.52
218.742	58.71
218.96	13.65
219.179	-25.26
219.397	13.65
219.615	-4.78
219.833	-12.97
220.051	11.61
220.27	34.13
220.488	-8.87
220.706	44.37
220.924	-12.97
221.142	13.65
221.36	-31.4
221.578	11.61
221.796	44.37
222.015	-29.35
222.233	-29.35
222.451	46.42
222.669	27.99
222.887	3.41
223.105	-98.99
223.323	32.08
223.541	-35.5
223.759	54.61
223.977	7.51
224.195	75.09
224.413	44.37
224.631	-55.98
224.849	1.37
225.067	52.56
225.285	-37.55
225.503	42.32
225.721	-23.21
225.939	30.04
226.157	-35.5
226.375	79.19
226.592	99.67
226.81	-4.78
227.028	-45.74
227.246	-19.11
227.464	30.04
227.682	30.04
227.9	17.75
228.117	71
228.335	-23.21
228.553	34.13
228.771	-31.4
228.989	9.56
229.206	-37.55
229.424	32.08
229.642	-15.02
229.86	17.75
230.077	25.94
230.295	-35.5
230.513	30.04
230.731	52.56
230.948	-62.12
231.166	15.7
231.384	-43.69
231.601	-47.79
231.819	-0.68
232.037	30.04
232.254	-64.17
232.472	58.71
232.689	-17.07
232.907	30.04
233.125	-12.97
233.342	38.23
233.56	71
233.777	-31.4
233.995	46.42
234.213	34.13
234.43	11.61
234.648	27.99
234.865	-15.02
235.083	-15.02
235.3	-0.68
235.518	23.89
235.735	30.04
235.953	-58.03
236.17	-19.11
236.388	-29.35
236.605	48.47
236.822	13.65
237.04	-15.02
237.257	-6.83
237.475	-43.69
237.692	-6.83
237.909	1.37
238.127	17.75
238.344	56.66
238.562	30.04
238.779	11.61
238.996	5.46
239.214	-29.35
239.431	9.56
239.648	-8.87
239.865	11.61
240.083	50.52
240.3	-6.83
240.517	40.28
240.735	81.24
240.952	17.75
241.169	38.23
241.386	52.56
241.603	9.56
241.821	38.23
242.038	36.18
242.255	-21.16
242.472	23.89
242.689	30.04
242.907	30.04
243.124	-49.83
243.341	-35.5
243.558	48.47
243.775	9.56
243.992	-27.31
244.209	5.46
244.426	-8.87
244.643	40.28
244.86	13.65
245.078	66.9
245.295	21.85
245.512	-84.65
245.729	85.33
245.946	36.18
246.163	9.56
246.38	38.23
246.597	-27.31
246.814	15.7
247.031	21.85
247.248	44.37
247.464	44.37
247.681	11.61
247.898	-6.83
248.115	23.89
248.332	-49.83
248.549	40.28
248.766	93.52
248.983	54.61
249.2	38.23
249.417	54.61
249.633	9.56
249.85	-39.59
250.067	-55.98
250.284	13.65
250.501	44.37
250.717	-29.35
250.934	-15.02
251.151	7.51
251.368	-31.4
251.585	-2.73
251.801	-51.88
252.018	-31.4
252.235	-53.93
252.451	71
252.668	21.85
252.885	17.75
253.102	15.7
253.318	-23.21
253.535	-82.6
253.752	36.18
253.968	46.42
254.185	-0.68
254.401	-0.68
254.618	-6.83
254.835	-37.55
255.051	79.19
255.268	17.75
255.484	11.61
255.701	-66.22
255.917	13.65
256.134	1.37
256.351	-6.83
256.567	-15.02
256.784	-64.17
257	36.18
257.217	-23.21
257.433	64.85
257.65	91.48
257.866	23.89
258.082	-37.55
258.299	-15.02
258.515	109.91
258.732	32.08
258.948	-19.11
259.165	-35.5
259.381	-98.99
259.597	-6.83
259.814	1.37
260.03	-58.03
260.246	-25.26
260.463	-45.74
260.679	-15.02
260.895	-10.92
261.112	17.75
261.328	-51.88
261.544	-55.98
261.761	44.37
261.977	36.18
262.193	11.61
262.409	23.89
262.626	17.75
262.842	25.94
263.058	-0.68
263.274	17.75
263.49	58.71
263.707	38.23
263.923	-55.98
264.139	27.99
264.355	17.75
264.571	66.9
264.787	-21.16
265.004	-45.74
265.22	-10.92
265.436	68.95
265.652	1.37
265.868	-53.93
266.084	-4.78
266.3	44.37
266.516	73.04
266.732	-2.73
266.948	7.51
267.164	9.56
267.38	52.56
267.596	-23.21
267.812	36.18
268.028	25.94
268.244	52.56
268.46	21.85
268.676	25.94
268.892	30.04
269.108	17.75
269.324	56.66
269.54	-21.16
269.756	9.56
269.972	-58.03
270.188	62.8
270.403	-29.35
270.619	25.94
270.835	34.13
271.051	38.23
271.267	-21.16
271.483	-15.02
271.698	-80.55
271.914	19.8
272.13	-19.11
272.346	60.76
272.562	62.8
272.777	89.43
272.993	-2.73
273.209	-45.74
273.425	-39.59
273.64	-0.68
273.856	-15.02
274.072	34.13
274.287	5.46
274.503	11.61
274.719	42.32
274.934	-6.83
275.15	-33.45
275.366	-25.26
275.581	25.94
275.797	-2.73
276.012	85.33
276.228	27.99
276.444	-90.79
276.659	-2.73
276.875	15.7
277.09	30.04
277.306	-4.78
277.521	5.46
277.737	36.18
277.952	-25.26
278.168	-33.45
278.383	-35.5
278.599	-70.31
278.814	40.28
279.03	-2.73
279.245	19.8
279.461	9.56
279.676	89.43
279.892	3.41
280.107	17.75
280.322	-58.03
280.538	30.04
280.753	-37.55
280.969	-19.11
281.184	36.18
281.399	48.47
281.615	1.37
281.83	64.85
282.045	36.18
282.26	7.51
282.476	-2.73
282.691	83.28
282.906	1.37
283.122	1.37
283.337	-47.79
283.552	15.7
283.767	34.13
283.983	19.8
284.198	-41.64
284.413	40.28
284.628	34.13
284.843	48.47
285.058	-60.07
285.274	-92.84
285.489	62.8
285.704	40.28
285.919	1.37
286.134	19.8
286.349	7.51
286.564	-45.74
286.779	9.56
286.995	-10.92
287.21	-4.78
287.425	-6.83
287.64	-41.64
287.855	21.85
288.07	-17.07
288.285	97.62
288.5	34.13
288.715	11.61
288.93	32.08
289.145	5.46
289.36	-23.21
289.575	-21.16
289.79	7.51
290.004	-29.35
290.219	-23.21
290.434	21.85
290.649	-49.83
290.864	58.71
291.079	-8.87
291.294	23.89
291.509	-29.35
291.724	-0.68
291.938	-41.64
292.153	44.37
292.368	42.32
292.583	81.24
292.798	5.46
293.012	23.89
293.227	-66.22
293.442	13.65
293.657	46.42
293.871	-2.73
294.086	1.37
294.301	23.89
294.516	-31.4
294.73	-2.73
294.945	13.65
295.16	30.04
295.374	21.85
295.589	30.04
295.804	5.46
296.018	-10.92
296.233	101.72
296.447	13.65
296.662	46.42
296.877	68.95
297.091	7.51
297.306	-49.83
297.52	66.9
297.735	15.7
297.949	3.41
298.164	3.41
298.378	21.85
298.593	-43.69
298.807	17.75
299.022	-10.92
299.236	38.23
299.451	64.85
299.665	-27.31
299.88	-49.83
300.094	9.56
300.309	34.13
300.523	-0.68
300.737	68.95
300.952	38.23
301.166	17.75
301.381	19.8
301.595	21.85
301.809	-10.92
302.024	25.94
302.238	44.37
302.452	9.56
302.667	-23.21
302.881	-17.07
303.095	13.65
303.309	34.13
303.524	-29.35
303.738	1.37
303.952	-0.68
304.166	25.94
304.381	27.99
304.595	52.56
304.809	-2.73
305.023	-17.07
305.237	-51.88
305.452	46.42
305.666	-47.79
305.88	11.61
306.094	1.37
306.308	-39.59
306.522	15.7
306.736	11.61
306.95	-2.73
307.164	32.08
307.379	30.04
307.593	9.56
307.807	40.28
308.021	25.94
308.235	56.66
308.449	-10.92
308.663	21.85
308.877	23.89
309.091	-37.55
309.305	50.52
309.519	-19.11
309.733	56.66
309.947	-31.4
310.161	44.37
310.374	-19.11
310.588	71
310.802	64.85
311.016	34.13
311.23	44.37
311.444	-15.02
311.658	-49.83
311.872	-29.35
312.085	-27.31
312.299	77.14
312.513	7.51
312.727	-33.45
312.941	-27.31
313.154	-0.68
313.368	9.56
313.582	7.51
313.796	-35.5
314.009	52.56
314.223	-19.11
314.437	-0.68
314.651	25.94
314.864	-31.4
315.078	-0.68
315.292	3.41
315.505	50.52
315.719	-70.31
315.933	-15.02
316.146	9.56
316.36	34.13
316.573	17.75
316.787	-31.4
317.001	58.71
317.214	-19.11
317.428	52.56
317.641	-55.98
317.855	-62.12
318.068	-4.78
318.282	77.14
318.495	48.47
318.709	21.85
318.922	23.89
319.136	25.94
319.349	1.37
319.563	56.66
319.776	-2.73
319.99	-35.5
320.203	-27.31
320.417	-0.68
320.63	5.46
320.843	103.76
321.057	-6.83
321.27	-0.68
321.483	-0.68
321.697	7.51
321.91	50.52
322.124	-15.02
322.337	-23.21
322.55	34.13
322.763	118.1
322.977	21.85
323.19	19.8
323.403	54.61
323.617	3.41
323.83	21.85
324.043	-6.83
324.256	5.46
324.469	36.18
324.683	46.42
324.896	30.04
325.109	-0.68
325.322	-17.07
325.535	54.61
325.748	21.85
325.962	-19.11
326.175	48.47
326.388	99.67
326.601	38.23
326.814	77.14
327.027	60.76
327.24	38.23
327.453	-8.87
327.666	48.47
327.879	13.65
328.092	-29.35
328.305	-15.02
328.518	5.46
328.731	32.08
328.944	32.08
329.157	-2.73
329.37	19.8
329.583	38.23
329.796	-2.73
330.009	52.56
330.222	44.37
330.435	13.65
330.648	13.65
330.861	75.09
331.073	19.8
331.286	52.56
331.499	13.65
331.712	-6.83
331.925	68.95
332.138	-49.83
332.35	5.46
332.563	-76.46
332.776	30.04
332.989	13.65
333.202	-4.78
333.414	-0.68
333.627	56.66
333.84	-17.07
334.053	-8.87
334.265	73.04
334.478	30.04
334.691	23.89
334.903	11.61
335.116	23.89
335.329	32.08
335.541	19.8
335.754	13.65
335.966	-12.97
336.179	38.23
336.392	-31.4
336.604	44.37
336.817	-4.78
337.029	-33.45
337.242	-68.27
337.454	-10.92
337.667	23.89
337.88	71
338.092	1.37
338.305	120.15
338.517	-76.46
338.729	95.57
338.942	9.56
339.154	36.18
339.367	1.37
339.579	-6.83
339.792	58.71
340.004	46.42
340.217	71
340.429	7.51
340.641	46.42
340.854	15.7
341.066	-15.02
341.278	91.48
341.491	34.13
341.703	13.65
341.915	-45.74
342.128	38.23
342.34	-6.83
342.552	32.08
342.764	-12.97
342.977	-17.07
343.189	-43.69
343.401	34.13
343.613	-43.69
343.826	-25.26
344.038	40.28
344.25	-15.02
344.462	-0.68
344.674	-35.5
344.886	-12.97
345.099	-29.35
345.311	-23.21
345.523	-6.83
345.735	23.89
345.947	-6.83
346.159	-33.45
346.371	52.56
346.583	38.23
346.795	99.67
347.007	32.08
347.219	30.04
347.431	9.56
347.643	73.04
347.855	-12.97
348.067	32.08
348.279	54.61
348.491	-25.26
348.703	-8.87
348.915	7.51
349.127	-37.55
349.339	56.66
349.551	-43.69
349.763	71
349.975	64.85
350.187	34.13
350.399	54.61
350.61	-101.03
350.822	-4.78
351.034	68.95
351.246	40.28
351.458	-27.31
351.669	9.56
351.881	-0.68
352.093	36.18
352.305	-4.78
352.517	27.99
352.728	19.8
352.94	50.52
353.152	-23.21
353.363	-39.59
353.575	-17.07
353.787	-66.22
353.999	13.65
354.21	32.08
354.422	66.9
354.633	-31.4
354.845	-8.87
355.057	-45.74
355.268	15.7
355.48	38.23
355.692	27.99
355.903	-23.21
356.115	-8.87
356.326	5.46
356.538	27.99
356.749	23.89
356.961	46.42
357.172	-27.31
357.384	66.9
357.595	-21.16
357.807	77.14
358.018	-12.97
358.23	81.24
358.441	38.23
358.653	34.13
358.864	93.52
359.075	-10.92
359.287	32.08
359.498	-15.02
359.709	11.61
359.921	36.18
360.132	40.28
360.344	56.66
360.555	-17.07
360.766	21.85
360.977	64.85
361.189	124.24
361.4	-2.73
361.611	30.04
361.823	91.48
362.034	23.89
362.245	32.08
362.456	30.04
362.667	30.04
362.879	-8.87
363.09	5.46
363.301	-10.92
363.512	52.56
363.723	3.41
363.935	-27.31
364.146	-35.5
364.357	36.18
364.568	-15.02
364.779	7.51
364.99	13.65
365.201	5.46
365.412	1.37
365.623	7.51
365.834	58.71
366.045	40.28
366.256	27.99
366.467	13.65
366.678	-64.17
366.889	15.7
367.1	30.04
367.311	5.46
367.522	52.56
367.733	81.24
367.944	46.42
368.155	-10.92
368.366	34.13
368.577	46.42
368.788	52.56
368.999	1.37
369.209	-49.83
369.42	99.67
369.631	44.37
369.842	19.8
370.053	17.75
370.264	75.09
370.474	32.08
370.685	-72.36
370.896	34.13
371.107	23.89
371.317	-33.45
371.528	21.85
371.739	-0.68
371.95	-4.78
372.16	23.89
372.371	42.32
372.582	7.51
372.792	-60.07
373.003	64.85
373.214	-37.55
373.424	-45.74
373.635	7.51
373.846	44.37
374.056	48.47
374.267	40.28
374.477	50.52
374.688	44.37
374.898	36.18
375.109	58.71
375.319	54.61
375.53	42.32
375.74	11.61
375.951	30.04
376.161	7.51
376.372	13.65
376.582	-0.68
376.793	50.52
377.003	44.37
377.214	25.94
377.424	25.94
377.635	5.46
377.845	46.42
378.055	-15.02
378.266	36.18
378.476	-12.97
378.686	97.62
378.897	44.37
379.107	27.99
379.317	83.28
379.528	15.7
379.738	9.56
379.948	40.28
380.158	46.42
380.369	13.65
380.579	120.15
380.789	-6.83
380.999	-2.73
381.21	30.04
381.42	38.23
381.63	-10.92
381.84	23.89
382.05	27.99
382.261	-60.07
382.471	71
382.681	-0.68
382.891	52.56
383.101	68.95
383.311	-41.64
383.521	71
383.731	7.51
383.941	11.61
384.151	-37.55
384.361	48.47
384.571	-0.68
384.781	-4.78
384.991	89.43
385.201	54.61
385.411	13.65
385.621	44.37
385.831	21.85
386.041	25.94
386.251	40.28
386.461	-19.11
386.671	-15.02
386.881	-21.16
387.091	23.89
387.301	32.08
387.511	64.85
387.72	64.85
387.93	-2.73
388.14	11.61
388.35	42.32
388.56	58.71
388.769	40.28
388.979	38.23
389.189	-45.74
389.399	3.41
389.609	46.42
389.818	52.56
390.028	15.7
390.238	7.51
390.447	21.85
390.657	85.33
390.867	-17.07
391.076	89.43
391.286	-25.26
391.496	23.89
391.705	32.08
391.915	71
392.125	-10.92
392.334	27.99
392.544	56.66
392.753	30.04
392.963	-2.73
393.172	-17.07
393.382	23.89
393.591	46.42
393.801	1.37
394.01	97.62
394.22	73.04
394.429	36.18
394.639	-2.73
394.848	-19.11
395.058	52.56
395.267	23.89
395.477	109.91
395.686	40.28
395.895	7.51
396.105	66.9
396.314	30.04
396.524	40.28
396.733	3.41
396.942	48.47
397.152	11.61
397.361	17.75
397.57	32.08
397.78	-25.26
397.989	54.61
398.198	44.37
398.407	56.66
398.617	34.13
398.826	50.52
399.035	5.46
399.244	11.61
399.453	107.86
399.663	52.56
399.872	56.66
400.081	62.8
400.29	71
400.499	17.75
400.708	36.18
400.917	71
401.127	-23.21
401.336	-0.68
401.545	109.91
401.754	19.8
401.963	50.52
402.172	54.61
402.381	36.18
402.59	40.28
402.799	-19.11
403.008	58.71
403.217	93.52
403.426	38.23
403.635	-19.11
403.844	50.52
404.053	56.66
404.262	81.24
404.471	95.57
404.68	68.95
404.888	122.2
405.097	97.62
405.306	-6.83
405.515	134.48
405.724	103.76
405.933	71
406.142	66.9
406.35	142.68
406.559	136.53
406.768	83.28
406.977	50.52
407.185	81.24
407.394	193.87
407.603	48.47
407.812	142.68
408.02	197.97
408.229	144.72
408.438	89.43
408.646	95.57
408.855	54.61
409.064	87.38
409.272	163.15
409.481	138.58
409.69	175.44
409.898	220.5
410.107	165.2
410.315	142.68
410.524	167.25
410.733	208.21
410.941	91.48
411.15	187.73
411.358	320.85
411.567	171.35
411.775	220.5
411.984	159.06
412.192	236.88
412.401	263.51
412.609	243.03
412.818	228.69
413.026	306.51
413.234	238.93
413.443	302.42
413.651	294.22
413.86	281.94
414.068	388.43
414.276	363.86
414.485	392.53
414.693	329.04
414.901	367.95
415.11	339.28
415.318	453.97
415.526	408.91
415.734	359.76
415.943	478.54
416.151	466.25
416.359	439.63
416.567	413.01
416.776	539.98
416.984	525.65
417.192	517.45
417.4	517.45
417.608	488.78
417.817	570.7
418.025	654.67
418.233	683.34
418.441	689.48
418.649	607.56
418.857	720.2
419.065	785.74
419.273	787.79
419.481	795.98
419.689	748.87
419.897	832.84
420.105	898.38
420.313	953.67
420.521	900.42
420.729	859.46
420.937	970.05
421.145	1062.21
421.353	1133.89
421.561	1137.99
421.769	1164.61
421.977	1254.72
422.185	1224
422.393	1287.49
422.601	1271.11
422.809	1262.91
423.017	1236.29
423.224	1297.73
423.432	1383.74
423.64	1471.81
423.848	1553.73
424.056	1484.09
424.263	1514.81
424.471	1512.77
424.679	1664.32
424.887	1756.47
425.094	1692.99
425.302	1793.34
425.51	1854.78
425.718	1889.59
425.925	1953.08
426.133	2022.71
426.341	2149.68
426.548	2168.12
426.756	2184.5
426.964	2135.35
427.171	2411.82
427.379	2358.58
427.586	2465.07
427.794	2485.55
428.001	2637.1
428.209	2708.78
428.417	2745.64
428.624	2905.39
428.832	2792.75
429.039	2868.52
429.247	2913.58
429.454	3290.4
429.662	3374.37
429.869	3198.24
430.076	3384.61
430.284	3265.83
430.491	3499.3
430.699	3595.55
430.906	3603.74
431.114	3779.87
431.321	3667.23
431.528	4044.06
431.736	4097.3
431.943	4252.95
432.15	4177.17
432.358	4240.66
432.565	4521.23
432.772	4650.25
432.979	4803.85
433.187	4805.9
433.394	4828.43
433.601	5041.42
433.808	5158.15
434.016	5088.52
434.223	5311.75
434.43	5559.55
434.637	5594.37
434.844	5813.5
435.052	6096.12
435.259	5909.76
435.466	6030.59
435.673	6087.93
435.88	6331.64
436.087	6548.72
436.294	6788.33
436.501	6651.12
436.708	6532.34
436.915	6995.18
437.122	7261.41
437.329	7212.26
437.537	7580.9
437.743	7496.93
437.95	7308.52
438.157	7593.19
438.364	7916.76
438.571	8189.14
438.778	8084.7
438.985	8955.08
439.192	8578.26
439.399	9018.57
439.606	8719.57
439.813	9114.83
440.02	9909.44
440.227	9393.35
440.433	9407.69
440.64	9798.85
440.847	9735.36
441.054	9858.24
441.261	10493.11
441.467	10581.17
441.674	10648.75
441.881	11019.44
442.088	11054.25
442.294	10775.73
442.501	11244.71
442.708	11443.37
442.914	12098.72
443.121	12565.65
443.328	11963.55
443.534	12989.58
443.741	12506.26
443.948	12299.42
444.154	13294.73
444.361	13190.28
444.568	13374.6
444.774	13446.28
444.981	13642.89
445.187	13773.96
445.394	14523.51
445.6	14359.67
445.807	15670.37
446.013	15072.37
446.22	15215.73
446.426	15727.72
446.633	16026.72
446.839	16548.95
447.046	15742.05
447.252	16720.98
447.459	16534.62
447.665	16768.09
447.871	17433.68
448.078	18164.8
448.284	17196.11
448.491	17914.95
448.697	18263.1
448.903	18834.49
449.11	18525.24
449.316	18529.34
449.522	18752.57
449.728	19420.21
449.935	19481.64
450.141	19559.47
450.347	19682.35
450.553	19287.09
450.76	19350.57
450.966	19905.57
451.172	19735.59
451.378	20290.59
451.584	19835.94
451.791	20368.41
451.997	20415.52
452.203	20907.03
452.409	20804.63
452.615	20691.99
452.821	19975.2
453.027	19553.32
453.233	20595.74
453.44	19682.35
453.646	19921.96
453.852	19948.58
454.058	20530.2
454.264	19747.88
454.47	20245.54
454.676	19635.24
454.882	20380.7
455.088	18639.93
455.294	18814.01
455.5	19020.85
455.705	19276.85
455.911	18410.56
456.117	18150.46
456.323	17933.38
456.529	16987.22
456.735	17822.79
456.941	16983.12
457.147	17144.91
457.352	16350.3
457.558	15977.57
457.764	16112.74
457.97	15881.31
458.176	15416.43
458.381	15602.79
458.587	14664.82
458.793	14802.04
458.999	14044.29
459.204	14982.26
459.41	14351.48
459.616	13577.35
459.821	13909.12
460.027	13831.3
460.233	13270.15
460.438	12637.33
460.644	12774.55
460.85	12213.4
461.055	11861.15
461.261	12092.57
461.466	11199.66
461.672	10853.55
461.878	11869.34
462.083	10839.22
462.289	10878.13
462.494	10423.48
462.7	9929.92
462.905	9872.57
463.111	9977.02
463.316	10343.61
463.522	9880.77
463.727	9929.92
463.932	9888.96
464.138	9911.49
464.343	9893.05
464.549	9553.09
464.754	9962.69
464.959	9946.3
465.165	9690.31
465.37	9290.95
465.575	9186.51
465.781	9592
465.986	9612.48
466.191	9147.59
466.397	9034.96
466.602	8447.19
466.807	8895.69
467.012	9198.79
467.218	8889.55
467.423	8684.75
467.628	8950.99
467.833	8879.31
468.038	8457.43
468.244	8539.35
