Data from USB4F104151__30__13-52-45-162.txt Node

Date: Thu Mar 13 13:52:45 EDT 2025
User: louis
Spectrometer: USB4F10415
Trigger mode: 4
Integration Time (sec): 1.000000E-2
Scans to average: 1
Electric dark correction enabled: true
Nonlinearity correction enabled: false
Boxcar width: 0
XAxis mode: Wavelengths
Number of Pixels in Spectrum: 3648
>>>>>Begin Spectral Data<<<<<
178.204	-10.58
178.424	-10.58
178.644	-10.58
178.864	-49.49
179.084	-2.39
179.304	5.8
179.524	-51.54
179.744	-8.53
179.964	20.14
180.184	-59.73
180.404	-35.16
180.624	11.95
180.844	-12.63
181.064	42.67
181.283	50.86
181.503	-8.53
181.723	44.71
181.943	9.9
182.163	59.05
182.383	5.8
182.602	63.15
182.822	48.81
183.042	73.39
183.262	32.43
183.482	97.96
183.701	89.77
183.921	65.19
184.141	11.95
184.361	52.91
184.58	18.09
184.8	32.43
185.02	18.09
185.239	93.87
185.459	-0.34
185.679	59.05
185.898	20.14
186.118	61.1
186.338	30.38
186.557	24.23
186.777	5.8
186.997	36.52
187.216	-12.63
187.436	42.67
187.655	34.47
187.875	52.91
188.095	11.95
188.314	116.39
188.534	69.29
188.753	-26.96
188.973	20.14
189.192	52.91
189.412	77.48
189.631	118.44
189.851	1.71
190.07	93.87
190.29	-2.39
190.509	81.58
190.729	9.9
190.948	93.87
191.168	102.06
191.387	32.43
191.607	40.62
191.826	52.91
192.045	30.38
192.265	32.43
192.484	46.76
192.704	57
192.923	-16.73
193.142	73.39
193.362	16.04
193.581	106.15
193.8	102.06
194.02	36.52
194.239	28.33
194.458	79.53
194.678	50.86
194.897	77.48
195.116	75.43
195.335	9.9
195.555	95.91
195.774	65.19
195.993	-0.34
196.212	40.62
196.432	108.2
196.651	61.1
196.87	-26.96
197.089	108.2
197.308	65.19
197.528	9.9
197.747	-4.44
197.966	-0.34
198.185	118.44
198.404	95.91
198.623	30.38
198.842	61.1
199.062	50.86
199.281	54.95
199.5	16.04
199.719	30.38
199.938	26.28
200.157	81.58
200.376	-10.58
200.595	5.8
200.814	48.81
201.033	83.63
201.252	40.62
201.471	44.71
201.69	30.38
201.909	-6.49
202.128	116.39
202.347	46.76
202.566	63.15
202.785	120.49
203.004	106.15
203.223	57
203.442	16.04
203.661	122.54
203.879	79.53
204.098	110.25
204.317	18.09
204.536	24.23
204.755	54.95
204.974	134.82
205.193	102.06
205.411	40.62
205.63	54.95
205.849	-4.44
206.068	16.04
206.287	100.01
206.505	106.15
206.724	30.38
206.943	1.71
207.162	36.52
207.381	128.68
207.599	73.39
207.818	73.39
208.037	1.71
208.255	48.81
208.474	75.43
208.693	-20.82
208.911	16.04
209.13	18.09
209.349	46.76
209.567	102.06
209.786	34.47
210.005	52.91
210.223	42.67
210.442	11.95
210.661	36.52
210.879	38.57
211.098	32.43
211.316	26.28
211.535	34.47
211.753	65.19
211.972	87.72
212.191	89.77
212.409	69.29
212.628	79.53
212.846	46.76
213.065	42.67
213.283	110.25
213.502	110.25
213.72	106.15
213.938	63.15
214.157	61.1
214.375	-4.44
214.594	73.39
214.812	132.78
215.031	3.75
215.249	38.57
215.467	50.86
215.686	63.15
215.904	73.39
216.122	87.72
216.341	26.28
216.559	91.82
216.778	63.15
216.996	87.72
217.214	65.19
217.432	87.72
217.651	-43.35
217.869	65.19
218.087	16.04
218.306	18.09
218.524	16.04
218.742	81.58
218.96	67.24
219.179	-31.06
219.397	65.19
219.615	83.63
219.833	63.15
220.051	11.95
220.27	34.47
220.488	24.23
220.706	57
220.924	30.38
221.142	50.86
221.36	32.43
221.578	36.52
221.796	108.2
222.015	44.71
222.233	-12.63
222.451	22.19
222.669	26.28
222.887	20.14
223.105	79.53
223.323	42.67
223.541	52.91
223.759	46.76
223.977	38.57
224.195	69.29
224.413	44.71
224.631	85.67
224.849	89.77
225.067	40.62
225.285	30.38
225.503	63.15
225.721	44.71
225.939	24.23
226.157	5.8
226.375	59.05
226.592	40.62
226.81	50.86
227.028	54.95
227.246	81.58
227.464	46.76
227.682	22.19
227.9	54.95
228.117	9.9
228.335	79.53
228.553	34.47
228.771	63.15
228.989	59.05
229.206	16.04
229.424	22.19
229.642	42.67
229.86	114.34
230.077	26.28
230.295	89.77
230.513	77.48
230.731	26.28
230.948	71.34
231.166	63.15
231.384	132.78
231.601	104.11
231.819	77.48
232.037	95.91
232.254	24.23
232.472	11.95
232.689	1.71
232.907	30.38
233.125	-12.63
233.342	63.15
233.56	16.04
233.777	5.8
233.995	22.19
234.213	63.15
234.43	28.33
234.648	57
234.865	57
235.083	-33.11
235.3	9.9
235.518	75.43
235.735	18.09
235.953	52.91
236.17	87.72
236.388	-4.44
236.605	40.62
236.822	11.95
237.04	77.48
237.257	30.38
237.475	18.09
237.692	73.39
237.909	69.29
238.127	-20.82
238.344	63.15
238.562	59.05
238.779	36.52
238.996	36.52
239.214	102.06
239.431	100.01
239.648	104.11
239.865	-20.82
240.083	5.8
240.3	114.34
240.517	136.87
240.735	130.73
240.952	89.77
241.169	89.77
241.386	75.43
241.603	-6.49
241.821	48.81
242.038	28.33
242.255	122.54
242.472	57
242.689	18.09
242.907	126.63
243.124	30.38
243.341	46.76
243.558	50.86
243.775	65.19
243.992	48.81
244.209	28.33
244.426	126.63
244.643	50.86
244.86	114.34
245.078	59.05
245.295	11.95
245.512	77.48
245.729	38.57
245.946	128.68
246.163	128.68
246.38	54.95
246.597	38.57
246.814	134.82
247.031	83.63
247.248	85.67
247.464	44.71
247.681	75.43
247.898	77.48
248.115	75.43
248.332	32.43
248.549	71.34
248.766	106.15
248.983	106.15
249.2	36.52
249.417	73.39
249.633	46.76
249.85	69.29
250.067	77.48
250.284	32.43
250.501	13.99
250.717	65.19
250.934	71.34
251.151	102.06
251.368	69.29
251.585	83.63
251.801	42.67
252.018	-6.49
252.235	24.23
252.451	-16.73
252.668	85.67
252.885	108.2
253.102	-41.3
253.318	54.95
253.535	93.87
253.752	18.09
253.968	11.95
254.185	73.39
254.401	91.82
254.618	71.34
254.835	36.52
255.051	102.06
255.268	57
255.484	81.58
255.701	65.19
255.917	28.33
256.134	9.9
256.351	-67.92
256.567	59.05
256.784	5.8
257	65.19
257.217	75.43
257.433	38.57
257.65	38.57
257.866	30.38
258.082	26.28
258.299	34.47
258.515	22.19
258.732	13.99
258.948	34.47
259.165	63.15
259.381	20.14
259.597	100.01
259.814	46.76
260.03	42.67
260.246	145.06
260.463	63.15
260.679	63.15
260.895	-31.06
261.112	13.99
261.328	63.15
261.544	57
261.761	65.19
261.977	-2.39
262.193	77.48
262.409	81.58
262.626	57
262.842	5.8
263.058	-37.2
263.274	106.15
263.49	13.99
263.707	57
263.923	-0.34
264.139	32.43
264.355	106.15
264.571	61.1
264.787	30.38
265.004	36.52
265.22	81.58
265.436	75.43
265.652	59.05
265.868	65.19
266.084	59.05
266.3	30.38
266.516	18.09
266.732	52.91
266.948	32.43
267.164	95.91
267.38	122.54
267.596	3.75
267.812	32.43
268.028	50.86
268.244	67.24
268.46	89.77
268.676	46.76
268.892	116.39
269.108	67.24
269.324	36.52
269.54	67.24
269.756	95.91
269.972	24.23
270.188	104.11
270.403	73.39
270.619	18.09
270.835	22.19
271.051	104.11
271.267	54.95
271.483	110.25
271.698	67.24
271.914	69.29
272.13	26.28
272.346	57
272.562	106.15
272.777	-8.53
272.993	40.62
273.209	52.91
273.425	40.62
273.64	77.48
273.856	54.95
274.072	26.28
274.287	89.77
274.503	40.62
274.719	83.63
274.934	48.81
275.15	-2.39
275.366	63.15
275.581	16.04
275.797	36.52
276.012	48.81
276.228	59.05
276.444	81.58
276.659	34.47
276.875	54.95
277.09	102.06
277.306	30.38
277.521	120.49
277.737	20.14
277.952	136.87
278.168	34.47
278.383	28.33
278.599	20.14
278.814	26.28
279.03	20.14
279.245	42.67
279.461	13.99
279.676	50.86
279.892	-2.39
280.107	11.95
280.322	24.23
280.538	59.05
280.753	67.24
280.969	40.62
281.184	136.87
281.399	69.29
281.615	-53.59
281.83	54.95
282.045	77.48
282.26	61.1
282.476	95.91
282.691	100.01
282.906	11.95
283.122	30.38
283.337	77.48
283.552	87.72
283.767	-33.11
283.983	9.9
284.198	-39.25
284.413	34.47
284.628	85.67
284.843	-2.39
285.058	67.24
285.274	13.99
285.489	57
285.704	54.95
285.919	83.63
286.134	102.06
286.349	57
286.564	65.19
286.779	63.15
286.995	110.25
287.21	69.29
287.425	108.2
287.64	20.14
287.855	3.75
288.07	22.19
288.285	75.43
288.5	67.24
288.715	24.23
288.93	57
289.145	42.67
289.36	61.1
289.575	110.25
289.79	46.76
290.004	44.71
290.219	118.44
290.434	89.77
290.649	16.04
290.864	73.39
291.079	93.87
291.294	108.2
291.509	36.52
291.724	52.91
291.938	79.53
292.153	71.34
292.368	28.33
292.583	32.43
292.798	59.05
293.012	85.67
293.227	71.34
293.442	22.19
293.657	122.54
293.871	-0.34
294.086	40.62
294.301	57
294.516	71.34
294.73	16.04
294.945	38.57
295.16	108.2
295.374	89.77
295.589	34.47
295.804	5.8
296.018	50.86
296.233	163.5
296.447	77.48
296.662	83.63
296.877	16.04
297.091	57
297.306	104.11
297.52	52.91
297.735	30.38
297.949	73.39
298.164	67.24
298.378	63.15
298.593	73.39
298.807	61.1
299.022	106.15
299.236	13.99
299.451	63.15
299.665	54.95
299.88	81.58
300.094	77.48
300.309	79.53
300.523	-12.63
300.737	91.82
300.952	34.47
301.166	71.34
301.381	26.28
301.595	81.58
301.809	57
302.024	93.87
302.238	22.19
302.452	116.39
302.667	81.58
302.881	36.52
303.095	40.62
303.309	57
303.524	13.99
303.738	110.25
303.952	32.43
304.166	104.11
304.381	-2.39
304.595	52.91
304.809	32.43
305.023	75.43
305.237	24.23
305.452	71.34
305.666	50.86
305.88	102.06
306.094	-20.82
306.308	26.28
306.522	48.81
306.736	26.28
306.95	50.86
307.164	20.14
307.379	81.58
307.593	40.62
307.807	59.05
308.021	40.62
308.235	87.72
308.449	61.1
308.663	61.1
308.877	75.43
309.091	87.72
309.305	83.63
309.519	26.28
309.733	120.49
309.947	69.29
310.161	57
310.374	20.14
310.588	11.95
310.802	9.9
311.016	97.96
311.23	-4.44
311.444	130.73
311.658	57
311.872	73.39
312.085	28.33
312.299	67.24
312.513	120.49
312.727	85.67
312.941	81.58
313.154	18.09
313.368	-31.06
313.582	69.29
313.796	46.76
314.009	42.67
314.223	89.77
314.437	95.91
314.651	67.24
314.864	54.95
315.078	140.97
315.292	40.62
315.505	22.19
315.719	40.62
315.933	34.47
316.146	69.29
316.36	108.2
316.573	-4.44
316.787	50.86
317.001	38.57
317.214	-16.73
317.428	110.25
317.641	63.15
317.855	50.86
318.068	-16.73
318.282	48.81
318.495	24.23
318.709	69.29
318.922	89.77
319.136	97.96
319.349	112.3
319.563	16.04
319.776	67.24
319.99	5.8
320.203	3.75
320.417	-0.34
320.63	34.47
320.843	36.52
321.057	89.77
321.27	1.71
321.483	28.33
321.697	81.58
321.91	120.49
322.124	-24.92
322.337	112.3
322.55	11.95
322.763	42.67
322.977	89.77
323.19	128.68
323.403	52.91
323.617	20.14
323.83	3.75
324.043	75.43
324.256	63.15
324.469	18.09
324.683	77.48
324.896	30.38
325.109	-33.11
325.322	100.01
325.535	28.33
325.748	16.04
325.962	38.57
326.175	57
326.388	-57.68
326.601	75.43
326.814	93.87
327.027	34.47
327.24	116.39
327.453	-0.34
327.666	73.39
327.879	65.19
328.092	46.76
328.305	-12.63
328.518	85.67
328.731	40.62
328.944	44.71
329.157	13.99
329.37	34.47
329.583	61.1
329.796	63.15
330.009	7.85
330.222	95.91
330.435	34.47
330.648	24.23
330.861	-0.34
331.073	100.01
331.286	63.15
331.499	91.82
331.712	52.91
331.925	120.49
332.138	102.06
332.35	42.67
332.563	73.39
332.776	54.95
332.989	57
333.202	73.39
333.414	61.1
333.627	26.28
333.84	73.39
334.053	87.72
334.265	69.29
334.478	83.63
334.691	104.11
334.903	83.63
335.116	42.67
335.329	52.91
335.541	79.53
335.754	57
335.966	85.67
336.179	79.53
336.392	24.23
336.604	77.48
336.817	71.34
337.029	67.24
337.242	46.76
337.454	69.29
337.667	-37.2
337.88	81.58
338.092	20.14
338.305	77.48
338.517	44.71
338.729	54.95
338.942	122.54
339.154	91.82
339.367	50.86
339.579	-14.68
339.792	30.38
340.004	91.82
340.217	-24.92
340.429	104.11
340.641	36.52
340.854	-0.34
341.066	89.77
341.278	83.63
341.491	81.58
341.703	147.11
341.915	26.28
342.128	81.58
342.34	50.86
342.552	73.39
342.764	85.67
342.977	44.71
343.189	-8.53
343.401	28.33
343.613	42.67
343.826	104.11
344.038	73.39
344.25	85.67
344.462	30.38
344.674	128.68
344.886	48.81
345.099	83.63
345.311	3.75
345.523	50.86
345.735	42.67
345.947	67.24
346.159	67.24
346.371	-8.53
346.583	91.82
346.795	67.24
347.007	95.91
347.219	63.15
347.431	42.67
347.643	118.44
347.855	71.34
348.067	97.96
348.279	52.91
348.491	3.75
348.703	46.76
348.915	30.38
349.127	-12.63
349.339	54.95
349.551	46.76
349.763	93.87
349.975	46.76
350.187	126.63
350.399	50.86
350.61	71.34
350.822	122.54
351.034	57
351.246	38.57
351.458	97.96
351.669	110.25
351.881	118.44
352.093	32.43
352.305	136.87
352.517	34.47
352.728	93.87
352.94	40.62
353.152	20.14
353.363	93.87
353.575	91.82
353.787	102.06
353.999	128.68
354.21	83.63
354.422	130.73
354.633	89.77
354.845	85.67
355.057	22.19
355.268	48.81
355.48	9.9
355.692	71.34
355.903	67.24
356.115	77.48
356.326	65.19
356.538	67.24
356.749	50.86
356.961	106.15
357.172	114.34
357.384	104.11
357.595	116.39
357.807	48.81
358.018	85.67
358.23	26.28
358.441	143.02
358.653	145.06
358.864	65.19
359.075	106.15
359.287	110.25
359.498	67.24
359.709	120.49
359.921	57
360.132	20.14
360.344	46.76
360.555	67.24
360.766	73.39
360.977	-4.44
361.189	79.53
361.4	120.49
361.611	112.3
361.823	38.57
362.034	120.49
362.245	97.96
362.456	130.73
362.667	9.9
362.879	59.05
363.09	7.85
363.301	24.23
363.512	83.63
363.723	65.19
363.935	73.39
364.146	93.87
364.357	16.04
364.568	102.06
364.779	93.87
364.99	147.11
365.201	63.15
365.412	145.06
365.623	46.76
365.834	77.48
366.045	59.05
366.256	75.43
366.467	79.53
366.678	87.72
366.889	-16.73
367.1	59.05
367.311	106.15
367.522	138.92
367.733	46.76
367.944	95.91
368.155	71.34
368.366	36.52
368.577	71.34
368.788	32.43
368.999	67.24
369.209	32.43
369.42	112.3
369.631	93.87
369.842	61.1
370.053	93.87
370.264	102.06
370.474	89.77
370.685	104.11
370.896	106.15
371.107	77.48
371.317	36.52
371.528	26.28
371.739	20.14
371.95	120.49
372.16	63.15
372.371	63.15
372.582	71.34
372.792	-0.34
373.003	26.28
373.214	85.67
373.424	77.48
373.635	57
373.846	155.3
374.056	-4.44
374.267	81.58
374.477	91.82
374.688	75.43
374.898	87.72
375.109	40.62
375.319	50.86
375.53	124.58
375.74	145.06
375.951	57
376.161	38.57
376.372	26.28
376.582	32.43
376.793	122.54
377.003	97.96
377.214	79.53
377.424	95.91
377.635	128.68
377.845	122.54
378.055	102.06
378.266	63.15
378.476	104.11
378.686	106.15
378.897	140.97
379.107	83.63
379.317	85.67
379.528	44.71
379.738	87.72
379.948	120.49
380.158	67.24
380.369	69.29
380.579	73.39
380.789	106.15
380.999	79.53
381.21	-6.49
381.42	104.11
381.63	83.63
381.84	54.95
382.05	104.11
382.261	112.3
382.471	5.8
382.681	89.77
382.891	77.48
383.101	93.87
383.311	79.53
383.521	89.77
383.731	54.95
383.941	63.15
384.151	36.52
384.361	151.21
384.571	69.29
384.781	83.63
384.991	89.77
385.201	106.15
385.411	26.28
385.621	50.86
385.831	136.87
386.041	40.62
386.251	118.44
386.461	116.39
386.671	73.39
386.881	87.72
387.091	28.33
387.301	122.54
387.511	134.82
387.72	79.53
387.93	134.82
388.14	28.33
388.35	-4.44
388.56	114.34
388.769	81.58
388.979	106.15
389.189	38.57
389.399	108.2
389.609	138.92
389.818	128.68
390.028	75.43
390.238	132.78
390.447	67.24
390.657	34.47
390.867	65.19
391.076	118.44
391.286	67.24
391.496	48.81
391.705	65.19
391.915	130.73
392.125	104.11
392.334	143.02
392.544	50.86
392.753	44.71
392.963	89.77
393.172	122.54
393.382	50.86
393.591	87.72
393.801	67.24
394.01	120.49
394.22	120.49
394.429	81.58
394.639	67.24
394.848	112.3
395.058	79.53
395.267	175.78
395.477	116.39
395.686	143.02
395.895	93.87
396.105	93.87
396.314	116.39
396.524	87.72
396.733	112.3
396.942	108.2
397.152	67.24
397.361	89.77
397.57	42.67
397.78	65.19
397.989	116.39
398.198	124.58
398.407	97.96
398.617	73.39
398.826	183.98
399.035	59.05
399.244	114.34
399.453	28.33
399.663	124.58
399.872	65.19
400.081	102.06
400.29	165.54
400.499	157.35
400.708	106.15
400.917	120.49
401.127	100.01
401.336	159.4
401.545	181.93
401.754	149.16
401.963	145.06
402.172	108.2
402.381	147.11
402.59	149.16
402.799	93.87
403.008	100.01
403.217	75.43
403.426	181.93
403.635	118.44
403.844	61.1
404.053	145.06
404.262	71.34
404.471	171.69
404.68	165.54
404.888	161.45
405.097	147.11
405.306	159.4
405.515	171.69
405.724	198.31
405.933	126.63
406.142	153.26
406.35	104.11
406.559	198.31
406.768	194.22
406.977	161.45
407.185	261.8
407.394	100.01
407.603	198.31
407.812	247.46
408.02	192.17
408.229	173.74
408.438	186.02
408.646	263.85
408.855	188.07
409.064	229.03
409.272	261.8
409.481	263.85
409.69	222.89
409.898	274.09
410.107	241.32
410.315	313
410.524	286.37
410.733	280.23
410.941	269.99
411.15	343.72
411.358	274.09
411.567	360.1
411.775	294.57
411.984	343.72
412.192	374.44
412.401	368.29
412.609	310.95
412.818	403.11
413.026	384.68
413.234	376.48
413.443	396.96
413.651	485.03
413.86	374.44
414.068	495.27
414.276	478.88
414.485	448.16
414.693	544.42
414.901	593.57
415.11	507.55
415.318	554.66
415.526	560.8
415.734	648.86
415.943	583.33
416.151	622.24
416.359	710.3
416.567	581.28
416.776	724.64
416.984	655.01
417.192	779.93
417.4	741.02
417.608	784.03
417.817	806.56
418.025	841.37
418.233	882.33
418.441	800.41
418.649	806.56
418.857	933.53
419.065	1033.88
419.273	898.72
419.481	980.64
419.689	1152.67
419.897	1037.98
420.105	1140.38
420.313	1087.13
420.521	1177.24
420.729	1222.3
420.937	1226.39
421.145	1361.56
421.353	1226.39
421.561	1418.9
421.769	1390.23
421.977	1457.81
422.185	1453.72
422.393	1597.07
422.601	1658.51
422.809	1638.03
423.017	1658.51
423.224	1767.06
423.432	1783.44
423.64	1752.72
423.848	2031.24
424.056	1783.44
424.263	1963.66
424.471	1943.18
424.679	2051.72
424.887	2133.64
425.094	2285.19
425.302	2301.58
425.51	2348.68
425.718	2436.74
425.925	2381.45
426.133	2524.8
426.341	2596.48
426.548	2883.2
426.756	2768.51
426.964	2938.49
427.171	2963.07
427.379	3153.53
427.586	3094.14
427.794	3321.46
428.001	3387
428.209	3466.87
428.417	3399.29
428.624	3667.57
428.832	3700.34
429.039	3649.14
429.247	3688.05
429.454	4107.88
429.662	4284.01
429.869	4028.01
430.076	4302.44
430.284	4169.32
430.491	4384.36
430.699	4679.27
430.906	4568.68
431.114	4613.73
431.321	4818.53
431.528	4873.82
431.736	5240.41
431.943	5342.81
432.15	5324.38
432.358	5422.68
432.565	5879.38
432.772	5729.88
432.979	5856.85
433.187	6012.49
433.394	6051.41
433.601	6442.57
433.808	6497.86
434.016	6626.89
434.223	6727.24
434.43	7126.59
434.637	7001.66
434.844	7407.16
435.052	7454.26
435.259	7417.4
435.466	7593.53
435.673	7544.38
435.88	8009.26
436.087	8410.67
436.294	8302.12
436.501	8281.64
436.708	8240.68
436.915	8705.57
437.122	9043.49
437.329	9016.87
437.537	9432.6
437.743	9350.68
437.95	9338.4
438.157	9991.7
438.364	10356.24
438.571	10288.65
438.778	10251.79
438.985	11101.7
439.192	10774.02
439.399	11261.44
439.606	10784.26
439.813	11355.65
440.02	11900.41
440.227	11955.7
440.433	11824.63
440.64	12176.88
440.847	12133.87
441.054	12479.98
441.261	13008.36
441.467	12946.92
441.674	13250.02
441.881	13989.33
442.088	13970.9
442.294	13698.52
442.501	14421.45
442.708	14669.26
442.914	14783.95
443.121	15482.3
443.328	14937.54
443.534	16264.63
443.741	15840.7
443.948	15740.35
444.154	16711.08
444.361	16600.49
444.568	16739.76
444.774	16774.57
444.981	16854.44
445.187	17290.66
445.394	18005.4
445.6	17943.96
445.807	19662.21
446.013	18611.6
446.22	19125.64
446.426	19756.41
446.633	19940.73
446.839	20591.98
447.046	19942.78
447.252	20804.97
447.459	20856.17
447.665	20802.93
447.871	21663.07
448.078	22830.41
448.284	21812.57
448.491	22177.11
448.697	22887.76
448.903	23432.52
449.11	23409.99
449.316	23332.17
449.522	23594.31
449.728	24134.97
449.935	24362.29
450.141	24055.1
450.347	24761.65
450.553	23792.96
450.76	24227.13
450.966	25208.11
451.172	24870.19
451.378	25300.26
451.584	24802.61
451.791	25574.69
451.997	25615.65
452.203	25945.37
452.409	25888.03
452.615	25642.28
452.821	24606
453.027	24438.07
453.233	25888.03
453.44	24763.7
453.646	24974.64
453.852	25249.07
454.058	25451.81
454.264	24587.57
454.47	25212.2
454.676	24315.19
454.882	25378.09
455.088	23086.41
455.294	23246.15
455.5	23659.84
455.705	24106.3
455.911	22893.9
456.117	22555.99
456.323	22189.4
456.529	21056.87
456.735	22107.48
456.941	21620.06
457.147	21026.15
457.352	20438.39
457.558	19944.83
457.764	19993.98
457.97	19881.34
458.176	19381.63
458.381	19514.75
458.587	18302.36
458.793	18326.93
458.999	17401.25
459.204	18560.4
459.41	18107.8
459.616	16854.44
459.821	17003.94
460.027	17096.1
460.233	16432.56
460.438	15795.64
460.644	16252.34
460.85	15138.24
461.055	15056.32
461.261	15029.7
461.466	13864.41
461.672	13454.81
461.878	14366.16
462.083	13434.33
462.289	13088.23
462.494	12922.34
462.7	12406.25
462.905	12056.05
463.111	12656.11
463.316	12717.54
463.522	12484.08
463.727	12396.01
463.932	12459.5
464.138	12211.7
464.343	12013.04
464.549	12195.31
464.754	12367.34
464.959	12187.12
465.165	12162.55
465.37	11591.16
465.575	11425.28
465.781	11984.37
465.986	11994.61
466.191	11644.41
466.397	11585.02
466.602	10620.42
466.807	10968.58
467.012	11136.51
467.218	11111.94
467.423	10989.06
467.628	10968.58
467.833	11470.33
468.038	10853.89
