Data from USB4F104151__251__14-01-31-444.txt Node

Date: Thu Mar 13 14:01:31 EDT 2025
User: louis
Spectrometer: USB4F10415
Trigger mode: 4
Integration Time (sec): 1.000000E-2
Scans to average: 1
Electric dark correction enabled: true
Nonlinearity correction enabled: false
Boxcar width: 0
XAxis mode: Wavelengths
Number of Pixels in Spectrum: 3648
>>>>>Begin Spectral Data<<<<<
178.204	-15.87
178.424	-15.87
178.644	-15.87
178.864	27.14
179.084	-7.68
179.304	23.04
179.524	-11.78
179.744	-32.26
179.964	10.75
180.184	-34.3
180.404	61.95
180.624	4.61
180.844	-17.92
181.064	16.9
181.283	-24.06
181.503	-28.16
181.723	31.23
181.943	-42.5
182.163	41.47
182.383	37.38
182.602	23.04
182.822	-40.45
183.042	70.14
183.262	27.14
183.482	-32.26
183.701	-3.58
183.921	-28.16
184.141	35.33
184.361	84.48
184.58	25.09
184.8	8.7
185.02	-48.64
185.239	16.9
185.459	-24.06
185.679	2.56
185.898	57.86
186.118	41.47
186.338	33.28
186.557	10.75
186.777	-38.4
186.997	45.57
187.216	-97.79
187.436	66.05
187.655	29.18
187.875	41.47
188.095	12.8
188.314	43.52
188.534	-13.82
188.753	47.62
188.973	10.75
189.192	-1.54
189.412	-30.21
189.631	43.52
189.851	33.28
190.07	12.8
190.29	4.61
190.509	41.47
190.729	43.52
190.948	-15.87
191.168	47.62
191.387	57.86
191.607	10.75
191.826	-5.63
192.045	18.94
192.265	-32.26
192.484	4.61
192.704	74.24
192.923	49.66
193.142	0.51
193.362	0.51
193.581	70.14
193.8	8.7
194.02	31.23
194.239	47.62
194.458	90.62
194.678	-81.41
194.897	2.56
195.116	-24.06
195.335	90.62
195.555	27.14
195.774	-15.87
195.993	74.24
196.212	-30.21
196.432	0.51
196.651	16.9
196.87	-5.63
197.089	90.62
197.308	33.28
197.528	35.33
197.747	4.61
197.966	-5.63
198.185	4.61
198.404	0.51
198.623	-38.4
198.842	57.86
199.062	41.47
199.281	-38.4
199.5	-24.06
199.719	61.95
199.938	10.75
200.157	8.7
200.376	37.38
200.595	20.99
200.814	37.38
201.033	31.23
201.252	55.81
201.471	37.38
201.69	-9.73
201.909	-22.02
202.128	35.33
202.347	90.62
202.566	64
202.785	-13.82
203.004	-24.06
203.223	55.81
203.442	-17.92
203.661	-7.68
203.879	-9.73
204.098	25.09
204.317	-48.64
204.536	72.19
204.755	27.14
204.974	-11.78
205.193	74.24
205.411	25.09
205.63	14.85
205.849	0.51
206.068	10.75
206.287	-15.87
206.505	8.7
206.724	0.51
206.943	16.9
207.162	100.86
207.381	41.47
207.599	-15.87
207.818	18.94
208.037	-44.54
208.255	-7.68
208.474	-28.16
208.693	37.38
208.911	2.56
209.13	14.85
209.349	49.66
209.567	45.57
209.786	20.99
210.005	29.18
210.223	-3.58
210.442	55.81
210.661	20.99
210.879	74.24
211.098	-11.78
211.316	-19.97
211.535	80.38
211.753	70.14
211.972	10.75
212.191	49.66
212.409	-13.82
212.628	66.05
212.846	86.53
213.065	-5.63
213.283	-3.58
213.502	16.9
213.72	35.33
213.938	6.66
214.157	57.86
214.375	-48.64
214.594	45.57
214.812	29.18
215.031	8.7
215.249	8.7
215.467	68.09
215.686	-7.68
215.904	68.09
216.122	18.94
216.341	0.51
216.559	14.85
216.778	25.09
216.996	-22.02
217.214	-52.74
217.432	39.42
217.651	57.86
217.869	80.38
218.087	-34.3
218.306	23.04
218.524	25.09
218.742	25.09
218.96	-22.02
219.179	-22.02
219.397	51.71
219.615	23.04
219.833	47.62
220.051	-62.98
220.27	49.66
220.488	4.61
220.706	33.28
220.924	20.99
221.142	47.62
221.36	51.71
221.578	-7.68
221.796	-32.26
222.015	43.52
222.233	-67.07
222.451	-24.06
222.669	29.18
222.887	-11.78
223.105	-58.88
223.323	31.23
223.541	23.04
223.759	2.56
223.977	0.51
224.195	68.09
224.413	-19.97
224.631	25.09
224.849	-19.97
225.067	59.9
225.285	35.33
225.503	-1.54
225.721	25.09
225.939	27.14
226.157	-73.21
226.375	-11.78
226.592	-30.21
226.81	16.9
227.028	-11.78
227.246	117.25
227.464	29.18
227.682	68.09
227.9	41.47
228.117	82.43
228.335	41.47
228.553	80.38
228.771	-42.5
228.989	-9.73
229.206	31.23
229.424	27.14
229.642	68.09
229.86	-40.45
230.077	41.47
230.295	80.38
230.513	-22.02
230.731	61.95
230.948	129.53
231.166	41.47
231.384	51.71
231.601	47.62
231.819	55.81
232.037	25.09
232.254	8.7
232.472	31.23
232.689	4.61
232.907	47.62
233.125	23.04
233.342	25.09
233.56	-13.82
233.777	47.62
233.995	23.04
234.213	8.7
234.43	-40.45
234.648	-11.78
234.865	-28.16
235.083	4.61
235.3	53.76
235.518	8.7
235.735	35.33
235.953	51.71
236.17	35.33
236.388	-5.63
236.605	-40.45
236.822	20.99
237.04	-15.87
237.257	45.57
237.475	31.23
237.692	-7.68
237.909	41.47
238.127	-28.16
238.344	10.75
238.562	-7.68
238.779	27.14
238.996	0.51
239.214	0.51
239.431	20.99
239.648	47.62
239.865	39.42
240.083	-40.45
240.3	51.71
240.517	-13.82
240.735	74.24
240.952	66.05
241.169	-5.63
241.386	2.56
241.603	27.14
241.821	33.28
242.038	14.85
242.255	-30.21
242.472	20.99
242.689	-97.79
242.907	8.7
243.124	-40.45
243.341	-32.26
243.558	16.9
243.775	33.28
243.992	43.52
244.209	-7.68
244.426	33.28
244.643	29.18
244.86	23.04
245.078	-38.4
245.295	57.86
245.512	16.9
245.729	-17.92
245.946	6.66
246.163	25.09
246.38	-65.02
246.597	51.71
246.814	51.71
247.031	-26.11
247.248	41.47
247.464	51.71
247.681	-46.59
247.898	23.04
248.115	66.05
248.332	-1.54
248.549	90.62
248.766	82.43
248.983	4.61
249.2	16.9
249.417	-7.68
249.633	4.61
249.85	-54.78
250.067	-15.87
250.284	-77.31
250.501	74.24
250.717	37.38
250.934	35.33
251.151	61.95
251.368	53.76
251.585	-7.68
251.801	-30.21
252.018	-46.59
252.235	57.86
252.451	16.9
252.668	20.99
252.885	41.47
253.102	78.33
253.318	27.14
253.535	-48.64
253.752	35.33
253.968	-30.21
254.185	59.9
254.401	-34.3
254.618	-11.78
254.835	-32.26
255.051	51.71
255.268	-5.63
255.484	23.04
255.701	35.33
255.917	4.61
256.134	-19.97
256.351	16.9
256.567	-71.17
256.784	-3.58
257	8.7
257.217	43.52
257.433	35.33
257.65	0.51
257.866	8.7
258.082	-1.54
258.299	-30.21
258.515	8.7
258.732	53.76
258.948	8.7
259.165	86.53
259.381	61.95
259.597	37.38
259.814	33.28
260.03	-15.87
260.246	6.66
260.463	-28.16
260.679	8.7
260.895	76.29
261.112	12.8
261.328	10.75
261.544	74.24
261.761	2.56
261.977	-24.06
262.193	-11.78
262.409	55.81
262.626	-15.87
262.842	2.56
263.058	8.7
263.274	41.47
263.49	-71.17
263.707	33.28
263.923	47.62
264.139	12.8
264.355	6.66
264.571	27.14
264.787	43.52
265.004	33.28
265.22	72.19
265.436	20.99
265.652	-44.54
265.868	-32.26
266.084	-32.26
266.3	-32.26
266.516	43.52
266.732	20.99
266.948	-73.21
267.164	8.7
267.38	43.52
267.596	57.86
267.812	27.14
268.028	33.28
268.244	25.09
268.46	33.28
268.676	-11.78
268.892	49.66
269.108	45.57
269.324	82.43
269.54	12.8
269.756	-1.54
269.972	33.28
270.188	-15.87
270.403	-15.87
270.619	51.71
270.835	-32.26
271.051	49.66
271.267	49.66
271.483	-3.58
271.698	-28.16
271.914	18.94
272.13	59.9
272.346	29.18
272.562	10.75
272.777	-7.68
272.993	41.47
273.209	-28.16
273.425	-7.68
273.64	-77.31
273.856	-13.82
274.072	-3.58
274.287	25.09
274.503	68.09
274.719	-42.5
274.934	-15.87
275.15	-5.63
275.366	2.56
275.581	49.66
275.797	59.9
276.012	109.05
276.228	-7.68
276.444	45.57
276.659	74.24
276.875	0.51
277.09	-17.92
277.306	-52.74
277.521	-5.63
277.737	27.14
277.952	57.86
278.168	47.62
278.383	-3.58
278.599	-62.98
278.814	0.51
279.03	33.28
279.245	16.9
279.461	59.9
279.676	59.9
279.892	16.9
280.107	55.81
280.322	29.18
280.538	82.43
280.753	127.49
280.969	74.24
281.184	-13.82
281.399	47.62
281.615	72.19
281.83	8.7
282.045	0.51
282.26	0.51
282.476	-38.4
282.691	66.05
282.906	29.18
283.122	16.9
283.337	25.09
283.552	70.14
283.767	33.28
283.983	2.56
284.198	-56.83
284.413	27.14
284.628	29.18
284.843	16.9
285.058	14.85
285.274	-24.06
285.489	45.57
285.704	94.72
285.919	-52.74
286.134	20.99
286.349	-19.97
286.564	51.71
286.779	-19.97
286.995	-3.58
287.21	8.7
287.425	20.99
287.64	18.94
287.855	100.86
288.07	-46.59
288.285	43.52
288.5	68.09
288.715	8.7
288.93	23.04
289.145	2.56
289.36	4.61
289.575	2.56
289.79	33.28
290.004	20.99
290.219	-46.59
290.434	-50.69
290.649	-13.82
290.864	12.8
291.079	-3.58
291.294	8.7
291.509	-24.06
291.724	94.72
291.938	74.24
292.153	45.57
292.368	-11.78
292.583	-30.21
292.798	-46.59
293.012	-26.11
293.227	43.52
293.442	27.14
293.657	-15.87
293.871	129.53
294.086	64
294.301	100.86
294.516	-9.73
294.73	45.57
294.945	18.94
295.16	29.18
295.374	-36.35
295.589	-22.02
295.804	66.05
296.018	33.28
296.233	-36.35
296.447	6.66
296.662	12.8
296.877	80.38
297.091	18.94
297.306	53.76
297.52	-19.97
297.735	43.52
297.949	8.7
298.164	45.57
298.378	37.38
298.593	12.8
298.807	43.52
299.022	37.38
299.236	25.09
299.451	55.81
299.665	41.47
299.88	92.67
300.094	25.09
300.309	66.05
300.523	41.47
300.737	18.94
300.952	90.62
301.166	2.56
301.381	27.14
301.595	20.99
301.809	57.86
302.024	35.33
302.238	-3.58
302.452	61.95
302.667	-5.63
302.881	10.75
303.095	29.18
303.309	-19.97
303.524	6.66
303.738	16.9
303.952	-13.82
304.166	18.94
304.381	-3.58
304.595	86.53
304.809	-67.07
305.023	35.33
305.237	-17.92
305.452	117.25
305.666	25.09
305.88	-1.54
306.094	-42.5
306.308	76.29
306.522	20.99
306.736	45.57
306.95	16.9
307.164	4.61
307.379	82.43
307.593	10.75
307.807	12.8
308.021	37.38
308.235	49.66
308.449	-40.45
308.663	20.99
308.877	2.56
309.091	-5.63
309.305	123.39
309.519	14.85
309.733	23.04
309.947	2.56
310.161	43.52
310.374	-17.92
310.588	47.62
310.802	49.66
311.016	100.86
311.23	-65.02
311.444	0.51
311.658	-36.35
311.872	12.8
312.085	33.28
312.299	51.71
312.513	29.18
312.727	41.47
312.941	-11.78
313.154	-60.93
313.368	10.75
313.582	-13.82
313.796	33.28
314.009	-30.21
314.223	33.28
314.437	-65.02
314.651	-11.78
314.864	20.99
315.078	-34.3
315.292	29.18
315.505	57.86
315.719	-5.63
315.933	23.04
316.146	-3.58
316.36	68.09
316.573	55.81
316.787	74.24
317.001	33.28
317.214	-13.82
317.428	51.71
317.641	35.33
317.855	8.7
318.068	29.18
318.282	-32.26
318.495	-40.45
318.709	113.15
318.922	10.75
319.136	16.9
319.349	8.7
319.563	33.28
319.776	2.56
319.99	35.33
320.203	53.76
320.417	-7.68
320.63	18.94
320.843	-15.87
321.057	12.8
321.27	18.94
321.483	35.33
321.697	18.94
321.91	10.75
322.124	-15.87
322.337	35.33
322.55	23.04
322.763	49.66
322.977	29.18
323.19	-7.68
323.403	-5.63
323.617	35.33
323.83	20.99
324.043	12.8
324.256	4.61
324.469	4.61
324.683	8.7
324.896	20.99
325.109	47.62
325.322	35.33
325.535	20.99
325.748	53.76
325.962	16.9
326.175	39.42
326.388	61.95
326.601	20.99
326.814	6.66
327.027	96.77
327.24	35.33
327.453	25.09
327.666	-5.63
327.879	-1.54
328.092	10.75
328.305	78.33
328.518	82.43
328.731	86.53
328.944	49.66
329.157	10.75
329.37	8.7
329.583	74.24
329.796	88.57
330.009	70.14
330.222	35.33
330.435	6.66
330.648	47.62
330.861	-11.78
331.073	31.23
331.286	10.75
331.499	33.28
331.712	-11.78
331.925	82.43
332.138	-11.78
332.35	41.47
332.563	-7.68
332.776	49.66
332.989	-3.58
333.202	37.38
333.414	45.57
333.627	68.09
333.84	27.14
334.053	-44.54
334.265	14.85
334.478	-24.06
334.691	29.18
334.903	47.62
335.116	27.14
335.329	64
335.541	-1.54
335.754	82.43
335.966	-44.54
336.179	10.75
336.392	-32.26
336.604	59.9
336.817	25.09
337.029	4.61
337.242	25.09
337.454	8.7
337.667	31.23
337.88	29.18
338.092	98.81
338.305	27.14
338.517	29.18
338.729	66.05
338.942	8.7
339.154	49.66
339.367	-65.02
339.579	33.28
339.792	-58.88
340.004	35.33
340.217	-3.58
340.429	29.18
340.641	-7.68
340.854	31.23
341.066	53.76
341.278	31.23
341.491	12.8
341.703	41.47
341.915	-24.06
342.128	25.09
342.34	33.28
342.552	2.56
342.764	-56.83
342.977	-1.54
343.189	-3.58
343.401	64
343.613	-56.83
343.826	68.09
344.038	8.7
344.25	-79.36
344.462	-13.82
344.674	-38.4
344.886	41.47
345.099	82.43
345.311	-22.02
345.523	43.52
345.735	-50.69
345.947	41.47
346.159	2.56
346.371	29.18
346.583	8.7
346.795	49.66
347.007	33.28
347.219	-17.92
347.431	33.28
347.643	-22.02
347.855	2.56
348.067	70.14
348.279	55.81
348.491	-3.58
348.703	16.9
348.915	-15.87
349.127	33.28
349.339	35.33
349.551	102.91
349.763	37.38
349.975	76.29
350.187	107.01
350.399	23.04
350.61	33.28
350.822	35.33
351.034	-19.97
351.246	96.77
351.458	109.05
351.669	-22.02
351.881	-15.87
352.093	-28.16
352.305	100.86
352.517	14.85
352.728	-22.02
352.94	23.04
353.152	33.28
353.363	-44.54
353.575	39.42
353.787	18.94
353.999	61.95
354.21	64
354.422	53.76
354.633	-28.16
354.845	47.62
355.057	102.91
355.268	0.51
355.48	53.76
355.692	10.75
355.903	25.09
356.115	-17.92
356.326	2.56
356.538	29.18
356.749	-1.54
356.961	8.7
357.172	57.86
357.384	12.8
357.595	39.42
357.807	45.57
358.018	-26.11
358.23	51.71
358.441	-7.68
358.653	-15.87
358.864	29.18
359.075	12.8
359.287	59.9
359.498	47.62
359.709	10.75
359.921	41.47
360.132	61.95
360.344	-7.68
360.555	35.33
360.766	137.73
360.977	37.38
361.189	-11.78
361.4	-24.06
361.611	35.33
361.823	68.09
362.034	100.86
362.245	-22.02
362.456	35.33
362.667	18.94
362.879	68.09
363.09	-19.97
363.301	37.38
363.512	49.66
363.723	37.38
363.935	59.9
364.146	43.52
364.357	16.9
364.568	72.19
364.779	23.04
364.99	-9.73
365.201	-34.3
365.412	57.86
365.623	-7.68
365.834	-15.87
366.045	41.47
366.256	53.76
366.467	78.33
366.678	41.47
366.889	-7.68
367.1	64
367.311	-28.16
367.522	45.57
367.733	-5.63
367.944	4.61
368.155	27.14
368.366	-24.06
368.577	35.33
368.788	27.14
368.999	8.7
369.209	55.81
369.42	82.43
369.631	86.53
369.842	59.9
370.053	6.66
370.264	-9.73
370.474	80.38
370.685	-38.4
370.896	25.09
371.107	-11.78
371.317	47.62
371.528	23.04
371.739	-62.98
371.95	4.61
372.16	80.38
372.371	16.9
372.582	35.33
372.792	25.09
373.003	8.7
373.214	27.14
373.424	70.14
373.635	18.94
373.846	35.33
374.056	45.57
374.267	88.57
374.477	-15.87
374.688	61.95
374.898	16.9
375.109	74.24
375.319	33.28
375.53	-11.78
375.74	39.42
375.951	18.94
376.161	0.51
376.372	57.86
376.582	0.51
376.793	18.94
377.003	-17.92
377.214	27.14
377.424	20.99
377.635	-9.73
377.845	33.28
378.055	25.09
378.266	68.09
378.476	31.23
378.686	33.28
378.897	-19.97
379.107	125.44
379.317	92.67
379.528	-73.21
379.738	55.81
379.948	-38.4
380.158	16.9
380.369	10.75
380.579	90.62
380.789	55.81
380.999	76.29
381.21	39.42
381.42	20.99
381.63	8.7
381.84	10.75
382.05	88.57
382.261	33.28
382.471	64
382.681	31.23
382.891	53.76
383.101	51.71
383.311	12.8
383.521	39.42
383.731	37.38
383.941	16.9
384.151	25.09
384.361	-19.97
384.571	-5.63
384.781	12.8
384.991	74.24
385.201	57.86
385.411	59.9
385.621	86.53
385.831	25.09
386.041	45.57
386.251	49.66
386.461	31.23
386.671	152.06
386.881	-5.63
387.091	45.57
387.301	61.95
387.511	2.56
387.72	6.66
387.93	-5.63
388.14	49.66
388.35	20.99
388.56	61.95
388.769	51.71
388.979	0.51
389.189	27.14
389.399	90.62
389.609	35.33
389.818	18.94
390.028	43.52
390.238	0.51
390.447	2.56
390.657	-7.68
390.867	-19.97
391.076	33.28
391.286	8.7
391.496	66.05
391.705	37.38
391.915	35.33
392.125	23.04
392.334	-3.58
392.544	33.28
392.753	4.61
392.963	-24.06
393.172	14.85
393.382	74.24
393.591	78.33
393.801	70.14
394.01	45.57
394.22	66.05
394.429	37.38
394.639	51.71
394.848	59.9
395.058	104.96
395.267	10.75
395.477	39.42
395.686	74.24
395.895	55.81
396.105	98.81
396.314	-15.87
396.524	2.56
396.733	39.42
396.942	139.77
397.152	76.29
397.361	156.16
397.57	64
397.78	37.38
397.989	119.29
398.198	61.95
398.407	27.14
398.617	76.29
398.826	107.01
399.035	25.09
399.244	12.8
399.453	-1.54
399.663	72.19
399.872	82.43
400.081	68.09
400.29	16.9
400.499	33.28
400.708	47.62
400.917	-22.02
401.127	84.48
401.336	16.9
401.545	41.47
401.754	33.28
401.963	39.42
402.172	18.94
402.381	94.72
402.59	80.38
402.799	64
403.008	57.86
403.217	84.48
403.426	-48.64
403.635	74.24
403.844	0.51
404.053	70.14
404.262	80.38
404.471	74.24
404.68	84.48
404.888	66.05
405.097	57.86
405.306	94.72
405.515	29.18
405.724	80.38
405.933	102.91
406.142	107.01
406.35	53.76
406.559	109.05
406.768	10.75
406.977	76.29
407.185	66.05
407.394	98.81
407.603	107.01
407.812	143.87
408.02	125.44
408.229	90.62
408.438	64
408.646	150.01
408.855	117.25
409.064	100.86
409.272	66.05
409.481	133.63
409.69	92.67
409.898	119.29
410.107	90.62
410.315	127.49
410.524	68.09
410.733	74.24
410.941	154.11
411.15	133.63
411.358	113.15
411.567	145.92
411.775	158.21
411.984	217.6
412.192	180.73
412.401	150.01
412.609	186.88
412.818	123.39
413.026	166.4
413.234	193.02
413.443	223.74
413.651	242.17
413.86	158.21
414.068	213.5
414.276	272.89
414.485	240.12
414.693	227.84
414.901	297.47
415.11	309.76
415.318	262.65
415.526	246.27
415.734	279.04
415.943	215.55
416.151	246.27
416.359	279.04
416.567	389.63
416.776	262.65
416.984	287.23
417.192	295.42
417.4	352.76
417.608	307.71
417.817	424.44
418.025	412.15
418.233	371.19
418.441	395.77
418.649	379.39
418.857	449.02
419.065	477.69
419.273	492.02
419.481	561.66
419.689	557.56
419.897	623.09
420.105	600.57
420.313	547.32
420.521	555.51
420.729	580.09
420.937	637.43
421.145	664.05
421.353	655.86
421.561	729.59
421.769	713.21
421.977	723.44
422.185	788.98
422.393	754.16
422.601	784.88
422.809	782.84
423.017	811.51
423.224	815.6
423.432	870.9
423.64	868.85
423.848	874.99
424.056	936.43
424.263	1110.51
424.471	1069.55
424.679	999.92
424.887	1040.88
425.094	1036.78
425.302	1104.37
425.51	1188.33
425.718	1196.53
425.925	1212.91
426.133	1262.06
426.341	1280.49
426.548	1389.03
426.756	1380.84
426.964	1397.23
427.171	1491.43
427.379	1571.3
427.586	1493.48
427.794	1462.76
428.001	1704.42
428.209	1649.13
428.417	1765.86
428.624	1882.6
428.832	1802.72
429.039	1759.72
429.247	1851.88
429.454	2011.62
429.662	2265.57
429.869	2017.76
430.076	2247.13
430.284	2120.16
430.491	2232.8
430.699	2197.98
430.906	2359.77
431.114	2396.64
431.321	2343.39
431.528	2486.75
431.736	2531.8
431.943	2638.3
432.15	2603.48
432.358	2640.34
432.565	2763.22
432.772	2808.28
432.979	2849.24
433.187	3021.27
433.394	2986.45
433.601	3264.97
433.808	3152.34
434.016	3226.06
434.223	3336.65
434.43	3398.09
434.637	3418.57
434.844	3531.21
435.052	3723.72
435.259	3566.03
435.466	3797.45
435.673	3686.86
435.88	3977.67
436.087	3961.28
436.294	4039.11
436.501	4063.68
436.708	4121.03
436.915	4190.66
437.122	4440.51
437.329	4383.17
437.537	4596.15
437.743	4645.31
437.95	4727.22
438.157	4792.76
438.364	5007.8
438.571	5079.47
438.778	4929.97
438.985	5521.84
439.192	5335.47
439.399	5398.96
439.606	5278.13
439.813	5501.36
440.02	5855.65
440.227	5859.75
440.433	5765.54
440.64	5931.43
440.847	5904.81
441.054	6001.06
441.261	6646.17
441.467	6400.41
441.674	6611.36
441.881	6793.62
442.088	6789.53
442.294	6740.38
442.501	6900.12
442.708	7045.52
442.914	7432.59
443.121	7602.57
443.328	7483.79
443.534	7987.59
443.741	7741.83
443.948	7557.52
444.154	8231.3
444.361	7997.83
444.568	8130.95
444.774	8063.36
444.981	8089.99
445.187	8513.92
445.394	8888.7
445.6	8745.34
445.807	9593.2
446.013	9097.59
446.22	9382.26
446.426	9818.47
446.633	9824.62
446.839	9994.6
447.046	9560.43
447.252	10121.57
447.459	10283.36
447.665	10244.45
447.871	10563.93
448.078	11276.63
448.284	10471.78
448.491	10799.45
448.697	11256.15
448.903	11514.19
449.11	11624.78
449.316	11176.28
449.522	11583.82
449.728	11772.24
449.935	12034.38
450.141	11954.51
450.347	12001.61
450.553	11733.32
450.76	12083.53
450.966	12400.96
451.172	12202.31
451.378	12325.19
451.584	12405.06
451.791	12708.16
451.997	12570.94
452.203	12710.21
452.409	12607.81
452.615	12706.11
452.821	12161.35
453.027	12165.45
453.233	12828.99
453.44	12265.8
453.646	12190.02
453.852	12374.34
454.058	12341.57
454.264	12282.18
454.47	12480.83
454.676	12118.34
454.882	12460.35
455.088	11401.55
455.294	11653.45
455.5	11882.83
455.705	11862.35
455.911	11268.44
456.117	11043.16
456.323	10862.94
456.529	10355.04
456.735	10840.41
456.941	10662.24
457.147	10590.56
457.352	10275.17
457.558	10070.37
457.764	10285.41
457.97	9779.56
458.176	9847.15
458.381	9843.05
458.587	9036.15
458.793	9130.36
458.999	8669.56
459.204	9400.69
459.41	9083.25
459.616	8608.12
459.821	8534.4
460.027	8708.48
460.233	8341.89
460.438	8216.96
460.644	7999.88
460.85	7602.57
461.055	7596.43
461.261	7475.6
461.466	6861.21
461.672	6828.44
461.878	7276.94
462.083	6597.02
462.289	6719.9
462.494	6539.68
462.7	6312.35
462.905	6234.53
463.111	6424.99
463.316	6443.42
463.522	6128.03
463.727	6187.43
463.932	6220.19
464.138	6220.19
464.343	6132.13
464.549	5882.28
464.754	6066.6
464.959	6144.42
465.165	6173.09
465.37	5824.94
465.575	5564.84
465.781	5945.77
465.986	5925.29
466.191	5859.75
466.397	5763.5
466.602	5423.53
466.807	5702.06
467.012	5595.56
467.218	5444.01
467.423	5351.85
467.628	5550.51
467.833	5722.54
468.038	5392.81
468.244	5308.85
468.449	5573.03
468.654	5366.19
468.859	5335.47
469.064	5384.62
469.269	5169.59
469.474	5181.87
469.679	5378.48
469.885	5136.82
470.09	5112.24
470.295	5192.11
