Data from USB4F104151__231__14-00-48-860.txt Node

Date: Thu Mar 13 14:00:48 EDT 2025
User: louis
Spectrometer: USB4F10415
Trigger mode: 4
Integration Time (sec): 1.000000E-2
Scans to average: 1
Electric dark correction enabled: true
Nonlinearity correction enabled: false
Boxcar width: 0
XAxis mode: Wavelengths
Number of Pixels in Spectrum: 3648
>>>>>Begin Spectral Data<<<<<
178.204	-70.65
178.424	-70.65
178.644	-70.65
178.864	-11.26
179.084	-41.98
179.304	-15.36
179.524	17.41
179.744	-58.37
179.964	33.79
180.184	44.03
180.404	13.31
180.624	9.22
180.844	15.36
181.064	-11.26
181.283	-1.02
181.503	-56.32
181.723	9.22
181.943	72.7
182.163	-25.6
182.383	39.94
182.602	27.65
182.822	17.41
183.042	9.22
183.262	39.94
183.482	7.17
183.701	17.41
183.921	19.46
184.141	15.36
184.361	-23.55
184.58	33.79
184.8	-7.17
185.02	-46.08
185.239	37.89
185.459	33.79
185.679	27.65
185.898	17.41
186.118	107.52
186.338	25.6
186.557	80.89
186.777	44.03
186.997	-9.22
187.216	13.31
187.436	-11.26
187.655	-46.08
187.875	89.09
188.095	-31.74
188.314	-17.41
188.534	56.32
188.753	-9.22
188.973	52.22
189.192	74.75
189.412	-13.31
189.631	37.89
189.851	-3.07
190.07	17.41
190.29	-33.79
190.509	5.12
190.729	72.7
190.948	-13.31
191.168	7.17
191.387	74.75
191.607	41.98
191.826	-19.46
192.045	15.36
192.265	11.26
192.484	-17.41
192.704	80.89
192.923	27.65
193.142	1.02
193.362	23.55
193.581	25.6
193.8	27.65
194.02	9.22
194.239	29.7
194.458	25.6
194.678	46.08
194.897	31.74
195.116	64.51
195.335	84.99
195.555	-50.18
195.774	-13.31
195.993	25.6
196.212	-3.07
196.432	48.13
196.651	-41.98
196.87	46.08
197.089	-15.36
197.308	74.75
197.528	5.12
197.747	39.94
197.966	35.84
198.185	-3.07
198.404	-41.98
198.623	-23.55
198.842	25.6
199.062	27.65
199.281	82.94
199.5	31.74
199.719	23.55
199.938	-33.79
200.157	52.22
200.376	-35.84
200.595	15.36
200.814	7.17
201.033	50.18
201.252	-9.22
201.471	-1.02
201.69	62.46
201.909	-15.36
202.128	60.42
202.347	25.6
202.566	-7.17
202.785	-31.74
203.004	-13.31
203.223	-23.55
203.442	80.89
203.661	56.32
203.879	39.94
204.098	-9.22
204.317	58.37
204.536	21.5
204.755	33.79
204.974	31.74
205.193	68.61
205.411	48.13
205.63	-64.51
205.849	31.74
206.068	52.22
206.287	15.36
206.505	-1.02
206.724	-17.41
206.943	78.85
207.162	13.31
207.381	41.98
207.599	19.46
207.818	3.07
208.037	27.65
208.255	15.36
208.474	87.04
208.693	3.07
208.911	80.89
209.13	76.8
209.349	52.22
209.567	60.42
209.786	3.07
210.005	-7.17
210.223	-3.07
210.442	19.46
210.661	3.07
210.879	27.65
211.098	70.65
211.316	64.51
211.535	68.61
211.753	23.55
211.972	52.22
212.191	7.17
212.409	23.55
212.628	-21.5
212.846	35.84
213.065	99.33
213.283	33.79
213.502	15.36
213.72	25.6
213.938	17.41
214.157	113.66
214.375	60.42
214.594	-13.31
214.812	44.03
215.031	31.74
215.249	-19.46
215.467	1.02
215.686	9.22
215.904	44.03
216.122	5.12
216.341	74.75
216.559	-37.89
216.778	68.61
216.996	46.08
217.214	13.31
217.432	-13.31
217.651	-37.89
217.869	-5.12
218.087	-13.31
218.306	60.42
218.524	27.65
218.742	56.32
218.96	109.57
219.179	31.74
219.397	25.6
219.615	64.51
219.833	35.84
220.051	50.18
220.27	70.65
220.488	25.6
220.706	64.51
220.924	60.42
221.142	-39.94
221.36	-5.12
221.578	-21.5
221.796	15.36
222.015	87.04
222.233	17.41
222.451	54.27
222.669	15.36
222.887	-11.26
223.105	58.37
223.323	82.94
223.541	60.42
223.759	44.03
223.977	66.56
224.195	74.75
224.413	11.26
224.631	1.02
224.849	19.46
225.067	56.32
225.285	-37.89
225.503	48.13
225.721	31.74
225.939	58.37
226.157	93.18
226.375	87.04
226.592	48.13
226.81	21.5
227.028	11.26
227.246	23.55
227.464	23.55
227.682	-1.02
227.9	17.41
228.117	-5.12
228.335	21.5
228.553	89.09
228.771	-17.41
228.989	35.84
229.206	37.89
229.424	-48.13
229.642	-3.07
229.86	41.98
230.077	-5.12
230.295	11.26
230.513	-70.65
230.731	48.13
230.948	-11.26
231.166	78.85
231.384	41.98
231.601	27.65
231.819	21.5
232.037	27.65
232.254	-17.41
232.472	113.66
232.689	9.22
232.907	-7.17
233.125	17.41
233.342	5.12
233.56	31.74
233.777	117.76
233.995	-72.7
234.213	39.94
234.43	19.46
234.648	50.18
234.865	-13.31
235.083	76.8
235.3	-19.46
235.518	29.7
235.735	97.28
235.953	17.41
236.17	-7.17
236.388	-29.7
236.605	-27.65
236.822	7.17
237.04	48.13
237.257	41.98
237.475	-7.17
237.692	19.46
237.909	99.33
238.127	23.55
238.344	-29.7
238.562	130.05
238.779	7.17
238.996	-56.32
239.214	64.51
239.431	-33.79
239.648	93.18
239.865	-9.22
240.083	80.89
240.3	-7.17
240.517	19.46
240.735	25.6
240.952	31.74
241.169	3.07
241.386	-41.98
241.603	13.31
241.821	11.26
242.038	-31.74
242.255	39.94
242.472	17.41
242.689	23.55
242.907	39.94
243.124	23.55
243.341	23.55
243.558	-72.7
243.775	-7.17
243.992	7.17
244.209	5.12
244.426	58.37
244.643	-29.7
244.86	60.42
245.078	-7.17
245.295	29.7
245.512	41.98
245.729	1.02
245.946	31.74
246.163	62.46
246.38	44.03
246.597	11.26
246.814	11.26
247.031	-31.74
247.248	29.7
247.464	21.5
247.681	78.85
247.898	48.13
248.115	-17.41
248.332	-52.22
248.549	54.27
248.766	33.79
248.983	91.13
249.2	19.46
249.417	48.13
249.633	-19.46
249.85	5.12
250.067	91.13
250.284	105.47
250.501	-44.03
250.717	48.13
250.934	9.22
251.151	27.65
251.368	37.89
251.585	21.5
251.801	56.32
252.018	11.26
252.235	29.7
252.451	56.32
252.668	46.08
252.885	33.79
253.102	54.27
253.318	48.13
253.535	21.5
253.752	-21.5
253.968	-7.17
254.185	7.17
254.401	-25.6
254.618	25.6
254.835	-1.02
255.051	72.7
255.268	15.36
255.484	66.56
255.701	52.22
255.917	66.56
256.134	82.94
256.351	44.03
256.567	25.6
256.784	35.84
257	27.65
257.217	56.32
257.433	97.28
257.65	3.07
257.866	-70.65
258.082	11.26
258.299	-15.36
258.515	-7.17
258.732	-23.55
258.948	130.05
259.165	-11.26
259.381	39.94
259.597	-56.32
259.814	50.18
260.03	21.5
260.246	-17.41
260.463	50.18
260.679	64.51
260.895	-7.17
261.112	31.74
261.328	-1.02
261.544	37.89
261.761	21.5
261.977	35.84
262.193	48.13
262.409	41.98
262.626	-58.37
262.842	56.32
263.058	27.65
263.274	80.89
263.49	52.22
263.707	-5.12
263.923	68.61
264.139	31.74
264.355	11.26
264.571	31.74
264.787	50.18
265.004	37.89
265.22	11.26
265.436	-1.02
265.652	46.08
265.868	72.7
266.084	25.6
266.3	29.7
266.516	31.74
266.732	17.41
266.948	68.61
267.164	23.55
267.38	29.7
267.596	74.75
267.812	23.55
268.028	7.17
268.244	93.18
268.46	50.18
268.676	37.89
268.892	13.31
269.108	-21.5
269.324	25.6
269.54	74.75
269.756	117.76
269.972	-41.98
270.188	21.5
270.403	-15.36
270.619	31.74
270.835	-17.41
271.051	-25.6
271.267	46.08
271.483	44.03
271.698	19.46
271.914	-1.02
272.13	31.74
272.346	56.32
272.562	72.7
272.777	64.51
272.993	21.5
273.209	7.17
273.425	-9.22
273.64	5.12
273.856	48.13
274.072	95.23
274.287	11.26
274.503	31.74
274.719	80.89
274.934	1.02
275.15	39.94
275.366	50.18
275.581	3.07
275.797	-13.31
276.012	-15.36
276.228	3.07
276.444	3.07
276.659	44.03
276.875	64.51
277.09	82.94
277.306	-1.02
277.521	25.6
277.737	-7.17
277.952	48.13
278.168	56.32
278.383	97.28
278.599	9.22
278.814	-58.37
279.03	-52.22
279.245	66.56
279.461	-19.46
279.676	5.12
279.892	50.18
280.107	58.37
280.322	50.18
280.538	-19.46
280.753	58.37
280.969	17.41
281.184	-3.07
281.399	9.22
281.615	31.74
281.83	56.32
282.045	-9.22
282.26	-1.02
282.476	-3.07
282.691	-33.79
282.906	48.13
283.122	64.51
283.337	25.6
283.552	54.27
283.767	27.65
283.983	-29.7
284.198	84.99
284.413	9.22
284.628	23.55
284.843	105.47
285.058	-5.12
285.274	29.7
285.489	-33.79
285.704	72.7
285.919	17.41
286.134	72.7
286.349	-1.02
286.564	-1.02
286.779	17.41
286.995	39.94
287.21	58.37
287.425	39.94
287.64	33.79
287.855	15.36
288.07	17.41
288.285	76.8
288.5	29.7
288.715	74.75
288.93	31.74
289.145	9.22
289.36	41.98
289.575	39.94
289.79	58.37
290.004	105.47
290.219	11.26
290.434	58.37
290.649	46.08
290.864	72.7
291.079	-15.36
291.294	80.89
291.509	-70.65
291.724	64.51
291.938	13.31
292.153	15.36
292.368	-17.41
292.583	117.76
292.798	7.17
293.012	56.32
293.227	68.61
293.442	44.03
293.657	54.27
293.871	35.84
294.086	-15.36
294.301	39.94
294.516	35.84
294.73	44.03
294.945	97.28
295.16	39.94
295.374	11.26
295.589	-33.79
295.804	21.5
296.018	52.22
296.233	-78.85
296.447	-1.02
296.662	121.85
296.877	11.26
297.091	33.79
297.306	-3.07
297.52	82.94
297.735	17.41
297.949	39.94
298.164	48.13
298.378	46.08
298.593	23.55
298.807	29.7
299.022	-23.55
299.236	-5.12
299.451	107.52
299.665	35.84
299.88	87.04
300.094	15.36
300.309	41.98
300.523	66.56
300.737	60.42
300.952	48.13
301.166	29.7
301.381	15.36
301.595	-13.31
301.809	46.08
302.024	48.13
302.238	-11.26
302.452	64.51
302.667	91.13
302.881	105.47
303.095	-5.12
303.309	31.74
303.524	-54.27
303.738	21.5
303.952	-13.31
304.166	25.6
304.381	-7.17
304.595	87.04
304.809	23.55
305.023	113.66
305.237	72.7
305.452	-107.52
305.666	29.7
305.88	41.98
306.094	44.03
306.308	121.85
306.522	7.17
306.736	-7.17
306.95	91.13
307.164	17.41
307.379	-27.65
307.593	-7.17
307.807	23.55
308.021	99.33
308.235	15.36
308.449	9.22
308.663	97.28
308.877	123.9
309.091	56.32
309.305	70.65
309.519	68.61
309.733	-33.79
309.947	31.74
310.161	-1.02
310.374	68.61
310.588	25.6
310.802	-60.42
311.016	50.18
311.23	-15.36
311.444	39.94
311.658	82.94
311.872	56.32
312.085	48.13
312.299	-23.55
312.513	52.22
312.727	-21.5
312.941	39.94
313.154	56.32
313.368	17.41
313.582	-7.17
313.796	31.74
314.009	99.33
314.223	23.55
314.437	72.7
314.651	-74.75
314.864	109.57
315.078	46.08
315.292	31.74
315.505	-17.41
315.719	44.03
315.933	-48.13
316.146	72.7
316.36	-15.36
316.573	27.65
316.787	23.55
317.001	84.99
317.214	37.89
317.428	70.65
317.641	-11.26
317.855	29.7
318.068	91.13
318.282	25.6
318.495	25.6
318.709	107.52
318.922	39.94
319.136	23.55
319.349	9.22
319.563	89.09
319.776	31.74
319.99	15.36
320.203	19.46
320.417	68.61
320.63	-9.22
320.843	50.18
321.057	27.65
321.27	33.79
321.483	-17.41
321.697	23.55
321.91	-37.89
322.124	37.89
322.337	97.28
322.55	37.89
322.763	72.7
322.977	19.46
323.19	-33.79
323.403	58.37
323.617	39.94
323.83	68.61
324.043	72.7
324.256	21.5
324.469	-1.02
324.683	91.13
324.896	3.07
325.109	52.22
325.322	37.89
325.535	66.56
325.748	44.03
325.962	-11.26
326.175	56.32
326.388	31.74
326.601	3.07
326.814	17.41
327.027	25.6
327.24	82.94
327.453	-1.02
327.666	31.74
327.879	56.32
328.092	35.84
328.305	72.7
328.518	-7.17
328.731	9.22
328.944	31.74
329.157	33.79
329.37	99.33
329.583	52.22
329.796	-17.41
330.009	41.98
330.222	54.27
330.435	68.61
330.648	39.94
330.861	33.79
331.073	46.08
331.286	66.56
331.499	21.5
331.712	52.22
331.925	15.36
332.138	9.22
332.35	13.31
332.563	37.89
332.776	66.56
332.989	31.74
333.202	19.46
333.414	1.02
333.627	3.07
333.84	80.89
334.053	78.85
334.265	3.07
334.478	48.13
334.691	-21.5
334.903	23.55
335.116	44.03
335.329	31.74
335.541	15.36
335.754	9.22
335.966	66.56
336.179	23.55
336.392	23.55
336.604	25.6
336.817	74.75
337.029	109.57
337.242	15.36
337.454	48.13
337.667	-7.17
337.88	52.22
338.092	48.13
338.305	13.31
338.517	58.37
338.729	50.18
338.942	17.41
339.154	109.57
339.367	-48.13
339.579	74.75
339.792	52.22
340.004	64.51
340.217	46.08
340.429	31.74
340.641	52.22
340.854	39.94
341.066	58.37
341.278	62.46
341.491	21.5
341.703	74.75
341.915	9.22
342.128	44.03
342.34	19.46
342.552	37.89
342.764	41.98
342.977	23.55
343.189	-7.17
343.401	50.18
343.613	-5.12
343.826	64.51
344.038	-27.65
344.25	39.94
344.462	-7.17
344.674	60.42
344.886	-48.13
345.099	25.6
345.311	23.55
345.523	3.07
345.735	7.17
345.947	25.6
346.159	-21.5
346.371	99.33
346.583	-39.94
346.795	35.84
347.007	31.74
347.219	46.08
347.431	-21.5
347.643	23.55
347.855	37.89
348.067	39.94
348.279	58.37
348.491	41.98
348.703	101.37
348.915	60.42
349.127	21.5
349.339	74.75
349.551	-17.41
349.763	35.84
349.975	70.65
350.187	23.55
350.399	60.42
350.61	21.5
350.822	56.32
351.034	31.74
351.246	132.09
351.458	82.94
351.669	68.61
351.881	31.74
352.093	78.85
352.305	25.6
352.517	132.09
352.728	80.89
352.94	41.98
353.152	84.99
353.363	52.22
353.575	58.37
353.787	41.98
353.999	-11.26
354.21	117.76
354.422	70.65
354.633	9.22
354.845	76.8
355.057	7.17
355.268	80.89
355.48	31.74
355.692	37.89
355.903	-37.89
356.115	50.18
356.326	99.33
356.538	23.55
356.749	70.65
356.961	17.41
357.172	58.37
357.384	-46.08
357.595	72.7
357.807	87.04
358.018	25.6
358.23	39.94
358.441	72.7
358.653	64.51
358.864	9.22
359.075	39.94
359.287	-9.22
359.498	9.22
359.709	-27.65
359.921	15.36
360.132	72.7
360.344	76.8
360.555	-3.07
360.766	-37.89
360.977	7.17
361.189	23.55
361.4	9.22
361.611	23.55
361.823	7.17
362.034	74.75
362.245	37.89
362.456	52.22
362.667	25.6
362.879	29.7
363.09	15.36
363.301	119.81
363.512	-25.6
363.723	35.84
363.935	-7.17
364.146	72.7
364.357	19.46
364.568	80.89
364.779	68.61
364.99	27.65
365.201	11.26
365.412	101.37
365.623	17.41
365.834	46.08
366.045	-15.36
366.256	107.52
366.467	56.32
366.678	27.65
366.889	23.55
367.1	-1.02
367.311	44.03
367.522	48.13
367.733	-25.6
367.944	17.41
368.155	1.02
368.366	29.7
368.577	48.13
368.788	-13.31
368.999	23.55
369.209	41.98
369.42	84.99
369.631	-37.89
369.842	23.55
370.053	58.37
370.264	76.8
370.474	87.04
370.685	66.56
370.896	64.51
371.107	1.02
371.317	64.51
371.528	11.26
371.739	128
371.95	66.56
372.16	13.31
372.371	23.55
372.582	21.5
372.792	76.8
373.003	119.81
373.214	39.94
373.424	-25.6
373.635	54.27
373.846	17.41
374.056	91.13
374.267	25.6
374.477	27.65
374.688	-7.17
374.898	56.32
375.109	64.51
375.319	-27.65
375.53	89.09
375.74	15.36
375.951	48.13
376.161	-37.89
376.372	82.94
376.582	-3.07
376.793	74.75
377.003	13.31
377.214	89.09
377.424	15.36
377.635	46.08
377.845	-5.12
378.055	25.6
378.266	37.89
378.476	44.03
378.686	-5.12
378.897	27.65
379.107	5.12
379.317	48.13
379.528	37.89
379.738	80.89
379.948	29.7
380.158	52.22
380.369	-13.31
380.579	64.51
380.789	13.31
380.999	91.13
381.21	84.99
381.42	64.51
381.63	15.36
381.84	23.55
382.05	11.26
382.261	21.5
382.471	64.51
382.681	21.5
382.891	48.13
383.101	23.55
383.311	-17.41
383.521	89.09
383.731	72.7
383.941	52.22
384.151	109.57
384.361	72.7
384.571	19.46
384.781	46.08
384.991	60.42
385.201	39.94
385.411	89.09
385.621	48.13
385.831	64.51
386.041	95.23
386.251	1.02
386.461	-11.26
386.671	27.65
386.881	17.41
387.091	56.32
387.301	80.89
387.511	-41.98
387.72	80.89
387.93	52.22
388.14	82.94
388.35	33.79
388.56	50.18
388.769	89.09
388.979	105.47
389.189	35.84
389.399	23.55
389.609	13.31
389.818	19.46
390.028	41.98
390.238	31.74
390.447	31.74
390.657	103.42
390.867	21.5
391.076	31.74
391.286	56.32
391.496	-27.65
391.705	74.75
391.915	58.37
392.125	117.76
392.334	46.08
392.544	21.5
392.753	56.32
392.963	56.32
393.172	66.56
393.382	39.94
393.591	82.94
393.801	89.09
394.01	50.18
394.22	46.08
394.429	56.32
394.639	58.37
394.848	15.36
395.058	1.02
395.267	80.89
395.477	97.28
395.686	109.57
395.895	31.74
396.105	115.71
396.314	72.7
396.524	146.43
396.733	76.8
396.942	50.18
397.152	19.46
397.361	97.28
397.57	46.08
397.78	72.7
397.989	72.7
398.198	93.18
398.407	-37.89
398.617	21.5
398.826	31.74
399.035	113.66
399.244	76.8
399.453	158.72
399.663	121.85
399.872	52.22
400.081	44.03
400.29	173.05
400.499	76.8
400.708	74.75
400.917	-5.12
401.127	54.27
401.336	39.94
401.545	54.27
401.754	31.74
401.963	23.55
402.172	48.13
402.381	89.09
402.59	23.55
402.799	101.37
403.008	89.09
403.217	97.28
403.426	101.37
403.635	76.8
403.844	115.71
404.053	66.56
404.262	97.28
404.471	162.81
404.68	168.96
404.888	50.18
405.097	91.13
405.306	123.9
405.515	119.81
405.724	84.99
405.933	148.48
406.142	97.28
406.35	152.57
406.559	146.43
406.768	89.09
406.977	25.6
407.185	134.14
407.394	113.66
407.603	68.61
407.812	177.15
408.02	105.47
408.229	121.85
408.438	171.01
408.646	154.62
408.855	142.33
409.064	166.91
409.272	130.05
409.481	132.09
409.69	134.14
409.898	156.67
410.107	193.53
410.315	226.3
410.524	214.01
410.733	181.25
410.941	203.77
411.15	211.96
411.358	222.2
411.567	244.73
411.775	156.67
411.984	271.36
412.192	181.25
412.401	224.25
412.609	289.79
412.818	320.51
413.026	314.36
413.234	287.74
413.443	244.73
413.651	332.79
413.86	340.99
414.068	416.76
414.276	359.42
414.485	361.47
414.693	422.91
414.901	396.28
415.11	355.32
415.318	398.33
415.526	402.43
415.734	424.95
415.943	451.58
416.151	482.3
416.359	474.1
416.567	533.5
416.776	506.87
416.984	537.59
417.192	531.45
417.4	594.93
417.608	566.26
417.817	719.86
418.025	617.46
418.233	660.47
418.441	693.24
418.649	676.85
418.857	779.25
419.065	742.39
419.273	654.33
419.481	750.58
419.689	756.72
419.897	850.93
420.105	938.99
420.313	883.7
420.521	914.42
420.729	922.61
420.937	959.47
421.145	967.67
421.353	1037.3
421.561	1121.26
421.769	1111.02
421.977	1227.76
422.185	1084.4
422.393	1233.9
422.601	1342.44
422.809	1330.16
423.017	1371.12
423.224	1283.05
423.432	1395.69
423.64	1399.79
423.848	1692.65
424.056	1504.23
424.263	1635.3
424.471	1602.54
424.679	1709.03
424.887	1774.56
425.094	1870.82
425.302	1795.04
425.51	1811.43
425.718	1944.55
425.925	1979.36
426.133	2063.33
426.341	2104.29
426.548	2296.8
426.756	2153.44
426.964	2261.98
427.171	2337.76
427.379	2464.73
427.586	2563.03
427.794	2567.13
428.001	2618.33
428.209	2825.17
428.417	2659.29
428.624	2841.56
428.832	2853.84
429.039	2843.6
429.247	2886.61
429.454	3242.96
429.662	3300.3
429.869	3097.55
430.076	3298.25
430.284	3294.16
430.491	3490.76
430.699	3558.35
430.906	3605.45
431.114	3582.92
431.321	3746.76
431.528	3965.89
431.736	4078.53
431.943	4295.61
432.15	4195.26
432.358	4139.97
432.565	4455.36
432.772	4406.2
432.979	4776.89
433.187	4709.3
433.394	4869.05
433.601	5225.39
433.808	5028.79
434.016	5082.03
434.223	5368.75
434.43	5612.46
434.637	5540.78
434.844	5860.26
435.052	6028.2
435.259	5940.13
435.466	5968.8
435.673	5866.41
435.88	6196.13
436.087	6753.18
436.294	6730.65
436.501	6497.18
436.708	6572.96
436.915	6638.49
437.122	7072.66
437.329	6962.07
437.537	7361.42
437.743	7625.61
437.95	7392.14
438.157	7760.78
438.364	8084.36
438.571	8018.82
438.778	7961.48
438.985	8770.43
439.192	8530.81
439.399	8795
439.606	8504.19
439.813	9143.16
440.02	9436.02
440.227	9274.23
440.433	9116.53
440.64	9491.31
440.847	9487.22
441.054	9706.35
441.261	10316.64
441.467	10281.83
441.674	10357.6
441.881	10943.32
442.088	10697.56
442.294	10605.41
442.501	11006.81
442.708	11246.42
442.914	11559.76
443.121	12225.35
443.328	11807.56
443.534	12542.78
443.741	12237.64
443.948	12075.85
444.154	12913.47
444.361	12706.62
444.568	12995.39
444.774	12935.99
444.981	13028.15
445.187	13450.03
445.394	14097.19
445.6	13951.79
445.807	15194.9
446.013	14394.15
446.22	14781.21
446.426	15379.22
446.633	15751.95
446.839	16059.15
447.046	15164.18
447.252	16405.25
447.459	16311.05
447.665	16352.01
447.871	17085.18
448.078	17525.49
448.284	16571.14
448.491	17193.72
448.697	17939.18
448.903	18012.91
449.11	18205.42
449.316	18068.2
449.522	18375.4
449.728	18795.23
449.935	18637.54
450.141	18914.02
450.347	19497.69
450.553	18658.02
450.76	18954.97
450.966	19473.11
451.172	19335.9
451.378	19976.91
451.584	19133.15
451.791	19950.29
451.997	19798.74
452.203	20382.41
452.409	20069.07
452.615	20247.24
452.821	19233.5
453.027	19223.26
453.233	20171.47
453.44	19360.47
453.646	19557.08
453.852	19567.32
454.058	19892.94
454.264	19116.76
454.47	19708.63
454.676	19165.92
454.882	20013.77
455.088	18293.48
455.294	18502.37
455.5	18696.93
455.705	18891.49
455.911	18328.3
456.117	17699.57
456.323	17709.81
456.529	16345.86
456.735	17318.65
456.941	16849.66
457.147	16755.46
457.352	16022.28
457.558	15829.77
457.764	15854.35
457.97	15600.4
458.176	15149.85
458.381	15389.46
458.587	14795.55
458.793	14584.61
458.999	13845.29
459.204	14947.1
459.41	14523.17
459.616	13464.37
459.821	13579.06
460.027	13536.05
460.233	13079.35
460.438	12540.74
460.644	12737.34
460.85	12024.65
461.055	12084.04
461.261	11993.93
461.466	10863.45
461.672	10740.57
461.878	11361.11
462.083	10752.86
462.289	10552.16
462.494	10412.9
462.7	9997.16
462.905	9585.52
463.111	10224.48
463.316	9997.16
463.522	9751.4
463.727	9911.14
463.932	9773.93
464.138	9767.79
464.343	9679.72
464.549	9558.89
464.754	9765.74
464.959	9585.52
465.165	9698.16
465.37	9186.16
465.575	9190.26
465.781	9581.42
465.986	9403.25
466.191	9087.86
466.397	8866.68
466.602	8598.4
466.807	8842.11
467.012	9042.81
467.218	8575.87
467.423	8575.87
467.628	8874.87
467.833	8977.27
468.038	8715.13
468.244	8586.11
468.449	8838.01
468.654	8381.31
468.859	8455.04
469.064	8311.68
469.269	8037.25
