Data from USB4F104151__180__13-59-01-831.txt Node

Date: Thu Mar 13 13:59:01 EDT 2025
User: louis
Spectrometer: USB4F10415
Trigger mode: 4
Integration Time (sec): 1.000000E-2
Scans to average: 1
Electric dark correction enabled: true
Nonlinearity correction enabled: false
Boxcar width: 0
XAxis mode: Wavelengths
Number of Pixels in Spectrum: 3648
>>>>>Begin Spectral Data<<<<<
178.204	-45.06
178.424	-45.06
178.644	-45.06
178.864	-102.4
179.084	-55.3
179.304	-40.96
179.524	49.15
179.744	-47.1
179.964	4.1
180.184	-47.1
180.404	8.19
180.624	28.67
180.844	-79.87
181.064	14.34
181.283	28.67
181.503	53.25
181.723	28.67
181.943	0
182.163	-10.24
182.383	-10.24
182.602	14.34
182.822	-10.24
183.042	-12.29
183.262	-24.58
183.482	16.38
183.701	-26.62
183.921	83.97
184.141	-34.82
184.361	71.68
184.58	-55.3
184.8	-32.77
185.02	18.43
185.239	-16.38
185.459	10.24
185.679	16.38
185.898	-16.38
186.118	20.48
186.338	-28.67
186.557	-10.24
186.777	32.77
186.997	86.01
187.216	28.67
187.436	51.2
187.655	75.77
187.875	0
188.095	-102.4
188.314	-32.77
188.534	61.44
188.753	6.14
188.973	-26.62
189.192	61.44
189.412	-30.72
189.631	10.24
189.851	26.62
190.07	-26.62
190.29	34.82
190.509	0
190.729	10.24
190.948	20.48
191.168	65.54
191.387	69.63
191.607	-2.05
191.826	-63.49
192.045	-6.14
192.265	-4.1
192.484	-12.29
192.704	-20.48
192.923	-22.53
193.142	79.87
193.362	-43.01
193.581	-4.1
193.8	-28.67
194.02	30.72
194.239	22.53
194.458	-4.1
194.678	-4.1
194.897	0
195.116	12.29
195.335	-24.58
195.555	-63.49
195.774	47.1
195.993	30.72
196.212	43.01
196.432	-16.38
196.651	-20.48
196.87	-71.68
197.089	26.62
197.308	36.86
197.528	51.2
197.747	38.91
197.966	-65.53
198.185	28.67
198.404	-20.48
198.623	-4.1
198.842	69.63
199.062	-28.67
199.281	16.38
199.5	18.43
199.719	36.86
199.938	-24.58
200.157	77.82
200.376	22.53
200.595	67.58
200.814	-40.96
201.033	30.72
201.252	49.15
201.471	-38.91
201.69	-34.82
201.909	-49.15
202.128	-20.48
202.347	-53.25
202.566	-12.29
202.785	-4.1
203.004	26.62
203.223	20.48
203.442	-26.62
203.661	20.48
203.879	22.53
204.098	34.82
204.317	-40.96
204.536	-22.53
204.755	38.91
204.974	45.06
205.193	28.67
205.411	6.14
205.63	-57.34
205.849	-26.62
206.068	49.15
206.287	34.82
206.505	-49.15
206.724	-36.86
206.943	28.67
207.162	-2.05
207.381	-10.24
207.599	-18.43
207.818	24.58
208.037	26.62
208.255	20.48
208.474	20.48
208.693	40.96
208.911	-4.1
209.13	49.15
209.349	4.1
209.567	65.54
209.786	14.34
210.005	12.29
210.223	10.24
210.442	-12.29
210.661	-28.67
210.879	-36.86
211.098	-18.43
211.316	14.34
211.535	86.01
211.753	30.72
211.972	-32.77
212.191	-43.01
212.409	18.43
212.628	-51.2
212.846	86.01
213.065	32.77
213.283	-8.19
213.502	53.25
213.72	49.15
213.938	-34.82
214.157	-12.29
214.375	20.48
214.594	-51.2
214.812	-30.72
215.031	43.01
215.249	-28.67
215.467	10.24
215.686	14.34
215.904	55.3
216.122	-8.19
216.341	24.58
216.559	67.58
216.778	24.58
216.996	51.2
217.214	4.1
217.432	20.48
217.651	116.73
217.869	-24.58
218.087	14.34
218.306	14.34
218.524	71.68
218.742	-20.48
218.96	4.1
219.179	49.15
219.397	12.29
219.615	20.48
219.833	4.1
220.051	-22.53
220.27	36.86
220.488	28.67
220.706	57.34
220.924	20.48
221.142	71.68
221.36	4.1
221.578	16.38
221.796	57.34
222.015	-55.3
222.233	8.19
222.451	83.97
222.669	-8.19
222.887	-20.48
223.105	0
223.323	-53.25
223.541	71.68
223.759	-16.38
223.977	-14.34
224.195	65.54
224.413	57.34
224.631	-10.24
224.849	26.62
225.067	0
225.285	-34.82
225.503	36.86
225.721	-45.06
225.939	20.48
226.157	4.1
226.375	10.24
226.592	-24.58
226.81	14.34
227.028	-45.06
227.246	0
227.464	81.92
227.682	55.3
227.9	61.44
228.117	-92.16
228.335	-10.24
228.553	14.34
228.771	16.38
228.989	-10.24
229.206	-65.53
229.424	32.77
229.642	-34.82
229.86	94.21
230.077	14.34
230.295	81.92
230.513	38.91
230.731	-40.96
230.948	61.44
231.166	-2.05
231.384	32.77
231.601	-2.05
231.819	53.25
232.037	32.77
232.254	2.05
232.472	16.38
232.689	45.06
232.907	-20.48
233.125	14.34
233.342	45.06
233.56	-4.1
233.777	-4.1
233.995	-6.14
234.213	4.1
234.43	51.2
234.648	-14.34
234.865	-40.96
235.083	16.38
235.3	6.14
235.518	36.86
235.735	22.53
235.953	30.72
236.17	63.49
236.388	-4.1
236.605	-12.29
236.822	20.48
237.04	26.62
237.257	12.29
237.475	22.53
237.692	67.58
237.909	88.06
238.127	-36.86
238.344	10.24
238.562	26.62
238.779	45.06
238.996	-18.43
239.214	38.91
239.431	0
239.648	-30.72
239.865	18.43
240.083	36.86
240.3	30.72
240.517	36.86
240.735	-2.05
240.952	16.38
241.169	-22.53
241.386	32.77
241.603	8.19
241.821	-6.14
242.038	10.24
242.255	69.63
242.472	12.29
242.689	28.67
242.907	100.35
243.124	45.06
243.341	16.38
243.558	12.29
243.775	-28.67
243.992	10.24
244.209	20.48
244.426	65.54
244.643	81.92
244.86	-8.19
245.078	59.39
245.295	10.24
245.512	112.64
245.729	38.91
245.946	4.1
246.163	49.15
246.38	43.01
246.597	28.67
246.814	38.91
247.031	53.25
247.248	45.06
247.464	79.87
247.681	-30.72
247.898	12.29
248.115	114.69
248.332	14.34
248.549	8.19
248.766	81.92
248.983	8.19
249.2	61.44
249.417	38.91
249.633	45.06
249.85	32.77
250.067	-8.19
250.284	0
250.501	22.53
250.717	30.72
250.934	4.1
251.151	53.25
251.368	-12.29
251.585	38.91
251.801	36.86
252.018	2.05
252.235	-16.38
252.451	108.54
252.668	51.2
252.885	-38.91
253.102	-36.86
253.318	12.29
253.535	34.82
253.752	22.53
253.968	51.2
254.185	43.01
254.401	-69.63
254.618	40.96
254.835	59.39
255.051	53.25
255.268	0
255.484	0
255.701	10.24
255.917	63.49
256.134	-2.05
256.351	-32.77
256.567	-18.43
256.784	-43.01
257	-16.38
257.217	-2.05
257.433	-36.86
257.65	8.19
257.866	-8.19
258.082	49.15
258.299	86.01
258.515	2.05
258.732	22.53
258.948	53.25
259.165	43.01
259.381	4.1
259.597	38.91
259.814	65.54
260.03	14.34
260.246	120.83
260.463	36.86
260.679	-20.48
260.895	28.67
261.112	10.24
261.328	-2.05
261.544	-12.29
261.761	32.77
261.977	14.34
262.193	-4.1
262.409	-18.43
262.626	6.14
262.842	57.34
263.058	137.21
263.274	20.48
263.49	73.73
263.707	-69.63
263.923	67.58
264.139	14.34
264.355	-8.19
264.571	-43.01
264.787	38.91
265.004	-12.29
265.22	65.54
265.436	49.15
265.652	6.14
265.868	38.91
266.084	-2.05
266.3	38.91
266.516	20.48
266.732	-86.01
266.948	77.82
267.164	61.44
267.38	-10.24
267.596	86.01
267.812	-6.14
268.028	28.67
268.244	20.48
268.46	59.39
268.676	-2.05
268.892	-12.29
269.108	24.58
269.324	53.25
269.54	-28.67
269.756	14.34
269.972	36.86
270.188	-51.2
270.403	0
270.619	-20.48
270.835	90.11
271.051	45.06
271.267	-20.48
271.483	34.82
271.698	4.1
271.914	6.14
272.13	-36.86
272.346	-18.43
272.562	32.77
272.777	28.67
272.993	14.34
273.209	18.43
273.425	14.34
273.64	-53.25
273.856	22.53
274.072	36.86
274.287	-6.14
274.503	-4.1
274.719	-2.05
274.934	-43.01
275.15	57.34
275.366	26.62
275.581	4.1
275.797	16.38
276.012	18.43
276.228	-36.86
276.444	63.49
276.659	28.67
276.875	-34.82
277.09	-12.29
277.306	36.86
277.521	-45.06
277.737	4.1
277.952	-24.58
278.168	36.86
278.383	61.44
278.599	-26.62
278.814	71.68
279.03	12.29
279.245	53.25
279.461	47.1
279.676	12.29
279.892	63.49
280.107	24.58
280.322	24.58
280.538	34.82
280.753	4.1
280.969	4.1
281.184	-2.05
281.399	53.25
281.615	36.86
281.83	63.49
282.045	30.72
282.26	40.96
282.476	-75.77
282.691	-4.1
282.906	24.58
283.122	-20.48
283.337	38.91
283.552	86.01
283.767	69.63
283.983	-26.62
284.198	14.34
284.413	51.2
284.628	-36.86
284.843	38.91
285.058	34.82
285.274	0
285.489	36.86
285.704	-28.67
285.919	18.43
286.134	14.34
286.349	40.96
286.564	28.67
286.779	4.1
286.995	51.2
287.21	14.34
287.425	0
287.64	24.58
287.855	47.1
288.07	16.38
288.285	49.15
288.5	34.82
288.715	81.92
288.93	24.58
289.145	10.24
289.36	26.62
289.575	-114.69
289.79	-26.62
290.004	0
290.219	94.21
290.434	-8.19
290.649	57.34
290.864	14.34
291.079	22.53
291.294	45.06
291.509	24.58
291.724	-10.24
291.938	8.19
292.153	49.15
292.368	57.34
292.583	14.34
292.798	-18.43
293.012	-75.77
293.227	0
293.442	22.53
293.657	-6.14
293.871	94.21
294.086	51.2
294.301	-30.72
294.516	61.44
294.73	159.74
294.945	30.72
295.16	-28.67
295.374	22.53
295.589	-34.82
295.804	63.49
296.018	24.58
296.233	96.25
296.447	47.1
296.662	18.43
296.877	36.86
297.091	-36.86
297.306	57.34
297.52	43.01
297.735	28.67
297.949	4.1
298.164	57.34
298.378	32.77
298.593	28.67
298.807	34.82
299.022	26.62
299.236	53.25
299.451	16.38
299.665	4.1
299.88	-14.34
300.094	36.86
300.309	26.62
300.523	36.86
300.737	75.77
300.952	90.11
301.166	65.54
301.381	63.49
301.595	10.24
301.809	38.91
302.024	-32.77
302.238	-40.96
302.452	94.21
302.667	116.73
302.881	43.01
303.095	57.34
303.309	69.63
303.524	-18.43
303.738	4.1
303.952	24.58
304.166	14.34
304.381	-26.62
304.595	28.67
304.809	57.34
305.023	22.53
305.237	22.53
305.452	36.86
305.666	71.68
305.88	67.58
306.094	83.97
306.308	16.38
306.522	30.72
306.736	-38.91
306.95	22.53
307.164	137.21
307.379	-53.25
307.593	0
307.807	40.96
308.021	-2.05
308.235	53.25
308.449	20.48
308.663	32.77
308.877	65.54
309.091	96.25
309.305	53.25
309.519	-53.25
309.733	61.44
309.947	-18.43
310.161	77.82
310.374	-6.14
310.588	-28.67
310.802	0
311.016	36.86
311.23	14.34
311.444	-18.43
311.658	22.53
311.872	53.25
312.085	-40.96
312.299	18.43
312.513	-22.53
312.727	63.49
312.941	-16.38
313.154	32.77
313.368	-2.05
313.582	30.72
313.796	16.38
314.009	14.34
314.223	36.86
314.437	10.24
314.651	100.35
314.864	20.48
315.078	63.49
315.292	32.77
315.505	-20.48
315.719	-8.19
315.933	28.67
316.146	77.82
316.36	-14.34
316.573	53.25
316.787	-12.29
317.001	86.01
317.214	49.15
317.428	18.43
317.641	20.48
317.855	36.86
318.068	2.05
318.282	-36.86
318.495	57.34
318.709	-10.24
318.922	34.82
319.136	-2.05
319.349	69.63
319.563	-22.53
319.776	59.39
319.99	-32.77
320.203	18.43
320.417	59.39
320.63	-43.01
320.843	-4.1
321.057	47.1
321.27	47.1
321.483	20.48
321.697	65.54
321.91	20.48
322.124	18.43
322.337	-18.43
322.55	100.35
322.763	45.06
322.977	55.3
323.19	-2.05
323.403	6.14
323.617	75.77
323.83	-18.43
324.043	86.01
324.256	6.14
324.469	-26.62
324.683	71.68
324.896	86.01
325.109	79.87
325.322	10.24
325.535	24.58
325.748	49.15
325.962	24.58
326.175	8.19
326.388	65.54
326.601	-6.14
326.814	71.68
327.027	20.48
327.24	4.1
327.453	-4.1
327.666	30.72
327.879	22.53
328.092	26.62
328.305	14.34
328.518	34.82
328.731	18.43
328.944	12.29
329.157	69.63
329.37	-43.01
329.583	-14.34
329.796	65.54
330.009	4.1
330.222	110.59
330.435	-49.15
330.648	14.34
330.861	69.63
331.073	45.06
331.286	-83.97
331.499	-12.29
331.712	26.62
331.925	65.54
332.138	57.34
332.35	69.63
332.563	-4.1
332.776	59.39
332.989	0
333.202	45.06
333.414	36.86
333.627	14.34
333.84	-20.48
334.053	-45.06
334.265	49.15
334.478	12.29
334.691	16.38
334.903	30.72
335.116	26.62
335.329	-2.05
335.541	22.53
335.754	-40.96
335.966	-20.48
336.179	69.63
336.392	-49.15
336.604	47.1
336.817	8.19
337.029	28.67
337.242	57.34
337.454	49.15
337.667	-4.1
337.88	55.3
338.092	26.62
338.305	18.43
338.517	-2.05
338.729	-8.19
338.942	8.19
339.154	-2.05
339.367	100.35
339.579	-10.24
339.792	-32.77
340.004	-2.05
340.217	96.25
340.429	12.29
340.641	24.58
340.854	-20.48
341.066	-45.06
341.278	38.91
341.491	28.67
341.703	-4.1
341.915	55.3
342.128	47.1
342.34	77.82
342.552	-10.24
342.764	55.3
342.977	-12.29
343.189	43.01
343.401	28.67
343.613	-16.38
343.826	73.73
344.038	24.58
344.25	28.67
344.462	-8.19
344.674	16.38
344.886	30.72
345.099	6.14
345.311	-6.14
345.523	28.67
345.735	-4.1
345.947	45.06
346.159	45.06
346.371	18.43
346.583	-2.05
346.795	12.29
347.007	22.53
347.219	6.14
347.431	49.15
347.643	55.3
347.855	8.19
348.067	0
348.279	83.97
348.491	51.2
348.703	24.58
348.915	4.1
349.127	53.25
349.339	57.34
349.551	106.49
349.763	69.63
349.975	18.43
350.187	71.68
350.399	-63.49
350.61	47.1
350.822	38.91
351.034	-12.29
351.246	2.05
351.458	-4.1
351.669	57.34
351.881	81.92
352.093	40.96
352.305	61.44
352.517	12.29
352.728	73.73
352.94	45.06
353.152	-8.19
353.363	14.34
353.575	104.45
353.787	38.91
353.999	-14.34
354.21	104.45
354.422	57.34
354.633	30.72
354.845	36.86
355.057	38.91
355.268	59.39
355.48	16.38
355.692	-22.53
355.903	36.86
356.115	63.49
356.326	40.96
356.538	43.01
356.749	32.77
356.961	94.21
357.172	45.06
357.384	16.38
357.595	81.92
357.807	65.54
358.018	53.25
358.23	16.38
358.441	8.19
358.653	65.54
358.864	63.49
359.075	-12.29
359.287	2.05
359.498	-49.15
359.709	-40.96
359.921	-18.43
360.132	79.87
360.344	-71.68
360.555	65.54
360.766	-49.15
360.977	86.01
361.189	26.62
361.4	49.15
361.611	77.82
361.823	22.53
362.034	4.1
362.245	-28.67
362.456	45.06
362.667	53.25
362.879	-16.38
363.09	28.67
363.301	77.82
363.512	-18.43
363.723	-4.1
363.935	79.87
364.146	86.01
364.357	26.62
364.568	8.19
364.779	28.67
364.99	-18.43
365.201	49.15
365.412	77.82
365.623	38.91
365.834	55.3
366.045	38.91
366.256	-10.24
366.467	45.06
366.678	28.67
366.889	24.58
367.1	96.25
367.311	110.59
367.522	51.2
367.733	43.01
367.944	51.2
368.155	4.1
368.366	-18.43
368.577	45.06
368.788	79.87
368.999	12.29
369.209	86.01
369.42	69.63
369.631	53.25
369.842	-18.43
370.053	22.53
370.264	-2.05
370.474	-8.19
370.685	20.48
370.896	69.63
371.107	20.48
371.317	139.26
371.528	-2.05
371.739	36.86
371.95	32.77
372.16	96.25
372.371	2.05
372.582	-12.29
372.792	45.06
373.003	24.58
373.214	53.25
373.424	12.29
373.635	30.72
373.846	12.29
374.056	16.38
374.267	30.72
374.477	53.25
374.688	36.86
374.898	-28.67
375.109	-2.05
375.319	-16.38
375.53	-12.29
375.74	45.06
375.951	38.91
376.161	20.48
376.372	116.73
376.582	45.06
376.793	81.92
377.003	22.53
377.214	53.25
377.424	96.25
377.635	61.44
377.845	2.05
378.055	59.39
378.266	104.45
378.476	49.15
378.686	12.29
378.897	45.06
379.107	92.16
379.317	32.77
379.528	32.77
379.738	79.87
379.948	12.29
380.158	88.06
380.369	38.91
380.579	2.05
380.789	-12.29
380.999	6.14
381.21	22.53
381.42	135.17
381.63	22.53
381.84	28.67
382.05	61.44
382.261	75.77
382.471	22.53
382.681	14.34
382.891	45.06
383.101	106.49
383.311	4.1
383.521	0
383.731	20.48
383.941	47.1
384.151	16.38
384.361	34.82
384.571	24.58
384.781	-4.1
384.991	12.29
385.201	67.58
385.411	-92.16
385.621	-20.48
385.831	34.82
386.041	88.06
386.251	22.53
386.461	57.34
386.671	34.82
386.881	86.01
387.091	28.67
387.301	28.67
387.511	8.19
387.72	51.2
387.93	-24.58
388.14	67.58
388.35	43.01
388.56	45.06
388.769	14.34
388.979	86.01
389.189	-53.25
389.399	104.45
389.609	-12.29
389.818	135.17
390.028	81.92
390.238	8.19
390.447	-90.11
390.657	-36.86
390.867	36.86
391.076	81.92
391.286	81.92
391.496	38.91
391.705	32.77
391.915	59.39
392.125	86.01
392.334	59.39
392.544	20.48
392.753	34.82
392.963	96.25
393.172	-10.24
393.382	-32.77
393.591	145.41
393.801	6.14
394.01	59.39
394.22	59.39
394.429	20.48
394.639	77.82
394.848	102.4
395.058	55.3
395.267	65.54
395.477	43.01
395.686	86.01
395.895	34.82
396.105	77.82
396.314	16.38
396.524	65.54
396.733	86.01
396.942	151.55
397.152	10.24
397.361	83.97
397.57	102.4
397.78	40.96
397.989	92.16
398.198	55.3
398.407	110.59
398.617	71.68
398.826	45.06
399.035	69.63
399.244	67.58
399.453	65.54
399.663	124.93
399.872	114.69
400.081	12.29
400.29	30.72
400.499	20.48
400.708	151.55
400.917	51.2
401.127	112.64
401.336	51.2
401.545	139.26
401.754	75.77
401.963	114.69
402.172	96.25
402.381	61.44
402.59	79.87
402.799	135.17
403.008	131.07
403.217	112.64
403.426	45.06
403.635	114.69
403.844	49.15
404.053	96.25
404.262	100.35
404.471	169.98
404.68	77.82
404.888	104.45
405.097	118.78
405.306	94.21
405.515	227.32
405.724	167.93
405.933	102.4
406.142	92.16
406.35	167.93
406.559	94.21
406.768	241.66
406.977	172.03
407.185	155.65
407.394	192.51
407.603	235.52
407.812	153.6
408.02	163.84
408.229	133.12
408.438	114.69
408.646	258.04
408.855	243.71
409.064	233.47
409.272	219.13
409.481	290.81
409.69	210.94
409.898	186.37
410.107	243.71
410.315	301.05
410.524	219.13
410.733	284.67
410.941	325.63
411.15	282.62
411.358	346.11
411.567	358.39
411.775	346.11
411.984	352.25
412.192	419.83
412.401	442.36
412.609	428.03
412.818	460.79
413.026	358.39
413.234	419.83
413.443	475.13
413.651	524.28
413.86	491.51
414.068	428.03
414.276	479.22
414.485	491.51
414.693	604.15
414.901	608.25
415.11	651.25
415.318	657.4
415.526	610.29
415.734	679.93
415.943	714.74
416.151	669.69
416.359	720.89
416.567	784.37
416.776	808.95
416.984	831.48
417.192	821.24
417.4	903.15
417.608	837.62
417.817	917.49
418.025	919.54
418.233	1026.03
418.441	1026.03
418.649	1011.7
418.857	1071.09
419.065	1126.38
419.273	1036.27
419.481	1165.29
419.689	1253.36
419.897	1312.75
420.105	1271.79
420.313	1378.28
420.521	1460.2
420.729	1441.77
420.937	1464.3
421.145	1517.54
421.353	1644.52
421.561	1703.91
421.769	1761.25
421.977	1748.97
422.185	1732.58
422.393	1865.7
422.601	2039.78
422.809	2045.92
423.017	2007.01
423.224	2140.13
423.432	2103.26
423.64	2099.17
423.848	2322.4
424.056	2326.49
424.263	2428.89
424.471	2508.76
424.679	2486.23
424.887	2652.12
425.094	2760.66
425.302	2850.77
425.51	2920.4
425.718	2979.79
425.925	2977.75
426.133	3129.3
426.341	3272.65
426.548	3383.24
426.756	3493.83
426.964	3442.64
427.171	3686.34
427.379	3698.63
427.586	3817.41
427.794	3954.63
428.001	4079.55
428.209	4153.28
428.417	4175.81
428.624	4546.49
428.832	4491.2
429.039	4544.44
429.247	4468.67
429.454	4853.69
429.662	5173.17
429.869	4927.41
430.076	5193.65
430.284	5058.48
430.491	5359.53
430.699	5683.11
430.906	5623.72
431.114	5656.49
431.321	6012.84
431.528	5918.63
431.736	6254.5
431.943	6614.94
432.15	6483.87
432.358	6637.47
432.565	6944.66
432.772	7088.02
432.979	7182.23
433.187	7368.59
433.394	7473.04
433.601	8023.94
433.808	7849.86
434.016	8052.61
434.223	8515.45
434.43	8859.51
434.637	8587.13
434.844	9142.13
435.052	9553.77
435.259	9371.5
435.466	9387.89
435.673	9092.98
435.88	9873.26
436.087	10119.01
436.294	10321.76
436.501	10012.52
436.708	10272.61
436.915	10467.17
437.122	11079.51
437.329	11114.33
437.537	11382.61
437.743	11599.69
437.95	11583.31
438.157	12148.55
438.364	12451.65
438.571	12521.28
438.778	12521.28
438.985	13752.11
439.192	13131.58
439.399	13788.97
439.606	13150.01
439.813	13995.82
440.02	14919.45
440.227	14583.59
440.433	14640.93
440.64	15066.91
440.847	14886.68
441.054	15261.46
441.261	16207.62
441.467	15939.34
441.674	16365.32
441.881	16752.38
442.088	16867.07
442.294	16711.42
442.501	17170.17
442.708	17557.24
442.914	18226.92
443.121	19226.33
443.328	18890.46
443.534	19807.95
443.741	19519.19
443.948	19166.94
444.154	20598.47
444.361	20412.1
444.568	20676.29
444.774	20563.65
444.981	20471.5
445.187	21165.76
445.394	21925.55
445.6	21911.22
445.807	23973.52
446.013	22949.54
446.22	23299.74
446.426	24573.58
446.633	24503.95
446.839	25331.33
447.046	24198.8
447.252	25499.26
447.459	25853.56
447.665	25382.52
447.871	26664.55
448.078	27829.85
448.284	26386.03
448.491	26990.18
448.697	27924.05
448.903	28563.02
449.11	28585.55
449.316	28374.61
449.522	28982.85
449.728	29439.55
449.935	29791.8
450.141	29980.21
450.347	30582.32
450.553	29292.1
450.76	29826.62
450.966	30844.46
451.172	30359.09
451.378	30987.82
451.584	30625.32
451.791	31317.54
451.997	31151.65
452.203	31645.21
452.409	31888.92
452.615	31536.67
452.821	30453.3
453.027	29888.06
453.233	31692.32
453.44	30563.89
453.646	30703.15
453.852	30987.82
454.058	31575.58
454.264	30531.12
454.47	30914.09
454.676	30275.12
454.882	31114.79
455.088	28505.68
455.294	28980.81
455.5	29296.19
455.705	29634.11
455.911	28577.36
456.117	27944.53
456.323	27666.01
456.529	25953.91
456.735	27573.85
456.941	26629.74
457.147	26334.83
457.352	25294.46
457.558	25286.27
457.764	24819.33
457.97	24923.78
458.176	24030.87
458.381	24413.84
458.587	22953.63
458.793	22965.92
458.999	21874.35
459.204	23436.95
459.41	22847.14
459.616	21014.21
459.821	21221.05
460.027	21278.4
460.233	20909.76
460.438	19726.03
460.644	20088.53
460.85	19039.97
461.055	18874.08
461.261	18628.32
461.466	17368.82
461.672	16998.14
461.878	18044.65
462.083	16748.29
462.289	16594.69
462.494	16574.21
462.7	15517.46
462.905	15384.34
463.111	15707.92
463.316	15937.29
463.522	15728.4
463.727	15726.35
463.932	15802.13
464.138	15472.4
464.343	15499.03
464.549	14933.79
464.754	15671.06
464.959	15306.52
465.165	15161.11
465.37	14755.61
465.575	14245.67
465.781	14886.68
465.986	14591.78
466.191	14386.98
466.397	14200.62
466.602	13410.1
466.807	13944.62
467.012	14044.97
467.218	13905.71
467.423	13532.98
467.628	13885.23
467.833	14219.05
468.038	13645.62
