Data from USB4F104151__185__13-59-07-310.txt Node

Date: Thu Mar 13 13:59:07 EDT 2025
User: louis
Spectrometer: USB4F10415
Trigger mode: 4
Integration Time (sec): 1.000000E-2
Scans to average: 1
Electric dark correction enabled: true
Nonlinearity correction enabled: false
Boxcar width: 0
XAxis mode: Wavelengths
Number of Pixels in Spectrum: 3648
>>>>>Begin Spectral Data<<<<<
178.204	-41.13
178.424	-41.13
178.644	-41.13
178.864	28.5
179.084	-80.04
179.304	38.74
179.524	-12.46
179.744	-6.31
179.964	-92.33
180.184	-30.89
180.404	38.74
180.624	16.21
180.844	57.17
181.064	-32.94
181.283	18.26
181.503	3.93
181.723	1.88
181.943	-4.27
182.163	12.12
182.383	-47.27
182.602	48.98
182.822	59.22
183.042	-0.17
183.262	-49.32
183.482	-20.65
183.701	42.84
183.921	16.21
184.141	-30.89
184.361	20.31
184.58	48.98
184.8	16.21
185.02	-6.31
185.239	44.88
185.459	137.04
185.679	46.93
185.898	8.02
186.118	48.98
186.338	18.26
186.557	89.94
186.777	40.79
186.997	44.88
187.216	16.21
187.436	57.17
187.655	3.93
187.875	46.93
188.095	30.55
188.314	94.04
188.534	36.69
188.753	65.36
188.973	57.17
189.192	24.4
189.412	98.13
189.631	46.93
189.851	1.88
190.07	85.84
190.29	-0.17
190.509	8.02
190.729	40.79
190.948	59.22
191.168	46.93
191.387	38.74
191.607	71.51
191.826	32.6
192.045	12.12
192.265	12.12
192.484	-18.6
192.704	55.12
192.923	-37.03
193.142	32.6
193.362	22.36
193.581	98.13
193.8	55.12
194.02	-49.32
194.239	-22.7
194.458	30.55
194.678	-24.75
194.897	65.36
195.116	-8.36
195.335	3.93
195.555	-10.41
195.774	14.17
195.993	53.08
196.212	30.55
196.432	75.6
196.651	-14.51
196.87	-8.36
197.089	51.03
197.308	65.36
197.528	18.26
197.747	46.93
197.966	83.8
198.185	14.17
198.404	24.4
198.623	36.69
198.842	44.88
199.062	53.08
199.281	118.61
199.5	-10.41
199.719	-4.27
199.938	38.74
200.157	40.79
200.376	34.64
200.595	36.69
200.814	8.02
201.033	42.84
201.252	-6.31
201.471	22.36
201.69	77.65
201.909	38.74
202.128	40.79
202.347	71.51
202.566	51.03
202.785	-6.31
203.004	-16.55
203.223	18.26
203.442	-2.22
203.661	34.64
203.879	44.88
204.098	87.89
204.317	-6.31
204.536	-63.66
204.755	8.02
204.974	59.22
205.193	-0.17
205.411	63.32
205.63	-0.17
205.849	83.8
206.068	28.5
206.287	-0.17
206.505	32.6
206.724	3.93
206.943	44.88
207.162	48.98
207.381	12.12
207.599	65.36
207.818	3.93
208.037	34.64
208.255	46.93
208.474	8.02
208.693	16.21
208.911	53.08
209.13	81.75
209.349	77.65
209.567	-12.46
209.786	20.31
210.005	32.6
210.223	36.69
210.442	-37.03
210.661	24.4
210.879	38.74
211.098	-80.04
211.316	73.56
211.535	55.12
211.753	-6.31
211.972	48.98
212.191	32.6
212.409	57.17
212.628	20.31
212.846	79.7
213.065	5.97
213.283	53.08
213.502	71.51
213.72	44.88
213.938	12.12
214.157	46.93
214.375	89.94
214.594	-16.55
214.812	1.88
215.031	24.4
215.249	-12.46
215.467	32.6
215.686	77.65
215.904	12.12
216.122	22.36
216.341	5.97
216.559	3.93
216.778	20.31
216.996	87.89
217.214	3.93
217.432	-22.7
217.651	22.36
217.869	14.17
218.087	34.64
218.306	51.03
218.524	63.32
218.742	57.17
218.96	110.42
219.179	34.64
219.397	16.21
219.615	96.08
219.833	32.6
220.051	18.26
220.27	81.75
220.488	40.79
220.706	24.4
220.924	3.93
221.142	46.93
221.36	10.07
221.578	24.4
221.796	-51.37
222.015	51.03
222.233	-2.22
222.451	16.21
222.669	8.02
222.887	24.4
223.105	12.12
223.323	77.65
223.541	42.84
223.759	-10.41
223.977	96.08
224.195	-43.18
224.413	48.98
224.631	-30.89
224.849	32.6
225.067	28.5
225.285	-12.46
225.503	51.03
225.721	-16.55
225.939	42.84
226.157	40.79
226.375	22.36
226.592	-28.84
226.81	8.02
227.028	61.27
227.246	51.03
227.464	3.93
227.682	18.26
227.9	-4.27
228.117	32.6
228.335	73.56
228.553	-57.51
228.771	106.32
228.989	53.08
229.206	-20.65
229.424	51.03
229.642	-47.27
229.86	3.93
230.077	5.97
230.295	-20.65
230.513	30.55
230.731	-14.51
230.948	81.75
231.166	8.02
231.384	10.07
231.601	85.84
231.819	79.7
232.037	10.07
232.254	-24.75
232.472	34.64
232.689	-20.65
232.907	57.17
233.125	75.6
233.342	40.79
233.56	69.46
233.777	-0.17
233.995	3.93
234.213	57.17
234.43	30.55
234.648	-47.27
234.865	26.45
235.083	36.69
235.3	53.08
235.518	32.6
235.735	-6.31
235.953	5.97
236.17	-4.27
236.388	42.84
236.605	46.93
236.822	-6.31
237.04	36.69
237.257	-8.36
237.475	-0.17
237.692	-6.31
237.909	63.32
238.127	91.99
238.344	42.84
238.562	-12.46
238.779	71.51
238.996	16.21
239.214	-26.79
239.431	44.88
239.648	48.98
239.865	44.88
240.083	65.36
240.3	-6.31
240.517	-8.36
240.735	40.79
240.952	83.8
241.169	61.27
241.386	12.12
241.603	-6.31
241.821	-30.89
242.038	-41.13
242.255	30.55
242.472	18.26
242.689	91.99
242.907	73.56
243.124	14.17
243.341	73.56
243.558	-6.31
243.775	98.13
243.992	3.93
244.209	34.64
244.426	53.08
244.643	12.12
244.86	22.36
245.078	44.88
245.295	32.6
245.512	61.27
245.729	12.12
245.946	59.22
246.163	53.08
246.38	-14.51
246.597	79.7
246.814	57.17
247.031	10.07
247.248	18.26
247.464	71.51
247.681	18.26
247.898	5.97
248.115	85.84
248.332	-61.61
248.549	28.5
248.766	12.12
248.983	28.5
249.2	42.84
249.417	48.98
249.633	-6.31
249.85	-4.27
250.067	65.36
250.284	30.55
250.501	65.36
250.717	81.75
250.934	-10.41
251.151	-26.79
251.368	71.51
251.585	42.84
251.801	67.41
252.018	42.84
252.235	-26.79
252.451	18.26
252.668	-6.31
252.885	53.08
253.102	55.12
253.318	73.56
253.535	89.94
253.752	14.17
253.968	5.97
254.185	46.93
254.401	-39.08
254.618	32.6
254.835	3.93
255.051	106.32
255.268	-12.46
255.484	71.51
255.701	5.97
255.917	16.21
256.134	26.45
256.351	-0.17
256.567	87.89
256.784	69.46
257	5.97
257.217	53.08
257.433	48.98
257.65	-20.65
257.866	18.26
258.082	48.98
258.299	20.31
258.515	30.55
258.732	59.22
258.948	28.5
259.165	112.47
259.381	34.64
259.597	26.45
259.814	85.84
260.03	46.93
260.246	22.36
260.463	87.89
260.679	-10.41
260.895	48.98
261.112	89.94
261.328	24.4
261.544	32.6
261.761	40.79
261.977	36.69
262.193	46.93
262.409	30.55
262.626	-14.51
262.842	42.84
263.058	-8.36
263.274	22.36
263.49	34.64
263.707	40.79
263.923	83.8
264.139	24.4
264.355	24.4
264.571	34.64
264.787	1.88
265.004	-0.17
265.22	65.36
265.436	-16.55
265.652	65.36
265.868	3.93
266.084	38.74
266.3	63.32
266.516	-12.46
266.732	89.94
266.948	71.51
267.164	73.56
267.38	26.45
267.596	-2.22
267.812	24.4
268.028	42.84
268.244	44.88
268.46	-37.03
268.676	69.46
268.892	108.37
269.108	36.69
269.324	67.41
269.54	-8.36
269.756	71.51
269.972	12.12
270.188	53.08
270.403	44.88
270.619	20.31
270.835	-4.27
271.051	104.28
271.267	-32.94
271.483	-0.17
271.698	24.4
271.914	65.36
272.13	24.4
272.346	55.12
272.562	-10.41
272.777	51.03
272.993	-12.46
273.209	10.07
273.425	-6.31
273.64	34.64
273.856	34.64
274.072	-24.75
274.287	-26.79
274.503	44.88
274.719	100.18
274.934	34.64
275.15	48.98
275.366	12.12
275.581	-6.31
275.797	57.17
276.012	110.42
276.228	26.45
276.444	-22.7
276.659	26.45
276.875	-30.89
277.09	51.03
277.306	34.64
277.521	-30.89
277.737	-8.36
277.952	-39.08
278.168	3.93
278.383	12.12
278.599	-43.18
278.814	-14.51
279.03	51.03
279.245	79.7
279.461	53.08
279.676	14.17
279.892	30.55
280.107	32.6
280.322	65.36
280.538	44.88
280.753	18.26
280.969	18.26
281.184	59.22
281.399	32.6
281.615	69.46
281.83	28.5
282.045	-28.84
282.26	26.45
282.476	-30.89
282.691	-24.75
282.906	48.98
283.122	18.26
283.337	73.56
283.552	40.79
283.767	48.98
283.983	20.31
284.198	16.21
284.413	61.27
284.628	-6.31
284.843	67.41
285.058	-53.42
285.274	5.97
285.489	73.56
285.704	67.41
285.919	26.45
286.134	12.12
286.349	28.5
286.564	12.12
286.779	-14.51
286.995	26.45
287.21	-10.41
287.425	57.17
287.64	16.21
287.855	106.32
288.07	-37.03
288.285	40.79
288.5	57.17
288.715	-16.55
288.93	65.36
289.145	18.26
289.36	32.6
289.575	42.84
289.79	20.31
290.004	28.5
290.219	8.02
290.434	44.88
290.649	14.17
290.864	34.64
291.079	63.32
291.294	51.03
291.509	94.04
291.724	-22.7
291.938	20.31
292.153	-2.22
292.368	38.74
292.583	89.94
292.798	69.46
293.012	81.75
293.227	61.27
293.442	28.5
293.657	3.93
293.871	38.74
294.086	-14.51
294.301	38.74
294.516	16.21
294.73	8.02
294.945	-53.42
295.16	24.4
295.374	55.12
295.589	65.36
295.804	61.27
296.018	-2.22
296.233	61.27
296.447	16.21
296.662	22.36
296.877	-14.51
297.091	48.98
297.306	46.93
297.52	51.03
297.735	30.55
297.949	81.75
298.164	26.45
298.378	-34.99
298.593	44.88
298.807	36.69
299.022	69.46
299.236	57.17
299.451	3.93
299.665	108.37
299.88	30.55
300.094	59.22
300.309	57.17
300.523	79.7
300.737	57.17
300.952	16.21
301.166	46.93
301.381	-32.94
301.595	28.5
301.809	-0.17
302.024	63.32
302.238	-0.17
302.452	102.23
302.667	46.93
302.881	73.56
303.095	-0.17
303.309	8.02
303.524	8.02
303.738	16.21
303.952	30.55
304.166	63.32
304.381	-22.7
304.595	24.4
304.809	18.26
305.023	46.93
305.237	18.26
305.452	14.17
305.666	24.4
305.88	38.74
306.094	81.75
306.308	59.22
306.522	-18.6
306.736	79.7
306.95	79.7
307.164	81.75
307.379	30.55
307.593	12.12
307.807	55.12
308.021	110.42
308.235	32.6
308.449	10.07
308.663	36.69
308.877	-0.17
309.091	28.5
309.305	48.98
309.519	108.37
309.733	57.17
309.947	94.04
310.161	-24.75
310.374	36.69
310.588	67.41
310.802	-18.6
311.016	65.36
311.23	-8.36
311.444	24.4
311.658	14.17
311.872	67.41
312.085	57.17
312.299	8.02
312.513	-6.31
312.727	-10.41
312.941	69.46
313.154	48.98
313.368	48.98
313.582	63.32
313.796	42.84
314.009	36.69
314.223	40.79
314.437	32.6
314.651	30.55
314.864	63.32
315.078	69.46
315.292	40.79
315.505	20.31
315.719	57.17
315.933	-18.6
316.146	14.17
316.36	51.03
316.573	59.22
316.787	65.36
317.001	75.6
317.214	3.93
317.428	51.03
317.641	-0.17
317.855	18.26
318.068	-30.89
318.282	57.17
318.495	30.55
318.709	48.98
318.922	16.21
319.136	67.41
319.349	94.04
319.563	14.17
319.776	139.09
319.99	65.36
320.203	126.8
320.417	85.84
320.63	116.56
320.843	-22.7
321.057	14.17
321.27	91.99
321.483	57.17
321.697	42.84
321.91	-14.51
322.124	36.69
322.337	20.31
322.55	87.89
322.763	-12.46
322.977	73.56
323.19	-16.55
323.403	-24.75
323.617	28.5
323.83	20.31
324.043	36.69
324.256	42.84
324.469	-18.6
324.683	8.02
324.896	16.21
325.109	12.12
325.322	-6.31
325.535	96.08
325.748	34.64
325.962	12.12
326.175	94.04
326.388	24.4
326.601	73.56
326.814	36.69
327.027	44.88
327.24	-8.36
327.453	26.45
327.666	61.27
327.879	32.6
328.092	10.07
328.305	46.93
328.518	14.17
328.731	57.17
328.944	48.98
329.157	42.84
329.37	83.8
329.583	89.94
329.796	94.04
330.009	34.64
330.222	61.27
330.435	20.31
330.648	65.36
330.861	53.08
331.073	40.79
331.286	-26.79
331.499	104.28
331.712	26.45
331.925	3.93
332.138	137.04
332.35	38.74
332.563	38.74
332.776	40.79
332.989	75.6
333.202	57.17
333.414	89.94
333.627	-16.55
333.84	-16.55
334.053	42.84
334.265	57.17
334.478	44.88
334.691	-0.17
334.903	42.84
335.116	32.6
335.329	-6.31
335.541	89.94
335.754	28.5
335.966	59.22
336.179	-4.27
336.392	34.64
336.604	24.4
336.817	-4.27
337.029	98.13
337.242	46.93
337.454	55.12
337.667	73.56
337.88	77.65
338.092	16.21
338.305	63.32
338.517	28.5
338.729	83.8
338.942	61.27
339.154	10.07
339.367	-4.27
339.579	32.6
339.792	67.41
340.004	61.27
340.217	53.08
340.429	69.46
340.641	73.56
340.854	59.22
341.066	65.36
341.278	42.84
341.491	55.12
341.703	32.6
341.915	24.4
342.128	28.5
342.34	-2.22
342.552	83.8
342.764	-0.17
342.977	71.51
343.189	16.21
343.401	24.4
343.613	46.93
343.826	44.88
344.038	83.8
344.25	112.47
344.462	-12.46
344.674	89.94
344.886	40.79
345.099	36.69
345.311	96.08
345.523	91.99
345.735	61.27
345.947	100.18
346.159	83.8
346.371	55.12
346.583	-30.89
346.795	75.6
347.007	79.7
347.219	77.65
347.431	53.08
347.643	24.4
347.855	12.12
348.067	34.64
348.279	48.98
348.491	116.56
348.703	3.93
348.915	-18.6
349.127	61.27
349.339	96.08
349.551	55.12
349.763	108.37
349.975	-4.27
350.187	132.95
350.399	81.75
350.61	61.27
350.822	24.4
351.034	3.93
351.246	-18.6
351.458	40.79
351.669	55.12
351.881	38.74
352.093	-20.65
352.305	26.45
352.517	104.28
352.728	85.84
352.94	40.79
353.152	118.61
353.363	3.93
353.575	48.98
353.787	28.5
353.999	34.64
354.21	77.65
354.422	48.98
354.633	-34.99
354.845	46.93
355.057	91.99
355.268	32.6
355.48	53.08
355.692	53.08
355.903	42.84
356.115	40.79
356.326	16.21
356.538	61.27
356.749	48.98
356.961	32.6
357.172	28.5
357.384	77.65
357.595	28.5
357.807	53.08
358.018	77.65
358.23	79.7
358.441	106.32
358.653	71.51
358.864	48.98
359.075	-49.32
359.287	40.79
359.498	71.51
359.709	40.79
359.921	8.02
360.132	53.08
360.344	36.69
360.555	32.6
360.766	77.65
360.977	51.03
361.189	106.32
361.4	59.22
361.611	16.21
361.823	63.32
362.034	8.02
362.245	87.89
362.456	20.31
362.667	75.6
362.879	71.51
363.09	63.32
363.301	42.84
363.512	48.98
363.723	16.21
363.935	5.97
364.146	-12.46
364.357	55.12
364.568	87.89
364.779	83.8
364.99	65.36
365.201	36.69
365.412	91.99
365.623	-2.22
365.834	34.64
366.045	26.45
366.256	20.31
366.467	42.84
366.678	40.79
366.889	-26.79
367.1	81.75
367.311	-16.55
367.522	46.93
367.733	24.4
367.944	59.22
368.155	46.93
368.366	57.17
368.577	26.45
368.788	20.31
368.999	67.41
369.209	44.88
369.42	20.31
369.631	67.41
369.842	28.5
370.053	38.74
370.264	81.75
370.474	24.4
370.685	-20.65
370.896	67.41
371.107	26.45
371.317	48.98
371.528	12.12
371.739	120.66
371.95	5.97
372.16	42.84
372.371	57.17
372.582	114.52
372.792	42.84
373.003	98.13
373.214	34.64
373.424	30.55
373.635	-47.27
373.846	83.8
374.056	10.07
374.267	10.07
374.477	34.64
374.688	48.98
374.898	51.03
375.109	46.93
375.319	57.17
375.53	48.98
375.74	73.56
375.951	-32.94
376.161	-24.75
376.372	81.75
376.582	55.12
376.793	65.36
377.003	51.03
377.214	16.21
377.424	8.02
377.635	69.46
377.845	81.75
378.055	65.36
378.266	91.99
378.476	32.6
378.686	55.12
378.897	20.31
379.107	46.93
379.317	143.19
379.528	59.22
379.738	91.99
379.948	53.08
380.158	51.03
380.369	106.32
380.579	71.51
380.789	73.56
380.999	16.21
381.21	98.13
381.42	71.51
381.63	59.22
381.84	114.52
382.05	87.89
382.261	135
382.471	104.28
382.681	71.51
382.891	57.17
383.101	46.93
383.311	122.71
383.521	77.65
383.731	42.84
383.941	65.36
384.151	75.6
384.361	53.08
384.571	124.76
384.781	24.4
384.991	130.9
385.201	139.09
385.411	44.88
385.621	57.17
385.831	110.42
386.041	-6.31
386.251	34.64
386.461	94.04
386.671	8.02
386.881	79.7
387.091	24.4
387.301	59.22
387.511	-24.75
387.72	132.95
387.93	-4.27
388.14	120.66
388.35	79.7
388.56	55.12
388.769	124.76
388.979	44.88
389.189	69.46
389.399	73.56
389.609	112.47
389.818	65.36
390.028	81.75
390.238	108.37
390.447	36.69
390.657	85.84
390.867	48.98
391.076	122.71
391.286	63.32
391.496	59.22
391.705	57.17
391.915	20.31
392.125	65.36
392.334	42.84
392.544	61.27
392.753	67.41
392.963	77.65
393.172	141.14
393.382	32.6
393.591	69.46
393.801	10.07
394.01	61.27
394.22	155.47
394.429	100.18
394.639	57.17
394.848	71.51
395.058	81.75
395.267	143.19
395.477	69.46
395.686	112.47
395.895	139.09
396.105	122.71
396.314	85.84
396.524	106.32
396.733	63.32
396.942	116.56
397.152	-20.65
397.361	59.22
397.57	57.17
397.78	59.22
397.989	132.95
398.198	153.43
398.407	110.42
398.617	59.22
398.826	100.18
399.035	89.94
399.244	118.61
399.453	87.89
399.663	63.32
399.872	81.75
400.081	24.4
400.29	139.09
400.499	28.5
400.708	200.53
400.917	83.8
401.127	141.14
401.336	118.61
401.545	157.52
401.754	57.17
401.963	20.31
402.172	143.19
402.381	204.63
402.59	116.56
402.799	124.76
403.008	165.71
403.217	108.37
403.426	141.14
403.635	57.17
403.844	69.46
404.053	110.42
404.262	106.32
404.471	169.81
404.68	77.65
404.888	100.18
405.097	159.57
405.306	182.1
405.515	139.09
405.724	79.7
405.933	130.9
406.142	182.1
406.35	188.24
406.559	98.13
406.768	231.25
406.977	241.49
407.185	229.2
407.394	167.76
407.603	178
407.812	165.71
408.02	200.53
408.229	198.48
408.438	212.82
408.646	196.43
408.855	229.2
409.064	188.24
409.272	198.48
409.481	292.69
409.69	239.44
409.898	255.83
410.107	223.06
410.315	233.3
410.524	311.12
410.733	321.36
410.941	241.49
411.15	294.74
411.358	311.12
411.567	331.6
411.775	350.03
411.984	350.03
412.192	360.27
412.401	458.57
412.609	436.05
412.818	434
413.026	466.77
413.234	438.09
413.443	493.39
413.651	479.05
413.86	485.2
414.068	552.78
414.276	575.31
414.485	528.21
414.693	573.26
414.901	603.98
415.11	649.04
415.318	606.03
415.526	667.47
415.734	741.19
415.943	747.34
416.151	689.99
416.359	814.92
416.567	810.82
416.776	843.59
416.984	847.69
417.192	923.46
417.4	880.46
417.608	864.07
417.817	925.51
418.025	1011.53
418.233	1040.2
418.441	1068.87
418.649	1064.77
418.857	1177.41
419.065	1197.89
419.273	1118.02
419.481	1234.75
419.689	1253.19
419.897	1331.01
420.105	1410.88
420.313	1380.16
420.521	1449.79
420.729	1457.98
420.937	1582.91
421.145	1589.05
421.353	1603.39
421.561	1744.7
421.769	1685.31
421.977	1836.86
422.185	1759.03
422.393	1890.1
422.601	2033.46
422.809	2035.51
423.017	1992.5
423.224	2146.1
423.432	2055.99
423.64	2228.02
423.848	2400.05
424.056	2391.86
424.263	2490.16
424.471	2545.45
424.679	2615.09
424.887	2670.38
425.094	2740.01
425.302	2830.12
425.51	2889.51
425.718	2961.19
425.925	3069.73
426.133	3106.6
426.341	3491.62
426.548	3462.94
426.756	3448.61
426.964	3491.62
427.171	3755.8
427.379	3862.3
427.586	3921.69
427.794	3942.17
428.001	4146.97
428.209	4353.81
428.417	4265.75
428.624	4579.09
428.832	4550.42
429.039	4581.14
429.247	4521.74
429.454	5152.52
429.662	5224.2
429.869	5062.41
430.076	5293.83
430.284	5095.18
430.491	5265.16
430.699	5811.96
430.906	5551.87
431.114	5773.05
431.321	6067.96
431.528	5996.28
431.736	6498.03
431.943	6690.54
432.15	6487.79
432.358	6743.79
432.565	6944.49
432.772	6952.68
432.979	7333.61
433.187	7452.39
433.394	7425.76
433.601	7962.33
433.808	8060.63
434.016	7927.52
434.223	8468.18
434.43	8789.71
434.637	8668.88
434.844	9184.97
435.052	9567.94
435.259	9301.7
435.466	9338.57
435.673	9316.04
435.88	9803.46
436.087	10436.28
436.294	10559.16
436.501	10247.86
436.708	10399.41
436.915	10684.08
437.122	11097.77
437.329	11282.09
437.537	11591.33
437.743	11982.49
437.95	11628.2
438.157	12189.34
438.364	12709.52
438.571	12697.24
438.778	12734.1
438.985	13751.94
439.192	13246.09
439.399	13866.63
439.606	13442.7
439.813	14106.24
440.02	15261.29
440.227	14855.79
440.433	14714.48
440.64	15273.58
440.847	15007.34
441.054	15597.16
441.261	16326.24
441.467	16311.9
441.674	16694.87
441.881	17149.52
442.088	17088.08
442.294	16877.14
442.501	17460.81
442.708	17825.35
442.914	18202.18
443.121	19134
443.328	18632.25
443.534	19910.18
443.741	19387.95
443.948	19412.53
444.154	20702.75
444.361	20614.68
444.568	20543
444.774	20878.87
444.981	20483.61
445.187	21440.01
445.394	22519.29
445.6	22175.23
445.807	24118.76
446.013	23262.71
446.22	23737.84
446.426	24774.11
446.633	24942.04
446.839	25677.26
447.046	24778.2
447.252	26158.53
447.459	26193.35
447.665	25931.21
447.871	27082.17
448.078	27987.37
448.284	26662.33
448.491	27583.92
448.697	28511.65
448.903	29289.88
449.11	28972.44
449.316	28747.17
449.522	29490.58
449.728	30135.69
449.935	30438.79
450.141	30485.89
450.347	31223.16
450.553	30023.05
450.76	30350.73
450.966	31440.25
451.172	30805.38
451.378	32011.63
451.584	31067.52
451.791	31849.84
451.997	32226.67
452.203	32662.88
452.409	32195.95
452.615	32497
452.821	31241.59
453.027	30887.29
453.233	32302.44
453.44	30987.64
453.646	31292.79
453.852	31802.74
454.058	32275.82
454.264	31118.71
454.47	31808.88
454.676	30848.38
454.882	31939.95
455.088	29484.44
455.294	29519.25
455.5	30188.94
455.705	30735.74
455.911	29265.3
456.117	28945.82
456.323	28196.26
456.529	26662.33
456.735	28063.15
456.941	27168.18
457.147	26924.47
457.352	26072.52
457.558	25890.25
457.764	25859.53
457.97	25112.02
458.176	24866.27
458.381	24923.61
458.587	23725.55
458.793	23649.77
458.999	22400.51
459.204	23961.06
459.41	23522.8
459.616	21816.84
459.821	22013.45
460.027	21802.5
460.233	21175.83
460.438	20577.82
460.644	20479.52
460.85	19865.13
461.055	18953.78
461.261	19031.6
461.466	17972.8
461.672	17233.49
461.878	18837.05
462.083	17339.98
462.289	17145.42
462.494	16983.63
462.7	16117.34
462.905	16082.53
463.111	16238.17
463.316	16580.18
463.522	15984.23
463.727	16182.88
463.932	16004.71
464.138	15734.37
464.343	15933.03
464.549	15298.16
464.754	15965.79
464.959	15789.67
465.165	15574.63
465.37	15189.61
465.575	14605.94
465.781	15210.09
465.986	15179.37
466.191	14634.61
466.397	14423.67
466.602	13772.42
466.807	14290.56
467.012	14345.85
467.218	14253.69
467.423	13981.31
467.628	14171.77
467.833	14855.79
468.038	14296.7
468.244	13735.56
