Data from USB4F104151__128__13-57-58-638.txt Node

Date: Thu Mar 13 13:57:58 EDT 2025
User: louis
Spectrometer: USB4F10415
Trigger mode: 4
Integration Time (sec): 1.000000E-2
Scans to average: 1
Electric dark correction enabled: true
Nonlinearity correction enabled: false
Boxcar width: 0
XAxis mode: Wavelengths
Number of Pixels in Spectrum: 3648
>>>>>Begin Spectral Data<<<<<
178.204	-80.72
178.424	-80.72
178.644	-80.72
178.864	-95.06
179.084	-7
179.304	-19.29
179.524	-19.29
179.744	11.43
179.964	-33.62
180.184	-37.72
180.404	21.67
180.624	19.63
180.844	13.48
181.064	13.48
181.283	7.34
181.503	-29.52
181.723	52.39
181.943	-2.9
182.163	23.72
182.383	-52.05
182.602	-0.85
182.822	70.83
183.042	-7
183.262	58.54
183.482	79.02
183.701	50.35
183.921	29.87
184.141	29.87
184.361	13.48
184.58	-37.72
184.8	3.24
185.02	50.35
185.239	132.26
185.459	1.19
185.679	36.01
185.898	105.64
186.118	33.96
186.338	-4.95
186.557	23.72
186.777	44.2
186.997	46.25
187.216	17.58
187.436	74.92
187.655	-2.9
187.875	87.21
188.095	-64.34
188.314	23.72
188.534	-11.09
188.753	27.82
188.973	-11.09
189.192	-23.38
189.412	-27.48
189.631	31.91
189.851	-27.48
190.07	-0.85
190.29	3.24
190.509	-95.06
190.729	25.77
190.948	50.35
191.168	48.3
191.387	36.01
191.607	-60.24
191.826	5.29
192.045	-41.81
192.265	44.2
192.484	-21.33
192.704	11.43
192.923	-9.05
193.142	38.06
193.362	25.77
193.581	-19.29
193.8	1.19
194.02	1.19
194.239	66.73
194.458	1.19
194.678	19.63
194.897	19.63
195.116	-9.05
195.335	50.35
195.555	-31.57
195.774	19.63
195.993	11.43
196.212	3.24
196.432	33.96
196.651	46.25
196.87	3.24
197.089	66.73
197.308	17.58
197.528	68.78
197.747	-70.48
197.966	-2.9
198.185	74.92
198.404	-11.09
198.623	5.29
198.842	36.01
199.062	58.54
199.281	40.11
199.5	-15.19
199.719	62.63
199.938	72.87
200.157	56.49
200.376	31.91
200.595	89.26
200.814	13.48
201.033	11.43
201.252	13.48
201.471	-4.95
201.69	11.43
201.909	-2.9
202.128	64.68
202.347	-23.38
202.566	68.78
202.785	-23.38
203.004	-33.62
203.223	105.64
203.442	-19.29
203.661	44.2
203.879	-33.62
204.098	9.39
204.317	31.91
204.536	64.68
204.755	44.2
204.974	42.15
205.193	3.24
205.411	-23.38
205.63	-37.72
205.849	-11.09
206.068	-0.85
206.287	-13.14
206.505	25.77
206.724	-19.29
206.943	31.91
207.162	60.59
207.381	-2.9
207.599	74.92
207.818	44.2
208.037	44.2
208.255	31.91
208.474	15.53
208.693	36.01
208.911	44.2
209.13	-39.76
209.349	17.58
209.567	3.24
209.786	-15.19
210.005	29.87
210.223	81.07
210.442	-13.14
210.661	50.35
210.879	11.43
211.098	46.25
211.316	52.39
211.535	-29.52
211.753	-11.09
211.972	44.2
212.191	1.19
212.409	87.21
212.628	42.15
212.846	5.29
213.065	1.19
213.283	44.2
213.502	-76.63
213.72	79.02
213.938	-23.38
214.157	89.26
214.375	33.96
214.594	42.15
214.812	40.11
215.031	72.87
215.249	23.72
215.467	23.72
215.686	76.97
215.904	13.48
216.122	11.43
216.341	5.29
216.559	15.53
216.778	117.93
216.996	72.87
217.214	38.06
217.432	25.77
217.651	3.24
217.869	58.54
218.087	15.53
218.306	27.82
218.524	19.63
218.742	85.16
218.96	44.2
219.179	-9.05
219.397	15.53
219.615	58.54
219.833	31.91
220.051	36.01
220.27	21.67
220.488	-7
220.706	91.31
220.924	38.06
221.142	52.39
221.36	3.24
221.578	-15.19
221.796	21.67
222.015	-37.72
222.233	72.87
222.451	5.29
222.669	58.54
222.887	60.59
223.105	40.11
223.323	46.25
223.541	33.96
223.759	19.63
223.977	52.39
224.195	87.21
224.413	23.72
224.631	52.39
224.849	42.15
225.067	-17.24
225.285	27.82
225.503	-43.86
225.721	-9.05
225.939	46.25
226.157	36.01
226.375	15.53
226.592	-25.43
226.81	-21.33
227.028	-39.76
227.246	56.49
227.464	3.24
227.682	19.63
227.9	68.78
228.117	62.63
228.335	64.68
228.553	7.34
228.771	38.06
228.989	44.2
229.206	31.91
229.424	38.06
229.642	48.3
229.86	-11.09
230.077	72.87
230.295	68.78
230.513	-11.09
230.731	42.15
230.948	105.64
231.166	60.59
231.384	3.24
231.601	66.73
231.819	44.2
232.037	79.02
232.254	29.87
232.472	15.53
232.689	56.49
232.907	97.45
233.125	-23.38
233.342	-68.44
233.56	74.92
233.777	101.55
233.995	9.39
234.213	36.01
234.43	19.63
234.648	19.63
234.865	-2.9
235.083	-2.9
235.3	-37.72
235.518	21.67
235.735	11.43
235.953	-2.9
236.17	-27.48
236.388	60.59
236.605	36.01
236.822	17.58
237.04	-27.48
237.257	-80.72
237.475	-35.67
237.692	44.2
237.909	-9.05
238.127	3.24
238.344	44.2
238.562	79.02
238.779	44.2
238.996	5.29
239.214	36.01
239.431	-2.9
239.648	-15.19
239.865	44.2
240.083	38.06
240.3	93.35
240.517	62.63
240.735	83.11
240.952	38.06
241.169	111.78
241.386	-29.52
241.603	72.87
241.821	5.29
242.038	115.88
242.255	64.68
242.472	33.96
242.689	-33.62
242.907	36.01
243.124	130.22
243.341	13.48
243.558	-35.67
243.775	25.77
243.992	-13.14
244.209	23.72
244.426	21.67
244.643	-2.9
244.86	-19.29
245.078	46.25
245.295	7.34
245.512	76.97
245.729	46.25
245.946	40.11
246.163	-17.24
246.38	1.19
246.597	-7
246.814	-9.05
247.031	83.11
247.248	31.91
247.464	-37.72
247.681	-41.81
247.898	50.35
248.115	89.26
248.332	-29.52
248.549	27.82
248.766	42.15
248.983	130.22
249.2	60.59
249.417	7.34
249.633	17.58
249.85	-11.09
250.067	29.87
250.284	36.01
250.501	-2.9
250.717	-4.95
250.934	46.25
251.151	29.87
251.368	9.39
251.585	46.25
251.801	58.54
252.018	31.91
252.235	27.82
252.451	-41.81
252.668	66.73
252.885	-4.95
253.102	-41.81
253.318	33.96
253.535	13.48
253.752	21.67
253.968	31.91
254.185	46.25
254.401	-4.95
254.618	70.83
254.835	21.67
255.051	44.2
255.268	23.72
255.484	-9.05
255.701	19.63
255.917	40.11
256.134	15.53
256.351	74.92
256.567	-19.29
256.784	85.16
257	33.96
257.217	44.2
257.433	19.63
257.65	27.82
257.866	21.67
258.082	3.24
258.299	-27.48
258.515	-0.85
258.732	9.39
258.948	62.63
259.165	-29.52
259.381	17.58
259.597	23.72
259.814	38.06
260.03	40.11
260.246	58.54
260.463	54.44
260.679	21.67
260.895	60.59
261.112	19.63
261.328	11.43
261.544	-0.85
261.761	40.11
261.977	3.24
262.193	91.31
262.409	13.48
262.626	11.43
262.842	19.63
263.058	74.92
263.274	58.54
263.49	68.78
263.707	64.68
263.923	54.44
264.139	3.24
264.355	27.82
264.571	21.67
264.787	-25.43
265.004	85.16
265.22	54.44
265.436	3.24
265.652	-2.9
265.868	109.74
266.084	-37.72
266.3	44.2
266.516	85.16
266.732	7.34
266.948	40.11
267.164	-13.14
267.38	3.24
267.596	85.16
267.812	-2.9
268.028	68.78
268.244	5.29
268.46	-50
268.676	-76.63
268.892	50.35
269.108	31.91
269.324	113.83
269.54	-21.33
269.756	44.2
269.972	-19.29
270.188	13.48
270.403	31.91
270.619	-29.52
270.835	-11.09
271.051	23.72
271.267	31.91
271.483	66.73
271.698	9.39
271.914	27.82
272.13	-4.95
272.346	13.48
272.562	68.78
272.777	3.24
272.993	52.39
273.209	60.59
273.425	19.63
273.64	3.24
273.856	15.53
274.072	23.72
274.287	11.43
274.503	38.06
274.719	52.39
274.934	33.96
275.15	38.06
275.366	17.58
275.581	23.72
275.797	44.2
276.012	7.34
276.228	29.87
276.444	3.24
276.659	25.77
276.875	11.43
277.09	60.59
277.306	23.72
277.521	-15.19
277.737	7.34
277.952	27.82
278.168	97.45
278.383	15.53
278.599	1.19
278.814	52.39
279.03	-21.33
279.245	60.59
279.461	46.25
279.676	44.2
279.892	-17.24
280.107	-21.33
280.322	13.48
280.538	23.72
280.753	58.54
280.969	85.16
281.184	7.34
281.399	1.19
281.615	-41.81
281.83	29.87
282.045	25.77
282.26	5.29
282.476	29.87
282.691	11.43
282.906	31.91
283.122	50.35
283.337	-52.05
283.552	60.59
283.767	36.01
283.983	-7
284.198	25.77
284.413	-0.85
284.628	19.63
284.843	72.87
285.058	11.43
285.274	3.24
285.489	48.3
285.704	5.29
285.919	93.35
286.134	19.63
286.349	7.34
286.564	56.49
286.779	70.83
286.995	13.48
287.21	68.78
287.425	13.48
287.64	19.63
287.855	1.19
288.07	7.34
288.285	33.96
288.5	56.49
288.715	83.11
288.93	21.67
289.145	13.48
289.36	-2.9
289.575	3.24
289.79	31.91
290.004	66.73
290.219	60.59
290.434	-9.05
290.649	70.83
290.864	-41.81
291.079	3.24
291.294	-13.14
291.509	9.39
291.724	36.01
291.938	-47.96
292.153	60.59
292.368	29.87
292.583	66.73
292.798	-21.33
293.012	21.67
293.227	-2.9
293.442	72.87
293.657	27.82
293.871	52.39
294.086	101.55
294.301	134.31
294.516	99.5
294.73	-4.95
294.945	11.43
295.16	-50
295.374	23.72
295.589	54.44
295.804	17.58
296.018	-23.38
296.233	81.07
296.447	-31.57
296.662	-11.09
296.877	-13.14
297.091	19.63
297.306	-2.9
297.52	-11.09
297.735	7.34
297.949	5.29
298.164	56.49
298.378	-31.57
298.593	-45.91
298.807	17.58
299.022	50.35
299.236	29.87
299.451	44.2
299.665	52.39
299.88	46.25
300.094	3.24
300.309	17.58
300.523	64.68
300.737	7.34
300.952	25.77
301.166	70.83
301.381	74.92
301.595	44.2
301.809	1.19
302.024	64.68
302.238	52.39
302.452	72.87
302.667	21.67
302.881	5.29
303.095	103.59
303.309	56.49
303.524	-19.29
303.738	29.87
303.952	-11.09
304.166	7.34
304.381	7.34
304.595	52.39
304.809	97.45
305.023	23.72
305.237	-17.24
305.452	40.11
305.666	-7
305.88	29.87
306.094	29.87
306.308	-21.33
306.522	56.49
306.736	79.02
306.95	105.64
307.164	74.92
307.379	48.3
307.593	85.16
307.807	-27.48
308.021	-9.05
308.235	29.87
308.449	74.92
308.663	11.43
308.877	167.08
309.091	19.63
309.305	48.3
309.519	-13.14
309.733	-19.29
309.947	36.01
310.161	87.21
310.374	54.44
310.588	17.58
310.802	9.39
311.016	66.73
311.23	-9.05
311.444	-13.14
311.658	42.15
311.872	105.64
312.085	-2.9
312.299	23.72
312.513	1.19
312.727	74.92
312.941	103.59
313.154	23.72
313.368	83.11
313.582	52.39
313.796	44.2
314.009	17.58
314.223	87.21
314.437	46.25
314.651	15.53
314.864	27.82
315.078	81.07
315.292	68.78
315.505	29.87
315.719	95.4
315.933	46.25
316.146	-19.29
316.36	-25.43
316.573	103.59
316.787	-25.43
317.001	62.63
317.214	-21.33
317.428	15.53
317.641	21.67
317.855	48.3
318.068	-7
318.282	44.2
318.495	-15.19
318.709	72.87
318.922	42.15
319.136	29.87
319.349	23.72
319.563	44.2
319.776	79.02
319.99	62.63
320.203	3.24
320.417	97.45
320.63	27.82
320.843	62.63
321.057	99.5
321.27	27.82
321.483	-13.14
321.697	128.17
321.91	11.43
322.124	50.35
322.337	68.78
322.55	52.39
322.763	38.06
322.977	-31.57
323.19	56.49
323.403	93.35
323.617	81.07
323.83	-0.85
324.043	56.49
324.256	40.11
324.469	68.78
324.683	-7
324.896	60.59
325.109	9.39
325.322	44.2
325.535	5.29
325.748	-17.24
325.962	23.72
326.175	11.43
326.388	11.43
326.601	56.49
326.814	29.87
327.027	40.11
327.24	81.07
327.453	29.87
327.666	38.06
327.879	21.67
328.092	62.63
328.305	19.63
328.518	54.44
328.731	103.59
328.944	36.01
329.157	5.29
329.37	42.15
329.583	23.72
329.796	23.72
330.009	-2.9
330.222	9.39
330.435	-4.95
330.648	31.91
330.861	25.77
331.073	95.4
331.286	-19.29
331.499	79.02
331.712	23.72
331.925	33.96
332.138	46.25
332.35	15.53
332.563	66.73
332.776	-11.09
332.989	-7
333.202	50.35
333.414	87.21
333.627	31.91
333.84	109.74
334.053	3.24
334.265	3.24
334.478	-21.33
334.691	15.53
334.903	56.49
335.116	9.39
335.329	11.43
335.541	58.54
335.754	85.16
335.966	38.06
336.179	-0.85
336.392	113.83
336.604	44.2
336.817	7.34
337.029	-29.52
337.242	7.34
337.454	36.01
337.667	29.87
337.88	107.69
338.092	111.78
338.305	-29.52
338.517	44.2
338.729	33.96
338.942	40.11
339.154	-4.95
339.367	-25.43
339.579	46.25
339.792	-11.09
340.004	-27.48
340.217	97.45
340.429	79.02
340.641	21.67
340.854	44.2
341.066	29.87
341.278	54.44
341.491	17.58
341.703	-17.24
341.915	48.3
342.128	-0.85
342.34	1.19
342.552	21.67
342.764	-66.39
342.977	17.58
343.189	-25.43
343.401	36.01
343.613	64.68
343.826	60.59
344.038	87.21
344.25	52.39
344.462	52.39
344.674	42.15
344.886	-21.33
345.099	46.25
345.311	60.59
345.523	46.25
345.735	42.15
345.947	52.39
346.159	9.39
346.371	115.88
346.583	5.29
346.795	79.02
347.007	-13.14
347.219	95.4
347.431	3.24
347.643	74.92
347.855	38.06
348.067	23.72
348.279	44.2
348.491	52.39
348.703	48.3
348.915	33.96
349.127	1.19
349.339	42.15
349.551	-19.29
349.763	7.34
349.975	15.53
350.187	60.59
350.399	-25.43
350.61	-0.85
350.822	101.55
351.034	81.07
351.246	50.35
351.458	76.97
351.669	15.53
351.881	54.44
352.093	13.48
352.305	111.78
352.517	17.58
352.728	64.68
352.94	-2.9
353.152	56.49
353.363	-2.9
353.575	21.67
353.787	21.67
353.999	29.87
354.21	74.92
354.422	48.3
354.633	9.39
354.845	33.96
355.057	66.73
355.268	79.02
355.48	64.68
355.692	93.35
355.903	23.72
356.115	66.73
356.326	-23.38
356.538	97.45
356.749	54.44
356.961	128.17
357.172	-0.85
357.384	31.91
357.595	27.82
357.807	95.4
358.018	70.83
358.23	62.63
358.441	62.63
358.653	1.19
358.864	60.59
359.075	36.01
359.287	19.63
359.498	50.35
359.709	31.91
359.921	36.01
360.132	29.87
360.344	91.31
360.555	31.91
360.766	79.02
360.977	5.29
361.189	91.31
361.4	15.53
361.611	19.63
361.823	50.35
362.034	42.15
362.245	-11.09
362.456	87.21
362.667	27.82
362.879	46.25
363.09	19.63
363.301	46.25
363.512	89.26
363.723	72.87
363.935	38.06
364.146	175.27
364.357	79.02
364.568	64.68
364.779	-9.05
364.99	42.15
365.201	-21.33
365.412	117.93
365.623	-37.72
365.834	23.72
366.045	5.29
366.256	64.68
366.467	-2.9
366.678	27.82
366.889	72.87
367.1	52.39
367.311	83.11
367.522	7.34
367.733	130.22
367.944	38.06
368.155	-50
368.366	46.25
368.577	11.43
368.788	154.79
368.999	25.77
369.209	21.67
369.42	52.39
369.631	56.49
369.842	7.34
370.053	44.2
370.264	111.78
370.474	1.19
370.685	44.2
370.896	36.01
371.107	15.53
371.317	11.43
371.528	-2.9
371.739	105.64
371.95	36.01
372.16	56.49
372.371	40.11
372.582	44.2
372.792	27.82
373.003	52.39
373.214	76.97
373.424	130.22
373.635	105.64
373.846	95.4
374.056	72.87
374.267	128.17
374.477	29.87
374.688	33.96
374.898	62.63
375.109	-11.09
375.319	40.11
375.53	11.43
375.74	-29.52
375.951	-43.86
376.161	58.54
376.372	72.87
376.582	31.91
376.793	109.74
377.003	50.35
377.214	36.01
377.424	76.97
377.635	19.63
377.845	13.48
378.055	36.01
378.266	-2.9
378.476	36.01
378.686	60.59
378.897	101.55
379.107	31.91
379.317	-21.33
379.528	21.67
379.738	74.92
379.948	29.87
380.158	60.59
380.369	17.58
380.579	-27.48
380.789	-9.05
380.999	46.25
381.21	117.93
381.42	93.35
381.63	101.55
381.84	117.93
382.05	44.2
382.261	19.63
382.471	101.55
382.681	36.01
382.891	54.44
383.101	68.78
383.311	7.34
383.521	23.72
383.731	58.54
383.941	27.82
384.151	52.39
384.361	33.96
384.571	50.35
384.781	27.82
384.991	-35.67
385.201	48.3
385.411	99.5
385.621	31.91
385.831	122.02
386.041	89.26
386.251	31.91
386.461	23.72
386.671	-4.95
386.881	40.11
387.091	9.39
387.301	-4.95
387.511	117.93
387.72	85.16
387.93	15.53
388.14	3.24
388.35	36.01
388.56	79.02
388.769	48.3
388.979	-13.14
389.189	48.3
389.399	56.49
389.609	62.63
389.818	81.07
390.028	-4.95
390.238	40.11
390.447	7.34
390.657	11.43
390.867	-4.95
391.076	40.11
391.286	33.96
391.496	89.26
391.705	48.3
391.915	124.07
392.125	29.87
392.334	44.2
392.544	103.59
392.753	60.59
392.963	46.25
393.172	36.01
393.382	-2.9
393.591	138.41
393.801	27.82
394.01	19.63
394.22	95.4
394.429	113.83
394.639	66.73
394.848	93.35
395.058	107.69
395.267	81.07
395.477	85.16
395.686	81.07
395.895	89.26
396.105	111.78
396.314	97.45
396.524	64.68
396.733	72.87
396.942	107.69
397.152	46.25
397.361	101.55
397.57	150.7
397.78	128.17
397.989	95.4
398.198	74.92
398.407	122.02
398.617	64.68
398.826	46.25
399.035	109.74
399.244	103.59
399.453	74.92
399.663	93.35
399.872	218.28
400.081	85.16
400.29	81.07
400.499	46.25
400.708	66.73
400.917	91.31
401.127	117.93
401.336	105.64
401.545	150.7
401.754	152.74
401.963	115.88
402.172	109.74
402.381	85.16
402.59	130.22
402.799	62.63
403.008	95.4
403.217	146.6
403.426	107.69
403.635	70.83
403.844	128.17
404.053	130.22
404.262	72.87
404.471	113.83
404.68	74.92
404.888	150.7
405.097	134.31
405.306	134.31
405.515	160.94
405.724	179.37
405.933	185.51
406.142	212.14
406.35	89.26
406.559	146.6
406.768	117.93
406.977	232.62
407.185	277.67
407.394	136.36
407.603	222.38
407.812	214.18
408.02	222.38
408.229	267.43
408.438	203.94
408.646	224.42
408.855	187.56
409.064	193.7
409.272	197.8
409.481	283.81
409.69	236.71
409.898	289.96
410.107	332.97
410.315	292.01
410.524	269.48
410.733	298.15
410.941	339.11
411.15	273.57
411.358	269.48
411.567	339.11
411.775	326.82
411.984	314.53
412.192	390.31
412.401	373.92
412.609	468.13
412.818	437.41
413.026	375.97
413.234	416.93
413.443	437.41
413.651	492.71
413.86	515.23
414.068	519.33
414.276	511.14
414.485	531.62
414.693	578.72
414.901	601.25
415.11	650.4
415.318	578.72
415.526	634.02
415.734	582.82
415.943	674.98
416.151	756.9
416.359	748.7
416.567	804
416.776	820.38
416.984	838.81
417.192	810.14
417.4	847.01
417.608	885.92
417.817	994.46
418.025	988.32
418.233	1070.23
418.441	982.17
418.649	1078.43
418.857	1098.91
419.065	1133.72
419.273	1109.15
419.481	1143.96
419.689	1264.79
419.897	1324.18
420.105	1447.06
420.313	1315.99
420.521	1404.05
420.729	1485.97
420.937	1483.92
421.145	1586.32
421.353	1574.03
421.561	1631.38
421.769	1727.63
421.977	1776.78
422.185	1768.59
422.393	1989.77
422.601	2081.93
422.809	1983.63
423.017	2018.44
423.224	2036.88
423.432	2235.53
423.64	2243.72
423.848	2342.02
424.056	2290.82
424.263	2550.92
424.471	2632.83
424.679	2493.57
424.887	2638.98
425.094	2704.51
425.302	2913.41
425.51	2765.95
425.718	3019.9
425.925	3046.52
426.133	3089.53
426.341	3222.65
426.548	3431.54
426.756	3343.48
426.964	3521.65
427.171	3562.61
427.379	3791.98
427.586	3742.83
427.794	3910.77
428.001	4009.07
428.209	4357.22
428.417	4244.59
428.624	4504.68
428.832	4627.56
429.039	4502.63
429.247	4412.52
429.454	5018.72
429.662	5092.44
429.869	4934.75
430.076	5149.79
430.284	5139.55
430.491	5180.51
430.699	5698.64
430.906	5678.16
431.114	5829.71
431.321	5987.41
431.528	5907.54
431.736	6442.06
431.943	6585.41
432.15	6409.29
432.358	6571.08
432.565	6978.62
432.772	7154.75
432.979	7304.25
433.187	7328.83
433.394	7535.67
433.601	7965.75
433.808	8033.33
434.016	7908.4
434.223	8301.61
434.43	8864.8
434.637	8647.72
434.844	9202.72
435.052	9307.16
435.259	9415.71
435.466	9393.18
435.673	9245.73
435.88	9747.48
436.087	10456.08
436.294	10466.31
436.501	10107.92
436.708	10226.7
436.915	10738.69
437.122	11197.44
437.329	11181.06
437.537	11551.74
437.743	11729.91
437.95	11504.64
438.157	12119.03
438.364	12528.62
438.571	12387.31
438.778	12581.87
438.985	13593.56
439.192	13368.29
439.399	13781.98
439.606	13288.42
439.813	13919.19
440.02	14916.55
440.227	14730.19
440.433	14310.35
440.64	15021
440.847	14947.27
441.054	15338.43
441.261	16634.8
441.467	15875
441.674	16640.94
441.881	16831.4
442.088	16950.18
442.294	16886.7
442.501	17294.24
442.708	17476.51
442.914	18144.15
443.121	18803.6
443.328	18566.03
443.534	19680.13
443.741	19301.25
443.948	19053.45
444.154	20564.85
444.361	19893.12
444.568	20468.59
444.774	20261.75
444.981	20751.21
445.187	21076.84
445.394	22029.15
445.6	21838.69
445.807	23905.09
446.013	22887.25
446.22	23126.86
446.426	24152.89
446.633	24243
446.839	25264.94
447.046	24236.86
447.252	25836.32
447.459	25240.36
447.665	25522.98
447.871	26569.49
448.078	27728.64
448.284	26549.01
448.491	27036.43
448.697	28168.96
448.903	28465.91
449.11	28361.47
449.316	28066.56
449.522	28601.08
449.728	29281
449.935	29534.95
450.141	29629.16
450.347	30345.95
450.553	29377.26
450.76	29328.11
450.966	30814.93
451.172	29977.31
451.378	31367.88
451.584	30319.32
451.791	31273.68
451.997	31255.25
452.203	31759.05
452.409	31460.04
452.615	31419.08
452.821	30161.63
453.027	29899.49
453.233	31716.04
453.44	30280.41
453.646	30665.43
453.852	30878.42
454.058	31322.83
454.264	30167.77
454.47	31275.73
454.676	29934.31
454.882	31161.04
455.088	28523.26
455.294	28818.16
455.5	29362.92
455.705	29324.01
455.911	28379.9
456.117	27687.68
456.323	27683.59
456.529	25985.82
456.735	27323.15
456.941	26594.07
457.147	25910.05
457.352	25117.48
457.558	24849.2
457.764	25441.06
457.97	24326.97
458.176	23958.33
458.381	23806.78
458.587	22684.5
458.793	23075.66
458.999	21599.07
459.204	23233.35
459.41	22643.54
459.616	21076.84
459.821	21109.61
460.027	21101.42
460.233	20554.61
460.438	19673.98
460.644	19743.61
460.85	18969.48
461.055	18414.48
461.261	18650
461.466	17597.34
461.672	16520.11
461.878	17886.11
462.083	16653.23
462.289	16458.67
462.494	16294.83
462.7	15485.89
462.905	14996.42
463.111	15688.64
463.316	15768.51
463.522	15641.53
463.727	15496.13
463.932	15616.96
464.138	15233.99
464.343	15219.65
464.549	14752.71
464.754	15461.31
464.959	15125.44
465.165	15010.76
465.37	14488.53
465.575	14046.16
465.781	14590.92
465.986	14777.29
466.191	14064.6
466.397	14085.08
466.602	13171.68
466.807	13714.39
467.012	13845.46
467.218	13521.88
467.423	13556.7
467.628	13675.48
467.833	14341.07
468.038	13562.84
468.244	13229.02
468.449	13493.21
