Data from USB4F104151__7__13-52-11-826.txt Node

Date: Thu Mar 13 13:52:11 EDT 2025
User: louis
Spectrometer: USB4F10415
Trigger mode: 4
Integration Time (sec): 1.000000E-2
Scans to average: 1
Electric dark correction enabled: true
Nonlinearity correction enabled: false
Boxcar width: 0
XAxis mode: Wavelengths
Number of Pixels in Spectrum: 3648
>>>>>Begin Spectral Data<<<<<
178.204	-2.22
178.424	-2.22
178.644	-2.22
178.864	28.5
179.084	-4.27
179.304	-14.51
179.524	-133.29
179.744	5.97
179.964	10.07
180.184	5.97
180.404	-10.41
180.624	-10.41
180.844	34.64
181.064	16.21
181.283	46.93
181.503	5.97
181.723	42.84
181.943	73.56
182.163	8.02
182.383	-59.56
182.602	38.74
182.822	59.22
183.042	20.31
183.262	44.88
183.482	-26.79
183.701	-8.36
183.921	-4.27
184.141	75.6
184.361	12.12
184.58	-34.99
184.8	-0.17
185.02	10.07
185.239	79.7
185.459	26.45
185.679	30.55
185.898	-8.36
186.118	-4.27
186.338	-20.65
186.557	57.17
186.777	-80.04
186.997	-41.13
187.216	75.6
187.436	30.55
187.655	51.03
187.875	-49.32
188.095	14.17
188.314	-34.99
188.534	-14.51
188.753	18.26
188.973	1.88
189.192	44.88
189.412	75.6
189.631	3.93
189.851	-12.46
190.07	57.17
190.29	1.88
190.509	5.97
190.729	32.6
190.948	44.88
191.168	-55.47
191.387	36.69
191.607	-6.31
191.826	12.12
192.045	-4.27
192.265	85.84
192.484	-0.17
192.704	-22.7
192.923	1.88
193.142	42.84
193.362	40.79
193.581	85.84
193.8	-12.46
194.02	-47.27
194.239	20.31
194.458	30.55
194.678	44.88
194.897	10.07
195.116	67.41
195.335	40.79
195.555	18.26
195.774	36.69
195.993	-90.28
196.212	85.84
196.432	-14.51
196.651	14.17
196.87	-39.08
197.089	48.98
197.308	20.31
197.528	55.12
197.747	-49.32
197.966	38.74
198.185	1.88
198.404	-61.61
198.623	-24.75
198.842	16.21
199.062	-47.27
199.281	-2.22
199.5	-4.27
199.719	63.32
199.938	-16.55
200.157	-41.13
200.376	-8.36
200.595	-4.27
200.814	-10.41
201.033	-47.27
201.252	5.97
201.471	48.98
201.69	67.41
201.909	-22.7
202.128	3.93
202.347	42.84
202.566	75.6
202.785	63.32
203.004	-28.84
203.223	32.6
203.442	55.12
203.661	20.31
203.879	-34.99
204.098	48.98
204.317	-47.27
204.536	38.74
204.755	87.89
204.974	20.31
205.193	30.55
205.411	18.26
205.63	8.02
205.849	55.12
206.068	-12.46
206.287	26.45
206.505	-32.94
206.724	-10.41
206.943	-100.52
207.162	61.27
207.381	10.07
207.599	12.12
207.818	-4.27
208.037	34.64
208.255	3.93
208.474	91.99
208.693	-2.22
208.911	46.93
209.13	53.08
209.349	48.98
209.567	77.65
209.786	-34.99
210.005	30.55
210.223	14.17
210.442	-75.95
210.661	-4.27
210.879	-14.51
211.098	26.45
211.316	-4.27
211.535	-6.31
211.753	-20.65
211.972	12.12
212.191	14.17
212.409	34.64
212.628	-18.6
212.846	57.17
213.065	-14.51
213.283	-8.36
213.502	-12.46
213.72	87.89
213.938	-8.36
214.157	57.17
214.375	-69.8
214.594	44.88
214.812	10.07
215.031	48.98
215.249	12.12
215.467	3.93
215.686	42.84
215.904	42.84
216.122	22.36
216.341	34.64
216.559	12.12
216.778	59.22
216.996	-18.6
217.214	-12.46
217.432	-92.33
217.651	20.31
217.869	3.93
218.087	-10.41
218.306	-18.6
218.524	75.6
218.742	-71.85
218.96	44.88
219.179	-4.27
219.397	8.02
219.615	34.64
219.833	38.74
220.051	-37.03
220.27	-34.99
220.488	34.64
220.706	59.22
220.924	36.69
221.142	30.55
221.36	28.5
221.578	-2.22
221.796	44.88
222.015	34.64
222.233	-2.22
222.451	40.79
222.669	30.55
222.887	46.93
223.105	-2.22
223.323	30.55
223.541	-8.36
223.759	51.03
223.977	-6.31
224.195	53.08
224.413	79.7
224.631	71.51
224.849	16.21
225.067	55.12
225.285	-49.32
225.503	12.12
225.721	-6.31
225.939	44.88
226.157	-22.7
226.375	61.27
226.592	-14.51
226.81	-39.08
227.028	5.97
227.246	55.12
227.464	-22.7
227.682	32.6
227.9	73.56
228.117	-53.42
228.335	-10.41
228.553	44.88
228.771	3.93
228.989	-39.08
229.206	18.26
229.424	1.88
229.642	-10.41
229.86	8.02
230.077	102.23
230.295	-0.17
230.513	-20.65
230.731	12.12
230.948	-22.7
231.166	12.12
231.384	-6.31
231.601	-12.46
231.819	10.07
232.037	24.4
232.254	-6.31
232.472	-4.27
232.689	-57.51
232.907	40.79
233.125	12.12
233.342	1.88
233.56	-30.89
233.777	-34.99
233.995	26.45
234.213	46.93
234.43	42.84
234.648	-45.23
234.865	48.98
235.083	77.65
235.3	42.84
235.518	44.88
235.735	46.93
235.953	-49.32
236.17	-22.7
236.388	-12.46
236.605	5.97
236.822	18.26
237.04	-22.7
237.257	83.8
237.475	-28.84
237.692	26.45
237.909	32.6
238.127	36.69
238.344	-43.18
238.562	22.36
238.779	-6.31
238.996	-18.6
239.214	-26.79
239.431	-4.27
239.648	14.17
239.865	5.97
240.083	-12.46
240.3	59.22
240.517	40.79
240.735	-26.79
240.952	32.6
241.169	61.27
241.386	10.07
241.603	40.79
241.821	10.07
242.038	42.84
242.255	48.98
242.472	30.55
242.689	57.17
242.907	34.64
243.124	30.55
243.341	-51.37
243.558	-34.99
243.775	36.69
243.992	-61.61
244.209	-8.36
244.426	14.17
244.643	-34.99
244.86	26.45
245.078	79.7
245.295	112.47
245.512	18.26
245.729	26.45
245.946	61.27
246.163	63.32
246.38	22.36
246.597	-4.27
246.814	22.36
247.031	-8.36
247.248	38.74
247.464	14.17
247.681	26.45
247.898	30.55
248.115	-26.79
248.332	12.12
248.549	51.03
248.766	79.7
248.983	-2.22
249.2	55.12
249.417	61.27
249.633	67.41
249.85	16.21
250.067	26.45
250.284	-18.6
250.501	10.07
250.717	91.99
250.934	-55.47
251.151	-16.55
251.368	-2.22
251.585	32.6
251.801	75.6
252.018	55.12
252.235	40.79
252.451	-16.55
252.668	-67.75
252.885	59.22
253.102	48.98
253.318	40.79
253.535	32.6
253.752	-18.6
253.968	55.12
254.185	28.5
254.401	83.8
254.618	34.64
254.835	-51.37
255.051	-37.03
255.268	-16.55
255.484	-41.13
255.701	75.6
255.917	63.32
256.134	-0.17
256.351	71.51
256.567	38.74
256.784	114.52
257	3.93
257.217	-22.7
257.433	-16.55
257.65	20.31
257.866	26.45
258.082	61.27
258.299	12.12
258.515	-49.32
258.732	8.02
258.948	34.64
259.165	14.17
259.381	3.93
259.597	14.17
259.814	28.5
260.03	10.07
260.246	48.98
260.463	12.12
260.679	22.36
260.895	-12.46
261.112	-28.84
261.328	12.12
261.544	-6.31
261.761	38.74
261.977	-14.51
262.193	12.12
262.409	-22.7
262.626	22.36
262.842	-47.27
263.058	55.12
263.274	42.84
263.49	-2.22
263.707	34.64
263.923	-6.31
264.139	-8.36
264.355	34.64
264.571	57.17
264.787	3.93
265.004	-26.79
265.22	-32.94
265.436	18.26
265.652	28.5
265.868	36.69
266.084	-53.42
266.3	12.12
266.516	-65.71
266.732	26.45
266.948	30.55
267.164	-12.46
267.38	8.02
267.596	28.5
267.812	-0.17
268.028	34.64
268.244	-26.79
268.46	14.17
268.676	24.4
268.892	-14.51
269.108	5.97
269.324	-28.84
269.54	38.74
269.756	24.4
269.972	-22.7
270.188	10.07
270.403	-41.13
270.619	20.31
270.835	3.93
271.051	28.5
271.267	12.12
271.483	-12.46
271.698	-51.37
271.914	51.03
272.13	26.45
272.346	28.5
272.562	10.07
272.777	12.12
272.993	53.08
273.209	85.84
273.425	42.84
273.64	28.5
273.856	-6.31
274.072	28.5
274.287	14.17
274.503	-20.65
274.719	-22.7
274.934	-28.84
275.15	-49.32
275.366	-20.65
275.581	-14.51
275.797	8.02
276.012	46.93
276.228	-34.99
276.444	44.88
276.659	28.5
276.875	-75.95
277.09	-57.51
277.306	14.17
277.521	85.84
277.737	-2.22
277.952	32.6
278.168	-6.31
278.383	-0.17
278.599	40.79
278.814	-8.36
279.03	-8.36
279.245	44.88
279.461	12.12
279.676	3.93
279.892	-45.23
280.107	67.41
280.322	-34.99
280.538	22.36
280.753	-32.94
280.969	-8.36
281.184	38.74
281.399	28.5
281.615	63.32
281.83	-39.08
282.045	-0.17
282.26	57.17
282.476	-22.7
282.691	30.55
282.906	-10.41
283.122	14.17
283.337	42.84
283.552	46.93
283.767	-47.27
283.983	-22.7
284.198	16.21
284.413	59.22
284.628	1.88
284.843	8.02
285.058	-0.17
285.274	46.93
285.489	42.84
285.704	14.17
285.919	30.55
286.134	12.12
286.349	71.51
286.564	8.02
286.779	-26.79
286.995	53.08
287.21	16.21
287.425	26.45
287.64	-8.36
287.855	38.74
288.07	-10.41
288.285	-24.75
288.5	28.5
288.715	81.75
288.93	44.88
289.145	87.89
289.36	34.64
289.575	-14.51
289.79	-53.42
290.004	28.5
290.219	24.4
290.434	14.17
290.649	-6.31
290.864	-18.6
291.079	67.41
291.294	63.32
291.509	-18.6
291.724	10.07
291.938	20.31
292.153	-22.7
292.368	51.03
292.583	46.93
292.798	-22.7
293.012	44.88
293.227	-6.31
293.442	-10.41
293.657	-20.65
293.871	59.22
294.086	24.4
294.301	28.5
294.516	-6.31
294.73	46.93
294.945	-2.22
295.16	-4.27
295.374	12.12
295.589	3.93
295.804	-10.41
296.018	30.55
296.233	20.31
296.447	20.31
296.662	71.51
296.877	30.55
297.091	-49.32
297.306	26.45
297.52	79.7
297.735	20.31
297.949	14.17
298.164	18.26
298.378	55.12
298.593	5.97
298.807	-34.99
299.022	55.12
299.236	40.79
299.451	-8.36
299.665	24.4
299.88	-16.55
300.094	-51.37
300.309	69.46
300.523	26.45
300.737	-49.32
300.952	18.26
301.166	26.45
301.381	18.26
301.595	16.21
301.809	-22.7
302.024	-82.09
302.238	28.5
302.452	-43.18
302.667	-34.99
302.881	-32.94
303.095	-26.79
303.309	-8.36
303.524	36.69
303.738	65.36
303.952	-41.13
304.166	14.17
304.381	-67.75
304.595	14.17
304.809	32.6
305.023	-18.6
305.237	16.21
305.452	26.45
305.666	-49.32
305.88	14.17
306.094	67.41
306.308	-0.17
306.522	-2.22
306.736	-53.42
306.95	81.75
307.164	44.88
307.379	57.17
307.593	20.31
307.807	-10.41
308.021	-2.22
308.235	-0.17
308.449	8.02
308.663	-16.55
308.877	20.31
309.091	18.26
309.305	91.99
309.519	-16.55
309.733	-45.23
309.947	-34.99
310.161	14.17
310.374	36.69
310.588	24.4
310.802	73.56
311.016	32.6
311.23	73.56
311.444	12.12
311.658	16.21
311.872	32.6
312.085	48.98
312.299	18.26
312.513	46.93
312.727	51.03
312.941	-41.13
313.154	14.17
313.368	5.97
313.582	14.17
313.796	34.64
314.009	57.17
314.223	-28.84
314.437	55.12
314.651	-6.31
314.864	75.6
315.078	42.84
315.292	8.02
315.505	-37.03
315.719	71.51
315.933	-37.03
316.146	24.4
316.36	-104.62
316.573	20.31
316.787	-30.89
317.001	102.23
317.214	8.02
317.428	-37.03
317.641	-10.41
317.855	40.79
318.068	1.88
318.282	-14.51
318.495	32.6
318.709	34.64
318.922	30.55
319.136	-18.6
319.349	-24.75
319.563	20.31
319.776	-22.7
319.99	30.55
320.203	5.97
320.417	48.98
320.63	8.02
320.843	75.6
321.057	94.04
321.27	51.03
321.483	57.17
321.697	65.36
321.91	5.97
322.124	32.6
322.337	89.94
322.55	3.93
322.763	59.22
322.977	24.4
323.19	-18.6
323.403	-6.31
323.617	53.08
323.83	28.5
324.043	36.69
324.256	10.07
324.469	-18.6
324.683	48.98
324.896	14.17
325.109	-10.41
325.322	-59.56
325.535	-4.27
325.748	79.7
325.962	100.18
326.175	46.93
326.388	-67.75
326.601	32.6
326.814	34.64
327.027	30.55
327.24	34.64
327.453	-34.99
327.666	5.97
327.879	-59.56
328.092	-0.17
328.305	-22.7
328.518	24.4
328.731	44.88
328.944	12.12
329.157	-24.75
329.37	71.51
329.583	28.5
329.796	67.41
330.009	-22.7
330.222	-14.51
330.435	-4.27
330.648	42.84
330.861	32.6
331.073	135
331.286	24.4
331.499	-39.08
331.712	63.32
331.925	-4.27
332.138	59.22
332.35	83.8
332.563	-16.55
332.776	1.88
332.989	-20.65
333.202	12.12
333.414	67.41
333.627	61.27
333.84	-34.99
334.053	18.26
334.265	32.6
334.478	38.74
334.691	1.88
334.903	79.7
335.116	5.97
335.329	26.45
335.541	-0.17
335.754	-14.51
335.966	16.21
336.179	8.02
336.392	-6.31
336.604	34.64
336.817	-6.31
337.029	20.31
337.242	-24.75
337.454	10.07
337.667	-26.79
337.88	85.84
338.092	8.02
338.305	30.55
338.517	18.26
338.729	10.07
338.942	3.93
339.154	32.6
339.367	-69.8
339.579	18.26
339.792	30.55
340.004	16.21
340.217	-30.89
340.429	44.88
340.641	-10.41
340.854	36.69
341.066	14.17
341.278	1.88
341.491	67.41
341.703	3.93
341.915	-10.41
342.128	30.55
342.34	-43.18
342.552	67.41
342.764	-123.05
342.977	-20.65
343.189	-24.75
343.401	51.03
343.613	5.97
343.826	10.07
344.038	71.51
344.25	-22.7
344.462	-71.85
344.674	-2.22
344.886	-6.31
345.099	89.94
345.311	96.08
345.523	40.79
345.735	36.69
345.947	61.27
346.159	-32.94
346.371	-12.46
346.583	81.75
346.795	61.27
347.007	-10.41
347.219	48.98
347.431	-41.13
347.643	63.32
347.855	55.12
348.067	73.56
348.279	34.64
348.491	-39.08
348.703	-2.22
348.915	120.66
349.127	-0.17
349.339	16.21
349.551	-24.75
349.763	51.03
349.975	12.12
350.187	59.22
350.399	8.02
350.61	-4.27
350.822	-12.46
351.034	14.17
351.246	-4.27
351.458	63.32
351.669	26.45
351.881	94.04
352.093	26.45
352.305	22.36
352.517	10.07
352.728	65.36
352.94	53.08
353.152	-49.32
353.363	30.55
353.575	85.84
353.787	-4.27
353.999	51.03
354.21	3.93
354.422	59.22
354.633	-37.03
354.845	67.41
355.057	28.5
355.268	-10.41
355.48	-18.6
355.692	38.74
355.903	-14.51
356.115	26.45
356.326	-4.27
356.538	65.36
356.749	46.93
356.961	32.6
357.172	14.17
357.384	-20.65
357.595	83.8
357.807	3.93
358.018	-39.08
358.23	100.18
358.441	42.84
358.653	51.03
358.864	12.12
359.075	-30.89
359.287	-43.18
359.498	14.17
359.709	34.64
359.921	22.36
360.132	51.03
360.344	55.12
360.555	-0.17
360.766	38.74
360.977	-53.42
361.189	14.17
361.4	-10.41
361.611	-0.17
361.823	18.26
362.034	46.93
362.245	40.79
362.456	42.84
362.667	79.7
362.879	-4.27
363.09	48.98
363.301	3.93
363.512	-8.36
363.723	8.02
363.935	-14.51
364.146	30.55
364.357	85.84
364.568	10.07
364.779	-32.94
364.99	-2.22
365.201	26.45
365.412	42.84
365.623	-6.31
365.834	36.69
366.045	-20.65
366.256	36.69
366.467	28.5
366.678	32.6
366.889	-6.31
367.1	-41.13
367.311	46.93
367.522	79.7
367.733	67.41
367.944	-8.36
368.155	-8.36
368.366	28.5
368.577	-0.17
368.788	32.6
368.999	61.27
369.209	94.04
369.42	-4.27
369.631	59.22
369.842	48.98
370.053	42.84
370.264	59.22
370.474	-12.46
370.685	-57.51
370.896	61.27
371.107	1.88
371.317	-30.89
371.528	-4.27
371.739	-22.7
371.95	12.12
372.16	67.41
372.371	-8.36
372.582	1.88
372.792	32.6
373.003	38.74
373.214	-16.55
373.424	5.97
373.635	-0.17
373.846	-16.55
374.056	83.8
374.267	8.02
374.477	12.12
374.688	65.36
374.898	-22.7
375.109	57.17
375.319	12.12
375.53	18.26
375.74	30.55
375.951	-24.75
376.161	-10.41
376.372	79.7
376.582	1.88
376.793	75.6
377.003	32.6
377.214	44.88
377.424	26.45
377.635	116.56
377.845	20.31
378.055	40.79
378.266	-4.27
378.476	10.07
378.686	53.08
378.897	42.84
379.107	12.12
379.317	-77.99
379.528	46.93
379.738	-26.79
379.948	48.98
380.158	65.36
380.369	-30.89
380.579	-71.85
380.789	48.98
380.999	18.26
381.21	44.88
381.42	143.19
381.63	-67.75
381.84	8.02
382.05	89.94
382.261	75.6
382.471	-2.22
382.681	1.88
382.891	55.12
383.101	14.17
383.311	48.98
383.521	46.93
383.731	-61.61
383.941	75.6
384.151	42.84
384.361	83.8
384.571	14.17
384.781	-18.6
384.991	73.56
385.201	59.22
385.411	67.41
385.621	8.02
385.831	-12.46
386.041	77.65
386.251	16.21
386.461	116.56
386.671	10.07
386.881	57.17
387.091	12.12
387.301	71.51
387.511	3.93
387.72	89.94
387.93	79.7
388.14	24.4
388.35	-41.13
388.56	112.47
388.769	24.4
388.979	46.93
389.189	59.22
389.399	28.5
389.609	1.88
389.818	1.88
390.028	44.88
390.238	-14.51
390.447	44.88
390.657	34.64
390.867	-4.27
391.076	30.55
391.286	22.36
391.496	94.04
391.705	57.17
391.915	10.07
392.125	-0.17
392.334	20.31
392.544	22.36
392.753	-20.65
392.963	44.88
393.172	-0.17
393.382	32.6
393.591	40.79
393.801	46.93
394.01	-0.17
394.22	71.51
394.429	16.21
394.639	-0.17
394.848	-4.27
395.058	71.51
395.267	67.41
395.477	-30.89
395.686	34.64
395.895	63.32
396.105	63.32
396.314	61.27
396.524	38.74
396.733	18.26
396.942	42.84
397.152	20.31
397.361	46.93
397.57	87.89
397.78	46.93
397.989	12.12
398.198	46.93
398.407	22.36
398.617	69.46
398.826	5.97
399.035	26.45
399.244	38.74
399.453	118.61
399.663	5.97
399.872	108.37
400.081	12.12
400.29	114.52
400.499	48.98
400.708	51.03
400.917	42.84
401.127	57.17
401.336	59.22
401.545	63.32
401.754	-6.31
401.963	-10.41
402.172	12.12
402.381	44.88
402.59	89.94
402.799	20.31
403.008	30.55
403.217	96.08
403.426	102.23
403.635	73.56
403.844	28.5
404.053	26.45
404.262	98.13
404.471	28.5
404.68	42.84
404.888	75.6
405.097	91.99
405.306	14.17
405.515	12.12
405.724	36.69
405.933	55.12
406.142	87.89
406.35	65.36
406.559	91.99
406.768	75.6
406.977	114.52
407.185	75.6
407.394	98.13
407.603	71.51
407.812	71.51
408.02	46.93
408.229	87.89
408.438	26.45
408.646	91.99
408.855	48.98
409.064	38.74
409.272	48.98
409.481	55.12
409.69	79.7
409.898	61.27
410.107	122.71
410.315	151.38
410.524	108.37
410.733	128.85
410.941	98.13
411.15	81.75
411.358	120.66
411.567	137.04
411.775	132.95
411.984	114.52
412.192	175.95
412.401	147.28
412.609	141.14
412.818	184.15
413.026	143.19
413.234	184.15
413.443	235.35
413.651	173.91
413.86	194.39
414.068	169.81
414.276	239.44
414.485	204.63
414.693	190.29
414.901	223.06
415.11	280.4
415.318	243.54
415.526	247.63
415.734	218.96
415.943	233.3
416.151	233.3
416.359	200.53
416.567	237.39
416.776	282.45
416.984	257.87
417.192	288.59
417.4	356.18
417.608	274.26
417.817	329.55
418.025	278.35
418.233	321.36
418.441	362.32
418.649	360.27
418.857	405.33
419.065	458.57
419.273	358.22
419.481	507.73
419.689	370.51
419.897	339.79
420.105	423.76
420.313	499.53
420.521	470.86
420.729	479.05
420.937	462.67
421.145	505.68
421.353	558.92
421.561	515.92
421.769	653.13
421.977	655.18
422.185	642.89
422.393	675.66
422.601	610.12
422.809	636.75
423.017	743.24
423.224	728.91
423.432	730.95
423.64	831.3
423.848	786.25
424.056	841.54
424.263	821.06
424.471	931.66
424.679	857.93
424.887	925.51
425.094	929.61
425.302	950.09
425.51	1062.73
425.718	1046.34
425.925	1032.01
426.133	1122.12
426.341	1050.44
426.548	1255.23
426.756	1132.36
426.964	1236.8
427.171	1371.97
427.379	1300.29
427.586	1310.53
427.794	1349.44
428.001	1429.31
428.209	1435.46
428.417	1443.65
428.624	1537.85
428.832	1636.16
429.039	1638.2
429.247	1617.72
429.454	1693.5
429.662	1820.47
429.869	1720.12
430.076	1771.32
430.284	1713.98
430.491	1814.33
430.699	1963.83
430.906	1888.06
431.114	1894.2
431.321	2072.37
431.528	2131.76
431.736	2264.88
431.943	2305.84
432.15	2144.05
432.358	2387.76
432.565	2473.78
432.772	2496.3
432.979	2379.57
433.187	2621.23
433.394	2570.03
433.601	2772.78
433.808	2811.69
434.016	2701.1
434.223	2854.7
434.43	3016.49
434.637	2862.89
434.844	3122.98
435.052	3258.15
435.259	3227.43
435.466	3118.89
435.673	3096.36
435.88	3315.49
436.087	3501.86
436.294	3485.47
436.501	3460.9
436.708	3669.79
436.915	3600.16
437.122	3847.96
437.329	3764
437.537	3968.79
437.743	4065.05
437.95	4001.56
438.157	4153.11
438.364	4394.77
438.571	4284.18
438.778	4503.31
438.985	4663.05
439.192	4673.29
439.399	4613.9
439.606	4509.46
439.813	4792.08
440.02	5101.32
440.227	5138.18
440.433	4992.78
440.64	5234.44
440.847	5158.66
441.054	5244.68
441.261	5619.46
441.467	5517.06
441.674	5693.18
441.881	5908.22
442.088	5875.45
442.294	5631.74
442.501	5940.99
442.708	6039.29
442.914	6196.98
443.121	6659.82
443.328	6469.36
443.534	6881
443.741	6610.67
443.948	6579.95
444.154	7046.89
444.361	7055.08
444.568	7157.48
444.774	7155.43
444.981	7155.43
445.187	7358.18
445.394	7587.55
445.6	7616.23
445.807	8419.03
446.013	7853.79
446.22	8036.06
446.426	8435.41
446.633	8531.67
446.839	8761.04
447.046	8351.45
447.252	8779.47
447.459	8785.62
447.665	8881.87
447.871	9305.8
448.078	9731.78
448.284	9129.67
448.491	9490.12
448.697	9809.6
448.903	9930.43
449.11	10036.92
449.316	9797.31
449.522	9907.9
449.728	10331.83
449.935	10315.45
450.141	10317.5
450.347	10700.47
450.553	10426.04
450.76	10407.61
450.966	10690.23
451.172	10606.26
451.378	10743.47
451.584	10583.73
451.791	10895.02
451.997	10813.1
452.203	10995.37
452.409	11105.96
452.615	10970.8
452.821	10565.3
453.027	10331.83
453.233	11065
453.44	10569.4
453.646	10854.06
453.852	10598.07
454.058	10950.32
454.264	10579.64
454.47	10794.67
454.676	10428.09
454.882	10743.47
455.088	9834.18
455.294	10026.68
455.5	10264.25
455.705	10036.92
455.911	9791.17
456.117	9748.16
456.323	9408.2
456.529	8996.56
456.735	9449.16
456.941	9137.87
457.147	8824.53
457.352	8597.2
457.558	8642.26
457.764	8638.16
457.97	8455.89
458.176	8234.71
458.381	8197.85
458.587	7784.16
458.793	7870.17
458.999	7544.55
459.204	7864.03
459.41	7800.54
459.616	7001.83
459.821	7093.99
460.027	7225.06
460.233	7157.48
460.438	6672.11
460.644	6807.28
460.85	6598.38
461.055	6246.13
461.261	6311.67
461.466	6055.67
461.672	5635.84
461.878	6113.02
462.083	5658.37
462.289	5562.11
462.494	5592.83
462.7	5316.36
462.905	5197.57
463.111	5377.8
463.316	5265.16
463.522	5189.38
463.727	5527.3
463.932	5236.49
464.138	5289.73
464.343	5177.09
464.549	5277.44
464.754	5373.7
464.959	5201.67
465.165	5304.07
465.37	4988.68
465.575	4863.76
465.781	5127.94
465.986	5134.09
466.191	4900.62
466.397	4683.53
466.602	4615.95
466.807	4816.65
467.012	4908.81
467.218	4812.56
467.423	4742.92
467.628	4646.67
467.833	4878.09
468.038	4534.03
468.244	4507.41
468.449	4835.08
468.654	4667.15
468.859	4613.9
469.064	4589.33
469.269	4362
469.474	4312.85
469.679	4437.78
469.885	4357.91
470.09	4341.52
