Data from USB4F104151__140__13-58-11-136.txt Node

Date: Thu Mar 13 13:58:11 EDT 2025
User: louis
Spectrometer: USB4F10415
Trigger mode: 4
Integration Time (sec): 1.000000E-2
Scans to average: 1
Electric dark correction enabled: true
Nonlinearity correction enabled: false
Boxcar width: 0
XAxis mode: Wavelengths
Number of Pixels in Spectrum: 3648
>>>>>Begin Spectral Data<<<<<
178.204	5.12
178.424	5.12
178.644	5.12
178.864	-41.98
179.084	-21.5
179.304	-13.31
179.524	-11.26
179.744	13.31
179.964	-15.36
180.184	60.42
180.404	-11.26
180.624	113.66
180.844	-46.08
181.064	-29.7
181.283	-11.26
181.503	-54.27
181.723	5.12
181.943	-11.26
182.163	89.09
182.383	-23.55
182.602	41.98
182.822	19.46
183.042	-39.94
183.262	35.84
183.482	-25.6
183.701	13.31
183.921	-27.65
184.141	1.02
184.361	44.03
184.58	56.32
184.8	44.03
185.02	-62.46
185.239	17.41
185.459	39.94
185.679	78.85
185.898	-35.84
186.118	31.74
186.338	-5.12
186.557	33.79
186.777	-19.46
186.997	-7.17
187.216	3.07
187.436	27.65
187.655	72.7
187.875	46.08
188.095	13.31
188.314	70.65
188.534	17.41
188.753	60.42
188.973	82.94
189.192	48.13
189.412	52.22
189.631	91.13
189.851	48.13
190.07	66.56
190.29	5.12
190.509	-19.46
190.729	-41.98
190.948	46.08
191.168	138.24
191.387	78.85
191.607	25.6
191.826	74.75
192.045	-80.89
192.265	76.8
192.484	115.71
192.704	54.27
192.923	70.65
193.142	93.18
193.362	23.55
193.581	33.79
193.8	7.17
194.02	-25.6
194.239	-35.84
194.458	-27.65
194.678	13.31
194.897	82.94
195.116	23.55
195.335	-54.27
195.555	78.85
195.774	41.98
195.993	68.61
196.212	31.74
196.432	3.07
196.651	-9.22
196.87	21.5
197.089	103.42
197.308	41.98
197.528	76.8
197.747	-19.46
197.966	25.6
198.185	58.37
198.404	31.74
198.623	19.46
198.842	-5.12
199.062	11.26
199.281	46.08
199.5	-7.17
199.719	62.46
199.938	25.6
200.157	76.8
200.376	44.03
200.595	15.36
200.814	74.75
201.033	-13.31
201.252	29.7
201.471	66.56
201.69	64.51
201.909	15.36
202.128	48.13
202.347	23.55
202.566	1.02
202.785	-15.36
203.004	46.08
203.223	123.9
203.442	-3.07
203.661	25.6
203.879	50.18
204.098	60.42
204.317	39.94
204.536	3.07
204.755	44.03
204.974	27.65
205.193	21.5
205.411	72.7
205.63	37.89
205.849	58.37
206.068	7.17
206.287	109.57
206.505	37.89
206.724	25.6
206.943	89.09
207.162	41.98
207.381	48.13
207.599	117.76
207.818	50.18
208.037	74.75
208.255	29.7
208.474	-29.7
208.693	72.7
208.911	-1.02
209.13	27.65
209.349	3.07
209.567	44.03
209.786	158.72
210.005	74.75
210.223	-21.5
210.442	-11.26
210.661	21.5
210.879	-9.22
211.098	46.08
211.316	-5.12
211.535	-52.22
211.753	58.37
211.972	66.56
212.191	13.31
212.409	-17.41
212.628	41.98
212.846	-27.65
213.065	44.03
213.283	31.74
213.502	35.84
213.72	19.46
213.938	19.46
214.157	52.22
214.375	19.46
214.594	41.98
214.812	68.61
215.031	19.46
215.249	-31.74
215.467	17.41
215.686	3.07
215.904	-9.22
216.122	33.79
216.341	136.19
216.559	54.27
216.778	80.89
216.996	33.79
217.214	41.98
217.432	48.13
217.651	-1.02
217.869	25.6
218.087	-9.22
218.306	80.89
218.524	66.56
218.742	35.84
218.96	68.61
219.179	-9.22
219.397	46.08
219.615	41.98
219.833	-17.41
220.051	62.46
220.27	13.31
220.488	3.07
220.706	97.28
220.924	33.79
221.142	27.65
221.36	-1.02
221.578	93.18
221.796	-13.31
222.015	37.89
222.233	66.56
222.451	58.37
222.669	-39.94
222.887	19.46
223.105	-5.12
223.323	13.31
223.541	39.94
223.759	109.57
223.977	31.74
224.195	54.27
224.413	-15.36
224.631	58.37
224.849	13.31
225.067	97.28
225.285	29.7
225.503	11.26
225.721	-39.94
225.939	-46.08
226.157	60.42
226.375	33.79
226.592	70.65
226.81	-9.22
227.028	87.04
227.246	89.09
227.464	31.74
227.682	-5.12
227.9	37.89
228.117	25.6
228.335	66.56
228.553	74.75
228.771	58.37
228.989	54.27
229.206	-13.31
229.424	60.42
229.642	54.27
229.86	54.27
230.077	76.8
230.295	44.03
230.513	19.46
230.731	23.55
230.948	19.46
231.166	64.51
231.384	29.7
231.601	52.22
231.819	62.46
232.037	58.37
232.254	-17.41
232.472	35.84
232.689	7.17
232.907	7.17
233.125	64.51
233.342	70.65
233.56	-1.02
233.777	103.42
233.995	-5.12
234.213	23.55
234.43	-27.65
234.648	48.13
234.865	1.02
235.083	31.74
235.3	46.08
235.518	21.5
235.735	60.42
235.953	19.46
236.17	62.46
236.388	39.94
236.605	48.13
236.822	54.27
237.04	11.26
237.257	84.99
237.475	33.79
237.692	44.03
237.909	13.31
238.127	35.84
238.344	41.98
238.562	50.18
238.779	-21.5
238.996	-35.84
239.214	62.46
239.431	19.46
239.648	-21.5
239.865	138.24
240.083	46.08
240.3	-41.98
240.517	29.7
240.735	5.12
240.952	-19.46
241.169	-3.07
241.386	39.94
241.603	33.79
241.821	31.74
242.038	84.99
242.255	-19.46
242.472	-19.46
242.689	29.7
242.907	5.12
243.124	41.98
243.341	68.61
243.558	68.61
243.775	27.65
243.992	-23.55
244.209	7.17
244.426	-46.08
244.643	31.74
244.86	82.94
245.078	46.08
245.295	7.17
245.512	44.03
245.729	15.36
245.946	1.02
246.163	27.65
246.38	-5.12
246.597	-19.46
246.814	95.23
247.031	44.03
247.248	23.55
247.464	68.61
247.681	56.32
247.898	27.65
248.115	5.12
248.332	27.65
248.549	64.51
248.766	82.94
248.983	-1.02
249.2	21.5
249.417	72.7
249.633	31.74
249.85	56.32
250.067	80.89
250.284	50.18
250.501	46.08
250.717	91.13
250.934	-9.22
251.151	76.8
251.368	17.41
251.585	39.94
251.801	19.46
252.018	27.65
252.235	-5.12
252.451	52.22
252.668	-27.65
252.885	31.74
253.102	1.02
253.318	-3.07
253.535	27.65
253.752	44.03
253.968	50.18
254.185	-3.07
254.401	27.65
254.618	-35.84
254.835	35.84
255.051	37.89
255.268	39.94
255.484	58.37
255.701	87.04
255.917	23.55
256.134	44.03
256.351	39.94
256.567	39.94
256.784	111.61
257	27.65
257.217	23.55
257.433	35.84
257.65	33.79
257.866	-5.12
258.082	64.51
258.299	-9.22
258.515	-1.02
258.732	-17.41
258.948	21.5
259.165	56.32
259.381	7.17
259.597	17.41
259.814	11.26
260.03	58.37
260.246	46.08
260.463	48.13
260.679	58.37
260.895	44.03
261.112	72.7
261.328	-23.55
261.544	93.18
261.761	115.71
261.977	58.37
262.193	-3.07
262.409	44.03
262.626	78.85
262.842	13.31
263.058	-11.26
263.274	-33.79
263.49	-50.18
263.707	3.07
263.923	95.23
264.139	21.5
264.355	46.08
264.571	29.7
264.787	5.12
265.004	29.7
265.22	101.37
265.436	-19.46
265.652	41.98
265.868	62.46
266.084	-23.55
266.3	37.89
266.516	-21.5
266.732	35.84
266.948	19.46
267.164	64.51
267.38	31.74
267.596	50.18
267.812	62.46
268.028	27.65
268.244	7.17
268.46	101.37
268.676	60.42
268.892	58.37
269.108	-13.31
269.324	-29.7
269.54	5.12
269.756	62.46
269.972	89.09
270.188	-62.46
270.403	5.12
270.619	37.89
270.835	64.51
271.051	78.85
271.267	68.61
271.483	21.5
271.698	48.13
271.914	48.13
272.13	1.02
272.346	11.26
272.562	9.22
272.777	101.37
272.993	70.65
273.209	-11.26
273.425	-11.26
273.64	-41.98
273.856	78.85
274.072	29.7
274.287	-5.12
274.503	101.37
274.719	60.42
274.934	23.55
275.15	-60.42
275.366	78.85
275.581	1.02
275.797	-5.12
276.012	29.7
276.228	35.84
276.444	37.89
276.659	119.81
276.875	23.55
277.09	17.41
277.306	101.37
277.521	95.23
277.737	5.12
277.952	70.65
278.168	66.56
278.383	64.51
278.599	-11.26
278.814	56.32
279.03	1.02
279.245	7.17
279.461	35.84
279.676	70.65
279.892	15.36
280.107	29.7
280.322	-15.36
280.538	74.75
280.753	-5.12
280.969	78.85
281.184	37.89
281.399	97.28
281.615	3.07
281.83	58.37
282.045	3.07
282.26	31.74
282.476	3.07
282.691	46.08
282.906	35.84
283.122	5.12
283.337	-1.02
283.552	105.47
283.767	25.6
283.983	97.28
284.198	13.31
284.413	68.61
284.628	15.36
284.843	54.27
285.058	21.5
285.274	29.7
285.489	-3.07
285.704	25.6
285.919	39.94
286.134	17.41
286.349	11.26
286.564	39.94
286.779	25.6
286.995	-1.02
287.21	109.57
287.425	54.27
287.64	7.17
287.855	72.7
288.07	66.56
288.285	60.42
288.5	101.37
288.715	52.22
288.93	72.7
289.145	91.13
289.36	70.65
289.575	62.46
289.79	-25.6
290.004	35.84
290.219	70.65
290.434	84.99
290.649	54.27
290.864	21.5
291.079	13.31
291.294	33.79
291.509	15.36
291.724	54.27
291.938	82.94
292.153	3.07
292.368	-3.07
292.583	9.22
292.798	78.85
293.012	35.84
293.227	52.22
293.442	93.18
293.657	95.23
293.871	62.46
294.086	54.27
294.301	97.28
294.516	48.13
294.73	56.32
294.945	93.18
295.16	11.26
295.374	7.17
295.589	-9.22
295.804	44.03
296.018	29.7
296.233	76.8
296.447	66.56
296.662	23.55
296.877	58.37
297.091	44.03
297.306	68.61
297.52	31.74
297.735	48.13
297.949	21.5
298.164	52.22
298.378	19.46
298.593	66.56
298.807	3.07
299.022	46.08
299.236	-21.5
299.451	-50.18
299.665	7.17
299.88	13.31
300.094	3.07
300.309	60.42
300.523	11.26
300.737	9.22
300.952	-9.22
301.166	93.18
301.381	-5.12
301.595	91.13
301.809	35.84
302.024	97.28
302.238	46.08
302.452	27.65
302.667	82.94
302.881	68.61
303.095	15.36
303.309	60.42
303.524	7.17
303.738	-25.6
303.952	91.13
304.166	87.04
304.381	25.6
304.595	74.75
304.809	25.6
305.023	19.46
305.237	-5.12
305.452	7.17
305.666	58.37
305.88	19.46
306.094	27.65
306.308	91.13
306.522	62.46
306.736	31.74
306.95	103.42
307.164	33.79
307.379	84.99
307.593	60.42
307.807	48.13
308.021	56.32
308.235	52.22
308.449	-3.07
308.663	-50.18
308.877	95.23
309.091	33.79
309.305	33.79
309.519	-3.07
309.733	56.32
309.947	44.03
310.161	52.22
310.374	44.03
310.588	82.94
310.802	23.55
311.016	-3.07
311.23	31.74
311.444	27.65
311.658	68.61
311.872	9.22
312.085	-5.12
312.299	-56.32
312.513	-5.12
312.727	107.52
312.941	-37.89
313.154	3.07
313.368	37.89
313.582	-3.07
313.796	44.03
314.009	35.84
314.223	56.32
314.437	31.74
314.651	103.42
314.864	76.8
315.078	44.03
315.292	76.8
315.505	31.74
315.719	78.85
315.933	-13.31
316.146	35.84
316.36	97.28
316.573	44.03
316.787	46.08
317.001	68.61
317.214	-1.02
317.428	-31.74
317.641	-9.22
317.855	27.65
318.068	7.17
318.282	35.84
318.495	56.32
318.709	78.85
318.922	27.65
319.136	5.12
319.349	68.61
319.563	33.79
319.776	66.56
319.99	-13.31
320.203	3.07
320.417	84.99
320.63	-3.07
320.843	93.18
321.057	64.51
321.27	37.89
321.483	78.85
321.697	11.26
321.91	56.32
322.124	39.94
322.337	31.74
322.55	99.33
322.763	37.89
322.977	91.13
323.19	7.17
323.403	-1.02
323.617	78.85
323.83	117.76
324.043	70.65
324.256	-25.6
324.469	54.27
324.683	29.7
324.896	-17.41
325.109	39.94
325.322	-27.65
325.535	39.94
325.748	-5.12
325.962	25.6
326.175	1.02
326.388	56.32
326.601	48.13
326.814	-60.42
327.027	37.89
327.24	58.37
327.453	39.94
327.666	9.22
327.879	64.51
328.092	15.36
328.305	5.12
328.518	44.03
328.731	-21.5
328.944	15.36
329.157	31.74
329.37	11.26
329.583	70.65
329.796	95.23
330.009	58.37
330.222	128
330.435	60.42
330.648	11.26
330.861	48.13
331.073	78.85
331.286	74.75
331.499	82.94
331.712	50.18
331.925	72.7
332.138	11.26
332.35	68.61
332.563	48.13
332.776	27.65
332.989	3.07
333.202	80.89
333.414	44.03
333.627	78.85
333.84	101.37
334.053	29.7
334.265	7.17
334.478	84.99
334.691	99.33
334.903	52.22
335.116	123.9
335.329	3.07
335.541	19.46
335.754	74.75
335.966	87.04
336.179	62.46
336.392	37.89
336.604	-50.18
336.817	-48.13
337.029	56.32
337.242	-29.7
337.454	23.55
337.667	-11.26
337.88	89.09
338.092	35.84
338.305	-5.12
338.517	21.5
338.729	54.27
338.942	44.03
339.154	7.17
339.367	-7.17
339.579	74.75
339.792	58.37
340.004	35.84
340.217	-54.27
340.429	68.61
340.641	52.22
340.854	60.42
341.066	82.94
341.278	44.03
341.491	-1.02
341.703	19.46
341.915	54.27
342.128	87.04
342.34	27.65
342.552	56.32
342.764	37.89
342.977	-5.12
343.189	1.02
343.401	31.74
343.613	-13.31
343.826	52.22
344.038	21.5
344.25	29.7
344.462	-15.36
344.674	134.14
344.886	9.22
345.099	-21.5
345.311	-5.12
345.523	89.09
345.735	7.17
345.947	52.22
346.159	11.26
346.371	37.89
346.583	35.84
346.795	21.5
347.007	62.46
347.219	60.42
347.431	60.42
347.643	82.94
347.855	27.65
348.067	74.75
348.279	5.12
348.491	50.18
348.703	64.51
348.915	-31.74
349.127	-21.5
349.339	62.46
349.551	27.65
349.763	76.8
349.975	-44.03
350.187	74.75
350.399	84.99
350.61	134.14
350.822	62.46
351.034	33.79
351.246	52.22
351.458	72.7
351.669	52.22
351.881	48.13
352.093	29.7
352.305	76.8
352.517	-11.26
352.728	93.18
352.94	41.98
353.152	3.07
353.363	5.12
353.575	95.23
353.787	25.6
353.999	25.6
354.21	117.76
354.422	50.18
354.633	3.07
354.845	11.26
355.057	56.32
355.268	64.51
355.48	-13.31
355.692	-48.13
355.903	7.17
356.115	82.94
356.326	41.98
356.538	56.32
356.749	68.61
356.961	41.98
357.172	-5.12
357.384	52.22
357.595	62.46
357.807	44.03
358.018	48.13
358.23	35.84
358.441	33.79
358.653	109.57
358.864	58.37
359.075	33.79
359.287	27.65
359.498	46.08
359.709	54.27
359.921	39.94
360.132	35.84
360.344	-13.31
360.555	41.98
360.766	-13.31
360.977	-25.6
361.189	13.31
361.4	93.18
361.611	19.46
361.823	68.61
362.034	35.84
362.245	76.8
362.456	97.28
362.667	-29.7
362.879	17.41
363.09	1.02
363.301	-17.41
363.512	19.46
363.723	13.31
363.935	-33.79
364.146	68.61
364.357	5.12
364.568	78.85
364.779	5.12
364.99	-1.02
365.201	58.37
365.412	80.89
365.623	89.09
365.834	82.94
366.045	-25.6
366.256	146.43
366.467	89.09
366.678	31.74
366.889	41.98
367.1	11.26
367.311	76.8
367.522	50.18
367.733	35.84
367.944	52.22
368.155	37.89
368.366	13.31
368.577	115.71
368.788	-11.26
368.999	58.37
369.209	115.71
369.42	-7.17
369.631	82.94
369.842	97.28
370.053	3.07
370.264	84.99
370.474	62.46
370.685	21.5
370.896	97.28
371.107	-25.6
371.317	72.7
371.528	37.89
371.739	76.8
371.95	56.32
372.16	76.8
372.371	41.98
372.582	72.7
372.792	62.46
373.003	25.6
373.214	54.27
373.424	39.94
373.635	33.79
373.846	19.46
374.056	15.36
374.267	54.27
374.477	117.76
374.688	54.27
374.898	15.36
375.109	23.55
375.319	29.7
375.53	84.99
375.74	19.46
375.951	31.74
376.161	44.03
376.372	25.6
376.582	5.12
376.793	33.79
377.003	54.27
377.214	23.55
377.424	37.89
377.635	25.6
377.845	128
378.055	1.02
378.266	31.74
378.476	68.61
378.686	52.22
378.897	27.65
379.107	33.79
379.317	68.61
379.528	-23.55
379.738	39.94
379.948	11.26
380.158	21.5
380.369	52.22
380.579	50.18
380.789	44.03
380.999	95.23
381.21	78.85
381.42	84.99
381.63	23.55
381.84	138.24
382.05	80.89
382.261	35.84
382.471	99.33
382.681	109.57
382.891	48.13
383.101	33.79
383.311	9.22
383.521	46.08
383.731	80.89
383.941	60.42
384.151	128
384.361	74.75
384.571	50.18
384.781	13.31
384.991	39.94
385.201	29.7
385.411	76.8
385.621	44.03
385.831	-5.12
386.041	31.74
386.251	111.61
386.461	115.71
386.671	-37.89
386.881	50.18
387.091	105.47
387.301	84.99
387.511	3.07
387.72	-7.17
387.93	80.89
388.14	130.05
388.35	29.7
388.56	11.26
388.769	89.09
388.979	7.17
389.189	64.51
389.399	76.8
389.609	29.7
389.818	31.74
390.028	5.12
390.238	68.61
390.447	23.55
390.657	1.02
390.867	-15.36
391.076	76.8
391.286	35.84
391.496	72.7
391.705	97.28
391.915	87.04
392.125	64.51
392.334	13.31
392.544	50.18
392.753	15.36
392.963	9.22
393.172	60.42
393.382	27.65
393.591	72.7
393.801	109.57
394.01	136.19
394.22	33.79
394.429	31.74
394.639	35.84
394.848	82.94
395.058	58.37
395.267	72.7
395.477	93.18
395.686	48.13
395.895	111.61
396.105	27.65
396.314	-35.84
396.524	23.55
396.733	121.85
396.942	19.46
397.152	70.65
397.361	7.17
397.57	113.66
397.78	46.08
397.989	39.94
398.198	54.27
398.407	11.26
398.617	97.28
398.826	76.8
399.035	64.51
399.244	56.32
399.453	64.51
399.663	31.74
399.872	103.42
400.081	37.89
400.29	101.37
400.499	-3.07
400.708	52.22
400.917	89.09
401.127	76.8
401.336	62.46
401.545	31.74
401.754	76.8
401.963	105.47
402.172	29.7
402.381	50.18
402.59	80.89
402.799	115.71
403.008	15.36
403.217	150.53
403.426	9.22
403.635	125.95
403.844	76.8
404.053	39.94
404.262	82.94
404.471	35.84
404.68	41.98
404.888	111.61
405.097	101.37
405.306	136.19
405.515	119.81
405.724	52.22
405.933	-5.12
406.142	125.95
406.35	62.46
406.559	91.13
406.768	62.46
406.977	62.46
407.185	144.38
407.394	156.67
407.603	54.27
407.812	181.25
408.02	13.31
408.229	41.98
408.438	113.66
408.646	136.19
408.855	123.9
409.064	115.71
409.272	103.42
409.481	84.99
409.69	66.56
409.898	60.42
410.107	160.77
410.315	101.37
410.524	93.18
410.733	152.57
410.941	160.77
411.15	109.57
411.358	171.01
411.567	162.81
411.775	142.33
411.984	168.96
412.192	220.16
412.401	189.44
412.609	183.29
412.818	191.49
413.026	152.57
413.234	209.92
413.443	238.59
413.651	185.34
413.86	191.49
414.068	267.26
414.276	242.68
414.485	222.2
414.693	189.44
414.901	363.51
415.11	207.87
415.318	297.98
415.526	304.12
415.734	332.79
415.943	302.08
416.151	320.51
416.359	218.11
416.567	390.14
416.776	355.32
416.984	338.94
417.192	396.28
417.4	455.67
417.608	300.03
417.817	347.13
418.025	406.52
418.233	486.39
418.441	449.53
418.649	441.34
418.857	467.96
419.065	463.86
419.273	408.57
419.481	467.96
419.689	486.39
419.897	627.7
420.105	494.58
420.313	562.17
420.521	553.98
420.729	625.65
420.937	560.12
421.145	672.76
421.353	740.34
421.561	685.05
421.769	779.25
421.977	828.4
422.185	726
422.393	791.54
422.601	879.6
422.809	842.74
423.017	734.2
423.224	721.91
423.432	861.17
423.64	865.27
423.848	977.91
424.056	918.51
424.263	965.62
424.471	984.05
424.679	1014.77
424.887	1113.07
425.094	1125.36
425.302	1205.23
425.51	1180.65
425.718	1268.72
425.925	1240.05
426.133	1240.05
426.341	1395.69
426.548	1414.12
426.756	1444.84
426.964	1375.21
427.171	1469.42
427.379	1594.34
427.586	1563.62
427.794	1649.64
428.001	1727.46
428.209	1793
428.417	1758.18
428.624	1846.24
428.832	1803.24
429.039	1805.28
429.247	1897.44
429.454	2026.47
429.662	2087.9
429.869	1883.11
430.076	2132.96
430.284	2059.23
430.491	2352.09
430.699	2253.79
430.906	2298.84
431.114	2341.85
431.321	2345.95
431.528	2501.59
431.736	2622.42
431.943	2630.62
432.15	2552.79
432.358	2683.86
432.565	2796.5
432.772	2821.08
432.979	2905.04
433.187	3070.93
433.394	3064.79
433.601	3163.09
433.808	3234.77
434.016	3222.48
434.223	3265.49
434.43	3449.8
434.637	3427.28
434.844	3541.96
435.052	3689.42
435.259	3599.31
435.466	3691.46
435.673	3691.46
435.88	3902.4
436.087	4170.69
436.294	4309.95
436.501	4068.29
436.708	4166.59
436.915	4295.61
437.122	4455.36
437.329	4557.75
437.537	4600.76
437.743	4690.87
437.95	4604.86
438.157	4946.87
438.364	4981.68
438.571	5110.71
438.778	5131.19
438.985	5585.83
439.192	5303.22
439.399	5430.19
439.606	5252.02
439.813	5698.47
440.02	5850.02
440.227	6140.83
440.433	5819.3
440.64	6171.55
440.847	5997.48
441.054	6101.92
441.261	6519.71
441.467	6376.35
441.674	6685.59
441.881	6740.89
442.088	6757.27
442.294	6601.63
442.501	6747.03
442.708	6966.17
442.914	7271.31
443.121	7740.3
443.328	7285.65
443.534	7934.85
443.741	7603.08
443.948	7340.94
444.154	8061.83
444.361	8084.36
444.568	8121.22
444.774	8217.47
444.981	8160.13
445.187	8524.67
445.394	8731.51
445.6	8596.35
445.807	9642.86
446.013	9169.78
446.22	9268.08
446.426	9612.14
446.633	9884.52
446.839	10191.72
447.046	9722.73
447.252	10066.79
447.459	10095.46
447.665	10214.24
447.871	10525.54
448.078	11072.34
448.284	10648.41
448.491	10750.81
448.697	11135.83
448.903	11445.07
449.11	11463.51
449.316	11174.74
449.522	11600.72
449.728	11823.95
449.935	11965.26
450.141	11932.49
450.347	12168.01
450.553	11713.36
450.76	11821.9
450.966	12393.28
451.172	12219.21
451.378	12440.39
451.584	12292.93
451.791	12720.96
451.997	12505.92
452.203	12880.7
452.409	12487.49
452.615	12716.86
452.821	12403.52
453.027	12225.35
453.233	12868.41
453.44	12088.14
453.646	12319.56
453.852	12393.28
454.058	12571.46
454.264	12333.89
454.47	12632.9
454.676	12094.28
454.882	12643.14
455.088	11705.17
455.294	11723.6
455.5	11914.06
455.705	12186.44
455.911	11522.9
456.117	11348.82
456.323	11168.6
456.529	10736.48
456.735	11043.67
456.941	10902.36
457.147	10632.03
457.352	10347.36
457.558	10128.23
457.764	10138.47
457.97	10144.61
458.176	9800.55
458.381	9890.67
458.587	9419.63
458.793	9317.23
458.999	8934.26
459.204	9499.5
459.41	9294.71
459.616	8582.01
459.821	8553.34
460.027	8500.09
460.233	8463.23
460.438	7992.2
460.644	8301.44
460.85	7883.66
461.055	7689.1
461.261	7736.2
461.466	6970.26
461.672	6765.46
461.878	7216.02
462.083	6972.31
462.289	6681.5
462.494	6753.18
462.7	6474.65
462.905	6245.28
463.111	6476.7
463.316	6337.44
463.522	6284.19
463.727	6149.03
463.932	6204.32
464.138	6278.05
464.343	6271.9
464.549	6134.69
464.754	6136.74
464.959	6189.99
465.165	6108.07
465.37	5940.13
465.575	5866.41
465.781	6007.72
465.986	6042.53
466.191	5915.56
466.397	5682.09
466.602	5393.33
466.807	5700.52
467.012	5632.94
467.218	5512.11
467.423	5530.54
467.628	5647.27
467.833	5776.3
468.038	5577.64
468.244	5266.35
468.449	5751.72
468.654	5360.56
468.859	5335.98
469.064	5409.71
469.269	5170.1
469.474	5204.91
469.679	5378.99
469.885	4985.78
470.09	5276.59
470.295	5196.72
470.5	5053.36
470.705	5086.13
