Data from USB4F104151__244__14-01-18-896.txt Node

Date: Thu Mar 13 14:01:18 EDT 2025
User: louis
Spectrometer: USB4F10415
Trigger mode: 4
Integration Time (sec): 1.000000E-2
Scans to average: 1
Electric dark correction enabled: true
Nonlinearity correction enabled: false
Boxcar width: 0
XAxis mode: Wavelengths
Number of Pixels in Spectrum: 3648
>>>>>Begin Spectral Data<<<<<
178.204	-38.91
178.424	-38.91
178.644	-38.91
178.864	-96.25
179.084	-38.91
179.304	-6.14
179.524	-12.29
179.744	-4.1
179.964	40.96
180.184	-30.72
180.404	-55.3
180.624	43.01
180.844	38.91
181.064	63.49
181.283	-67.58
181.503	-30.72
181.723	20.48
181.943	26.62
182.163	83.97
182.383	26.62
182.602	-26.62
182.822	108.54
183.042	2.05
183.262	-32.77
183.482	-16.38
183.701	77.82
183.921	57.34
184.141	-24.58
184.361	-0
184.58	-20.48
184.8	34.82
185.02	-6.14
185.239	4.1
185.459	14.34
185.679	34.82
185.898	16.38
186.118	8.19
186.338	20.48
186.557	18.43
186.777	-22.53
186.997	-16.38
187.216	8.19
187.436	18.43
187.655	61.44
187.875	75.77
188.095	-12.29
188.314	-12.29
188.534	51.2
188.753	-79.87
188.973	32.77
189.192	43.01
189.412	-14.34
189.631	4.1
189.851	26.62
190.07	36.86
190.29	6.14
190.509	-34.82
190.729	-36.86
190.948	30.72
191.168	75.77
191.387	2.05
191.607	-4.1
191.826	26.62
192.045	34.82
192.265	36.86
192.484	-30.72
192.704	-2.05
192.923	32.77
193.142	51.2
193.362	-2.05
193.581	-6.14
193.8	53.25
194.02	30.72
194.239	-6.14
194.458	-6.14
194.678	-26.62
194.897	20.48
195.116	47.1
195.335	51.2
195.555	-61.44
195.774	6.14
195.993	26.62
196.212	6.14
196.432	-120.83
196.651	22.53
196.87	112.64
197.089	88.06
197.308	20.48
197.528	-38.91
197.747	-2.05
197.966	-40.96
198.185	-4.1
198.404	26.62
198.623	63.49
198.842	12.29
199.062	53.25
199.281	69.63
199.5	-12.29
199.719	30.72
199.938	43.01
200.157	43.01
200.376	47.1
200.595	49.15
200.814	47.1
201.033	14.34
201.252	57.34
201.471	4.1
201.69	-20.48
201.909	30.72
202.128	6.14
202.347	20.48
202.566	51.2
202.785	77.82
203.004	-40.96
203.223	57.34
203.442	65.53
203.661	-26.62
203.879	38.91
204.098	18.43
204.317	-71.68
204.536	38.91
204.755	30.72
204.974	30.72
205.193	-0
205.411	102.4
205.63	22.53
205.849	4.1
206.068	-22.53
206.287	59.39
206.505	51.2
206.724	28.67
206.943	16.38
207.162	118.78
207.381	22.53
207.599	-2.05
207.818	-8.19
208.037	40.96
208.255	75.77
208.474	22.53
208.693	-2.05
208.911	20.48
209.13	4.1
209.349	75.77
209.567	43.01
209.786	-10.24
210.005	24.58
210.223	26.62
210.442	-12.29
210.661	126.97
210.879	59.39
211.098	-2.05
211.316	-2.05
211.535	18.43
211.753	-40.96
211.972	67.58
212.191	53.25
212.409	43.01
212.628	53.25
212.846	-51.2
213.065	67.58
213.283	18.43
213.502	28.67
213.72	12.29
213.938	14.34
214.157	4.1
214.375	-2.05
214.594	45.06
214.812	2.05
215.031	43.01
215.249	-55.3
215.467	28.67
215.686	69.63
215.904	26.62
216.122	-38.91
216.341	-26.62
216.559	-8.19
216.778	43.01
216.996	14.34
217.214	61.44
217.432	10.24
217.651	-8.19
217.869	16.38
218.087	34.82
218.306	-108.54
218.524	-38.91
218.742	-20.48
218.96	2.05
219.179	8.19
219.397	26.62
219.615	-8.19
219.833	-4.1
220.051	45.06
220.27	67.58
220.488	-43.01
220.706	8.19
220.924	-30.72
221.142	-22.53
221.36	-6.14
221.578	2.05
221.796	-0
222.015	73.73
222.233	63.49
222.451	32.77
222.669	-2.05
222.887	61.44
223.105	12.29
223.323	18.43
223.541	22.53
223.759	-61.44
223.977	-22.53
224.195	22.53
224.413	36.86
224.631	-14.34
224.849	116.73
225.067	106.49
225.285	47.1
225.503	22.53
225.721	-6.14
225.939	34.82
226.157	16.38
226.375	-10.24
226.592	12.29
226.81	47.1
227.028	4.1
227.246	4.1
227.464	-32.77
227.682	45.06
227.9	63.49
228.117	22.53
228.335	67.58
228.553	38.91
228.771	32.77
228.989	53.25
229.206	59.39
229.424	75.77
229.642	18.43
229.86	30.72
230.077	6.14
230.295	-10.24
230.513	28.67
230.731	-6.14
230.948	69.63
231.166	45.06
231.384	83.97
231.601	57.34
231.819	49.15
232.037	36.86
232.254	-28.67
232.472	16.38
232.689	6.14
232.907	59.39
233.125	-14.34
233.342	20.48
233.56	24.58
233.777	77.82
233.995	-6.14
234.213	75.77
234.43	104.45
234.648	-20.48
234.865	28.67
235.083	-12.29
235.3	18.43
235.518	18.43
235.735	67.58
235.953	36.86
236.17	16.38
236.388	12.29
236.605	-8.19
236.822	51.2
237.04	-34.82
237.257	10.24
237.475	-26.62
237.692	-36.86
237.909	-2.05
238.127	22.53
238.344	22.53
238.562	-20.48
238.779	12.29
238.996	28.67
239.214	-94.21
239.431	51.2
239.648	-63.49
239.865	14.34
240.083	20.48
240.3	14.34
240.517	-4.1
240.735	12.29
240.952	18.43
241.169	53.25
241.386	-12.29
241.603	34.82
241.821	51.2
242.038	40.96
242.255	57.34
242.472	-10.24
242.689	4.1
242.907	34.82
243.124	45.06
243.341	-6.14
243.558	-43.01
243.775	-61.44
243.992	10.24
244.209	-6.14
244.426	53.25
244.643	-2.05
244.86	8.19
245.078	-55.3
245.295	24.58
245.512	38.91
245.729	-18.43
245.946	-59.39
246.163	49.15
246.38	38.91
246.597	-55.3
246.814	-45.06
247.031	-20.48
247.248	-67.58
247.464	14.34
247.681	-47.1
247.898	49.15
248.115	57.34
248.332	2.05
248.549	120.83
248.766	90.11
248.983	43.01
249.2	-24.58
249.417	-26.62
249.633	-36.86
249.85	20.48
250.067	38.91
250.284	69.63
250.501	-4.1
250.717	10.24
250.934	4.1
251.151	2.05
251.368	-2.05
251.585	-4.1
251.801	-20.48
252.018	10.24
252.235	20.48
252.451	2.05
252.668	-26.62
252.885	10.24
253.102	-22.53
253.318	4.1
253.535	10.24
253.752	18.43
253.968	-28.67
254.185	92.16
254.401	59.39
254.618	12.29
254.835	14.34
255.051	34.82
255.268	69.63
255.484	30.72
255.701	69.63
255.917	102.4
256.134	-55.3
256.351	20.48
256.567	-2.05
256.784	79.87
257	-43.01
257.217	26.62
257.433	10.24
257.65	77.82
257.866	67.58
258.082	-88.06
258.299	43.01
258.515	-26.62
258.732	-22.53
258.948	-12.29
259.165	-30.72
259.381	-18.43
259.597	81.92
259.814	65.53
260.03	4.1
260.246	-88.06
260.463	49.15
260.679	-51.2
260.895	14.34
261.112	75.77
261.328	22.53
261.544	30.72
261.761	71.68
261.977	43.01
262.193	14.34
262.409	14.34
262.626	30.72
262.842	26.62
263.058	-92.16
263.274	-12.29
263.49	-10.24
263.707	-8.19
263.923	30.72
264.139	57.34
264.355	98.3
264.571	-51.2
264.787	47.1
265.004	43.01
265.22	2.05
265.436	63.49
265.652	-16.38
265.868	59.39
266.084	59.39
266.3	2.05
266.516	53.25
266.732	-26.62
266.948	28.67
267.164	43.01
267.38	10.24
267.596	57.34
267.812	36.86
268.028	43.01
268.244	45.06
268.46	32.77
268.676	40.96
268.892	75.77
269.108	-18.43
269.324	-6.14
269.54	53.25
269.756	79.87
269.972	-0
270.188	51.2
270.403	12.29
270.619	47.1
270.835	-30.72
271.051	32.77
271.267	-57.34
271.483	47.1
271.698	47.1
271.914	49.15
272.13	65.53
272.346	28.67
272.562	32.77
272.777	45.06
272.993	22.53
273.209	-6.14
273.425	22.53
273.64	-6.14
273.856	61.44
274.072	14.34
274.287	43.01
274.503	4.1
274.719	18.43
274.934	79.87
275.15	28.67
275.366	10.24
275.581	-28.67
275.797	4.1
276.012	26.62
276.228	-0
276.444	43.01
276.659	2.05
276.875	6.14
277.09	94.21
277.306	2.05
277.521	-14.34
277.737	30.72
277.952	61.44
278.168	61.44
278.383	18.43
278.599	38.91
278.814	26.62
279.03	-26.62
279.245	45.06
279.461	28.67
279.676	-22.53
279.892	10.24
280.107	32.77
280.322	69.63
280.538	-6.14
280.753	34.82
280.969	10.24
281.184	-4.1
281.399	18.43
281.615	2.05
281.83	10.24
282.045	-26.62
282.26	6.14
282.476	-6.14
282.691	36.86
282.906	-55.3
283.122	73.73
283.337	-40.96
283.552	53.25
283.767	6.14
283.983	2.05
284.198	-2.05
284.413	43.01
284.628	20.48
284.843	96.25
285.058	-47.1
285.274	26.62
285.489	-26.62
285.704	24.58
285.919	-14.34
286.134	83.97
286.349	8.19
286.564	43.01
286.779	20.48
286.995	-122.88
287.21	32.77
287.425	45.06
287.64	4.1
287.855	26.62
288.07	67.58
288.285	67.58
288.5	2.05
288.715	47.1
288.93	-57.34
289.145	18.43
289.36	79.87
289.575	-34.82
289.79	24.58
290.004	-8.19
290.219	51.2
290.434	-34.82
290.649	-38.91
290.864	-22.53
291.079	-45.06
291.294	88.06
291.509	43.01
291.724	2.05
291.938	-8.19
292.153	55.3
292.368	-14.34
292.583	8.19
292.798	14.34
293.012	-20.48
293.227	-18.43
293.442	53.25
293.657	6.14
293.871	61.44
294.086	36.86
294.301	83.97
294.516	81.92
294.73	45.06
294.945	6.14
295.16	4.1
295.374	20.48
295.589	32.77
295.804	49.15
296.018	4.1
296.233	18.43
296.447	40.96
296.662	-4.1
296.877	18.43
297.091	24.58
297.306	14.34
297.52	-63.49
297.735	-4.1
297.949	-20.48
298.164	28.67
298.378	59.39
298.593	-10.24
298.807	36.86
299.022	2.05
299.236	92.16
299.451	28.67
299.665	8.19
299.88	61.44
300.094	32.77
300.309	16.38
300.523	18.43
300.737	26.62
300.952	86.01
301.166	24.58
301.381	65.53
301.595	2.05
301.809	104.45
302.024	86.01
302.238	-8.19
302.452	53.25
302.667	-10.24
302.881	12.29
303.095	16.38
303.309	34.82
303.524	16.38
303.738	6.14
303.952	30.72
304.166	-6.14
304.381	-43.01
304.595	18.43
304.809	20.48
305.023	47.1
305.237	-30.72
305.452	38.91
305.666	12.29
305.88	-4.1
306.094	6.14
306.308	26.62
306.522	81.92
306.736	71.68
306.95	61.44
307.164	18.43
307.379	24.58
307.593	34.82
307.807	67.58
308.021	81.92
308.235	-12.29
308.449	8.19
308.663	26.62
308.877	-10.24
309.091	28.67
309.305	67.58
309.519	22.53
309.733	57.34
309.947	12.29
310.161	69.63
310.374	30.72
310.588	28.67
310.802	-57.34
311.016	-30.72
311.23	47.1
311.444	20.48
311.658	40.96
311.872	6.14
312.085	-30.72
312.299	14.34
312.513	12.29
312.727	-20.48
312.941	71.68
313.154	12.29
313.368	-14.34
313.582	32.77
313.796	24.58
314.009	-30.72
314.223	30.72
314.437	-8.19
314.651	-20.48
314.864	12.29
315.078	22.53
315.292	47.1
315.505	53.25
315.719	69.63
315.933	-2.05
316.146	2.05
316.36	-51.2
316.573	34.82
316.787	-12.29
317.001	18.43
317.214	-73.73
317.428	-14.34
317.641	-14.34
317.855	129.02
318.068	14.34
318.282	26.62
318.495	38.91
318.709	-47.1
318.922	16.38
319.136	36.86
319.349	32.77
319.563	38.91
319.776	22.53
319.99	-16.38
320.203	30.72
320.417	-36.86
320.63	75.77
320.843	12.29
321.057	4.1
321.27	51.2
321.483	43.01
321.697	18.43
321.91	10.24
322.124	61.44
322.337	47.1
322.55	-40.96
322.763	61.44
322.977	-26.62
323.19	-63.49
323.403	71.68
323.617	22.53
323.83	36.86
324.043	22.53
324.256	4.1
324.469	-0
324.683	34.82
324.896	-4.1
325.109	-0
325.322	14.34
325.535	73.73
325.748	-16.38
325.962	59.39
326.175	10.24
326.388	94.21
326.601	38.91
326.814	-67.58
327.027	18.43
327.24	6.14
327.453	43.01
327.666	-30.72
327.879	40.96
328.092	2.05
328.305	4.1
328.518	-4.1
328.731	2.05
328.944	-59.39
329.157	4.1
329.37	49.15
329.583	-18.43
329.796	88.06
330.009	-2.05
330.222	26.62
330.435	22.53
330.648	-24.58
330.861	83.97
331.073	45.06
331.286	-20.48
331.499	65.53
331.712	22.53
331.925	-12.29
332.138	10.24
332.35	96.25
332.563	-30.72
332.776	6.14
332.989	20.48
333.202	63.49
333.414	-32.77
333.627	8.19
333.84	124.93
334.053	57.34
334.265	67.58
334.478	12.29
334.691	-14.34
334.903	26.62
335.116	71.68
335.329	6.14
335.541	57.34
335.754	122.88
335.966	18.43
336.179	10.24
336.392	61.44
336.604	-12.29
336.817	71.68
337.029	10.24
337.242	30.72
337.454	43.01
337.667	55.3
337.88	-8.19
338.092	94.21
338.305	53.25
338.517	-6.14
338.729	-6.14
338.942	40.96
339.154	6.14
339.367	-2.05
339.579	2.05
339.792	53.25
340.004	47.1
340.217	51.2
340.429	32.77
340.641	-32.77
340.854	-36.86
341.066	-12.29
341.278	83.97
341.491	65.53
341.703	53.25
341.915	-45.06
342.128	-10.24
342.34	12.29
342.552	-12.29
342.764	77.82
342.977	61.44
343.189	-14.34
343.401	-18.43
343.613	34.82
343.826	75.77
344.038	-12.29
344.25	28.67
344.462	-38.91
344.674	24.58
344.886	16.38
345.099	14.34
345.311	57.34
345.523	-24.58
345.735	-20.48
345.947	-6.14
346.159	106.49
346.371	45.06
346.583	22.53
346.795	61.44
347.007	69.63
347.219	36.86
347.431	28.67
347.643	-22.53
347.855	81.92
348.067	20.48
348.279	59.39
348.491	28.67
348.703	14.34
348.915	10.24
349.127	24.58
349.339	71.68
349.551	-4.1
349.763	-2.05
349.975	38.91
350.187	69.63
350.399	14.34
350.61	40.96
350.822	-2.05
351.034	67.58
351.246	32.77
351.458	67.58
351.669	30.72
351.881	102.4
352.093	28.67
352.305	43.01
352.517	94.21
352.728	69.63
352.94	22.53
353.152	51.2
353.363	53.25
353.575	38.91
353.787	55.3
353.999	26.62
354.21	83.97
354.422	10.24
354.633	-14.34
354.845	92.16
355.057	47.1
355.268	18.43
355.48	-4.1
355.692	-10.24
355.903	6.14
356.115	-8.19
356.326	-20.48
356.538	92.16
356.749	43.01
356.961	69.63
357.172	26.62
357.384	-30.72
357.595	32.77
357.807	2.05
358.018	36.86
358.23	12.29
358.441	79.87
358.653	47.1
358.864	14.34
359.075	34.82
359.287	26.62
359.498	83.97
359.709	94.21
359.921	-16.38
360.132	-30.72
360.344	22.53
360.555	36.86
360.766	16.38
360.977	53.25
361.189	69.63
361.4	63.49
361.611	38.91
361.823	28.67
362.034	-4.1
362.245	-8.19
362.456	16.38
362.667	10.24
362.879	2.05
363.09	51.2
363.301	-6.14
363.512	-22.53
363.723	49.15
363.935	32.77
364.146	18.43
364.357	40.96
364.568	4.1
364.779	36.86
364.99	61.44
365.201	12.29
365.412	79.87
365.623	61.44
365.834	86.01
366.045	55.3
366.256	-6.14
366.467	126.97
366.678	10.24
366.889	10.24
367.1	10.24
367.311	28.67
367.522	34.82
367.733	-22.53
367.944	-59.39
368.155	20.48
368.366	53.25
368.577	57.34
368.788	49.15
368.999	92.16
369.209	-12.29
369.42	-8.19
369.631	94.21
369.842	38.91
370.053	12.29
370.264	-36.86
370.474	-16.38
370.685	18.43
370.896	8.19
371.107	75.77
371.317	4.1
371.528	34.82
371.739	98.3
371.95	34.82
372.16	22.53
372.371	32.77
372.582	71.68
372.792	32.77
373.003	75.77
373.214	43.01
373.424	-0
373.635	-0
373.846	20.48
374.056	-12.29
374.267	12.29
374.477	110.59
374.688	59.39
374.898	-4.1
375.109	14.34
375.319	36.86
375.53	-38.91
375.74	-40.96
375.951	92.16
376.161	-30.72
376.372	88.06
376.582	-10.24
376.793	98.3
377.003	8.19
377.214	36.86
377.424	51.2
377.635	-26.62
377.845	10.24
378.055	-34.82
378.266	-6.14
378.476	53.25
378.686	40.96
378.897	26.62
379.107	43.01
379.317	67.58
379.528	69.63
379.738	53.25
379.948	-30.72
380.158	108.54
380.369	-12.29
380.579	53.25
380.789	40.96
380.999	24.58
381.21	8.19
381.42	51.2
381.63	-10.24
381.84	65.53
382.05	28.67
382.261	98.3
382.471	34.82
382.681	-36.86
382.891	16.38
383.101	53.25
383.311	-45.06
383.521	34.82
383.731	-8.19
383.941	96.25
384.151	53.25
384.361	57.34
384.571	73.73
384.781	96.25
384.991	61.44
385.201	67.58
385.411	36.86
385.621	26.62
385.831	102.4
386.041	38.91
386.251	28.67
386.461	69.63
386.671	32.77
386.881	34.82
387.091	16.38
387.301	71.68
387.511	49.15
387.72	30.72
387.93	59.39
388.14	26.62
388.35	49.15
388.56	90.11
388.769	47.1
388.979	38.91
389.189	36.86
389.399	75.77
389.609	63.49
389.818	38.91
390.028	-0
390.238	4.1
390.447	20.48
390.657	59.39
390.867	-2.05
391.076	106.49
391.286	114.69
391.496	57.34
391.705	59.39
391.915	32.77
392.125	49.15
392.334	90.11
392.544	12.29
392.753	67.58
392.963	63.49
393.172	77.82
393.382	12.29
393.591	59.39
393.801	32.77
394.01	51.2
394.22	77.82
394.429	43.01
394.639	43.01
394.848	86.01
395.058	45.06
395.267	71.68
395.477	32.77
395.686	88.06
395.895	104.45
396.105	143.36
396.314	149.5
396.524	57.34
396.733	71.68
396.942	36.86
397.152	34.82
397.361	38.91
397.57	102.4
397.78	139.26
397.989	47.1
398.198	77.82
398.407	57.34
398.617	55.3
398.826	-14.34
399.035	126.97
399.244	79.87
399.453	34.82
399.663	26.62
399.872	145.41
400.081	120.83
400.29	75.77
400.499	28.67
400.708	108.54
400.917	18.43
401.127	90.11
401.336	86.01
401.545	36.86
401.754	94.21
401.963	63.49
402.172	151.55
402.381	69.63
402.59	141.31
402.799	14.34
403.008	104.45
403.217	69.63
403.426	192.51
403.635	137.21
403.844	83.97
404.053	120.83
404.262	61.44
404.471	86.01
404.68	137.21
404.888	51.2
405.097	118.78
405.306	151.55
405.515	81.92
405.724	75.77
405.933	75.77
406.142	108.54
406.35	96.25
406.559	57.34
406.768	112.64
406.977	102.4
407.185	118.78
407.394	104.45
407.603	102.4
407.812	135.17
408.02	174.08
408.229	141.31
408.438	73.73
408.646	79.87
408.855	137.21
409.064	118.78
409.272	159.74
409.481	198.65
409.69	153.6
409.898	116.73
410.107	241.66
410.315	212.99
410.524	190.46
410.733	172.03
410.941	194.56
411.15	286.72
411.358	184.32
411.567	294.91
411.775	167.93
411.984	249.85
412.192	296.96
412.401	337.91
412.609	299
412.818	346.11
413.026	249.85
413.234	249.85
413.443	270.33
413.651	309.24
413.86	325.63
414.068	372.73
414.276	356.35
414.485	389.11
414.693	333.82
414.901	411.64
415.11	442.36
415.318	354.3
415.526	425.98
415.734	444.41
415.943	421.88
416.151	475.13
416.359	444.41
416.567	454.65
416.776	468.98
416.984	507.9
417.192	561.14
417.4	569.34
417.608	579.58
417.817	651.25
418.025	589.81
418.233	681.97
418.441	604.15
418.649	655.35
418.857	776.18
419.065	718.84
419.273	663.54
419.481	880.63
419.689	800.76
419.897	823.28
420.105	825.33
420.313	915.44
420.521	892.91
420.729	815.09
420.937	968.69
421.145	1007.6
421.353	995.31
421.561	1091.57
421.769	1155.05
421.977	1177.58
422.185	1165.29
422.393	1265.64
422.601	1198.06
422.809	1271.79
423.017	1247.21
423.224	1370.09
423.432	1474.54
423.64	1386.47
423.848	1558.5
424.056	1503.21
424.263	1495.02
424.471	1681.38
424.679	1589.22
424.887	1708.01
425.094	1695.72
425.302	1669.09
425.51	1863.65
425.718	1890.28
425.925	1888.23
426.133	1980.39
426.341	2111.46
426.548	2220
426.756	2179.04
426.964	2283.49
427.171	2375.64
427.379	2426.84
427.586	2441.18
427.794	2408.41
428.001	2652.12
428.209	2818
428.417	2678.74
428.624	2914.26
428.832	2910.16
429.039	2820.05
429.247	2936.79
429.454	3108.82
429.662	3258.32
429.869	3098.58
430.076	3385.29
430.284	3229.65
430.491	3403.72
430.699	3692.49
430.906	3461.07
431.114	3770.31
431.321	3715.02
431.528	3803.08
431.736	3999.68
431.943	4294.59
432.15	4067.27
432.358	4151.23
432.565	4495.29
432.772	4403.13
432.979	4581.31
433.187	4652.98
433.394	4687.8
433.601	5003.19
433.808	5113.78
434.016	4886.45
434.223	5269.42
434.43	5590.95
434.637	5365.68
434.844	5769.13
435.052	5916.58
435.259	5771.18
435.466	5785.51
435.673	5758.89
435.88	6104.99
436.087	6416.29
436.294	6629.27
436.501	6350.75
436.708	6432.67
436.915	6883.22
437.122	6989.72
437.329	6948.76
437.537	7251.86
437.743	7278.48
437.95	7370.64
438.157	7647.12
438.364	7880.58
438.571	7849.86
438.778	7948.17
438.985	8669.05
439.192	8474.49
439.399	8675.2
439.606	8349.57
439.813	8839.03
440.02	9342.83
440.227	9314.16
440.433	9080.69
440.64	9418.61
440.847	9496.43
441.054	9414.51
441.261	10315.62
441.467	10192.74
441.674	10205.03
441.881	10631.01
442.088	10708.83
442.294	10491.74
442.501	10751.84
442.708	10968.92
442.914	11333.46
443.121	11947.85
443.328	11796.3
443.534	12504.9
443.741	12021.58
443.948	11937.61
444.154	12689.21
444.361	12808
444.568	12863.29
444.774	12934.97
444.981	12967.74
445.187	13506.35
445.394	13778.73
445.6	13864.75
445.807	15054.62
446.013	14296.87
446.22	14534.43
446.426	14956.32
446.633	15204.12
446.839	15836.94
447.046	15380.25
447.252	16058.12
447.459	16129.8
447.665	16230.15
447.871	16539.4
448.078	17606.39
448.284	16615.17
448.491	17049.34
448.697	17757.94
448.903	18269.93
449.11	18218.73
449.316	17735.41
449.522	17921.77
449.728	18542.31
449.935	18759.39
450.141	18618.08
450.347	19261.15
450.553	18734.82
450.76	18769.63
450.966	19490.52
451.172	19418.84
451.378	19721.94
451.584	19384.02
451.791	19779.28
451.997	20010.7
452.203	19947.22
452.409	20125.39
452.615	20029.13
452.821	19269.34
453.027	18898.66
453.233	20004.56
453.44	19379.93
453.646	19459.8
453.852	19721.94
454.058	19896.02
454.264	19291.87
454.47	19459.8
454.676	19224.28
454.882	19777.23
455.088	18116.33
455.294	18527.97
455.5	18732.77
455.705	18849.5
455.911	17919.73
456.117	17536.76
456.323	17612.53
456.529	16428.81
456.735	17280.76
456.941	16779.01
457.147	16451.33
457.352	16150.28
457.558	16076.55
457.764	16097.03
457.97	15513.36
458.176	15240.98
458.381	15263.51
458.587	14585.63
458.793	14749.47
458.999	13729.58
459.204	14815.01
459.41	14493.47
459.616	13512.5
459.821	13385.52
460.027	13516.59
460.233	13016.89
460.438	12707.65
460.644	12701.5
460.85	12199.75
461.055	11732.81
461.261	11749.2
461.466	11038.55
461.672	10643.29
461.878	11417.43
462.083	10743.64
462.289	10512.22
462.494	10305.38
462.7	9940.84
462.905	9766.76
463.111	9989.99
463.316	10108.77
463.522	9686.89
463.727	9688.94
463.932	9766.76
464.138	9586.54
464.343	9777
464.549	9299.83
464.754	9840.49
464.959	9717.61
465.165	9596.78
465.37	9164.66
465.575	8920.95
465.781	9377.65
465.986	9324.4
466.191	9033.59
466.397	8933.24
466.602	8388.48
466.807	8677.24
467.012	8732.54
467.218	8771.45
467.423	8505.21
467.628	8738.68
467.833	8963.96
468.038	8775.55
468.244	8726.39
468.449	8937.34
468.654	8486.78
468.859	8413.06
469.064	8427.39
