Data from USB4F104151__196__13-59-39-747.txt Node

Date: Thu Mar 13 13:59:39 EDT 2025
User: louis
Spectrometer: USB4F10415
Trigger mode: 4
Integration Time (sec): 1.000000E-2
Scans to average: 1
Electric dark correction enabled: true
Nonlinearity correction enabled: false
Boxcar width: 0
XAxis mode: Wavelengths
Number of Pixels in Spectrum: 3648
>>>>>Begin Spectral Data<<<<<
178.204	-89.26
178.424	-89.26
178.644	-89.26
178.864	-5.29
179.084	-105.64
179.304	-13.48
179.524	31.57
179.744	-68.78
179.964	31.57
180.184	-50.35
180.404	19.29
180.624	-15.53
180.844	-17.58
181.064	0.85
181.283	7
181.503	29.52
181.723	45.91
181.943	-83.11
182.163	37.72
182.383	-74.92
182.602	58.2
182.822	-25.77
183.042	2.9
183.262	0.85
183.482	-15.53
183.701	-7.34
183.921	39.76
184.141	29.52
184.361	47.96
184.58	-9.39
184.8	-38.06
185.02	-29.87
185.239	-3.24
185.459	11.09
185.679	27.48
185.898	11.09
186.118	70.48
186.338	-19.63
186.557	35.67
186.777	11.09
186.997	-11.43
187.216	-56.49
187.436	45.91
187.655	11.09
187.875	37.72
188.095	-1.19
188.314	35.67
188.534	39.76
188.753	-79.02
188.973	39.76
189.192	19.29
189.412	-58.54
189.631	50
189.851	9.05
190.07	-27.82
190.29	7
190.509	-50.35
190.729	84.82
190.948	31.57
191.168	84.82
191.387	47.96
191.607	-5.29
191.826	-17.58
192.045	11.09
192.265	-48.3
192.484	-11.43
192.704	0.85
192.923	-15.53
193.142	15.19
193.362	54.1
193.581	11.09
193.8	21.33
194.02	64.34
194.239	-33.96
194.458	-54.44
194.678	-23.72
194.897	-42.15
195.116	-48.3
195.335	-31.91
195.555	-19.63
195.774	37.72
195.993	13.14
196.212	41.81
196.432	-58.54
196.651	17.24
196.87	39.76
197.089	-25.77
197.308	64.34
197.528	64.34
197.747	50
197.966	-33.96
198.185	56.15
198.404	-7.34
198.623	-31.91
198.842	13.14
199.062	-56.49
199.281	31.57
199.5	-38.06
199.719	31.57
199.938	-21.67
200.157	15.19
200.376	41.81
200.595	43.86
200.814	-15.53
201.033	-1.19
201.252	-40.11
201.471	17.24
201.69	-33.96
201.909	13.14
202.128	-56.49
202.347	0.85
202.566	23.38
202.785	43.86
203.004	68.44
203.223	45.91
203.442	15.19
203.661	88.92
203.879	7
204.098	7
204.317	39.76
204.536	39.76
204.755	70.48
204.974	31.57
205.193	39.76
205.411	47.96
205.63	72.53
205.849	66.39
206.068	25.43
206.287	-15.53
206.505	-56.49
206.724	-13.48
206.943	15.19
207.162	-62.63
207.381	142.16
207.599	23.38
207.818	-11.43
208.037	-31.91
208.255	-17.58
208.474	50
208.693	21.33
208.911	31.57
209.13	43.86
209.349	17.24
209.567	11.09
209.786	50
210.005	39.76
210.223	56.15
210.442	60.24
210.661	37.72
210.879	13.14
211.098	11.09
211.316	66.39
211.535	84.82
211.753	-23.72
211.972	13.14
212.191	-15.53
212.409	58.2
212.628	7
212.846	-56.49
213.065	-5.29
213.283	37.72
213.502	25.43
213.72	-7.34
213.938	-42.15
214.157	-21.67
214.375	-9.39
214.594	31.57
214.812	43.86
215.031	-11.43
215.249	15.19
215.467	-46.25
215.686	-13.48
215.904	33.62
216.122	-5.29
216.341	74.58
216.559	41.81
216.778	74.58
216.996	2.9
217.214	33.62
217.432	25.43
217.651	84.82
217.869	88.92
218.087	64.34
218.306	41.81
218.524	23.38
218.742	23.38
218.96	-38.06
219.179	66.39
219.397	50
219.615	2.9
219.833	21.33
220.051	25.43
220.27	7
220.488	0.85
220.706	17.24
220.924	-46.25
221.142	74.58
221.36	0.85
221.578	-17.58
221.796	4.95
222.015	25.43
222.233	-5.29
222.451	15.19
222.669	-1.19
222.887	99.16
223.105	-13.48
223.323	72.53
223.541	7
223.759	37.72
223.977	-1.19
224.195	15.19
224.413	2.9
224.631	52.05
224.849	2.9
225.067	41.81
225.285	-19.63
225.503	62.29
225.721	27.48
225.939	-33.96
226.157	-62.63
226.375	58.2
226.592	-23.72
226.81	47.96
227.028	37.72
227.246	58.2
227.464	58.2
227.682	17.24
227.9	72.53
228.117	60.24
228.335	17.24
228.553	0.85
228.771	37.72
228.989	47.96
229.206	7
229.424	-48.3
229.642	-7.34
229.86	52.05
230.077	-9.39
230.295	-29.87
230.513	64.34
230.731	41.81
230.948	74.58
231.166	54.1
231.384	-23.72
231.601	27.48
231.819	-21.67
232.037	-31.91
232.254	97.11
232.472	78.68
232.689	45.91
232.907	-48.3
233.125	19.29
233.342	13.14
233.56	37.72
233.777	23.38
233.995	15.19
234.213	76.63
234.43	27.48
234.648	-50.35
234.865	13.14
235.083	29.52
235.3	21.33
235.518	-17.58
235.735	11.09
235.953	33.62
236.17	-9.39
236.388	-17.58
236.605	23.38
236.822	-23.72
237.04	31.57
237.257	47.96
237.475	47.96
237.692	17.24
237.909	62.29
238.127	47.96
238.344	15.19
238.562	33.62
238.779	-17.58
238.996	19.29
239.214	56.15
239.431	7
239.648	-17.58
239.865	-36.01
240.083	7
240.3	17.24
240.517	-64.68
240.735	33.62
240.952	93.01
241.169	9.05
241.386	-58.54
241.603	19.29
241.821	0.85
242.038	-27.82
242.255	4.95
242.472	99.16
242.689	11.09
242.907	29.52
243.124	39.76
243.341	-33.96
243.558	-3.24
243.775	52.05
243.992	-31.91
244.209	64.34
244.426	50
244.643	-83.11
244.86	-25.77
245.078	-13.48
245.295	25.43
245.512	-91.31
245.729	-1.19
245.946	105.3
246.163	11.09
246.38	7
246.597	7
246.814	17.24
247.031	76.63
247.248	52.05
247.464	-1.19
247.681	13.14
247.898	-33.96
248.115	25.43
248.332	7
248.549	39.76
248.766	7
248.983	-33.96
249.2	-9.39
249.417	64.34
249.633	-11.43
249.85	29.52
250.067	7
250.284	-13.48
250.501	31.57
250.717	31.57
250.934	80.72
251.151	52.05
251.368	56.15
251.585	41.81
251.801	-64.68
252.018	15.19
252.235	31.57
252.451	27.48
252.668	25.43
252.885	-7.34
253.102	37.72
253.318	-33.96
253.535	-74.92
253.752	17.24
253.968	45.91
254.185	2.9
254.401	78.68
254.618	47.96
254.835	-72.87
255.051	15.19
255.268	23.38
255.484	64.34
255.701	4.95
255.917	-1.19
256.134	7
256.351	56.15
256.567	-17.58
256.784	93.01
257	25.43
257.217	56.15
257.433	23.38
257.65	50
257.866	50
258.082	105.3
258.299	17.24
258.515	7
258.732	-33.96
258.948	-31.91
259.165	0.85
259.381	2.9
259.597	7
259.814	101.2
260.03	72.53
260.246	21.33
260.463	27.48
260.679	0.85
260.895	29.52
261.112	0.85
261.328	-23.72
261.544	4.95
261.761	58.2
261.977	7
262.193	43.86
262.409	27.48
262.626	-42.15
262.842	-11.43
263.058	-7.34
263.274	-19.63
263.49	39.76
263.707	52.05
263.923	17.24
264.139	78.68
264.355	2.9
264.571	107.35
264.787	-1.19
265.004	103.25
265.22	17.24
265.436	54.1
265.652	13.14
265.868	64.34
266.084	7
266.3	72.53
266.516	103.25
266.732	41.81
266.948	-17.58
267.164	-33.96
267.38	47.96
267.596	-23.72
267.812	23.38
268.028	13.14
268.244	-1.19
268.46	-9.39
268.676	52.05
268.892	4.95
269.108	2.9
269.324	21.33
269.54	-46.25
269.756	68.44
269.972	-1.19
270.188	41.81
270.403	25.43
270.619	37.72
270.835	35.67
271.051	9.05
271.267	23.38
271.483	-15.53
271.698	27.48
271.914	-1.19
272.13	-23.72
272.346	52.05
272.562	-17.58
272.777	-5.29
272.993	-5.29
273.209	-52.39
273.425	66.39
273.64	88.92
273.856	31.57
274.072	68.44
274.287	37.72
274.503	13.14
274.719	29.52
274.934	47.96
275.15	-5.29
275.366	-5.29
275.581	-7.34
275.797	-7.34
276.012	27.48
276.228	-9.39
276.444	15.19
276.659	23.38
276.875	-15.53
277.09	58.2
277.306	72.53
277.521	64.34
277.737	-46.25
277.952	39.76
278.168	39.76
278.383	47.96
278.599	62.29
278.814	15.19
279.03	-21.67
279.245	9.05
279.461	33.62
279.676	56.15
279.892	-21.67
280.107	47.96
280.322	15.19
280.538	56.15
280.753	-11.43
280.969	54.1
281.184	21.33
281.399	41.81
281.615	-15.53
281.83	119.64
282.045	-48.3
282.26	31.57
282.476	-38.06
282.691	119.64
282.906	60.24
283.122	66.39
283.337	15.19
283.552	17.24
283.767	43.86
283.983	58.2
284.198	9.05
284.413	39.76
284.628	35.67
284.843	11.09
285.058	56.15
285.274	-15.53
285.489	-17.58
285.704	13.14
285.919	54.1
286.134	21.33
286.349	2.9
286.564	64.34
286.779	2.9
286.995	-17.58
287.21	37.72
287.425	0.85
287.64	11.09
287.855	84.82
288.07	7
288.285	64.34
288.5	66.39
288.715	17.24
288.93	2.9
289.145	33.62
289.36	-33.96
289.575	33.62
289.79	21.33
290.004	11.09
290.219	31.57
290.434	82.77
290.649	-19.63
290.864	-17.58
291.079	31.57
291.294	-23.72
291.509	66.39
291.724	70.48
291.938	19.29
292.153	21.33
292.368	11.09
292.583	56.15
292.798	31.57
293.012	9.05
293.227	72.53
293.442	66.39
293.657	4.95
293.871	50
294.086	23.38
294.301	39.76
294.516	-13.48
294.73	52.05
294.945	-25.77
295.16	97.11
295.374	-56.49
295.589	-9.39
295.804	-68.78
296.018	45.91
296.233	111.44
296.447	33.62
296.662	64.34
296.877	66.39
297.091	62.29
297.306	35.67
297.52	-3.24
297.735	31.57
297.949	39.76
298.164	21.33
298.378	35.67
298.593	23.38
298.807	64.34
299.022	27.48
299.236	33.62
299.451	60.24
299.665	-7.34
299.88	78.68
300.094	50
300.309	31.57
300.523	19.29
300.737	95.06
300.952	0.85
301.166	140.12
301.381	64.34
301.595	58.2
301.809	-9.39
302.024	15.19
302.238	-7.34
302.452	-3.24
302.667	9.05
302.881	70.48
303.095	15.19
303.309	84.82
303.524	86.87
303.738	70.48
303.952	-13.48
304.166	68.44
304.381	-21.67
304.595	47.96
304.809	-7.34
305.023	-9.39
305.237	35.67
305.452	56.15
305.666	31.57
305.88	-17.58
306.094	64.34
306.308	31.57
306.522	-3.24
306.736	80.72
306.95	109.4
307.164	7
307.379	23.38
307.593	56.15
307.807	4.95
308.021	15.19
308.235	-3.24
308.449	93.01
308.663	52.05
308.877	2.9
309.091	97.11
309.305	19.29
309.519	43.86
309.733	27.48
309.947	-29.87
310.161	113.49
310.374	21.33
310.588	60.24
310.802	27.48
311.016	103.25
311.23	52.05
311.444	39.76
311.658	84.82
311.872	76.63
312.085	66.39
312.299	-50.35
312.513	52.05
312.727	99.16
312.941	31.57
313.154	64.34
313.368	43.86
313.582	31.57
313.796	15.19
314.009	39.76
314.223	136.02
314.437	76.63
314.651	60.24
314.864	11.09
315.078	-23.72
315.292	29.52
315.505	-17.58
315.719	50
315.933	86.87
316.146	47.96
316.36	-13.48
316.573	17.24
316.787	21.33
317.001	47.96
317.214	39.76
317.428	0.85
317.641	17.24
317.855	27.48
318.068	86.87
318.282	23.38
318.495	17.24
318.709	58.2
318.922	62.29
319.136	-23.72
319.349	93.01
319.563	56.15
319.776	86.87
319.99	31.57
320.203	64.34
320.417	58.2
320.63	70.48
320.843	31.57
321.057	-21.67
321.27	7
321.483	19.29
321.697	43.86
321.91	21.33
322.124	15.19
322.337	15.19
322.55	39.76
322.763	54.1
322.977	19.29
323.19	88.92
323.403	47.96
323.617	74.58
323.83	64.34
324.043	35.67
324.256	88.92
324.469	35.67
324.683	76.63
324.896	-9.39
325.109	-1.19
325.322	45.91
325.535	107.35
325.748	-1.19
325.962	-29.87
326.175	29.52
326.388	37.72
326.601	19.29
326.814	74.58
327.027	64.34
327.24	50
327.453	39.76
327.666	7
327.879	29.52
328.092	109.4
328.305	31.57
328.518	-9.39
328.731	60.24
328.944	93.01
329.157	-3.24
329.37	29.52
329.583	41.81
329.796	-44.2
330.009	-25.77
330.222	41.81
330.435	82.77
330.648	43.86
330.861	64.34
331.073	58.2
331.286	39.76
331.499	70.48
331.712	7
331.925	43.86
332.138	68.44
332.35	-33.96
332.563	11.09
332.776	29.52
332.989	43.86
333.202	160.59
333.414	-7.34
333.627	66.39
333.84	17.24
334.053	58.2
334.265	-17.58
334.478	70.48
334.691	47.96
334.903	45.91
335.116	64.34
335.329	7
335.541	35.67
335.754	97.11
335.966	39.76
336.179	17.24
336.392	-42.15
336.604	25.43
336.817	82.77
337.029	-1.19
337.242	97.11
337.454	13.14
337.667	88.92
337.88	39.76
338.092	-81.07
338.305	23.38
338.517	37.72
338.729	84.82
338.942	70.48
339.154	64.34
339.367	60.24
339.579	76.63
339.792	72.53
340.004	41.81
340.217	66.39
340.429	37.72
340.641	45.91
340.854	50
341.066	86.87
341.278	29.52
341.491	101.2
341.703	45.91
341.915	29.52
342.128	90.96
342.34	-11.43
342.552	56.15
342.764	52.05
342.977	7
343.189	-9.39
343.401	19.29
343.613	29.52
343.826	72.53
344.038	54.1
344.25	-38.06
344.462	-23.72
344.674	76.63
344.886	27.48
345.099	74.58
345.311	-3.24
345.523	25.43
345.735	11.09
345.947	15.19
346.159	52.05
346.371	-11.43
346.583	101.2
346.795	19.29
347.007	19.29
347.219	99.16
347.431	-17.58
347.643	-27.82
347.855	99.16
348.067	125.78
348.279	29.52
348.491	50
348.703	45.91
348.915	0.85
349.127	-9.39
349.339	45.91
349.551	58.2
349.763	47.96
349.975	-48.3
350.187	64.34
350.399	43.86
350.61	68.44
350.822	9.05
351.034	-31.91
351.246	101.2
351.458	93.01
351.669	86.87
351.881	64.34
352.093	99.16
352.305	31.57
352.517	23.38
352.728	103.25
352.94	47.96
353.152	-25.77
353.363	72.53
353.575	31.57
353.787	50
353.999	-5.29
354.21	105.3
354.422	41.81
354.633	-5.29
354.845	-13.48
355.057	7
355.268	99.16
355.48	-5.29
355.692	86.87
355.903	76.63
356.115	82.77
356.326	-15.53
356.538	70.48
356.749	-36.01
356.961	29.52
357.172	27.48
357.384	21.33
357.595	99.16
357.807	45.91
358.018	76.63
358.23	31.57
358.441	47.96
358.653	64.34
358.864	72.53
359.075	-3.24
359.287	52.05
359.498	70.48
359.709	0.85
359.921	15.19
360.132	50
360.344	23.38
360.555	58.2
360.766	39.76
360.977	-33.96
361.189	72.53
361.4	19.29
361.611	33.62
361.823	45.91
362.034	47.96
362.245	111.44
362.456	-5.29
362.667	-5.29
362.879	41.81
363.09	50
363.301	99.16
363.512	-21.67
363.723	17.24
363.935	78.68
364.146	70.48
364.357	56.15
364.568	78.68
364.779	-25.77
364.99	35.67
365.201	60.24
365.412	17.24
365.623	-21.67
365.834	66.39
366.045	21.33
366.256	39.76
366.467	41.81
366.678	23.38
366.889	97.11
367.1	43.86
367.311	45.91
367.522	23.38
367.733	101.2
367.944	60.24
368.155	17.24
368.366	101.2
368.577	25.43
368.788	80.72
368.999	52.05
369.209	64.34
369.42	15.19
369.631	158.55
369.842	47.96
370.053	-13.48
370.264	9.05
370.474	86.87
370.685	37.72
370.896	88.92
371.107	19.29
371.317	15.19
371.528	21.33
371.739	-7.34
371.95	72.53
372.16	105.3
372.371	-29.87
372.582	82.77
372.792	70.48
373.003	54.1
373.214	58.2
373.424	0.85
373.635	45.91
373.846	56.15
374.056	-11.43
374.267	33.62
374.477	72.53
374.688	101.2
374.898	56.15
375.109	64.34
375.319	99.16
375.53	70.48
375.74	2.9
375.951	2.9
376.161	82.77
376.372	107.35
376.582	-31.91
376.793	66.39
377.003	39.76
377.214	84.82
377.424	62.29
377.635	66.39
377.845	9.05
378.055	88.92
378.266	58.2
378.476	95.06
378.686	35.67
378.897	131.92
379.107	78.68
379.317	-5.29
379.528	25.43
379.738	111.44
379.948	84.82
380.158	19.29
380.369	43.86
380.579	58.2
380.789	101.2
380.999	27.48
381.21	33.62
381.42	54.1
381.63	-23.72
381.84	74.58
382.05	41.81
382.261	23.38
382.471	154.45
382.681	25.43
382.891	60.24
383.101	27.48
383.311	-21.67
383.521	60.24
383.731	-1.19
383.941	-29.87
384.151	80.72
384.361	78.68
384.571	52.05
384.781	17.24
384.991	119.64
385.201	39.76
385.411	76.63
385.621	56.15
385.831	54.1
386.041	29.52
386.251	56.15
386.461	88.92
386.671	39.76
386.881	90.96
387.091	127.83
387.301	23.38
387.511	9.05
387.72	72.53
387.93	9.05
388.14	47.96
388.35	109.4
388.56	78.68
388.769	56.15
388.979	31.57
389.189	105.3
389.399	78.68
389.609	54.1
389.818	93.01
390.028	58.2
390.238	80.72
390.447	7
390.657	93.01
390.867	56.15
391.076	115.54
391.286	133.97
391.496	72.53
391.705	70.48
391.915	74.58
392.125	93.01
392.334	113.49
392.544	54.1
392.753	84.82
392.963	47.96
393.172	183.12
393.382	23.38
393.591	66.39
393.801	156.5
394.01	74.58
394.22	86.87
394.429	68.44
394.639	27.48
394.848	166.74
395.058	33.62
395.267	17.24
395.477	47.96
395.686	105.3
395.895	123.73
396.105	99.16
396.314	109.4
396.524	43.86
396.733	158.55
396.942	103.25
397.152	82.77
397.361	125.78
397.57	82.77
397.78	97.11
397.989	170.83
398.198	90.96
398.407	113.49
398.617	95.06
398.826	109.4
399.035	60.24
399.244	142.16
399.453	50
399.663	125.78
399.872	172.88
400.081	82.77
400.29	97.11
400.499	64.34
400.708	146.26
400.917	150.36
401.127	99.16
401.336	131.92
401.545	232.27
401.754	181.07
401.963	47.96
402.172	158.55
402.381	158.55
402.59	103.25
402.799	119.64
403.008	117.59
403.217	179.03
403.426	88.92
403.635	125.78
403.844	199.51
404.053	148.31
404.262	101.2
404.471	162.64
404.68	181.07
404.888	146.26
405.097	95.06
405.306	154.45
405.515	228.18
405.724	131.92
405.933	146.26
406.142	179.03
406.35	262.99
406.559	219.99
406.768	222.03
406.977	201.55
407.185	181.07
407.394	230.23
407.603	226.13
407.812	275.28
408.02	215.89
408.229	246.61
408.438	250.71
408.646	238.42
408.855	281.43
409.064	262.99
409.272	353.1
409.481	338.77
409.69	308.05
409.898	254.8
410.107	322.38
410.315	289.62
410.524	387.92
410.733	443.21
410.941	375.63
411.15	426.83
411.358	359.25
411.567	428.88
411.775	441.17
411.984	445.26
412.192	498.51
412.401	492.37
412.609	551.76
412.818	551.76
413.026	617.29
413.234	574.28
413.443	637.77
413.651	611.15
413.86	600.91
414.068	729.93
414.276	711.5
414.485	695.11
414.693	764.75
414.901	740.17
415.11	756.55
415.318	768.84
415.526	873.29
415.734	850.76
415.943	854.86
416.151	926.54
416.359	953.16
416.567	961.35
416.776	963.4
416.984	1006.41
417.192	1020.74
417.4	1094.47
417.608	1098.56
417.817	1205.06
418.025	1194.82
418.233	1260.35
418.441	1246.02
418.649	1381.18
418.857	1483.58
419.065	1516.35
419.273	1461.06
419.481	1553.21
419.689	1669.95
419.897	1680.19
420.105	1751.87
420.313	1721.15
420.521	1827.64
420.729	1864.5
420.937	1956.66
421.145	1960.76
421.353	2091.83
421.561	2235.19
421.769	2161.46
421.977	2292.53
422.185	2253.62
422.393	2452.27
422.601	2700.08
422.809	2566.96
423.017	2577.2
423.224	2712.36
423.432	2882.35
423.64	2880.3
423.848	3033.9
424.056	3099.43
424.263	3150.63
424.471	3191.59
424.679	3316.51
424.887	3611.42
425.094	3570.46
425.302	3638.05
425.51	3672.86
425.718	3885.85
425.925	3799.84
426.133	4104.98
426.341	4154.13
426.548	4403.99
426.756	4410.13
426.964	4442.9
427.171	4899.59
427.379	4889.35
427.586	4905.74
427.794	5161.73
428.001	5274.37
428.209	5509.89
428.417	5516.03
428.624	5853.95
428.832	5831.42
429.039	5833.47
429.247	5888.76
429.454	6482.67
429.662	6656.75
429.869	6288.12
430.076	6634.22
430.284	6580.98
430.491	6896.36
430.699	7457.51
430.906	7463.65
431.114	7363.3
431.321	7699.17
431.528	7813.85
431.736	8420.05
431.943	8587.99
432.15	8583.89
432.358	8657.62
432.565	8964.81
432.772	9040.59
432.979	9495.24
433.187	9620.16
433.394	9464.52
433.601	10306.23
433.808	10443.45
434.016	10232.51
434.223	10607.28
434.43	11188.91
434.637	11283.11
434.844	11721.38
435.052	12206.75
435.259	11848.35
435.466	12100.25
435.673	12008.09
435.88	12843.67
436.087	13306.51
436.294	13400.71
436.501	12821.14
436.708	13425.29
436.915	13714.05
437.122	14271.1
437.329	14353.02
437.537	14940.79
437.743	15000.18
437.95	14879.35
438.157	15651.43
438.364	16292.44
438.571	16056.93
438.778	16271.97
438.985	17707.59
439.192	16867.92
439.399	17648.2
439.606	17175.12
439.813	18235.97
440.02	19292.72
440.227	18950.71
440.433	18684.47
440.64	19325.49
440.847	19171.89
441.054	19931.69
441.261	21076.5
441.467	20892.18
441.674	21506.57
441.881	22000.13
442.088	22196.74
442.294	21674.51
442.501	22346.24
442.708	22897.14
442.914	23736.81
443.121	24586.72
443.328	23714.28
443.534	25579.98
443.741	24533.47
443.948	24492.51
444.154	26329.54
444.361	26364.36
444.568	26542.53
444.774	26393.03
444.981	26833.34
445.187	27677.1
445.394	28858.78
445.6	28080.55
445.807	30982.52
446.013	29782.41
446.22	30208.39
446.426	31359.35
446.633	31955.31
446.839	33255.77
447.046	31437.17
447.252	33159.52
447.459	33540.44
447.665	33147.23
447.871	34591.05
448.078	36276.52
448.284	34339.15
448.491	35244.35
448.697	36788.52
448.903	36997.41
449.11	37222.69
449.316	36866.34
449.522	37302.56
449.728	37918.99
449.935	38807.81
450.141	38897.92
450.347	39559.42
450.553	38142.22
450.76	39010.56
450.966	40147.18
451.172	39139.58
451.378	40700.14
451.584	39737.59
451.791	40827.11
451.997	40468.72
452.203	41158.88
452.409	41380.06
452.615	41238.75
452.821	39346.43
453.027	39213.31
453.233	41238.75
453.44	40018.16
453.646	40028.4
453.852	40114.42
454.058	41074.91
454.264	39682.3
454.47	40509.68
454.676	39856.37
454.882	41126.11
455.088	37407
455.294	38250.77
455.5	38498.57
455.705	39076.1
455.911	37419.29
456.117	36761.89
456.323	36399.4
456.529	34330.95
456.735	35549.49
456.941	35197.24
457.147	34335.05
457.352	33665.36
457.558	33075.55
457.764	33190.23
457.97	32475.49
458.176	31756.66
458.381	31672.69
458.587	30325.13
458.793	30194.06
458.999	28647.84
459.204	30548.36
459.41	29864.33
459.616	28107.18
459.821	27947.43
460.027	27695.53
460.233	27318.71
460.438	26026.44
460.644	26515.9
460.85	25278.93
461.055	24820.19
461.261	24543.71
461.466	22911.48
461.672	22274.56
461.878	23720.43
462.083	21996.04
462.289	22041.09
462.494	21649.93
462.7	20898.33
462.905	20116
463.111	20976.15
463.316	20927
463.522	20478.49
463.727	20503.07
463.932	20505.12
464.138	20554.27
464.343	20273.7
464.549	19767.85
464.754	20310.56
464.959	20269.6
465.165	20197.92
465.37	19415.6
465.575	18676.28
465.781	19380.78
465.986	19907.11
466.191	18750.01
466.397	18571.83
466.602	17539.66
466.807	18225.73
467.012	18440.76
467.218	18233.92
467.423	18004.55
467.628	18014.79
467.833	18989.62
468.038	18268.73
468.244	17701.45
468.449	18553.4
468.654	17609.29
