Data from USB4F104151__205__13-59-51-265.txt Node

Date: Thu Mar 13 13:59:51 EDT 2025
User: louis
Spectrometer: USB4F10415
Trigger mode: 4
Integration Time (sec): 1.000000E-2
Scans to average: 1
Electric dark correction enabled: true
Nonlinearity correction enabled: false
Boxcar width: 0
XAxis mode: Wavelengths
Number of Pixels in Spectrum: 3648
>>>>>Begin Spectral Data<<<<<
178.204	-49.66
178.424	-49.66
178.644	-49.66
178.864	-23.04
179.084	-45.57
179.304	-49.66
179.524	-10.75
179.744	-2.56
179.964	44.54
180.184	40.45
180.404	26.11
180.624	7.68
180.844	-59.9
181.064	9.73
181.283	-6.66
181.503	19.97
181.723	-18.94
181.943	-0.51
182.163	85.5
182.383	19.97
182.602	44.54
182.822	26.11
183.042	3.58
183.262	-18.94
183.482	-18.94
183.701	58.88
183.921	46.59
184.141	-51.71
184.361	40.45
184.58	9.73
184.8	9.73
185.02	44.54
185.239	-39.42
185.459	73.21
185.679	1.54
185.898	-4.61
186.118	-53.76
186.338	54.78
186.557	44.54
186.777	-14.85
186.997	-14.85
187.216	3.58
187.436	58.88
187.655	36.35
187.875	62.98
188.095	-68.09
188.314	1.54
188.534	71.17
188.753	11.78
188.973	9.73
189.192	28.16
189.412	-0.51
189.631	50.69
189.851	34.3
190.07	42.5
190.29	69.12
190.509	60.93
190.729	50.69
190.948	77.31
191.168	36.35
191.387	-39.42
191.607	3.58
191.826	34.3
192.045	67.07
192.265	1.54
192.484	-2.56
192.704	-14.85
192.923	-64
193.142	34.3
193.362	9.73
193.581	42.5
193.8	3.58
194.02	-4.61
194.239	42.5
194.458	-0.51
194.678	19.97
194.897	50.69
195.116	36.35
195.335	-25.09
195.555	19.97
195.774	32.26
195.993	7.68
196.212	-14.85
196.432	1.54
196.651	42.5
196.87	32.26
197.089	9.73
197.308	65.02
197.528	128.51
197.747	-16.9
197.966	46.59
198.185	-6.66
198.404	9.73
198.623	73.21
198.842	-29.18
199.062	50.69
199.281	17.92
199.5	-2.56
199.719	-2.56
199.938	-14.85
200.157	58.88
200.376	62.98
200.595	40.45
200.814	52.74
201.033	58.88
201.252	71.17
201.471	73.21
201.69	44.54
201.909	-20.99
202.128	58.88
202.347	1.54
202.566	-14.85
202.785	-18.94
203.004	-18.94
203.223	3.58
203.442	-12.8
203.661	62.98
203.879	-41.47
204.098	34.3
204.317	-66.05
204.536	48.64
204.755	-4.61
204.974	-23.04
205.193	-61.95
205.411	-0.51
205.63	73.21
205.849	-64
206.068	15.87
206.287	5.63
206.505	48.64
206.724	15.87
206.943	42.5
207.162	42.5
207.381	-61.95
207.599	-0.51
207.818	19.97
208.037	50.69
208.255	-16.9
208.474	52.74
208.693	38.4
208.911	19.97
209.13	17.92
209.349	1.54
209.567	-23.04
209.786	-12.8
210.005	9.73
210.223	9.73
210.442	-43.52
210.661	19.97
210.879	26.11
211.098	5.63
211.316	5.63
211.535	67.07
211.753	50.69
211.972	50.69
212.191	-4.61
212.409	97.79
212.628	81.41
212.846	44.54
213.065	26.11
213.283	3.58
213.502	-8.7
213.72	50.69
213.938	-6.66
214.157	36.35
214.375	60.93
214.594	65.02
214.812	15.87
215.031	7.68
215.249	56.83
215.467	-78.33
215.686	15.87
215.904	44.54
216.122	36.35
216.341	42.5
216.559	44.54
216.778	-0.51
216.996	38.4
217.214	13.82
217.432	-8.7
217.651	9.73
217.869	-20.99
218.087	13.82
218.306	38.4
218.524	-20.99
218.742	13.82
218.96	1.54
219.179	-23.04
219.397	-27.14
219.615	9.73
219.833	19.97
220.051	-78.33
220.27	91.65
220.488	7.68
220.706	42.5
220.924	69.12
221.142	9.73
221.36	9.73
221.578	22.02
221.796	19.97
222.015	17.92
222.233	1.54
222.451	30.21
222.669	7.68
222.887	-39.42
223.105	1.54
223.323	-20.99
223.541	24.06
223.759	101.89
223.977	-31.23
224.195	28.16
224.413	50.69
224.631	7.68
224.849	17.92
225.067	103.93
225.285	13.82
225.503	17.92
225.721	-35.33
225.939	-16.9
226.157	24.06
226.375	58.88
226.592	50.69
226.81	42.5
227.028	-4.61
227.246	54.78
227.464	-4.61
227.682	-12.8
227.9	-23.04
228.117	3.58
228.335	1.54
228.553	-23.04
228.771	-8.7
228.989	26.11
229.206	30.21
229.424	19.97
229.642	-4.61
229.86	-14.85
230.077	60.93
230.295	56.83
230.513	15.87
230.731	85.5
230.948	15.87
231.166	77.31
231.384	103.93
231.601	24.06
231.819	11.78
232.037	58.88
232.254	40.45
232.472	34.3
232.689	-31.23
232.907	34.3
233.125	-51.71
233.342	54.78
233.56	36.35
233.777	11.78
233.995	-18.94
234.213	30.21
234.43	-18.94
234.648	19.97
234.865	-43.52
235.083	42.5
235.3	13.82
235.518	24.06
235.735	1.54
235.953	52.74
236.17	-0.51
236.388	1.54
236.605	42.5
236.822	58.88
237.04	30.21
237.257	69.12
237.475	28.16
237.692	28.16
237.909	-10.75
238.127	-6.66
238.344	19.97
238.562	32.26
238.779	-12.8
238.996	44.54
239.214	-8.7
239.431	34.3
239.648	17.92
239.865	77.31
240.083	3.58
240.3	40.45
240.517	26.11
240.735	11.78
240.952	97.79
241.169	30.21
241.386	11.78
241.603	85.5
241.821	-37.38
242.038	69.12
242.255	67.07
242.472	1.54
242.689	103.93
242.907	-16.9
243.124	17.92
243.341	-16.9
243.558	-8.7
243.775	22.02
243.992	-16.9
244.209	-18.94
244.426	50.69
244.643	26.11
244.86	36.35
245.078	30.21
245.295	17.92
245.512	28.16
245.729	34.3
245.946	71.17
246.163	42.5
246.38	7.68
246.597	-12.8
246.814	42.5
247.031	-8.7
247.248	19.97
247.464	19.97
247.681	7.68
247.898	11.78
248.115	71.17
248.332	1.54
248.549	65.02
248.766	56.83
248.983	75.26
249.2	-55.81
249.417	-0.51
249.633	-25.09
249.85	28.16
250.067	17.92
250.284	1.54
250.501	-2.56
250.717	60.93
250.934	5.63
251.151	26.11
251.368	50.69
251.585	140.8
251.801	-23.04
252.018	11.78
252.235	-43.52
252.451	-47.62
252.668	15.87
252.885	17.92
253.102	24.06
253.318	42.5
253.535	26.11
253.752	9.73
253.968	26.11
254.185	48.64
254.401	46.59
254.618	19.97
254.835	1.54
255.051	44.54
255.268	46.59
255.484	71.17
255.701	44.54
255.917	44.54
256.134	-27.14
256.351	5.63
256.567	17.92
256.784	101.89
257	17.92
257.217	-4.61
257.433	40.45
257.65	65.02
257.866	-29.18
258.082	52.74
258.299	-33.28
258.515	-23.04
258.732	-10.75
258.948	85.5
259.165	26.11
259.381	-8.7
259.597	19.97
259.814	26.11
260.03	40.45
260.246	54.78
260.463	62.98
260.679	34.3
260.895	26.11
261.112	58.88
261.328	5.63
261.544	-14.85
261.761	54.78
261.977	-43.52
262.193	-6.66
262.409	67.07
262.626	15.87
262.842	24.06
263.058	-20.99
263.274	89.6
263.49	34.3
263.707	-6.66
263.923	19.97
264.139	-2.56
264.355	-14.85
264.571	-55.81
264.787	46.59
265.004	42.5
265.22	30.21
265.436	13.82
265.652	93.69
265.868	34.3
266.084	46.59
266.3	60.93
266.516	9.73
266.732	46.59
266.948	11.78
267.164	-4.61
267.38	46.59
267.596	13.82
267.812	122.37
268.028	60.93
268.244	28.16
268.46	-61.95
268.676	-12.8
268.892	42.5
269.108	-2.56
269.324	34.3
269.54	9.73
269.756	60.93
269.972	-41.47
270.188	44.54
270.403	50.69
270.619	24.06
270.835	36.35
271.051	58.88
271.267	1.54
271.483	44.54
271.698	-16.9
271.914	42.5
272.13	40.45
272.346	62.98
272.562	-16.9
272.777	116.22
272.993	91.65
273.209	26.11
273.425	22.02
273.64	46.59
273.856	56.83
274.072	34.3
274.287	19.97
274.503	52.74
274.719	67.07
274.934	44.54
275.15	17.92
275.366	7.68
275.581	50.69
275.797	-2.56
276.012	85.5
276.228	50.69
276.444	-18.94
276.659	146.94
276.875	-66.05
277.09	-4.61
277.306	-4.61
277.521	34.3
277.737	24.06
277.952	-31.23
278.168	7.68
278.383	60.93
278.599	38.4
278.814	26.11
279.03	13.82
279.245	-25.09
279.461	-6.66
279.676	112.13
279.892	9.73
280.107	-20.99
280.322	7.68
280.538	71.17
280.753	-31.23
280.969	30.21
281.184	50.69
281.399	52.74
281.615	13.82
281.83	26.11
282.045	3.58
282.26	28.16
282.476	3.58
282.691	54.78
282.906	38.4
283.122	26.11
283.337	-33.28
283.552	-2.56
283.767	-47.62
283.983	-12.8
284.198	3.58
284.413	103.93
284.628	-20.99
284.843	11.78
285.058	32.26
285.274	9.73
285.489	42.5
285.704	11.78
285.919	-31.23
286.134	73.21
286.349	-10.75
286.564	7.68
286.779	44.54
286.995	60.93
287.21	52.74
287.425	32.26
287.64	42.5
287.855	-14.85
288.07	9.73
288.285	34.3
288.5	48.64
288.715	1.54
288.93	9.73
289.145	11.78
289.36	-0.51
289.575	73.21
289.79	22.02
290.004	-51.71
290.219	34.3
290.434	30.21
290.649	30.21
290.864	13.82
291.079	-51.71
291.294	89.6
291.509	48.64
291.724	-2.56
291.938	-8.7
292.153	19.97
292.368	26.11
292.583	-12.8
292.798	-29.18
293.012	3.58
293.227	-12.8
293.442	87.55
293.657	42.5
293.871	52.74
294.086	34.3
294.301	67.07
294.516	87.55
294.73	34.3
294.945	-51.71
295.16	71.17
295.374	24.06
295.589	26.11
295.804	32.26
296.018	5.63
296.233	3.58
296.447	17.92
296.662	-64
296.877	105.98
297.091	3.58
297.306	-10.75
297.52	62.98
297.735	42.5
297.949	-55.81
298.164	101.89
298.378	46.59
298.593	122.37
298.807	26.11
299.022	62.98
299.236	-0.51
299.451	56.83
299.665	97.79
299.88	56.83
300.094	30.21
300.309	22.02
300.523	26.11
300.737	-18.94
300.952	67.07
301.166	-18.94
301.381	-2.56
301.595	24.06
301.809	93.69
302.024	36.35
302.238	-8.7
302.452	-6.66
302.667	69.12
302.881	-27.14
303.095	-2.56
303.309	36.35
303.524	28.16
303.738	81.41
303.952	-25.09
304.166	40.45
304.381	32.26
304.595	32.26
304.809	-45.57
305.023	26.11
305.237	69.12
305.452	-100.86
305.666	36.35
305.88	71.17
306.094	56.83
306.308	93.69
306.522	-18.94
306.736	-4.61
306.95	26.11
307.164	62.98
307.379	-14.85
307.593	62.98
307.807	67.07
308.021	-39.42
308.235	91.65
308.449	-8.7
308.663	24.06
308.877	38.4
309.091	-6.66
309.305	34.3
309.519	71.17
309.733	26.11
309.947	13.82
310.161	19.97
310.374	-78.33
310.588	73.21
310.802	-6.66
311.016	-12.8
311.23	60.93
311.444	32.26
311.658	36.35
311.872	40.45
312.085	38.4
312.299	32.26
312.513	77.31
312.727	56.83
312.941	11.78
313.154	54.78
313.368	13.82
313.582	54.78
313.796	-2.56
314.009	69.12
314.223	15.87
314.437	77.31
314.651	-2.56
314.864	19.97
315.078	30.21
315.292	-23.04
315.505	36.35
315.719	73.21
315.933	-2.56
316.146	62.98
316.36	28.16
316.573	50.69
316.787	1.54
317.001	108.03
317.214	-2.56
317.428	34.3
317.641	56.83
317.855	-2.56
318.068	5.63
318.282	17.92
318.495	62.98
318.709	48.64
318.922	-14.85
319.136	19.97
319.349	28.16
319.563	48.64
319.776	-12.8
319.99	79.36
320.203	103.93
320.417	-37.38
320.63	1.54
320.843	9.73
321.057	34.3
321.27	81.41
321.483	-4.61
321.697	-6.66
321.91	50.69
322.124	24.06
322.337	-37.38
322.55	134.65
322.763	118.27
322.977	-8.7
323.19	26.11
323.403	75.26
323.617	81.41
323.83	81.41
324.043	-4.61
324.256	46.59
324.469	15.87
324.683	67.07
324.896	-16.9
325.109	52.74
325.322	3.58
325.535	52.74
325.748	3.58
325.962	9.73
326.175	30.21
326.388	71.17
326.601	36.35
326.814	36.35
327.027	-12.8
327.24	83.45
327.453	-45.57
327.666	99.84
327.879	34.3
328.092	42.5
328.305	58.88
328.518	5.63
328.731	-2.56
328.944	3.58
329.157	93.69
329.37	75.26
329.583	91.65
329.796	46.59
330.009	-49.66
330.222	52.74
330.435	73.21
330.648	36.35
330.861	44.54
331.073	32.26
331.286	40.45
331.499	101.89
331.712	13.82
331.925	-18.94
332.138	26.11
332.35	75.26
332.563	-10.75
332.776	65.02
332.989	-6.66
333.202	-23.04
333.414	103.93
333.627	83.45
333.84	67.07
334.053	-10.75
334.265	9.73
334.478	36.35
334.691	56.83
334.903	62.98
335.116	46.59
335.329	44.54
335.541	28.16
335.754	91.65
335.966	13.82
336.179	40.45
336.392	-6.66
336.604	71.17
336.817	67.07
337.029	52.74
337.242	1.54
337.454	46.59
337.667	19.97
337.88	142.85
338.092	54.78
338.305	73.21
338.517	17.92
338.729	32.26
338.942	83.45
339.154	17.92
339.367	-0.51
339.579	99.84
339.792	24.06
340.004	79.36
340.217	103.93
340.429	13.82
340.641	-25.09
340.854	38.4
341.066	83.45
341.278	26.11
341.491	112.13
341.703	93.69
341.915	42.5
342.128	75.26
342.34	11.78
342.552	69.12
342.764	32.26
342.977	15.87
343.189	32.26
343.401	79.36
343.613	46.59
343.826	60.93
344.038	13.82
344.25	75.26
344.462	77.31
344.674	17.92
344.886	-12.8
345.099	26.11
345.311	-0.51
345.523	11.78
345.735	-61.95
345.947	15.87
346.159	48.64
346.371	67.07
346.583	54.78
346.795	28.16
347.007	79.36
347.219	118.27
347.431	71.17
347.643	77.31
347.855	13.82
348.067	48.64
348.279	52.74
348.491	30.21
348.703	26.11
348.915	75.26
349.127	52.74
349.339	54.78
349.551	42.5
349.763	30.21
349.975	5.63
350.187	75.26
350.399	-20.99
350.61	34.3
350.822	-25.09
351.034	112.13
351.246	-39.42
351.458	54.78
351.669	65.02
351.881	42.5
352.093	26.11
352.305	52.74
352.517	97.79
352.728	46.59
352.94	108.03
353.152	62.98
353.363	22.02
353.575	42.5
353.787	101.89
353.999	32.26
354.21	73.21
354.422	36.35
354.633	87.55
354.845	44.54
355.057	26.11
355.268	1.54
355.48	73.21
355.692	26.11
355.903	71.17
356.115	26.11
356.326	11.78
356.538	9.73
356.749	75.26
356.961	34.3
357.172	58.88
357.384	77.31
357.595	17.92
357.807	11.78
358.018	22.02
358.23	81.41
358.441	36.35
358.653	42.5
358.864	44.54
359.075	-14.85
359.287	26.11
359.498	60.93
359.709	77.31
359.921	-8.7
360.132	75.26
360.344	75.26
360.555	40.45
360.766	-2.56
360.977	87.55
361.189	42.5
361.4	-6.66
361.611	60.93
361.823	54.78
362.034	58.88
362.245	9.73
362.456	44.54
362.667	52.74
362.879	-6.66
363.09	40.45
363.301	30.21
363.512	-31.23
363.723	50.69
363.935	7.68
364.146	17.92
364.357	52.74
364.568	46.59
364.779	19.97
364.99	26.11
365.201	-12.8
365.412	87.55
365.623	-45.57
365.834	58.88
366.045	134.65
366.256	116.22
366.467	34.3
366.678	28.16
366.889	50.69
367.1	42.5
367.311	40.45
367.522	32.26
367.733	28.16
367.944	46.59
368.155	3.58
368.366	75.26
368.577	28.16
368.788	-18.94
368.999	-53.76
369.209	85.5
369.42	56.83
369.631	69.12
369.842	19.97
370.053	38.4
370.264	26.11
370.474	60.93
370.685	13.82
370.896	22.02
371.107	42.5
371.317	34.3
371.528	11.78
371.739	71.17
371.95	-29.18
372.16	15.87
372.371	28.16
372.582	-2.56
372.792	48.64
373.003	81.41
373.214	40.45
373.424	19.97
373.635	95.74
373.846	46.59
374.056	40.45
374.267	52.74
374.477	26.11
374.688	56.83
374.898	22.02
375.109	34.3
375.319	56.83
375.53	132.61
375.74	81.41
375.951	26.11
376.161	122.37
376.372	112.13
376.582	54.78
376.793	99.84
377.003	22.02
377.214	-8.7
377.424	17.92
377.635	126.46
377.845	58.88
378.055	-25.09
378.266	44.54
378.476	85.5
378.686	101.89
378.897	138.75
379.107	19.97
379.317	73.21
379.528	46.59
379.738	44.54
379.948	42.5
380.158	1.54
380.369	26.11
380.579	58.88
380.789	50.69
380.999	46.59
381.21	22.02
381.42	91.65
381.63	95.74
381.84	91.65
382.05	-20.99
382.261	79.36
382.471	79.36
382.681	65.02
382.891	89.6
383.101	30.21
383.311	36.35
383.521	15.87
383.731	48.64
383.941	58.88
384.151	60.93
384.361	71.17
384.571	44.54
384.781	58.88
384.991	-2.56
385.201	97.79
385.411	75.26
385.621	62.98
385.831	54.78
386.041	112.13
386.251	44.54
386.461	91.65
386.671	24.06
386.881	1.54
387.091	69.12
387.301	-18.94
387.511	62.98
387.72	44.54
387.93	85.5
388.14	60.93
388.35	105.98
388.56	3.58
388.769	91.65
388.979	32.26
389.189	69.12
389.399	120.32
389.609	134.65
389.818	50.69
390.028	-2.56
390.238	91.65
390.447	89.6
390.657	-6.66
390.867	3.58
391.076	60.93
391.286	17.92
391.496	54.78
391.705	99.84
391.915	62.98
392.125	85.5
392.334	128.51
392.544	126.46
392.753	85.5
392.963	48.64
393.172	77.31
393.382	-2.56
393.591	146.94
393.801	34.3
394.01	167.42
394.22	56.83
394.429	36.35
394.639	101.89
394.848	83.45
395.058	50.69
395.267	103.93
395.477	189.95
395.686	79.36
395.895	134.65
396.105	128.51
396.314	58.88
396.524	52.74
396.733	105.98
396.942	62.98
397.152	132.61
397.361	93.69
397.57	42.5
397.78	87.55
397.989	134.65
398.198	58.88
398.407	110.08
398.617	138.75
398.826	-16.9
399.035	103.93
399.244	114.17
399.453	91.65
399.663	108.03
399.872	128.51
400.081	73.21
400.29	85.5
400.499	79.36
400.708	110.08
400.917	128.51
401.127	136.7
401.336	89.6
401.545	126.46
401.754	50.69
401.963	83.45
402.172	69.12
402.381	75.26
402.59	116.22
402.799	192
403.008	36.35
403.217	120.32
403.426	65.02
403.635	136.7
403.844	183.81
404.053	189.95
404.262	255.48
404.471	175.61
404.68	83.45
404.888	95.74
405.097	130.56
405.306	173.57
405.515	144.89
405.724	128.51
405.933	175.61
406.142	300.54
406.35	198.14
406.559	181.76
406.768	165.37
406.977	173.57
407.185	153.09
407.394	265.72
407.603	226.81
407.812	255.48
408.02	239.1
408.229	267.77
408.438	267.77
408.646	237.05
408.855	200.19
409.064	259.58
409.272	271.87
409.481	329.21
409.69	224.76
409.898	361.98
410.107	355.83
410.315	312.83
410.524	357.88
410.733	353.79
410.941	331.26
411.15	349.69
411.358	413.18
411.567	376.31
411.775	353.79
411.984	419.32
412.192	411.13
412.401	437.75
412.609	458.23
412.818	468.47
413.026	509.43
413.234	523.77
413.443	499.19
413.651	572.92
413.86	493.05
414.068	591.35
414.276	562.68
414.485	591.35
414.693	574.97
414.901	722.42
415.11	728.56
415.318	675.32
415.526	763.38
415.734	736.76
415.943	632.31
416.151	749.04
416.359	826.87
416.567	804.34
416.776	888.31
416.984	878.07
417.192	900.59
417.4	1023.47
417.608	943.6
417.817	1084.91
418.025	1144.3
418.233	1160.69
418.441	1136.11
418.649	1170.93
418.857	1160.69
419.065	1148.4
419.273	1254.89
419.481	1297.9
419.689	1324.52
419.897	1465.83
420.105	1422.83
420.313	1545.7
420.521	1562.09
420.729	1613.29
420.937	1740.26
421.145	1625.58
421.353	1709.54
421.561	1867.24
421.769	1883.62
421.977	2008.55
422.185	1883.62
422.393	2164.19
422.601	2182.62
422.809	2190.81
423.017	2176.48
423.224	2280.93
423.432	2379.23
423.64	2512.35
423.848	2678.23
424.056	2553.31
424.263	2911.7
424.471	2868.69
424.679	2756.05
424.887	2889.17
425.094	3085.78
425.302	3139.02
425.51	3124.69
425.718	3290.57
425.925	3243.47
426.133	3411.4
426.341	3622.34
426.548	3724.74
426.756	3831.24
426.964	3851.72
427.171	4111.81
427.379	4140.48
427.586	4302.27
427.794	4316.61
428.001	4470.2
428.209	4715.96
428.417	4599.23
428.624	4943.28
428.832	5060.02
429.039	4875.7
429.247	4949.43
429.454	5410.22
429.662	5918.12
429.869	5334.45
430.076	5707.18
430.284	5477.8
430.491	5832.1
430.699	6288.8
430.906	6170.02
431.114	6274.46
431.321	6460.83
431.528	6702.49
431.736	7114.13
431.943	7228.82
432.15	7132.56
432.358	7163.28
432.565	7574.92
432.772	7396.75
432.979	8048.01
433.187	8134.02
433.394	8263.04
433.601	8844.67
433.808	8805.75
434.016	8766.84
434.223	9141.62
434.43	9647.47
434.637	9450.86
434.844	10036.58
435.052	10124.65
435.259	10059.11
435.466	10087.78
435.673	10071.4
435.88	10716.51
436.087	11449.68
436.294	11347.28
436.501	11062.62
436.708	11300.18
436.915	11640.14
437.122	12064.07
437.329	12309.83
437.537	12617.02
437.743	12780.86
437.95	12657.98
438.157	13380.92
438.364	13745.45
438.571	13542.71
438.778	13759.79
438.985	15187.22
439.192	14441.76
439.399	15205.66
439.606	14740.77
439.813	15625.49
440.02	16524.55
440.227	16069.9
440.433	15779.09
440.64	16481.54
440.847	16434.44
441.054	16776.45
441.261	18025.71
441.467	17517.81
441.674	18144.49
441.881	18672.87
442.088	18652.39
442.294	18404.58
442.501	19188.96
442.708	19352.79
442.914	20008.14
443.121	21028.03
443.328	20546.76
443.534	21820.6
443.741	21042.37
443.948	20839.62
444.154	22273.2
444.361	22135.98
444.568	22340.78
444.774	22521
444.981	22670.5
445.187	23264.41
445.394	24304.78
445.6	23960.72
445.807	26358.89
446.013	25126.02
446.22	25814.13
446.426	26598.51
446.633	27026.53
446.839	27987.03
447.046	26641.51
447.252	28626
447.459	28290.13
447.665	28058.71
447.871	29152.32
448.078	30852.14
448.284	29193.28
448.491	30000.18
448.697	31267.87
448.903	31933.46
449.11	31665.18
449.316	31362.08
449.522	31509.54
449.728	32465.94
449.935	32842.76
450.141	32703.5
450.347	33555.46
450.553	32457.74
450.76	32973.83
450.966	34339.83
451.172	33801.21
451.378	34280.44
451.584	34186.23
451.791	34608.11
451.997	34780.14
452.203	35206.12
452.409	35034.09
452.615	34819.05
452.821	33823.74
453.027	33330.18
453.233	35195.88
453.44	33612.8
453.646	34280.44
453.852	34522.1
454.058	34733.04
454.264	33926.14
454.47	34778.09
454.676	33354.76
454.882	34853.87
455.088	31534.11
455.294	32265.24
455.5	33027.08
455.705	32967.69
455.911	32189.46
456.117	31216.68
456.323	30501.93
456.529	29285.44
456.735	30202.93
456.941	29590.59
457.147	29529.15
457.352	28286.03
457.558	27890.77
457.764	28046.42
457.97	27858.01
458.176	26983.52
458.381	26915.94
458.587	25736.31
458.793	25449.6
458.999	24130.7
459.204	25937.01
459.41	25568.38
459.616	24032.4
459.821	23778.45
460.027	23870.61
460.233	23293.08
460.438	22119.6
460.644	22330.54
460.85	21089.47
461.055	21013.7
461.261	20864.19
461.466	19389.66
461.672	18959.58
461.878	20561.09
462.083	18908.38
462.289	18660.58
462.494	18205.93
462.7	17540.34
462.905	17323.26
463.111	17669.36
463.316	17708.27
463.522	17308.92
463.727	17423.61
463.932	17511.67
464.138	17239.29
464.343	17292.54
464.549	16946.43
464.754	17329.4
464.959	17016.06
465.165	17134.84
465.37	16393.48
465.575	16004.36
465.781	16497.92
465.986	16891.13
466.191	16143.63
466.397	15863.05
466.602	15174.94
466.807	15617.3
467.012	15605.01
467.218	15572.24
467.423	15402.26
467.628	15465.75
467.833	16114.95
468.038	15592.72
468.244	15136.03
468.449	15674.64
