Data from USB4F104151__168__13-58-51-551.txt Node

Date: Thu Mar 13 13:58:51 EDT 2025
User: louis
Spectrometer: USB4F10415
Trigger mode: 4
Integration Time (sec): 1.000000E-2
Scans to average: 1
Electric dark correction enabled: true
Nonlinearity correction enabled: false
Boxcar width: 0
XAxis mode: Wavelengths
Number of Pixels in Spectrum: 3648
>>>>>Begin Spectral Data<<<<<
178.204	-23.72
178.424	-23.72
178.644	-23.72
178.864	-36.01
179.084	-60.59
179.304	19.29
179.524	4.95
179.744	23.38
179.964	29.52
180.184	-13.48
180.404	-9.39
180.624	-58.54
180.844	-19.63
181.064	13.14
181.283	-27.82
181.503	0.85
181.723	37.72
181.943	17.24
182.163	74.58
182.383	41.81
182.602	19.29
182.822	27.48
183.042	9.05
183.262	35.67
183.482	11.09
183.701	-46.25
183.921	43.86
184.141	11.09
184.361	27.48
184.58	52.05
184.8	-19.63
185.02	47.96
185.239	-7.34
185.459	39.76
185.679	-5.29
185.898	-52.39
186.118	54.1
186.338	15.19
186.557	43.86
186.777	-13.48
186.997	39.76
187.216	4.95
187.436	78.68
187.655	-23.72
187.875	-11.43
188.095	74.58
188.314	41.81
188.534	7
188.753	56.15
188.973	-7.34
189.192	66.39
189.412	60.24
189.631	23.38
189.851	43.86
190.07	-5.29
190.29	66.39
190.509	-5.29
190.729	64.34
190.948	35.67
191.168	9.05
191.387	35.67
191.607	35.67
191.826	-58.54
192.045	-27.82
192.265	33.62
192.484	76.63
192.704	4.95
192.923	-27.82
193.142	11.09
193.362	47.96
193.581	64.34
193.8	-36.01
194.02	109.4
194.239	-76.97
194.458	86.87
194.678	17.24
194.897	-23.72
195.116	-5.29
195.335	82.77
195.555	-5.29
195.774	52.05
195.993	7
196.212	31.57
196.432	58.2
196.651	76.63
196.87	31.57
197.089	31.57
197.308	-27.82
197.528	43.86
197.747	29.52
197.966	-29.87
198.185	-1.19
198.404	-31.91
198.623	50
198.842	-36.01
199.062	60.24
199.281	54.1
199.5	31.57
199.719	80.72
199.938	76.63
200.157	-11.43
200.376	-31.91
200.595	72.53
200.814	31.57
201.033	-29.87
201.252	15.19
201.471	-15.53
201.69	-83.11
201.909	-21.67
202.128	-3.24
202.347	4.95
202.566	0.85
202.785	58.2
203.004	11.09
203.223	93.01
203.442	19.29
203.661	35.67
203.879	-11.43
204.098	76.63
204.317	-36.01
204.536	17.24
204.755	-9.39
204.974	-7.34
205.193	41.81
205.411	50
205.63	84.82
205.849	-15.53
206.068	-48.3
206.287	107.35
206.505	0.85
206.724	74.58
206.943	-38.06
207.162	21.33
207.381	50
207.599	43.86
207.818	-13.48
208.037	17.24
208.255	-40.11
208.474	-1.19
208.693	56.15
208.911	-3.24
209.13	27.48
209.349	33.62
209.567	15.19
209.786	23.38
210.005	76.63
210.223	101.2
210.442	-5.29
210.661	35.67
210.879	-27.82
211.098	7
211.316	-31.91
211.535	23.38
211.753	-40.11
211.972	50
212.191	-29.87
212.409	25.43
212.628	4.95
212.846	9.05
213.065	-58.54
213.283	93.01
213.502	0.85
213.72	33.62
213.938	76.63
214.157	41.81
214.375	-13.48
214.594	35.67
214.812	37.72
215.031	47.96
215.249	17.24
215.467	58.2
215.686	125.78
215.904	-7.34
216.122	-42.15
216.341	47.96
216.559	17.24
216.778	-5.29
216.996	-9.39
217.214	11.09
217.432	-5.29
217.651	-7.34
217.869	-21.67
218.087	23.38
218.306	9.05
218.524	70.48
218.742	58.2
218.96	76.63
219.179	52.05
219.397	41.81
219.615	37.72
219.833	19.29
220.051	-36.01
220.27	43.86
220.488	11.09
220.706	0.85
220.924	60.24
221.142	37.72
221.36	62.29
221.578	74.58
221.796	25.43
222.015	35.67
222.233	84.82
222.451	50
222.669	0.85
222.887	56.15
223.105	27.48
223.323	-5.29
223.541	-7.34
223.759	41.81
223.977	-3.24
224.195	76.63
224.413	66.39
224.631	27.48
224.849	0.85
225.067	35.67
225.285	9.05
225.503	31.57
225.721	0.85
225.939	13.14
226.157	13.14
226.375	82.77
226.592	33.62
226.81	35.67
227.028	58.2
227.246	117.59
227.464	-27.82
227.682	74.58
227.9	54.1
228.117	-46.25
228.335	-3.24
228.553	17.24
228.771	33.62
228.989	54.1
229.206	7
229.424	-62.63
229.642	-38.06
229.86	4.95
230.077	9.05
230.295	-11.43
230.513	9.05
230.731	11.09
230.948	29.52
231.166	78.68
231.384	4.95
231.601	27.48
231.819	78.68
232.037	0.85
232.254	0.85
232.472	33.62
232.689	-27.82
232.907	74.58
233.125	15.19
233.342	7
233.56	-56.49
233.777	78.68
233.995	115.54
234.213	74.58
234.43	31.57
234.648	31.57
234.865	-25.77
235.083	58.2
235.3	-46.25
235.518	-15.53
235.735	-13.48
235.953	13.14
236.17	21.33
236.388	11.09
236.605	17.24
236.822	-7.34
237.04	33.62
237.257	66.39
237.475	70.48
237.692	11.09
237.909	70.48
238.127	70.48
238.344	52.05
238.562	31.57
238.779	76.63
238.996	33.62
239.214	13.14
239.431	43.86
239.648	62.29
239.865	13.14
240.083	-7.34
240.3	76.63
240.517	-31.91
240.735	35.67
240.952	109.4
241.169	90.96
241.386	-31.91
241.603	-29.87
241.821	-13.48
242.038	19.29
242.255	64.34
242.472	-19.63
242.689	45.91
242.907	86.87
243.124	37.72
243.341	-1.19
243.558	17.24
243.775	-31.91
243.992	7
244.209	37.72
244.426	82.77
244.643	64.34
244.86	-42.15
245.078	56.15
245.295	45.91
245.512	29.52
245.729	-29.87
245.946	56.15
246.163	-5.29
246.38	25.43
246.597	99.16
246.814	21.33
247.031	29.52
247.248	66.39
247.464	11.09
247.681	64.34
247.898	21.33
248.115	11.09
248.332	-40.11
248.549	52.05
248.766	33.62
248.983	50
249.2	21.33
249.417	15.19
249.633	47.96
249.85	80.72
250.067	17.24
250.284	25.43
250.501	25.43
250.717	19.29
250.934	23.38
251.151	80.72
251.368	29.52
251.585	84.82
251.801	39.76
252.018	31.57
252.235	23.38
252.451	-3.24
252.668	76.63
252.885	-1.19
253.102	72.53
253.318	101.2
253.535	35.67
253.752	45.91
253.968	31.57
254.185	39.76
254.401	-23.72
254.618	-29.87
254.835	70.48
255.051	56.15
255.268	21.33
255.484	13.14
255.701	-40.11
255.917	23.38
256.134	76.63
256.351	50
256.567	62.29
256.784	80.72
257	-13.48
257.217	21.33
257.433	-5.29
257.65	80.72
257.866	68.44
258.082	88.92
258.299	19.29
258.515	9.05
258.732	70.48
258.948	29.52
259.165	31.57
259.381	33.62
259.597	0.85
259.814	41.81
260.03	131.92
260.246	11.09
260.463	-42.15
260.679	52.05
260.895	25.43
261.112	45.91
261.328	76.63
261.544	74.58
261.761	56.15
261.977	33.62
262.193	9.05
262.409	64.34
262.626	58.2
262.842	-11.43
263.058	-3.24
263.274	27.48
263.49	-11.43
263.707	29.52
263.923	9.05
264.139	45.91
264.355	-29.87
264.571	29.52
264.787	54.1
265.004	17.24
265.22	58.2
265.436	19.29
265.652	54.1
265.868	68.44
266.084	9.05
266.3	-7.34
266.516	29.52
266.732	9.05
266.948	-11.43
267.164	37.72
267.38	74.58
267.596	-3.24
267.812	-15.53
268.028	-48.3
268.244	39.76
268.46	-38.06
268.676	60.24
268.892	31.57
269.108	-9.39
269.324	31.57
269.54	-9.39
269.756	-11.43
269.972	-11.43
270.188	33.62
270.403	70.48
270.619	-7.34
270.835	21.33
271.051	29.52
271.267	41.81
271.483	-17.58
271.698	33.62
271.914	29.52
272.13	25.43
272.346	21.33
272.562	45.91
272.777	66.39
272.993	39.76
273.209	-5.29
273.425	35.67
273.64	19.29
273.856	-1.19
274.072	-9.39
274.287	-40.11
274.503	-15.53
274.719	76.63
274.934	35.67
275.15	37.72
275.366	17.24
275.581	27.48
275.797	37.72
276.012	-19.63
276.228	33.62
276.444	97.11
276.659	29.52
276.875	-17.58
277.09	70.48
277.306	17.24
277.521	17.24
277.737	66.39
277.952	0.85
278.168	21.33
278.383	37.72
278.599	-25.77
278.814	23.38
279.03	50
279.245	41.81
279.461	-19.63
279.676	43.86
279.892	-11.43
280.107	41.81
280.322	82.77
280.538	39.76
280.753	17.24
280.969	27.48
281.184	0.85
281.399	101.2
281.615	-23.72
281.83	-17.58
282.045	23.38
282.26	17.24
282.476	37.72
282.691	31.57
282.906	88.92
283.122	76.63
283.337	4.95
283.552	15.19
283.767	29.52
283.983	64.34
284.198	66.39
284.413	27.48
284.628	54.1
284.843	-33.96
285.058	2.9
285.274	72.53
285.489	-50.35
285.704	-44.2
285.919	52.05
286.134	-31.91
286.349	60.24
286.564	-5.29
286.779	58.2
286.995	2.9
287.21	43.86
287.425	13.14
287.64	78.68
287.855	74.58
288.07	25.43
288.285	2.9
288.5	21.33
288.715	58.2
288.93	33.62
289.145	27.48
289.36	31.57
289.575	58.2
289.79	15.19
290.004	82.77
290.219	-48.3
290.434	17.24
290.649	17.24
290.864	39.76
291.079	39.76
291.294	7
291.509	29.52
291.724	62.29
291.938	-15.53
292.153	47.96
292.368	-11.43
292.583	52.05
292.798	25.43
293.012	70.48
293.227	197.46
293.442	70.48
293.657	17.24
293.871	25.43
294.086	56.15
294.301	56.15
294.516	11.09
294.73	76.63
294.945	70.48
295.16	93.01
295.374	47.96
295.589	47.96
295.804	19.29
296.018	-5.29
296.233	99.16
296.447	-5.29
296.662	90.96
296.877	31.57
297.091	52.05
297.306	54.1
297.52	-9.39
297.735	2.9
297.949	45.91
298.164	50
298.378	50
298.593	13.14
298.807	11.09
299.022	88.92
299.236	-21.67
299.451	2.9
299.665	-9.39
299.88	52.05
300.094	78.68
300.309	95.06
300.523	68.44
300.737	33.62
300.952	37.72
301.166	45.91
301.381	11.09
301.595	-21.67
301.809	-27.82
302.024	50
302.238	35.67
302.452	54.1
302.667	-23.72
302.881	50
303.095	-29.87
303.309	13.14
303.524	25.43
303.738	17.24
303.952	-5.29
304.166	-13.48
304.381	-25.77
304.595	27.48
304.809	-7.34
305.023	105.3
305.237	-3.24
305.452	68.44
305.666	9.05
305.88	37.72
306.094	27.48
306.308	43.86
306.522	47.96
306.736	41.81
306.95	78.68
307.164	21.33
307.379	-21.67
307.593	-7.34
307.807	45.91
308.021	-38.06
308.235	29.52
308.449	33.62
308.663	-31.91
308.877	50
309.091	70.48
309.305	17.24
309.519	45.91
309.733	68.44
309.947	17.24
310.161	82.77
310.374	64.34
310.588	72.53
310.802	23.38
311.016	27.48
311.23	-1.19
311.444	-7.34
311.658	7
311.872	72.53
312.085	11.09
312.299	58.2
312.513	4.95
312.727	58.2
312.941	-7.34
313.154	82.77
313.368	66.39
313.582	70.48
313.796	107.35
314.009	66.39
314.223	54.1
314.437	50
314.651	56.15
314.864	-38.06
315.078	64.34
315.292	35.67
315.505	-23.72
315.719	9.05
315.933	11.09
316.146	50
316.36	56.15
316.573	33.62
316.787	-29.87
317.001	15.19
317.214	-21.67
317.428	74.58
317.641	21.33
317.855	54.1
318.068	25.43
318.282	72.53
318.495	123.73
318.709	93.01
318.922	54.1
319.136	33.62
319.349	25.43
319.563	47.96
319.776	70.48
319.99	33.62
320.203	-58.54
320.417	60.24
320.63	58.2
320.843	47.96
321.057	4.95
321.27	19.29
321.483	-3.24
321.697	29.52
321.91	52.05
322.124	13.14
322.337	11.09
322.55	70.48
322.763	11.09
322.977	-79.02
323.19	-46.25
323.403	-29.87
323.617	41.81
323.83	97.11
324.043	56.15
324.256	62.29
324.469	54.1
324.683	86.87
324.896	41.81
325.109	60.24
325.322	27.48
325.535	23.38
325.748	58.2
325.962	45.91
326.175	13.14
326.388	58.2
326.601	50
326.814	27.48
327.027	62.29
327.24	27.48
327.453	27.48
327.666	60.24
327.879	15.19
328.092	45.91
328.305	-31.91
328.518	39.76
328.731	13.14
328.944	107.35
329.157	11.09
329.37	33.62
329.583	72.53
329.796	25.43
330.009	25.43
330.222	86.87
330.435	93.01
330.648	70.48
330.861	103.25
331.073	-29.87
331.286	29.52
331.499	76.63
331.712	-31.91
331.925	50
332.138	2.9
332.35	90.96
332.563	27.48
332.776	43.86
332.989	41.81
333.202	52.05
333.414	0.85
333.627	41.81
333.84	-38.06
334.053	97.11
334.265	21.33
334.478	-33.96
334.691	-9.39
334.903	45.91
335.116	50
335.329	35.67
335.541	17.24
335.754	105.3
335.966	23.38
336.179	47.96
336.392	-11.43
336.604	11.09
336.817	129.88
337.029	88.92
337.242	19.29
337.454	82.77
337.667	45.91
337.88	17.24
338.092	74.58
338.305	37.72
338.517	-44.2
338.729	97.11
338.942	58.2
339.154	15.19
339.367	11.09
339.579	86.87
339.792	47.96
340.004	74.58
340.217	35.67
340.429	33.62
340.641	-48.3
340.854	111.44
341.066	33.62
341.278	58.2
341.491	37.72
341.703	29.52
341.915	82.77
342.128	-5.29
342.34	9.05
342.552	62.29
342.764	33.62
342.977	11.09
343.189	74.58
343.401	115.54
343.613	23.38
343.826	-7.34
344.038	93.01
344.25	-3.24
344.462	62.29
344.674	9.05
344.886	29.52
345.099	58.2
345.311	56.15
345.523	82.77
345.735	60.24
345.947	45.91
346.159	-19.63
346.371	17.24
346.583	64.34
346.795	15.19
347.007	-23.72
347.219	21.33
347.431	-13.48
347.643	45.91
347.855	50
348.067	109.4
348.279	37.72
348.491	31.57
348.703	82.77
348.915	31.57
349.127	45.91
349.339	41.81
349.551	9.05
349.763	9.05
349.975	58.2
350.187	56.15
350.399	123.73
350.61	0.85
350.822	43.86
351.034	19.29
351.246	47.96
351.458	7
351.669	50
351.881	45.91
352.093	37.72
352.305	15.19
352.517	37.72
352.728	11.09
352.94	45.91
353.152	58.2
353.363	-7.34
353.575	7
353.787	19.29
353.999	41.81
354.21	56.15
354.422	-23.72
354.633	0.85
354.845	35.67
355.057	23.38
355.268	4.95
355.48	7
355.692	11.09
355.903	25.43
356.115	9.05
356.326	78.68
356.538	31.57
356.749	41.81
356.961	80.72
357.172	45.91
357.384	115.54
357.595	58.2
357.807	15.19
358.018	-19.63
358.23	142.16
358.441	70.48
358.653	80.72
358.864	-7.34
359.075	68.44
359.287	-15.53
359.498	25.43
359.709	99.16
359.921	-38.06
360.132	-1.19
360.344	-5.29
360.555	58.2
360.766	74.58
360.977	9.05
361.189	68.44
361.4	64.34
361.611	17.24
361.823	45.91
362.034	-15.53
362.245	-19.63
362.456	66.39
362.667	19.29
362.879	41.81
363.09	19.29
363.301	95.06
363.512	17.24
363.723	25.43
363.935	25.43
364.146	54.1
364.357	70.48
364.568	33.62
364.779	43.86
364.99	27.48
365.201	35.67
365.412	2.9
365.623	27.48
365.834	4.95
366.045	88.92
366.256	74.58
366.467	82.77
366.678	0.85
366.889	66.39
367.1	101.2
367.311	21.33
367.522	70.48
367.733	66.39
367.944	78.68
368.155	33.62
368.366	21.33
368.577	72.53
368.788	90.96
368.999	66.39
369.209	109.4
369.42	78.68
369.631	66.39
369.842	-21.67
370.053	125.78
370.264	43.86
370.474	39.76
370.685	88.92
370.896	50
371.107	35.67
371.317	74.58
371.528	37.72
371.739	74.58
371.95	-33.96
372.16	35.67
372.371	-9.39
372.582	25.43
372.792	37.72
373.003	60.24
373.214	33.62
373.424	54.1
373.635	19.29
373.846	90.96
374.056	56.15
374.267	60.24
374.477	33.62
374.688	11.09
374.898	-7.34
375.109	78.68
375.319	68.44
375.53	107.35
375.74	45.91
375.951	66.39
376.161	82.77
376.372	25.43
376.582	60.24
376.793	56.15
377.003	29.52
377.214	82.77
377.424	50
377.635	4.95
377.845	68.44
378.055	70.48
378.266	-21.67
378.476	17.24
378.686	23.38
378.897	95.06
379.107	37.72
379.317	62.29
379.528	7
379.738	88.92
379.948	74.58
380.158	68.44
380.369	179.03
380.579	11.09
380.789	66.39
380.999	50
381.21	119.64
381.42	131.92
381.63	21.33
381.84	62.29
382.05	80.72
382.261	7
382.471	-5.29
382.681	4.95
382.891	72.53
383.101	56.15
383.311	21.33
383.521	138.07
383.731	88.92
383.941	25.43
384.151	-7.34
384.361	95.06
384.571	35.67
384.781	35.67
384.991	13.14
385.201	90.96
385.411	80.72
385.621	64.34
385.831	45.91
386.041	80.72
386.251	64.34
386.461	119.64
386.671	68.44
386.881	84.82
387.091	76.63
387.301	82.77
387.511	13.14
387.72	131.92
387.93	17.24
388.14	80.72
388.35	37.72
388.56	35.67
388.769	58.2
388.979	-13.48
389.189	-17.58
389.399	-3.24
389.609	27.48
389.818	80.72
390.028	35.67
390.238	45.91
390.447	41.81
390.657	27.48
390.867	29.52
391.076	-11.43
391.286	17.24
391.496	80.72
391.705	74.58
391.915	52.05
392.125	37.72
392.334	25.43
392.544	27.48
392.753	37.72
392.963	74.58
393.172	62.29
393.382	43.86
393.591	109.4
393.801	-7.34
394.01	74.58
394.22	90.96
394.429	78.68
394.639	39.76
394.848	107.35
395.058	-3.24
395.267	56.15
395.477	25.43
395.686	56.15
395.895	90.96
396.105	125.78
396.314	27.48
396.524	107.35
396.733	58.2
396.942	103.25
397.152	107.35
397.361	27.48
397.57	43.86
397.78	39.76
397.989	84.82
398.198	47.96
398.407	127.83
398.617	115.54
398.826	60.24
399.035	70.48
399.244	107.35
399.453	121.68
399.663	-1.19
399.872	133.97
400.081	64.34
400.29	64.34
400.499	107.35
400.708	160.59
400.917	68.44
401.127	82.77
401.336	99.16
401.545	125.78
401.754	103.25
401.963	74.58
402.172	93.01
402.381	90.96
402.59	60.24
402.799	66.39
403.008	33.62
403.217	50
403.426	111.44
403.635	115.54
403.844	82.77
404.053	78.68
404.262	142.16
404.471	97.11
404.68	109.4
404.888	131.92
405.097	86.87
405.306	109.4
405.515	60.24
405.724	64.34
405.933	144.21
406.142	144.21
406.35	179.03
406.559	121.68
406.768	150.36
406.977	121.68
407.185	123.73
407.394	156.5
407.603	90.96
407.812	207.7
408.02	142.16
408.229	176.98
408.438	172.88
408.646	90.96
408.855	117.59
409.064	172.88
409.272	105.3
409.481	217.94
409.69	222.03
409.898	176.98
410.107	195.41
410.315	158.55
410.524	209.75
410.733	162.64
410.941	211.79
411.15	295.76
411.358	199.51
411.567	252.75
411.775	293.71
411.984	172.88
412.192	385.87
412.401	324.43
412.609	381.78
412.818	400.21
413.026	256.85
413.234	310.1
413.443	344.91
413.651	340.82
413.86	371.54
414.068	469.84
414.276	318.29
414.485	418.64
414.693	420.69
414.901	396.11
415.11	498.51
415.318	459.6
415.526	541.52
415.734	467.79
415.943	533.33
416.151	539.47
416.359	547.66
416.567	658.25
416.776	582.48
416.984	557.9
417.192	588.62
417.4	721.74
417.608	674.64
417.817	617.29
418.025	729.93
418.233	754.51
418.441	832.33
418.649	742.22
418.857	783.18
419.065	815.94
419.273	828.23
419.481	877.38
419.689	949.06
419.897	983.88
420.105	959.3
420.313	975.69
420.521	1016.65
420.729	969.54
420.937	1090.37
421.145	1069.89
421.353	1198.92
421.561	1272.64
421.769	1301.31
421.977	1336.13
422.185	1301.31
422.393	1354.56
422.601	1532.73
422.809	1401.66
423.017	1387.33
423.224	1497.92
423.432	1577.79
423.64	1573.69
423.848	1745.72
424.056	1755.96
424.263	1891.13
424.471	1721.15
424.679	1899.32
424.887	1905.46
425.094	1997.62
425.302	2036.53
425.51	2167.6
425.718	2108.21
425.925	2067.25
426.133	2274.1
426.341	2323.25
426.548	2491.18
426.756	2458.42
426.964	2491.18
427.171	2566.96
427.379	2743.08
427.586	2775.85
427.794	2829.1
428.001	2851.63
428.209	3105.57
428.417	2935.59
428.624	3351.33
428.832	3267.36
429.039	3281.7
429.247	3261.22
429.454	3599.13
429.662	3785.5
429.869	3570.46
430.076	3873.56
430.284	3748.64
430.491	3771.16
430.699	4096.79
430.906	4033.3
431.114	4240.15
431.321	4199.19
431.528	4281.11
431.736	4582.16
431.943	4780.81
432.15	4641.55
432.358	4936.46
432.565	5040.9
432.772	5069.58
432.979	5171.97
433.187	5354.24
433.394	5223.17
433.601	5788.41
433.808	5829.37
434.016	5651.2
434.223	6046.46
434.43	6304.5
434.637	6161.14
434.844	6707.95
435.052	6701.81
435.259	6621.94
435.466	6568.69
435.673	6578.93
435.88	7070.44
436.087	7453.41
436.294	7389.92
436.501	7207.66
436.708	7381.73
436.915	7768.8
437.122	8002.27
437.329	8006.36
437.537	8346.33
437.743	8350.42
437.95	8092.38
438.157	8696.53
438.364	8966.86
438.571	8993.48
438.778	9040.59
438.985	9816.77
439.192	9528
439.399	9814.72
439.606	9550.53
439.813	9945.79
440.02	10646.19
440.227	10558.13
440.433	10363.58
440.64	10850.99
440.847	10877.62
441.054	10990.25
441.261	11702.95
441.467	11623.08
441.674	11932.32
441.881	12083.87
442.088	12245.66
442.294	11989.66
442.501	12442.26
442.708	12743.31
442.914	12978.83
443.121	13640.33
443.328	13372.04
443.534	14103.17
443.741	13888.13
443.948	13759.11
444.154	14654.07
444.361	14566.01
444.568	14725.75
444.774	14744.18
444.981	15022.7
445.187	14942.83
445.394	15970.91
445.6	15714.92
445.807	17101.39
446.013	16331.36
446.22	16767.57
446.426	17584.71
446.633	17517.13
446.839	18043.46
447.046	17324.62
447.252	18250.3
447.459	18371.13
447.665	18377.28
447.871	19096.11
448.078	19993.12
448.284	18936.37
448.491	19806.76
448.697	20087.33
448.903	20689.43
449.11	20605.47
449.316	20335.14
449.522	20697.63
449.728	21217.81
449.935	21312.02
450.141	21312.02
450.347	21852.68
450.553	20978.2
450.76	21367.31
450.966	22045.19
451.172	21852.68
451.378	22671.87
451.584	22008.33
451.791	22604.28
451.997	22616.57
452.203	22639.1
452.409	23161.33
452.615	22997.49
452.821	21725.71
453.027	21781
453.233	22929.91
453.44	21754.38
453.646	22129.16
453.852	22024.71
454.058	22573.56
454.264	21910.02
454.47	22272.51
454.676	21670.41
454.882	22589.95
455.088	20804.12
455.294	20726.3
455.5	21060.12
455.705	21547.53
455.911	20621.85
456.117	20265.5
456.323	19925.54
456.529	18977.33
456.735	19708.46
456.941	19151.41
457.147	19024.44
457.352	18264.64
457.558	17977.92
457.764	17916.48
457.97	17762.89
458.176	17445.45
458.381	17424.97
458.587	16542.3
458.793	16441.95
458.999	15665.77
459.204	16970.32
459.41	16355.93
459.616	15344.24
459.821	15067.76
460.027	15329.9
460.233	15075.95
460.438	14121.6
460.644	14330.49
460.85	13605.51
461.055	13515.4
461.261	13494.92
461.466	12462.74
461.672	12102.3
461.878	12780.18
462.083	12219.03
462.289	12126.88
462.494	11719.33
462.7	11274.92
462.905	10873.52
463.111	11287.21
463.316	11354.79
463.522	11184.81
463.727	11438.76
463.932	11258.54
464.138	11055.79
464.343	11174.57
464.549	10842.8
464.754	11137.71
464.959	11195.05
465.165	10869.42
465.37	10410.68
465.575	10310.33
465.781	10750.64
465.986	10615.48
466.191	10549.94
466.397	10302.14
466.602	9636.55
466.807	9888.45
467.012	10273.46
467.218	9902.78
467.423	9996.99
467.628	9831.1
467.833	10218.17
468.038	10017.47
468.244	9593.54
468.449	9904.83
468.654	9644.74
468.859	9767.62
469.064	9798.34
469.269	9145.03
469.474	9421.51
469.679	9497.28
