Data from USB4F104151__10__13-52-14-805.txt Node

Date: Thu Mar 13 13:52:14 EDT 2025
User: louis
Spectrometer: USB4F10415
Trigger mode: 4
Integration Time (sec): 1.000000E-2
Scans to average: 1
Electric dark correction enabled: true
Nonlinearity correction enabled: false
Boxcar width: 0
XAxis mode: Wavelengths
Number of Pixels in Spectrum: 3648
>>>>>Begin Spectral Data<<<<<
178.204	-124.07
178.424	-124.07
178.644	-124.07
178.864	9.05
179.084	-89.26
179.304	11.09
179.524	-60.59
179.744	-7.34
179.964	-33.96
180.184	-1.19
180.404	11.09
180.624	31.57
180.844	-19.63
181.064	-17.58
181.283	-33.96
181.503	4.95
181.723	115.54
181.943	-46.25
182.163	17.24
182.383	-48.3
182.602	-3.24
182.822	-9.39
183.042	13.14
183.262	-81.07
183.482	-31.91
183.701	11.09
183.921	-17.58
184.141	7
184.361	60.24
184.58	-11.43
184.8	-42.15
185.02	-81.07
185.239	88.92
185.459	76.63
185.679	56.15
185.898	21.33
186.118	131.92
186.338	43.86
186.557	-11.43
186.777	19.29
186.997	43.86
187.216	21.33
187.436	15.19
187.655	54.1
187.875	21.33
188.095	88.92
188.314	25.43
188.534	64.34
188.753	-25.77
188.973	11.09
189.192	-25.77
189.412	76.63
189.631	54.1
189.851	9.05
190.07	-42.15
190.29	-9.39
190.509	4.95
190.729	47.96
190.948	27.48
191.168	70.48
191.387	25.43
191.607	17.24
191.826	-64.68
192.045	27.48
192.265	31.57
192.484	4.95
192.704	29.52
192.923	15.19
193.142	86.87
193.362	-21.67
193.581	-9.39
193.8	-17.58
194.02	11.09
194.239	33.62
194.458	60.24
194.678	25.43
194.897	-17.58
195.116	31.57
195.335	80.72
195.555	-40.11
195.774	-11.43
195.993	0.85
196.212	-44.2
196.432	15.19
196.651	41.81
196.87	56.15
197.089	50
197.308	43.86
197.528	-44.2
197.747	64.34
197.966	113.49
198.185	-1.19
198.404	80.72
198.623	47.96
198.842	-17.58
199.062	15.19
199.281	15.19
199.5	-25.77
199.719	39.76
199.938	21.33
200.157	-9.39
200.376	-19.63
200.595	-97.45
200.814	90.96
201.033	-25.77
201.252	-23.72
201.471	-46.25
201.69	35.67
201.909	41.81
202.128	-9.39
202.347	68.44
202.566	2.9
202.785	9.05
203.004	-19.63
203.223	15.19
203.442	47.96
203.661	19.29
203.879	-1.19
204.098	60.24
204.317	31.57
204.536	76.63
204.755	-15.53
204.974	-87.21
205.193	27.48
205.411	13.14
205.63	-15.53
205.849	70.48
206.068	43.86
206.287	82.77
206.505	58.2
206.724	84.82
206.943	43.86
207.162	-19.63
207.381	27.48
207.599	60.24
207.818	-19.63
208.037	60.24
208.255	-33.96
208.474	37.72
208.693	-21.67
208.911	31.57
209.13	-11.43
209.349	-9.39
209.567	-58.54
209.786	97.11
210.005	0.85
210.223	66.39
210.442	-85.16
210.661	-44.2
210.879	58.2
211.098	0.85
211.316	-60.59
211.535	95.06
211.753	13.14
211.972	56.15
212.191	-11.43
212.409	33.62
212.628	-11.43
212.846	-13.48
213.065	58.2
213.283	39.76
213.502	64.34
213.72	-5.29
213.938	-48.3
214.157	23.38
214.375	66.39
214.594	-19.63
214.812	-11.43
215.031	68.44
215.249	31.57
215.467	-56.49
215.686	62.29
215.904	-27.82
216.122	4.95
216.341	-54.44
216.559	27.48
216.778	35.67
216.996	9.05
217.214	25.43
217.432	31.57
217.651	29.52
217.869	43.86
218.087	50
218.306	-23.72
218.524	52.05
218.742	99.16
218.96	17.24
219.179	-19.63
219.397	33.62
219.615	41.81
219.833	-7.34
220.051	-68.78
220.27	-11.43
220.488	7
220.706	-21.67
220.924	-15.53
221.142	-29.87
221.36	21.33
221.578	11.09
221.796	7
222.015	-19.63
222.233	45.91
222.451	15.19
222.669	-11.43
222.887	15.19
223.105	-40.11
223.323	-21.67
223.541	66.39
223.759	21.33
223.977	80.72
224.195	-1.19
224.413	-31.91
224.631	72.53
224.849	-21.67
225.067	2.9
225.285	29.52
225.503	29.52
225.721	31.57
225.939	58.2
226.157	-42.15
226.375	58.2
226.592	97.11
226.81	23.38
227.028	-1.19
227.246	52.05
227.464	2.9
227.682	105.3
227.9	23.38
228.117	-50.35
228.335	-17.58
228.553	-31.91
228.771	-29.87
228.989	-52.39
229.206	54.1
229.424	-23.72
229.642	-25.77
229.86	-13.48
230.077	31.57
230.295	70.48
230.513	-1.19
230.731	33.62
230.948	2.9
231.166	33.62
231.384	-52.39
231.601	39.76
231.819	-1.19
232.037	-5.29
232.254	41.81
232.472	41.81
232.689	-42.15
232.907	7
233.125	2.9
233.342	-7.34
233.56	33.62
233.777	9.05
233.995	-3.24
234.213	35.67
234.43	-31.91
234.648	72.53
234.865	70.48
235.083	68.44
235.3	-13.48
235.518	11.09
235.735	-3.24
235.953	-56.49
236.17	-38.06
236.388	-62.63
236.605	-29.87
236.822	43.86
237.04	45.91
237.257	-13.48
237.475	17.24
237.692	-5.29
237.909	37.72
238.127	37.72
238.344	41.81
238.562	-13.48
238.779	-68.78
238.996	41.81
239.214	41.81
239.431	-9.39
239.648	-29.87
239.865	4.95
240.083	-3.24
240.3	23.38
240.517	19.29
240.735	62.29
240.952	-27.82
241.169	29.52
241.386	35.67
241.603	66.39
241.821	-5.29
242.038	47.96
242.255	-58.54
242.472	25.43
242.689	33.62
242.907	9.05
243.124	-85.16
243.341	-42.15
243.558	97.11
243.775	39.76
243.992	23.38
244.209	29.52
244.426	29.52
244.643	23.38
244.86	27.48
245.078	11.09
245.295	39.76
245.512	54.1
245.729	25.43
245.946	29.52
246.163	-50.35
246.38	-15.53
246.597	17.24
246.814	7
247.031	11.09
247.248	17.24
247.464	47.96
247.681	21.33
247.898	15.19
248.115	58.2
248.332	-15.53
248.549	47.96
248.766	-40.11
248.983	68.44
249.2	-5.29
249.417	-9.39
249.633	-5.29
249.85	52.05
250.067	90.96
250.284	2.9
250.501	23.38
250.717	76.63
250.934	-50.35
251.151	-11.43
251.368	-1.19
251.585	2.9
251.801	29.52
252.018	-40.11
252.235	35.67
252.451	4.95
252.668	37.72
252.885	84.82
253.102	43.86
253.318	17.24
253.535	47.96
253.752	-23.72
253.968	-11.43
254.185	19.29
254.401	23.38
254.618	15.19
254.835	19.29
255.051	68.44
255.268	11.09
255.484	-3.24
255.701	-5.29
255.917	0.85
256.134	2.9
256.351	33.62
256.567	-60.59
256.784	11.09
257	-3.24
257.217	-25.77
257.433	21.33
257.65	-66.73
257.866	52.05
258.082	-23.72
258.299	-91.31
258.515	31.57
258.732	-3.24
258.948	15.19
259.165	37.72
259.381	13.14
259.597	7
259.814	-21.67
260.03	52.05
260.246	27.48
260.463	27.48
260.679	-15.53
260.895	33.62
261.112	25.43
261.328	2.9
261.544	-42.15
261.761	50
261.977	-11.43
262.193	23.38
262.409	-5.29
262.626	0.85
262.842	-19.63
263.058	7
263.274	13.14
263.49	15.19
263.707	43.86
263.923	101.2
264.139	-21.67
264.355	52.05
264.571	52.05
264.787	-21.67
265.004	37.72
265.22	15.19
265.436	70.48
265.652	15.19
265.868	35.67
266.084	-15.53
266.3	4.95
266.516	-58.54
266.732	68.44
266.948	-42.15
267.164	37.72
267.38	4.95
267.596	2.9
267.812	11.09
268.028	41.81
268.244	-74.92
268.46	41.81
268.676	-27.82
268.892	-5.29
269.108	70.48
269.324	76.63
269.54	80.72
269.756	80.72
269.972	-62.63
270.188	39.76
270.403	9.05
270.619	17.24
270.835	-3.24
271.051	-44.2
271.267	-11.43
271.483	43.86
271.698	54.1
271.914	47.96
272.13	-33.96
272.346	33.62
272.562	-19.63
272.777	35.67
272.993	-5.29
273.209	-40.11
273.425	-33.96
273.64	25.43
273.856	7
274.072	-9.39
274.287	13.14
274.503	-13.48
274.719	19.29
274.934	-25.77
275.15	7
275.366	-21.67
275.581	-11.43
275.797	50
276.012	-9.39
276.228	97.11
276.444	45.91
276.659	-5.29
276.875	-7.34
277.09	-38.06
277.306	-5.29
277.521	31.57
277.737	15.19
277.952	-23.72
278.168	-23.72
278.383	62.29
278.599	-38.06
278.814	60.24
279.03	-38.06
279.245	0.85
279.461	-27.82
279.676	-13.48
279.892	-9.39
280.107	17.24
280.322	37.72
280.538	43.86
280.753	-5.29
280.969	13.14
281.184	15.19
281.399	-5.29
281.615	33.62
281.83	88.92
282.045	-11.43
282.26	7
282.476	-7.34
282.691	-13.48
282.906	37.72
283.122	9.05
283.337	-42.15
283.552	-11.43
283.767	33.62
283.983	60.24
284.198	23.38
284.413	43.86
284.628	-21.67
284.843	-1.19
285.058	-29.87
285.274	37.72
285.489	-50.35
285.704	2.9
285.919	-33.96
286.134	23.38
286.349	21.33
286.564	-54.44
286.779	-33.96
286.995	4.95
287.21	43.86
287.425	21.33
287.64	-15.53
287.855	7
288.07	-7.34
288.285	41.81
288.5	-17.58
288.715	25.43
288.93	4.95
289.145	-9.39
289.36	35.67
289.575	4.95
289.79	39.76
290.004	-3.24
290.219	56.15
290.434	66.39
290.649	39.76
290.864	103.25
291.079	80.72
291.294	-5.29
291.509	7
291.724	-11.43
291.938	82.77
292.153	-17.58
292.368	-58.54
292.583	29.52
292.798	76.63
293.012	-23.72
293.227	-19.63
293.442	2.9
293.657	-25.77
293.871	19.29
294.086	13.14
294.301	45.91
294.516	13.14
294.73	103.25
294.945	-9.39
295.16	-13.48
295.374	88.92
295.589	70.48
295.804	-3.24
296.018	-7.34
296.233	-23.72
296.447	-3.24
296.662	-33.96
296.877	27.48
297.091	52.05
297.306	127.83
297.52	-7.34
297.735	35.67
297.949	-38.06
298.164	-76.97
298.378	54.1
298.593	-11.43
298.807	-31.91
299.022	27.48
299.236	19.29
299.451	4.95
299.665	13.14
299.88	64.34
300.094	7
300.309	-23.72
300.523	47.96
300.737	41.81
300.952	15.19
301.166	0.85
301.381	-5.29
301.595	-21.67
301.809	-40.11
302.024	7
302.238	31.57
302.452	47.96
302.667	-9.39
302.881	-5.29
303.095	25.43
303.309	19.29
303.524	-11.43
303.738	58.2
303.952	43.86
304.166	31.57
304.381	7
304.595	-11.43
304.809	-19.63
305.023	93.01
305.237	0.85
305.452	7
305.666	7
305.88	54.1
306.094	-27.82
306.308	7
306.522	-27.82
306.736	-15.53
306.95	21.33
307.164	15.19
307.379	4.95
307.593	31.57
307.807	11.09
308.021	27.48
308.235	23.38
308.449	-25.77
308.663	80.72
308.877	68.44
309.091	-13.48
309.305	82.77
309.519	-50.35
309.733	-3.24
309.947	-5.29
310.161	-52.39
310.374	45.91
310.588	74.58
310.802	-19.63
311.016	47.96
311.23	-85.16
311.444	52.05
311.658	60.24
311.872	-17.58
312.085	58.2
312.299	50
312.513	11.09
312.727	7
312.941	2.9
313.154	-5.29
313.368	25.43
313.582	0.85
313.796	-36.01
314.009	25.43
314.223	13.14
314.437	7
314.651	19.29
314.864	-3.24
315.078	13.14
315.292	-17.58
315.505	4.95
315.719	80.72
315.933	4.95
316.146	35.67
316.36	-31.91
316.573	146.26
316.787	45.91
317.001	-17.58
317.214	-33.96
317.428	29.52
317.641	-19.63
317.855	88.92
318.068	-17.58
318.282	33.62
318.495	54.1
318.709	35.67
318.922	-25.77
319.136	56.15
319.349	-17.58
319.563	-15.53
319.776	-5.29
319.99	-1.19
320.203	-17.58
320.417	29.52
320.63	80.72
320.843	9.05
321.057	-50.35
321.27	-25.77
321.483	54.1
321.697	76.63
321.91	9.05
322.124	25.43
322.337	-23.72
322.55	29.52
322.763	-21.67
322.977	37.72
323.19	17.24
323.403	2.9
323.617	27.48
323.83	7
324.043	70.48
324.256	-42.15
324.469	-19.63
324.683	-5.29
324.896	66.39
325.109	86.87
325.322	21.33
325.535	60.24
325.748	56.15
325.962	-13.48
326.175	35.67
326.388	47.96
326.601	17.24
326.814	39.76
327.027	21.33
327.24	15.19
327.453	-9.39
327.666	-42.15
327.879	21.33
328.092	-7.34
328.305	-25.77
328.518	11.09
328.731	54.1
328.944	60.24
329.157	-25.77
329.37	11.09
329.583	107.35
329.796	33.62
330.009	-31.91
330.222	0.85
330.435	7
330.648	23.38
330.861	25.43
331.073	0.85
331.286	-27.82
331.499	-36.01
331.712	-11.43
331.925	23.38
332.138	-29.87
332.35	-25.77
332.563	35.67
332.776	39.76
332.989	-19.63
333.202	23.38
333.414	17.24
333.627	35.67
333.84	-25.77
334.053	-9.39
334.265	37.72
334.478	-60.59
334.691	4.95
334.903	-19.63
335.116	41.81
335.329	13.14
335.541	11.09
335.754	7
335.966	13.14
336.179	43.86
336.392	39.76
336.604	-56.49
336.817	-23.72
337.029	54.1
337.242	4.95
337.454	43.86
337.667	-1.19
337.88	-7.34
338.092	-13.48
338.305	0.85
338.517	-17.58
338.729	25.43
338.942	60.24
339.154	-46.25
339.367	-40.11
339.579	-11.43
339.792	-36.01
340.004	-23.72
340.217	25.43
340.429	25.43
340.641	56.15
340.854	29.52
341.066	-31.91
341.278	68.44
341.491	80.72
341.703	35.67
341.915	2.9
342.128	60.24
342.34	4.95
342.552	17.24
342.764	31.57
342.977	56.15
343.189	-7.34
343.401	29.52
343.613	99.16
343.826	-38.06
344.038	47.96
344.25	56.15
344.462	45.91
344.674	56.15
344.886	9.05
345.099	29.52
345.311	29.52
345.523	64.34
345.735	-38.06
345.947	0.85
346.159	-13.48
346.371	29.52
346.583	-79.02
346.795	62.29
347.007	64.34
347.219	23.38
347.431	68.44
347.643	52.05
347.855	27.48
348.067	-7.34
348.279	47.96
348.491	-7.34
348.703	-19.63
348.915	37.72
349.127	70.48
349.339	45.91
349.551	11.09
349.763	-25.77
349.975	95.06
350.187	-33.96
350.399	21.33
350.61	47.96
350.822	-23.72
351.034	19.29
351.246	33.62
351.458	-13.48
351.669	9.05
351.881	-7.34
352.093	9.05
352.305	103.25
352.517	-15.53
352.728	60.24
352.94	119.64
353.152	-25.77
353.363	-1.19
353.575	45.91
353.787	31.57
353.999	-1.19
354.21	45.91
354.422	-27.82
354.633	64.34
354.845	109.4
355.057	-5.29
355.268	54.1
355.48	-29.87
355.692	21.33
355.903	17.24
356.115	39.76
356.326	29.52
356.538	-19.63
356.749	15.19
356.961	-23.72
357.172	-17.58
357.384	-15.53
357.595	-60.59
357.807	-15.53
358.018	29.52
358.23	41.81
358.441	62.29
358.653	23.38
358.864	-1.19
359.075	35.67
359.287	9.05
359.498	0.85
359.709	68.44
359.921	7
360.132	37.72
360.344	-11.43
360.555	23.38
360.766	37.72
360.977	-21.67
361.189	66.39
361.4	64.34
361.611	33.62
361.823	-46.25
362.034	0.85
362.245	15.19
362.456	84.82
362.667	7
362.879	-52.39
363.09	-3.24
363.301	27.48
363.512	-19.63
363.723	-27.82
363.935	0.85
364.146	-44.2
364.357	-13.48
364.568	19.29
364.779	-11.43
364.99	84.82
365.201	13.14
365.412	54.1
365.623	15.19
365.834	47.96
366.045	70.48
366.256	56.15
366.467	-21.67
366.678	31.57
366.889	-36.01
367.1	-3.24
367.311	-15.53
367.522	33.62
367.733	19.29
367.944	0.85
368.155	47.96
368.366	11.09
368.577	21.33
368.788	4.95
368.999	56.15
369.209	0.85
369.42	-13.48
369.631	-38.06
369.842	-9.39
370.053	66.39
370.264	56.15
370.474	-11.43
370.685	37.72
370.896	-3.24
371.107	21.33
371.317	72.53
371.528	19.29
371.739	45.91
371.95	4.95
372.16	99.16
372.371	-11.43
372.582	9.05
372.792	39.76
373.003	80.72
373.214	9.05
373.424	-9.39
373.635	82.77
373.846	-7.34
374.056	-31.91
374.267	19.29
374.477	47.96
374.688	37.72
374.898	-29.87
375.109	54.1
375.319	11.09
375.53	43.86
375.74	70.48
375.951	60.24
376.161	15.19
376.372	62.29
376.582	76.63
376.793	27.48
377.003	-74.92
377.214	-7.34
377.424	17.24
377.635	17.24
377.845	11.09
378.055	25.43
378.266	23.38
378.476	60.24
378.686	-23.72
378.897	33.62
379.107	-33.96
379.317	41.81
379.528	-17.58
379.738	-9.39
379.948	33.62
380.158	11.09
380.369	-54.44
380.579	23.38
380.789	43.86
380.999	-7.34
381.21	33.62
381.42	27.48
381.63	-3.24
381.84	-27.82
382.05	-11.43
382.261	45.91
382.471	-29.87
382.681	-60.59
382.891	19.29
383.101	25.43
383.311	0.85
383.521	33.62
383.731	0.85
383.941	33.62
384.151	35.67
384.361	-13.48
384.571	15.19
384.781	54.1
384.991	25.43
385.201	43.86
385.411	-66.73
385.621	-5.29
385.831	11.09
386.041	-15.53
386.251	-5.29
386.461	60.24
386.671	-5.29
386.881	-15.53
387.091	0.85
387.301	-13.48
387.511	-40.11
387.72	-23.72
387.93	52.05
388.14	9.05
388.35	-31.91
388.56	7
388.769	52.05
388.979	47.96
389.189	41.81
389.399	88.92
389.609	-36.01
389.818	31.57
390.028	21.33
390.238	45.91
390.447	43.86
390.657	-7.34
390.867	62.29
391.076	7
391.286	-3.24
391.496	9.05
391.705	39.76
391.915	-11.43
392.125	60.24
392.334	-7.34
392.544	54.1
392.753	31.57
392.963	-31.91
393.172	21.33
393.382	15.19
393.591	39.76
393.801	7
394.01	-9.39
394.22	23.38
394.429	37.72
394.639	35.67
394.848	35.67
395.058	-7.34
395.267	47.96
395.477	50
395.686	21.33
395.895	72.53
396.105	4.95
396.314	43.86
396.524	25.43
396.733	43.86
396.942	54.1
397.152	27.48
397.361	43.86
397.57	93.01
397.78	101.2
397.989	-31.91
398.198	56.15
398.407	19.29
398.617	80.72
398.826	27.48
399.035	29.52
399.244	2.9
399.453	101.2
399.663	39.76
399.872	-48.3
400.081	23.38
400.29	2.9
400.499	13.14
400.708	-5.29
400.917	-81.07
401.127	76.63
401.336	11.09
401.545	111.44
401.754	54.1
401.963	64.34
402.172	23.38
402.381	101.2
402.59	-31.91
402.799	15.19
403.008	-11.43
403.217	107.35
403.426	62.29
403.635	54.1
403.844	58.2
404.053	39.76
404.262	95.06
404.471	31.57
404.68	0.85
404.888	-15.53
405.097	-1.19
405.306	54.1
405.515	84.82
405.724	27.48
405.933	62.29
406.142	56.15
406.35	-7.34
406.559	45.91
406.768	80.72
406.977	160.59
407.185	13.14
407.394	66.39
407.603	66.39
407.812	90.96
408.02	58.2
408.229	97.11
408.438	29.52
408.646	58.2
408.855	54.1
409.064	113.49
409.272	68.44
409.481	129.88
409.69	154.45
409.898	50
410.107	86.87
410.315	58.2
410.524	131.92
410.733	107.35
410.941	117.59
411.15	142.16
411.358	97.11
411.567	80.72
411.775	111.44
411.984	152.4
412.192	172.88
412.401	166.74
412.609	156.5
412.818	164.69
413.026	121.68
413.234	185.17
413.443	156.5
413.651	158.55
413.86	144.21
414.068	150.36
414.276	123.73
414.485	170.83
414.693	193.36
414.901	238.42
415.11	195.41
415.318	215.89
415.526	228.18
415.734	226.13
415.943	289.62
416.151	299.86
416.359	211.79
416.567	228.18
416.776	275.28
416.984	320.34
417.192	256.85
417.4	346.96
417.608	213.84
417.817	277.33
418.025	389.97
418.233	318.29
418.441	338.77
418.649	318.29
418.857	346.96
419.065	291.66
419.273	402.26
419.481	373.58
419.689	410.45
419.897	443.21
420.105	490.32
420.313	455.5
420.521	533.33
420.729	447.31
420.937	486.22
421.145	510.8
421.353	549.71
421.561	568.14
421.769	580.43
421.977	623.44
422.185	584.52
422.393	676.68
422.601	650.06
422.809	654.16
423.017	660.3
423.224	725.83
423.432	717.64
423.64	723.79
423.848	842.57
424.056	830.28
424.263	891.72
424.471	953.16
424.679	869.19
424.887	936.78
425.094	987.97
425.302	932.68
425.51	959.3
425.718	967.49
425.925	1041.22
426.133	1045.32
426.341	1053.51
426.548	1133.38
426.756	1157.96
426.964	1203.01
427.171	1227.59
427.379	1246.02
427.586	1411.9
427.794	1338.18
428.001	1407.81
428.209	1499.97
428.417	1379.14
428.624	1508.16
428.832	1522.49
429.039	1610.56
429.247	1538.88
429.454	1649.47
429.662	1827.64
429.869	1633.08
430.076	1848.12
430.284	1747.77
430.491	1827.64
430.699	1856.31
430.906	1925.94
431.114	1942.33
431.321	2014.01
431.528	2042.68
431.736	2159.41
431.943	2374.45
432.15	2181.94
432.358	2270
432.565	2333.49
432.772	2337.59
432.979	2386.74
433.187	2636.59
433.394	2665.26
433.601	2816.81
433.808	2700.08
434.016	2685.74
434.223	2894.63
434.43	3097.38
434.637	2968.36
434.844	3044.13
435.052	3173.16
435.259	3158.82
435.466	3232.55
435.673	3189.54
435.88	3392.29
436.087	3404.58
436.294	3588.89
436.501	3545.89
436.708	3556.13
436.915	3556.13
437.122	3826.46
437.329	3701.53
437.537	4041.5
437.743	4068.12
437.95	3965.72
438.157	4303.64
438.364	4262.68
438.571	4262.68
438.778	4270.87
438.985	4678.41
439.192	4635.41
439.399	4631.31
439.606	4725.52
439.813	4938.51
440.02	5149.45
440.227	4946.7
440.433	5077.77
440.64	5008.14
440.847	5049.1
441.054	5171.97
441.261	5518.08
441.467	5475.07
441.674	5747.45
441.881	5915.39
442.088	5880.57
442.294	5667.58
442.501	5829.37
442.708	6056.7
442.914	6230.77
443.121	6529.78
443.328	6460.15
443.534	6871.79
443.741	6710
443.948	6517.49
444.154	7000.81
444.361	6892.27
444.568	6976.23
444.774	7170.79
444.981	6945.52
445.187	7439.08
445.394	7668.45
445.6	7514.85
445.807	8293.08
446.013	7881.44
446.22	7903.96
446.426	8250.07
446.633	8307.41
446.839	8606.42
447.046	8375
447.252	8850.13
447.459	8682.19
447.665	8950.48
447.871	9089.74
448.078	9497.28
448.284	9124.55
448.491	9568.96
448.697	9841.34
448.903	9804.48
449.11	9949.89
449.316	9841.34
449.522	10119.87
449.728	10273.46
449.935	10107.58
450.141	10064.57
450.347	10695.35
450.553	10273.46
450.76	10212.03
450.966	10496.69
451.172	10572.47
451.378	10683.06
451.584	10560.18
451.791	10758.83
451.997	10742.45
452.203	11035.31
452.409	10957.49
452.615	10697.39
452.821	10412.73
453.027	10443.45
453.233	10840.75
453.44	10490.55
453.646	10519.22
453.852	10621.62
454.058	10945.2
454.264	10416.82
454.47	10775.22
454.676	10261.18
454.882	10762.93
455.088	9775.81
455.294	10011.32
455.5	10224.31
455.705	10117.82
455.911	9788.1
456.117	9546.44
456.323	9546.44
456.529	8886.99
456.735	9335.49
456.941	9157.32
457.147	8919.76
457.352	8753.87
457.558	8512.21
457.764	8540.88
457.97	8481.49
458.176	8067.8
458.381	8092.38
458.587	7793.37
458.793	7834.33
458.999	7514.85
459.204	7910.11
459.41	7723.74
459.616	7297.77
459.821	7092.97
460.027	7271.14
460.233	6935.28
460.438	6722.29
460.644	6716.14
460.85	6341.36
461.055	6218.49
461.261	6306.55
461.466	5866.24
461.672	5602.05
461.878	5997.31
462.083	5716.73
462.289	5513.99
462.494	5452.55
462.7	5151.49
462.905	5319.43
463.111	5370.63
463.316	5153.54
463.522	5303.04
463.727	5397.25
463.932	5276.42
464.138	5094.15
464.343	5155.59
464.549	4961.03
464.754	5178.12
464.959	5126.92
465.165	5313.28
465.37	5006.09
465.575	4801.29
465.781	5151.49
465.986	5133.06
466.191	4854.54
466.397	4780.81
466.602	4664.08
466.807	4881.16
467.012	4723.47
467.218	4662.03
467.423	4582.16
467.628	4776.72
467.833	4877.07
468.038	4676.37
468.244	4504.34
468.449	4762.38
468.654	4584.21
468.859	4594.45
469.064	4586.26
469.269	4383.51
469.474	4365.07
469.679	4451.09
469.885	4313.88
470.09	4238.1
470.295	4289.3
