Data from USB4F104151__266__14-01-59-161.txt Node

Date: Thu Mar 13 14:01:59 EDT 2025
User: louis
Spectrometer: USB4F10415
Trigger mode: 4
Integration Time (sec): 1.000000E-2
Scans to average: 1
Electric dark correction enabled: true
Nonlinearity correction enabled: false
Boxcar width: 0
XAxis mode: Wavelengths
Number of Pixels in Spectrum: 3648
>>>>>Begin Spectral Data<<<<<
178.204	-45.23
178.424	-45.23
178.644	-45.23
178.864	-84.14
179.084	-22.7
179.304	18.26
179.524	-6.31
179.744	14.17
179.964	26.45
180.184	-18.6
180.404	36.69
180.624	28.5
180.844	-22.7
181.064	-53.42
181.283	-39.08
181.503	-24.75
181.723	40.79
181.943	-6.31
182.163	79.7
182.383	28.5
182.602	18.26
182.822	5.97
183.042	28.5
183.262	-34.99
183.482	-0.17
183.701	38.74
183.921	20.31
184.141	-24.75
184.361	20.31
184.58	67.41
184.8	71.51
185.02	16.21
185.239	87.89
185.459	-22.7
185.679	153.43
185.898	-12.46
186.118	10.07
186.338	20.31
186.557	-8.36
186.777	-18.6
186.997	38.74
187.216	38.74
187.436	59.22
187.655	34.64
187.875	-61.61
188.095	-71.85
188.314	-2.22
188.534	5.97
188.753	18.26
188.973	44.88
189.192	1.88
189.412	34.64
189.631	5.97
189.851	71.51
190.07	71.51
190.29	24.4
190.509	1.88
190.729	42.84
190.948	63.32
191.168	12.12
191.387	42.84
191.607	67.41
191.826	-24.75
192.045	44.88
192.265	5.97
192.484	-10.41
192.704	102.23
192.923	-2.22
193.142	34.64
193.362	26.45
193.581	34.64
193.8	-37.03
194.02	48.98
194.239	-26.79
194.458	36.69
194.678	18.26
194.897	12.12
195.116	53.08
195.335	106.32
195.555	124.76
195.774	-6.31
195.993	3.93
196.212	14.17
196.432	30.55
196.651	44.88
196.87	36.69
197.089	14.17
197.308	104.28
197.528	42.84
197.747	-6.31
197.966	26.45
198.185	-4.27
198.404	40.79
198.623	-10.41
198.842	-22.7
199.062	26.45
199.281	-20.65
199.5	-4.27
199.719	67.41
199.938	5.97
200.157	100.18
200.376	40.79
200.595	-14.51
200.814	30.55
201.033	-12.46
201.252	91.99
201.471	69.46
201.69	-2.22
201.909	34.64
202.128	5.97
202.347	51.03
202.566	18.26
202.785	3.93
203.004	-14.51
203.223	112.47
203.442	77.65
203.661	-2.22
203.879	42.84
204.098	26.45
204.317	24.4
204.536	42.84
204.755	20.31
204.974	42.84
205.193	53.08
205.411	22.36
205.63	34.64
205.849	10.07
206.068	14.17
206.287	10.07
206.505	42.84
206.724	-26.79
206.943	46.93
207.162	124.76
207.381	46.93
207.599	55.12
207.818	-16.55
208.037	26.45
208.255	53.08
208.474	38.74
208.693	-51.37
208.911	112.47
209.13	18.26
209.349	75.6
209.567	38.74
209.786	28.5
210.005	3.93
210.223	-14.51
210.442	-10.41
210.661	20.31
210.879	20.31
211.098	40.79
211.316	-47.27
211.535	75.6
211.753	-45.23
211.972	55.12
212.191	61.27
212.409	26.45
212.628	-34.99
212.846	26.45
213.065	1.88
213.283	44.88
213.502	-2.22
213.72	46.93
213.938	59.22
214.157	36.69
214.375	-30.89
214.594	-59.56
214.812	-10.41
215.031	42.84
215.249	26.45
215.467	44.88
215.686	16.21
215.904	16.21
216.122	57.17
216.341	48.98
216.559	38.74
216.778	-10.41
216.996	51.03
217.214	20.31
217.432	3.93
217.651	3.93
217.869	18.26
218.087	-22.7
218.306	20.31
218.524	-4.27
218.742	20.31
218.96	75.6
219.179	149.33
219.397	5.97
219.615	91.99
219.833	75.6
220.051	28.5
220.27	-12.46
220.488	75.6
220.706	59.22
220.924	32.6
221.142	26.45
221.36	14.17
221.578	53.08
221.796	-4.27
222.015	-0.17
222.233	20.31
222.451	-4.27
222.669	55.12
222.887	34.64
223.105	5.97
223.323	28.5
223.541	34.64
223.759	1.88
223.977	67.41
224.195	34.64
224.413	32.6
224.631	3.93
224.849	-8.36
225.067	79.7
225.285	-4.27
225.503	12.12
225.721	1.88
225.939	71.51
226.157	73.56
226.375	83.8
226.592	-4.27
226.81	14.17
227.028	16.21
227.246	83.8
227.464	32.6
227.682	26.45
227.9	71.51
228.117	-14.51
228.335	-14.51
228.553	48.98
228.771	-12.46
228.989	-22.7
229.206	30.55
229.424	61.27
229.642	-10.41
229.86	10.07
230.077	63.32
230.295	-4.27
230.513	53.08
230.731	110.42
230.948	36.69
231.166	26.45
231.384	51.03
231.601	44.88
231.819	87.89
232.037	46.93
232.254	38.74
232.472	-12.46
232.689	-20.65
232.907	104.28
233.125	100.18
233.342	18.26
233.56	-10.41
233.777	3.93
233.995	-30.89
234.213	77.65
234.43	8.02
234.648	-47.27
234.865	-12.46
235.083	67.41
235.3	8.02
235.518	46.93
235.735	8.02
235.953	14.17
236.17	79.7
236.388	42.84
236.605	-22.7
236.822	36.69
237.04	44.88
237.257	81.75
237.475	51.03
237.692	36.69
237.909	5.97
238.127	20.31
238.344	14.17
238.562	26.45
238.779	-63.66
238.996	10.07
239.214	22.36
239.431	24.4
239.648	63.32
239.865	18.26
240.083	67.41
240.3	83.8
240.517	36.69
240.735	12.12
240.952	24.4
241.169	3.93
241.386	-28.84
241.603	-14.51
241.821	53.08
242.038	-14.51
242.255	-18.6
242.472	-112.81
242.689	51.03
242.907	126.8
243.124	28.5
243.341	-14.51
243.558	-12.46
243.775	1.88
243.992	-26.79
244.209	48.98
244.426	-8.36
244.643	126.8
244.86	-96.43
245.078	20.31
245.295	30.55
245.512	36.69
245.729	36.69
245.946	-71.85
246.163	63.32
246.38	67.41
246.597	32.6
246.814	-22.7
247.031	26.45
247.248	91.99
247.464	14.17
247.681	83.8
247.898	42.84
248.115	120.66
248.332	-55.47
248.549	30.55
248.766	61.27
248.983	38.74
249.2	53.08
249.417	55.12
249.633	30.55
249.85	18.26
250.067	24.4
250.284	18.26
250.501	28.5
250.717	53.08
250.934	73.56
251.151	5.97
251.368	-16.55
251.585	116.56
251.801	3.93
252.018	40.79
252.235	-18.6
252.451	79.7
252.668	-10.41
252.885	26.45
253.102	3.93
253.318	98.13
253.535	75.6
253.752	51.03
253.968	22.36
254.185	55.12
254.401	65.36
254.618	8.02
254.835	-45.23
255.051	26.45
255.268	132.95
255.484	65.36
255.701	-10.41
255.917	44.88
256.134	34.64
256.351	-30.89
256.567	18.26
256.784	12.12
257	-53.42
257.217	22.36
257.433	59.22
257.65	-22.7
257.866	-10.41
258.082	89.94
258.299	40.79
258.515	44.88
258.732	-6.31
258.948	26.45
259.165	61.27
259.381	-37.03
259.597	67.41
259.814	85.84
260.03	65.36
260.246	-12.46
260.463	18.26
260.679	-26.79
260.895	55.12
261.112	73.56
261.328	67.41
261.544	18.26
261.761	44.88
261.977	42.84
262.193	1.88
262.409	51.03
262.626	12.12
262.842	87.89
263.058	-51.37
263.274	16.21
263.49	1.88
263.707	34.64
263.923	104.28
264.139	8.02
264.355	34.64
264.571	14.17
264.787	28.5
265.004	34.64
265.22	104.28
265.436	1.88
265.652	5.97
265.868	28.5
266.084	-10.41
266.3	28.5
266.516	-2.22
266.732	18.26
266.948	-37.03
267.164	26.45
267.38	-20.65
267.596	34.64
267.812	-6.31
268.028	87.89
268.244	12.12
268.46	53.08
268.676	30.55
268.892	75.6
269.108	57.17
269.324	12.12
269.54	36.69
269.756	65.36
269.972	59.22
270.188	38.74
270.403	63.32
270.619	22.36
270.835	18.26
271.051	28.5
271.267	-12.46
271.483	22.36
271.698	42.84
271.914	-2.22
272.13	-10.41
272.346	-59.56
272.562	55.12
272.777	36.69
272.993	77.65
273.209	18.26
273.425	14.17
273.64	-2.22
273.856	53.08
274.072	18.26
274.287	-39.08
274.503	32.6
274.719	-14.51
274.934	51.03
275.15	-20.65
275.366	10.07
275.581	-32.94
275.797	87.89
276.012	59.22
276.228	-39.08
276.444	34.64
276.659	8.02
276.875	48.98
277.09	87.89
277.306	73.56
277.521	75.6
277.737	89.94
277.952	40.79
278.168	59.22
278.383	89.94
278.599	24.4
278.814	22.36
279.03	10.07
279.245	51.03
279.461	-4.27
279.676	65.36
279.892	26.45
280.107	57.17
280.322	18.26
280.538	38.74
280.753	22.36
280.969	26.45
281.184	34.64
281.399	51.03
281.615	-24.75
281.83	34.64
282.045	20.31
282.26	128.85
282.476	51.03
282.691	83.8
282.906	-0.17
283.122	-4.27
283.337	34.64
283.552	100.18
283.767	-34.99
283.983	51.03
284.198	12.12
284.413	-20.65
284.628	-12.46
284.843	1.88
285.058	-14.51
285.274	44.88
285.489	36.69
285.704	69.46
285.919	10.07
286.134	-4.27
286.349	-20.65
286.564	10.07
286.779	53.08
286.995	-0.17
287.21	-26.79
287.425	98.13
287.64	38.74
287.855	36.69
288.07	79.7
288.285	-4.27
288.5	1.88
288.715	3.93
288.93	32.6
289.145	10.07
289.36	12.12
289.575	18.26
289.79	10.07
290.004	-39.08
290.219	24.4
290.434	-18.6
290.649	-14.51
290.864	-16.55
291.079	40.79
291.294	69.46
291.509	42.84
291.724	53.08
291.938	-26.79
292.153	30.55
292.368	12.12
292.583	32.6
292.798	-53.42
293.012	44.88
293.227	30.55
293.442	-2.22
293.657	71.51
293.871	55.12
294.086	10.07
294.301	42.84
294.516	16.21
294.73	3.93
294.945	-2.22
295.16	26.45
295.374	10.07
295.589	77.65
295.804	26.45
296.018	55.12
296.233	20.31
296.447	55.12
296.662	5.97
296.877	38.74
297.091	55.12
297.306	26.45
297.52	10.07
297.735	-10.41
297.949	42.84
298.164	20.31
298.378	53.08
298.593	71.51
298.807	14.17
299.022	79.7
299.236	42.84
299.451	77.65
299.665	22.36
299.88	61.27
300.094	20.31
300.309	26.45
300.523	81.75
300.737	26.45
300.952	18.26
301.166	44.88
301.381	-4.27
301.595	28.5
301.809	16.21
302.024	87.89
302.238	30.55
302.452	98.13
302.667	51.03
302.881	28.5
303.095	-28.84
303.309	46.93
303.524	104.28
303.738	59.22
303.952	38.74
304.166	85.84
304.381	12.12
304.595	65.36
304.809	44.88
305.023	132.95
305.237	-32.94
305.452	71.51
305.666	67.41
305.88	94.04
306.094	73.56
306.308	40.79
306.522	73.56
306.736	42.84
306.95	42.84
307.164	-4.27
307.379	24.4
307.593	-22.7
307.807	102.23
308.021	26.45
308.235	34.64
308.449	-2.22
308.663	44.88
308.877	130.9
309.091	20.31
309.305	69.46
309.519	-16.55
309.733	10.07
309.947	42.84
310.161	42.84
310.374	26.45
310.588	67.41
310.802	32.6
311.016	42.84
311.23	-34.99
311.444	112.47
311.658	5.97
311.872	108.37
312.085	44.88
312.299	108.37
312.513	18.26
312.727	-6.31
312.941	-4.27
313.154	44.88
313.368	67.41
313.582	10.07
313.796	3.93
314.009	34.64
314.223	71.51
314.437	18.26
314.651	59.22
314.864	20.31
315.078	-24.75
315.292	38.74
315.505	59.22
315.719	67.41
315.933	75.6
316.146	-28.84
316.36	-2.22
316.573	16.21
316.787	32.6
317.001	145.24
317.214	10.07
317.428	46.93
317.641	-37.03
317.855	12.12
318.068	22.36
318.282	3.93
318.495	18.26
318.709	110.42
318.922	67.41
319.136	42.84
319.349	12.12
319.563	75.6
319.776	81.75
319.99	-37.03
320.203	-2.22
320.417	38.74
320.63	38.74
320.843	55.12
321.057	71.51
321.27	10.07
321.483	46.93
321.697	71.51
321.91	59.22
322.124	57.17
322.337	24.4
322.55	61.27
322.763	124.76
322.977	69.46
323.19	-39.08
323.403	79.7
323.617	5.97
323.83	40.79
324.043	-47.27
324.256	26.45
324.469	10.07
324.683	75.6
324.896	51.03
325.109	55.12
325.322	42.84
325.535	85.84
325.748	55.12
325.962	34.64
326.175	42.84
326.388	28.5
326.601	-2.22
326.814	-20.65
327.027	51.03
327.24	1.88
327.453	12.12
327.666	18.26
327.879	81.75
328.092	-63.66
328.305	26.45
328.518	81.75
328.731	69.46
328.944	24.4
329.157	55.12
329.37	77.65
329.583	14.17
329.796	73.56
330.009	-4.27
330.222	63.32
330.435	51.03
330.648	108.37
330.861	48.98
331.073	124.76
331.286	126.8
331.499	65.36
331.712	61.27
331.925	44.88
332.138	5.97
332.35	20.31
332.563	30.55
332.776	40.79
332.989	85.84
333.202	10.07
333.414	61.27
333.627	67.41
333.84	55.12
334.053	36.69
334.265	61.27
334.478	38.74
334.691	53.08
334.903	-14.51
335.116	102.23
335.329	-4.27
335.541	57.17
335.754	110.42
335.966	57.17
336.179	36.69
336.392	-37.03
336.604	18.26
336.817	67.41
337.029	30.55
337.242	-18.6
337.454	44.88
337.667	12.12
337.88	34.64
338.092	34.64
338.305	87.89
338.517	69.46
338.729	18.26
338.942	91.99
339.154	-0.17
339.367	114.52
339.579	57.17
339.792	61.27
340.004	32.6
340.217	91.99
340.429	48.98
340.641	73.56
340.854	-14.51
341.066	32.6
341.278	67.41
341.491	89.94
341.703	32.6
341.915	-4.27
342.128	73.56
342.34	69.46
342.552	12.12
342.764	44.88
342.977	-0.17
343.189	10.07
343.401	71.51
343.613	3.93
343.826	55.12
344.038	20.31
344.25	38.74
344.462	-28.84
344.674	-16.55
344.886	96.08
345.099	91.99
345.311	77.65
345.523	63.32
345.735	44.88
345.947	112.47
346.159	57.17
346.371	69.46
346.583	30.55
346.795	26.45
347.007	145.24
347.219	87.89
347.431	36.69
347.643	69.46
347.855	-12.46
348.067	67.41
348.279	28.5
348.491	-22.7
348.703	94.04
348.915	28.5
349.127	-4.27
349.339	67.41
349.551	67.41
349.763	73.56
349.975	44.88
350.187	83.8
350.399	55.12
350.61	67.41
350.822	-14.51
351.034	44.88
351.246	71.51
351.458	87.89
351.669	8.02
351.881	-8.36
352.093	69.46
352.305	81.75
352.517	75.6
352.728	55.12
352.94	8.02
353.152	44.88
353.363	-10.41
353.575	-14.51
353.787	55.12
353.999	81.75
354.21	26.45
354.422	71.51
354.633	-16.55
354.845	81.75
355.057	-30.89
355.268	61.27
355.48	46.93
355.692	18.26
355.903	59.22
356.115	53.08
356.326	87.89
356.538	73.56
356.749	122.71
356.961	75.6
357.172	48.98
357.384	83.8
357.595	34.64
357.807	73.56
358.018	30.55
358.23	69.46
358.441	132.95
358.653	-14.51
358.864	51.03
359.075	34.64
359.287	91.99
359.498	10.07
359.709	75.6
359.921	85.84
360.132	36.69
360.344	71.51
360.555	73.56
360.766	-2.22
360.977	44.88
361.189	77.65
361.4	18.26
361.611	73.56
361.823	1.88
362.034	102.23
362.245	36.69
362.456	3.93
362.667	75.6
362.879	46.93
363.09	26.45
363.301	20.31
363.512	42.84
363.723	30.55
363.935	34.64
364.146	38.74
364.357	65.36
364.568	139.09
364.779	-6.31
364.99	36.69
365.201	36.69
365.412	91.99
365.623	24.4
365.834	104.28
366.045	48.98
366.256	53.08
366.467	63.32
366.678	106.32
366.889	55.12
367.1	3.93
367.311	16.21
367.522	40.79
367.733	77.65
367.944	51.03
368.155	-20.65
368.366	44.88
368.577	1.88
368.788	34.64
368.999	94.04
369.209	44.88
369.42	73.56
369.631	5.97
369.842	96.08
370.053	81.75
370.264	38.74
370.474	69.46
370.685	83.8
370.896	34.64
371.107	36.69
371.317	100.18
371.528	63.32
371.739	81.75
371.95	-32.94
372.16	-12.46
372.371	81.75
372.582	63.32
372.792	48.98
373.003	94.04
373.214	48.98
373.424	65.36
373.635	128.85
373.846	94.04
374.056	-8.36
374.267	8.02
374.477	26.45
374.688	5.97
374.898	106.32
375.109	71.51
375.319	-4.27
375.53	30.55
375.74	61.27
375.951	69.46
376.161	118.61
376.372	124.76
376.582	-14.51
376.793	83.8
377.003	-16.55
377.214	132.95
377.424	83.8
377.635	77.65
377.845	75.6
378.055	53.08
378.266	26.45
378.476	-41.13
378.686	65.36
378.897	1.88
379.107	71.51
379.317	53.08
379.528	85.84
379.738	34.64
379.948	61.27
380.158	36.69
380.369	89.94
380.579	85.84
380.789	67.41
380.999	116.56
381.21	12.12
381.42	32.6
381.63	63.32
381.84	126.8
382.05	112.47
382.261	42.84
382.471	32.6
382.681	1.88
382.891	55.12
383.101	12.12
383.311	8.02
383.521	59.22
383.731	-32.94
383.941	38.74
384.151	22.36
384.361	53.08
384.571	171.86
384.781	46.93
384.991	34.64
385.201	40.79
385.411	46.93
385.621	44.88
385.831	-10.41
386.041	16.21
386.251	71.51
386.461	94.04
386.671	83.8
386.881	-45.23
387.091	28.5
387.301	67.41
387.511	20.31
387.72	73.56
387.93	75.6
388.14	81.75
388.35	-16.55
388.56	57.17
388.769	110.42
388.979	83.8
389.189	36.69
389.399	38.74
389.609	77.65
389.818	106.32
390.028	71.51
390.238	51.03
390.447	38.74
390.657	34.64
390.867	30.55
391.076	38.74
391.286	26.45
391.496	79.7
391.705	104.28
391.915	71.51
392.125	108.37
392.334	128.85
392.544	83.8
392.753	59.22
392.963	71.51
393.172	63.32
393.382	118.61
393.591	61.27
393.801	69.46
394.01	67.41
394.22	128.85
394.429	106.32
394.639	22.36
394.848	71.51
395.058	18.26
395.267	83.8
395.477	69.46
395.686	116.56
395.895	-14.51
396.105	67.41
396.314	24.4
396.524	83.8
396.733	118.61
396.942	106.32
397.152	69.46
397.361	48.98
397.57	-34.99
397.78	118.61
397.989	71.51
398.198	141.14
398.407	116.56
398.617	182.1
398.826	69.46
399.035	112.47
399.244	73.56
399.453	73.56
399.663	116.56
399.872	85.84
400.081	102.23
400.29	75.6
400.499	53.08
400.708	196.43
400.917	112.47
401.127	71.51
401.336	135
401.545	157.52
401.754	147.28
401.963	79.7
402.172	165.71
402.381	124.76
402.59	108.37
402.799	91.99
403.008	155.47
403.217	30.55
403.426	96.08
403.635	186.19
403.844	53.08
404.053	143.19
404.262	114.52
404.471	132.95
404.68	141.14
404.888	44.88
405.097	116.56
405.306	212.82
405.515	98.13
405.724	192.34
405.933	223.06
406.142	141.14
406.35	190.29
406.559	204.63
406.768	124.76
406.977	208.72
407.185	175.95
407.394	143.19
407.603	178
407.812	251.73
408.02	223.06
408.229	216.91
408.438	206.67
408.646	223.06
408.855	221.01
409.064	192.34
409.272	255.83
409.481	239.44
409.69	251.73
409.898	282.45
410.107	272.21
410.315	296.78
410.524	286.54
410.733	339.79
410.941	309.07
411.15	284.5
411.358	347.98
411.567	372.56
411.775	366.42
411.984	317.26
412.192	366.42
412.401	345.94
412.609	354.13
412.818	468.81
413.026	388.94
413.234	390.99
413.443	509.77
413.651	489.29
413.86	515.92
414.068	585.55
414.276	593.74
414.485	501.58
414.693	575.31
414.901	558.92
415.11	663.37
415.318	651.08
415.526	689.99
415.734	728.91
415.943	644.94
416.151	763.72
416.359	706.38
416.567	714.57
416.776	741.19
416.984	784.2
417.192	864.07
417.4	892.74
417.608	866.12
417.817	921.42
418.025	1007.43
418.233	1011.53
418.441	1029.96
418.649	997.19
418.857	1023.81
419.065	1115.97
419.273	1083.2
419.481	1214.27
419.689	1124.16
419.897	1271.62
420.105	1271.62
420.313	1281.86
420.521	1427.26
420.729	1466.17
420.937	1468.22
421.145	1552.19
421.353	1636.16
421.561	1683.26
421.769	1806.14
421.977	1810.23
422.185	1812.28
422.393	1830.71
422.601	2021.17
422.809	1992.5
423.017	2031.41
423.224	2076.47
423.432	2223.92
423.64	2205.49
423.848	2445.1
424.056	2285.36
424.263	2457.39
424.471	2473.78
424.679	2582.32
424.887	2545.45
425.094	2758.44
425.302	2828.07
425.51	2971.43
425.718	3065.64
425.925	2942.76
426.133	3075.88
426.341	3182.37
426.548	3430.18
426.756	3419.94
426.964	3450.66
427.171	3647.26
427.379	3825.43
427.586	3874.59
427.794	3833.63
428.001	3993.37
428.209	4267.8
428.417	4169.49
428.624	4441.87
428.832	4589.33
429.039	4527.89
429.247	4425.49
429.454	4962.06
429.662	5242.63
429.869	4933.39
430.076	5181.19
430.284	5213.96
430.491	5396.23
430.699	5543.68
430.906	5750.53
431.114	5697.28
431.321	5779.2
431.528	6020.86
431.736	6377.2
431.943	6696.69
432.15	6661.87
432.358	6428.4
432.565	6944.49
432.772	6973.16
432.979	7081.71
433.187	7456.48
433.394	7487.2
433.601	7913.18
433.808	7880.41
434.016	7792.35
434.223	8400.6
434.43	8601.3
434.637	8613.59
434.844	9076.43
435.052	9381.57
435.259	9281.22
435.466	9207.5
435.673	9014.99
435.88	9823.94
436.087	10161.85
436.294	10229.43
436.501	9987.77
436.708	10317.5
436.915	10786.48
437.122	11036.33
437.329	11081.39
437.537	11445.93
437.743	11714.21
437.95	11595.43
438.157	12138.14
438.364	12486.29
438.571	12463.77
438.778	12656.28
438.985	13444.74
439.192	13112.97
439.399	13672.07
439.606	13276.81
439.813	13958.78
440.02	14694.01
440.227	14544.5
440.433	14454.39
440.64	14804.6
440.847	14870.13
441.054	15169.13
441.261	16150.11
441.467	15738.47
441.674	16422.49
441.881	16991.83
442.088	16858.71
442.294	16803.41
442.501	17079.89
442.708	17520.2
442.914	18064.96
443.121	18894.39
443.328	18466.36
443.534	19959.33
443.741	19238.45
443.948	19011.12
444.154	20299.3
444.361	20268.58
444.568	20448.8
444.774	20194.85
444.981	20622.87
445.187	21198.35
445.394	22199.81
445.6	21812.74
445.807	24157.67
446.013	22912.5
446.22	23342.58
446.426	23979.5
446.633	24094.18
446.839	25134.55
447.046	24255.97
447.252	25636.3
447.459	25564.62
447.665	25263.57
447.871	26734.01
448.078	27510.19
448.284	26389.95
448.491	27098.55
448.697	28034.47
448.903	28568.99
449.11	28843.42
449.316	28345.76
449.522	29005.21
449.728	29302.17
449.935	29382.04
450.141	29560.21
450.347	30221.7
450.553	29042.07
450.76	29562.26
450.966	30813.57
451.172	30264.71
451.378	31290.74
451.584	30371.21
451.791	31051.13
451.997	31038.84
452.203	31327.61
452.409	31475.06
452.615	31477.11
452.821	30041.48
453.027	29758.86
453.233	31450.49
453.44	30080.39
453.646	30432.64
453.852	30563.71
454.058	31133.05
454.264	30397.83
454.47	30489.99
454.676	29810.06
454.882	30879.1
455.088	28239.27
455.294	28937.63
455.5	29040.03
455.705	29353.37
455.911	28349.86
456.117	27430.32
456.323	27467.19
456.529	26211.78
456.735	27276.73
456.941	26324.42
457.147	26131.91
457.352	24995.29
457.558	24770.01
457.764	24911.32
457.97	24268.26
458.176	23838.19
458.381	23965.16
458.587	22582.78
458.793	22789.63
458.999	21577.23
459.204	23016.95
459.41	22420.99
459.616	20915.73
459.821	20768.28
460.027	20719.13
460.233	20282.91
460.438	19359.28
460.644	19727.91
460.85	18822.71
461.055	18535.99
461.261	18626.11
461.466	17149.52
461.672	16346.72
461.878	17630.79
462.083	16647.77
462.289	16375.39
462.494	16256.61
462.7	15294.06
462.905	15169.13
463.111	15449.71
463.316	15763.04
463.522	15240.81
463.727	15253.1
463.932	15406.7
464.138	15095.41
464.343	15130.22
464.549	14618.23
464.754	15281.77
464.959	15375.98
465.165	15195.76
465.37	14386.81
465.575	14034.56
465.781	14599.8
465.986	14675.57
466.191	14229.12
466.397	14093.95
466.602	13313.67
466.807	13729.41
467.012	13655.68
467.218	13743.75
467.423	13713.03
467.628	13545.09
