Data from USB4F104151__64__13-53-42-215.txt Node

Date: Thu Mar 13 13:53:42 EDT 2025
User: louis
Spectrometer: USB4F10415
Trigger mode: 4
Integration Time (sec): 1.000000E-2
Scans to average: 1
Electric dark correction enabled: true
Nonlinearity correction enabled: false
Boxcar width: 0
XAxis mode: Wavelengths
Number of Pixels in Spectrum: 3648
>>>>>Begin Spectral Data<<<<<
178.204	-21.67
178.424	-21.67
178.644	-21.67
178.864	-33.96
179.084	-74.92
179.304	-19.63
179.524	15.19
179.744	56.15
179.964	37.72
180.184	-13.48
180.404	-11.43
180.624	-64.68
180.844	-36.01
181.064	4.95
181.283	17.24
181.503	17.24
181.723	-3.24
181.943	-11.43
182.163	95.06
182.383	29.52
182.602	123.73
182.822	-42.15
183.042	72.53
183.262	11.09
183.482	39.76
183.701	2.9
183.921	41.81
184.141	58.2
184.361	68.44
184.58	56.15
184.8	11.09
185.02	-3.24
185.239	27.48
185.459	29.52
185.679	54.1
185.898	7
186.118	23.38
186.338	41.81
186.557	78.68
186.777	25.43
186.997	41.81
187.216	103.25
187.436	58.2
187.655	41.81
187.875	93.01
188.095	-38.06
188.314	-5.29
188.534	113.49
188.753	33.62
188.973	47.96
189.192	68.44
189.412	21.33
189.631	29.52
189.851	35.67
190.07	88.92
190.29	-11.43
190.509	-1.19
190.729	60.24
190.948	54.1
191.168	15.19
191.387	45.91
191.607	-5.29
191.826	62.29
192.045	37.72
192.265	15.19
192.484	17.24
192.704	66.39
192.923	-11.43
193.142	4.95
193.362	25.43
193.581	23.38
193.8	37.72
194.02	11.09
194.239	39.76
194.458	72.53
194.678	88.92
194.897	33.62
195.116	45.91
195.335	2.9
195.555	41.81
195.774	-21.67
195.993	-5.29
196.212	88.92
196.432	23.38
196.651	97.11
196.87	52.05
197.089	23.38
197.308	2.9
197.528	-5.29
197.747	-5.29
197.966	-1.19
198.185	4.95
198.404	33.62
198.623	-7.34
198.842	117.59
199.062	11.09
199.281	45.91
199.5	21.33
199.719	88.92
199.938	41.81
200.157	45.91
200.376	29.52
200.595	78.68
200.814	41.81
201.033	45.91
201.252	88.92
201.471	56.15
201.69	13.14
201.909	62.29
202.128	93.01
202.347	41.81
202.566	29.52
202.785	29.52
203.004	-1.19
203.223	33.62
203.442	13.14
203.661	37.72
203.879	37.72
204.098	15.19
204.317	17.24
204.536	-15.53
204.755	-15.53
204.974	62.29
205.193	31.57
205.411	33.62
205.63	76.63
205.849	54.1
206.068	-25.77
206.287	19.29
206.505	39.76
206.724	27.48
206.943	15.19
207.162	88.92
207.381	47.96
207.599	54.1
207.818	9.05
208.037	9.05
208.255	29.52
208.474	52.05
208.693	58.2
208.911	-27.82
209.13	-27.82
209.349	64.34
209.567	11.09
209.786	52.05
210.005	76.63
210.223	7
210.442	25.43
210.661	29.52
210.879	4.95
211.098	35.67
211.316	15.19
211.535	76.63
211.753	-46.25
211.972	64.34
212.191	-7.34
212.409	33.62
212.628	-9.39
212.846	13.14
213.065	-15.53
213.283	90.96
213.502	11.09
213.72	-7.34
213.938	19.29
214.157	47.96
214.375	115.54
214.594	-11.43
214.812	76.63
215.031	35.67
215.249	103.25
215.467	29.52
215.686	-13.48
215.904	64.34
216.122	21.33
216.341	45.91
216.559	31.57
216.778	4.95
216.996	21.33
217.214	19.29
217.432	88.92
217.651	72.53
217.869	82.77
218.087	41.81
218.306	15.19
218.524	47.96
218.742	56.15
218.96	86.87
219.179	-44.2
219.397	54.1
219.615	39.76
219.833	39.76
220.051	15.19
220.27	23.38
220.488	43.86
220.706	107.35
220.924	7
221.142	56.15
221.36	41.81
221.578	43.86
221.796	37.72
222.015	68.44
222.233	68.44
222.451	37.72
222.669	58.2
222.887	66.39
223.105	-62.63
223.323	58.2
223.541	19.29
223.759	31.57
223.977	4.95
224.195	21.33
224.413	4.95
224.631	70.48
224.849	33.62
225.067	90.96
225.285	47.96
225.503	15.19
225.721	47.96
225.939	47.96
226.157	76.63
226.375	140.12
226.592	103.25
226.81	45.91
227.028	117.59
227.246	84.82
227.464	29.52
227.682	35.67
227.9	-5.29
228.117	29.52
228.335	11.09
228.553	27.48
228.771	0.85
228.989	31.57
229.206	58.2
229.424	31.57
229.642	17.24
229.86	4.95
230.077	21.33
230.295	2.9
230.513	-17.58
230.731	33.62
230.948	39.76
231.166	-54.44
231.384	37.72
231.601	90.96
231.819	29.52
232.037	47.96
232.254	90.96
232.472	56.15
232.689	101.2
232.907	47.96
233.125	39.76
233.342	-17.58
233.56	-11.43
233.777	9.05
233.995	35.67
234.213	33.62
234.43	4.95
234.648	117.59
234.865	15.19
235.083	45.91
235.3	15.19
235.518	39.76
235.735	76.63
235.953	-25.77
236.17	31.57
236.388	39.76
236.605	-9.39
236.822	45.91
237.04	119.64
237.257	60.24
237.475	68.44
237.692	60.24
237.909	50
238.127	-7.34
238.344	72.53
238.562	37.72
238.779	62.29
238.996	37.72
239.214	29.52
239.431	27.48
239.648	21.33
239.865	23.38
240.083	37.72
240.3	107.35
240.517	29.52
240.735	84.82
240.952	52.05
241.169	127.83
241.386	4.95
241.603	7
241.821	13.14
242.038	82.77
242.255	56.15
242.472	9.05
242.689	-5.29
242.907	25.43
243.124	33.62
243.341	25.43
243.558	11.09
243.775	23.38
243.992	-1.19
244.209	82.77
244.426	78.68
244.643	58.2
244.86	35.67
245.078	115.54
245.295	-25.77
245.512	82.77
245.729	50
245.946	39.76
246.163	45.91
246.38	19.29
246.597	-9.39
246.814	60.24
247.031	64.34
247.248	66.39
247.464	25.43
247.681	13.14
247.898	-11.43
248.115	74.58
248.332	7
248.549	23.38
248.766	19.29
248.983	111.44
249.2	101.2
249.417	19.29
249.633	13.14
249.85	88.92
250.067	-21.67
250.284	82.77
250.501	25.43
250.717	58.2
250.934	45.91
251.151	80.72
251.368	60.24
251.585	37.72
251.801	39.76
252.018	82.77
252.235	9.05
252.451	13.14
252.668	90.96
252.885	84.82
253.102	93.01
253.318	41.81
253.535	-1.19
253.752	66.39
253.968	27.48
254.185	66.39
254.401	-3.24
254.618	23.38
254.835	76.63
255.051	4.95
255.268	66.39
255.484	43.86
255.701	17.24
255.917	-9.39
256.134	-5.29
256.351	9.05
256.567	-23.72
256.784	129.88
257	86.87
257.217	62.29
257.433	-7.34
257.65	-9.39
257.866	-27.82
258.082	25.43
258.299	37.72
258.515	33.62
258.732	13.14
258.948	-29.87
259.165	-15.53
259.381	15.19
259.597	50
259.814	52.05
260.03	35.67
260.246	37.72
260.463	17.24
260.679	50
260.895	52.05
261.112	4.95
261.328	4.95
261.544	21.33
261.761	78.68
261.977	47.96
262.193	152.4
262.409	11.09
262.626	82.77
262.842	103.25
263.058	21.33
263.274	88.92
263.49	23.38
263.707	15.19
263.923	68.44
264.139	37.72
264.355	29.52
264.571	66.39
264.787	31.57
265.004	84.82
265.22	115.54
265.436	35.67
265.652	82.77
265.868	33.62
266.084	-17.58
266.3	23.38
266.516	31.57
266.732	56.15
266.948	68.44
267.164	-7.34
267.38	-23.72
267.596	11.09
267.812	45.91
268.028	52.05
268.244	-1.19
268.46	9.05
268.676	11.09
268.892	-44.2
269.108	7
269.324	-13.48
269.54	33.62
269.756	41.81
269.972	45.91
270.188	29.52
270.403	33.62
270.619	45.91
270.835	56.15
271.051	84.82
271.267	4.95
271.483	111.44
271.698	58.2
271.914	37.72
272.13	78.68
272.346	68.44
272.562	80.72
272.777	35.67
272.993	19.29
273.209	-7.34
273.425	37.72
273.64	31.57
273.856	11.09
274.072	33.62
274.287	19.29
274.503	58.2
274.719	80.72
274.934	39.76
275.15	41.81
275.366	72.53
275.581	0.85
275.797	37.72
276.012	35.67
276.228	9.05
276.444	25.43
276.659	68.44
276.875	-7.34
277.09	72.53
277.306	72.53
277.521	86.87
277.737	45.91
277.952	7
278.168	2.9
278.383	-3.24
278.599	123.73
278.814	43.86
279.03	23.38
279.245	-13.48
279.461	-3.24
279.676	0.85
279.892	15.19
280.107	7
280.322	52.05
280.538	-11.43
280.753	84.82
280.969	2.9
281.184	-25.77
281.399	29.52
281.615	-3.24
281.83	-17.58
282.045	-5.29
282.26	78.68
282.476	41.81
282.691	47.96
282.906	35.67
283.122	35.67
283.337	-33.96
283.552	52.05
283.767	56.15
283.983	-27.82
284.198	2.9
284.413	-13.48
284.628	29.52
284.843	72.53
285.058	45.91
285.274	58.2
285.489	-31.91
285.704	72.53
285.919	27.48
286.134	39.76
286.349	35.67
286.564	-19.63
286.779	25.43
286.995	-13.48
287.21	0.85
287.425	33.62
287.64	33.62
287.855	93.01
288.07	66.39
288.285	80.72
288.5	56.15
288.715	88.92
288.93	43.86
289.145	35.67
289.36	-27.82
289.575	-36.01
289.79	97.11
290.004	7
290.219	50
290.434	13.14
290.649	7
290.864	29.52
291.079	33.62
291.294	64.34
291.509	-15.53
291.724	39.76
291.938	13.14
292.153	50
292.368	68.44
292.583	43.86
292.798	39.76
293.012	70.48
293.227	70.48
293.442	-27.82
293.657	-11.43
293.871	82.77
294.086	-19.63
294.301	144.21
294.516	-74.92
294.73	2.9
294.945	15.19
295.16	138.07
295.374	-13.48
295.589	27.48
295.804	39.76
296.018	54.1
296.233	76.63
296.447	-3.24
296.662	-3.24
296.877	76.63
297.091	99.16
297.306	-9.39
297.52	97.11
297.735	-19.63
297.949	33.62
298.164	-3.24
298.378	82.77
298.593	7
298.807	25.43
299.022	76.63
299.236	47.96
299.451	33.62
299.665	37.72
299.88	37.72
300.094	37.72
300.309	15.19
300.523	76.63
300.737	70.48
300.952	80.72
301.166	62.29
301.381	27.48
301.595	101.2
301.809	27.48
302.024	11.09
302.238	4.95
302.452	25.43
302.667	58.2
302.881	45.91
303.095	39.76
303.309	45.91
303.524	50
303.738	33.62
303.952	25.43
304.166	41.81
304.381	-5.29
304.595	58.2
304.809	47.96
305.023	88.92
305.237	31.57
305.452	68.44
305.666	111.44
305.88	70.48
306.094	144.21
306.308	45.91
306.522	7
306.736	-7.34
306.95	103.25
307.164	33.62
307.379	45.91
307.593	13.14
307.807	43.86
308.021	2.9
308.235	41.81
308.449	-3.24
308.663	45.91
308.877	43.86
309.091	19.29
309.305	25.43
309.519	-7.34
309.733	-31.91
309.947	19.29
310.161	52.05
310.374	11.09
310.588	50
310.802	7
311.016	52.05
311.23	50
311.444	52.05
311.658	27.48
311.872	39.76
312.085	88.92
312.299	103.25
312.513	45.91
312.727	47.96
312.941	23.38
313.154	31.57
313.368	0.85
313.582	-33.96
313.796	11.09
314.009	76.63
314.223	41.81
314.437	45.91
314.651	45.91
314.864	60.24
315.078	35.67
315.292	50
315.505	9.05
315.719	74.58
315.933	37.72
316.146	76.63
316.36	93.01
316.573	43.86
316.787	9.05
317.001	70.48
317.214	68.44
317.428	-7.34
317.641	82.77
317.855	-25.77
318.068	39.76
318.282	9.05
318.495	70.48
318.709	23.38
318.922	70.48
319.136	43.86
319.349	58.2
319.563	47.96
319.776	23.38
319.99	45.91
320.203	27.48
320.417	33.62
320.63	13.14
320.843	27.48
321.057	29.52
321.27	23.38
321.483	33.62
321.697	33.62
321.91	23.38
322.124	90.96
322.337	37.72
322.55	45.91
322.763	80.72
322.977	25.43
323.19	76.63
323.403	109.4
323.617	64.34
323.83	2.9
324.043	15.19
324.256	78.68
324.469	-1.19
324.683	37.72
324.896	-27.82
325.109	41.81
325.322	7
325.535	127.83
325.748	60.24
325.962	56.15
326.175	13.14
326.388	31.57
326.601	72.53
326.814	-7.34
327.027	7
327.24	164.69
327.453	15.19
327.666	144.21
327.879	-25.77
328.092	-21.67
328.305	15.19
328.518	56.15
328.731	72.53
328.944	11.09
329.157	-3.24
329.37	154.45
329.583	88.92
329.796	-11.43
330.009	50
330.222	82.77
330.435	31.57
330.648	33.62
330.861	15.19
331.073	29.52
331.286	23.38
331.499	-7.34
331.712	-9.39
331.925	9.05
332.138	7
332.35	76.63
332.563	-17.58
332.776	93.01
332.989	35.67
333.202	9.05
333.414	-17.58
333.627	78.68
333.84	76.63
334.053	33.62
334.265	-3.24
334.478	80.72
334.691	15.19
334.903	11.09
335.116	58.2
335.329	13.14
335.541	45.91
335.754	41.81
335.966	97.11
336.179	47.96
336.392	72.53
336.604	-36.01
336.817	88.92
337.029	93.01
337.242	19.29
337.454	11.09
337.667	-3.24
337.88	13.14
338.092	21.33
338.305	31.57
338.517	9.05
338.729	99.16
338.942	72.53
339.154	105.3
339.367	27.48
339.579	88.92
339.792	39.76
340.004	-13.48
340.217	70.48
340.429	33.62
340.641	-1.19
340.854	25.43
341.066	62.29
341.278	33.62
341.491	82.77
341.703	-5.29
341.915	27.48
342.128	13.14
342.34	-25.77
342.552	43.86
342.764	93.01
342.977	-21.67
343.189	-66.73
343.401	64.34
343.613	33.62
343.826	72.53
344.038	58.2
344.25	52.05
344.462	82.77
344.674	90.96
344.886	-13.48
345.099	95.06
345.311	31.57
345.523	84.82
345.735	56.15
345.947	76.63
346.159	7
346.371	78.68
346.583	37.72
346.795	119.64
347.007	76.63
347.219	84.82
347.431	17.24
347.643	37.72
347.855	25.43
348.067	97.11
348.279	52.05
348.491	45.91
348.703	-3.24
348.915	78.68
349.127	64.34
349.339	27.48
349.551	31.57
349.763	39.76
349.975	9.05
350.187	41.81
350.399	60.24
350.61	-15.53
350.822	62.29
351.034	13.14
351.246	54.1
351.458	35.67
351.669	50
351.881	11.09
352.093	-11.43
352.305	4.95
352.517	37.72
352.728	19.29
352.94	144.21
353.152	21.33
353.363	-1.19
353.575	33.62
353.787	9.05
353.999	47.96
354.21	21.33
354.422	50
354.633	74.58
354.845	4.95
355.057	39.76
355.268	27.48
355.48	4.95
355.692	54.1
355.903	52.05
356.115	4.95
356.326	54.1
356.538	103.25
356.749	50
356.961	9.05
357.172	15.19
357.384	39.76
357.595	52.05
357.807	58.2
358.018	68.44
358.23	129.88
358.441	99.16
358.653	54.1
358.864	56.15
359.075	43.86
359.287	86.87
359.498	7
359.709	109.4
359.921	35.67
360.132	7
360.344	31.57
360.555	33.62
360.766	17.24
360.977	43.86
361.189	74.58
361.4	-23.72
361.611	62.29
361.823	-72.87
362.034	70.48
362.245	-29.87
362.456	-3.24
362.667	76.63
362.879	66.39
363.09	78.68
363.301	21.33
363.512	9.05
363.723	97.11
363.935	60.24
364.146	64.34
364.357	50
364.568	107.35
364.779	37.72
364.99	47.96
365.201	-9.39
365.412	13.14
365.623	-42.15
365.834	39.76
366.045	43.86
366.256	113.49
366.467	39.76
366.678	52.05
366.889	31.57
367.1	68.44
367.311	-29.87
367.522	21.33
367.733	64.34
367.944	56.15
368.155	23.38
368.366	13.14
368.577	29.52
368.788	15.19
368.999	66.39
369.209	80.72
369.42	101.2
369.631	125.78
369.842	-29.87
370.053	29.52
370.264	41.81
370.474	45.91
370.685	103.25
370.896	113.49
371.107	-11.43
371.317	29.52
371.528	-3.24
371.739	-21.67
371.95	109.4
372.16	-15.53
372.371	123.73
372.582	19.29
372.792	47.96
373.003	21.33
373.214	47.96
373.424	17.24
373.635	-11.43
373.846	99.16
374.056	41.81
374.267	50
374.477	52.05
374.688	56.15
374.898	2.9
375.109	119.64
375.319	66.39
375.53	64.34
375.74	62.29
375.951	56.15
376.161	39.76
376.372	17.24
376.582	13.14
376.793	103.25
377.003	54.1
377.214	-11.43
377.424	9.05
377.635	7
377.845	113.49
378.055	107.35
378.266	54.1
378.476	52.05
378.686	19.29
378.897	72.53
379.107	25.43
379.317	66.39
379.528	45.91
379.738	60.24
379.948	35.67
380.158	21.33
380.369	70.48
380.579	140.12
380.789	60.24
380.999	93.01
381.21	62.29
381.42	37.72
381.63	-9.39
381.84	88.92
382.05	76.63
382.261	74.58
382.471	62.29
382.681	41.81
382.891	21.33
383.101	39.76
383.311	31.57
383.521	4.95
383.731	90.96
383.941	113.49
384.151	31.57
384.361	39.76
384.571	50
384.781	25.43
384.991	74.58
385.201	76.63
385.411	90.96
385.621	9.05
385.831	37.72
386.041	58.2
386.251	19.29
386.461	119.64
386.671	54.1
386.881	-17.58
387.091	64.34
387.301	64.34
387.511	7
387.72	-5.29
387.93	84.82
388.14	88.92
388.35	9.05
388.56	105.3
388.769	25.43
388.979	25.43
389.189	7
389.399	86.87
389.609	35.67
389.818	72.53
390.028	60.24
390.238	47.96
390.447	43.86
390.657	80.72
390.867	27.48
391.076	39.76
391.286	13.14
391.496	45.91
391.705	39.76
391.915	136.02
392.125	93.01
392.334	39.76
392.544	27.48
392.753	115.54
392.963	17.24
393.172	66.39
393.382	41.81
393.591	111.44
393.801	-3.24
394.01	78.68
394.22	60.24
394.429	111.44
394.639	84.82
394.848	76.63
395.058	138.07
395.267	99.16
395.477	0.85
395.686	-19.63
395.895	76.63
396.105	50
396.314	88.92
396.524	9.05
396.733	15.19
396.942	86.87
397.152	78.68
397.361	41.81
397.57	70.48
397.78	37.72
397.989	105.3
398.198	86.87
398.407	13.14
398.617	4.95
398.826	64.34
399.035	60.24
399.244	88.92
399.453	19.29
399.663	99.16
399.872	72.53
400.081	17.24
400.29	119.64
400.499	93.01
400.708	117.59
400.917	58.2
401.127	70.48
401.336	68.44
401.545	90.96
401.754	111.44
401.963	113.49
402.172	107.35
402.381	111.44
402.59	111.44
402.799	99.16
403.008	52.05
403.217	131.92
403.426	121.68
403.635	37.72
403.844	97.11
404.053	127.83
404.262	58.2
404.471	113.49
404.68	103.25
404.888	109.4
405.097	21.33
405.306	109.4
405.515	150.36
405.724	86.87
405.933	115.54
406.142	88.92
406.35	187.22
406.559	140.12
406.768	129.88
406.977	222.03
407.185	150.36
407.394	74.58
407.603	109.4
407.812	156.5
408.02	183.12
408.229	111.44
408.438	146.26
408.646	193.36
408.855	138.07
409.064	164.69
409.272	176.98
409.481	189.27
409.69	170.83
409.898	183.12
410.107	127.83
410.315	246.61
410.524	224.08
410.733	273.23
410.941	164.69
411.15	211.79
411.358	215.89
411.567	279.38
411.775	224.08
411.984	273.23
412.192	258.9
412.401	230.23
412.609	308.05
412.818	269.14
413.026	355.15
413.234	271.19
413.443	318.29
413.651	312.14
413.86	238.42
414.068	357.2
414.276	326.48
414.485	320.34
414.693	279.38
414.901	365.39
415.11	408.4
415.318	383.82
415.526	379.73
415.734	369.49
415.943	437.07
416.151	443.21
416.359	435.02
416.567	473.93
416.776	445.26
416.984	533.33
417.192	478.03
417.4	496.46
417.608	568.14
417.817	510.8
418.025	658.25
418.233	594.76
418.441	553.8
418.649	518.99
418.857	668.49
419.065	699.21
419.273	639.82
419.481	719.69
419.689	789.32
419.897	760.65
420.105	826.18
420.313	815.94
420.521	867.14
420.729	842.57
420.937	895.82
421.145	920.39
421.353	969.54
421.561	957.25
421.769	1049.41
421.977	1174.34
422.185	1205.06
422.393	1067.85
422.601	1084.23
422.809	1194.82
423.017	1137.48
423.224	1364.8
423.432	1350.46
423.64	1231.68
423.848	1508.16
424.056	1395.52
424.263	1571.65
424.471	1520.45
424.679	1495.87
424.887	1594.17
425.094	1598.27
425.302	1628.99
425.51	1596.22
425.718	1764.15
425.925	1786.68
426.133	1876.79
426.341	1942.33
426.548	1917.75
426.756	1985.34
426.964	2061.11
427.171	2095.93
427.379	2190.13
427.586	2267.95
427.794	2319.15
428.001	2427.7
428.209	2454.32
428.417	2501.42
428.624	2671.4
428.832	2673.45
429.039	2593.58
429.247	2591.53
429.454	2892.59
429.662	3027.75
429.869	2872.11
430.076	3056.42
430.284	3048.23
430.491	3095.33
430.699	3279.65
430.906	3275.56
431.114	3334.95
431.321	3478.3
431.528	3552.03
431.736	3705.63
431.943	3965.72
432.15	3787.55
432.358	3705.63
432.565	4147.99
432.772	4135.7
432.979	4299.54
433.187	4303.64
433.394	4309.78
433.601	4610.83
433.808	4801.29
434.016	4541.2
434.223	4623.12
434.43	5026.57
434.637	4942.6
434.844	5212.93
435.052	5296.9
435.259	5491.46
435.466	5491.46
435.673	5430.02
435.88	5686.01
436.087	6068.98
436.294	6003.45
436.501	5823.23
436.708	5853.95
436.915	6122.23
437.122	6439.67
437.329	6535.92
437.537	6771.44
437.743	6857.45
437.95	6671.09
438.157	7238.37
438.364	7293.67
438.571	7213.8
438.778	7406.31
438.985	7924.44
439.192	7830.24
439.399	7824.09
439.606	7711.46
439.813	8141.53
440.02	8762.06
440.227	8370.9
440.433	8563.41
440.64	8858.32
440.847	8862.41
441.054	8745.68
441.261	9237.19
441.467	9452.23
441.674	9474.76
441.881	9863.87
442.088	9867.97
442.294	9661.12
442.501	9927.36
442.708	10230.46
442.914	10543.8
443.121	11231.91
443.328	10824.37
443.534	11424.42
443.741	11301.54
443.948	11143.85
444.154	11969.18
444.361	11733.67
444.568	11803.3
444.774	11803.3
444.981	11917.98
445.187	12380.82
445.394	12796.56
445.6	12681.88
445.807	14105.21
446.013	13341.32
446.22	13785.73
446.426	14137.98
446.633	14080.64
446.839	14805.62
447.046	14156.41
447.252	14697.08
447.459	15022.7
447.665	15037.04
447.871	15610.47
448.078	16075.36
448.284	15360.62
448.491	15815.27
448.697	16290.4
448.903	16530.01
449.11	16876.12
449.316	16409.18
449.522	16820.82
449.728	17017.43
449.935	17091.15
450.141	17103.44
450.347	17613.38
450.553	16972.37
450.76	16994.9
450.966	18000.45
451.172	17689.16
451.378	17898.05
451.584	17728.07
451.791	17943.11
451.997	17945.16
452.203	18305.6
452.409	18346.56
452.615	17951.3
452.821	17556.04
453.027	17324.62
453.233	18082.37
453.44	17308.24
453.646	17678.92
453.852	17416.78
454.058	18307.65
454.264	17394.25
454.47	17685.06
454.676	17238.61
454.882	17691.21
455.088	16042.59
455.294	16589.4
455.5	16630.36
455.705	16794.2
455.911	16253.53
456.117	15936.1
456.323	15467.11
456.529	14811.76
456.735	15503.98
456.941	14905.97
457.147	14639.73
457.352	14146.17
457.558	14373.5
457.764	13939.33
457.97	13898.37
458.176	13480.58
458.381	13490.82
458.587	12888.72
458.793	13116.05
458.999	12241.56
459.204	12864.15
459.41	12628.63
459.616	11844.26
459.821	11977.37
460.027	11743.91
460.233	11563.68
460.438	11031.21
460.644	11115.18
460.85	10531.51
461.055	10715.83
461.261	10330.81
461.466	9775.81
461.672	9263.82
461.878	10046.14
462.083	9634.5
462.289	9206.47
462.494	9253.58
462.7	8661.71
462.905	8387.29
463.111	8800.98
463.316	9038.54
463.522	8635.09
463.727	8733.39
463.932	8598.23
464.138	8389.33
464.343	8602.32
464.549	8293.08
464.754	8532.69
464.959	8547.03
465.165	8547.03
465.37	8338.13
465.575	8014.56
465.781	8458.96
465.986	8190.68
466.191	8141.53
466.397	7832.29
466.602	7434.98
466.807	7826.14
467.012	7578.34
467.218	7727.84
467.423	7516.9
467.628	7787.23
467.833	8065.75
468.038	7705.31
468.244	7596.77
468.449	7963.36
468.654	7525.09
468.859	7451.36
469.064	7359.21
469.269	7234.28
469.474	7203.56
469.679	7371.49
469.885	7187.18
470.09	7246.57
470.295	7244.52
470.5	6974.19
470.705	7197.42
