Data from USB4F104151__290__14-02-47-736.txt Node

Date: Thu Mar 13 14:02:47 EDT 2025
User: louis
Spectrometer: USB4F10415
Trigger mode: 4
Integration Time (sec): 1.000000E-2
Scans to average: 1
Electric dark correction enabled: true
Nonlinearity correction enabled: false
Boxcar width: 0
XAxis mode: Wavelengths
Number of Pixels in Spectrum: 3648
>>>>>Begin Spectral Data<<<<<
178.204	-34.82
178.424	-34.82
178.644	-34.82
178.864	-49.15
179.084	-55.3
179.304	79.87
179.524	16.38
179.744	-28.67
179.964	57.34
180.184	-38.91
180.404	0
180.624	-36.86
180.844	36.86
181.064	-45.06
181.283	-63.49
181.503	12.29
181.723	10.24
181.943	-40.96
182.163	26.62
182.383	-45.06
182.602	43.01
182.822	-24.58
183.042	43.01
183.262	40.96
183.482	-47.1
183.701	61.44
183.921	0
184.141	-16.38
184.361	4.1
184.58	28.67
184.8	104.45
185.02	-36.86
185.239	32.77
185.459	59.39
185.679	16.38
185.898	-14.34
186.118	81.92
186.338	28.67
186.557	20.48
186.777	-40.96
186.997	24.58
187.216	-34.82
187.436	67.58
187.655	-49.15
187.875	71.68
188.095	2.05
188.314	43.01
188.534	88.06
188.753	10.24
188.973	20.48
189.192	59.39
189.412	32.77
189.631	34.82
189.851	-10.24
190.07	-32.77
190.29	-63.49
190.509	6.14
190.729	30.72
190.948	10.24
191.168	73.73
191.387	18.43
191.607	26.62
191.826	38.91
192.045	16.38
192.265	6.14
192.484	10.24
192.704	28.67
192.923	-24.58
193.142	24.58
193.362	-28.67
193.581	16.38
193.8	8.19
194.02	65.54
194.239	38.91
194.458	32.77
194.678	-10.24
194.897	0
195.116	40.96
195.335	-8.19
195.555	81.92
195.774	-16.38
195.993	10.24
196.212	49.15
196.432	-53.25
196.651	12.29
196.87	51.2
197.089	118.78
197.308	8.19
197.528	96.25
197.747	-16.38
197.966	-24.58
198.185	34.82
198.404	40.96
198.623	-24.58
198.842	43.01
199.062	28.67
199.281	61.44
199.5	0
199.719	16.38
199.938	0
200.157	-16.38
200.376	-43.01
200.595	49.15
200.814	24.58
201.033	-16.38
201.252	-12.29
201.471	43.01
201.69	0
201.909	-26.62
202.128	51.2
202.347	-16.38
202.566	16.38
202.785	-20.48
203.004	4.1
203.223	0
203.442	92.16
203.661	16.38
203.879	38.91
204.098	-4.1
204.317	65.54
204.536	59.39
204.755	-12.29
204.974	16.38
205.193	32.77
205.411	43.01
205.63	-36.86
205.849	12.29
206.068	53.25
206.287	-16.38
206.505	16.38
206.724	32.77
206.943	36.86
207.162	79.87
207.381	-12.29
207.599	47.1
207.818	-14.34
208.037	6.14
208.255	24.58
208.474	8.19
208.693	57.34
208.911	155.65
209.13	73.73
209.349	47.1
209.567	81.92
209.786	59.39
210.005	16.38
210.223	-24.58
210.442	73.73
210.661	14.34
210.879	22.53
211.098	-30.72
211.316	2.05
211.535	-20.48
211.753	-59.39
211.972	-20.48
212.191	4.1
212.409	-4.1
212.628	43.01
212.846	-30.72
213.065	55.3
213.283	6.14
213.502	77.82
213.72	18.43
213.938	28.67
214.157	10.24
214.375	36.86
214.594	53.25
214.812	75.77
215.031	65.54
215.249	-53.25
215.467	28.67
215.686	-2.05
215.904	-20.48
216.122	40.96
216.341	55.3
216.559	53.25
216.778	0
216.996	55.3
217.214	22.53
217.432	28.67
217.651	-61.44
217.869	-12.29
218.087	20.48
218.306	45.06
218.524	51.2
218.742	-8.19
218.96	65.54
219.179	-36.86
219.397	-47.1
219.615	24.58
219.833	47.1
220.051	26.62
220.27	16.38
220.488	53.25
220.706	-30.72
220.924	-36.86
221.142	106.49
221.36	20.48
221.578	2.05
221.796	-57.34
222.015	6.14
222.233	-6.14
222.451	24.58
222.669	-73.73
222.887	-22.53
223.105	-22.53
223.323	16.38
223.541	18.43
223.759	43.01
223.977	-65.53
224.195	38.91
224.413	18.43
224.631	90.11
224.849	-30.72
225.067	81.92
225.285	-77.82
225.503	-16.38
225.721	36.86
225.939	20.48
226.157	2.05
226.375	24.58
226.592	61.44
226.81	47.1
227.028	16.38
227.246	18.43
227.464	-20.48
227.682	-40.96
227.9	16.38
228.117	32.77
228.335	-24.58
228.553	67.58
228.771	-24.58
228.989	43.01
229.206	-22.53
229.424	40.96
229.642	-32.77
229.86	65.54
230.077	32.77
230.295	-32.77
230.513	30.72
230.731	40.96
230.948	-36.86
231.166	-34.82
231.384	10.24
231.601	-20.48
231.819	-45.06
232.037	-34.82
232.254	-10.24
232.472	-14.34
232.689	-20.48
232.907	59.39
233.125	24.58
233.342	2.05
233.56	-20.48
233.777	59.39
233.995	28.67
234.213	61.44
234.43	-4.1
234.648	36.86
234.865	61.44
235.083	55.3
235.3	8.19
235.518	49.15
235.735	49.15
235.953	28.67
236.17	6.14
236.388	49.15
236.605	45.06
236.822	0
237.04	-12.29
237.257	28.67
237.475	20.48
237.692	45.06
237.909	-22.53
238.127	49.15
238.344	-12.29
238.562	4.1
238.779	40.96
238.996	-16.38
239.214	53.25
239.431	122.88
239.648	-10.24
239.865	-4.1
240.083	30.72
240.3	55.3
240.517	12.29
240.735	24.58
240.952	73.73
241.169	20.48
241.386	6.14
241.603	57.34
241.821	-18.43
242.038	-10.24
242.255	26.62
242.472	-18.43
242.689	-6.14
242.907	40.96
243.124	-20.48
243.341	40.96
243.558	51.2
243.775	98.3
243.992	67.58
244.209	12.29
244.426	4.1
244.643	-6.14
244.86	0
245.078	8.19
245.295	20.48
245.512	57.34
245.729	-10.24
245.946	32.77
246.163	16.38
246.38	57.34
246.597	22.53
246.814	-10.24
247.031	65.54
247.248	45.06
247.464	51.2
247.681	10.24
247.898	45.06
248.115	57.34
248.332	-20.48
248.549	18.43
248.766	90.11
248.983	4.1
249.2	26.62
249.417	102.4
249.633	69.63
249.85	-28.67
250.067	69.63
250.284	49.15
250.501	16.38
250.717	77.82
250.934	51.2
251.151	-16.38
251.368	-16.38
251.585	77.82
251.801	8.19
252.018	22.53
252.235	-20.48
252.451	59.39
252.668	-16.38
252.885	-12.29
253.102	53.25
253.318	73.73
253.535	22.53
253.752	2.05
253.968	-71.68
254.185	67.58
254.401	40.96
254.618	24.58
254.835	10.24
255.051	45.06
255.268	40.96
255.484	51.2
255.701	65.54
255.917	40.96
256.134	-45.06
256.351	28.67
256.567	10.24
256.784	10.24
257	-18.43
257.217	75.77
257.433	86.01
257.65	-6.14
257.866	55.3
258.082	51.2
258.299	53.25
258.515	10.24
258.732	-16.38
258.948	67.58
259.165	-59.39
259.381	75.77
259.597	-4.1
259.814	61.44
260.03	-12.29
260.246	49.15
260.463	-22.53
260.679	20.48
260.895	20.48
261.112	12.29
261.328	36.86
261.544	28.67
261.761	67.58
261.977	-61.44
262.193	8.19
262.409	36.86
262.626	18.43
262.842	53.25
263.058	18.43
263.274	24.58
263.49	8.19
263.707	-43.01
263.923	47.1
264.139	16.38
264.355	38.91
264.571	28.67
264.787	-24.58
265.004	45.06
265.22	69.63
265.436	-47.1
265.652	-69.63
265.868	67.58
266.084	32.77
266.3	69.63
266.516	18.43
266.732	45.06
266.948	10.24
267.164	65.54
267.38	24.58
267.596	-4.1
267.812	30.72
268.028	-51.2
268.244	34.82
268.46	40.96
268.676	32.77
268.892	-8.19
269.108	49.15
269.324	-24.58
269.54	26.62
269.756	-63.49
269.972	32.77
270.188	57.34
270.403	10.24
270.619	-8.19
270.835	86.01
271.051	49.15
271.267	63.49
271.483	77.82
271.698	90.11
271.914	86.01
272.13	10.24
272.346	36.86
272.562	47.1
272.777	65.54
272.993	63.49
273.209	16.38
273.425	-28.67
273.64	-88.06
273.856	81.92
274.072	-6.14
274.287	43.01
274.503	47.1
274.719	77.82
274.934	28.67
275.15	-49.15
275.366	-2.05
275.581	53.25
275.797	38.91
276.012	-30.72
276.228	38.91
276.444	40.96
276.659	38.91
276.875	6.14
277.09	53.25
277.306	45.06
277.521	12.29
277.737	38.91
277.952	67.58
278.168	-38.91
278.383	124.93
278.599	-8.19
278.814	26.62
279.03	-24.58
279.245	8.19
279.461	30.72
279.676	20.48
279.892	20.48
280.107	57.34
280.322	26.62
280.538	69.63
280.753	34.82
280.969	12.29
281.184	-4.1
281.399	81.92
281.615	61.44
281.83	12.29
282.045	12.29
282.26	110.59
282.476	10.24
282.691	65.54
282.906	12.29
283.122	16.38
283.337	38.91
283.552	-61.44
283.767	61.44
283.983	43.01
284.198	36.86
284.413	16.38
284.628	0
284.843	4.1
285.058	0
285.274	-32.77
285.489	-88.06
285.704	36.86
285.919	20.48
286.134	28.67
286.349	-34.82
286.564	26.62
286.779	-40.96
286.995	43.01
287.21	8.19
287.425	-81.92
287.64	20.48
287.855	-8.19
288.07	-36.86
288.285	83.97
288.5	-2.05
288.715	57.34
288.93	-16.38
289.145	43.01
289.36	16.38
289.575	6.14
289.79	16.38
290.004	-4.1
290.219	51.2
290.434	40.96
290.649	49.15
290.864	-12.29
291.079	32.77
291.294	26.62
291.509	57.34
291.724	43.01
291.938	4.1
292.153	20.48
292.368	16.38
292.583	30.72
292.798	24.58
293.012	12.29
293.227	-40.96
293.442	59.39
293.657	-40.96
293.871	45.06
294.086	71.68
294.301	59.39
294.516	81.92
294.73	10.24
294.945	49.15
295.16	51.2
295.374	-8.19
295.589	75.77
295.804	0
296.018	-30.72
296.233	81.92
296.447	0
296.662	34.82
296.877	18.43
297.091	49.15
297.306	34.82
297.52	-24.58
297.735	-22.53
297.949	-8.19
298.164	34.82
298.378	26.62
298.593	47.1
298.807	-16.38
299.022	51.2
299.236	4.1
299.451	-10.24
299.665	30.72
299.88	26.62
300.094	22.53
300.309	4.1
300.523	28.67
300.737	-53.25
300.952	22.53
301.166	55.3
301.381	40.96
301.595	43.01
301.809	-4.1
302.024	57.34
302.238	16.38
302.452	81.92
302.667	55.3
302.881	18.43
303.095	-28.67
303.309	-6.14
303.524	14.34
303.738	57.34
303.952	32.77
304.166	-26.62
304.381	65.54
304.595	-22.53
304.809	61.44
305.023	4.1
305.237	-38.91
305.452	22.53
305.666	49.15
305.88	24.58
306.094	83.97
306.308	-26.62
306.522	86.01
306.736	81.92
306.95	69.63
307.164	-40.96
307.379	-28.67
307.593	38.91
307.807	8.19
308.021	36.86
308.235	36.86
308.449	75.77
308.663	47.1
308.877	51.2
309.091	40.96
309.305	49.15
309.519	24.58
309.733	73.73
309.947	-24.58
310.161	57.34
310.374	14.34
310.588	43.01
310.802	32.77
311.016	45.06
311.23	45.06
311.444	-40.96
311.658	69.63
311.872	36.86
312.085	-63.49
312.299	24.58
312.513	-14.34
312.727	94.21
312.941	65.54
313.154	67.58
313.368	-38.91
313.582	-14.34
313.796	6.14
314.009	16.38
314.223	34.82
314.437	18.43
314.651	24.58
314.864	59.39
315.078	38.91
315.292	-30.72
315.505	75.77
315.719	59.39
315.933	18.43
316.146	8.19
316.36	-8.19
316.573	104.45
316.787	-14.34
317.001	6.14
317.214	20.48
317.428	63.49
317.641	49.15
317.855	34.82
318.068	26.62
318.282	16.38
318.495	-28.67
318.709	30.72
318.922	106.49
319.136	-55.3
319.349	77.82
319.563	8.19
319.776	-40.96
319.99	20.48
320.203	53.25
320.417	65.54
320.63	69.63
320.843	131.07
321.057	-10.24
321.27	53.25
321.483	22.53
321.697	12.29
321.91	-63.49
322.124	28.67
322.337	102.4
322.55	28.67
322.763	83.97
322.977	8.19
323.19	32.77
323.403	-83.97
323.617	28.67
323.83	92.16
324.043	6.14
324.256	38.91
324.469	49.15
324.683	49.15
324.896	36.86
325.109	-40.96
325.322	88.06
325.535	59.39
325.748	98.3
325.962	-55.3
326.175	-20.48
326.388	63.49
326.601	88.06
326.814	38.91
327.027	-30.72
327.24	53.25
327.453	53.25
327.666	4.1
327.879	53.25
328.092	0
328.305	26.62
328.518	36.86
328.731	47.1
328.944	-32.77
329.157	0
329.37	36.86
329.583	-45.06
329.796	83.97
330.009	14.34
330.222	-6.14
330.435	63.49
330.648	-16.38
330.861	10.24
331.073	88.06
331.286	86.01
331.499	24.58
331.712	-30.72
331.925	20.48
332.138	8.19
332.35	0
332.563	10.24
332.776	47.1
332.989	2.05
333.202	32.77
333.414	30.72
333.627	16.38
333.84	16.38
334.053	20.48
334.265	-38.91
334.478	118.78
334.691	83.97
334.903	53.25
335.116	4.1
335.329	49.15
335.541	102.4
335.754	22.53
335.966	63.49
336.179	79.87
336.392	51.2
336.604	57.34
336.817	12.29
337.029	83.97
337.242	0
337.454	77.82
337.667	-14.34
337.88	65.54
338.092	73.73
338.305	59.39
338.517	4.1
338.729	-4.1
338.942	43.01
339.154	34.82
339.367	51.2
339.579	-20.48
339.792	79.87
340.004	61.44
340.217	10.24
340.429	55.3
340.641	-8.19
340.854	79.87
341.066	88.06
341.278	40.96
341.491	45.06
341.703	2.05
341.915	24.58
342.128	0
342.34	40.96
342.552	90.11
342.764	32.77
342.977	14.34
343.189	92.16
343.401	43.01
343.613	8.19
343.826	2.05
344.038	43.01
344.25	26.62
344.462	98.3
344.674	124.93
344.886	-10.24
345.099	55.3
345.311	49.15
345.523	10.24
345.735	53.25
345.947	20.48
346.159	120.83
346.371	57.34
346.583	-16.38
346.795	-2.05
347.007	14.34
347.219	-20.48
347.431	16.38
347.643	55.3
347.855	32.77
348.067	98.3
348.279	-8.19
348.491	65.54
348.703	28.67
348.915	73.73
349.127	65.54
349.339	47.1
349.551	2.05
349.763	75.77
349.975	14.34
350.187	53.25
350.399	-34.82
350.61	38.91
350.822	32.77
351.034	32.77
351.246	94.21
351.458	38.91
351.669	-4.1
351.881	49.15
352.093	4.1
352.305	67.58
352.517	32.77
352.728	40.96
352.94	24.58
353.152	55.3
353.363	26.62
353.575	47.1
353.787	-40.96
353.999	24.58
354.21	90.11
354.422	32.77
354.633	49.15
354.845	43.01
355.057	57.34
355.268	90.11
355.48	57.34
355.692	75.77
355.903	34.82
356.115	28.67
356.326	-8.19
356.538	43.01
356.749	94.21
356.961	-40.96
357.172	92.16
357.384	40.96
357.595	86.01
357.807	57.34
358.018	-40.96
358.23	34.82
358.441	43.01
358.653	77.82
358.864	26.62
359.075	75.77
359.287	36.86
359.498	53.25
359.709	77.82
359.921	-2.05
360.132	-51.2
360.344	81.92
360.555	10.24
360.766	20.48
360.977	65.54
361.189	-14.34
361.4	10.24
361.611	51.2
361.823	49.15
362.034	32.77
362.245	83.97
362.456	4.1
362.667	69.63
362.879	59.39
363.09	26.62
363.301	53.25
363.512	-10.24
363.723	126.97
363.935	34.82
364.146	110.59
364.357	4.1
364.568	16.38
364.779	53.25
364.99	53.25
365.201	43.01
365.412	34.82
365.623	26.62
365.834	10.24
366.045	26.62
366.256	-8.19
366.467	67.58
366.678	-8.19
366.889	79.87
367.1	-12.29
367.311	67.58
367.522	22.53
367.733	36.86
367.944	92.16
368.155	100.35
368.366	18.43
368.577	88.06
368.788	0
368.999	38.91
369.209	59.39
369.42	45.06
369.631	32.77
369.842	-24.58
370.053	-4.1
370.264	59.39
370.474	40.96
370.685	102.4
370.896	8.19
371.107	-20.48
371.317	38.91
371.528	-34.82
371.739	49.15
371.95	-10.24
372.16	57.34
372.371	-2.05
372.582	10.24
372.792	4.1
373.003	124.93
373.214	63.49
373.424	-18.43
373.635	20.48
373.846	155.65
374.056	86.01
374.267	20.48
374.477	61.44
374.688	77.82
374.898	0
375.109	100.35
375.319	10.24
375.53	55.3
375.74	57.34
375.951	43.01
376.161	83.97
376.372	47.1
376.582	32.77
376.793	73.73
377.003	49.15
377.214	-57.34
377.424	81.92
377.635	30.72
377.845	49.15
378.055	77.82
378.266	-4.1
378.476	40.96
378.686	57.34
378.897	32.77
379.107	77.82
379.317	49.15
379.528	59.39
379.738	57.34
379.948	90.11
380.158	71.68
380.369	12.29
380.579	92.16
380.789	-28.67
380.999	67.58
381.21	73.73
381.42	67.58
381.63	81.92
381.84	71.68
382.05	75.77
382.261	40.96
382.471	100.35
382.681	-2.05
382.891	49.15
383.101	45.06
383.311	26.62
383.521	34.82
383.731	-16.38
383.941	86.01
384.151	24.58
384.361	-12.29
384.571	65.54
384.781	26.62
384.991	34.82
385.201	116.73
385.411	57.34
385.621	34.82
385.831	77.82
386.041	43.01
386.251	49.15
386.461	108.54
386.671	53.25
386.881	-43.01
387.091	24.58
387.301	24.58
387.511	8.19
387.72	75.77
387.93	100.35
388.14	0
388.35	40.96
388.56	49.15
388.769	88.06
388.979	12.29
389.189	40.96
389.399	51.2
389.609	116.73
389.818	131.07
390.028	18.43
390.238	94.21
390.447	67.58
390.657	59.39
390.867	38.91
391.076	69.63
391.286	55.3
391.496	63.49
391.705	49.15
391.915	77.82
392.125	61.44
392.334	20.48
392.544	65.54
392.753	86.01
392.963	-16.38
393.172	83.97
393.382	28.67
393.591	73.73
393.801	26.62
394.01	108.54
394.22	43.01
394.429	67.58
394.639	90.11
394.848	67.58
395.058	61.44
395.267	124.93
395.477	-32.77
395.686	159.74
395.895	79.87
396.105	86.01
396.314	92.16
396.524	77.82
396.733	57.34
396.942	83.97
397.152	147.45
397.361	139.26
397.57	83.97
397.78	133.12
397.989	110.59
398.198	73.73
398.407	79.87
398.617	75.77
398.826	141.31
399.035	120.83
399.244	116.73
399.453	49.15
399.663	26.62
399.872	118.78
400.081	16.38
400.29	86.01
400.499	106.49
400.708	122.88
400.917	92.16
401.127	49.15
401.336	59.39
401.545	86.01
401.754	67.58
401.963	104.45
402.172	57.34
402.381	61.44
402.59	94.21
402.799	73.73
403.008	90.11
403.217	147.45
403.426	63.49
403.635	90.11
403.844	114.69
404.053	161.79
404.262	139.26
404.471	131.07
404.68	112.64
404.888	163.84
405.097	118.78
405.306	143.36
405.515	151.55
405.724	169.98
405.933	100.35
406.142	145.41
406.35	108.54
406.559	217.08
406.768	200.7
406.977	106.49
407.185	227.32
407.394	116.73
407.603	184.32
407.812	212.99
408.02	172.03
408.229	155.65
408.438	266.24
408.646	155.65
408.855	231.42
409.064	256
409.272	272.38
409.481	233.47
409.69	253.95
409.898	321.53
410.107	196.61
410.315	335.87
410.524	317.44
410.733	315.39
410.941	276.48
411.15	321.53
411.358	309.24
411.567	303.1
411.775	344.06
411.984	290.81
412.192	430.07
412.401	380.92
412.609	428.03
412.818	344.06
413.026	425.98
413.234	401.4
413.443	466.94
413.651	524.28
413.86	483.32
414.068	552.95
414.276	598.01
414.485	507.9
414.693	595.96
414.901	632.82
415.11	528.38
415.318	688.12
415.526	661.49
415.734	702.45
415.943	706.55
416.151	702.45
416.359	741.36
416.567	780.28
416.776	776.18
416.984	880.63
417.192	851.96
417.4	980.98
417.608	903.15
417.817	958.45
418.025	876.53
418.233	1042.42
418.441	991.22
418.649	1066.99
418.857	1114.1
419.065	1142.77
419.273	1150.96
419.481	1196.01
419.689	1261.55
419.897	1406.95
420.105	1464.3
420.313	1419.24
420.521	1474.54
420.729	1392.62
420.937	1472.49
421.145	1677.29
421.353	1667.05
421.561	1679.33
421.769	1681.38
421.977	1855.46
422.185	1839.08
422.393	1900.52
422.601	2047.97
422.809	1953.76
423.017	1982.43
423.224	2201.57
423.432	2183.13
423.64	2252.77
423.848	2488.28
424.056	2406.36
424.263	2631.64
424.471	2453.47
424.679	2697.17
424.887	2899.92
425.094	2850.77
425.302	2922.45
425.51	2987.99
425.718	3022.8
425.925	3170.26
426.133	3250.13
426.341	3407.82
426.548	3565.51
426.756	3508.17
426.964	3622.86
427.171	3694.54
427.379	3958.72
427.586	3960.77
427.794	4069.31
428.001	4270.01
428.209	4474.81
428.417	4349.89
428.624	4607.93
428.832	4493.24
429.039	4638.65
429.247	4702.14
429.454	5105.59
429.662	5296.05
429.869	5105.59
430.076	5314.48
430.284	5343.15
430.491	5486.51
430.699	5820.33
430.906	5896.1
431.114	5971.88
431.321	6266.78
431.528	6176.67
431.736	6580.12
431.943	7047.06
432.15	6780.82
432.358	6782.87
432.565	7294.86
432.772	7454.61
432.979	7638.92
433.187	7581.58
433.394	7907.21
433.601	8286.08
433.808	8214.4
434.016	8232.83
434.223	8556.41
434.43	8992.63
434.637	8898.42
434.844	9459.57
435.052	9658.22
435.259	9371.5
435.466	9527.15
435.673	9584.49
435.88	10164.07
436.087	10571.61
436.294	10479.46
436.501	10348.39
436.708	10837.85
436.915	10856.28
437.122	11575.12
437.329	11552.59
437.537	11661.13
437.743	11988.81
437.95	11913.03
438.157	12496.71
438.364	13029.18
438.571	12812.09
438.778	12990.27
438.985	14407.46
439.192	13645.62
439.399	14231.33
439.606	13733.68
439.813	14712.61
440.02	15441.68
440.227	15136.54
440.433	15152.92
440.64	15499.03
440.847	15374.1
441.054	15939.34
441.261	16871.17
441.467	16979.71
441.674	16940.8
441.881	17460.98
442.088	17590
442.294	17456.89
442.501	18003.69
442.708	18411.24
442.914	19050.21
443.121	19554.01
443.328	18984.67
443.534	20596.42
443.741	20100.81
443.948	19529.43
444.154	21305.02
444.361	20885.19
444.568	20909.76
444.774	21345.98
444.981	21264.06
445.187	22009.52
445.394	23369.37
445.6	22941.35
445.807	25034.37
446.013	23664.28
446.22	24051.34
446.426	25167.49
446.633	25241.21
446.839	25976.44
447.046	25196.16
447.252	26797.67
447.459	26558.06
447.665	26551.91
447.871	27541.08
448.078	28868.17
448.284	27133.54
448.491	28268.11
448.697	29152.84
448.903	29572.67
449.11	29931.06
449.316	29384.26
449.522	29972.02
449.728	30289.46
449.935	30977.58
450.141	30895.66
450.347	31884.83
450.553	30535.21
450.76	31020.58
450.966	31792.67
451.172	31723.04
451.378	32032.28
451.584	31901.21
451.791	32282.13
451.997	32474.64
452.203	32892.43
452.409	32968.2
452.615	32392.72
452.821	31309.35
453.027	31088.17
453.233	32742.92
453.44	31307.3
453.646	31772.19
453.852	31706.65
454.058	32304.66
454.264	31092.26
454.47	32271.89
454.676	31180.32
454.882	32749.07
455.088	29523.52
455.294	30193.2
455.5	30586.41
455.705	30916.14
455.911	29439.55
456.117	28876.36
456.323	28841.54
456.529	27356.77
456.735	28474.96
456.941	27430.49
457.147	26953.32
457.352	26424.94
457.558	26066.55
457.764	26340.97
457.97	25458.3
458.176	25243.26
458.381	25302.65
458.587	24133.26
458.793	23658.13
458.999	22578.86
459.204	24034.96
459.41	23570.07
459.616	22189.74
459.821	22138.54
460.027	21845.68
460.233	21241.53
460.438	20655.81
460.644	20719.3
460.85	19506.9
461.055	19244.76
461.261	19310.3
461.466	17915.63
461.672	17510.13
461.878	18745.06
462.083	17479.41
462.289	17129.21
462.494	16758.53
462.7	16094.99
462.905	15746.83
463.111	16238.34
463.316	16238.34
463.522	15879.95
463.727	16099.08
463.932	16164.62
464.138	15879.95
464.343	15920.91
464.549	15404.82
464.754	16107.27
464.959	15847.18
465.165	15466.26
465.37	15171.35
465.575	14546.72
465.781	15296.28
465.986	15298.33
466.191	14933.79
466.397	14419.75
466.602	14042.92
466.807	14260.01
467.012	14409.51
467.218	14214.95
467.423	14073.64
467.628	14200.62
467.833	14944.03
468.038	14335.78
468.244	13934.38
