Data from USB4F104151__260__14-01-42-423.txt Node

Date: Thu Mar 13 14:01:42 EDT 2025
User: louis
Spectrometer: USB4F10415
Trigger mode: 4
Integration Time (sec): 1.000000E-2
Scans to average: 1
Electric dark correction enabled: true
Nonlinearity correction enabled: false
Boxcar width: 0
XAxis mode: Wavelengths
Number of Pixels in Spectrum: 3648
>>>>>Begin Spectral Data<<<<<
178.204	28.16
178.424	28.16
178.644	28.16
178.864	-45.57
179.084	-4.61
179.304	30.21
179.524	-29.18
179.744	30.21
179.964	-33.28
180.184	30.21
180.404	11.78
180.624	-10.75
180.844	26.11
181.064	-61.95
181.283	-39.42
181.503	15.87
181.723	30.21
181.943	24.06
182.163	85.5
182.383	71.17
182.602	95.74
182.822	38.4
183.042	1.54
183.262	24.06
183.482	-14.85
183.701	26.11
183.921	32.26
184.141	-43.52
184.361	26.11
184.58	7.68
184.8	-0.51
185.02	56.83
185.239	38.4
185.459	-29.18
185.679	95.74
185.898	7.68
186.118	30.21
186.338	22.02
186.557	-35.33
186.777	-41.47
186.997	-2.56
187.216	3.58
187.436	65.02
187.655	28.16
187.875	48.64
188.095	36.35
188.314	93.69
188.534	40.45
188.753	15.87
188.973	40.45
189.192	44.54
189.412	56.83
189.631	7.68
189.851	48.64
190.07	73.21
190.29	7.68
190.509	42.5
190.729	-2.56
190.948	40.45
191.168	85.5
191.387	67.07
191.607	-6.66
191.826	112.13
192.045	17.92
192.265	91.65
192.484	36.35
192.704	34.3
192.923	52.74
193.142	75.26
193.362	-16.9
193.581	42.5
193.8	9.73
194.02	24.06
194.239	24.06
194.458	56.83
194.678	-0.51
194.897	114.17
195.116	-8.7
195.335	3.58
195.555	17.92
195.774	38.4
195.993	97.79
196.212	24.06
196.432	-20.99
196.651	32.26
196.87	81.41
197.089	97.79
197.308	-47.62
197.528	28.16
197.747	-37.38
197.966	83.45
198.185	34.3
198.404	48.64
198.623	65.02
198.842	42.5
199.062	26.11
199.281	48.64
199.5	105.98
199.719	48.64
199.938	24.06
200.157	91.65
200.376	-47.62
200.595	50.69
200.814	-23.04
201.033	5.63
201.252	67.07
201.471	60.93
201.69	118.27
201.909	62.98
202.128	65.02
202.347	7.68
202.566	19.97
202.785	-0.51
203.004	-8.7
203.223	69.12
203.442	118.27
203.661	24.06
203.879	52.74
204.098	89.6
204.317	17.92
204.536	28.16
204.755	34.3
204.974	62.98
205.193	11.78
205.411	40.45
205.63	-41.47
205.849	-64
206.068	58.88
206.287	11.78
206.505	13.82
206.724	11.78
206.943	36.35
207.162	-2.56
207.381	22.02
207.599	26.11
207.818	11.78
208.037	52.74
208.255	-4.61
208.474	-23.04
208.693	56.83
208.911	-14.85
209.13	28.16
209.349	56.83
209.567	97.79
209.786	11.78
210.005	73.21
210.223	24.06
210.442	3.58
210.661	38.4
210.879	26.11
211.098	24.06
211.316	30.21
211.535	26.11
211.753	-53.76
211.972	71.17
212.191	87.55
212.409	22.02
212.628	-8.7
212.846	54.78
213.065	32.26
213.283	26.11
213.502	56.83
213.72	1.54
213.938	44.54
214.157	60.93
214.375	93.69
214.594	24.06
214.812	105.98
215.031	75.26
215.249	28.16
215.467	-0.51
215.686	62.98
215.904	40.45
216.122	79.36
216.341	69.12
216.559	19.97
216.778	83.45
216.996	40.45
217.214	38.4
217.432	48.64
217.651	-18.94
217.869	58.88
218.087	77.31
218.306	32.26
218.524	48.64
218.742	40.45
218.96	15.87
219.179	97.79
219.397	67.07
219.615	15.87
219.833	73.21
220.051	9.73
220.27	-23.04
220.488	30.21
220.706	32.26
220.924	17.92
221.142	40.45
221.36	19.97
221.578	52.74
221.796	32.26
222.015	56.83
222.233	48.64
222.451	83.45
222.669	26.11
222.887	58.88
223.105	-16.9
223.323	26.11
223.541	28.16
223.759	-33.28
223.977	58.88
224.195	1.54
224.413	13.82
224.631	46.59
224.849	26.11
225.067	128.51
225.285	32.26
225.503	34.3
225.721	28.16
225.939	91.65
226.157	52.74
226.375	26.11
226.592	54.78
226.81	65.02
227.028	-14.85
227.246	-14.85
227.464	-25.09
227.682	-2.56
227.9	52.74
228.117	11.78
228.335	62.98
228.553	-8.7
228.771	97.79
228.989	71.17
229.206	36.35
229.424	38.4
229.642	56.83
229.86	-10.75
230.077	65.02
230.295	-31.23
230.513	97.79
230.731	-12.8
230.948	40.45
231.166	73.21
231.384	19.97
231.601	7.68
231.819	-39.42
232.037	32.26
232.254	-14.85
232.472	42.5
232.689	-31.23
232.907	48.64
233.125	34.3
233.342	-41.47
233.56	81.41
233.777	11.78
233.995	83.45
234.213	9.73
234.43	34.3
234.648	34.3
234.865	71.17
235.083	91.65
235.3	7.68
235.518	46.59
235.735	73.21
235.953	58.88
236.17	11.78
236.388	75.26
236.605	99.84
236.822	89.6
237.04	-41.47
237.257	1.54
237.475	-6.66
237.692	122.37
237.909	42.5
238.127	15.87
238.344	13.82
238.562	-0.51
238.779	24.06
238.996	-41.47
239.214	81.41
239.431	22.02
239.648	36.35
239.865	83.45
240.083	-49.66
240.3	9.73
240.517	62.98
240.735	3.58
240.952	103.93
241.169	116.22
241.386	-12.8
241.603	36.35
241.821	9.73
242.038	26.11
242.255	15.87
242.472	83.45
242.689	122.37
242.907	28.16
243.124	-18.94
243.341	36.35
243.558	5.63
243.775	105.98
243.992	75.26
244.209	-10.75
244.426	52.74
244.643	40.45
244.86	32.26
245.078	101.89
245.295	116.22
245.512	97.79
245.729	3.58
245.946	108.03
246.163	32.26
246.38	38.4
246.597	48.64
246.814	32.26
247.031	-23.04
247.248	44.54
247.464	26.11
247.681	91.65
247.898	-6.66
248.115	89.6
248.332	-37.38
248.549	-0.51
248.766	-0.51
248.983	19.97
249.2	11.78
249.417	79.36
249.633	3.58
249.85	40.45
250.067	97.79
250.284	73.21
250.501	30.21
250.717	116.22
250.934	85.5
251.151	60.93
251.368	-16.9
251.585	3.58
251.801	97.79
252.018	-31.23
252.235	81.41
252.451	24.06
252.668	19.97
252.885	44.54
253.102	3.58
253.318	69.12
253.535	77.31
253.752	58.88
253.968	11.78
254.185	26.11
254.401	3.58
254.618	-18.94
254.835	85.5
255.051	32.26
255.268	13.82
255.484	67.07
255.701	42.5
255.917	-29.18
256.134	91.65
256.351	48.64
256.567	17.92
256.784	34.3
257	65.02
257.217	65.02
257.433	81.41
257.65	32.26
257.866	19.97
258.082	5.63
258.299	-16.9
258.515	101.89
258.732	-31.23
258.948	34.3
259.165	40.45
259.381	89.6
259.597	71.17
259.814	-12.8
260.03	34.3
260.246	22.02
260.463	30.21
260.679	28.16
260.895	-47.62
261.112	-16.9
261.328	-12.8
261.544	-29.18
261.761	50.69
261.977	28.16
262.193	-37.38
262.409	71.17
262.626	15.87
262.842	13.82
263.058	-23.04
263.274	7.68
263.49	75.26
263.707	50.69
263.923	73.21
264.139	-43.52
264.355	42.5
264.571	-20.99
264.787	34.3
265.004	56.83
265.22	-6.66
265.436	103.93
265.652	7.68
265.868	91.65
266.084	-4.61
266.3	36.35
266.516	81.41
266.732	50.69
266.948	42.5
267.164	42.5
267.38	-33.28
267.596	44.54
267.812	38.4
268.028	65.02
268.244	15.87
268.46	42.5
268.676	56.83
268.892	97.79
269.108	77.31
269.324	7.68
269.54	3.58
269.756	60.93
269.972	-57.86
270.188	15.87
270.403	-6.66
270.619	9.73
270.835	-16.9
271.051	-6.66
271.267	89.6
271.483	5.63
271.698	54.78
271.914	11.78
272.13	46.59
272.346	48.64
272.562	15.87
272.777	-0.51
272.993	9.73
273.209	85.5
273.425	-2.56
273.64	-25.09
273.856	50.69
274.072	26.11
274.287	85.5
274.503	75.26
274.719	32.26
274.934	103.93
275.15	13.82
275.366	65.02
275.581	46.59
275.797	-25.09
276.012	42.5
276.228	26.11
276.444	42.5
276.659	58.88
276.875	17.92
277.09	54.78
277.306	65.02
277.521	34.3
277.737	69.12
277.952	122.37
278.168	28.16
278.383	69.12
278.599	81.41
278.814	48.64
279.03	52.74
279.245	48.64
279.461	34.3
279.676	28.16
279.892	38.4
280.107	3.58
280.322	60.93
280.538	58.88
280.753	22.02
280.969	75.26
281.184	26.11
281.399	75.26
281.615	73.21
281.83	3.58
282.045	50.69
282.26	40.45
282.476	28.16
282.691	50.69
282.906	7.68
283.122	36.35
283.337	-8.7
283.552	50.69
283.767	46.59
283.983	42.5
284.198	108.03
284.413	32.26
284.628	38.4
284.843	-33.28
285.058	13.82
285.274	34.3
285.489	85.5
285.704	42.5
285.919	32.26
286.134	40.45
286.349	15.87
286.564	15.87
286.779	67.07
286.995	56.83
287.21	3.58
287.425	1.54
287.64	75.26
287.855	79.36
288.07	28.16
288.285	56.83
288.5	52.74
288.715	-12.8
288.93	97.79
289.145	85.5
289.36	103.93
289.575	91.65
289.79	-45.57
290.004	56.83
290.219	24.06
290.434	60.93
290.649	40.45
290.864	50.69
291.079	73.21
291.294	65.02
291.509	42.5
291.724	50.69
291.938	73.21
292.153	9.73
292.368	-33.28
292.583	-0.51
292.798	15.87
293.012	50.69
293.227	-12.8
293.442	73.21
293.657	81.41
293.871	87.55
294.086	24.06
294.301	52.74
294.516	5.63
294.73	26.11
294.945	-20.99
295.16	69.12
295.374	34.3
295.589	-8.7
295.804	48.64
296.018	26.11
296.233	-23.04
296.447	38.4
296.662	38.4
296.877	114.17
297.091	11.78
297.306	95.74
297.52	7.68
297.735	58.88
297.949	-12.8
298.164	15.87
298.378	13.82
298.593	97.79
298.807	69.12
299.022	93.69
299.236	95.74
299.451	-0.51
299.665	105.98
299.88	87.55
300.094	50.69
300.309	46.59
300.523	67.07
300.737	58.88
300.952	30.21
301.166	54.78
301.381	44.54
301.595	81.41
301.809	5.63
302.024	75.26
302.238	9.73
302.452	-14.85
302.667	67.07
302.881	122.37
303.095	50.69
303.309	97.79
303.524	34.3
303.738	-6.66
303.952	-18.94
304.166	36.35
304.381	-39.42
304.595	108.03
304.809	28.16
305.023	67.07
305.237	75.26
305.452	26.11
305.666	56.83
305.88	42.5
306.094	32.26
306.308	97.79
306.522	50.69
306.736	17.92
306.95	83.45
307.164	24.06
307.379	24.06
307.593	32.26
307.807	81.41
308.021	52.74
308.235	40.45
308.449	30.21
308.663	42.5
308.877	26.11
309.091	-8.7
309.305	-4.61
309.519	52.74
309.733	85.5
309.947	-49.66
310.161	58.88
310.374	36.35
310.588	28.16
310.802	44.54
311.016	32.26
311.23	19.97
311.444	58.88
311.658	30.21
311.872	83.45
312.085	15.87
312.299	19.97
312.513	93.69
312.727	81.41
312.941	15.87
313.154	34.3
313.368	32.26
313.582	122.37
313.796	87.55
314.009	48.64
314.223	52.74
314.437	38.4
314.651	42.5
314.864	67.07
315.078	15.87
315.292	11.78
315.505	75.26
315.719	36.35
315.933	17.92
316.146	48.64
316.36	73.21
316.573	34.3
316.787	38.4
317.001	32.26
317.214	34.3
317.428	73.21
317.641	32.26
317.855	7.68
318.068	-35.33
318.282	1.54
318.495	28.16
318.709	75.26
318.922	81.41
319.136	75.26
319.349	89.6
319.563	11.78
319.776	50.69
319.99	87.55
320.203	54.78
320.417	44.54
320.63	-39.42
320.843	91.65
321.057	87.55
321.27	73.21
321.483	75.26
321.697	15.87
321.91	34.3
322.124	19.97
322.337	93.69
322.55	42.5
322.763	32.26
322.977	40.45
323.19	83.45
323.403	93.69
323.617	83.45
323.83	40.45
324.043	36.35
324.256	52.74
324.469	-0.51
324.683	83.45
324.896	17.92
325.109	-12.8
325.322	81.41
325.535	32.26
325.748	65.02
325.962	136.7
326.175	75.26
326.388	77.31
326.601	93.69
326.814	-41.47
327.027	15.87
327.24	69.12
327.453	32.26
327.666	-0.51
327.879	93.69
328.092	56.83
328.305	30.21
328.518	5.63
328.731	-25.09
328.944	24.06
329.157	-4.61
329.37	24.06
329.583	101.89
329.796	99.84
330.009	15.87
330.222	13.82
330.435	65.02
330.648	48.64
330.861	116.22
331.073	13.82
331.286	103.93
331.499	73.21
331.712	-23.04
331.925	19.97
332.138	69.12
332.35	22.02
332.563	52.74
332.776	40.45
332.989	91.65
333.202	19.97
333.414	40.45
333.627	48.64
333.84	-25.09
334.053	5.63
334.265	15.87
334.478	60.93
334.691	75.26
334.903	52.74
335.116	56.83
335.329	9.73
335.541	-18.94
335.754	85.5
335.966	-23.04
336.179	77.31
336.392	83.45
336.604	50.69
336.817	15.87
337.029	15.87
337.242	-29.18
337.454	46.59
337.667	17.92
337.88	58.88
338.092	11.78
338.305	73.21
338.517	15.87
338.729	32.26
338.942	67.07
339.154	54.78
339.367	91.65
339.579	56.83
339.792	15.87
340.004	79.36
340.217	89.6
340.429	44.54
340.641	56.83
340.854	71.17
341.066	89.6
341.278	56.83
341.491	24.06
341.703	52.74
341.915	42.5
342.128	58.88
342.34	15.87
342.552	26.11
342.764	30.21
342.977	42.5
343.189	26.11
343.401	1.54
343.613	40.45
343.826	67.07
344.038	3.58
344.25	60.93
344.462	65.02
344.674	32.26
344.886	17.92
345.099	44.54
345.311	19.97
345.523	44.54
345.735	40.45
345.947	69.12
346.159	19.97
346.371	46.59
346.583	75.26
346.795	58.88
347.007	19.97
347.219	60.93
347.431	40.45
347.643	87.55
347.855	73.21
348.067	50.69
348.279	30.21
348.491	26.11
348.703	-35.33
348.915	62.98
349.127	46.59
349.339	83.45
349.551	108.03
349.763	65.02
349.975	89.6
350.187	65.02
350.399	7.68
350.61	65.02
350.822	22.02
351.034	44.54
351.246	24.06
351.458	48.64
351.669	60.93
351.881	22.02
352.093	38.4
352.305	48.64
352.517	-37.38
352.728	138.75
352.94	34.3
353.152	28.16
353.363	5.63
353.575	28.16
353.787	58.88
353.999	42.5
354.21	120.32
354.422	85.5
354.633	-8.7
354.845	30.21
355.057	73.21
355.268	34.3
355.48	32.26
355.692	67.07
355.903	28.16
356.115	-2.56
356.326	-12.8
356.538	32.26
356.749	69.12
356.961	105.98
357.172	52.74
357.384	-23.04
357.595	19.97
357.807	19.97
358.018	15.87
358.23	103.93
358.441	93.69
358.653	44.54
358.864	1.54
359.075	118.27
359.287	48.64
359.498	50.69
359.709	71.17
359.921	40.45
360.132	48.64
360.344	44.54
360.555	19.97
360.766	73.21
360.977	22.02
361.189	30.21
361.4	22.02
361.611	58.88
361.823	58.88
362.034	56.83
362.245	62.98
362.456	-57.86
362.667	69.12
362.879	75.26
363.09	58.88
363.301	36.35
363.512	83.45
363.723	85.5
363.935	58.88
364.146	103.93
364.357	71.17
364.568	19.97
364.779	32.26
364.99	83.45
365.201	42.5
365.412	140.8
365.623	26.11
365.834	120.32
366.045	48.64
366.256	89.6
366.467	99.84
366.678	56.83
366.889	169.47
367.1	40.45
367.311	28.16
367.522	101.89
367.733	-8.7
367.944	54.78
368.155	7.68
368.366	56.83
368.577	19.97
368.788	42.5
368.999	48.64
369.209	54.78
369.42	46.59
369.631	124.41
369.842	87.55
370.053	-12.8
370.264	1.54
370.474	32.26
370.685	46.59
370.896	40.45
371.107	32.26
371.317	22.02
371.528	83.45
371.739	105.98
371.95	58.88
372.16	52.74
372.371	48.64
372.582	65.02
372.792	52.74
373.003	60.93
373.214	122.37
373.424	105.98
373.635	30.21
373.846	62.98
374.056	101.89
374.267	130.56
374.477	118.27
374.688	-14.85
374.898	50.69
375.109	67.07
375.319	99.84
375.53	7.68
375.74	79.36
375.951	89.6
376.161	3.58
376.372	91.65
376.582	3.58
376.793	40.45
377.003	95.74
377.214	15.87
377.424	62.98
377.635	73.21
377.845	50.69
378.055	50.69
378.266	62.98
378.476	48.64
378.686	3.58
378.897	95.74
379.107	67.07
379.317	65.02
379.528	103.93
379.738	85.5
379.948	42.5
380.158	99.84
380.369	56.83
380.579	22.02
380.789	1.54
380.999	140.8
381.21	42.5
381.42	65.02
381.63	77.31
381.84	17.92
382.05	-10.75
382.261	11.78
382.471	73.21
382.681	73.21
382.891	48.64
383.101	77.31
383.311	34.3
383.521	15.87
383.731	7.68
383.941	42.5
384.151	19.97
384.361	146.94
384.571	56.83
384.781	67.07
384.991	19.97
385.201	89.6
385.411	3.58
385.621	15.87
385.831	169.47
386.041	83.45
386.251	56.83
386.461	62.98
386.671	28.16
386.881	132.61
387.091	22.02
387.301	173.57
387.511	32.26
387.72	105.98
387.93	52.74
388.14	142.85
388.35	48.64
388.56	75.26
388.769	91.65
388.979	83.45
389.189	124.41
389.399	146.94
389.609	17.92
389.818	62.98
390.028	52.74
390.238	58.88
390.447	67.07
390.657	73.21
390.867	71.17
391.076	-2.56
391.286	83.45
391.496	124.41
391.705	26.11
391.915	155.13
392.125	30.21
392.334	105.98
392.544	40.45
392.753	73.21
392.963	151.04
393.172	73.21
393.382	50.69
393.591	155.13
393.801	77.31
394.01	52.74
394.22	36.35
394.429	97.79
394.639	24.06
394.848	65.02
395.058	122.37
395.267	75.26
395.477	105.98
395.686	95.74
395.895	73.21
396.105	89.6
396.314	54.78
396.524	52.74
396.733	99.84
396.942	34.3
397.152	134.65
397.361	124.41
397.57	50.69
397.78	142.85
397.989	134.65
398.198	116.22
398.407	65.02
398.617	58.88
398.826	112.13
399.035	75.26
399.244	1.54
399.453	114.17
399.663	89.6
399.872	79.36
400.081	1.54
400.29	97.79
400.499	101.89
400.708	101.89
400.917	44.54
401.127	155.13
401.336	95.74
401.545	93.69
401.754	140.8
401.963	155.13
402.172	110.08
402.381	73.21
402.59	134.65
402.799	52.74
403.008	65.02
403.217	91.65
403.426	58.88
403.635	130.56
403.844	65.02
404.053	28.16
404.262	67.07
404.471	83.45
404.68	99.84
404.888	177.66
405.097	118.27
405.306	114.17
405.515	99.84
405.724	165.37
405.933	155.13
406.142	118.27
406.35	210.43
406.559	138.75
406.768	187.9
406.977	161.28
407.185	108.03
407.394	216.57
407.603	175.61
407.812	183.81
408.02	253.44
408.229	177.66
408.438	243.2
408.646	183.81
408.855	132.61
409.064	278.01
409.272	194.05
409.481	161.28
409.69	185.85
409.898	286.2
410.107	278.01
410.315	298.49
410.524	222.72
410.733	255.48
410.941	269.82
411.15	230.91
411.358	300.54
411.567	318.97
411.775	294.4
411.984	325.12
412.192	251.39
412.401	312.83
412.609	425.47
412.818	441.85
413.026	378.36
413.234	394.75
413.443	398.84
413.651	364.03
413.86	409.08
414.068	452.09
414.276	509.43
414.485	431.61
414.693	464.38
414.901	540.15
415.11	595.45
415.318	589.3
415.526	556.54
415.734	622.07
415.943	638.45
416.151	583.16
416.359	617.97
416.567	589.3
416.776	611.83
416.984	802.29
417.192	687.61
417.4	785.91
417.608	685.56
417.817	779.76
418.025	787.96
418.233	888.31
418.441	828.92
418.649	902.64
418.857	998.9
419.065	941.55
419.273	1013.23
419.481	919.03
419.689	1070.58
419.897	1121.77
420.105	1183.21
420.313	1185.26
420.521	1234.41
420.729	1189.36
420.937	1275.37
421.145	1306.09
421.353	1336.81
421.561	1406.44
421.769	1418.73
421.977	1502.7
422.185	1650.15
422.393	1574.38
422.601	1576.42
422.809	1711.59
423.017	1713.64
423.224	1705.45
423.432	1854.95
423.64	1801.7
423.848	1981.92
424.056	2000.35
424.263	1975.78
424.471	2145.76
424.679	2143.71
424.887	2297.31
425.094	2305.5
425.302	2356.7
425.51	2305.5
425.718	2418.14
425.925	2493.91
426.133	2649.56
426.341	2741.72
426.548	2760.15
426.756	2964.95
426.964	2926.04
427.171	3118.54
427.379	3266
427.586	3153.36
427.794	3186.13
428.001	3528.14
428.209	3671.5
428.417	3413.45
428.624	3749.32
428.832	3730.89
429.039	3718.6
429.247	3726.79
429.454	4105.67
429.662	4371.9
429.869	4224.45
430.076	4382.14
430.284	4326.85
430.491	4488.64
430.699	4711.86
430.906	4675
431.114	4810.17
431.321	4808.12
431.528	5170.61
431.736	5334.45
431.943	5467.56
432.15	5348.78
432.358	5586.35
432.565	5752.23
432.772	5776.81
432.979	6043.04
433.187	6157.73
433.394	6129.06
433.601	6694.3
433.808	6585.76
434.016	6528.41
434.223	6817.18
434.43	7230.87
434.637	7142.8
434.844	7501.2
435.052	7605.64
435.259	7591.31
435.466	7691.66
435.673	7798.15
435.88	8181.12
436.087	8492.41
436.294	8349.06
436.501	8441.22
436.708	8682.88
436.915	8914.3
437.122	9215.35
437.329	9135.48
437.537	9563.5
437.743	9764.2
437.95	9670
438.157	10220.9
438.364	10470.75
438.571	10423.65
438.778	10437.98
438.985	11593.04
439.192	10921.31
439.399	11310.42
439.606	11244.88
439.813	11631.95
440.02	12412.23
440.227	12193.09
440.433	12123.46
440.64	12588.35
440.847	12338.5
441.054	12750.14
441.261	13507.89
441.467	13290.81
441.674	13485.36
441.881	14138.66
442.088	14198.06
442.294	14079.27
442.501	14501.15
442.708	14609.7
442.914	15287.57
443.121	15760.66
443.328	15306.01
443.534	16356.61
443.741	15834.38
443.948	15809.81
444.154	16989.44
444.361	16844.03
444.568	16698.63
444.774	16999.68
444.981	16915.71
445.187	17804.53
445.394	18427.11
445.6	18263.27
445.807	19793.11
446.013	18869.47
446.22	19383.51
446.426	20227.28
446.633	20110.54
446.839	20710.6
447.046	19991.76
447.252	21345.47
447.459	21064.89
447.665	21130.43
447.871	22172.85
448.078	22985.89
448.284	21830.83
448.491	22627.49
448.697	23383.2
448.903	23964.82
449.11	23772.31
449.316	23485.59
449.522	23846.04
449.728	24308.88
449.935	24446.09
450.141	24861.83
450.347	25322.62
450.553	24382.6
450.76	24571.02
450.966	25478.27
451.172	25224.32
451.378	25891.96
451.584	25365.63
451.791	25844.85
451.997	25918.58
452.203	26315.89
452.409	26190.96
452.615	25916.53
452.821	25429.12
453.027	24702.09
453.233	26094.71
453.44	25207.94
453.646	25425.02
453.852	25519.23
454.058	25580.67
454.264	25142.4
454.47	25777.27
454.676	24743.05
454.882	26008.69
455.088	23794.84
455.294	24028.31
455.5	24306.83
455.705	24982.66
455.911	23604.38
456.117	22795.43
456.323	22875.3
456.529	21650.61
456.735	22322.35
456.941	21847.22
457.147	21994.67
457.352	21066.94
457.558	20935.87
457.764	20864.19
457.97	20671.68
458.176	20092.11
458.381	20167.88
458.587	18898.14
458.793	18951.39
458.999	18232.55
459.204	19410.14
459.41	18425.06
459.616	17704.18
459.821	17749.23
460.027	17280.25
460.233	17216.76
460.438	16205.06
460.644	16487.68
460.85	15637.78
461.055	15752.46
461.261	15701.26
461.466	14339.37
461.672	13892.91
461.878	15052.06
462.083	13835.56
462.289	13616.43
462.494	13772.08
462.7	12942.65
462.905	12451.14
463.111	13102.39
463.316	13002.04
463.522	12641.6
463.727	12893.5
463.932	12932.41
464.138	12721.47
464.343	12746.05
464.549	12201.29
464.754	12678.46
464.959	12660.03
465.165	12600.64
465.37	12004.68
465.575	11844.94
465.781	12148.04
465.986	12225.86
466.191	12160.33
466.397	11597.14
466.602	11289.94
466.807	11478.35
467.012	11267.41
467.218	11482.45
467.423	11289.94
467.628	11332.95
467.833	11865.42
468.038	11367.76
468.244	11097.43
468.449	11566.42
468.654	11095.38
468.859	11019.61
