Data from USB4F104151__279__14-02-25-499.txt Node

Date: Thu Mar 13 14:02:25 EDT 2025
User: louis
Spectrometer: USB4F10415
Trigger mode: 4
Integration Time (sec): 1.000000E-2
Scans to average: 1
Electric dark correction enabled: true
Nonlinearity correction enabled: false
Boxcar width: 0
XAxis mode: Wavelengths
Number of Pixels in Spectrum: 3648
>>>>>Begin Spectral Data<<<<<
178.204	-109.23
178.424	-109.23
178.644	-109.23
178.864	-66.22
179.084	-88.75
179.304	-2.73
179.524	44.37
179.744	-66.22
179.964	-37.55
180.184	15.7
180.404	42.32
180.624	-58.03
180.844	21.84
181.064	-21.16
181.283	48.47
181.503	-25.26
181.723	38.23
181.943	-27.31
182.163	52.56
182.383	-27.31
182.602	46.42
182.822	-62.12
183.042	58.71
183.262	77.14
183.482	-8.87
183.701	-51.88
183.921	-4.78
184.141	-4.78
184.361	-37.55
184.58	-12.97
184.8	32.08
185.02	71
185.239	-49.83
185.459	-129.7
185.679	5.46
185.898	27.99
186.118	66.9
186.338	-12.97
186.557	21.84
186.777	27.99
186.997	5.46
187.216	-6.83
187.436	56.66
187.655	21.84
187.875	3.41
188.095	-21.16
188.314	101.72
188.534	27.99
188.753	32.08
188.973	-17.07
189.192	21.84
189.412	-27.31
189.631	25.94
189.851	3.41
190.07	52.56
190.29	56.66
190.509	25.94
190.729	-31.4
190.948	40.28
191.168	52.56
191.387	7.51
191.607	-23.21
191.826	17.75
192.045	3.41
192.265	-0.68
192.484	-49.83
192.704	21.84
192.923	-53.93
193.142	38.23
193.362	-6.83
193.581	19.8
193.8	5.46
194.02	34.13
194.239	79.19
194.458	34.13
194.678	5.46
194.897	-19.11
195.116	-12.97
195.335	-2.73
195.555	58.71
195.774	25.94
195.993	11.61
196.212	21.84
196.432	-19.11
196.651	-49.83
196.87	-17.07
197.089	27.99
197.308	-0.68
197.528	85.33
197.747	-19.11
197.966	60.76
198.185	50.52
198.404	-35.5
198.623	27.99
198.842	-21.16
199.062	-33.45
199.281	-19.11
199.5	27.99
199.719	56.66
199.938	-4.78
200.157	89.43
200.376	30.04
200.595	44.37
200.814	1.37
201.033	52.56
201.252	13.65
201.471	19.8
201.69	-29.35
201.909	-78.51
202.128	62.8
202.347	-43.69
202.566	15.7
202.785	50.52
203.004	17.75
203.223	56.66
203.442	-19.11
203.661	11.61
203.879	-43.69
204.098	85.33
204.317	40.28
204.536	-2.73
204.755	11.61
204.974	40.28
205.193	-47.79
205.411	50.52
205.63	-25.26
205.849	36.18
206.068	-4.78
206.287	25.94
206.505	48.47
206.724	52.56
206.943	-47.79
207.162	11.61
207.381	-8.87
207.599	13.65
207.818	-4.78
208.037	-21.16
208.255	32.08
208.474	25.94
208.693	3.41
208.911	73.04
209.13	-0.68
209.349	27.99
209.567	32.08
209.786	23.89
210.005	71
210.223	-0.68
210.442	-58.03
210.661	-6.83
210.879	60.76
211.098	1.37
211.316	46.42
211.535	46.42
211.753	60.76
211.972	-8.87
212.191	-17.07
212.409	73.04
212.628	85.33
212.846	-23.21
213.065	-2.73
213.283	77.14
213.502	27.99
213.72	46.42
213.938	17.75
214.157	1.37
214.375	40.28
214.594	-25.26
214.812	48.47
215.031	23.89
215.249	13.65
215.467	11.61
215.686	34.13
215.904	-0.68
216.122	30.04
216.341	7.51
216.559	7.51
216.778	5.46
216.996	85.33
217.214	60.76
217.432	-53.93
217.651	64.85
217.869	-62.12
218.087	27.99
218.306	-41.64
218.524	-41.64
218.742	-12.97
218.96	11.61
219.179	-4.78
219.397	-17.07
219.615	36.18
219.833	66.9
220.051	40.28
220.27	-27.31
220.488	-55.98
220.706	-21.16
220.924	34.13
221.142	21.84
221.36	-10.92
221.578	62.8
221.796	-47.79
222.015	27.99
222.233	52.56
222.451	99.67
222.669	15.7
222.887	-12.97
223.105	5.46
223.323	11.61
223.541	36.18
223.759	21.84
223.977	32.08
224.195	62.8
224.413	46.42
224.631	27.99
224.849	-45.74
225.067	46.42
225.285	11.61
225.503	68.95
225.721	-29.35
225.939	36.18
226.157	-2.73
226.375	36.18
226.592	36.18
226.81	-41.64
227.028	23.89
227.246	46.42
227.464	56.66
227.682	19.8
227.9	40.28
228.117	30.04
228.335	11.61
228.553	44.37
228.771	85.33
228.989	56.66
229.206	9.56
229.424	30.04
229.642	-39.59
229.86	114
230.077	23.89
230.295	3.41
230.513	52.56
230.731	7.51
230.948	17.75
231.166	54.61
231.384	-27.31
231.601	-43.69
231.819	-0.68
232.037	-33.45
232.254	-53.93
232.472	103.76
232.689	-15.02
232.907	30.04
233.125	5.46
233.342	-25.26
233.56	-17.07
233.777	77.14
233.995	40.28
234.213	7.51
234.43	66.9
234.648	-37.55
234.865	-21.16
235.083	13.65
235.3	3.41
235.518	32.08
235.735	3.41
235.953	32.08
236.17	-12.97
236.388	-35.5
236.605	64.85
236.822	66.9
237.04	93.52
237.257	40.28
237.475	-4.78
237.692	111.96
237.909	-23.21
238.127	3.41
238.344	40.28
238.562	19.8
238.779	44.37
238.996	7.51
239.214	32.08
239.431	83.28
239.648	21.84
239.865	-10.92
240.083	50.52
240.3	52.56
240.517	30.04
240.735	-58.03
240.952	89.43
241.169	79.19
241.386	54.61
241.603	-19.11
241.821	3.41
242.038	42.32
242.255	42.32
242.472	-6.83
242.689	85.33
242.907	73.04
243.124	11.61
243.341	85.33
243.558	34.13
243.775	9.56
243.992	11.61
244.209	13.65
244.426	19.8
244.643	54.61
244.86	36.18
245.078	62.8
245.295	27.99
245.512	9.56
245.729	11.61
245.946	-19.11
246.163	-29.35
246.38	-19.11
246.597	23.89
246.814	-29.35
247.031	52.56
247.248	13.65
247.464	9.56
247.681	36.18
247.898	1.37
248.115	-43.69
248.332	23.89
248.549	-19.11
248.766	7.51
248.983	79.19
249.2	5.46
249.417	-8.87
249.633	19.8
249.85	36.18
250.067	-58.03
250.284	71
250.501	27.99
250.717	-4.78
250.934	-37.55
251.151	111.96
251.368	23.89
251.585	27.99
251.801	19.8
252.018	1.37
252.235	38.23
252.451	40.28
252.668	-4.78
252.885	81.24
253.102	21.84
253.318	3.41
253.535	-15.02
253.752	30.04
253.968	13.65
254.185	40.28
254.401	42.32
254.618	23.89
254.835	-86.7
255.051	81.24
255.268	30.04
255.484	27.99
255.701	-21.16
255.917	11.61
256.134	50.52
256.351	134.48
256.567	25.94
256.784	27.99
257	79.19
257.217	68.95
257.433	64.85
257.65	7.51
257.866	-27.31
258.082	54.61
258.299	-2.73
258.515	-41.64
258.732	-12.97
258.948	23.89
259.165	52.56
259.381	1.37
259.597	-51.88
259.814	52.56
260.03	50.52
260.246	25.94
260.463	48.47
260.679	68.95
260.895	-74.41
261.112	54.61
261.328	19.8
261.544	5.46
261.761	95.57
261.977	-23.21
262.193	-4.78
262.409	66.9
262.626	-35.5
262.842	-2.73
263.058	-4.78
263.274	36.18
263.49	44.37
263.707	-8.87
263.923	-29.35
264.139	-8.87
264.355	23.89
264.571	36.18
264.787	-8.87
265.004	66.9
265.22	13.65
265.436	87.38
265.652	-0.68
265.868	21.84
266.084	9.56
266.3	5.46
266.516	-72.36
266.732	34.13
266.948	34.13
267.164	38.23
267.38	48.47
267.596	9.56
267.812	97.62
268.028	30.04
268.244	-8.87
268.46	-27.31
268.676	13.65
268.892	3.41
269.108	1.37
269.324	30.04
269.54	77.14
269.756	71
269.972	5.46
270.188	-6.83
270.403	13.65
270.619	58.71
270.835	-25.26
271.051	23.89
271.267	-4.78
271.483	36.18
271.698	42.32
271.914	46.42
272.13	-15.02
272.346	54.61
272.562	-29.35
272.777	68.95
272.993	-29.35
273.209	44.37
273.425	54.61
273.64	-15.02
273.856	9.56
274.072	50.52
274.287	27.99
274.503	40.28
274.719	75.09
274.934	52.56
275.15	-12.97
275.366	56.66
275.581	-31.4
275.797	23.89
276.012	48.47
276.228	-8.87
276.444	15.7
276.659	89.43
276.875	7.51
277.09	44.37
277.306	62.8
277.521	11.61
277.737	13.65
277.952	7.51
278.168	-10.92
278.383	-19.11
278.599	58.71
278.814	-45.74
279.03	40.28
279.245	44.37
279.461	62.8
279.676	-29.35
279.892	5.46
280.107	5.46
280.322	-8.87
280.538	42.32
280.753	81.24
280.969	48.47
281.184	-2.73
281.399	11.61
281.615	-12.97
281.83	25.94
282.045	19.8
282.26	-45.74
282.476	62.8
282.691	23.89
282.906	91.48
283.122	27.99
283.337	-19.11
283.552	19.8
283.767	21.84
283.983	54.61
284.198	11.61
284.413	44.37
284.628	60.76
284.843	-21.16
285.058	-37.55
285.274	32.08
285.489	-41.64
285.704	54.61
285.919	-39.59
286.134	48.47
286.349	-8.87
286.564	11.61
286.779	27.99
286.995	25.94
287.21	64.85
287.425	27.99
287.64	-15.02
287.855	-45.74
288.07	-17.07
288.285	46.42
288.5	19.8
288.715	-55.98
288.93	5.46
289.145	34.13
289.36	3.41
289.575	-12.97
289.79	-45.74
290.004	77.14
290.219	19.8
290.434	3.41
290.649	38.23
290.864	15.7
291.079	-4.78
291.294	34.13
291.509	30.04
291.724	42.32
291.938	40.28
292.153	-8.87
292.368	19.8
292.583	-0.68
292.798	-8.87
293.012	19.8
293.227	66.9
293.442	-2.73
293.657	89.43
293.871	81.24
294.086	79.19
294.301	9.56
294.516	103.76
294.73	-19.11
294.945	36.18
295.16	52.56
295.374	40.28
295.589	46.42
295.804	-2.73
296.018	44.37
296.233	62.8
296.447	36.18
296.662	3.41
296.877	58.71
297.091	-0.68
297.306	5.46
297.52	25.94
297.735	-8.87
297.949	44.37
298.164	44.37
298.378	42.32
298.593	-33.45
298.807	-12.97
299.022	27.99
299.236	19.8
299.451	-29.35
299.665	23.89
299.88	-21.16
300.094	15.7
300.309	-17.07
300.523	25.94
300.737	23.89
300.952	9.56
301.166	52.56
301.381	3.41
301.595	-2.73
301.809	-92.84
302.024	23.89
302.238	-31.4
302.452	40.28
302.667	-37.55
302.881	58.71
303.095	-17.07
303.309	27.99
303.524	7.51
303.738	44.37
303.952	21.84
304.166	-21.16
304.381	5.46
304.595	27.99
304.809	19.8
305.023	50.52
305.237	68.95
305.452	-33.45
305.666	71
305.88	-8.87
306.094	60.76
306.308	-23.21
306.522	19.8
306.736	21.84
306.95	93.52
307.164	15.7
307.379	48.47
307.593	89.43
307.807	-10.92
308.021	-74.41
308.235	73.04
308.449	-68.27
308.663	3.41
308.877	89.43
309.091	15.7
309.305	3.41
309.519	42.32
309.733	52.56
309.947	-4.78
310.161	36.18
310.374	11.61
310.588	38.23
310.802	13.65
311.016	36.18
311.23	21.84
311.444	54.61
311.658	13.65
311.872	62.8
312.085	48.47
312.299	-2.73
312.513	9.56
312.727	23.89
312.941	36.18
313.154	40.28
313.368	19.8
313.582	9.56
313.796	30.04
314.009	-10.92
314.223	46.42
314.437	71
314.651	48.47
314.864	13.65
315.078	36.18
315.292	32.08
315.505	56.66
315.719	21.84
315.933	25.94
316.146	52.56
316.36	5.46
316.573	56.66
316.787	-19.11
317.001	3.41
317.214	56.66
317.428	-17.07
317.641	52.56
317.855	27.99
318.068	27.99
318.282	105.81
318.495	1.37
318.709	-25.26
318.922	13.65
319.136	62.8
319.349	60.76
319.563	21.84
319.776	23.89
319.99	64.85
320.203	81.24
320.417	9.56
320.63	-37.55
320.843	36.18
321.057	126.29
321.27	21.84
321.483	11.61
321.697	144.72
321.91	-33.45
322.124	36.18
322.337	-2.73
322.55	7.51
322.763	50.52
322.977	-49.83
323.19	-12.97
323.403	13.65
323.617	32.08
323.83	56.66
324.043	60.76
324.256	60.76
324.469	89.43
324.683	64.85
324.896	11.61
325.109	15.7
325.322	36.18
325.535	-2.73
325.748	60.76
325.962	68.95
326.175	15.7
326.388	19.8
326.601	68.95
326.814	23.89
327.027	-27.31
327.24	56.66
327.453	-4.78
327.666	-4.78
327.879	118.1
328.092	73.04
328.305	-49.83
328.518	-17.07
328.731	44.37
328.944	-6.83
329.157	27.99
329.37	54.61
329.583	42.32
329.796	30.04
330.009	-29.35
330.222	-25.26
330.435	19.8
330.648	62.8
330.861	81.24
331.073	44.37
331.286	-12.97
331.499	-2.73
331.712	-15.02
331.925	44.37
332.138	21.84
332.35	-2.73
332.563	42.32
332.776	79.19
332.989	42.32
333.202	56.66
333.414	56.66
333.627	58.71
333.84	62.8
334.053	21.84
334.265	36.18
334.478	-10.92
334.691	48.47
334.903	54.61
335.116	21.84
335.329	-4.78
335.541	48.47
335.754	19.8
335.966	60.76
336.179	32.08
336.392	9.56
336.604	-17.07
336.817	-43.69
337.029	23.89
337.242	19.8
337.454	27.99
337.667	46.42
337.88	21.84
338.092	3.41
338.305	66.9
338.517	66.9
338.729	-12.97
338.942	62.8
339.154	48.47
339.367	7.51
339.579	36.18
339.792	-12.97
340.004	60.76
340.217	15.7
340.429	-21.16
340.641	15.7
340.854	23.89
341.066	-15.02
341.278	48.47
341.491	38.23
341.703	34.13
341.915	38.23
342.128	40.28
342.34	13.65
342.552	48.47
342.764	23.89
342.977	40.28
343.189	54.61
343.401	109.91
343.613	32.08
343.826	-21.16
344.038	34.13
344.25	21.84
344.462	79.19
344.674	54.61
344.886	-15.02
345.099	52.56
345.311	27.99
345.523	56.66
345.735	5.46
345.947	11.61
346.159	-4.78
346.371	44.37
346.583	-23.21
346.795	60.76
347.007	21.84
347.219	40.28
347.431	19.8
347.643	19.8
347.855	56.66
348.067	87.38
348.279	-10.92
348.491	7.51
348.703	19.8
348.915	50.52
349.127	85.33
349.339	11.61
349.551	-4.78
349.763	42.32
349.975	85.33
350.187	50.52
350.399	52.56
350.61	7.51
350.822	-8.87
351.034	38.23
351.246	-0.68
351.458	-12.97
351.669	34.13
351.881	44.37
352.093	3.41
352.305	30.04
352.517	19.8
352.728	-55.98
352.94	-10.92
353.152	111.96
353.363	-119.46
353.575	64.85
353.787	56.66
353.999	38.23
354.21	27.99
354.422	-2.73
354.633	-27.31
354.845	5.46
355.057	30.04
355.268	-19.11
355.48	32.08
355.692	-37.55
355.903	-31.4
356.115	27.99
356.326	13.65
356.538	13.65
356.749	46.42
356.961	34.13
357.172	-12.97
357.384	17.75
357.595	44.37
357.807	-19.11
358.018	21.84
358.23	60.76
358.441	-0.68
358.653	32.08
358.864	42.32
359.075	30.04
359.287	19.8
359.498	27.99
359.709	21.84
359.921	21.84
360.132	62.8
360.344	-2.73
360.555	60.76
360.766	81.24
360.977	-21.16
361.189	38.23
361.4	68.95
361.611	-2.73
361.823	50.52
362.034	9.56
362.245	21.84
362.456	13.65
362.667	23.89
362.879	-4.78
363.09	109.91
363.301	52.56
363.512	-12.97
363.723	52.56
363.935	87.38
364.146	42.32
364.357	-45.74
364.568	99.67
364.779	68.95
364.99	25.94
365.201	42.32
365.412	-10.92
365.623	73.04
365.834	3.41
366.045	-70.31
366.256	13.65
366.467	58.71
366.678	23.89
366.889	81.24
367.1	30.04
367.311	77.14
367.522	30.04
367.733	-39.59
367.944	3.41
368.155	40.28
368.366	32.08
368.577	23.89
368.788	60.76
368.999	-4.78
369.209	73.04
369.42	46.42
369.631	40.28
369.842	44.37
370.053	-15.02
370.264	-8.87
370.474	-17.07
370.685	-33.45
370.896	36.18
371.107	32.08
371.317	93.52
371.528	144.72
371.739	-41.64
371.95	40.28
372.16	40.28
372.371	30.04
372.582	75.09
372.792	36.18
373.003	54.61
373.214	5.46
373.424	91.48
373.635	-4.78
373.846	101.72
374.056	30.04
374.267	36.18
374.477	40.28
374.688	62.8
374.898	71
375.109	62.8
375.319	122.2
375.53	17.75
375.74	-12.97
375.951	-15.02
376.161	54.61
376.372	52.56
376.582	15.7
376.793	-4.78
377.003	9.56
377.214	60.76
377.424	58.71
377.635	44.37
377.845	64.85
378.055	-21.16
378.266	21.84
378.476	13.65
378.686	-27.31
378.897	17.75
379.107	-4.78
379.317	44.37
379.528	85.33
379.738	95.57
379.948	21.84
380.158	77.14
380.369	13.65
380.579	56.66
380.789	32.08
380.999	68.95
381.21	-2.73
381.42	-29.35
381.63	-12.97
381.84	97.62
382.05	75.09
382.261	34.13
382.471	25.94
382.681	46.42
382.891	60.76
383.101	-4.78
383.311	52.56
383.521	30.04
383.731	60.76
383.941	62.8
384.151	118.1
384.361	66.9
384.571	-2.73
384.781	60.76
384.991	52.56
385.201	44.37
385.411	-6.83
385.621	60.76
385.831	81.24
386.041	19.8
386.251	44.37
386.461	81.24
386.671	36.18
386.881	60.76
387.091	38.23
387.301	-39.59
387.511	23.89
387.72	75.09
387.93	56.66
388.14	34.13
388.35	56.66
388.56	89.43
388.769	68.95
388.979	19.8
389.189	25.94
389.399	77.14
389.609	-15.02
389.818	13.65
390.028	19.8
390.238	32.08
390.447	60.76
390.657	7.51
390.867	11.61
391.076	79.19
391.286	-19.11
391.496	-17.07
391.705	7.51
391.915	130.39
392.125	138.58
392.334	15.7
392.544	79.19
392.753	-8.87
392.963	79.19
393.172	118.1
393.382	38.23
393.591	118.1
393.801	23.89
394.01	73.04
394.22	101.72
394.429	62.8
394.639	77.14
394.848	101.72
395.058	36.18
395.267	30.04
395.477	87.38
395.686	114
395.895	101.72
396.105	167.25
396.314	-2.73
396.524	3.41
396.733	152.91
396.942	9.56
397.152	109.91
397.361	126.29
397.57	19.8
397.78	77.14
397.989	68.95
398.198	163.15
398.407	89.43
398.617	122.2
398.826	48.47
399.035	68.95
399.244	161.11
399.453	148.82
399.663	126.29
399.872	79.19
400.081	138.58
400.29	85.33
400.499	138.58
400.708	105.81
400.917	77.14
401.127	83.28
401.336	99.67
401.545	77.14
401.754	77.14
401.963	99.67
402.172	97.62
402.381	95.57
402.59	19.8
402.799	134.48
403.008	89.43
403.217	87.38
403.426	163.15
403.635	77.14
403.844	89.43
404.053	136.53
404.262	136.53
404.471	124.24
404.68	136.53
404.888	175.44
405.097	66.9
405.306	111.96
405.515	122.2
405.724	83.28
405.933	202.07
406.142	134.48
406.35	159.06
406.559	185.68
406.768	171.35
406.977	183.63
407.185	140.63
407.394	216.4
407.603	173.39
407.812	249.17
408.02	152.91
408.229	200.02
408.438	202.07
408.646	216.4
408.855	316.75
409.064	138.58
409.272	298.32
409.481	255.31
409.69	251.22
409.898	118.1
410.107	271.7
410.315	218.45
410.524	257.36
410.733	259.41
410.941	296.27
411.15	316.75
411.358	314.7
411.567	355.66
411.775	380.24
411.984	382.29
412.192	353.62
412.401	329.04
412.609	400.72
412.818	449.87
413.026	378.19
413.234	365.9
413.443	449.87
413.651	429.39
413.86	488.78
414.068	519.5
414.276	544.08
414.485	529.74
414.693	546.12
414.901	593.23
415.11	626
415.318	644.43
415.526	560.46
415.734	687.43
415.943	648.52
416.151	746.83
416.359	619.85
416.567	666.96
416.776	714.06
416.984	742.73
417.192	775.5
417.4	834.89
417.608	855.37
417.817	859.46
418.025	857.42
418.233	925
418.441	941.38
418.649	1072.45
418.857	1025.35
419.065	1078.6
419.273	1117.51
419.481	1183.04
419.689	1125.7
419.897	1232.19
420.105	1211.71
420.313	1346.88
420.521	1324.35
420.729	1375.55
420.937	1494.33
421.145	1457.47
421.353	1535.29
421.561	1555.77
421.769	1606.97
421.977	1733.95
422.185	1701.18
422.393	1793.34
422.601	1819.96
422.809	1942.84
423.017	1959.22
423.224	2026.81
423.432	2041.14
423.64	2213.17
423.848	2215.22
424.056	2227.51
424.263	2436.4
424.471	2350.39
424.679	2383.15
424.887	2559.28
425.094	2655.53
425.302	2741.55
425.51	2749.74
425.718	2919.72
425.925	2823.47
426.133	3140.9
426.341	3140.9
426.548	3214.63
426.756	3235.11
426.964	3288.36
427.171	3444
427.379	3585.31
427.586	3700
427.794	3853.59
428.001	3808.54
428.209	4066.58
428.417	4056.34
428.624	4510.99
428.832	4291.86
429.039	4216.08
429.247	4381.97
429.454	4742.41
429.662	4896.01
429.869	4689.17
430.076	5074.18
430.284	4943.11
430.491	5096.71
430.699	5321.99
430.906	5494.02
431.114	5459.2
431.321	5829.88
431.528	5819.64
431.736	6147.32
431.943	6362.36
432.15	6069.5
432.358	6272.25
432.565	6749.42
432.772	6714.61
432.979	7085.29
433.187	7113.96
433.394	7107.82
433.601	7605.47
433.808	7595.23
434.016	7529.7
434.223	7871.71
434.43	8320.21
434.637	8010.97
434.844	8709.33
435.052	8631.51
435.259	8783.06
435.466	8893.65
435.673	8754.38
435.88	9540.8
436.087	9913.53
436.294	9813.18
436.501	9569.48
436.708	9966.78
436.915	10198.2
437.122	10491.06
437.329	10423.48
437.537	11056.3
437.743	11234.47
437.95	10859.7
438.157	11566.24
438.364	11981.98
438.571	12063.9
438.778	12139.68
438.985	12954.77
439.192	12600.47
439.399	13032.59
439.606	12790.93
439.813	13585.54
440.02	14294.14
440.227	14103.68
440.433	13747.33
440.64	14283.9
440.847	14363.77
441.054	14572.66
441.261	15547.5
441.467	15340.65
441.674	15594.6
441.881	16411.74
442.088	16092.26
442.294	16153.69
442.501	16313.44
442.708	16796.76
442.914	17628.23
443.121	18144.32
443.328	17501.26
443.534	19024.95
443.741	18500.67
443.948	18324.54
444.154	19606.57
444.361	19350.57
444.568	19487.79
444.774	19538.99
444.981	19794.98
445.187	20202.53
445.394	20982.81
445.6	20773.91
445.807	22764.54
446.013	21906.44
446.22	22338.56
446.426	23204.85
446.633	23432.18
446.839	23997.42
447.046	23073.78
447.252	24194.02
447.459	24591.33
447.665	24179.68
447.871	25564.11
448.078	26305.48
448.284	25072.6
448.491	25744.33
448.697	27093.94
448.903	27165.62
449.11	27239.35
449.316	27128.76
449.522	27313.08
449.728	28349.35
449.935	28410.79
450.141	28576.67
450.347	29330.33
450.553	28283.81
450.76	28478.37
450.966	29707.15
451.172	29133.72
451.378	29713.3
451.584	29123.48
451.791	29744.02
451.997	29690.77
452.203	30434.18
452.409	30630.79
452.615	30147.47
452.821	29113.24
453.027	28808.09
453.233	30421.89
453.44	29350.81
453.646	29719.44
453.852	29361.05
454.058	30004.11
454.264	29002.65
454.47	29645.71
454.676	28687.26
454.882	29946.76
455.088	27184.05
455.294	27757.49
455.5	28105.64
455.705	28617.63
455.911	27212.73
456.117	27022.26
456.323	26588.1
456.529	25197.52
456.735	26198.98
456.941	25510.86
457.147	25101.27
457.352	24519.65
457.558	23892.97
457.764	24198.12
457.97	23579.63
458.176	23112.69
458.381	23096.31
458.587	22082.56
458.793	22074.37
458.999	20896.79
459.204	22414.34
459.41	21529.61
459.616	20313.12
459.821	20182.05
460.027	20141.09
460.233	19733.54
460.438	18830.39
460.644	19143.73
460.85	18254.91
461.055	17798.21
461.261	18005.06
461.466	16309.34
461.672	16016.48
461.878	17208.4
462.083	16075.87
462.289	15758.44
462.494	15682.66
462.7	15195.25
462.905	14474.36
463.111	15109.23
463.316	15055.98
463.522	14953.59
463.727	14720.12
463.932	14851.19
464.138	14593.14
464.343	14701.68
464.549	14204.03
464.754	14673.01
464.959	14498.94
465.165	14525.56
465.37	13696.13
465.575	13458.57
465.781	13997.18
465.986	14097.53
466.191	13472.9
466.397	13296.78
466.602	12651.67
466.807	13384.84
467.012	13102.22
467.218	13251.72
467.423	13032.59
467.628	13014.16
467.833	13784.19
468.038	13057.17
