Data from USB4F104151__29__13-52-44-562.txt Node

Date: Thu Mar 13 13:52:44 EDT 2025
User: louis
Spectrometer: USB4F10415
Trigger mode: 4
Integration Time (sec): 1.000000E-2
Scans to average: 1
Electric dark correction enabled: true
Nonlinearity correction enabled: false
Boxcar width: 0
XAxis mode: Wavelengths
Number of Pixels in Spectrum: 3648
>>>>>Begin Spectral Data<<<<<
178.204	36.52
178.424	36.52
178.644	36.52
178.864	-119.12
179.084	-47.44
179.304	1.71
179.524	-10.58
179.744	5.8
179.964	5.8
180.184	54.95
180.404	75.43
180.624	1.71
180.844	13.99
181.064	3.75
181.283	-39.25
181.503	-55.64
181.723	-57.68
181.943	-18.77
182.163	5.8
182.383	16.04
182.602	-37.2
182.822	7.85
183.042	3.75
183.262	-45.4
183.482	71.34
183.701	3.75
183.921	-29.01
184.141	20.14
184.361	20.14
184.58	-0.34
184.8	9.9
185.02	-14.68
185.239	40.62
185.459	44.71
185.679	-12.63
185.898	65.19
186.118	44.71
186.338	13.99
186.557	59.05
186.777	48.81
186.997	22.19
187.216	59.05
187.436	-45.4
187.655	87.72
187.875	-35.16
188.095	-39.25
188.314	11.95
188.534	9.9
188.753	36.52
188.973	50.86
189.192	34.47
189.412	44.71
189.631	-31.06
189.851	-67.92
190.07	63.15
190.29	7.85
190.509	65.19
190.729	-4.44
190.948	46.76
191.168	5.8
191.387	42.67
191.607	-41.3
191.826	7.85
192.045	-43.35
192.265	69.29
192.484	-0.34
192.704	5.8
192.923	5.8
193.142	18.09
193.362	42.67
193.581	11.95
193.8	95.91
194.02	57
194.239	24.23
194.458	89.77
194.678	52.91
194.897	20.14
195.116	13.99
195.335	1.71
195.555	-39.25
195.774	9.9
195.993	-76.12
196.212	13.99
196.432	24.23
196.651	-37.2
196.87	1.71
197.089	69.29
197.308	9.9
197.528	36.52
197.747	-2.39
197.966	50.86
198.185	75.43
198.404	-0.34
198.623	-0.34
198.842	36.52
199.062	-12.63
199.281	44.71
199.5	30.38
199.719	30.38
199.938	18.09
200.157	-0.34
200.376	79.53
200.595	28.33
200.814	-65.88
201.033	40.62
201.252	-16.73
201.471	52.91
201.69	75.43
201.909	85.67
202.128	77.48
202.347	-57.68
202.566	18.09
202.785	40.62
203.004	52.91
203.223	75.43
203.442	50.86
203.661	-20.82
203.879	50.86
204.098	36.52
204.317	-10.58
204.536	42.67
204.755	-37.2
204.974	34.47
205.193	9.9
205.411	-18.77
205.63	54.95
205.849	9.9
206.068	-10.58
206.287	50.86
206.505	61.1
206.724	-26.96
206.943	5.8
207.162	-2.39
207.381	9.9
207.599	26.28
207.818	-4.44
208.037	9.9
208.255	-10.58
208.474	20.14
208.693	46.76
208.911	-0.34
209.13	57
209.349	87.72
209.567	-24.92
209.786	26.28
210.005	75.43
210.223	5.8
210.442	-24.92
210.661	-6.49
210.879	-33.11
211.098	22.19
211.316	36.52
211.535	32.43
211.753	-6.49
211.972	-47.44
212.191	69.29
212.409	52.91
212.628	-6.49
212.846	-22.87
213.065	-4.44
213.283	9.9
213.502	-14.68
213.72	24.23
213.938	61.1
214.157	61.1
214.375	18.09
214.594	44.71
214.812	11.95
215.031	69.29
215.249	20.14
215.467	81.58
215.686	5.8
215.904	38.57
216.122	22.19
216.341	18.09
216.559	34.47
216.778	48.81
216.996	3.75
217.214	-8.53
217.432	30.38
217.651	-2.39
217.869	38.57
218.087	-2.39
218.306	-33.11
218.524	-35.16
218.742	13.99
218.96	38.57
219.179	20.14
219.397	75.43
219.615	-2.39
219.833	-29.01
220.051	-24.92
220.27	40.62
220.488	28.33
220.706	54.95
220.924	24.23
221.142	-16.73
221.36	54.95
221.578	13.99
221.796	-6.49
222.015	30.38
222.233	22.19
222.451	46.76
222.669	1.71
222.887	46.76
223.105	73.39
223.323	1.71
223.541	52.91
223.759	16.04
223.977	-10.58
224.195	-8.53
224.413	38.57
224.631	22.19
224.849	-24.92
225.067	24.23
225.285	46.76
225.503	52.91
225.721	18.09
225.939	36.52
226.157	24.23
226.375	71.34
226.592	22.19
226.81	3.75
227.028	83.63
227.246	24.23
227.464	24.23
227.682	40.62
227.9	1.71
228.117	46.76
228.335	-14.68
228.553	28.33
228.771	57
228.989	1.71
229.206	42.67
229.424	26.28
229.642	-72.02
229.86	83.63
230.077	7.85
230.295	22.19
230.513	-2.39
230.731	44.71
230.948	-0.34
231.166	42.67
231.384	7.85
231.601	54.95
231.819	65.19
232.037	-12.63
232.254	67.24
232.472	22.19
232.689	1.71
232.907	-55.64
233.125	36.52
233.342	-6.49
233.56	42.67
233.777	100.01
233.995	-10.58
234.213	46.76
234.43	-26.96
234.648	79.53
234.865	20.14
235.083	-12.63
235.3	16.04
235.518	65.19
235.735	40.62
235.953	-24.92
236.17	-4.44
236.388	-20.82
236.605	44.71
236.822	18.09
237.04	9.9
237.257	16.04
237.475	24.23
237.692	3.75
237.909	65.19
238.127	18.09
238.344	26.28
238.562	-0.34
238.779	48.81
238.996	-6.49
239.214	7.85
239.431	18.09
239.648	11.95
239.865	50.86
240.083	-6.49
240.3	-31.06
240.517	34.47
240.735	-8.53
240.952	16.04
241.169	-16.73
241.386	97.96
241.603	-35.16
241.821	-82.26
242.038	16.04
242.255	-16.73
242.472	-39.25
242.689	13.99
242.907	30.38
243.124	-10.58
243.341	-31.06
243.558	18.09
243.775	-20.82
243.992	-2.39
244.209	7.85
244.426	61.1
244.643	87.72
244.86	28.33
245.078	77.48
245.295	-10.58
245.512	-22.87
245.729	50.86
245.946	9.9
246.163	-41.3
246.38	54.95
246.597	28.33
246.814	-45.4
247.031	-8.53
247.248	36.52
247.464	18.09
247.681	-16.73
247.898	57
248.115	-4.44
248.332	63.15
248.549	-4.44
248.766	73.39
248.983	-41.3
249.2	1.71
249.417	54.95
249.633	91.82
249.85	-0.34
250.067	-49.49
250.284	9.9
250.501	63.15
250.717	95.91
250.934	1.71
251.151	28.33
251.368	-4.44
251.585	54.95
251.801	46.76
252.018	26.28
252.235	28.33
252.451	-37.2
252.668	24.23
252.885	-6.49
253.102	-37.2
253.318	59.05
253.535	26.28
253.752	5.8
253.968	91.82
254.185	-6.49
254.401	52.91
254.618	-22.87
254.835	71.34
255.051	26.28
255.268	-78.16
255.484	28.33
255.701	-59.73
255.917	69.29
256.134	-31.06
256.351	-2.39
256.567	59.05
256.784	52.91
257	40.62
257.217	3.75
257.433	32.43
257.65	46.76
257.866	-33.11
258.082	16.04
258.299	50.86
258.515	-10.58
258.732	32.43
258.948	69.29
259.165	-26.96
259.381	48.81
259.597	22.19
259.814	63.15
260.03	-31.06
260.246	50.86
260.463	91.82
260.679	1.71
260.895	-69.97
261.112	48.81
261.328	52.91
261.544	54.95
261.761	46.76
261.977	5.8
262.193	34.47
262.409	38.57
262.626	38.57
262.842	16.04
263.058	-6.49
263.274	59.05
263.49	-16.73
263.707	38.57
263.923	20.14
264.139	-4.44
264.355	20.14
264.571	18.09
264.787	77.48
265.004	-10.58
265.22	24.23
265.436	5.8
265.652	52.91
265.868	34.47
266.084	-2.39
266.3	28.33
266.516	-43.35
266.732	38.57
266.948	-31.06
267.164	91.82
267.38	-4.44
267.596	61.1
267.812	36.52
268.028	22.19
268.244	36.52
268.46	59.05
268.676	-4.44
268.892	-2.39
269.108	57
269.324	54.95
269.54	63.15
269.756	77.48
269.972	46.76
270.188	-6.49
270.403	18.09
270.619	34.47
270.835	73.39
271.051	118.44
271.267	-18.77
271.483	3.75
271.698	22.19
271.914	13.99
272.13	5.8
272.346	83.63
272.562	-14.68
272.777	67.24
272.993	-0.34
273.209	-4.44
273.425	-43.35
273.64	1.71
273.856	1.71
274.072	48.81
274.287	73.39
274.503	104.11
274.719	24.23
274.934	-8.53
275.15	-26.96
275.366	38.57
275.581	50.86
275.797	-2.39
276.012	52.91
276.228	-22.87
276.444	61.1
276.659	85.67
276.875	-20.82
277.09	57
277.306	5.8
277.521	52.91
277.737	-2.39
277.952	26.28
278.168	5.8
278.383	34.47
278.599	-4.44
278.814	77.48
279.03	13.99
279.245	28.33
279.461	75.43
279.676	71.34
279.892	3.75
280.107	32.43
280.322	-67.92
280.538	1.71
280.753	-20.82
280.969	16.04
281.184	-4.44
281.399	20.14
281.615	50.86
281.83	69.29
282.045	36.52
282.26	13.99
282.476	18.09
282.691	67.24
282.906	13.99
283.122	32.43
283.337	-20.82
283.552	5.8
283.767	32.43
283.983	75.43
284.198	-82.26
284.413	71.34
284.628	3.75
284.843	79.53
285.058	48.81
285.274	65.19
285.489	59.05
285.704	-41.3
285.919	5.8
286.134	34.47
286.349	16.04
286.564	26.28
286.779	93.87
286.995	61.1
287.21	20.14
287.425	95.91
287.64	-61.78
287.855	11.95
288.07	9.9
288.285	110.25
288.5	61.1
288.715	30.38
288.93	16.04
289.145	57
289.36	71.34
289.575	-12.63
289.79	-26.96
290.004	-8.53
290.219	28.33
290.434	-31.06
290.649	57
290.864	36.52
291.079	26.28
291.294	-24.92
291.509	65.19
291.724	54.95
291.938	-6.49
292.153	18.09
292.368	20.14
292.583	75.43
292.798	85.67
293.012	-0.34
293.227	5.8
293.442	91.82
293.657	11.95
293.871	40.62
294.086	28.33
294.301	-8.53
294.516	22.19
294.73	-6.49
294.945	-6.49
295.16	57
295.374	65.19
295.589	-47.44
295.804	-4.44
296.018	54.95
296.233	50.86
296.447	42.67
296.662	18.09
296.877	34.47
297.091	-18.77
297.306	30.38
297.52	38.57
297.735	24.23
297.949	-0.34
298.164	73.39
298.378	-18.77
298.593	44.71
298.807	38.57
299.022	65.19
299.236	-2.39
299.451	95.91
299.665	-22.87
299.88	-2.39
300.094	48.81
300.309	18.09
300.523	54.95
300.737	34.47
300.952	-0.34
301.166	34.47
301.381	77.48
301.595	9.9
301.809	-22.87
302.024	32.43
302.238	40.62
302.452	16.04
302.667	40.62
302.881	30.38
303.095	71.34
303.309	-47.44
303.524	83.63
303.738	-22.87
303.952	61.1
304.166	67.24
304.381	7.85
304.595	38.57
304.809	-12.63
305.023	13.99
305.237	28.33
305.452	11.95
305.666	16.04
305.88	65.19
306.094	16.04
306.308	28.33
306.522	63.15
306.736	-31.06
306.95	7.85
307.164	-35.16
307.379	63.15
307.593	-2.39
307.807	-0.34
308.021	38.57
308.235	77.48
308.449	36.52
308.663	71.34
308.877	104.11
309.091	11.95
309.305	40.62
309.519	7.85
309.733	40.62
309.947	22.19
310.161	32.43
310.374	28.33
310.588	75.43
310.802	-29.01
311.016	-37.2
311.23	97.96
311.444	38.57
311.658	79.53
311.872	77.48
312.085	1.71
312.299	81.58
312.513	73.39
312.727	44.71
312.941	-14.68
313.154	-4.44
313.368	-69.97
313.582	59.05
313.796	30.38
314.009	-33.11
314.223	5.8
314.437	46.76
314.651	28.33
314.864	3.75
315.078	42.67
315.292	26.28
315.505	1.71
315.719	11.95
315.933	100.01
316.146	-24.92
316.36	20.14
316.573	44.71
316.787	63.15
317.001	11.95
317.214	-26.96
317.428	30.38
317.641	26.28
317.855	18.09
318.068	-43.35
318.282	61.1
318.495	-22.87
318.709	112.3
318.922	9.9
319.136	28.33
319.349	26.28
319.563	22.19
319.776	-4.44
319.99	59.05
320.203	32.43
320.417	-0.34
320.63	7.85
320.843	20.14
321.057	-41.3
321.27	83.63
321.483	-8.53
321.697	22.19
321.91	-29.01
322.124	46.76
322.337	67.24
322.55	65.19
322.763	42.67
322.977	28.33
323.19	-8.53
323.403	57
323.617	22.19
323.83	77.48
324.043	-39.25
324.256	67.24
324.469	20.14
324.683	3.75
324.896	48.81
325.109	40.62
325.322	-12.63
325.535	93.87
325.748	-12.63
325.962	-69.97
326.175	-18.77
326.388	59.05
326.601	7.85
326.814	26.28
327.027	54.95
327.24	50.86
327.453	38.57
327.666	-10.58
327.879	71.34
328.092	36.52
328.305	42.67
328.518	48.81
328.731	-18.77
328.944	44.71
329.157	34.47
329.37	65.19
329.583	-14.68
329.796	20.14
330.009	11.95
330.222	-16.73
330.435	-8.53
330.648	54.95
330.861	65.19
331.073	85.67
331.286	95.91
331.499	75.43
331.712	3.75
331.925	48.81
332.138	-0.34
332.35	-12.63
332.563	-10.58
332.776	16.04
332.989	-10.58
333.202	59.05
333.414	75.43
333.627	52.91
333.84	63.15
334.053	24.23
334.265	9.9
334.478	46.76
334.691	-0.34
334.903	20.14
335.116	75.43
335.329	75.43
335.541	-16.73
335.754	57
335.966	9.9
336.179	30.38
336.392	34.47
336.604	73.39
336.817	77.48
337.029	13.99
337.242	32.43
337.454	32.43
337.667	-10.58
337.88	-18.77
338.092	28.33
338.305	38.57
338.517	34.47
338.729	77.48
338.942	71.34
339.154	36.52
339.367	36.52
339.579	-16.73
339.792	24.23
340.004	83.63
340.217	40.62
340.429	106.15
340.641	18.09
340.854	-33.11
341.066	24.23
341.278	44.71
341.491	57
341.703	75.43
341.915	-29.01
342.128	61.1
342.34	22.19
342.552	-63.83
342.764	34.47
342.977	26.28
343.189	26.28
343.401	32.43
343.613	42.67
343.826	106.15
344.038	48.81
344.25	13.99
344.462	65.19
344.674	65.19
344.886	87.72
345.099	3.75
345.311	42.67
345.523	52.91
345.735	-16.73
345.947	34.47
346.159	11.95
346.371	48.81
346.583	50.86
346.795	36.52
347.007	24.23
347.219	97.96
347.431	63.15
347.643	52.91
347.855	11.95
348.067	3.75
348.279	65.19
348.491	1.71
348.703	54.95
348.915	18.09
349.127	54.95
349.339	9.9
349.551	-29.01
349.763	18.09
349.975	30.38
350.187	32.43
350.399	20.14
350.61	18.09
350.822	-39.25
351.034	32.43
351.246	65.19
351.458	-22.87
351.669	67.24
351.881	-16.73
352.093	75.43
352.305	24.23
352.517	3.75
352.728	77.48
352.94	38.57
353.152	36.52
353.363	-22.87
353.575	104.11
353.787	13.99
353.999	42.67
354.21	54.95
354.422	24.23
354.633	89.77
354.845	77.48
355.057	-0.34
355.268	-0.34
355.48	28.33
355.692	52.91
355.903	26.28
356.115	71.34
356.326	54.95
356.538	65.19
356.749	16.04
356.961	3.75
357.172	-2.39
357.384	52.91
357.595	36.52
357.807	52.91
358.018	-37.2
358.23	24.23
358.441	118.44
358.653	24.23
358.864	16.04
359.075	-14.68
359.287	5.8
359.498	20.14
359.709	95.91
359.921	65.19
360.132	34.47
360.344	30.38
360.555	1.71
360.766	34.47
360.977	1.71
361.189	93.87
361.4	28.33
361.611	20.14
361.823	57
362.034	26.28
362.245	-4.44
362.456	26.28
362.667	22.19
362.879	75.43
363.09	102.06
363.301	1.71
363.512	95.91
363.723	112.3
363.935	5.8
364.146	30.38
364.357	22.19
364.568	93.87
364.779	-53.59
364.99	120.49
365.201	59.05
365.412	36.52
365.623	69.29
365.834	16.04
366.045	87.72
366.256	59.05
366.467	75.43
366.678	-18.77
366.889	36.52
367.1	34.47
367.311	36.52
367.522	26.28
367.733	34.47
367.944	63.15
368.155	22.19
368.366	44.71
368.577	61.1
368.788	34.47
368.999	18.09
369.209	24.23
369.42	30.38
369.631	85.67
369.842	-4.44
370.053	65.19
370.264	42.67
370.474	54.95
370.685	18.09
370.896	48.81
371.107	97.96
371.317	36.52
371.528	57
371.739	38.57
371.95	18.09
372.16	26.28
372.371	-45.4
372.582	32.43
372.792	52.91
373.003	3.75
373.214	69.29
373.424	26.28
373.635	-47.44
373.846	124.58
374.056	1.71
374.267	50.86
374.477	7.85
374.688	48.81
374.898	124.58
375.109	81.58
375.319	32.43
375.53	-12.63
375.74	18.09
375.951	63.15
376.161	54.95
376.372	69.29
376.582	77.48
376.793	-8.53
377.003	106.15
377.214	112.3
377.424	18.09
377.635	104.11
377.845	24.23
378.055	91.82
378.266	1.71
378.476	50.86
378.686	-29.01
378.897	57
379.107	95.91
379.317	20.14
379.528	40.62
379.738	32.43
379.948	11.95
380.158	-0.34
380.369	32.43
380.579	50.86
380.789	40.62
380.999	34.47
381.21	67.24
381.42	63.15
381.63	67.24
381.84	13.99
382.05	16.04
382.261	87.72
382.471	11.95
382.681	24.23
382.891	108.2
383.101	91.82
383.311	63.15
383.521	26.28
383.731	52.91
383.941	73.39
384.151	63.15
384.361	16.04
384.571	93.87
384.781	-61.78
384.991	104.11
385.201	28.33
385.411	71.34
385.621	48.81
385.831	20.14
386.041	32.43
386.251	36.52
386.461	13.99
386.671	77.48
386.881	28.33
387.091	34.47
387.301	79.53
387.511	20.14
387.72	1.71
387.93	95.91
388.14	-47.44
388.35	36.52
388.56	54.95
388.769	67.24
388.979	54.95
389.189	9.9
389.399	32.43
389.609	93.87
389.818	93.87
390.028	24.23
390.238	7.85
390.447	-18.77
390.657	32.43
390.867	3.75
391.076	59.05
391.286	44.71
391.496	52.91
391.705	54.95
391.915	32.43
392.125	108.2
392.334	67.24
392.544	-16.73
392.753	79.53
392.963	30.38
393.172	116.39
393.382	67.24
393.591	106.15
393.801	42.67
394.01	163.5
394.22	106.15
394.429	106.15
394.639	67.24
394.848	63.15
395.058	9.9
395.267	44.71
395.477	71.34
395.686	81.58
395.895	93.87
396.105	46.76
396.314	54.95
396.524	-0.34
396.733	48.81
396.942	116.39
397.152	145.06
397.361	145.06
397.57	65.19
397.78	69.29
397.989	124.58
398.198	128.68
398.407	134.82
398.617	100.01
398.826	83.63
399.035	108.2
399.244	36.52
399.453	73.39
399.663	50.86
399.872	59.05
400.081	112.3
400.29	106.15
400.499	7.85
400.708	89.77
400.917	112.3
401.127	65.19
401.336	83.63
401.545	143.02
401.754	100.01
401.963	140.97
402.172	48.81
402.381	65.19
402.59	116.39
402.799	143.02
403.008	48.81
403.217	77.48
403.426	30.38
403.635	75.43
403.844	69.29
404.053	112.3
404.262	153.26
404.471	52.91
404.68	128.68
404.888	79.53
405.097	87.72
405.306	100.01
405.515	138.92
405.724	38.57
405.933	149.16
406.142	169.64
406.35	95.91
406.559	87.72
406.768	179.88
406.977	259.75
407.185	128.68
407.394	175.78
407.603	147.11
407.812	208.55
408.02	173.74
408.229	138.92
408.438	147.11
408.646	134.82
408.855	153.26
409.064	218.79
409.272	204.46
409.481	304.81
409.69	190.12
409.898	235.18
410.107	255.65
410.315	276.13
410.524	181.93
410.733	190.12
410.941	192.17
411.15	306.85
411.358	294.57
411.567	308.9
411.775	292.52
411.984	310.95
412.192	282.28
412.401	390.82
412.609	356.01
412.818	442.02
413.026	280.23
413.234	302.76
413.443	456.36
413.651	353.96
413.86	399.01
414.068	509.6
414.276	429.73
414.485	446.12
414.693	505.51
414.901	423.59
415.11	564.9
415.318	589.47
415.526	497.32
415.734	548.51
415.943	507.55
416.151	546.47
416.359	636.58
416.567	620.19
416.776	698.02
416.984	603.81
417.192	595.62
417.4	759.46
417.608	712.35
417.817	730.78
418.025	753.31
418.233	837.28
418.441	753.31
418.649	921.24
418.857	890.53
419.065	865.95
419.273	931.48
419.481	970.4
419.689	947.87
419.897	1078.94
420.105	1107.61
420.313	1095.32
420.521	1111.71
420.729	1154.71
420.937	1263.26
421.145	1300.12
421.353	1253.02
421.561	1435.28
421.769	1427.09
421.977	1408.66
422.185	1365.65
422.393	1500.82
422.601	1525.4
422.809	1629.84
423.017	1521.3
423.224	1588.88
423.432	1746.58
423.64	1832.59
423.848	1945.23
424.056	1814.16
424.263	2031.24
424.471	2029.2
424.679	2115.21
424.887	2322.06
425.094	2252.42
425.302	2135.69
425.51	2279.05
425.718	2518.66
425.925	2440.84
426.133	2602.63
426.341	2580.1
426.548	2764.42
426.756	2813.57
426.964	2858.62
427.171	2870.91
427.379	3165.82
427.586	3221.11
427.794	3069.56
428.001	3329.66
428.209	3554.93
428.417	3403.38
428.624	3653.23
428.832	3589.75
429.039	3702.39
429.247	3548.79
429.454	4038.25
429.662	4327.02
429.869	3937.9
430.076	4329.06
430.284	4120.17
430.491	4347.5
430.699	4593.25
430.906	4478.57
431.114	4589.16
431.321	4787.81
431.528	4961.89
431.736	5195.36
431.943	5531.22
432.15	5205.6
432.358	5324.38
432.565	5555.8
432.772	5525.08
432.979	6012.49
433.187	6002.26
433.394	6116.94
433.601	6516.3
433.808	6440.52
434.016	6409.8
434.223	6573.64
434.43	7083.58
434.637	6823.49
434.844	7360.06
435.052	7568.95
435.259	7556.66
435.466	7550.52
435.673	7468.6
435.88	7800.37
436.087	8214.06
436.294	8367.66
436.501	8240.68
436.708	8367.66
436.915	8578.6
437.122	8971.81
437.329	8982.05
437.537	9221.66
437.743	9317.92
437.95	9201.18
438.157	9743.89
438.364	10337.8
438.571	10163.73
438.778	10190.35
438.985	11210.24
439.192	10673.67
439.399	11138.56
439.606	10905.09
439.813	11386.36
440.02	12078.58
440.227	11967.99
440.433	11974.13
440.64	12109.3
440.847	12090.87
441.054	12377.58
441.261	13174.24
441.467	12965.35
441.674	13485.53
441.881	13989.33
442.088	13909.46
442.294	13891.03
442.501	14052.82
442.708	14224.85
442.914	15031.75
443.121	15689.15
443.328	15162.82
443.534	16127.41
443.741	15576.51
443.948	15730.11
444.154	16590.25
444.361	16502.19
444.568	16655.79
444.774	16868.78
444.981	16917.93
445.187	17444.26
445.394	18077.08
445.6	17921.43
445.807	20026.75
446.013	18550.16
446.22	19008.9
446.426	19764.61
446.633	19977.59
446.839	20807.02
447.046	19944.83
447.252	20651.38
447.459	20981.1
447.665	20581.74
447.871	21785.95
448.078	22691.15
448.284	21812.57
448.491	22209.88
448.697	23227.72
448.903	23577.92
449.11	23551.3
449.316	23149.9
449.522	23610.69
449.728	24343.86
449.935	24356.15
450.141	24134.97
450.347	24771.89
450.553	23833.92
450.76	24159.55
450.966	24784.18
451.172	24694.07
451.378	25746.72
451.584	24966.45
451.791	25312.55
451.997	25216.3
452.203	25797.92
452.409	25959.71
452.615	25564.45
452.821	24636.72
453.027	24479.03
453.233	25713.95
453.44	24638.77
453.646	25204.01
453.852	24814.9
454.058	25759.01
454.264	24476.98
454.47	25238.83
454.676	24524.08
454.882	25347.37
455.088	22949.2
455.294	23399.75
455.5	23479.62
455.705	23901.5
455.911	23010.64
456.117	22474.07
456.323	22343
456.529	21108.07
456.735	22166.87
456.941	21396.84
457.147	20899.18
457.352	20311.41
457.558	20020.6
457.764	20299.12
457.97	19975.55
458.176	19221.89
458.381	19520.9
458.587	18421.14
458.793	18337.17
458.999	17526.18
459.204	18595.21
459.41	18062.74
459.616	17102.25
459.821	16997.8
460.027	17028.52
460.233	16713.13
460.438	15547.84
460.644	15801.79
460.85	15216.07
461.055	14824.9
461.261	14790.09
461.466	13860.31
461.672	13209.06
461.878	14517.71
462.083	13575.64
462.289	13063.65
462.494	13096.42
462.7	12680.68
462.905	12117.49
463.111	12680.68
463.316	12697.06
463.522	12422.64
463.727	12660.2
463.932	12420.59
464.138	12146.16
464.343	12396.01
464.549	12119.54
464.754	12451.31
464.959	12293.62
465.165	12273.14
465.37	11599.35
465.575	11410.94
465.781	11857.4
465.986	11953.65
466.191	11437.56
466.397	11304.45
466.602	10792.45
466.807	11052.55
467.012	11191.81
467.218	11017.73
467.423	10944
467.628	10913.28
467.833	11386.36
468.038	10882.56
468.244	10716.68
468.449	11183.62
468.654	10827.27
468.859	10909.19
