Data from USB4F104151__190__13-59-12-449.txt Node

Date: Thu Mar 13 13:59:12 EDT 2025
User: louis
Spectrometer: USB4F10415
Trigger mode: 4
Integration Time (sec): 1.000000E-2
Scans to average: 1
Electric dark correction enabled: true
Nonlinearity correction enabled: false
Boxcar width: 0
XAxis mode: Wavelengths
Number of Pixels in Spectrum: 3648
>>>>>Begin Spectral Data<<<<<
178.204	-46.59
178.424	-46.59
178.644	-46.59
178.864	-5.63
179.084	-19.97
179.304	-28.16
179.524	-3.58
179.744	51.71
179.964	94.72
180.184	29.18
180.404	37.38
180.624	-46.59
180.844	-89.6
181.064	-17.92
181.283	-7.68
181.503	45.57
181.723	-65.02
181.943	25.09
182.163	6.66
182.383	2.56
182.602	12.8
182.822	10.75
183.042	57.86
183.262	27.14
183.482	35.33
183.701	68.09
183.921	-22.02
184.141	14.85
184.361	78.33
184.58	55.81
184.8	8.7
185.02	72.19
185.239	82.43
185.459	4.61
185.679	4.61
185.898	59.9
186.118	51.71
186.338	20.99
186.557	0.51
186.777	-93.69
186.997	59.9
187.216	45.57
187.436	80.38
187.655	39.42
187.875	43.52
188.095	27.14
188.314	23.04
188.534	0.51
188.753	-11.78
188.973	55.81
189.192	27.14
189.412	45.57
189.631	29.18
189.851	-22.02
190.07	68.09
190.29	-38.4
190.509	61.95
190.729	4.61
190.948	74.24
191.168	33.28
191.387	23.04
191.607	10.75
191.826	18.94
192.045	64
192.265	-32.26
192.484	29.18
192.704	90.62
192.923	96.77
193.142	41.47
193.362	55.81
193.581	37.38
193.8	92.67
194.02	64
194.239	-34.3
194.458	16.9
194.678	-30.21
194.897	35.33
195.116	-52.74
195.335	25.09
195.555	-3.58
195.774	-3.58
195.993	-13.82
196.212	18.94
196.432	-3.58
196.651	53.76
196.87	70.14
197.089	59.9
197.308	25.09
197.528	4.61
197.747	20.99
197.966	23.04
198.185	27.14
198.404	-34.3
198.623	59.9
198.842	57.86
199.062	27.14
199.281	74.24
199.5	39.42
199.719	45.57
199.938	2.56
200.157	43.52
200.376	35.33
200.595	35.33
200.814	6.66
201.033	-13.82
201.252	115.2
201.471	12.8
201.69	-3.58
201.909	49.66
202.128	64
202.347	29.18
202.566	18.94
202.785	-24.06
203.004	-46.59
203.223	35.33
203.442	45.57
203.661	47.62
203.879	45.57
204.098	68.09
204.317	-3.58
204.536	66.05
204.755	29.18
204.974	74.24
205.193	4.61
205.411	70.14
205.63	76.29
205.849	59.9
206.068	70.14
206.287	86.53
206.505	55.81
206.724	59.9
206.943	20.99
207.162	-3.58
207.381	-11.78
207.599	61.95
207.818	45.57
208.037	29.18
208.255	10.75
208.474	18.94
208.693	66.05
208.911	70.14
209.13	27.14
209.349	37.38
209.567	31.23
209.786	6.66
210.005	64
210.223	-19.97
210.442	45.57
210.661	35.33
210.879	29.18
211.098	51.71
211.316	49.66
211.535	47.62
211.753	-11.78
211.972	33.28
212.191	45.57
212.409	27.14
212.628	78.33
212.846	0.51
213.065	98.81
213.283	-5.63
213.502	16.9
213.72	27.14
213.938	39.42
214.157	-7.68
214.375	68.09
214.594	57.86
214.812	76.29
215.031	76.29
215.249	-36.35
215.467	51.71
215.686	6.66
215.904	4.61
216.122	61.95
216.341	12.8
216.559	55.81
216.778	51.71
216.996	2.56
217.214	29.18
217.432	84.48
217.651	16.9
217.869	68.09
218.087	31.23
218.306	8.7
218.524	29.18
218.742	90.62
218.96	78.33
219.179	27.14
219.397	111.1
219.615	4.61
219.833	37.38
220.051	92.67
220.27	-26.11
220.488	23.04
220.706	18.94
220.924	57.86
221.142	53.76
221.36	55.81
221.578	29.18
221.796	37.38
222.015	25.09
222.233	20.99
222.451	27.14
222.669	80.38
222.887	57.86
223.105	45.57
223.323	10.75
223.541	-9.73
223.759	53.76
223.977	-3.58
224.195	49.66
224.413	53.76
224.631	61.95
224.849	92.67
225.067	14.85
225.285	27.14
225.503	47.62
225.721	-36.35
225.939	59.9
226.157	-52.74
226.375	49.66
226.592	57.86
226.81	119.29
227.028	35.33
227.246	68.09
227.464	0.51
227.682	53.76
227.9	78.33
228.117	23.04
228.335	47.62
228.553	45.57
228.771	-19.97
228.989	37.38
229.206	43.52
229.424	25.09
229.642	31.23
229.86	61.95
230.077	74.24
230.295	43.52
230.513	37.38
230.731	94.72
230.948	107.01
231.166	10.75
231.384	-30.21
231.601	117.25
231.819	80.38
232.037	0.51
232.254	37.38
232.472	74.24
232.689	-44.54
232.907	43.52
233.125	55.81
233.342	53.76
233.56	6.66
233.777	41.47
233.995	47.62
234.213	51.71
234.43	23.04
234.648	-28.16
234.865	41.47
235.083	6.66
235.3	20.99
235.518	55.81
235.735	113.15
235.953	20.99
236.17	70.14
236.388	20.99
236.605	61.95
236.822	53.76
237.04	57.86
237.257	45.57
237.475	59.9
237.692	55.81
237.909	4.61
238.127	-11.78
238.344	-5.63
238.562	92.67
238.779	-11.78
238.996	55.81
239.214	55.81
239.431	-3.58
239.648	16.9
239.865	12.8
240.083	-3.58
240.3	55.81
240.517	31.23
240.735	-13.82
240.952	14.85
241.169	-38.4
241.386	55.81
241.603	-3.58
241.821	119.29
242.038	35.33
242.255	47.62
242.472	14.85
242.689	41.47
242.907	70.14
243.124	31.23
243.341	23.04
243.558	18.94
243.775	37.38
243.992	35.33
244.209	-73.21
244.426	2.56
244.643	111.1
244.86	25.09
245.078	61.95
245.295	29.18
245.512	-13.82
245.729	51.71
245.946	74.24
246.163	55.81
246.38	35.33
246.597	43.52
246.814	-13.82
247.031	-17.92
247.248	47.62
247.464	18.94
247.681	45.57
247.898	6.66
248.115	-1.54
248.332	-7.68
248.549	70.14
248.766	23.04
248.983	55.81
249.2	66.05
249.417	96.77
249.633	53.76
249.85	23.04
250.067	33.28
250.284	31.23
250.501	74.24
250.717	86.53
250.934	-34.3
251.151	45.57
251.368	39.42
251.585	16.9
251.801	47.62
252.018	-13.82
252.235	49.66
252.451	4.61
252.668	29.18
252.885	-42.5
253.102	10.75
253.318	70.14
253.535	-30.21
253.752	31.23
253.968	18.94
254.185	2.56
254.401	51.71
254.618	43.52
254.835	100.86
255.051	51.71
255.268	-3.58
255.484	45.57
255.701	8.7
255.917	90.62
256.134	-28.16
256.351	39.42
256.567	4.61
256.784	27.14
257	33.28
257.217	33.28
257.433	29.18
257.65	80.38
257.866	-5.63
258.082	43.52
258.299	68.09
258.515	8.7
258.732	-13.82
258.948	92.67
259.165	55.81
259.381	39.42
259.597	-9.73
259.814	51.71
260.03	78.33
260.246	27.14
260.463	111.1
260.679	64
260.895	-3.58
261.112	57.86
261.328	2.56
261.544	-40.45
261.761	88.57
261.977	45.57
262.193	74.24
262.409	47.62
262.626	39.42
262.842	55.81
263.058	23.04
263.274	27.14
263.49	-9.73
263.707	68.09
263.923	102.91
264.139	35.33
264.355	-22.02
264.571	76.29
264.787	100.86
265.004	115.2
265.22	39.42
265.436	23.04
265.652	14.85
265.868	25.09
266.084	18.94
266.3	33.28
266.516	23.04
266.732	14.85
266.948	-17.92
267.164	-13.82
267.38	92.67
267.596	-46.59
267.812	37.38
268.028	16.9
268.244	41.47
268.46	59.9
268.676	43.52
268.892	18.94
269.108	-1.54
269.324	41.47
269.54	14.85
269.756	6.66
269.972	-73.21
270.188	66.05
270.403	6.66
270.619	74.24
270.835	102.91
271.051	-5.63
271.267	4.61
271.483	29.18
271.698	18.94
271.914	18.94
272.13	92.67
272.346	70.14
272.562	76.29
272.777	-7.68
272.993	27.14
273.209	117.25
273.425	39.42
273.64	16.9
273.856	45.57
274.072	51.71
274.287	-5.63
274.503	76.29
274.719	53.76
274.934	59.9
275.15	-1.54
275.366	-13.82
275.581	33.28
275.797	-11.78
276.012	6.66
276.228	27.14
276.444	16.9
276.659	80.38
276.875	18.94
277.09	86.53
277.306	45.57
277.521	104.96
277.737	6.66
277.952	117.25
278.168	78.33
278.383	31.23
278.599	12.8
278.814	12.8
279.03	-11.78
279.245	33.28
279.461	43.52
279.676	94.72
279.892	59.9
280.107	20.99
280.322	14.85
280.538	68.09
280.753	43.52
280.969	-24.06
281.184	-11.78
281.399	90.62
281.615	86.53
281.83	27.14
282.045	86.53
282.26	57.86
282.476	12.8
282.691	39.42
282.906	68.09
283.122	35.33
283.337	-44.54
283.552	-36.35
283.767	12.8
283.983	16.9
284.198	72.19
284.413	23.04
284.628	49.66
284.843	117.25
285.058	61.95
285.274	78.33
285.489	53.76
285.704	41.47
285.919	2.56
286.134	6.66
286.349	-5.63
286.564	-3.58
286.779	57.86
286.995	-28.16
287.21	-34.3
287.425	0.51
287.64	6.66
287.855	47.62
288.07	-3.58
288.285	-1.54
288.5	-11.78
288.715	39.42
288.93	45.57
289.145	35.33
289.36	2.56
289.575	107.01
289.79	-1.54
290.004	18.94
290.219	23.04
290.434	49.66
290.649	49.66
290.864	166.4
291.079	-1.54
291.294	68.09
291.509	23.04
291.724	39.42
291.938	18.94
292.153	-5.63
292.368	-1.54
292.583	55.81
292.798	92.67
293.012	53.76
293.227	59.9
293.442	27.14
293.657	45.57
293.871	68.09
294.086	23.04
294.301	29.18
294.516	72.19
294.73	12.8
294.945	-7.68
295.16	39.42
295.374	-32.26
295.589	18.94
295.804	27.14
296.018	-9.73
296.233	61.95
296.447	64
296.662	109.05
296.877	55.81
297.091	51.71
297.306	96.77
297.52	35.33
297.735	98.81
297.949	53.76
298.164	-22.02
298.378	29.18
298.593	16.9
298.807	25.09
299.022	39.42
299.236	4.61
299.451	10.75
299.665	23.04
299.88	-17.92
300.094	64
300.309	76.29
300.523	82.43
300.737	115.2
300.952	-9.73
301.166	-3.58
301.381	29.18
301.595	35.33
301.809	33.28
302.024	88.57
302.238	31.23
302.452	51.71
302.667	94.72
302.881	51.71
303.095	20.99
303.309	86.53
303.524	8.7
303.738	-38.4
303.952	6.66
304.166	25.09
304.381	53.76
304.595	127.49
304.809	96.77
305.023	27.14
305.237	-11.78
305.452	8.7
305.666	14.85
305.88	43.52
306.094	33.28
306.308	-9.73
306.522	104.96
306.736	107.01
306.95	18.94
307.164	80.38
307.379	23.04
307.593	49.66
307.807	76.29
308.021	41.47
308.235	82.43
308.449	45.57
308.663	14.85
308.877	43.52
309.091	-3.58
309.305	33.28
309.519	47.62
309.733	39.42
309.947	45.57
310.161	-22.02
310.374	64
310.588	25.09
310.802	111.1
311.016	20.99
311.23	12.8
311.444	31.23
311.658	104.96
311.872	78.33
312.085	-26.11
312.299	37.38
312.513	23.04
312.727	51.71
312.941	68.09
313.154	45.57
313.368	47.62
313.582	61.95
313.796	18.94
314.009	53.76
314.223	70.14
314.437	55.81
314.651	27.14
314.864	70.14
315.078	-28.16
315.292	23.04
315.505	20.99
315.719	53.76
315.933	127.49
316.146	72.19
316.36	-22.02
316.573	35.33
316.787	74.24
317.001	27.14
317.214	27.14
317.428	139.77
317.641	45.57
317.855	-28.16
318.068	-13.82
318.282	49.66
318.495	49.66
318.709	86.53
318.922	25.09
319.136	35.33
319.349	-32.26
319.563	10.75
319.776	55.81
319.99	49.66
320.203	8.7
320.417	10.75
320.63	-13.82
320.843	53.76
321.057	43.52
321.27	51.71
321.483	27.14
321.697	-7.68
321.91	-5.63
322.124	107.01
322.337	59.9
322.55	25.09
322.763	59.9
322.977	88.57
323.19	43.52
323.403	-3.58
323.617	53.76
323.83	29.18
324.043	76.29
324.256	41.47
324.469	43.52
324.683	2.56
324.896	51.71
325.109	43.52
325.322	49.66
325.535	18.94
325.748	-7.68
325.962	47.62
326.175	20.99
326.388	51.71
326.601	-9.73
326.814	29.18
327.027	-52.74
327.24	43.52
327.453	64
327.666	59.9
327.879	53.76
328.092	84.48
328.305	4.61
328.518	23.04
328.731	57.86
328.944	-1.54
329.157	12.8
329.37	43.52
329.583	125.44
329.796	111.1
330.009	27.14
330.222	64
330.435	70.14
330.648	88.57
330.861	82.43
331.073	23.04
331.286	-32.26
331.499	6.66
331.712	33.28
331.925	18.94
332.138	18.94
332.35	102.91
332.563	109.05
332.776	31.23
332.989	113.15
333.202	57.86
333.414	72.19
333.627	25.09
333.84	37.38
334.053	8.7
334.265	96.77
334.478	47.62
334.691	76.29
334.903	35.33
335.116	6.66
335.329	37.38
335.541	4.61
335.754	72.19
335.966	23.04
336.179	53.76
336.392	96.77
336.604	37.38
336.817	78.33
337.029	27.14
337.242	51.71
337.454	53.76
337.667	-38.4
337.88	100.86
338.092	31.23
338.305	27.14
338.517	29.18
338.729	68.09
338.942	117.25
339.154	29.18
339.367	37.38
339.579	37.38
339.792	31.23
340.004	-28.16
340.217	2.56
340.429	37.38
340.641	88.57
340.854	123.39
341.066	31.23
341.278	141.82
341.491	84.48
341.703	-13.82
341.915	23.04
342.128	92.67
342.34	111.1
342.552	76.29
342.764	27.14
342.977	51.71
343.189	33.28
343.401	86.53
343.613	61.95
343.826	64
344.038	39.42
344.25	94.72
344.462	64
344.674	18.94
344.886	23.04
345.099	61.95
345.311	-30.21
345.523	27.14
345.735	35.33
345.947	84.48
346.159	41.47
346.371	8.7
346.583	41.47
346.795	82.43
347.007	27.14
347.219	92.67
347.431	76.29
347.643	104.96
347.855	55.81
348.067	96.77
348.279	35.33
348.491	90.62
348.703	41.47
348.915	88.57
349.127	53.76
349.339	25.09
349.551	20.99
349.763	43.52
349.975	92.67
350.187	18.94
350.399	43.52
350.61	57.86
350.822	-17.92
351.034	61.95
351.246	61.95
351.458	47.62
351.669	41.47
351.881	-9.73
352.093	39.42
352.305	23.04
352.517	86.53
352.728	72.19
352.94	68.09
353.152	47.62
353.363	76.29
353.575	41.47
353.787	27.14
353.999	45.57
354.21	51.71
354.422	2.56
354.633	100.86
354.845	107.01
355.057	125.44
355.268	109.05
355.48	18.94
355.692	51.71
355.903	51.71
356.115	14.85
356.326	100.86
356.538	76.29
356.749	-28.16
356.961	45.57
357.172	35.33
357.384	33.28
357.595	61.95
357.807	45.57
358.018	45.57
358.23	39.42
358.441	20.99
358.653	61.95
358.864	12.8
359.075	78.33
359.287	-1.54
359.498	82.43
359.709	113.15
359.921	6.66
360.132	78.33
360.344	35.33
360.555	68.09
360.766	68.09
360.977	78.33
361.189	94.72
361.4	80.38
361.611	70.14
361.823	74.24
362.034	70.14
362.245	49.66
362.456	47.62
362.667	107.01
362.879	94.72
363.09	61.95
363.301	59.9
363.512	86.53
363.723	-3.58
363.935	72.19
364.146	102.91
364.357	68.09
364.568	43.52
364.779	33.28
364.99	31.23
365.201	-1.54
365.412	102.91
365.623	-19.97
365.834	94.72
366.045	31.23
366.256	16.9
366.467	10.75
366.678	78.33
366.889	18.94
367.1	70.14
367.311	64
367.522	-5.63
367.733	39.42
367.944	8.7
368.155	66.05
368.366	78.33
368.577	33.28
368.788	68.09
368.999	115.2
369.209	76.29
369.42	70.14
369.631	88.57
369.842	-11.78
370.053	51.71
370.264	64
370.474	18.94
370.685	-30.21
370.896	64
371.107	143.87
371.317	68.09
371.528	33.28
371.739	35.33
371.95	92.67
372.16	78.33
372.371	-5.63
372.582	37.38
372.792	76.29
373.003	74.24
373.214	86.53
373.424	43.52
373.635	-3.58
373.846	39.42
374.056	35.33
374.267	31.23
374.477	57.86
374.688	43.52
374.898	51.71
375.109	129.53
375.319	100.86
375.53	72.19
375.74	100.86
375.951	35.33
376.161	49.66
376.372	55.81
376.582	29.18
376.793	86.53
377.003	33.28
377.214	59.9
377.424	109.05
377.635	39.42
377.845	-13.82
378.055	29.18
378.266	45.57
378.476	37.38
378.686	59.9
378.897	109.05
379.107	59.9
379.317	37.38
379.528	55.81
379.738	45.57
379.948	43.52
380.158	88.57
380.369	68.09
380.579	37.38
380.789	4.61
380.999	51.71
381.21	49.66
381.42	135.68
381.63	-5.63
381.84	66.05
382.05	143.87
382.261	66.05
382.471	78.33
382.681	27.14
382.891	96.77
383.101	72.19
383.311	98.81
383.521	96.77
383.731	35.33
383.941	94.72
384.151	35.33
384.361	82.43
384.571	45.57
384.781	43.52
384.991	31.23
385.201	16.9
385.411	33.28
385.621	84.48
385.831	45.57
386.041	115.2
386.251	-3.58
386.461	53.76
386.671	78.33
386.881	-3.58
387.091	20.99
387.301	80.38
387.511	141.82
387.72	96.77
387.93	43.52
388.14	76.29
388.35	88.57
388.56	88.57
388.769	10.75
388.979	72.19
389.189	55.81
389.399	49.66
389.609	6.66
389.818	76.29
390.028	86.53
390.238	51.71
390.447	66.05
390.657	-26.11
390.867	-1.54
391.076	41.47
391.286	78.33
391.496	20.99
391.705	49.66
391.915	70.14
392.125	6.66
392.334	8.7
392.544	76.29
392.753	35.33
392.963	64
393.172	119.29
393.382	35.33
393.591	53.76
393.801	74.24
394.01	61.95
394.22	160.25
394.429	113.15
394.639	-13.82
394.848	145.92
395.058	61.95
395.267	68.09
395.477	39.42
395.686	86.53
395.895	88.57
396.105	37.38
396.314	125.44
396.524	117.25
396.733	61.95
396.942	68.09
397.152	74.24
397.361	76.29
397.57	43.52
397.78	59.9
397.989	90.62
398.198	59.9
398.407	20.99
398.617	109.05
398.826	74.24
399.035	123.39
399.244	100.86
399.453	96.77
399.663	57.86
399.872	111.1
400.081	31.23
400.29	137.73
400.499	84.48
400.708	109.05
400.917	74.24
401.127	123.39
401.336	0.51
401.545	111.1
401.754	100.86
401.963	96.77
402.172	98.81
402.381	27.14
402.59	127.49
402.799	135.68
403.008	117.25
403.217	117.25
403.426	156.16
403.635	109.05
403.844	25.09
404.053	145.92
404.262	94.72
404.471	92.67
404.68	166.4
404.888	96.77
405.097	80.38
405.306	59.9
405.515	-15.87
405.724	145.92
405.933	170.49
406.142	143.87
406.35	129.53
406.559	168.45
406.768	250.36
406.977	113.15
407.185	96.77
407.394	164.35
407.603	92.67
407.812	215.55
408.02	162.3
408.229	152.06
408.438	170.49
408.646	193.02
408.855	160.25
409.064	115.2
409.272	139.77
409.481	160.25
409.69	193.02
409.898	213.5
410.107	215.55
410.315	203.26
410.524	186.88
410.733	215.55
410.941	180.73
411.15	219.64
411.358	242.17
411.567	256.51
411.775	248.32
411.984	215.55
412.192	258.56
412.401	250.36
412.609	295.42
412.818	279.04
413.026	369.15
413.234	276.99
413.443	350.71
413.651	334.33
413.86	354.81
414.068	371.19
414.276	379.39
414.485	381.43
414.693	414.2
414.901	395.77
415.11	442.87
415.318	420.35
415.526	469.5
415.734	461.3
415.943	526.84
416.151	485.88
416.359	502.26
416.567	522.74
416.776	514.55
416.984	543.22
417.192	582.14
417.4	600.57
417.608	649.72
417.817	674.29
418.025	600.57
418.233	700.92
418.441	684.53
418.649	715.25
418.857	670.2
419.065	799.22
419.273	731.64
419.481	788.98
419.689	877.04
419.897	903.67
420.105	887.28
420.313	866.8
420.521	1034.74
420.729	897.52
420.937	971.25
421.145	1085.94
421.353	1079.79
421.561	1217.01
421.769	1204.72
421.977	1176.05
422.185	1153.52
422.393	1270.25
422.601	1360.36
422.809	1368.56
423.017	1356.27
423.224	1438.19
423.432	1530.34
423.64	1397.23
423.848	1649.13
424.056	1493.48
424.263	1657.32
424.471	1632.74
424.679	1788.39
424.887	1796.58
425.094	1800.68
425.302	1890.79
425.51	1888.74
425.718	1919.46
425.925	2042.34
426.133	2001.38
426.341	2157.02
426.548	2273.76
426.756	2302.43
426.964	2327
427.171	2626.01
427.379	2554.33
427.586	2566.62
427.794	2595.29
428.001	2724.31
428.209	2808.28
428.417	2724.31
428.624	3068.37
428.832	3031.51
429.039	3025.36
429.247	3000.79
429.454	3260.88
429.662	3484.11
429.869	3273.17
430.076	3568.07
430.284	3389.9
430.491	3557.83
430.699	3822.02
430.906	3807.69
431.114	3852.74
431.321	3973.57
431.528	4135.36
431.736	4331.97
431.943	4565.43
432.15	4313.53
432.358	4450.75
432.565	4567.48
432.772	4620.73
432.979	4829.62
433.187	4960.69
433.394	4768.18
433.601	5347.76
433.808	5401.01
434.016	5374.38
434.223	5548.46
434.43	5732.78
434.637	5816.74
434.844	6058.4
435.052	6177.19
435.259	6134.18
435.466	6164.9
435.673	6042.02
435.88	6326.69
436.087	6902.17
436.294	6805.91
436.501	6621.59
436.708	6869.4
436.915	7080.34
437.122	7395.73
437.329	7430.54
437.537	7532.94
437.743	7717.26
437.95	7618.96
438.157	8266.11
438.364	8368.51
438.571	8333.7
438.778	8259.97
438.985	9081.21
439.192	8882.55
439.399	8999.29
439.606	8866.17
439.813	9386.35
440.02	9916.78
440.227	9652.59
440.433	9417.07
440.64	10074.47
440.847	10066.28
441.054	10135.91
441.261	10977.62
441.467	10701.15
441.674	10867.03
441.881	11293.01
442.088	11120.98
442.294	11092.31
442.501	11348.31
442.708	11794.76
442.914	11815.24
443.121	12775.74
443.328	12228.93
443.534	13195.57
443.741	12818.75
443.948	12446.02
444.154	13607.22
444.361	13269.3
444.568	13427
444.774	13742.38
444.981	13793.58
445.187	14131.5
445.394	14543.14
445.6	14643.49
445.807	15628.56
446.013	15307.03
446.22	15497.49
446.426	16191.75
446.633	16072.97
446.839	16890.11
447.046	15976.72
447.252	17025.28
447.459	17238.26
447.665	17035.52
447.871	17621.24
448.078	18307.3
448.284	17608.95
448.491	18186.47
448.697	18839.78
448.903	18976.99
449.11	18952.41
449.316	18852.06
449.522	19247.32
449.728	19597.52
449.935	19929.3
450.141	20060.37
450.347	20287.69
450.553	19609.81
450.76	19753.17
450.966	20598.98
451.172	20179.15
451.378	20875.46
451.584	20525.25
451.791	20857.03
451.997	20945.09
452.203	21383.35
452.409	21280.96
452.615	21412.03
452.821	20367.56
453.027	20232.4
453.233	21547.19
453.44	20388.04
453.646	20685
453.852	20811.97
454.058	20953.28
454.264	20750.53
454.47	21102.78
454.676	20361.42
454.882	20979.9
455.088	19122.4
455.294	19511.51
455.5	19749.07
455.705	19943.63
455.911	19257.56
456.117	18798.82
456.323	18639.08
456.529	17697.01
456.735	18469.09
456.941	18020.59
457.147	17862.9
457.352	17115.39
457.558	16779.52
457.764	16843.01
457.97	16769.28
458.176	16273.67
458.381	16253.19
458.587	15460.63
458.793	15542.55
458.999	14565.67
459.204	15778.06
459.41	15419.67
459.616	14344.49
459.821	14242.09
460.027	14268.71
460.233	14192.94
460.438	13322.55
460.644	13412.66
460.85	13005.11
461.055	12933.43
461.261	12562.75
461.466	11751.76
461.672	11348.31
461.878	12005.7
462.083	11317.59
462.289	10883.42
462.494	10994.01
462.7	10533.22
462.905	10391.91
463.111	10488.16
463.316	10889.56
463.522	10664.29
463.727	10621.28
463.932	10336.61
464.138	10451.3
464.343	10443.1
464.549	10119.53
464.754	10608.99
464.959	10162.53
465.165	10400.1
465.37	9701.74
465.575	9640.3
465.781	10039.65
465.986	10037.61
466.191	9664.88
466.397	9472.37
466.602	9062.77
466.807	9324.91
467.012	9271.67
467.218	9376.11
467.423	9253.23
467.628	9269.62
467.833	9734.51
468.038	9281.91
468.244	9050.49
468.449	9361.78
468.654	9027.96
468.859	9011.57
469.064	8862.07
469.269	8755.58
