Data from USB4F104151__63__13-53-41-636.txt Node

Date: Thu Mar 13 13:53:41 EDT 2025
User: louis
Spectrometer: USB4F10415
Trigger mode: 4
Integration Time (sec): 1.000000E-2
Scans to average: 1
Electric dark correction enabled: true
Nonlinearity correction enabled: false
Boxcar width: 0
XAxis mode: Wavelengths
Number of Pixels in Spectrum: 3648
>>>>>Begin Spectral Data<<<<<
178.204	-12.29
178.424	-12.29
178.644	-12.29
178.864	-16.38
179.084	-65.53
179.304	0
179.524	-10.24
179.744	2.05
179.964	-40.96
180.184	-47.1
180.404	-4.1
180.624	-38.91
180.844	34.82
181.064	-30.72
181.283	18.43
181.503	45.06
181.723	71.68
181.943	16.38
182.163	67.58
182.383	14.34
182.602	2.05
182.822	24.58
183.042	38.91
183.262	30.72
183.482	34.82
183.701	57.34
183.921	30.72
184.141	26.62
184.361	34.82
184.58	-2.05
184.8	0
185.02	32.77
185.239	-32.77
185.459	-4.1
185.679	69.63
185.898	18.43
186.118	38.91
186.338	6.14
186.557	-4.1
186.777	0
186.997	30.72
187.216	-22.53
187.436	65.54
187.655	92.16
187.875	55.3
188.095	-12.29
188.314	32.77
188.534	45.06
188.753	-34.82
188.973	-71.68
189.192	-18.43
189.412	59.39
189.631	-61.44
189.851	-12.29
190.07	81.92
190.29	-36.86
190.509	40.96
190.729	-40.96
190.948	26.62
191.168	57.34
191.387	86.01
191.607	20.48
191.826	6.14
192.045	65.54
192.265	-24.58
192.484	30.72
192.704	108.54
192.923	-40.96
193.142	24.58
193.362	16.38
193.581	-2.05
193.8	-14.34
194.02	24.58
194.239	10.24
194.458	28.67
194.678	57.34
194.897	8.19
195.116	18.43
195.335	18.43
195.555	-24.58
195.774	4.1
195.993	-24.58
196.212	26.62
196.432	30.72
196.651	30.72
196.87	108.54
197.089	28.67
197.308	51.2
197.528	36.86
197.747	43.01
197.966	67.58
198.185	28.67
198.404	-20.48
198.623	32.77
198.842	14.34
199.062	47.1
199.281	-40.96
199.5	14.34
199.719	65.54
199.938	-2.05
200.157	-38.91
200.376	47.1
200.595	38.91
200.814	38.91
201.033	22.53
201.252	40.96
201.471	-45.06
201.69	40.96
201.909	20.48
202.128	51.2
202.347	73.73
202.566	81.92
202.785	47.1
203.004	-10.24
203.223	57.34
203.442	-6.14
203.661	14.34
203.879	22.53
204.098	8.19
204.317	26.62
204.536	-2.05
204.755	4.1
204.974	20.48
205.193	2.05
205.411	-8.19
205.63	32.77
205.849	55.3
206.068	20.48
206.287	-12.29
206.505	14.34
206.724	-20.48
206.943	16.38
207.162	69.63
207.381	53.25
207.599	51.2
207.818	-4.1
208.037	-4.1
208.255	-28.67
208.474	71.68
208.693	49.15
208.911	77.82
209.13	30.72
209.349	34.82
209.567	30.72
209.786	20.48
210.005	18.43
210.223	38.91
210.442	71.68
210.661	63.49
210.879	-8.19
211.098	-49.15
211.316	20.48
211.535	16.38
211.753	34.82
211.972	45.06
212.191	53.25
212.409	18.43
212.628	77.82
212.846	43.01
213.065	55.3
213.283	79.87
213.502	10.24
213.72	36.86
213.938	40.96
214.157	6.14
214.375	-55.3
214.594	30.72
214.812	22.53
215.031	14.34
215.249	14.34
215.467	-12.29
215.686	32.77
215.904	30.72
216.122	18.43
216.341	18.43
216.559	43.01
216.778	-2.05
216.996	6.14
217.214	2.05
217.432	30.72
217.651	112.64
217.869	32.77
218.087	16.38
218.306	69.63
218.524	30.72
218.742	73.73
218.96	28.67
219.179	-40.96
219.397	79.87
219.615	81.92
219.833	45.06
220.051	22.53
220.27	43.01
220.488	0
220.706	-8.19
220.924	-112.64
221.142	43.01
221.36	-40.96
221.578	-36.86
221.796	-32.77
222.015	8.19
222.233	92.16
222.451	100.35
222.669	69.63
222.887	-26.62
223.105	-59.39
223.323	6.14
223.541	-6.14
223.759	14.34
223.977	24.58
224.195	6.14
224.413	26.62
224.631	47.1
224.849	90.11
225.067	47.1
225.285	0
225.503	0
225.721	2.05
225.939	61.44
226.157	-6.14
226.375	22.53
226.592	6.14
226.81	14.34
227.028	124.93
227.246	30.72
227.464	8.19
227.682	-104.45
227.9	45.06
228.117	-30.72
228.335	90.11
228.553	-2.05
228.771	47.1
228.989	-16.38
229.206	120.83
229.424	-14.34
229.642	-2.05
229.86	18.43
230.077	71.68
230.295	73.73
230.513	43.01
230.731	65.54
230.948	-22.53
231.166	75.77
231.384	55.3
231.601	18.43
231.819	20.48
232.037	-2.05
232.254	55.3
232.472	14.34
232.689	34.82
232.907	110.59
233.125	36.86
233.342	-26.62
233.56	8.19
233.777	-4.1
233.995	-32.77
234.213	22.53
234.43	16.38
234.648	-2.05
234.865	36.86
235.083	75.77
235.3	-30.72
235.518	30.72
235.735	-40.96
235.953	126.97
236.17	4.1
236.388	6.14
236.605	40.96
236.822	77.82
237.04	49.15
237.257	2.05
237.475	65.54
237.692	20.48
237.909	61.44
238.127	-6.14
238.344	-12.29
238.562	94.21
238.779	24.58
238.996	47.1
239.214	26.62
239.431	69.63
239.648	40.96
239.865	-12.29
240.083	-20.48
240.3	63.49
240.517	18.43
240.735	-10.24
240.952	-4.1
241.169	65.54
241.386	71.68
241.603	12.29
241.821	-47.1
242.038	90.11
242.255	28.67
242.472	43.01
242.689	40.96
242.907	40.96
243.124	-14.34
243.341	69.63
243.558	32.77
243.775	4.1
243.992	16.38
244.209	61.44
244.426	8.19
244.643	26.62
244.86	36.86
245.078	45.06
245.295	-6.14
245.512	18.43
245.729	8.19
245.946	40.96
246.163	63.49
246.38	-10.24
246.597	129.02
246.814	51.2
247.031	-4.1
247.248	57.34
247.464	14.34
247.681	-16.38
247.898	24.58
248.115	73.73
248.332	88.06
248.549	12.29
248.766	71.68
248.983	34.82
249.2	18.43
249.417	18.43
249.633	2.05
249.85	20.48
250.067	47.1
250.284	40.96
250.501	24.58
250.717	24.58
250.934	47.1
251.151	26.62
251.368	-67.58
251.585	49.15
251.801	22.53
252.018	18.43
252.235	30.72
252.451	53.25
252.668	-36.86
252.885	-34.82
253.102	6.14
253.318	67.58
253.535	30.72
253.752	40.96
253.968	34.82
254.185	2.05
254.401	-22.53
254.618	55.3
254.835	-2.05
255.051	65.54
255.268	8.19
255.484	118.78
255.701	-51.2
255.917	122.88
256.134	18.43
256.351	28.67
256.567	-59.39
256.784	16.38
257	81.92
257.217	12.29
257.433	47.1
257.65	75.77
257.866	28.67
258.082	65.54
258.299	49.15
258.515	28.67
258.732	36.86
258.948	53.25
259.165	38.91
259.381	-2.05
259.597	12.29
259.814	-38.91
260.03	49.15
260.246	77.82
260.463	-20.48
260.679	6.14
260.895	43.01
261.112	10.24
261.328	14.34
261.544	86.01
261.761	104.45
261.977	8.19
262.193	-22.53
262.409	116.73
262.626	-49.15
262.842	65.54
263.058	14.34
263.274	47.1
263.49	2.05
263.707	-4.1
263.923	18.43
264.139	4.1
264.355	81.92
264.571	63.49
264.787	30.72
265.004	28.67
265.22	75.77
265.436	-20.48
265.652	30.72
265.868	30.72
266.084	2.05
266.3	43.01
266.516	24.58
266.732	38.91
266.948	8.19
267.164	24.58
267.38	116.73
267.596	30.72
267.812	-14.34
268.028	30.72
268.244	36.86
268.46	38.91
268.676	40.96
268.892	6.14
269.108	51.2
269.324	22.53
269.54	71.68
269.756	32.77
269.972	32.77
270.188	73.73
270.403	6.14
270.619	22.53
270.835	24.58
271.051	20.48
271.267	4.1
271.483	100.35
271.698	65.54
271.914	2.05
272.13	69.63
272.346	102.4
272.562	-4.1
272.777	53.25
272.993	38.91
273.209	61.44
273.425	-24.58
273.64	28.67
273.856	88.06
274.072	28.67
274.287	32.77
274.503	16.38
274.719	10.24
274.934	83.97
275.15	28.67
275.366	32.77
275.581	47.1
275.797	26.62
276.012	67.58
276.228	96.25
276.444	34.82
276.659	49.15
276.875	-22.53
277.09	73.73
277.306	26.62
277.521	71.68
277.737	4.1
277.952	47.1
278.168	45.06
278.383	34.82
278.599	65.54
278.814	6.14
279.03	4.1
279.245	71.68
279.461	63.49
279.676	30.72
279.892	-6.14
280.107	10.24
280.322	-6.14
280.538	94.21
280.753	-40.96
280.969	88.06
281.184	73.73
281.399	2.05
281.615	43.01
281.83	38.91
282.045	-6.14
282.26	36.86
282.476	-8.19
282.691	75.77
282.906	59.39
283.122	57.34
283.337	26.62
283.552	24.58
283.767	36.86
283.983	-22.53
284.198	55.3
284.413	81.92
284.628	45.06
284.843	24.58
285.058	6.14
285.274	55.3
285.489	43.01
285.704	36.86
285.919	-28.67
286.134	69.63
286.349	73.73
286.564	30.72
286.779	12.29
286.995	2.05
287.21	32.77
287.425	79.87
287.64	45.06
287.855	34.82
288.07	-49.15
288.285	45.06
288.5	24.58
288.715	36.86
288.93	10.24
289.145	43.01
289.36	-22.53
289.575	24.58
289.79	59.39
290.004	57.34
290.219	-22.53
290.434	38.91
290.649	36.86
290.864	0
291.079	38.91
291.294	-20.48
291.509	45.06
291.724	-26.62
291.938	16.38
292.153	-14.34
292.368	24.58
292.583	-12.29
292.798	28.67
293.012	43.01
293.227	94.21
293.442	-2.05
293.657	38.91
293.871	108.54
294.086	61.44
294.301	53.25
294.516	22.53
294.73	-28.67
294.945	2.05
295.16	92.16
295.374	-12.29
295.589	36.86
295.804	14.34
296.018	14.34
296.233	81.92
296.447	57.34
296.662	8.19
296.877	2.05
297.091	67.58
297.306	36.86
297.52	-28.67
297.735	49.15
297.949	6.14
298.164	43.01
298.378	20.48
298.593	-12.29
298.807	16.38
299.022	49.15
299.236	16.38
299.451	-32.77
299.665	-4.1
299.88	-51.2
300.094	96.25
300.309	0
300.523	40.96
300.737	34.82
300.952	40.96
301.166	-6.14
301.381	59.39
301.595	0
301.809	81.92
302.024	79.87
302.238	-4.1
302.452	10.24
302.667	36.86
302.881	-16.38
303.095	6.14
303.309	-61.44
303.524	-40.96
303.738	32.77
303.952	96.25
304.166	-2.05
304.381	51.2
304.595	8.19
304.809	47.1
305.023	51.2
305.237	51.2
305.452	69.63
305.666	-14.34
305.88	47.1
306.094	57.34
306.308	14.34
306.522	59.39
306.736	59.39
306.95	-38.91
307.164	59.39
307.379	-45.06
307.593	20.48
307.807	24.58
308.021	38.91
308.235	2.05
308.449	-28.67
308.663	-22.53
308.877	96.25
309.091	43.01
309.305	18.43
309.519	-26.62
309.733	-30.72
309.947	92.16
310.161	94.21
310.374	0
310.588	47.1
310.802	-43.01
311.016	-16.38
311.23	4.1
311.444	2.05
311.658	0
311.872	67.58
312.085	-16.38
312.299	24.58
312.513	81.92
312.727	59.39
312.941	-18.43
313.154	90.11
313.368	61.44
313.582	71.68
313.796	43.01
314.009	-26.62
314.223	36.86
314.437	-2.05
314.651	8.19
314.864	36.86
315.078	8.19
315.292	14.34
315.505	-40.96
315.719	49.15
315.933	43.01
316.146	45.06
316.36	71.68
316.573	24.58
316.787	69.63
317.001	24.58
317.214	88.06
317.428	16.38
317.641	30.72
317.855	2.05
318.068	51.2
318.282	96.25
318.495	28.67
318.709	-4.1
318.922	32.77
319.136	98.3
319.349	53.25
319.563	16.38
319.776	16.38
319.99	-10.24
320.203	43.01
320.417	96.25
320.63	53.25
320.843	36.86
321.057	75.77
321.27	-4.1
321.483	-28.67
321.697	108.54
321.91	28.67
322.124	38.91
322.337	77.82
322.55	20.48
322.763	34.82
322.977	40.96
323.19	32.77
323.403	86.01
323.617	12.29
323.83	98.3
324.043	40.96
324.256	24.58
324.469	10.24
324.683	-26.62
324.896	61.44
325.109	-22.53
325.322	36.86
325.535	53.25
325.748	75.77
325.962	-18.43
326.175	-67.58
326.388	8.19
326.601	10.24
326.814	38.91
327.027	-22.53
327.24	43.01
327.453	-47.1
327.666	96.25
327.879	38.91
328.092	116.73
328.305	-4.1
328.518	-8.19
328.731	-8.19
328.944	18.43
329.157	10.24
329.37	-2.05
329.583	79.87
329.796	69.63
330.009	2.05
330.222	49.15
330.435	51.2
330.648	96.25
330.861	10.24
331.073	47.1
331.286	57.34
331.499	-16.38
331.712	38.91
331.925	24.58
332.138	55.3
332.35	83.97
332.563	49.15
332.776	4.1
332.989	-57.34
333.202	92.16
333.414	-24.58
333.627	59.39
333.84	47.1
334.053	71.68
334.265	47.1
334.478	-10.24
334.691	-63.49
334.903	36.86
335.116	20.48
335.329	55.3
335.541	88.06
335.754	14.34
335.966	49.15
336.179	6.14
336.392	-40.96
336.604	2.05
336.817	100.35
337.029	-20.48
337.242	26.62
337.454	43.01
337.667	43.01
337.88	67.58
338.092	22.53
338.305	6.14
338.517	-59.39
338.729	16.38
338.942	14.34
339.154	18.43
339.367	-26.62
339.579	-57.34
339.792	34.82
340.004	45.06
340.217	49.15
340.429	-4.1
340.641	79.87
340.854	16.38
341.066	22.53
341.278	59.39
341.491	14.34
341.703	-16.38
341.915	28.67
342.128	34.82
342.34	-4.1
342.552	71.68
342.764	86.01
342.977	83.97
343.189	26.62
343.401	49.15
343.613	88.06
343.826	28.67
344.038	30.72
344.25	43.01
344.462	6.14
344.674	98.3
344.886	30.72
345.099	53.25
345.311	32.77
345.523	57.34
345.735	55.3
345.947	22.53
346.159	-14.34
346.371	-14.34
346.583	-20.48
346.795	45.06
347.007	45.06
347.219	77.82
347.431	-30.72
347.643	30.72
347.855	79.87
348.067	47.1
348.279	8.19
348.491	81.92
348.703	-12.29
348.915	83.97
349.127	36.86
349.339	88.06
349.551	45.06
349.763	36.86
349.975	-2.05
350.187	-28.67
350.399	49.15
350.61	106.49
350.822	-4.1
351.034	53.25
351.246	36.86
351.458	100.35
351.669	79.87
351.881	30.72
352.093	90.11
352.305	45.06
352.517	55.3
352.728	92.16
352.94	108.54
353.152	75.77
353.363	43.01
353.575	14.34
353.787	-16.38
353.999	8.19
354.21	90.11
354.422	-8.19
354.633	83.97
354.845	18.43
355.057	63.49
355.268	81.92
355.48	30.72
355.692	-16.38
355.903	38.91
356.115	-22.53
356.326	65.54
356.538	8.19
356.749	114.69
356.961	61.44
357.172	63.49
357.384	-14.34
357.595	-4.1
357.807	55.3
358.018	30.72
358.23	94.21
358.441	47.1
358.653	55.3
358.864	32.77
359.075	77.82
359.287	-10.24
359.498	81.92
359.709	22.53
359.921	73.73
360.132	69.63
360.344	0
360.555	-4.1
360.766	71.68
360.977	2.05
361.189	14.34
361.4	2.05
361.611	8.19
361.823	43.01
362.034	28.67
362.245	-8.19
362.456	32.77
362.667	-20.48
362.879	77.82
363.09	-16.38
363.301	75.77
363.512	69.63
363.723	38.91
363.935	-8.19
364.146	34.82
364.357	12.29
364.568	36.86
364.779	45.06
364.99	8.19
365.201	75.77
365.412	53.25
365.623	10.24
365.834	90.11
366.045	67.58
366.256	102.4
366.467	20.48
366.678	22.53
366.889	102.4
367.1	96.25
367.311	16.38
367.522	-4.1
367.733	30.72
367.944	92.16
368.155	61.44
368.366	75.77
368.577	40.96
368.788	88.06
368.999	26.62
369.209	45.06
369.42	110.59
369.631	86.01
369.842	28.67
370.053	30.72
370.264	22.53
370.474	67.58
370.685	47.1
370.896	73.73
371.107	55.3
371.317	-8.19
371.528	53.25
371.739	71.68
371.95	-45.06
372.16	-26.62
372.371	12.29
372.582	38.91
372.792	-12.29
373.003	36.86
373.214	45.06
373.424	96.25
373.635	14.34
373.846	69.63
374.056	24.58
374.267	-34.82
374.477	65.54
374.688	40.96
374.898	12.29
375.109	53.25
375.319	55.3
375.53	92.16
375.74	69.63
375.951	-8.19
376.161	8.19
376.372	108.54
376.582	63.49
376.793	24.58
377.003	24.58
377.214	77.82
377.424	22.53
377.635	75.77
377.845	92.16
378.055	59.39
378.266	-8.19
378.476	43.01
378.686	75.77
378.897	55.3
379.107	6.14
379.317	69.63
379.528	81.92
379.738	34.82
379.948	49.15
380.158	92.16
380.369	81.92
380.579	102.4
380.789	49.15
380.999	36.86
381.21	75.77
381.42	-8.19
381.63	55.3
381.84	75.77
382.05	38.91
382.261	0
382.471	75.77
382.681	88.06
382.891	43.01
383.101	55.3
383.311	-30.72
383.521	12.29
383.731	61.44
383.941	36.86
384.151	2.05
384.361	6.14
384.571	4.1
384.781	-2.05
384.991	32.77
385.201	63.49
385.411	57.34
385.621	14.34
385.831	88.06
386.041	55.3
386.251	4.1
386.461	28.67
386.671	53.25
386.881	94.21
387.091	14.34
387.301	106.49
387.511	28.67
387.72	32.77
387.93	61.44
388.14	-22.53
388.35	43.01
388.56	20.48
388.769	34.82
388.979	102.4
389.189	32.77
389.399	8.19
389.609	30.72
389.818	38.91
390.028	28.67
390.238	71.68
390.447	14.34
390.657	83.97
390.867	12.29
391.076	12.29
391.286	75.77
391.496	67.58
391.705	57.34
391.915	67.58
392.125	83.97
392.334	16.38
392.544	114.69
392.753	20.48
392.963	28.67
393.172	61.44
393.382	-6.14
393.591	6.14
393.801	51.2
394.01	38.91
394.22	14.34
394.429	94.21
394.639	102.4
394.848	32.77
395.058	43.01
395.267	129.02
395.477	43.01
395.686	53.25
395.895	77.82
396.105	100.35
396.314	65.54
396.524	38.91
396.733	73.73
396.942	63.49
397.152	43.01
397.361	22.53
397.57	14.34
397.78	73.73
397.989	73.73
398.198	120.83
398.407	6.14
398.617	88.06
398.826	47.1
399.035	77.82
399.244	139.26
399.453	0
399.663	22.53
399.872	49.15
400.081	40.96
400.29	94.21
400.499	114.69
400.708	96.25
400.917	47.1
401.127	61.44
401.336	32.77
401.545	65.54
401.754	88.06
401.963	79.87
402.172	12.29
402.381	-26.62
402.59	65.54
402.799	55.3
403.008	67.58
403.217	172.03
403.426	49.15
403.635	55.3
403.844	26.62
404.053	53.25
404.262	137.21
404.471	106.49
404.68	63.49
404.888	133.12
405.097	51.2
405.306	57.34
405.515	79.87
405.724	71.68
405.933	47.1
406.142	133.12
406.35	55.3
406.559	141.31
406.768	110.59
406.977	210.94
407.185	133.12
407.394	126.97
407.603	86.01
407.812	182.27
408.02	83.97
408.229	159.74
408.438	133.12
408.646	143.36
408.855	100.35
409.064	135.17
409.272	88.06
409.481	88.06
409.69	169.98
409.898	172.03
410.107	157.69
410.315	165.89
410.524	133.12
410.733	161.79
410.941	180.22
411.15	215.04
411.358	208.89
411.567	243.71
411.775	215.04
411.984	157.69
412.192	243.71
412.401	294.91
412.609	219.13
412.818	325.63
413.026	290.81
413.234	186.37
413.443	342.01
413.651	260.09
413.86	290.81
414.068	299
414.276	366.59
414.485	292.86
414.693	485.37
414.901	364.54
415.11	339.96
415.318	356.35
415.526	413.69
415.734	438.27
415.943	450.55
416.151	444.41
416.359	450.55
416.567	483.32
416.776	415.74
416.984	497.66
417.192	626.68
417.4	532.47
417.608	550.9
417.817	546.81
418.025	522.23
418.233	673.78
418.441	567.29
418.649	698.36
418.857	692.21
419.065	729.08
419.273	657.4
419.481	708.6
419.689	729.08
419.897	811
420.105	821.24
420.313	874.48
420.521	800.76
420.729	858.1
420.937	862.19
421.145	937.97
421.353	946.16
421.561	1021.94
421.769	1066.99
421.977	1085.42
422.185	1048.56
422.393	1112.05
422.601	1232.88
422.809	1198.06
423.017	1275.88
423.224	1286.12
423.432	1298.41
423.64	1394.67
423.848	1400.81
424.056	1366
424.263	1466.35
424.471	1406.95
424.679	1552.36
424.887	1542.12
425.094	1650.66
425.302	1777.64
425.51	1615.85
425.718	1773.54
425.925	1679.33
426.133	1851.36
426.341	1953.76
426.548	2084.83
426.756	2066.4
426.964	1996.77
427.171	2240.48
427.379	2269.15
427.586	2310.11
427.794	2330.59
428.001	2453.47
428.209	2598.87
428.417	2607.06
428.624	2596.82
428.832	2660.31
429.039	2598.87
429.247	2564.06
429.454	2875.35
429.662	3069.91
429.869	2822.1
430.076	3153.87
430.284	3121.1
430.491	3149.78
430.699	3250.13
430.906	3166.16
431.114	3289.04
431.321	3413.96
431.528	3432.4
431.736	3813.32
431.943	3940.29
432.15	3862.47
432.358	3897.28
432.565	4048.83
432.772	4071.36
432.979	4229.06
433.187	4392.89
433.394	4470.72
433.601	4575.16
433.808	4833.21
434.016	4605.88
434.223	4911.03
434.43	5148.59
434.637	5138.35
434.844	5339.05
435.052	5445.55
435.259	5478.32
435.466	5572.52
435.673	5484.46
435.88	5875.62
436.087	6154.15
436.294	5982.12
436.501	5910.44
436.708	6098.85
436.915	6242.21
437.122	6463.39
437.329	6436.77
437.537	6729.63
437.743	6889.37
437.95	6844.31
438.157	7188.37
438.364	7272.34
438.571	7284.62
438.778	7331.73
438.985	7905.16
439.192	7815.05
439.399	7968.65
439.606	7970.69
439.813	8034.18
440.02	8879.99
440.227	8576.89
440.433	8531.84
440.64	8640.38
440.847	8843.13
441.054	8920.95
441.261	9523.05
441.467	9498.48
441.674	9623.41
441.881	9934.7
442.088	10028.9
442.294	9912.17
442.501	10288.99
442.708	10493.79
442.914	10936.15
443.121	11231.06
443.328	10665.82
443.534	11646.8
443.741	11257.68
443.948	11124.57
444.154	12033.86
444.361	12195.65
444.568	11939.66
444.774	12037.96
444.981	12420.93
445.187	12476.23
445.394	13098.81
445.6	12912.44
445.807	14262.05
446.013	13336.37
446.22	13528.88
446.426	14124.84
446.633	14077.74
446.839	14862.11
447.046	14280.49
447.252	14896.92
447.459	14948.12
447.665	14970.65
447.871	15666.96
448.078	16158.47
448.284	15605.52
448.491	16000.78
448.697	16566.02
448.903	16994.04
449.11	16776.96
449.316	16492.29
449.522	16893.69
449.728	17334.01
449.935	17676.02
450.141	17301.24
450.347	17753.84
450.553	17012.48
450.76	17342.2
450.966	18089.71
451.172	17772.27
451.378	18274.03
451.584	17823.47
451.791	18437.86
451.997	18022.12
452.203	18470.63
452.409	18296.55
452.615	18388.71
452.821	17477.37
453.027	17567.48
453.233	18026.22
453.44	17899.25
453.646	17626.87
453.852	18104.04
454.058	18308.84
454.264	17420.02
454.47	18050.8
454.676	17268.47
454.882	18171.63
455.088	16596.74
455.294	16582.4
455.5	16971.52
455.705	16948.99
455.911	16312.07
456.117	15765.26
456.323	15931.15
456.529	14845.73
456.735	15685.39
456.941	15343.38
457.147	15030.04
457.352	14448.42
457.558	14227.24
457.764	14389.03
457.97	14173.99
458.176	13541.17
458.381	13686.58
458.587	12887.87
458.793	12791.61
458.999	12212.04
459.204	13281.08
459.41	12885.82
459.616	12003.14
459.821	11827.02
460.027	12056.39
460.233	11767.63
460.438	11341.65
460.644	11233.11
460.85	10567.52
461.055	10512.22
461.261	10635.1
461.466	9658.22
461.672	9359.22
461.878	10098.53
462.083	9596.78
462.289	9357.17
462.494	9242.48
462.7	8947.58
462.905	8486.78
463.111	8931.19
463.316	8949.62
463.522	8757.11
463.727	8691.58
463.932	8763.26
464.138	8933.24
464.343	8775.55
464.549	8697.72
464.754	8789.88
464.959	8759.16
465.165	8513.41
465.37	8363.9
465.575	7939.97
465.781	8550.27
465.986	8499.07
466.191	8183.68
466.397	8046.47
466.602	7587.72
466.807	7944.07
467.012	7935.88
467.218	7800.71
467.423	7810.95
467.628	7724.94
467.833	8107.91
468.038	7817.1
468.244	7683.98
468.449	7831.43
468.654	7696.27
468.859	7657.36
469.064	7649.16
469.269	7282.58
469.474	7258
469.679	7313.3
469.885	7075.73
470.09	7387.02
470.295	7192.47
