Data from USB4F104151__184__13-59-06-770.txt Node

Date: Thu Mar 13 13:59:06 EDT 2025
User: louis
Spectrometer: USB4F10415
Trigger mode: 4
Integration Time (sec): 1.000000E-2
Scans to average: 1
Electric dark correction enabled: true
Nonlinearity correction enabled: false
Boxcar width: 0
XAxis mode: Wavelengths
Number of Pixels in Spectrum: 3648
>>>>>Begin Spectral Data<<<<<
178.204	-61.95
178.424	-61.95
178.644	-61.95
178.864	-39.42
179.084	3.58
179.304	42.5
179.524	-39.42
179.744	-27.14
179.964	28.16
180.184	-72.19
180.404	28.16
180.624	30.21
180.844	-8.7
181.064	-12.8
181.283	-33.28
181.503	-6.66
181.723	71.17
181.943	-70.14
182.163	19.97
182.383	34.3
182.602	17.92
182.822	-23.04
183.042	42.5
183.262	-8.7
183.482	-2.56
183.701	-10.75
183.921	7.68
184.141	-18.94
184.361	17.92
184.58	-2.56
184.8	79.36
185.02	-4.61
185.239	65.02
185.459	75.26
185.679	22.02
185.898	11.78
186.118	-41.47
186.338	-23.04
186.557	48.64
186.777	-2.56
186.997	46.59
187.216	44.54
187.436	56.83
187.655	83.45
187.875	56.83
188.095	42.5
188.314	93.69
188.534	5.63
188.753	15.87
188.973	-53.76
189.192	13.82
189.412	7.68
189.631	3.58
189.851	34.3
190.07	44.54
190.29	-23.04
190.509	-33.28
190.729	71.17
190.948	46.59
191.168	87.55
191.387	46.59
191.607	54.78
191.826	-37.38
192.045	9.73
192.265	13.82
192.484	75.26
192.704	75.26
192.923	85.5
193.142	79.36
193.362	34.3
193.581	62.98
193.8	28.16
194.02	24.06
194.239	3.58
194.458	44.54
194.678	-16.9
194.897	13.82
195.116	-8.7
195.335	50.69
195.555	48.64
195.774	-39.42
195.993	-6.66
196.212	22.02
196.432	22.02
196.651	5.63
196.87	75.26
197.089	67.07
197.308	5.63
197.528	-4.61
197.747	48.64
197.966	-25.09
198.185	-6.66
198.404	-72.19
198.623	-35.33
198.842	46.59
199.062	13.82
199.281	28.16
199.5	5.63
199.719	36.35
199.938	83.45
200.157	56.83
200.376	-61.95
200.595	15.87
200.814	30.21
201.033	30.21
201.252	62.98
201.471	44.54
201.69	30.21
201.909	60.93
202.128	7.68
202.347	32.26
202.566	-33.28
202.785	-6.66
203.004	17.92
203.223	83.45
203.442	85.5
203.661	-8.7
203.879	-35.33
204.098	126.46
204.317	-27.14
204.536	91.65
204.755	3.58
204.974	17.92
205.193	52.74
205.411	26.11
205.63	69.12
205.849	-6.66
206.068	-39.42
206.287	-53.76
206.505	62.98
206.724	-20.99
206.943	69.12
207.162	46.59
207.381	38.4
207.599	-8.7
207.818	34.3
208.037	-6.66
208.255	-10.75
208.474	26.11
208.693	7.68
208.911	-53.76
209.13	-49.66
209.349	38.4
209.567	-20.99
209.786	32.26
210.005	65.02
210.223	24.06
210.442	22.02
210.661	-4.61
210.879	24.06
211.098	32.26
211.316	11.78
211.535	5.63
211.753	40.45
211.972	15.87
212.191	-12.8
212.409	26.11
212.628	32.26
212.846	15.87
213.065	11.78
213.283	-12.8
213.502	-6.66
213.72	48.64
213.938	89.6
214.157	17.92
214.375	13.82
214.594	9.73
214.812	1.54
215.031	65.02
215.249	52.74
215.467	62.98
215.686	24.06
215.904	-0.51
216.122	-18.94
216.341	87.55
216.559	13.82
216.778	30.21
216.996	5.63
217.214	112.13
217.432	7.68
217.651	22.02
217.869	22.02
218.087	30.21
218.306	48.64
218.524	15.87
218.742	77.31
218.96	26.11
219.179	19.97
219.397	-18.94
219.615	101.89
219.833	24.06
220.051	40.45
220.27	32.26
220.488	-27.14
220.706	-6.66
220.924	79.36
221.142	48.64
221.36	9.73
221.578	7.68
221.796	-51.71
222.015	62.98
222.233	-31.23
222.451	-2.56
222.669	-29.18
222.887	56.83
223.105	-0.51
223.323	9.73
223.541	30.21
223.759	5.63
223.977	-31.23
224.195	71.17
224.413	32.26
224.631	-18.94
224.849	-12.8
225.067	-20.99
225.285	-0.51
225.503	15.87
225.721	-8.7
225.939	9.73
226.157	7.68
226.375	-2.56
226.592	13.82
226.81	-39.42
227.028	36.35
227.246	17.92
227.464	69.12
227.682	62.98
227.9	9.73
228.117	5.63
228.335	-29.18
228.553	28.16
228.771	24.06
228.989	3.58
229.206	26.11
229.424	52.74
229.642	13.82
229.86	38.4
230.077	36.35
230.295	5.63
230.513	-39.42
230.731	28.16
230.948	28.16
231.166	3.58
231.384	13.82
231.601	69.12
231.819	71.17
232.037	24.06
232.254	1.54
232.472	-25.09
232.689	-55.81
232.907	-0.51
233.125	9.73
233.342	15.87
233.56	-27.14
233.777	-10.75
233.995	42.5
234.213	69.12
234.43	-14.85
234.648	87.55
234.865	-20.99
235.083	44.54
235.3	-10.75
235.518	17.92
235.735	79.36
235.953	38.4
236.17	3.58
236.388	7.68
236.605	22.02
236.822	60.93
237.04	56.83
237.257	-2.56
237.475	40.45
237.692	34.3
237.909	7.68
238.127	13.82
238.344	13.82
238.562	1.54
238.779	62.98
238.996	38.4
239.214	22.02
239.431	54.78
239.648	54.78
239.865	42.5
240.083	83.45
240.3	54.78
240.517	71.17
240.735	42.5
240.952	44.54
241.169	32.26
241.386	89.6
241.603	69.12
241.821	13.82
242.038	22.02
242.255	36.35
242.472	17.92
242.689	9.73
242.907	19.97
243.124	-74.24
243.341	-18.94
243.558	-27.14
243.775	9.73
243.992	22.02
244.209	7.68
244.426	38.4
244.643	95.74
244.86	50.69
245.078	17.92
245.295	46.59
245.512	-4.61
245.729	19.97
245.946	32.26
246.163	30.21
246.38	46.59
246.597	-20.99
246.814	-29.18
247.031	30.21
247.248	52.74
247.464	93.69
247.681	58.88
247.898	-4.61
248.115	71.17
248.332	114.17
248.549	79.36
248.766	42.5
248.983	26.11
249.2	52.74
249.417	-6.66
249.633	22.02
249.85	46.59
250.067	50.69
250.284	-0.51
250.501	-27.14
250.717	42.5
250.934	-12.8
251.151	-27.14
251.368	-14.85
251.585	73.21
251.801	-2.56
252.018	-0.51
252.235	79.36
252.451	67.07
252.668	-35.33
252.885	62.98
253.102	54.78
253.318	32.26
253.535	13.82
253.752	44.54
253.968	-4.61
254.185	-8.7
254.401	-0.51
254.618	89.6
254.835	44.54
255.051	71.17
255.268	-35.33
255.484	17.92
255.701	28.16
255.917	3.58
256.134	-64
256.351	44.54
256.567	60.93
256.784	-12.8
257	17.92
257.217	77.31
257.433	24.06
257.65	60.93
257.866	22.02
258.082	-18.94
258.299	60.93
258.515	22.02
258.732	34.3
258.948	67.07
259.165	30.21
259.381	79.36
259.597	-14.85
259.814	-2.56
260.03	56.83
260.246	26.11
260.463	1.54
260.679	58.88
260.895	40.45
261.112	48.64
261.328	-29.18
261.544	-10.75
261.761	7.68
261.977	38.4
262.193	17.92
262.409	-8.7
262.626	52.74
262.842	50.69
263.058	7.68
263.274	38.4
263.49	38.4
263.707	3.58
263.923	28.16
264.139	-31.23
264.355	48.64
264.571	34.3
264.787	17.92
265.004	44.54
265.22	-23.04
265.436	42.5
265.652	-10.75
265.868	26.11
266.084	44.54
266.3	22.02
266.516	5.63
266.732	32.26
266.948	11.78
267.164	-4.61
267.38	42.5
267.596	5.63
267.812	-29.18
268.028	-14.85
268.244	83.45
268.46	26.11
268.676	13.82
268.892	110.08
269.108	22.02
269.324	15.87
269.54	24.06
269.756	38.4
269.972	46.59
270.188	116.22
270.403	-27.14
270.619	5.63
270.835	30.21
271.051	22.02
271.267	48.64
271.483	62.98
271.698	54.78
271.914	65.02
272.13	-18.94
272.346	50.69
272.562	9.73
272.777	132.61
272.993	46.59
273.209	42.5
273.425	118.27
273.64	62.98
273.856	5.63
274.072	-10.75
274.287	17.92
274.503	77.31
274.719	26.11
274.934	-20.99
275.15	-29.18
275.366	30.21
275.581	-35.33
275.797	1.54
276.012	58.88
276.228	56.83
276.444	54.78
276.659	58.88
276.875	95.74
277.09	-10.75
277.306	42.5
277.521	-6.66
277.737	79.36
277.952	46.59
278.168	7.68
278.383	48.64
278.599	-49.66
278.814	75.26
279.03	-10.75
279.245	30.21
279.461	42.5
279.676	56.83
279.892	30.21
280.107	-59.9
280.322	60.93
280.538	48.64
280.753	79.36
280.969	46.59
281.184	5.63
281.399	77.31
281.615	54.78
281.83	71.17
282.045	-53.76
282.26	15.87
282.476	9.73
282.691	22.02
282.906	-18.94
283.122	19.97
283.337	13.82
283.552	22.02
283.767	-23.04
283.983	58.88
284.198	30.21
284.413	15.87
284.628	24.06
284.843	40.45
285.058	42.5
285.274	48.64
285.489	87.55
285.704	-2.56
285.919	3.58
286.134	-6.66
286.349	9.73
286.564	9.73
286.779	79.36
286.995	13.82
287.21	-96.77
287.425	28.16
287.64	56.83
287.855	-4.61
288.07	15.87
288.285	46.59
288.5	7.68
288.715	32.26
288.93	-35.33
289.145	-23.04
289.36	83.45
289.575	79.36
289.79	85.5
290.004	30.21
290.219	83.45
290.434	54.78
290.649	-20.99
290.864	38.4
291.079	22.02
291.294	79.36
291.509	22.02
291.724	42.5
291.938	-25.09
292.153	95.74
292.368	38.4
292.583	110.08
292.798	7.68
293.012	28.16
293.227	85.5
293.442	26.11
293.657	54.78
293.871	36.35
294.086	58.88
294.301	48.64
294.516	62.98
294.73	38.4
294.945	62.98
295.16	26.11
295.374	-0.51
295.589	52.74
295.804	30.21
296.018	-23.04
296.233	42.5
296.447	28.16
296.662	65.02
296.877	75.26
297.091	11.78
297.306	-2.56
297.52	50.69
297.735	11.78
297.949	22.02
298.164	32.26
298.378	-18.94
298.593	48.64
298.807	44.54
299.022	38.4
299.236	52.74
299.451	-0.51
299.665	42.5
299.88	19.97
300.094	-45.57
300.309	-16.9
300.523	42.5
300.737	-0.51
300.952	62.98
301.166	22.02
301.381	81.41
301.595	-27.14
301.809	13.82
302.024	19.97
302.238	50.69
302.452	87.55
302.667	-61.95
302.881	13.82
303.095	73.21
303.309	15.87
303.524	-39.42
303.738	110.08
303.952	-0.51
304.166	22.02
304.381	17.92
304.595	52.74
304.809	30.21
305.023	77.31
305.237	7.68
305.452	46.59
305.666	71.17
305.88	79.36
306.094	-0.51
306.308	-10.75
306.522	65.02
306.736	73.21
306.95	19.97
307.164	-14.85
307.379	54.78
307.593	79.36
307.807	62.98
308.021	60.93
308.235	34.3
308.449	50.69
308.663	60.93
308.877	48.64
309.091	34.3
309.305	32.26
309.519	-70.14
309.733	-43.52
309.947	56.83
310.161	30.21
310.374	60.93
310.588	46.59
310.802	56.83
311.016	56.83
311.23	22.02
311.444	46.59
311.658	15.87
311.872	91.65
312.085	46.59
312.299	52.74
312.513	1.54
312.727	58.88
312.941	19.97
313.154	5.63
313.368	54.78
313.582	32.26
313.796	-18.94
314.009	116.22
314.223	32.26
314.437	38.4
314.651	93.69
314.864	-59.9
315.078	-0.51
315.292	85.5
315.505	40.45
315.719	69.12
315.933	28.16
316.146	79.36
316.36	50.69
316.573	13.82
316.787	71.17
317.001	54.78
317.214	-39.42
317.428	75.26
317.641	26.11
317.855	26.11
318.068	30.21
318.282	97.79
318.495	-12.8
318.709	-66.05
318.922	34.3
319.136	30.21
319.349	5.63
319.563	48.64
319.776	44.54
319.99	-6.66
320.203	9.73
320.417	101.89
320.63	32.26
320.843	50.69
321.057	1.54
321.27	15.87
321.483	87.55
321.697	-6.66
321.91	48.64
322.124	36.35
322.337	22.02
322.55	1.54
322.763	-0.51
322.977	17.92
323.19	28.16
323.403	19.97
323.617	5.63
323.83	114.17
324.043	44.54
324.256	62.98
324.469	58.88
324.683	97.79
324.896	17.92
325.109	52.74
325.322	9.73
325.535	5.63
325.748	97.79
325.962	-39.42
326.175	5.63
326.388	-2.56
326.601	28.16
326.814	-29.18
327.027	22.02
327.24	40.45
327.453	-10.75
327.666	1.54
327.879	28.16
328.092	17.92
328.305	26.11
328.518	-0.51
328.731	-0.51
328.944	13.82
329.157	32.26
329.37	67.07
329.583	50.69
329.796	46.59
330.009	-23.04
330.222	99.84
330.435	26.11
330.648	52.74
330.861	22.02
331.073	26.11
331.286	32.26
331.499	22.02
331.712	-8.7
331.925	-53.76
332.138	7.68
332.35	105.98
332.563	11.78
332.776	58.88
332.989	-33.28
333.202	103.93
333.414	69.12
333.627	87.55
333.84	28.16
334.053	-66.05
334.265	9.73
334.478	22.02
334.691	83.45
334.903	89.6
335.116	87.55
335.329	42.5
335.541	30.21
335.754	36.35
335.966	81.41
336.179	-88.57
336.392	48.64
336.604	3.58
336.817	34.3
337.029	3.58
337.242	69.12
337.454	5.63
337.667	56.83
337.88	114.17
338.092	-4.61
338.305	17.92
338.517	19.97
338.729	42.5
338.942	97.79
339.154	-31.23
339.367	13.82
339.579	5.63
339.792	3.58
340.004	83.45
340.217	46.59
340.429	48.64
340.641	32.26
340.854	-12.8
341.066	28.16
341.278	-16.9
341.491	9.73
341.703	22.02
341.915	-31.23
342.128	77.31
342.34	97.79
342.552	116.22
342.764	42.5
342.977	89.6
343.189	-39.42
343.401	71.17
343.613	42.5
343.826	46.59
344.038	79.36
344.25	1.54
344.462	7.68
344.674	95.74
344.886	24.06
345.099	13.82
345.311	50.69
345.523	95.74
345.735	-4.61
345.947	122.37
346.159	-18.94
346.371	32.26
346.583	5.63
346.795	67.07
347.007	28.16
347.219	54.78
347.431	77.31
347.643	62.98
347.855	-6.66
348.067	54.78
348.279	130.56
348.491	30.21
348.703	87.55
348.915	36.35
349.127	26.11
349.339	71.17
349.551	13.82
349.763	60.93
349.975	22.02
350.187	26.11
350.399	46.59
350.61	60.93
350.822	13.82
351.034	24.06
351.246	87.55
351.458	-37.38
351.669	15.87
351.881	69.12
352.093	13.82
352.305	65.02
352.517	40.45
352.728	79.36
352.94	48.64
353.152	91.65
353.363	32.26
353.575	58.88
353.787	67.07
353.999	50.69
354.21	95.74
354.422	87.55
354.633	48.64
354.845	13.82
355.057	-2.56
355.268	101.89
355.48	46.59
355.692	48.64
355.903	30.21
356.115	36.35
356.326	44.54
356.538	81.41
356.749	38.4
356.961	48.64
357.172	24.06
357.384	-18.94
357.595	48.64
357.807	48.64
358.018	11.78
358.23	11.78
358.441	32.26
358.653	11.78
358.864	24.06
359.075	65.02
359.287	44.54
359.498	99.84
359.709	79.36
359.921	-39.42
360.132	42.5
360.344	-12.8
360.555	-25.09
360.766	97.79
360.977	56.83
361.189	-35.33
361.4	26.11
361.611	46.59
361.823	67.07
362.034	42.5
362.245	17.92
362.456	-27.14
362.667	60.93
362.879	95.74
363.09	60.93
363.301	9.73
363.512	44.54
363.723	7.68
363.935	56.83
364.146	73.21
364.357	-80.38
364.568	110.08
364.779	65.02
364.99	67.07
365.201	-16.9
365.412	108.03
365.623	-16.9
365.834	120.32
366.045	46.59
366.256	69.12
366.467	93.69
366.678	5.63
366.889	-43.52
367.1	108.03
367.311	28.16
367.522	17.92
367.733	24.06
367.944	73.21
368.155	42.5
368.366	58.88
368.577	114.17
368.788	22.02
368.999	50.69
369.209	85.5
369.42	60.93
369.631	161.28
369.842	97.79
370.053	146.94
370.264	46.59
370.474	7.68
370.685	77.31
370.896	28.16
371.107	118.27
371.317	32.26
371.528	89.6
371.739	112.13
371.95	112.13
372.16	38.4
372.371	42.5
372.582	120.32
372.792	126.46
373.003	24.06
373.214	58.88
373.424	83.45
373.635	7.68
373.846	52.74
374.056	24.06
374.267	5.63
374.477	48.64
374.688	62.98
374.898	38.4
375.109	112.13
375.319	105.98
375.53	89.6
375.74	9.73
375.951	26.11
376.161	62.98
376.372	65.02
376.582	114.17
376.793	65.02
377.003	97.79
377.214	93.69
377.424	-43.52
377.635	-10.75
377.845	-6.66
378.055	56.83
378.266	-27.14
378.476	36.35
378.686	22.02
378.897	-47.62
379.107	36.35
379.317	56.83
379.528	5.63
379.738	54.78
379.948	26.11
380.158	40.45
380.369	97.79
380.579	58.88
380.789	32.26
380.999	11.78
381.21	97.79
381.42	108.03
381.63	122.37
381.84	67.07
382.05	46.59
382.261	79.36
382.471	114.17
382.681	112.13
382.891	30.21
383.101	30.21
383.311	-14.85
383.521	126.46
383.731	34.3
383.941	52.74
384.151	108.03
384.361	42.5
384.571	75.26
384.781	71.17
384.991	67.07
385.201	132.61
385.411	-68.09
385.621	38.4
385.831	71.17
386.041	34.3
386.251	36.35
386.461	87.55
386.671	60.93
386.881	91.65
387.091	77.31
387.301	62.98
387.511	-23.04
387.72	58.88
387.93	56.83
388.14	97.79
388.35	114.17
388.56	67.07
388.769	89.6
388.979	81.41
389.189	40.45
389.399	73.21
389.609	65.02
389.818	58.88
390.028	62.98
390.238	71.17
390.447	34.3
390.657	124.41
390.867	56.83
391.076	-33.28
391.286	140.8
391.496	28.16
391.705	65.02
391.915	85.5
392.125	114.17
392.334	79.36
392.544	108.03
392.753	73.21
392.963	34.3
393.172	67.07
393.382	54.78
393.591	54.78
393.801	136.7
394.01	114.17
394.22	67.07
394.429	69.12
394.639	50.69
394.848	79.36
395.058	56.83
395.267	34.3
395.477	65.02
395.686	99.84
395.895	91.65
396.105	42.5
396.314	138.75
396.524	91.65
396.733	24.06
396.942	120.32
397.152	32.26
397.361	89.6
397.57	99.84
397.78	69.12
397.989	62.98
398.198	103.93
398.407	114.17
398.617	132.61
398.826	122.37
399.035	75.26
399.244	103.93
399.453	91.65
399.663	112.13
399.872	83.45
400.081	126.46
400.29	144.89
400.499	85.5
400.708	95.74
400.917	114.17
401.127	138.75
401.336	95.74
401.545	103.93
401.754	91.65
401.963	122.37
402.172	114.17
402.381	91.65
402.59	116.22
402.799	179.71
403.008	110.08
403.217	155.13
403.426	130.56
403.635	148.99
403.844	97.79
404.053	81.41
404.262	108.03
404.471	165.37
404.68	79.36
404.888	71.17
405.097	77.31
405.306	241.15
405.515	175.61
405.724	159.23
405.933	136.7
406.142	118.27
406.35	169.47
406.559	210.43
406.768	214.52
406.977	216.57
407.185	235
407.394	148.99
407.603	140.8
407.812	142.85
408.02	128.51
408.229	196.09
408.438	185.85
408.646	202.24
408.855	206.33
409.064	226.81
409.272	237.05
409.481	273.92
409.69	185.85
409.898	253.44
410.107	286.2
410.315	253.44
410.524	267.77
410.733	280.06
410.941	288.25
411.15	368.12
411.358	366.07
411.567	296.44
411.775	323.07
411.984	321.02
412.192	427.51
412.401	402.94
412.609	419.32
412.818	456.19
413.026	439.8
413.234	374.27
413.443	546.3
413.651	468.47
413.86	501.24
414.068	568.82
414.276	531.96
414.485	566.78
414.693	564.73
414.901	579.06
415.11	648.69
415.318	599.54
415.526	736.76
415.734	720.37
415.943	722.42
416.151	693.75
416.359	728.56
416.567	749.04
416.776	833.01
416.984	826.87
417.192	830.96
417.4	851.44
417.608	953.84
417.817	1029.62
418.025	974.32
418.233	1027.57
418.441	1007.09
418.649	1041.9
418.857	1134.06
419.065	1146.35
419.273	1170.93
419.481	1138.16
419.689	1328.62
419.897	1361.39
420.105	1465.83
420.313	1398.25
420.521	1441.26
420.729	1465.83
420.937	1451.5
421.145	1578.47
421.353	1490.41
421.561	1820.13
421.769	1865.19
421.977	1914.34
422.185	1764.84
422.393	2043.36
422.601	2051.55
422.809	2037.22
423.017	2088.42
423.224	2127.33
423.432	2254.3
423.64	2233.82
423.848	2481.63
424.056	2405.85
424.263	2553.31
424.471	2588.12
424.679	2528.73
424.887	2704.85
425.094	2801.11
425.302	2864.6
425.51	2923.99
425.718	2936.28
425.925	3114.45
426.133	3044.82
426.341	3403.21
426.548	3388.88
426.756	3474.89
426.964	3526.09
427.171	3743.17
427.379	3724.74
427.586	4015.55
427.794	3935.68
428.001	4203.97
428.209	4285.89
428.417	4400.57
428.624	4775.35
428.832	4582.84
429.039	4533.69
429.247	4582.84
429.454	4953.52
429.662	5387.69
429.869	5070.26
430.076	5332.4
430.284	5223.86
430.491	5510.57
430.699	5899.69
430.906	5696.94
431.114	5713.32
431.321	6047.14
431.528	6073.76
431.736	6432.16
431.943	6628.76
432.15	6690.2
432.358	6792.6
432.565	6968.73
432.772	7067.03
432.979	7282.06
433.187	7499.15
433.394	7605.64
433.601	8043.91
433.808	8060.29
434.016	8140.16
434.223	8320.39
434.43	8932.73
434.637	8775.03
434.844	8961.4
435.052	9581.93
435.259	9299.31
435.466	9387.38
435.673	9420.14
435.88	9964.9
436.087	10286.44
436.294	10431.84
436.501	10171.75
436.708	10440.03
436.915	10992.98
437.122	11238.74
437.329	11228.5
437.537	11586.9
437.743	11765.07
437.95	11687.25
438.157	12156.23
438.364	12834.11
438.571	12588.35
438.778	12633.41
438.985	14062.89
439.192	13483.31
439.399	13825.33
439.606	13579.57
439.813	14234.92
440.02	15250.71
440.227	14964
440.433	15015.19
440.64	15219.99
440.847	15162.65
441.054	15645.97
441.261	16516.36
441.467	16504.07
441.674	16721.15
441.881	17167.61
442.088	17243.38
442.294	17009.92
442.501	17362.17
442.708	18142.44
442.914	18345.19
443.121	19338.46
443.328	18648.29
443.534	20339.91
443.741	19420.38
443.948	19381.46
444.154	20991.17
444.361	20683.97
444.568	20735.17
444.774	20845.76
444.981	21099.71
445.187	21810.36
445.394	22633.64
445.6	22252.72
445.807	24337.55
446.013	23194.78
446.22	23850.13
446.426	24605.83
446.633	25189.5
446.839	25797.75
447.046	24538.25
447.252	26160.24
447.459	26309.74
447.665	25828.47
447.871	27329.63
448.078	28376.14
448.284	26967.14
448.491	27841.62
448.697	28955.72
448.903	29625.4
449.11	29166.66
449.316	28970.05
449.522	29508.67
449.728	30331.95
449.935	30727.21
450.141	30434.35
450.347	31464.48
450.553	30340.15
450.76	30454.83
450.966	31294.5
451.172	31460.38
451.378	32052.25
451.584	30985.26
451.791	32166.93
451.997	32181.27
452.203	32351.25
452.409	32599.05
452.615	32211.99
452.821	31155.24
453.027	31132.71
453.233	32298
453.44	31257.64
453.646	31415.33
453.852	31935.51
454.058	32570.38
454.264	31378.47
454.47	31781.92
454.676	31028.26
454.882	32562.19
455.088	29475.9
455.294	29989.94
455.5	30620.72
455.705	30889
455.911	29566.01
456.117	28927.05
456.323	28572.75
456.529	26621.03
456.735	28058.71
456.941	27425.89
457.147	27008.1
457.352	26172.53
457.558	26037.36
457.764	25900.15
457.97	25508.99
458.176	25023.62
458.381	24921.22
458.587	23737.49
458.793	23772.31
458.999	22953.12
459.204	24011.92
459.41	23481.5
459.616	21814.45
459.821	22123.69
460.027	21992.62
460.233	21128.38
460.438	20552.9
460.644	20774.08
460.85	19573.97
461.055	19588.31
461.261	19324.12
461.466	18089.2
461.672	17368.31
461.878	18597.09
462.083	17659.12
462.289	17085.69
462.494	17276.15
462.7	16110.86
462.905	15811.85
463.111	16362.76
463.316	16708.87
463.522	15942.92
463.727	16127.24
463.932	15846.67
464.138	16055.56
464.343	16012.56
464.549	15521.04
464.754	15983.88
464.959	16004.36
465.165	15846.67
465.37	15219.99
465.575	14701.86
465.781	15086.87
465.986	15426.84
466.191	14761.25
466.397	14570.79
466.602	13790.51
466.807	14615.84
467.012	14400.8
467.218	14402.85
467.423	14011.69
467.628	14267.69
467.833	14900.51
468.038	14507.3
468.244	13770.03
