Data from USB4F104151__210__13-59-57-365.txt Node

Date: Thu Mar 13 13:59:57 EDT 2025
User: louis
Spectrometer: USB4F10415
Trigger mode: 4
Integration Time (sec): 1.000000E-2
Scans to average: 1
Electric dark correction enabled: true
Nonlinearity correction enabled: false
Boxcar width: 0
XAxis mode: Wavelengths
Number of Pixels in Spectrum: 3648
>>>>>Begin Spectral Data<<<<<
178.204	-74.07
178.424	-74.07
178.644	-74.07
178.864	-12.63
179.084	-31.06
179.304	28.33
179.524	-8.53
179.744	-29.01
179.964	18.09
180.184	-49.49
180.404	-29.01
180.624	11.95
180.844	46.76
181.064	28.33
181.283	30.38
181.503	-35.16
181.723	-12.63
181.943	-47.44
182.163	44.71
182.383	5.8
182.602	-18.77
182.822	100.01
183.042	3.75
183.262	26.28
183.482	5.8
183.701	48.81
183.921	-4.44
184.141	104.11
184.361	22.19
184.58	97.96
184.8	36.52
185.02	11.95
185.239	77.48
185.459	28.33
185.679	11.95
185.898	30.38
186.118	20.14
186.338	26.28
186.557	54.95
186.777	44.71
186.997	22.19
187.216	36.52
187.436	100.01
187.655	34.47
187.875	59.05
188.095	38.57
188.314	34.47
188.534	20.14
188.753	65.19
188.973	-18.77
189.192	-6.49
189.412	30.38
189.631	30.38
189.851	91.82
190.07	71.34
190.29	24.23
190.509	52.91
190.729	34.47
190.948	57
191.168	134.82
191.387	38.57
191.607	30.38
191.826	44.71
192.045	22.19
192.265	36.52
192.484	1.71
192.704	52.91
192.923	93.87
193.142	38.57
193.362	50.86
193.581	-41.3
193.8	54.95
194.02	59.05
194.239	73.39
194.458	28.33
194.678	44.71
194.897	42.67
195.116	1.71
195.335	50.86
195.555	16.04
195.774	54.95
195.993	26.28
196.212	9.9
196.432	44.71
196.651	20.14
196.87	20.14
197.089	63.15
197.308	-18.77
197.528	24.23
197.747	-0.34
197.966	11.95
198.185	42.67
198.404	26.28
198.623	63.15
198.842	-2.39
199.062	-43.35
199.281	32.43
199.5	26.28
199.719	-12.63
199.938	18.09
200.157	24.23
200.376	-24.92
200.595	20.14
200.814	83.63
201.033	-6.49
201.252	-4.44
201.471	59.05
201.69	-2.39
201.909	57
202.128	36.52
202.347	87.72
202.566	54.95
202.785	128.68
203.004	-41.3
203.223	36.52
203.442	-37.2
203.661	85.67
203.879	26.28
204.098	-24.92
204.317	69.29
204.536	110.25
204.755	63.15
204.974	32.43
205.193	-6.49
205.411	30.38
205.63	13.99
205.849	26.28
206.068	42.67
206.287	11.95
206.505	77.48
206.724	87.72
206.943	36.52
207.162	-12.63
207.381	75.43
207.599	28.33
207.818	-18.77
208.037	-35.16
208.255	-8.53
208.474	54.95
208.693	38.57
208.911	22.19
209.13	-4.44
209.349	46.76
209.567	20.14
209.786	61.1
210.005	-8.53
210.223	26.28
210.442	22.19
210.661	38.57
210.879	-35.16
211.098	63.15
211.316	-4.44
211.535	13.99
211.753	-24.92
211.972	138.92
212.191	32.43
212.409	-2.39
212.628	46.76
212.846	-45.4
213.065	106.15
213.283	38.57
213.502	-29.01
213.72	46.76
213.938	-22.87
214.157	7.85
214.375	24.23
214.594	32.43
214.812	61.1
215.031	48.81
215.249	1.71
215.467	30.38
215.686	-0.34
215.904	61.1
216.122	46.76
216.341	28.33
216.559	85.67
216.778	13.99
216.996	20.14
217.214	95.91
217.432	59.05
217.651	93.87
217.869	26.28
218.087	28.33
218.306	-8.53
218.524	69.29
218.742	59.05
218.96	67.24
219.179	16.04
219.397	-0.34
219.615	38.57
219.833	36.52
220.051	-8.53
220.27	34.47
220.488	9.9
220.706	63.15
220.924	24.23
221.142	-12.63
221.36	24.23
221.578	104.11
221.796	38.57
222.015	42.67
222.233	36.52
222.451	102.06
222.669	48.81
222.887	71.34
223.105	18.09
223.323	54.95
223.541	5.8
223.759	-20.82
223.977	34.47
224.195	7.85
224.413	-14.68
224.631	28.33
224.849	26.28
225.067	77.48
225.285	40.62
225.503	13.99
225.721	28.33
225.939	36.52
226.157	16.04
226.375	122.54
226.592	52.91
226.81	40.62
227.028	50.86
227.246	22.19
227.464	7.85
227.682	59.05
227.9	112.3
228.117	59.05
228.335	89.77
228.553	65.19
228.771	-33.11
228.989	-26.96
229.206	50.86
229.424	11.95
229.642	-35.16
229.86	18.09
230.077	63.15
230.295	46.76
230.513	-20.82
230.731	-8.53
230.948	34.47
231.166	100.01
231.384	50.86
231.601	77.48
231.819	67.24
232.037	83.63
232.254	40.62
232.472	73.39
232.689	-10.58
232.907	-35.16
233.125	11.95
233.342	73.39
233.56	20.14
233.777	61.1
233.995	1.71
234.213	34.47
234.43	7.85
234.648	63.15
234.865	13.99
235.083	-0.34
235.3	81.58
235.518	9.9
235.735	16.04
235.953	52.91
236.17	50.86
236.388	-12.63
236.605	42.67
236.822	11.95
237.04	65.19
237.257	32.43
237.475	20.14
237.692	69.29
237.909	24.23
238.127	13.99
238.344	16.04
238.562	13.99
238.779	-37.2
238.996	65.19
239.214	-12.63
239.431	-2.39
239.648	69.29
239.865	24.23
240.083	22.19
240.3	16.04
240.517	61.1
240.735	-0.34
240.952	81.58
241.169	38.57
241.386	40.62
241.603	61.1
241.821	13.99
242.038	13.99
242.255	69.29
242.472	44.71
242.689	-31.06
242.907	30.38
243.124	20.14
243.341	36.52
243.558	46.76
243.775	3.75
243.992	52.91
244.209	73.39
244.426	81.58
244.643	24.23
244.86	71.34
245.078	52.91
245.295	-26.96
245.512	69.29
245.729	5.8
245.946	34.47
246.163	-35.16
246.38	1.71
246.597	59.05
246.814	32.43
247.031	128.68
247.248	-31.06
247.464	93.87
247.681	-0.34
247.898	65.19
248.115	50.86
248.332	34.47
248.549	89.77
248.766	61.1
248.983	71.34
249.2	-33.11
249.417	71.34
249.633	46.76
249.85	38.57
250.067	28.33
250.284	50.86
250.501	13.99
250.717	52.91
250.934	40.62
251.151	93.87
251.368	26.28
251.585	104.11
251.801	63.15
252.018	67.24
252.235	77.48
252.451	-4.44
252.668	100.01
252.885	38.57
253.102	16.04
253.318	44.71
253.535	3.75
253.752	-29.01
253.968	20.14
254.185	-12.63
254.401	-2.39
254.618	36.52
254.835	9.9
255.051	69.29
255.268	-24.92
255.484	-4.44
255.701	57
255.917	32.43
256.134	85.67
256.351	136.87
256.567	-31.06
256.784	87.72
257	73.39
257.217	59.05
257.433	-4.44
257.65	69.29
257.866	28.33
258.082	63.15
258.299	79.53
258.515	81.58
258.732	1.71
258.948	106.15
259.165	42.67
259.381	85.67
259.597	71.34
259.814	40.62
260.03	-35.16
260.246	44.71
260.463	26.28
260.679	34.47
260.895	24.23
261.112	52.91
261.328	-29.01
261.544	-2.39
261.761	46.76
261.977	52.91
262.193	69.29
262.409	50.86
262.626	48.81
262.842	50.86
263.058	69.29
263.274	61.1
263.49	97.96
263.707	44.71
263.923	-35.16
264.139	104.11
264.355	16.04
264.571	-35.16
264.787	65.19
265.004	118.44
265.22	52.91
265.436	22.19
265.652	-16.73
265.868	34.47
266.084	91.82
266.3	11.95
266.516	34.47
266.732	26.28
266.948	20.14
267.164	11.95
267.38	-35.16
267.596	-6.49
267.812	-12.63
268.028	-4.44
268.244	36.52
268.46	83.63
268.676	11.95
268.892	42.67
269.108	32.43
269.324	-84.31
269.54	16.04
269.756	36.52
269.972	-4.44
270.188	50.86
270.403	48.81
270.619	57
270.835	-10.58
271.051	63.15
271.267	30.38
271.483	16.04
271.698	38.57
271.914	67.24
272.13	24.23
272.346	63.15
272.562	81.58
272.777	22.19
272.993	-2.39
273.209	71.34
273.425	40.62
273.64	112.3
273.856	32.43
274.072	46.76
274.287	40.62
274.503	20.14
274.719	-12.63
274.934	18.09
275.15	42.67
275.366	-35.16
275.581	50.86
275.797	69.29
276.012	59.05
276.228	50.86
276.444	5.8
276.659	1.71
276.875	-12.63
277.09	87.72
277.306	44.71
277.521	102.06
277.737	65.19
277.952	59.05
278.168	100.01
278.383	26.28
278.599	36.52
278.814	79.53
279.03	120.49
279.245	77.48
279.461	100.01
279.676	44.71
279.892	61.1
280.107	97.96
280.322	69.29
280.538	77.48
280.753	63.15
280.969	30.38
281.184	42.67
281.399	95.91
281.615	93.87
281.83	40.62
282.045	-8.53
282.26	16.04
282.476	54.95
282.691	40.62
282.906	36.52
283.122	13.99
283.337	38.57
283.552	26.28
283.767	67.24
283.983	77.48
284.198	24.23
284.413	36.52
284.628	-4.44
284.843	59.05
285.058	1.71
285.274	-2.39
285.489	61.1
285.704	46.76
285.919	44.71
286.134	73.39
286.349	-22.87
286.564	36.52
286.779	114.34
286.995	77.48
287.21	77.48
287.425	75.43
287.64	36.52
287.855	87.72
288.07	9.9
288.285	30.38
288.5	5.8
288.715	24.23
288.93	57
289.145	44.71
289.36	20.14
289.575	16.04
289.79	63.15
290.004	52.91
290.219	93.87
290.434	3.75
290.649	-14.68
290.864	20.14
291.079	67.24
291.294	20.14
291.509	73.39
291.724	11.95
291.938	-51.54
292.153	112.3
292.368	38.57
292.583	7.85
292.798	110.25
293.012	36.52
293.227	61.1
293.442	67.24
293.657	20.14
293.871	65.19
294.086	-14.68
294.301	9.9
294.516	85.67
294.73	20.14
294.945	-10.58
295.16	61.1
295.374	69.29
295.589	73.39
295.804	5.8
296.018	42.67
296.233	30.38
296.447	24.23
296.662	32.43
296.877	61.1
297.091	65.19
297.306	81.58
297.52	138.92
297.735	11.95
297.949	22.19
298.164	46.76
298.378	71.34
298.593	13.99
298.807	52.91
299.022	-18.77
299.236	42.67
299.451	22.19
299.665	75.43
299.88	-4.44
300.094	61.1
300.309	102.06
300.523	32.43
300.737	54.95
300.952	89.77
301.166	128.68
301.381	28.33
301.595	18.09
301.809	44.71
302.024	63.15
302.238	87.72
302.452	77.48
302.667	26.28
302.881	-10.58
303.095	93.87
303.309	61.1
303.524	13.99
303.738	52.91
303.952	50.86
304.166	11.95
304.381	-39.25
304.595	112.3
304.809	16.04
305.023	28.33
305.237	-26.96
305.452	77.48
305.666	-12.63
305.88	87.72
306.094	13.99
306.308	16.04
306.522	138.92
306.736	-24.92
306.95	40.62
307.164	16.04
307.379	34.47
307.593	95.91
307.807	57
308.021	102.06
308.235	46.76
308.449	1.71
308.663	71.34
308.877	110.25
309.091	13.99
309.305	7.85
309.519	44.71
309.733	42.67
309.947	40.62
310.161	44.71
310.374	46.76
310.588	65.19
310.802	57
311.016	22.19
311.23	24.23
311.444	79.53
311.658	3.75
311.872	112.3
312.085	79.53
312.299	48.81
312.513	112.3
312.727	57
312.941	-4.44
313.154	57
313.368	85.67
313.582	22.19
313.796	61.1
314.009	16.04
314.223	11.95
314.437	63.15
314.651	32.43
314.864	-16.73
315.078	7.85
315.292	13.99
315.505	57
315.719	11.95
315.933	32.43
316.146	77.48
316.36	40.62
316.573	7.85
316.787	52.91
317.001	24.23
317.214	24.23
317.428	52.91
317.641	52.91
317.855	128.68
318.068	52.91
318.282	73.39
318.495	147.11
318.709	93.87
318.922	75.43
319.136	32.43
319.349	61.1
319.563	52.91
319.776	46.76
319.99	36.52
320.203	57
320.417	89.77
320.63	50.86
320.843	11.95
321.057	108.2
321.27	36.52
321.483	65.19
321.697	36.52
321.91	54.95
322.124	57
322.337	61.1
322.55	106.15
322.763	13.99
322.977	26.28
323.19	3.75
323.403	36.52
323.617	79.53
323.83	73.39
324.043	61.1
324.256	44.71
324.469	63.15
324.683	75.43
324.896	132.78
325.109	52.91
325.322	79.53
325.535	26.28
325.748	20.14
325.962	81.58
326.175	97.96
326.388	65.19
326.601	-12.63
326.814	52.91
327.027	71.34
327.24	63.15
327.453	28.33
327.666	30.38
327.879	124.58
328.092	65.19
328.305	20.14
328.518	81.58
328.731	87.72
328.944	71.34
329.157	120.49
329.37	11.95
329.583	91.82
329.796	63.15
330.009	52.91
330.222	-29.01
330.435	52.91
330.648	73.39
330.861	16.04
331.073	48.81
331.286	114.34
331.499	77.48
331.712	63.15
331.925	30.38
332.138	79.53
332.35	81.58
332.563	81.58
332.776	36.52
332.989	52.91
333.202	46.76
333.414	42.67
333.627	18.09
333.84	77.48
334.053	16.04
334.265	13.99
334.478	26.28
334.691	-0.34
334.903	57
335.116	7.85
335.329	36.52
335.541	65.19
335.754	-12.63
335.966	63.15
336.179	77.48
336.392	102.06
336.604	71.34
336.817	26.28
337.029	110.25
337.242	48.81
337.454	-0.34
337.667	73.39
337.88	153.26
338.092	71.34
338.305	65.19
338.517	30.38
338.729	112.3
338.942	85.67
339.154	40.62
339.367	28.33
339.579	71.34
339.792	63.15
340.004	59.05
340.217	110.25
340.429	34.47
340.641	67.24
340.854	52.91
341.066	50.86
341.278	5.8
341.491	73.39
341.703	112.3
341.915	79.53
342.128	-10.58
342.34	30.38
342.552	83.63
342.764	100.01
342.977	36.52
343.189	52.91
343.401	69.29
343.613	11.95
343.826	22.19
344.038	106.15
344.25	34.47
344.462	28.33
344.674	59.05
344.886	44.71
345.099	102.06
345.311	83.63
345.523	97.96
345.735	40.62
345.947	130.73
346.159	38.57
346.371	100.01
346.583	61.1
346.795	18.09
347.007	75.43
347.219	5.8
347.431	59.05
347.643	63.15
347.855	79.53
348.067	-16.73
348.279	38.57
348.491	93.87
348.703	73.39
348.915	42.67
349.127	38.57
349.339	69.29
349.551	63.15
349.763	85.67
349.975	57
350.187	54.95
350.399	20.14
350.61	18.09
350.822	28.33
351.034	81.58
351.246	-24.92
351.458	89.77
351.669	44.71
351.881	67.24
352.093	67.24
352.305	38.57
352.517	136.87
352.728	34.47
352.94	108.2
353.152	42.67
353.363	22.19
353.575	42.67
353.787	46.76
353.999	100.01
354.21	120.49
354.422	83.63
354.633	44.71
354.845	59.05
355.057	114.34
355.268	50.86
355.48	71.34
355.692	24.23
355.903	108.2
356.115	93.87
356.326	65.19
356.538	93.87
356.749	97.96
356.961	73.39
357.172	36.52
357.384	50.86
357.595	128.68
357.807	110.25
358.018	95.91
358.23	52.91
358.441	97.96
358.653	52.91
358.864	67.24
359.075	28.33
359.287	93.87
359.498	130.73
359.709	63.15
359.921	151.21
360.132	95.91
360.344	28.33
360.555	26.28
360.766	44.71
360.977	-8.53
361.189	50.86
361.4	81.58
361.611	24.23
361.823	79.53
362.034	95.91
362.245	63.15
362.456	65.19
362.667	11.95
362.879	61.1
363.09	108.2
363.301	104.11
363.512	18.09
363.723	34.47
363.935	85.67
364.146	30.38
364.357	3.75
364.568	97.96
364.779	77.48
364.99	136.87
365.201	22.19
365.412	46.76
365.623	44.71
365.834	118.44
366.045	-2.39
366.256	145.06
366.467	79.53
366.678	46.76
366.889	73.39
367.1	3.75
367.311	83.63
367.522	48.81
367.733	44.71
367.944	85.67
368.155	87.72
368.366	79.53
368.577	65.19
368.788	73.39
368.999	40.62
369.209	63.15
369.42	9.9
369.631	87.72
369.842	46.76
370.053	52.91
370.264	48.81
370.474	79.53
370.685	7.85
370.896	85.67
371.107	102.06
371.317	130.73
371.528	-4.44
371.739	83.63
371.95	61.1
372.16	46.76
372.371	69.29
372.582	67.24
372.792	81.58
373.003	69.29
373.214	13.99
373.424	134.82
373.635	85.67
373.846	87.72
374.056	95.91
374.267	104.11
374.477	77.48
374.688	24.23
374.898	89.77
375.109	48.81
375.319	126.63
375.53	100.01
375.74	71.34
375.951	59.05
376.161	97.96
376.372	104.11
376.582	40.62
376.793	87.72
377.003	110.25
377.214	122.54
377.424	20.14
377.635	30.38
377.845	46.76
378.055	34.47
378.266	46.76
378.476	81.58
378.686	75.43
378.897	77.48
379.107	38.57
379.317	73.39
379.528	44.71
379.738	36.52
379.948	44.71
380.158	85.67
380.369	91.82
380.579	122.54
380.789	126.63
380.999	52.91
381.21	83.63
381.42	69.29
381.63	28.33
381.84	5.8
382.05	138.92
382.261	69.29
382.471	85.67
382.681	79.53
382.891	198.31
383.101	71.34
383.311	20.14
383.521	34.47
383.731	83.63
383.941	30.38
384.151	5.8
384.361	38.57
384.571	38.57
384.781	-6.49
384.991	75.43
385.201	69.29
385.411	71.34
385.621	85.67
385.831	167.59
386.041	85.67
386.251	93.87
386.461	77.48
386.671	97.96
386.881	95.91
387.091	52.91
387.301	173.74
387.511	89.77
387.72	100.01
387.93	163.5
388.14	44.71
388.35	95.91
388.56	77.48
388.769	126.63
388.979	69.29
389.189	79.53
389.399	73.39
389.609	126.63
389.818	97.96
390.028	122.54
390.238	122.54
390.447	100.01
390.657	75.43
390.867	89.77
391.076	120.49
391.286	69.29
391.496	91.82
391.705	73.39
391.915	104.11
392.125	71.34
392.334	116.39
392.544	112.3
392.753	155.3
392.963	69.29
393.172	93.87
393.382	52.91
393.591	159.4
393.801	175.78
394.01	71.34
394.22	77.48
394.429	69.29
394.639	24.23
394.848	128.68
395.058	122.54
395.267	130.73
395.477	79.53
395.686	52.91
395.895	71.34
396.105	161.45
396.314	108.2
396.524	110.25
396.733	79.53
396.942	118.44
397.152	67.24
397.361	169.64
397.57	122.54
397.78	116.39
397.989	112.3
398.198	110.25
398.407	140.97
398.617	77.48
398.826	124.58
399.035	151.21
399.244	126.63
399.453	151.21
399.663	134.82
399.872	157.35
400.081	153.26
400.29	155.3
400.499	89.77
400.708	165.54
400.917	151.21
401.127	181.93
401.336	140.97
401.545	239.27
401.754	93.87
401.963	122.54
402.172	130.73
402.381	124.58
402.59	226.98
402.799	85.67
403.008	112.3
403.217	183.98
403.426	194.22
403.635	177.83
403.844	192.17
404.053	163.5
404.262	202.41
404.471	165.54
404.68	188.07
404.888	143.02
405.097	167.59
405.306	183.98
405.515	163.5
405.724	245.41
405.933	261.8
406.142	204.46
406.35	274.09
406.559	210.6
406.768	267.94
406.977	241.32
407.185	239.27
407.394	274.09
407.603	249.51
407.812	294.57
408.02	229.03
408.229	257.7
408.438	286.37
408.646	296.61
408.855	214.7
409.064	290.47
409.272	345.77
409.481	388.77
409.69	358.05
409.898	370.34
410.107	319.14
410.315	452.26
410.524	380.58
410.733	394.92
410.941	390.82
411.15	390.82
411.358	454.31
411.567	599.71
411.775	485.03
411.984	528.03
412.192	511.65
412.401	489.12
412.609	554.66
412.818	581.28
413.026	595.62
413.234	620.19
413.443	687.78
413.651	642.72
413.86	718.5
414.068	784.03
414.276	716.45
414.485	788.13
414.693	767.65
414.901	763.55
415.11	761.5
415.318	902.81
415.526	833.18
415.734	814.75
415.943	970.4
416.151	906.91
416.359	1117.85
416.567	1044.12
416.776	1085.08
416.984	1144.47
417.192	1136.28
417.4	1177.24
417.608	1169.05
417.817	1244.82
418.025	1324.69
418.233	1468.05
418.441	1359.51
418.649	1373.85
418.857	1576.59
419.065	1476.24
419.273	1576.59
419.481	1619.6
419.689	1676.95
419.897	1603.22
420.105	1715.86
420.313	1799.82
420.521	1967.76
420.729	1961.61
420.937	2061.96
421.145	2154.12
421.353	2188.94
421.561	2209.42
421.769	2360.97
421.977	2320.01
422.185	2301.58
422.393	2496.13
422.601	2657.92
422.809	2557.57
423.017	2758.27
423.224	2875.01
423.432	2967.17
423.64	2936.45
423.848	3176.06
424.056	3290.74
424.263	3391.09
424.471	3423.86
424.679	3380.86
424.887	3749.49
425.094	3636.85
425.302	3767.92
425.51	3851.89
425.718	3923.57
425.925	3985.01
426.133	4218.47
426.341	4486.76
426.548	4716.13
426.756	4673.12
426.964	4808.29
427.171	4943.46
427.379	5092.96
427.586	5224.03
427.794	5318.23
428.001	5652.05
428.209	5826.13
428.417	5596.76
428.624	6166.09
428.832	6049.36
429.039	6139.47
429.247	6041.17
429.454	6592.07
429.662	6958.66
429.869	6692.42
430.076	7083.58
430.284	6862.4
430.491	7056.96
430.699	7560.76
430.906	7644.73
431.114	7716.4
431.321	7802.42
431.528	8037.94
431.736	8703.53
431.943	9068.06
432.15	8877.6
432.358	8834.6
432.565	9270.81
432.772	9154.08
432.979	9633.3
433.187	9946.64
433.394	9909.78
433.601	10755.59
433.808	10571.27
434.016	10645
434.223	11048.45
434.43	11531.77
434.637	11574.78
434.844	12090.87
435.052	12373.49
435.259	12246.51
435.466	12594.67
435.673	12391.92
435.88	13041.12
436.087	14003.67
436.294	13884.89
436.501	13637.08
436.708	13886.93
436.915	14317.01
437.122	15064.52
437.329	15029.7
437.537	15549.89
437.743	15582.65
437.95	15480.25
438.157	16172.47
438.364	17018.28
438.571	16860.59
438.778	17141.16
438.985	18439.57
439.192	17837.47
439.399	18498.96
439.606	17724.83
439.813	18853.26
440.02	19879.29
440.227	19764.61
440.433	19271.04
440.64	20045.18
440.847	19852.67
441.054	20333.94
441.261	21788
441.467	21493.09
441.674	22189.4
441.881	22912.33
442.088	22881.61
442.294	22465.88
442.501	23106.89
442.708	23563.59
442.914	24567.09
443.121	25584.93
443.328	25005.36
443.534	26805.52
443.741	25904.42
443.948	25580.84
444.154	27231.5
444.361	27288.84
444.568	27471.11
444.774	27282.7
444.981	27569.41
445.187	28495.1
445.394	29707.49
445.6	29265.13
445.807	32113.86
446.013	30684.37
446.22	31282.38
446.426	32584.89
446.633	32599.23
446.839	33703.08
447.046	32402.62
447.252	34102.43
447.459	34342.05
447.665	34514.08
447.871	35490.96
448.078	36902.01
448.284	35695.75
448.491	36336.77
448.697	38141.03
448.903	38089.83
449.11	38524
449.316	37747.82
449.522	38476.9
449.728	39394.39
449.935	39775.31
450.141	39828.55
450.347	40084.55
450.553	39248.98
450.76	39824.46
450.966	41290.8
451.172	40436.8
451.378	41663.53
451.584	40801.34
451.791	41729.07
451.997	42026.03
452.203	42654.75
452.409	42896.41
452.615	41802.8
452.821	40485.95
453.027	40557.63
453.233	42255.4
453.44	40684.61
453.646	41016.38
453.852	41212.98
454.058	42353.7
454.264	40580.16
454.47	41272.37
454.676	40438.85
454.882	41745.45
455.088	38231.14
455.294	38917.21
455.5	39380.05
455.705	40189
455.911	38280.29
456.117	37561.45
456.323	37002.36
456.529	34804.89
456.735	36482.17
456.941	35826.82
457.147	35130.51
457.352	34440.35
457.558	33776.81
457.764	34016.42
457.97	33035.44
458.176	32732.34
458.381	32562.36
458.587	31204.56
458.793	30579.93
458.999	29261.04
459.204	31464.65
459.41	30518.49
459.616	28456.18
459.821	28880.11
460.027	28689.65
460.233	28105.98
460.438	26471.7
460.644	26803.47
460.85	25726.24
461.055	25191.72
461.261	25042.22
461.466	23586.11
461.672	22656.34
461.878	24218.94
462.083	22732.11
462.289	22224.22
462.494	22105.43
462.7	21239.14
462.905	20481.39
463.111	21364.07
463.316	21470.56
463.522	20790.64
463.727	20862.32
463.932	20684.14
464.138	20559.22
464.343	20778.35
464.549	20051.32
464.754	20800.88
464.959	20737.39
465.165	20362.61
465.37	19565.95
465.575	19166.6
465.781	19723.65
465.986	20307.32
466.191	19234.18
466.397	19051.91
466.602	17972.63
466.807	18714
467.012	18615.69
467.218	18447.76
467.423	18347.41
