Data from USB4F104151__61__13-53-40-595.txt Node

Date: Thu Mar 13 13:53:40 EDT 2025
User: louis
Spectrometer: USB4F10415
Trigger mode: 4
Integration Time (sec): 1.000000E-2
Scans to average: 1
Electric dark correction enabled: true
Nonlinearity correction enabled: false
Boxcar width: 0
XAxis mode: Wavelengths
Number of Pixels in Spectrum: 3648
>>>>>Begin Spectral Data<<<<<
178.204	-93.35
178.424	-93.35
178.644	-93.35
178.864	-50.35
179.084	52.05
179.304	43.86
179.524	4.95
179.744	25.43
179.964	-48.3
180.184	-15.53
180.404	35.67
180.624	0.85
180.844	27.48
181.064	-5.29
181.283	-46.25
181.503	7
181.723	-29.87
181.943	-95.4
182.163	19.29
182.383	23.38
182.602	11.09
182.822	21.33
183.042	11.09
183.262	-9.39
183.482	66.39
183.701	-17.58
183.921	47.96
184.141	-13.48
184.361	15.19
184.58	72.53
184.8	37.72
185.02	-52.39
185.239	52.05
185.459	19.29
185.679	33.62
185.898	7
186.118	35.67
186.338	-13.48
186.557	-33.96
186.777	21.33
186.997	-23.72
187.216	45.91
187.436	62.29
187.655	39.76
187.875	21.33
188.095	21.33
188.314	-17.58
188.534	33.62
188.753	-31.91
188.973	-66.73
189.192	50
189.412	-17.58
189.631	41.81
189.851	17.24
190.07	31.57
190.29	4.95
190.509	33.62
190.729	68.44
190.948	-11.43
191.168	66.39
191.387	-9.39
191.607	19.29
191.826	9.05
192.045	-21.67
192.265	70.48
192.484	41.81
192.704	103.25
192.923	37.72
193.142	21.33
193.362	95.06
193.581	27.48
193.8	-13.48
194.02	66.39
194.239	35.67
194.458	60.24
194.678	-23.72
194.897	39.76
195.116	7
195.335	52.05
195.555	-15.53
195.774	4.95
195.993	50
196.212	27.48
196.432	52.05
196.651	25.43
196.87	-15.53
197.089	117.59
197.308	21.33
197.528	35.67
197.747	-33.96
197.966	-11.43
198.185	41.81
198.404	-46.25
198.623	-9.39
198.842	-9.39
199.062	43.86
199.281	41.81
199.5	17.24
199.719	41.81
199.938	-1.19
200.157	39.76
200.376	-56.49
200.595	0.85
200.814	35.67
201.033	35.67
201.252	-1.19
201.471	-15.53
201.69	-5.29
201.909	47.96
202.128	-15.53
202.347	-7.34
202.566	13.14
202.785	52.05
203.004	-15.53
203.223	31.57
203.442	-3.24
203.661	17.24
203.879	19.29
204.098	-5.29
204.317	-17.58
204.536	43.86
204.755	11.09
204.974	9.05
205.193	7
205.411	58.2
205.63	0.85
205.849	117.59
206.068	-21.67
206.287	-23.72
206.505	27.48
206.724	4.95
206.943	-36.01
207.162	56.15
207.381	0.85
207.599	25.43
207.818	4.95
208.037	-81.07
208.255	-5.29
208.474	17.24
208.693	60.24
208.911	-9.39
209.13	23.38
209.349	-1.19
209.567	62.29
209.786	76.63
210.005	4.95
210.223	-66.73
210.442	39.76
210.661	45.91
210.879	7
211.098	-29.87
211.316	-23.72
211.535	-38.06
211.753	-23.72
211.972	41.81
212.191	7
212.409	-9.39
212.628	-3.24
212.846	-5.29
213.065	93.01
213.283	27.48
213.502	50
213.72	50
213.938	9.05
214.157	58.2
214.375	-42.15
214.594	-46.25
214.812	13.14
215.031	27.48
215.249	43.86
215.467	-17.58
215.686	33.62
215.904	90.96
216.122	0.85
216.341	29.52
216.559	37.72
216.778	45.91
216.996	23.38
217.214	9.05
217.432	7
217.651	68.44
217.869	17.24
218.087	70.48
218.306	-31.91
218.524	15.19
218.742	23.38
218.96	-62.63
219.179	78.68
219.397	7
219.615	109.4
219.833	-13.48
220.051	31.57
220.27	62.29
220.488	-23.72
220.706	4.95
220.924	31.57
221.142	0.85
221.36	17.24
221.578	50
221.796	-29.87
222.015	31.57
222.233	-11.43
222.451	113.49
222.669	72.53
222.887	-3.24
223.105	-3.24
223.323	2.9
223.541	31.57
223.759	2.9
223.977	-9.39
224.195	31.57
224.413	19.29
224.631	41.81
224.849	13.14
225.067	56.15
225.285	99.16
225.503	-17.58
225.721	21.33
225.939	62.29
226.157	72.53
226.375	19.29
226.592	9.05
226.81	-1.19
227.028	68.44
227.246	41.81
227.464	60.24
227.682	41.81
227.9	52.05
228.117	39.76
228.335	2.9
228.553	39.76
228.771	17.24
228.989	15.19
229.206	56.15
229.424	39.76
229.642	-29.87
229.86	15.19
230.077	25.43
230.295	15.19
230.513	23.38
230.731	58.2
230.948	39.76
231.166	27.48
231.384	17.24
231.601	-36.01
231.819	31.57
232.037	76.63
232.254	29.52
232.472	21.33
232.689	21.33
232.907	25.43
233.125	62.29
233.342	54.1
233.56	-79.02
233.777	33.62
233.995	41.81
234.213	19.29
234.43	43.86
234.648	64.34
234.865	27.48
235.083	64.34
235.3	-5.29
235.518	0.85
235.735	17.24
235.953	0.85
236.17	52.05
236.388	35.67
236.605	37.72
236.822	68.44
237.04	-19.63
237.257	-13.48
237.475	-3.24
237.692	37.72
237.909	54.1
238.127	45.91
238.344	15.19
238.562	25.43
238.779	58.2
238.996	-11.43
239.214	60.24
239.431	50
239.648	66.39
239.865	23.38
240.083	97.11
240.3	-7.34
240.517	60.24
240.735	0.85
240.952	9.05
241.169	-13.48
241.386	-101.55
241.603	52.05
241.821	27.48
242.038	33.62
242.255	35.67
242.472	35.67
242.689	-36.01
242.907	47.96
243.124	-89.26
243.341	-31.91
243.558	-25.77
243.775	62.29
243.992	-5.29
244.209	-11.43
244.426	-27.82
244.643	0.85
244.86	9.05
245.078	33.62
245.295	-1.19
245.512	80.72
245.729	11.09
245.946	76.63
246.163	43.86
246.38	21.33
246.597	-50.35
246.814	54.1
247.031	27.48
247.248	9.05
247.464	31.57
247.681	52.05
247.898	45.91
248.115	33.62
248.332	-42.15
248.549	56.15
248.766	72.53
248.983	39.76
249.2	2.9
249.417	17.24
249.633	15.19
249.85	43.86
250.067	39.76
250.284	27.48
250.501	43.86
250.717	29.52
250.934	-23.72
251.151	0.85
251.368	11.09
251.585	64.34
251.801	54.1
252.018	-31.91
252.235	54.1
252.451	-3.24
252.668	60.24
252.885	11.09
253.102	-21.67
253.318	70.48
253.535	54.1
253.752	-25.77
253.968	21.33
254.185	70.48
254.401	72.53
254.618	-25.77
254.835	64.34
255.051	7
255.268	23.38
255.484	43.86
255.701	39.76
255.917	-9.39
256.134	54.1
256.351	111.44
256.567	-15.53
256.784	17.24
257	-7.34
257.217	78.68
257.433	74.58
257.65	47.96
257.866	72.53
258.082	4.95
258.299	-58.54
258.515	17.24
258.732	-11.43
258.948	27.48
259.165	4.95
259.381	-38.06
259.597	93.01
259.814	-7.34
260.03	-5.29
260.246	70.48
260.463	0.85
260.679	27.48
260.895	15.19
261.112	13.14
261.328	11.09
261.544	47.96
261.761	105.3
261.977	-27.82
262.193	37.72
262.409	43.86
262.626	31.57
262.842	43.86
263.058	27.48
263.274	45.91
263.49	-27.82
263.707	13.14
263.923	33.62
264.139	15.19
264.355	-3.24
264.571	11.09
264.787	-13.48
265.004	109.4
265.22	43.86
265.436	7
265.652	43.86
265.868	66.39
266.084	-3.24
266.3	17.24
266.516	29.52
266.732	52.05
266.948	37.72
267.164	76.63
267.38	93.01
267.596	82.77
267.812	11.09
268.028	-19.63
268.244	-11.43
268.46	9.05
268.676	56.15
268.892	-50.35
269.108	35.67
269.324	41.81
269.54	54.1
269.756	50
269.972	35.67
270.188	82.77
270.403	-29.87
270.619	70.48
270.835	35.67
271.051	-11.43
271.267	-9.39
271.483	35.67
271.698	41.81
271.914	62.29
272.13	66.39
272.346	-42.15
272.562	9.05
272.777	52.05
272.993	9.05
273.209	9.05
273.425	-52.39
273.64	25.43
273.856	0.85
274.072	0.85
274.287	-48.3
274.503	2.9
274.719	50
274.934	37.72
275.15	58.2
275.366	-44.2
275.581	11.09
275.797	39.76
276.012	39.76
276.228	54.1
276.444	52.05
276.659	4.95
276.875	2.9
277.09	25.43
277.306	-7.34
277.521	-5.29
277.737	-40.11
277.952	-15.53
278.168	23.38
278.383	23.38
278.599	-64.68
278.814	99.16
279.03	-13.48
279.245	60.24
279.461	11.09
279.676	23.38
279.892	64.34
280.107	88.92
280.322	15.19
280.538	82.77
280.753	-1.19
280.969	29.52
281.184	7
281.399	58.2
281.615	-33.96
281.83	47.96
282.045	56.15
282.26	52.05
282.476	-58.54
282.691	29.52
282.906	33.62
283.122	-11.43
283.337	56.15
283.552	2.9
283.767	-1.19
283.983	45.91
284.198	13.14
284.413	27.48
284.628	88.92
284.843	23.38
285.058	47.96
285.274	-13.48
285.489	-1.19
285.704	47.96
285.919	33.62
286.134	2.9
286.349	31.57
286.564	-5.29
286.779	-11.43
286.995	-13.48
287.21	21.33
287.425	43.86
287.64	11.09
287.855	-27.82
288.07	25.43
288.285	23.38
288.5	13.14
288.715	33.62
288.93	-29.87
289.145	-29.87
289.36	-3.24
289.575	70.48
289.79	31.57
290.004	52.05
290.219	39.76
290.434	4.95
290.649	13.14
290.864	4.95
291.079	2.9
291.294	4.95
291.509	58.2
291.724	19.29
291.938	21.33
292.153	0.85
292.368	0.85
292.583	41.81
292.798	-48.3
293.012	-21.67
293.227	-27.82
293.442	11.09
293.657	31.57
293.871	41.81
294.086	74.58
294.301	17.24
294.516	58.2
294.73	50
294.945	-54.44
295.16	15.19
295.374	82.77
295.589	60.24
295.804	2.9
296.018	82.77
296.233	50
296.447	31.57
296.662	-19.63
296.877	31.57
297.091	2.9
297.306	0.85
297.52	29.52
297.735	86.87
297.949	78.68
298.164	88.92
298.378	-1.19
298.593	78.68
298.807	35.67
299.022	11.09
299.236	70.48
299.451	68.44
299.665	-21.67
299.88	58.2
300.094	43.86
300.309	13.14
300.523	39.76
300.737	39.76
300.952	45.91
301.166	80.72
301.381	7
301.595	60.24
301.809	-21.67
302.024	4.95
302.238	0.85
302.452	64.34
302.667	37.72
302.881	37.72
303.095	-5.29
303.309	52.05
303.524	-56.49
303.738	11.09
303.952	21.33
304.166	2.9
304.381	29.52
304.595	111.44
304.809	95.06
305.023	50
305.237	-38.06
305.452	-27.82
305.666	-38.06
305.88	-9.39
306.094	11.09
306.308	0.85
306.522	86.87
306.736	11.09
306.95	84.82
307.164	-23.72
307.379	0.85
307.593	37.72
307.807	62.29
308.021	64.34
308.235	11.09
308.449	62.29
308.663	11.09
308.877	11.09
309.091	13.14
309.305	82.77
309.519	74.58
309.733	41.81
309.947	58.2
310.161	41.81
310.374	27.48
310.588	23.38
310.802	-50.35
311.016	54.1
311.23	-50.35
311.444	23.38
311.658	41.81
311.872	105.3
312.085	62.29
312.299	-1.19
312.513	60.24
312.727	47.96
312.941	13.14
313.154	27.48
313.368	2.9
313.582	58.2
313.796	-21.67
314.009	43.86
314.223	80.72
314.437	90.96
314.651	33.62
314.864	58.2
315.078	27.48
315.292	19.29
315.505	15.19
315.719	39.76
315.933	0.85
316.146	27.48
316.36	72.53
316.573	54.1
316.787	-19.63
317.001	56.15
317.214	-21.67
317.428	-64.68
317.641	-40.11
317.855	27.48
318.068	-3.24
318.282	-119.98
318.495	23.38
318.709	25.43
318.922	-17.58
319.136	88.92
319.349	17.24
319.563	31.57
319.776	-15.53
319.99	-31.91
320.203	9.05
320.417	58.2
320.63	105.3
320.843	62.29
321.057	37.72
321.27	2.9
321.483	109.4
321.697	-23.72
321.91	35.67
322.124	-19.63
322.337	7
322.55	37.72
322.763	107.35
322.977	50
323.19	158.55
323.403	19.29
323.617	90.96
323.83	78.68
324.043	33.62
324.256	56.15
324.469	7
324.683	-5.29
324.896	54.1
325.109	43.86
325.322	-31.91
325.535	58.2
325.748	11.09
325.962	50
326.175	-1.19
326.388	27.48
326.601	37.72
326.814	45.91
327.027	29.52
327.24	21.33
327.453	39.76
327.666	37.72
327.879	88.92
328.092	56.15
328.305	0.85
328.518	52.05
328.731	90.96
328.944	70.48
329.157	33.62
329.37	-15.53
329.583	-21.67
329.796	41.81
330.009	47.96
330.222	4.95
330.435	17.24
330.648	72.53
330.861	52.05
331.073	23.38
331.286	11.09
331.499	60.24
331.712	66.39
331.925	-9.39
332.138	-9.39
332.35	4.95
332.563	117.59
332.776	27.48
332.989	133.97
333.202	60.24
333.414	13.14
333.627	19.29
333.84	-11.43
334.053	27.48
334.265	45.91
334.478	60.24
334.691	13.14
334.903	17.24
335.116	80.72
335.329	50
335.541	-7.34
335.754	60.24
335.966	-62.63
336.179	56.15
336.392	-68.78
336.604	23.38
336.817	-7.34
337.029	47.96
337.242	-23.72
337.454	4.95
337.667	50
337.88	88.92
338.092	11.09
338.305	72.53
338.517	7
338.729	88.92
338.942	50
339.154	45.91
339.367	47.96
339.579	4.95
339.792	47.96
340.004	56.15
340.217	-38.06
340.429	37.72
340.641	-19.63
340.854	23.38
341.066	11.09
341.278	72.53
341.491	31.57
341.703	29.52
341.915	19.29
342.128	2.9
342.34	4.95
342.552	29.52
342.764	-1.19
342.977	21.33
343.189	52.05
343.401	7
343.613	-25.77
343.826	-25.77
344.038	2.9
344.25	19.29
344.462	21.33
344.674	-13.48
344.886	13.14
345.099	115.54
345.311	7
345.523	4.95
345.735	-48.3
345.947	41.81
346.159	-38.06
346.371	25.43
346.583	43.86
346.795	82.77
347.007	39.76
347.219	56.15
347.431	2.9
347.643	66.39
347.855	23.38
348.067	64.34
348.279	-3.24
348.491	43.86
348.703	62.29
348.915	-9.39
349.127	68.44
349.339	-27.82
349.551	88.92
349.763	80.72
349.975	-54.44
350.187	45.91
350.399	39.76
350.61	35.67
350.822	-21.67
351.034	35.67
351.246	76.63
351.458	-58.54
351.669	33.62
351.881	47.96
352.093	33.62
352.305	23.38
352.517	45.91
352.728	25.43
352.94	9.05
353.152	58.2
353.363	-9.39
353.575	-11.43
353.787	-44.2
353.999	86.87
354.21	58.2
354.422	78.68
354.633	-13.48
354.845	-38.06
355.057	45.91
355.268	-3.24
355.48	52.05
355.692	-15.53
355.903	11.09
356.115	0.85
356.326	-25.77
356.538	103.25
356.749	47.96
356.961	-1.19
357.172	-60.59
357.384	113.49
357.595	7
357.807	29.52
358.018	-44.2
358.23	52.05
358.441	74.58
358.653	-23.72
358.864	66.39
359.075	25.43
359.287	52.05
359.498	-5.29
359.709	21.33
359.921	23.38
360.132	76.63
360.344	17.24
360.555	-13.48
360.766	78.68
360.977	33.62
361.189	64.34
361.4	19.29
361.611	39.76
361.823	74.58
362.034	52.05
362.245	31.57
362.456	-36.01
362.667	68.44
362.879	-23.72
363.09	23.38
363.301	-13.48
363.512	70.48
363.723	66.39
363.935	11.09
364.146	-5.29
364.357	62.29
364.568	-13.48
364.779	-25.77
364.99	74.58
365.201	101.2
365.412	27.48
365.623	17.24
365.834	-3.24
366.045	-7.34
366.256	31.57
366.467	99.16
366.678	35.67
366.889	-62.63
367.1	86.87
367.311	45.91
367.522	39.76
367.733	7
367.944	4.95
368.155	-3.24
368.366	52.05
368.577	-1.19
368.788	33.62
368.999	43.86
369.209	9.05
369.42	31.57
369.631	86.87
369.842	31.57
370.053	-19.63
370.264	0.85
370.474	33.62
370.685	2.9
370.896	54.1
371.107	-3.24
371.317	52.05
371.528	33.62
371.739	4.95
371.95	15.19
372.16	9.05
372.371	-9.39
372.582	13.14
372.792	-50.35
373.003	66.39
373.214	2.9
373.424	19.29
373.635	-15.53
373.846	39.76
374.056	17.24
374.267	64.34
374.477	35.67
374.688	45.91
374.898	-7.34
375.109	-11.43
375.319	2.9
375.53	9.05
375.74	17.24
375.951	52.05
376.161	88.92
376.372	11.09
376.582	9.05
376.793	41.81
377.003	86.87
377.214	-5.29
377.424	-44.2
377.635	68.44
377.845	37.72
378.055	17.24
378.266	23.38
378.476	105.3
378.686	68.44
378.897	70.48
379.107	23.38
379.317	119.64
379.528	52.05
379.738	11.09
379.948	-23.72
380.158	90.96
380.369	62.29
380.579	19.29
380.789	60.24
380.999	93.01
381.21	54.1
381.42	17.24
381.63	-9.39
381.84	15.19
382.05	13.14
382.261	35.67
382.471	13.14
382.681	39.76
382.891	-5.29
383.101	86.87
383.311	41.81
383.521	97.11
383.731	56.15
383.941	86.87
384.151	-29.87
384.361	37.72
384.571	23.38
384.781	9.05
384.991	-3.24
385.201	9.05
385.411	27.48
385.621	37.72
385.831	-1.19
386.041	66.39
386.251	47.96
386.461	84.82
386.671	50
386.881	33.62
387.091	64.34
387.301	33.62
387.511	56.15
387.72	-7.34
387.93	74.58
388.14	56.15
388.35	41.81
388.56	125.78
388.769	9.05
388.979	9.05
389.189	33.62
389.399	105.3
389.609	39.76
389.818	43.86
390.028	15.19
390.238	74.58
390.447	-46.25
390.657	72.53
390.867	52.05
391.076	33.62
391.286	68.44
391.496	103.25
391.705	35.67
391.915	43.86
392.125	47.96
392.334	-11.43
392.544	90.96
392.753	4.95
392.963	52.05
393.172	113.49
393.382	-27.82
393.591	154.45
393.801	50
394.01	109.4
394.22	33.62
394.429	23.38
394.639	52.05
394.848	33.62
395.058	88.92
395.267	39.76
395.477	-27.82
395.686	47.96
395.895	133.97
396.105	113.49
396.314	21.33
396.524	54.1
396.733	64.34
396.942	35.67
397.152	88.92
397.361	109.4
397.57	88.92
397.78	15.19
397.989	68.44
398.198	33.62
398.407	66.39
398.617	62.29
398.826	84.82
399.035	31.57
399.244	82.77
399.453	80.72
399.663	33.62
399.872	68.44
400.081	76.63
400.29	72.53
400.499	-5.29
400.708	68.44
400.917	125.78
401.127	90.96
401.336	72.53
401.545	74.58
401.754	86.87
401.963	101.2
402.172	97.11
402.381	2.9
402.59	-1.19
402.799	76.63
403.008	129.88
403.217	11.09
403.426	21.33
403.635	76.63
403.844	54.1
404.053	4.95
404.262	56.15
404.471	121.68
404.68	37.72
404.888	35.67
405.097	80.72
405.306	97.11
405.515	86.87
405.724	103.25
405.933	140.12
406.142	131.92
406.35	31.57
406.559	43.86
406.768	72.53
406.977	117.59
407.185	103.25
407.394	11.09
407.603	127.83
407.812	66.39
408.02	123.73
408.229	146.26
408.438	64.34
408.646	101.2
408.855	142.16
409.064	189.27
409.272	129.88
409.481	60.24
409.69	164.69
409.898	203.6
410.107	133.97
410.315	121.68
410.524	205.65
410.733	166.74
410.941	181.07
411.15	170.83
411.358	211.79
411.567	232.27
411.775	203.6
411.984	205.65
412.192	162.64
412.401	219.99
412.609	258.9
412.818	256.85
413.026	283.47
413.234	262.99
413.443	242.51
413.651	277.33
413.86	281.43
414.068	312.14
414.276	330.58
414.485	306
414.693	303.95
414.901	363.34
415.11	379.73
415.318	373.58
415.526	383.82
415.734	457.55
415.943	475.98
416.151	435.02
416.359	428.88
416.567	473.93
416.776	439.12
416.984	490.32
417.192	557.9
417.4	502.61
417.608	498.51
417.817	586.57
418.025	600.91
418.233	594.76
418.441	607.05
418.649	672.59
418.857	691.02
419.065	746.31
419.273	629.58
419.481	682.83
419.689	774.99
419.897	756.55
420.105	713.55
420.313	842.57
420.521	863.05
420.729	891.72
420.937	891.72
421.145	949.06
421.353	1008.45
421.561	1071.94
421.769	1010.5
421.977	1084.23
422.185	1125.19
422.393	1162.05
422.601	1295.17
422.809	1295.17
423.017	1182.53
423.224	1286.98
423.432	1307.46
423.64	1360.7
423.848	1389.38
424.056	1465.15
424.263	1510.21
424.471	1487.68
424.679	1471.29
424.887	1540.93
425.094	1692.48
425.302	1639.23
425.51	1643.32
425.718	1786.68
425.925	1770.3
426.133	1899.32
426.341	1973.05
426.548	2065.21
426.756	2083.64
426.964	1989.43
427.171	2229.04
427.379	2304.82
427.586	2296.63
427.794	2356.02
428.001	2482.99
428.209	2646.83
428.417	2503.47
428.624	2667.31
428.832	2777.9
429.039	2603.82
429.247	2724.65
429.454	2960.17
429.662	3085.09
429.869	2884.39
430.076	3111.72
430.284	3148.58
430.491	3304.23
430.699	3410.72
430.906	3431.2
431.114	3453.73
431.321	3613.47
431.528	3695.39
431.736	3779.36
431.943	3869.47
432.15	4057.88
432.358	3955.48
432.565	4162.33
432.772	4154.13
432.979	4254.48
433.187	4430.61
433.394	4328.21
433.601	4774.67
433.808	4803.34
434.016	4727.57
434.223	4952.84
434.43	5186.31
434.637	5116.68
434.844	5507.84
435.052	5493.51
435.259	5417.73
435.466	5669.63
435.673	5446.4
435.88	5925.63
436.087	6230.77
436.294	6056.7
436.501	6087.42
436.708	6118.14
436.915	6509.3
437.122	6595.31
437.329	6796.01
437.537	7031.53
437.743	6896.36
437.95	6849.26
438.157	7359.21
438.364	7559.91
438.571	7527.14
438.778	7625.44
438.985	8149.72
439.192	7910.11
439.399	8325.85
439.606	8096.47
439.813	8405.72
440.02	8884.94
440.227	8962.76
440.433	8727.25
440.64	9011.92
440.847	8813.26
441.054	9147.08
441.261	9622.21
441.467	9611.97
441.674	9726.66
441.881	10136.25
442.088	10173.11
442.294	10273.46
442.501	10416.82
442.708	10556.08
442.914	10771.12
443.121	11432.61
443.328	10912.43
443.534	11860.64
443.741	11530.92
443.948	11305.64
444.154	12266.14
444.361	12282.52
444.568	12122.78
444.774	12247.71
444.981	12323.48
445.187	12776.08
445.394	13267.59
445.6	13116.05
445.807	14510.71
446.013	13724.29
446.22	13933.18
446.426	14436.99
446.633	14711.41
446.839	15123.05
447.046	14615.16
447.252	15260.27
447.459	15344.24
447.665	15090.29
447.871	16042.59
448.078	16695.89
448.284	15975.01
448.491	15952.48
448.697	16601.69
448.903	16917.08
449.11	17033.81
449.316	17121.87
449.522	16992.85
449.728	17703.5
449.935	17834.57
450.141	17889.86
450.347	18250.3
450.553	17431.12
450.76	17834.57
450.966	18416.19
451.172	18186.82
451.378	18688.57
451.584	18182.72
451.791	18698.81
451.997	18485.82
452.203	18717.24
452.409	19075.63
452.615	18694.71
452.821	17830.47
453.027	17588.81
453.233	18719.29
453.44	17916.48
453.646	18307.65
453.852	18045.51
454.058	18498.11
454.264	17896
454.47	18379.32
454.676	17828.42
454.882	18424.38
455.088	16745.05
455.294	16884.31
455.5	17226.32
455.705	17412.68
455.911	16501.34
456.117	16419.42
456.323	16067.17
456.529	15307.37
456.735	15878.76
456.941	15483.5
457.147	15002.22
457.352	14668.41
457.558	14647.93
457.764	14641.78
457.97	14453.37
458.176	13781.64
458.381	13914.75
458.587	13193.87
458.793	13228.68
458.999	12565.14
459.204	13609.61
459.41	13179.53
459.616	12047.01
459.821	12274.33
460.027	12210.84
460.233	11805.35
460.438	11256.49
460.644	11322.02
460.85	10879.66
461.055	10795.7
461.261	10787.5
461.466	10093.24
461.672	9618.11
461.878	10148.54
462.083	9714.37
462.289	9499.33
462.494	9331.4
462.7	9114.31
462.905	8743.63
463.111	9050.83
463.316	9263.82
463.522	8952.52
463.727	9063.12
463.932	8923.85
464.138	8714.96
464.343	8878.8
464.549	8747.73
464.754	8909.52
464.959	8739.54
465.165	8710.86
465.37	8471.25
465.575	8291.03
465.781	8587.99
465.986	8501.97
466.191	8395.48
466.397	8129.24
466.602	7666.4
466.807	7965.4
467.012	7992.03
467.218	8049.37
467.423	8098.52
467.628	7846.62
467.833	8452.82
468.038	8000.22
468.244	7887.58
468.449	8022.75
468.654	7942.88
468.859	7795.42
469.064	7613.15
469.269	7416.55
469.474	7420.64
469.679	7645.92
469.885	7344.87
470.09	7488.23
470.295	7586.53
470.5	7273.19
