Data from USB4F104151__259__14-01-41-944.txt Node

Date: Thu Mar 13 14:01:41 EDT 2025
User: louis
Spectrometer: USB4F10415
Trigger mode: 4
Integration Time (sec): 1.000000E-2
Scans to average: 1
Electric dark correction enabled: true
Nonlinearity correction enabled: false
Boxcar width: 0
XAxis mode: Wavelengths
Number of Pixels in Spectrum: 3648
>>>>>Begin Spectral Data<<<<<
178.204	-41.64
178.424	-41.64
178.644	-41.64
178.864	-43.69
179.084	-86.7
179.304	60.76
179.524	3.41
179.744	13.65
179.964	-12.97
180.184	40.28
180.404	-21.16
180.624	21.84
180.844	-64.17
181.064	-12.97
181.283	-39.59
181.503	-25.26
181.723	36.18
181.943	-72.36
182.163	68.95
182.383	-29.35
182.602	38.23
182.822	-0.68
183.042	11.61
183.262	-19.11
183.482	32.08
183.701	-25.26
183.921	87.38
184.141	5.46
184.361	62.8
184.58	13.65
184.8	-25.26
185.02	-21.16
185.239	-12.97
185.459	-2.73
185.679	11.61
185.898	27.99
186.118	-29.35
186.338	19.8
186.557	-2.73
186.777	13.65
186.997	-82.6
187.216	-29.35
187.436	5.46
187.655	-53.93
187.875	-19.11
188.095	7.51
188.314	-0.68
188.534	-2.73
188.753	11.61
188.973	-86.7
189.192	21.84
189.412	79.19
189.631	-8.87
189.851	-72.36
190.07	13.65
190.29	-27.31
190.509	-2.73
190.729	56.66
190.948	-19.11
191.168	-12.97
191.387	50.52
191.607	7.51
191.826	-23.21
192.045	-19.11
192.265	-25.26
192.484	-19.11
192.704	-8.87
192.923	-62.12
193.142	36.18
193.362	19.8
193.581	52.56
193.8	-10.92
194.02	32.08
194.239	-35.5
194.458	42.32
194.678	-0.68
194.897	-12.97
195.116	52.56
195.335	54.61
195.555	60.76
195.774	-43.69
195.993	13.65
196.212	11.61
196.432	-17.07
196.651	19.8
196.87	7.51
197.089	5.46
197.308	-78.51
197.528	25.94
197.747	3.41
197.966	-12.97
198.185	9.56
198.404	40.28
198.623	-15.02
198.842	52.56
199.062	56.66
199.281	71
199.5	48.47
199.719	32.08
199.938	-6.83
200.157	15.7
200.376	-49.83
200.595	52.56
200.814	-10.92
201.033	-4.78
201.252	52.56
201.471	46.42
201.69	21.84
201.909	-12.97
202.128	11.61
202.347	68.95
202.566	-29.35
202.785	64.85
203.004	-84.65
203.223	85.33
203.442	-29.35
203.661	3.41
203.879	-15.02
204.098	-66.22
204.317	-19.11
204.536	-0.68
204.755	-76.46
204.974	25.94
205.193	46.42
205.411	48.47
205.63	44.37
205.849	-10.92
206.068	-10.92
206.287	11.61
206.505	11.61
206.724	7.51
206.943	-47.79
207.162	21.84
207.381	-15.02
207.599	-4.78
207.818	11.61
208.037	62.8
208.255	13.65
208.474	11.61
208.693	-10.92
208.911	-8.87
209.13	21.84
209.349	54.61
209.567	-31.4
209.786	64.85
210.005	75.09
210.223	66.9
210.442	15.7
210.661	7.51
210.879	-27.31
211.098	5.46
211.316	-17.07
211.535	-21.16
211.753	-2.73
211.972	23.89
212.191	-35.5
212.409	-6.83
212.628	-58.03
212.846	11.61
213.065	17.75
213.283	-21.16
213.502	-37.55
213.72	7.51
213.938	11.61
214.157	81.24
214.375	-2.73
214.594	27.99
214.812	-10.92
215.031	-12.97
215.249	-21.16
215.467	13.65
215.686	-6.83
215.904	44.37
216.122	-12.97
216.341	99.67
216.559	-78.51
216.778	-12.97
216.996	46.42
217.214	7.51
217.432	-33.45
217.651	-6.83
217.869	-2.73
218.087	-29.35
218.306	68.95
218.524	-12.97
218.742	-33.45
218.96	60.76
219.179	-55.98
219.397	-45.74
219.615	13.65
219.833	11.61
220.051	-10.92
220.27	9.56
220.488	-21.16
220.706	23.89
220.924	-0.68
221.142	-12.97
221.36	30.04
221.578	-19.11
221.796	34.13
222.015	44.37
222.233	5.46
222.451	3.41
222.669	21.84
222.887	-21.16
223.105	89.43
223.323	3.41
223.541	-80.55
223.759	36.18
223.977	-8.87
224.195	64.85
224.413	52.56
224.631	54.61
224.849	23.89
225.067	36.18
225.285	-72.36
225.503	-10.92
225.721	-43.69
225.939	-27.31
226.157	-6.83
226.375	17.75
226.592	40.28
226.81	-62.12
227.028	103.76
227.246	11.61
227.464	-0.68
227.682	-43.69
227.9	54.61
228.117	-21.16
228.335	40.28
228.553	81.24
228.771	-31.4
228.989	-17.07
229.206	103.76
229.424	38.23
229.642	-51.88
229.86	-58.03
230.077	27.99
230.295	46.42
230.513	17.75
230.731	-0.68
230.948	48.47
231.166	1.37
231.384	85.33
231.601	-6.83
231.819	30.04
232.037	13.65
232.254	-29.35
232.472	25.94
232.689	32.08
232.907	27.99
233.125	60.76
233.342	85.33
233.56	-53.93
233.777	52.56
233.995	30.04
234.213	71
234.43	-31.4
234.648	-12.97
234.865	5.46
235.083	-29.35
235.3	-17.07
235.518	30.04
235.735	116.05
235.953	36.18
236.17	36.18
236.388	-17.07
236.605	-43.69
236.822	-70.31
237.04	56.66
237.257	-64.17
237.475	-25.26
237.692	60.76
237.909	50.52
238.127	-21.16
238.344	-29.35
238.562	-4.78
238.779	-35.5
238.996	-47.79
239.214	3.41
239.431	-33.45
239.648	36.18
239.865	21.84
240.083	44.37
240.3	-12.97
240.517	15.7
240.735	7.51
240.952	11.61
241.169	38.23
241.386	-12.97
241.603	7.51
241.821	15.7
242.038	36.18
242.255	-12.97
242.472	3.41
242.689	62.8
242.907	44.37
243.124	32.08
243.341	-0.68
243.558	11.61
243.775	40.28
243.992	66.9
244.209	-19.11
244.426	-39.59
244.643	83.28
244.86	-10.92
245.078	11.61
245.295	-53.93
245.512	46.42
245.729	-41.64
245.946	60.76
246.163	13.65
246.38	68.95
246.597	-2.73
246.814	19.8
247.031	-2.73
247.248	-33.45
247.464	-70.31
247.681	23.89
247.898	-27.31
248.115	11.61
248.332	3.41
248.549	-10.92
248.766	32.08
248.983	58.71
249.2	7.51
249.417	-0.68
249.633	-21.16
249.85	54.61
250.067	60.76
250.284	60.76
250.501	-10.92
250.717	36.18
250.934	-10.92
251.151	25.94
251.368	1.37
251.585	60.76
251.801	30.04
252.018	13.65
252.235	48.47
252.451	50.52
252.668	-35.5
252.885	9.56
253.102	52.56
253.318	-4.78
253.535	44.37
253.752	-92.84
253.968	15.7
254.185	-17.07
254.401	44.37
254.618	15.7
254.835	19.8
255.051	30.04
255.268	19.8
255.484	15.7
255.701	44.37
255.917	21.84
256.134	-17.07
256.351	91.48
256.567	-21.16
256.784	-45.74
257	19.8
257.217	77.14
257.433	-0.68
257.65	48.47
257.866	7.51
258.082	5.46
258.299	-8.87
258.515	-35.5
258.732	36.18
258.948	27.99
259.165	60.76
259.381	11.61
259.597	19.8
259.814	3.41
260.03	25.94
260.246	50.52
260.463	40.28
260.679	48.47
260.895	46.42
261.112	21.84
261.328	-6.83
261.544	-4.78
261.761	58.71
261.977	103.76
262.193	-62.12
262.409	3.41
262.626	-33.45
262.842	13.65
263.058	40.28
263.274	-62.12
263.49	60.76
263.707	68.95
263.923	5.46
264.139	34.13
264.355	30.04
264.571	-27.31
264.787	-27.31
265.004	27.99
265.22	-6.83
265.436	40.28
265.652	-6.83
265.868	25.94
266.084	38.23
266.3	19.8
266.516	23.89
266.732	19.8
266.948	-8.87
267.164	9.56
267.38	21.84
267.596	120.15
267.812	-41.64
268.028	11.61
268.244	7.51
268.46	-35.5
268.676	23.89
268.892	48.47
269.108	-2.73
269.324	50.52
269.54	3.41
269.756	66.9
269.972	-2.73
270.188	32.08
270.403	-17.07
270.619	75.09
270.835	3.41
271.051	-47.79
271.267	-4.78
271.483	7.51
271.698	-53.93
271.914	-4.78
272.13	-10.92
272.346	-6.83
272.562	40.28
272.777	42.32
272.993	68.95
273.209	-66.22
273.425	50.52
273.64	27.99
273.856	-21.16
274.072	11.61
274.287	13.65
274.503	21.84
274.719	13.65
274.934	46.42
275.15	81.24
275.366	-6.83
275.581	13.65
275.797	11.61
276.012	-47.79
276.228	-43.69
276.444	32.08
276.659	36.18
276.875	-21.16
277.09	-12.97
277.306	-12.97
277.521	52.56
277.737	-21.16
277.952	-19.11
278.168	-49.83
278.383	-53.93
278.599	11.61
278.814	46.42
279.03	13.65
279.245	23.89
279.461	48.47
279.676	-4.78
279.892	-8.87
280.107	-2.73
280.322	-12.97
280.538	64.85
280.753	3.41
280.969	93.52
281.184	-33.45
281.399	83.28
281.615	25.94
281.83	5.46
282.045	-0.68
282.26	-10.92
282.476	42.32
282.691	9.56
282.906	32.08
283.122	32.08
283.337	44.37
283.552	-21.16
283.767	3.41
283.983	21.84
284.198	42.32
284.413	36.18
284.628	58.71
284.843	27.99
285.058	23.89
285.274	-21.16
285.489	64.85
285.704	97.62
285.919	46.42
286.134	-23.21
286.349	50.52
286.564	44.37
286.779	5.46
286.995	11.61
287.21	-60.07
287.425	44.37
287.64	3.41
287.855	66.9
288.07	7.51
288.285	19.8
288.5	56.66
288.715	111.96
288.93	21.84
289.145	-10.92
289.36	-6.83
289.575	5.46
289.79	68.95
290.004	15.7
290.219	75.09
290.434	13.65
290.649	46.42
290.864	23.89
291.079	11.61
291.294	13.65
291.509	66.9
291.724	11.61
291.938	-6.83
292.153	52.56
292.368	-4.78
292.583	83.28
292.798	-12.97
293.012	5.46
293.227	3.41
293.442	34.13
293.657	-47.79
293.871	89.43
294.086	48.47
294.301	3.41
294.516	11.61
294.73	23.89
294.945	7.51
295.16	13.65
295.374	-10.92
295.589	-4.78
295.804	7.51
296.018	-10.92
296.233	44.37
296.447	-51.88
296.662	5.46
296.877	-25.26
297.091	38.23
297.306	46.42
297.52	-70.31
297.735	11.61
297.949	44.37
298.164	60.76
298.378	27.99
298.593	21.84
298.807	-12.97
299.022	38.23
299.236	9.56
299.451	36.18
299.665	56.66
299.88	-2.73
300.094	40.28
300.309	40.28
300.523	27.99
300.737	19.8
300.952	11.61
301.166	38.23
301.381	-19.11
301.595	-12.97
301.809	101.72
302.024	97.62
302.238	-17.07
302.452	5.46
302.667	58.71
302.881	77.14
303.095	-6.83
303.309	9.56
303.524	25.94
303.738	-10.92
303.952	-17.07
304.166	5.46
304.381	25.94
304.595	87.38
304.809	30.04
305.023	21.84
305.237	-2.73
305.452	60.76
305.666	40.28
305.88	3.41
306.094	38.23
306.308	44.37
306.522	-4.78
306.736	21.84
306.95	-25.26
307.164	13.65
307.379	-0.68
307.593	7.51
307.807	27.99
308.021	15.7
308.235	48.47
308.449	54.61
308.663	-84.65
308.877	36.18
309.091	-0.68
309.305	11.61
309.519	64.85
309.733	56.66
309.947	-10.92
310.161	7.51
310.374	68.95
310.588	27.99
310.802	-19.11
311.016	-2.73
311.23	-4.78
311.444	58.71
311.658	3.41
311.872	30.04
312.085	11.61
312.299	32.08
312.513	32.08
312.727	21.84
312.941	-29.35
313.154	-19.11
313.368	-2.73
313.582	11.61
313.796	-19.11
314.009	46.42
314.223	-27.31
314.437	3.41
314.651	52.56
314.864	17.75
315.078	73.04
315.292	-6.83
315.505	25.94
315.719	48.47
315.933	23.89
316.146	9.56
316.36	46.42
316.573	-12.97
316.787	-8.87
317.001	11.61
317.214	19.8
317.428	38.23
317.641	-15.02
317.855	-4.78
318.068	3.41
318.282	68.95
318.495	52.56
318.709	-21.16
318.922	3.41
319.136	-41.64
319.349	42.32
319.563	23.89
319.776	23.89
319.99	11.61
320.203	-60.07
320.417	58.71
320.63	-12.97
320.843	46.42
321.057	7.51
321.27	-17.07
321.483	36.18
321.697	5.46
321.91	13.65
322.124	-10.92
322.337	60.76
322.55	-8.87
322.763	27.99
322.977	9.56
323.19	1.37
323.403	11.61
323.617	-8.87
323.83	19.8
324.043	7.51
324.256	48.47
324.469	11.61
324.683	-0.68
324.896	-4.78
325.109	7.51
325.322	7.51
325.535	11.61
325.748	73.04
325.962	-21.16
326.175	17.75
326.388	48.47
326.601	56.66
326.814	19.8
327.027	-29.35
327.24	27.99
327.453	-12.97
327.666	38.23
327.879	50.52
328.092	56.66
328.305	5.46
328.518	23.89
328.731	19.8
328.944	3.41
329.157	-21.16
329.37	-21.16
329.583	38.23
329.796	60.76
330.009	11.61
330.222	-6.83
330.435	15.7
330.648	19.8
330.861	32.08
331.073	-8.87
331.286	48.47
331.499	-6.83
331.712	17.75
331.925	73.04
332.138	32.08
332.35	27.99
332.563	3.41
332.776	27.99
332.989	81.24
333.202	79.19
333.414	38.23
333.627	-43.69
333.84	19.8
334.053	-12.97
334.265	1.37
334.478	50.52
334.691	30.04
334.903	-0.68
335.116	62.8
335.329	1.37
335.541	54.61
335.754	44.37
335.966	77.14
336.179	54.61
336.392	68.95
336.604	36.18
336.817	42.32
337.029	27.99
337.242	101.72
337.454	21.84
337.667	-2.73
337.88	7.51
338.092	5.46
338.305	1.37
338.517	-103.08
338.729	40.28
338.942	-21.16
339.154	-8.87
339.367	32.08
339.579	21.84
339.792	36.18
340.004	34.13
340.217	3.41
340.429	5.46
340.641	-2.73
340.854	-19.11
341.066	46.42
341.278	68.95
341.491	25.94
341.703	83.28
341.915	-12.97
342.128	52.56
342.34	17.75
342.552	-31.4
342.764	-12.97
342.977	85.33
343.189	23.89
343.401	52.56
343.613	23.89
343.826	118.1
344.038	34.13
344.25	-2.73
344.462	-33.45
344.674	38.23
344.886	-27.31
345.099	9.56
345.311	15.7
345.523	-4.78
345.735	19.8
345.947	-8.87
346.159	91.48
346.371	64.85
346.583	68.95
346.795	111.96
347.007	3.41
347.219	-80.55
347.431	9.56
347.643	-2.73
347.855	-2.73
348.067	58.71
348.279	32.08
348.491	52.56
348.703	75.09
348.915	27.99
349.127	52.56
349.339	-6.83
349.551	-45.74
349.763	44.37
349.975	30.04
350.187	11.61
350.399	77.14
350.61	-39.59
350.822	19.8
351.034	46.42
351.246	7.51
351.458	77.14
351.669	27.99
351.881	71
352.093	27.99
352.305	9.56
352.517	93.52
352.728	9.56
352.94	109.91
353.152	66.9
353.363	42.32
353.575	19.8
353.787	-25.26
353.999	46.42
354.21	27.99
354.422	23.89
354.633	5.46
354.845	-0.68
355.057	21.84
355.268	36.18
355.48	64.85
355.692	32.08
355.903	66.9
356.115	73.04
356.326	-10.92
356.538	52.56
356.749	73.04
356.961	111.96
357.172	-8.87
357.384	27.99
357.595	-37.55
357.807	-21.16
358.018	-58.03
358.23	13.65
358.441	-15.02
358.653	54.61
358.864	-41.64
359.075	30.04
359.287	-23.21
359.498	30.04
359.709	81.24
359.921	3.41
360.132	48.47
360.344	13.65
360.555	58.71
360.766	77.14
360.977	-39.59
361.189	50.52
361.4	25.94
361.611	-78.51
361.823	-35.5
362.034	93.52
362.245	-41.64
362.456	79.19
362.667	-17.07
362.879	5.46
363.09	71
363.301	9.56
363.512	-8.87
363.723	36.18
363.935	58.71
364.146	54.61
364.357	50.52
364.568	44.37
364.779	36.18
364.99	27.99
365.201	13.65
365.412	-12.97
365.623	-25.26
365.834	-29.35
366.045	42.32
366.256	-23.21
366.467	5.46
366.678	50.52
366.889	93.52
367.1	56.66
367.311	48.47
367.522	46.42
367.733	77.14
367.944	-25.26
368.155	-4.78
368.366	-41.64
368.577	114
368.788	32.08
368.999	23.89
369.209	85.33
369.42	52.56
369.631	44.37
369.842	3.41
370.053	79.19
370.264	11.61
370.474	93.52
370.685	27.99
370.896	44.37
371.107	52.56
371.317	48.47
371.528	17.75
371.739	87.38
371.95	62.8
372.16	93.52
372.371	3.41
372.582	54.61
372.792	-41.64
373.003	23.89
373.214	40.28
373.424	13.65
373.635	-0.68
373.846	36.18
374.056	-37.55
374.267	109.91
374.477	-6.83
374.688	19.8
374.898	30.04
375.109	27.99
375.319	46.42
375.53	-2.73
375.74	5.46
375.951	21.84
376.161	36.18
376.372	101.72
376.582	32.08
376.793	23.89
377.003	95.57
377.214	-35.5
377.424	36.18
377.635	73.04
377.845	-33.45
378.055	46.42
378.266	34.13
378.476	85.33
378.686	36.18
378.897	-2.73
379.107	15.7
379.317	48.47
379.528	-23.21
379.738	75.09
379.948	1.37
380.158	23.89
380.369	42.32
380.579	-4.78
380.789	42.32
380.999	27.99
381.21	11.61
381.42	142.68
381.63	32.08
381.84	-51.88
382.05	32.08
382.261	79.19
382.471	44.37
382.681	93.52
382.891	52.56
383.101	-8.87
383.311	75.09
383.521	15.7
383.731	9.56
383.941	25.94
384.151	-4.78
384.361	-10.92
384.571	-12.97
384.781	48.47
384.991	23.89
385.201	36.18
385.411	42.32
385.621	81.24
385.831	23.89
386.041	58.71
386.251	40.28
386.461	30.04
386.671	64.85
386.881	11.61
387.091	40.28
387.301	40.28
387.511	-76.46
387.72	52.56
387.93	-0.68
388.14	11.61
388.35	56.66
388.56	66.9
388.769	52.56
388.979	68.95
389.189	7.51
389.399	40.28
389.609	5.46
389.818	15.7
390.028	-12.97
390.238	-4.78
390.447	19.8
390.657	44.37
390.867	5.46
391.076	5.46
391.286	36.18
391.496	23.89
391.705	17.75
391.915	138.58
392.125	-53.93
392.334	68.95
392.544	23.89
392.753	3.41
392.963	11.61
393.172	25.94
393.382	11.61
393.591	60.76
393.801	-8.87
394.01	-10.92
394.22	-2.73
394.429	23.89
394.639	48.47
394.848	103.76
395.058	-10.92
395.267	68.95
395.477	34.13
395.686	-29.35
395.895	58.71
396.105	36.18
396.314	52.56
396.524	77.14
396.733	56.66
396.942	-6.83
397.152	107.86
397.361	-4.78
397.57	36.18
397.78	140.63
397.989	46.42
398.198	134.48
398.407	40.28
398.617	124.24
398.826	52.56
399.035	99.67
399.244	9.56
399.453	124.24
399.663	48.47
399.872	132.44
400.081	87.38
400.29	128.34
400.499	85.33
400.708	48.47
400.917	79.19
401.127	64.85
401.336	50.52
401.545	85.33
401.754	1.37
401.963	138.58
402.172	62.8
402.381	9.56
402.59	81.24
402.799	93.52
403.008	48.47
403.217	101.72
403.426	120.15
403.635	116.05
403.844	93.52
404.053	34.13
404.262	62.8
404.471	81.24
404.68	99.67
404.888	109.91
405.097	64.85
405.306	144.72
405.515	73.04
405.724	136.53
405.933	73.04
406.142	134.48
406.35	107.86
406.559	169.3
406.768	85.33
406.977	212.31
407.185	126.29
407.394	204.11
407.603	130.39
407.812	183.63
408.02	187.73
408.229	101.72
408.438	218.45
408.646	193.87
408.855	193.87
409.064	99.67
409.272	208.21
409.481	216.4
409.69	240.98
409.898	216.4
410.107	283.98
410.315	197.97
410.524	236.88
410.733	296.27
410.941	191.83
411.15	228.69
411.358	283.98
411.567	216.4
411.775	302.42
411.984	298.32
412.192	288.08
412.401	275.79
412.609	281.94
412.818	413.01
413.026	398.67
413.234	333.14
413.443	374.1
413.651	320.85
413.86	388.43
414.068	464.21
414.276	478.54
414.485	435.53
414.693	480.59
414.901	521.55
415.11	521.55
415.318	501.07
415.526	490.83
415.734	470.35
415.943	490.83
416.151	544.08
416.359	685.39
416.567	671.05
416.776	654.67
416.984	705.87
417.192	781.64
417.4	732.49
417.608	724.3
417.817	658.76
418.025	787.79
418.233	748.87
418.441	734.54
418.649	906.57
418.857	855.37
419.065	972.1
419.273	931.14
419.481	980.29
419.689	1060.17
419.897	1031.49
420.105	1127.75
420.313	1158.47
420.521	1174.85
420.729	1232.19
420.937	1295.68
421.145	1250.63
421.353	1393.98
421.561	1305.92
421.769	1324.35
421.977	1387.84
422.185	1436.99
422.393	1604.92
422.601	1574.21
422.809	1654.08
423.017	1713.47
423.224	1774.91
423.432	1908.02
423.64	1871.16
423.848	1895.74
424.056	1908.02
424.263	2014.52
424.471	2182.45
424.679	2086.2
424.887	2176.31
425.094	2217.27
425.302	2282.8
425.51	2334
425.718	2288.95
425.925	2563.37
426.133	2512.17
426.341	2620.72
426.548	2880.81
426.756	2897.19
426.964	2895.15
427.171	3093.8
427.379	3083.56
427.586	3208.48
427.794	3099.94
428.001	3335.46
428.209	3433.76
428.417	3407.14
428.624	3700
428.832	3925.27
429.039	3745.05
429.247	3620.13
429.454	3999
429.662	4265.24
429.869	3841.31
430.076	4357.39
430.284	4287.76
430.491	4343.06
430.699	4486.42
430.906	4613.39
431.114	4713.74
431.321	4994.31
431.528	5033.22
431.736	5354.76
431.943	5508.35
432.15	5295.36
432.358	5571.84
432.565	5768.45
432.772	5623.04
432.979	6046.97
433.187	6118.65
433.394	6266.1
433.601	6575.34
433.808	6685.94
434.016	6477.04
434.223	6929.64
434.43	7138.54
434.637	7118.06
434.844	7458.02
435.052	7619.81
435.259	7636.19
435.466	7736.54
435.673	7730.4
435.88	8080.6
436.087	8553.68
436.294	8574.16
436.501	8340.69
436.708	8482
436.915	9030.86
437.122	9194.7
437.329	9026.76
437.537	9456.84
437.743	9663.68
437.95	9563.33
438.157	10095.8
438.364	10116.28
438.571	10400.95
438.778	10304.7
438.985	11205.8
439.192	10833.07
439.399	11224.23
439.606	11076.78
439.813	11343.02
440.02	12375.19
440.227	12086.43
440.433	12170.4
440.64	12246.17
440.847	12283.03
441.054	12559.51
441.261	13591.69
441.467	13255.82
441.674	13554.82
441.881	14113.92
442.088	13988.99
442.294	13763.72
442.501	14177.4
442.708	14412.92
442.914	15178.86
443.121	15760.48
443.328	15125.61
443.534	16428.12
443.741	15703.14
443.948	15830.12
444.154	16913.49
444.361	16682.07
444.568	16931.92
444.774	16657.5
444.981	16845.91
445.187	17407.05
445.394	18050.11
445.6	17898.56
445.807	19704.87
446.013	18627.64
446.22	19094.58
446.426	19770.41
446.633	20233.25
446.839	20909.08
447.046	19958.82
447.252	21255.18
447.459	21130.26
447.665	20974.61
447.871	21855.24
448.078	22803.45
448.284	21957.64
448.491	22262.79
448.697	23297.01
448.903	23643.12
449.11	23804.91
449.316	23380.98
449.522	23530.48
449.728	24325.09
449.935	24484.83
450.141	24409.06
450.347	25086.93
450.553	24339.43
450.76	24191.97
450.966	25344.98
451.172	25017.3
451.378	25891.79
451.584	25005.02
451.791	25592.78
451.997	25641.93
452.203	26137.54
452.409	26090.44
452.615	25992.14
452.821	24765.4
453.027	24865.75
453.233	26110.92
453.44	24734.68
453.646	25553.87
453.852	25430.99
454.058	25656.27
454.264	24902.62
454.47	25535.44
454.676	24826.84
454.882	25734.09
455.088	23677.93
455.294	23872.49
455.5	23809
455.705	24411.1
455.911	23192.56
456.117	22778.87
456.323	22653.95
456.529	21552.14
456.735	22279.17
456.941	21873.67
457.147	21675.02
457.352	20747.29
457.558	20466.72
457.764	20562.97
457.97	20225.06
458.176	19588.14
458.381	19926.05
458.587	18887.73
458.793	18592.83
458.999	17970.24
459.204	19213.36
459.41	18566.2
459.616	17321.04
459.821	17558.6
460.027	17345.61
460.233	16962.64
460.438	16127.07
460.644	16174.17
460.85	15670.37
461.055	15301.74
461.261	15443.05
461.466	14111.87
461.672	13935.74
461.878	14705.78
462.083	13812.87
462.289	13442.18
462.494	13483.14
462.7	12653.72
462.905	12690.58
463.111	12670.1
463.316	12981.39
463.522	12876.94
463.727	12418.2
463.932	12756.11
464.138	12592.28
464.343	12846.23
464.549	12307.61
464.754	12680.34
464.959	12455.06
465.165	12520.6
465.37	11945.12
465.575	11656.36
465.781	12299.42
465.986	12201.12
466.191	11629.73
466.397	11461.8
466.602	10837.17
466.807	11547.81
467.012	11447.46
467.218	11324.58
467.423	11156.65
467.628	11109.55
467.833	11687.07
