Data from USB4F104151__3__13-52-05-866.txt Node

Date: Thu Mar 13 13:52:05 EDT 2025
User: louis
Spectrometer: USB4F10415
Trigger mode: 4
Integration Time (sec): 1.000000E-2
Scans to average: 1
Electric dark correction enabled: true
Nonlinearity correction enabled: false
Boxcar width: 0
XAxis mode: Wavelengths
Number of Pixels in Spectrum: 3648
>>>>>Begin Spectral Data<<<<<
178.204	50
178.424	50
178.644	50
178.864	-54.44
179.084	-27.82
179.304	-46.25
179.524	-21.67
179.744	-21.67
179.964	27.48
180.184	70.48
180.404	19.29
180.624	-56.49
180.844	31.57
181.064	-58.54
181.283	76.63
181.503	-54.44
181.723	33.62
181.943	-31.91
182.163	11.09
182.383	21.33
182.602	15.19
182.822	56.15
183.042	-52.39
183.262	-13.48
183.482	82.77
183.701	7
183.921	-13.48
184.141	-17.58
184.361	-9.39
184.58	-19.63
184.8	7
185.02	80.72
185.239	60.24
185.459	17.24
185.679	76.63
185.898	15.19
186.118	19.29
186.338	56.15
186.557	78.68
186.777	33.62
186.997	-9.39
187.216	2.9
187.436	41.81
187.655	-23.72
187.875	62.29
188.095	31.57
188.314	-25.77
188.534	-1.19
188.753	-3.24
188.973	-13.48
189.192	25.43
189.412	7
189.631	37.72
189.851	-3.24
190.07	-5.29
190.29	35.67
190.509	50
190.729	-40.11
190.948	39.76
191.168	52.05
191.387	13.14
191.607	21.33
191.826	45.91
192.045	0.85
192.265	19.29
192.484	52.05
192.704	17.24
192.923	35.67
193.142	70.48
193.362	68.44
193.581	-13.48
193.8	60.24
194.02	27.48
194.239	11.09
194.458	15.19
194.678	-9.39
194.897	-23.72
195.116	84.82
195.335	9.05
195.555	23.38
195.774	82.77
195.993	47.96
196.212	-44.2
196.432	27.48
196.651	21.33
196.87	70.48
197.089	7
197.308	35.67
197.528	-31.91
197.747	-19.63
197.966	39.76
198.185	27.48
198.404	-40.11
198.623	37.72
198.842	62.29
199.062	0.85
199.281	31.57
199.5	-25.77
199.719	101.2
199.938	58.2
200.157	-15.53
200.376	62.29
200.595	-1.19
200.814	17.24
201.033	7
201.252	-40.11
201.471	41.81
201.69	43.86
201.909	50
202.128	56.15
202.347	64.34
202.566	-25.77
202.785	90.96
203.004	25.43
203.223	56.15
203.442	-54.44
203.661	-46.25
203.879	105.3
204.098	11.09
204.317	2.9
204.536	39.76
204.755	11.09
204.974	101.2
205.193	11.09
205.411	25.43
205.63	66.39
205.849	62.29
206.068	9.05
206.287	23.38
206.505	7
206.724	-13.48
206.943	64.34
207.162	-3.24
207.381	60.24
207.599	29.52
207.818	58.2
208.037	29.52
208.255	2.9
208.474	-5.29
208.693	-38.06
208.911	66.39
209.13	-1.19
209.349	29.52
209.567	86.87
209.786	66.39
210.005	80.72
210.223	27.48
210.442	-72.87
210.661	31.57
210.879	-5.29
211.098	31.57
211.316	78.68
211.535	86.87
211.753	-66.73
211.972	19.29
212.191	54.1
212.409	105.3
212.628	9.05
212.846	-25.77
213.065	21.33
213.283	-9.39
213.502	56.15
213.72	95.06
213.938	23.38
214.157	2.9
214.375	62.29
214.594	76.63
214.812	33.62
215.031	58.2
215.249	-3.24
215.467	-52.39
215.686	54.1
215.904	0.85
216.122	-15.53
216.341	23.38
216.559	45.91
216.778	52.05
216.996	9.05
217.214	31.57
217.432	0.85
217.651	-40.11
217.869	-13.48
218.087	58.2
218.306	47.96
218.524	43.86
218.742	27.48
218.96	31.57
219.179	25.43
219.397	66.39
219.615	27.48
219.833	60.24
220.051	13.14
220.27	47.96
220.488	56.15
220.706	80.72
220.924	-29.87
221.142	0.85
221.36	31.57
221.578	13.14
221.796	72.53
222.015	76.63
222.233	11.09
222.451	33.62
222.669	17.24
222.887	50
223.105	13.14
223.323	82.77
223.541	-48.3
223.759	72.53
223.977	60.24
224.195	37.72
224.413	80.72
224.631	27.48
224.849	-7.34
225.067	33.62
225.285	-13.48
225.503	7
225.721	76.63
225.939	101.2
226.157	52.05
226.375	68.44
226.592	-17.58
226.81	-11.43
227.028	35.67
227.246	-38.06
227.464	29.52
227.682	68.44
227.9	7
228.117	54.1
228.335	-23.72
228.553	-13.48
228.771	23.38
228.989	99.16
229.206	103.25
229.424	43.86
229.642	43.86
229.86	43.86
230.077	31.57
230.295	-50.35
230.513	37.72
230.731	-31.91
230.948	58.2
231.166	39.76
231.384	43.86
231.601	31.57
231.819	74.58
232.037	54.1
232.254	15.19
232.472	0.85
232.689	-36.01
232.907	-9.39
233.125	13.14
233.342	23.38
233.56	4.95
233.777	-1.19
233.995	11.09
234.213	31.57
234.43	19.29
234.648	13.14
234.865	-19.63
235.083	74.58
235.3	0.85
235.518	4.95
235.735	31.57
235.953	95.06
236.17	21.33
236.388	58.2
236.605	43.86
236.822	23.38
237.04	2.9
237.257	27.48
237.475	-9.39
237.692	17.24
237.909	25.43
238.127	43.86
238.344	43.86
238.562	78.68
238.779	0.85
238.996	-7.34
239.214	23.38
239.431	-7.34
239.648	17.24
239.865	0.85
240.083	2.9
240.3	68.44
240.517	-48.3
240.735	43.86
240.952	37.72
241.169	54.1
241.386	-19.63
241.603	-33.96
241.821	27.48
242.038	-9.39
242.255	-1.19
242.472	60.24
242.689	-11.43
242.907	7
243.124	-17.58
243.341	47.96
243.558	29.52
243.775	90.96
243.992	45.91
244.209	62.29
244.426	45.91
244.643	29.52
244.86	37.72
245.078	43.86
245.295	68.44
245.512	76.63
245.729	37.72
245.946	4.95
246.163	119.64
246.38	121.68
246.597	-5.29
246.814	70.48
247.031	70.48
247.248	103.25
247.464	4.95
247.681	64.34
247.898	52.05
248.115	11.09
248.332	31.57
248.549	90.96
248.766	0.85
248.983	15.19
249.2	37.72
249.417	29.52
249.633	29.52
249.85	88.92
250.067	29.52
250.284	7
250.501	45.91
250.717	52.05
250.934	35.67
251.151	72.53
251.368	-74.92
251.585	78.68
251.801	25.43
252.018	-52.39
252.235	0.85
252.451	35.67
252.668	45.91
252.885	52.05
253.102	4.95
253.318	31.57
253.535	-11.43
253.752	78.68
253.968	2.9
254.185	72.53
254.401	19.29
254.618	17.24
254.835	66.39
255.051	33.62
255.268	74.58
255.484	58.2
255.701	56.15
255.917	50
256.134	52.05
256.351	111.44
256.567	7
256.784	64.34
257	-5.29
257.217	9.05
257.433	56.15
257.65	-19.63
257.866	60.24
258.082	27.48
258.299	-5.29
258.515	47.96
258.732	0.85
258.948	60.24
259.165	70.48
259.381	-11.43
259.597	4.95
259.814	17.24
260.03	41.81
260.246	17.24
260.463	19.29
260.679	103.25
260.895	33.62
261.112	66.39
261.328	7
261.544	-3.24
261.761	60.24
261.977	-46.25
262.193	21.33
262.409	56.15
262.626	56.15
262.842	119.64
263.058	0.85
263.274	-15.53
263.49	-3.24
263.707	-1.19
263.923	33.62
264.139	43.86
264.355	74.58
264.571	66.39
264.787	9.05
265.004	2.9
265.22	-21.67
265.436	64.34
265.652	64.34
265.868	80.72
266.084	29.52
266.3	45.91
266.516	41.81
266.732	33.62
266.948	60.24
267.164	-58.54
267.38	9.05
267.596	95.06
267.812	52.05
268.028	64.34
268.244	146.26
268.46	9.05
268.676	37.72
268.892	68.44
269.108	76.63
269.324	0.85
269.54	72.53
269.756	45.91
269.972	80.72
270.188	15.19
270.403	56.15
270.619	54.1
270.835	-17.58
271.051	-3.24
271.267	25.43
271.483	2.9
271.698	-27.82
271.914	47.96
272.13	-13.48
272.346	52.05
272.562	84.82
272.777	19.29
272.993	47.96
273.209	88.92
273.425	13.14
273.64	2.9
273.856	27.48
274.072	-3.24
274.287	76.63
274.503	7
274.719	80.72
274.934	-1.19
275.15	21.33
275.366	41.81
275.581	68.44
275.797	133.97
276.012	-40.11
276.228	43.86
276.444	-40.11
276.659	-23.72
276.875	72.53
277.09	-42.15
277.306	4.95
277.521	58.2
277.737	60.24
277.952	64.34
278.168	23.38
278.383	35.67
278.599	41.81
278.814	45.91
279.03	23.38
279.245	13.14
279.461	13.14
279.676	52.05
279.892	-38.06
280.107	-9.39
280.322	31.57
280.538	68.44
280.753	62.29
280.969	27.48
281.184	68.44
281.399	43.86
281.615	33.62
281.83	43.86
282.045	-3.24
282.26	60.24
282.476	41.81
282.691	56.15
282.906	84.82
283.122	31.57
283.337	15.19
283.552	50
283.767	2.9
283.983	29.52
284.198	52.05
284.413	50
284.628	-31.91
284.843	58.2
285.058	72.53
285.274	23.38
285.489	41.81
285.704	-1.19
285.919	70.48
286.134	9.05
286.349	47.96
286.564	64.34
286.779	58.2
286.995	0.85
287.21	39.76
287.425	37.72
287.64	-17.58
287.855	41.81
288.07	58.2
288.285	15.19
288.5	33.62
288.715	82.77
288.93	35.67
289.145	27.48
289.36	56.15
289.575	47.96
289.79	50
290.004	43.86
290.219	4.95
290.434	52.05
290.649	23.38
290.864	-11.43
291.079	103.25
291.294	60.24
291.509	-1.19
291.724	-19.63
291.938	29.52
292.153	33.62
292.368	64.34
292.583	23.38
292.798	15.19
293.012	58.2
293.227	68.44
293.442	54.1
293.657	-17.58
293.871	68.44
294.086	27.48
294.301	-3.24
294.516	93.01
294.73	54.1
294.945	62.29
295.16	37.72
295.374	-19.63
295.589	78.68
295.804	43.86
296.018	58.2
296.233	115.54
296.447	54.1
296.662	88.92
296.877	-21.67
297.091	101.2
297.306	62.29
297.52	-7.34
297.735	21.33
297.949	11.09
298.164	127.83
298.378	15.19
298.593	-11.43
298.807	-15.53
299.022	-25.77
299.236	52.05
299.451	70.48
299.665	-1.19
299.88	17.24
300.094	4.95
300.309	90.96
300.523	90.96
300.737	90.96
300.952	23.38
301.166	25.43
301.381	-25.77
301.595	43.86
301.809	-23.72
302.024	68.44
302.238	-5.29
302.452	9.05
302.667	70.48
302.881	39.76
303.095	19.29
303.309	27.48
303.524	95.06
303.738	19.29
303.952	21.33
304.166	76.63
304.381	68.44
304.595	35.67
304.809	13.14
305.023	50
305.237	68.44
305.452	9.05
305.666	9.05
305.88	60.24
306.094	9.05
306.308	90.96
306.522	43.86
306.736	39.76
306.95	11.09
307.164	58.2
307.379	29.52
307.593	-1.19
307.807	-15.53
308.021	52.05
308.235	31.57
308.449	13.14
308.663	70.48
308.877	144.21
309.091	84.82
309.305	17.24
309.519	19.29
309.733	72.53
309.947	111.44
310.161	4.95
310.374	54.1
310.588	4.95
310.802	101.2
311.016	37.72
311.23	56.15
311.444	80.72
311.658	31.57
311.872	17.24
312.085	-3.24
312.299	35.67
312.513	60.24
312.727	29.52
312.941	50
313.154	45.91
313.368	60.24
313.582	72.53
313.796	25.43
314.009	60.24
314.223	37.72
314.437	37.72
314.651	125.78
314.864	107.35
315.078	50
315.292	52.05
315.505	15.19
315.719	70.48
315.933	21.33
316.146	31.57
316.36	41.81
316.573	35.67
316.787	47.96
317.001	7
317.214	-27.82
317.428	19.29
317.641	58.2
317.855	66.39
318.068	9.05
318.282	33.62
318.495	7
318.709	-25.77
318.922	13.14
319.136	45.91
319.349	99.16
319.563	17.24
319.776	39.76
319.99	-44.2
320.203	56.15
320.417	23.38
320.63	52.05
320.843	7
321.057	-56.49
321.27	21.33
321.483	76.63
321.697	80.72
321.91	15.19
322.124	33.62
322.337	13.14
322.55	78.68
322.763	11.09
322.977	66.39
323.19	60.24
323.403	64.34
323.617	37.72
323.83	119.64
324.043	52.05
324.256	29.52
324.469	23.38
324.683	19.29
324.896	111.44
325.109	31.57
325.322	0.85
325.535	17.24
325.748	101.2
325.962	64.34
326.175	121.68
326.388	66.39
326.601	97.11
326.814	29.52
327.027	78.68
327.24	41.81
327.453	-15.53
327.666	64.34
327.879	15.19
328.092	111.44
328.305	-33.96
328.518	99.16
328.731	25.43
328.944	-3.24
329.157	0.85
329.37	19.29
329.583	25.43
329.796	70.48
330.009	0.85
330.222	7
330.435	-13.48
330.648	13.14
330.861	86.87
331.073	27.48
331.286	29.52
331.499	31.57
331.712	-38.06
331.925	52.05
332.138	35.67
332.35	35.67
332.563	13.14
332.776	78.68
332.989	-11.43
333.202	17.24
333.414	43.86
333.627	37.72
333.84	27.48
334.053	64.34
334.265	47.96
334.478	-1.19
334.691	56.15
334.903	47.96
335.116	-11.43
335.329	47.96
335.541	70.48
335.754	4.95
335.966	52.05
336.179	66.39
336.392	43.86
336.604	7
336.817	33.62
337.029	-9.39
337.242	76.63
337.454	-1.19
337.667	45.91
337.88	7
338.092	47.96
338.305	43.86
338.517	17.24
338.729	-3.24
338.942	111.44
339.154	35.67
339.367	47.96
339.579	95.06
339.792	39.76
340.004	64.34
340.217	19.29
340.429	93.01
340.641	27.48
340.854	27.48
341.066	45.91
341.278	80.72
341.491	54.1
341.703	90.96
341.915	-9.39
342.128	25.43
342.34	-11.43
342.552	39.76
342.764	-27.82
342.977	-1.19
343.189	4.95
343.401	-5.29
343.613	64.34
343.826	41.81
344.038	27.48
344.25	123.73
344.462	62.29
344.674	74.58
344.886	-5.29
345.099	17.24
345.311	78.68
345.523	41.81
345.735	105.3
345.947	66.39
346.159	25.43
346.371	64.34
346.583	68.44
346.795	11.09
347.007	82.77
347.219	29.52
347.431	76.63
347.643	64.34
347.855	4.95
348.067	68.44
348.279	-9.39
348.491	50
348.703	99.16
348.915	80.72
349.127	7
349.339	133.97
349.551	-42.15
349.763	60.24
349.975	60.24
350.187	41.81
350.399	50
350.61	68.44
350.822	62.29
351.034	35.67
351.246	13.14
351.458	52.05
351.669	68.44
351.881	-15.53
352.093	74.58
352.305	84.82
352.517	66.39
352.728	52.05
352.94	21.33
353.152	27.48
353.363	33.62
353.575	68.44
353.787	-25.77
353.999	11.09
354.21	-15.53
354.422	33.62
354.633	70.48
354.845	37.72
355.057	41.81
355.268	-13.48
355.48	76.63
355.692	43.86
355.903	56.15
356.115	43.86
356.326	52.05
356.538	64.34
356.749	54.1
356.961	82.77
357.172	68.44
357.384	-29.87
357.595	107.35
357.807	70.48
358.018	15.19
358.23	19.29
358.441	93.01
358.653	31.57
358.864	-1.19
359.075	84.82
359.287	25.43
359.498	80.72
359.709	97.11
359.921	11.09
360.132	-52.39
360.344	15.19
360.555	41.81
360.766	35.67
360.977	27.48
361.189	68.44
361.4	62.29
361.611	74.58
361.823	95.06
362.034	-19.63
362.245	-7.34
362.456	64.34
362.667	21.33
362.879	47.96
363.09	-21.67
363.301	15.19
363.512	84.82
363.723	-13.48
363.935	19.29
364.146	78.68
364.357	17.24
364.568	56.15
364.779	29.52
364.99	39.76
365.201	39.76
365.412	66.39
365.623	-9.39
365.834	23.38
366.045	52.05
366.256	54.1
366.467	43.86
366.678	37.72
366.889	4.95
367.1	105.3
367.311	-27.82
367.522	0.85
367.733	-3.24
367.944	70.48
368.155	7
368.366	15.19
368.577	9.05
368.788	27.48
368.999	105.3
369.209	113.49
369.42	33.62
369.631	123.73
369.842	58.2
370.053	31.57
370.264	43.86
370.474	43.86
370.685	64.34
370.896	76.63
371.107	15.19
371.317	39.76
371.528	11.09
371.739	84.82
371.95	43.86
372.16	66.39
372.371	11.09
372.582	62.29
372.792	97.11
373.003	-5.29
373.214	-21.67
373.424	74.58
373.635	95.06
373.846	31.57
374.056	47.96
374.267	23.38
374.477	117.59
374.688	70.48
374.898	90.96
375.109	-19.63
375.319	86.87
375.53	58.2
375.74	31.57
375.951	60.24
376.161	31.57
376.372	43.86
376.582	66.39
376.793	82.77
377.003	-23.72
377.214	99.16
377.424	21.33
377.635	131.92
377.845	0.85
378.055	109.4
378.266	80.72
378.476	64.34
378.686	31.57
378.897	58.2
379.107	52.05
379.317	11.09
379.528	99.16
379.738	7
379.948	72.53
380.158	11.09
380.369	56.15
380.579	95.06
380.789	105.3
380.999	123.73
381.21	13.14
381.42	146.26
381.63	150.36
381.84	88.92
382.05	62.29
382.261	78.68
382.471	64.34
382.681	47.96
382.891	170.83
383.101	109.4
383.311	27.48
383.521	47.96
383.731	60.24
383.941	52.05
384.151	82.77
384.361	93.01
384.571	68.44
384.781	86.87
384.991	66.39
385.201	66.39
385.411	95.06
385.621	35.67
385.831	33.62
386.041	-21.67
386.251	93.01
386.461	23.38
386.671	76.63
386.881	144.21
387.091	105.3
387.301	80.72
387.511	99.16
387.72	25.43
387.93	99.16
388.14	117.59
388.35	72.53
388.56	152.4
388.769	45.91
388.979	9.05
389.189	23.38
389.399	33.62
389.609	-1.19
389.818	148.31
390.028	25.43
390.238	41.81
390.447	74.58
390.657	109.4
390.867	47.96
391.076	35.67
391.286	23.38
391.496	39.76
391.705	-17.58
391.915	43.86
392.125	50
392.334	-1.19
392.544	33.62
392.753	11.09
392.963	64.34
393.172	13.14
393.382	31.57
393.591	86.87
393.801	90.96
394.01	117.59
394.22	80.72
394.429	144.21
394.639	54.1
394.848	68.44
395.058	164.69
395.267	-13.48
395.477	-19.63
395.686	119.64
395.895	72.53
396.105	62.29
396.314	74.58
396.524	15.19
396.733	113.49
396.942	103.25
397.152	86.87
397.361	76.63
397.57	113.49
397.78	-11.43
397.989	93.01
398.198	105.3
398.407	76.63
398.617	160.59
398.826	60.24
399.035	84.82
399.244	84.82
399.453	125.78
399.663	127.83
399.872	27.48
400.081	148.31
400.29	105.3
400.499	97.11
400.708	121.68
400.917	138.07
401.127	88.92
401.336	66.39
401.545	146.26
401.754	142.16
401.963	136.02
402.172	21.33
402.381	170.83
402.59	172.88
402.799	119.64
403.008	189.27
403.217	123.73
403.426	125.78
403.635	125.78
403.844	93.01
404.053	47.96
404.262	80.72
404.471	156.5
404.68	107.35
404.888	72.53
405.097	176.98
405.306	168.79
405.515	111.44
405.724	170.83
405.933	197.46
406.142	197.46
406.35	150.36
406.559	154.45
406.768	146.26
406.977	201.55
407.185	162.64
407.394	152.4
407.603	117.59
407.812	138.07
408.02	146.26
408.229	142.16
408.438	193.36
408.646	148.31
408.855	174.93
409.064	207.7
409.272	150.36
409.481	254.8
409.69	260.95
409.898	271.19
410.107	240.47
410.315	224.08
410.524	246.61
410.733	279.38
410.941	342.86
411.15	394.06
411.358	328.53
411.567	392.02
411.775	299.86
411.984	381.78
412.192	361.3
412.401	314.19
412.609	394.06
412.818	475.98
413.026	473.93
413.234	435.02
413.443	371.54
413.651	463.69
413.86	463.69
414.068	500.56
414.276	445.26
414.485	547.66
414.693	467.79
414.901	607.05
415.11	529.23
415.318	658.25
415.526	705.35
415.734	613.2
415.943	658.25
416.151	672.59
416.359	699.21
416.567	742.22
416.776	721.74
416.984	760.65
417.192	867.14
417.4	848.71
417.608	856.9
417.817	926.54
418.025	881.48
418.233	924.49
418.441	936.78
418.649	1061.7
418.857	1057.61
419.065	1102.66
419.273	990.02
419.481	1166.15
419.689	1196.87
419.897	1160
420.105	1366.85
420.313	1207.11
420.521	1334.08
420.729	1344.32
420.937	1422.14
421.145	1512.25
421.353	1510.21
421.561	1454.91
421.769	1559.36
421.977	1661.76
422.185	1731.39
422.393	1708.86
422.601	1889.08
422.809	1835.83
423.017	1831.74
423.224	1983.29
423.432	2034.49
423.64	2118.45
423.848	2276.15
424.056	2192.18
424.263	2376.5
424.471	2306.87
424.679	2433.84
424.887	2569.01
425.094	2519.85
425.302	2661.16
425.51	2652.97
425.718	2802.47
425.925	2800.43
426.133	2927.4
426.341	3216.16
426.548	3328.8
426.756	3164.97
426.964	3220.26
427.171	3447.58
427.379	3390.24
427.586	3605.28
427.794	3654.43
428.001	3826.46
428.209	4051.74
428.417	3967.77
428.624	4242.2
428.832	4350.74
429.039	4295.44
429.247	4236.05
429.454	4750.09
429.662	4995.85
429.869	4619.02
430.076	4832.01
430.284	4868.88
430.491	4864.78
430.699	5384.96
430.906	5292.8
431.114	5311.24
431.321	5671.68
431.528	5712.64
431.736	5862.14
431.943	6275.83
432.15	6175.48
432.358	6195.96
432.565	6437.62
432.772	6437.62
432.979	6826.73
433.187	7086.83
433.394	6861.55
433.601	7400.16
433.808	7318.25
434.016	7559.91
434.223	7721.7
434.43	8319.7
434.637	8262.36
434.844	8587.99
435.052	8563.41
435.259	8667.86
435.466	8831.69
435.673	8710.86
435.88	9059.02
436.087	9665.22
436.294	9730.75
436.501	9525.96
436.708	9704.13
436.915	10007.23
437.122	10662.58
437.329	10468.02
437.537	10820.27
437.743	10850.99
437.95	10781.36
438.157	11395.75
438.364	11639.46
438.571	12004
438.778	11823.78
438.985	12786.32
439.192	12569.24
439.399	12808.85
439.606	12497.56
439.813	13353.61
440.02	13755.01
440.227	13726.34
440.433	13466.25
440.64	14156.41
440.847	14039.68
441.054	14432.89
441.261	15164.01
441.467	15112.81
441.674	15721.06
441.881	16075.36
442.088	16026.21
442.294	15704.68
442.501	15972.96
442.708	16523.87
442.914	17146.45
443.121	18176.58
443.328	17470.03
443.534	18580.03
443.741	17973.83
443.948	18094.66
444.154	19149.36
444.361	19102.26
444.568	19087.92
444.774	19356.21
444.981	19581.48
445.187	19915.3
445.394	20978.2
445.6	20707.87
445.807	22733.31
446.013	21617.16
446.22	22102.53
446.426	22741.5
446.633	23069.17
446.839	23742.96
447.046	22966.77
447.252	23871.98
447.459	23908.84
447.665	24162.79
447.871	25143.77
448.078	25924.04
448.284	24891.87
448.491	25477.58
448.697	26542.53
448.903	26825.15
449.11	27007.42
449.316	26843.58
449.522	26986.94
449.728	27689.39
449.935	27886
450.141	28025.26
450.347	28348.84
450.553	27593.14
450.76	27644.34
450.966	29030.81
451.172	28168.62
451.378	28961.18
451.584	28406.18
451.791	28936.6
451.997	28922.27
452.203	29630.87
452.409	29354.39
452.615	29364.63
452.821	28496.29
453.027	27849.13
453.233	29426.07
453.44	28207.53
453.646	28500.39
453.852	28422.56
454.058	28948.89
454.264	28240.29
454.47	28615.07
454.676	28000.68
454.882	28977.56
455.088	26450.37
455.294	26606.02
455.5	26882.49
455.705	27304.37
455.911	26196.42
456.117	25577.94
456.323	25450.96
456.529	24146.4
456.735	24596.96
456.941	24220.13
457.147	23943.66
457.352	23202.29
457.558	22917.62
457.764	22997.49
457.97	22614.52
458.176	21887.5
458.381	21840.39
458.587	20808.22
458.793	20836.89
458.999	19565.1
459.204	21039.64
459.41	20382.24
459.616	19151.41
459.821	19264.05
460.027	19106.35
460.233	18721.34
460.438	17885.76
460.644	18117.18
460.85	17125.97
461.055	16892.5
461.261	17220.17
461.466	15913.57
461.672	15325.8
461.878	16456.28
462.083	15327.85
462.289	14824.05
462.494	14957.17
462.7	14277.24
462.905	13838.98
463.111	14228.09
463.316	14271.1
463.522	13976.19
463.727	13994.62
463.932	13988.48
464.138	14084.73
464.343	13716.1
464.549	13456.01
464.754	13998.72
464.959	14080.64
465.165	13740.68
465.37	12896.91
465.575	12923.54
465.781	13322.89
465.986	13396.62
466.191	13044.37
466.397	12853.91
466.602	12169.88
466.807	12743.31
467.012	12771.99
467.218	12444.31
467.423	12329.63
467.628	12452.5
467.833	13114
468.038	12450.46
468.244	12206.75
468.449	12575.38
468.654	12253.85
468.859	12079.77
469.064	12042.91
469.269	11561.64
