Data from USB4F104151__241__14-01-14-396.txt Node

Date: Thu Mar 13 14:01:14 EDT 2025
User: louis
Spectrometer: USB4F10415
Trigger mode: 4
Integration Time (sec): 1.000000E-2
Scans to average: 1
Electric dark correction enabled: true
Nonlinearity correction enabled: false
Boxcar width: 0
XAxis mode: Wavelengths
Number of Pixels in Spectrum: 3648
>>>>>Begin Spectral Data<<<<<
178.204	-75.95
178.424	-75.95
178.644	-75.95
178.864	-71.85
179.084	20.31
179.304	40.79
179.524	-32.94
179.744	63.32
179.964	-22.7
180.184	12.12
180.404	-8.36
180.624	-8.36
180.844	26.45
181.064	-108.71
181.283	-39.08
181.503	22.36
181.723	55.12
181.943	-71.85
182.163	59.22
182.383	32.6
182.602	3.93
182.822	32.6
183.042	-30.89
183.262	16.21
183.482	57.17
183.701	30.55
183.921	-41.13
184.141	-18.6
184.361	34.64
184.58	-0.17
184.8	32.6
185.02	65.36
185.239	-49.32
185.459	8.02
185.679	10.07
185.898	-32.94
186.118	51.03
186.338	24.4
186.557	-8.36
186.777	-63.66
186.997	5.97
187.216	22.36
187.436	40.79
187.655	-0.17
187.875	-49.32
188.095	16.21
188.314	20.31
188.534	34.64
188.753	51.03
188.973	36.69
189.192	24.4
189.412	8.02
189.631	-39.08
189.851	1.88
190.07	-8.36
190.29	-14.51
190.509	22.36
190.729	-49.32
190.948	-14.51
191.168	73.56
191.387	-16.55
191.607	20.31
191.826	26.45
192.045	-16.55
192.265	-32.94
192.484	38.74
192.704	-2.22
192.923	51.03
193.142	44.88
193.362	26.45
193.581	-73.9
193.8	-30.89
194.02	38.74
194.239	12.12
194.458	-20.65
194.678	20.31
194.897	8.02
195.116	-12.46
195.335	-39.08
195.555	-55.47
195.774	59.22
195.993	18.26
196.212	-94.38
196.432	-47.27
196.651	-26.79
196.87	-30.89
197.089	18.26
197.308	-32.94
197.528	18.26
197.747	16.21
197.966	67.41
198.185	3.93
198.404	-30.89
198.623	10.07
198.842	81.75
199.062	-22.7
199.281	28.5
199.5	18.26
199.719	143.19
199.938	-39.08
200.157	-24.75
200.376	-61.61
200.595	-2.22
200.814	1.88
201.033	28.5
201.252	-16.55
201.471	34.64
201.69	-12.46
201.909	-2.22
202.128	20.31
202.347	77.65
202.566	10.07
202.785	-14.51
203.004	-43.18
203.223	51.03
203.442	3.93
203.661	26.45
203.879	8.02
204.098	40.79
204.317	53.08
204.536	48.98
204.755	65.36
204.974	67.41
205.193	71.51
205.411	-4.27
205.63	36.69
205.849	40.79
206.068	-8.36
206.287	98.13
206.505	-6.31
206.724	22.36
206.943	-24.75
207.162	-8.36
207.381	-16.55
207.599	20.31
207.818	-32.94
208.037	12.12
208.255	-6.31
208.474	10.07
208.693	32.6
208.911	65.36
209.13	16.21
209.349	-16.55
209.567	-55.47
209.786	-8.36
210.005	3.93
210.223	69.46
210.442	22.36
210.661	-28.84
210.879	40.79
211.098	69.46
211.316	-22.7
211.535	14.17
211.753	-18.6
211.972	-8.36
212.191	10.07
212.409	53.08
212.628	-6.31
212.846	34.64
213.065	8.02
213.283	8.02
213.502	-32.94
213.72	-18.6
213.938	14.17
214.157	-26.79
214.375	14.17
214.594	-24.75
214.812	48.98
215.031	73.56
215.249	18.26
215.467	30.55
215.686	12.12
215.904	24.4
216.122	20.31
216.341	3.93
216.559	59.22
216.778	-32.94
216.996	-4.27
217.214	42.84
217.432	5.97
217.651	65.36
217.869	59.22
218.087	-45.23
218.306	-4.27
218.524	30.55
218.742	8.02
218.96	-4.27
219.179	36.69
219.397	32.6
219.615	20.31
219.833	48.98
220.051	-14.51
220.27	-20.65
220.488	-39.08
220.706	-65.71
220.924	-16.55
221.142	-8.36
221.36	36.69
221.578	57.17
221.796	24.4
222.015	65.36
222.233	57.17
222.451	46.93
222.669	10.07
222.887	42.84
223.105	-51.37
223.323	12.12
223.541	-28.84
223.759	32.6
223.977	26.45
224.195	57.17
224.413	26.45
224.631	24.4
224.849	73.56
225.067	-22.7
225.285	-41.13
225.503	3.93
225.721	42.84
225.939	94.04
226.157	-41.13
226.375	83.8
226.592	36.69
226.81	-47.27
227.028	10.07
227.246	48.98
227.464	14.17
227.682	14.17
227.9	51.03
228.117	3.93
228.335	12.12
228.553	-14.51
228.771	12.12
228.989	12.12
229.206	8.02
229.424	3.93
229.642	5.97
229.86	-8.36
230.077	32.6
230.295	61.27
230.513	81.75
230.731	1.88
230.948	-12.46
231.166	36.69
231.384	14.17
231.601	-92.33
231.819	42.84
232.037	36.69
232.254	63.32
232.472	-20.65
232.689	-0.17
232.907	75.6
233.125	48.98
233.342	-37.03
233.56	46.93
233.777	-14.51
233.995	32.6
234.213	61.27
234.43	-45.23
234.648	83.8
234.865	-28.84
235.083	20.31
235.3	-63.66
235.518	28.5
235.735	48.98
235.953	40.79
236.17	-28.84
236.388	32.6
236.605	-43.18
236.822	77.65
237.04	8.02
237.257	16.21
237.475	-41.13
237.692	87.89
237.909	51.03
238.127	14.17
238.344	-4.27
238.562	16.21
238.779	1.88
238.996	5.97
239.214	40.79
239.431	12.12
239.648	57.17
239.865	132.95
240.083	38.74
240.3	12.12
240.517	-2.22
240.735	32.6
240.952	-22.7
241.169	30.55
241.386	28.5
241.603	26.45
241.821	3.93
242.038	1.88
242.255	-4.27
242.472	5.97
242.689	46.93
242.907	-30.89
243.124	57.17
243.341	-28.84
243.558	-28.84
243.775	-39.08
243.992	-32.94
244.209	36.69
244.426	55.12
244.643	24.4
244.86	26.45
245.078	67.41
245.295	36.69
245.512	-10.41
245.729	12.12
245.946	-0.17
246.163	-63.66
246.38	55.12
246.597	44.88
246.814	48.98
247.031	46.93
247.248	81.75
247.464	30.55
247.681	55.12
247.898	22.36
248.115	40.79
248.332	73.56
248.549	3.93
248.766	26.45
248.983	73.56
249.2	59.22
249.417	-20.65
249.633	40.79
249.85	-12.46
250.067	-12.46
250.284	26.45
250.501	36.69
250.717	16.21
250.934	55.12
251.151	10.07
251.368	20.31
251.585	-16.55
251.801	-0.17
252.018	32.6
252.235	30.55
252.451	-16.55
252.668	69.46
252.885	26.45
253.102	38.74
253.318	-8.36
253.535	1.88
253.752	32.6
253.968	40.79
254.185	-67.75
254.401	-0.17
254.618	-26.79
254.835	-2.22
255.051	22.36
255.268	24.4
255.484	44.88
255.701	-2.22
255.917	59.22
256.134	-26.79
256.351	-37.03
256.567	79.7
256.784	36.69
257	-45.23
257.217	20.31
257.433	-30.89
257.65	28.5
257.866	32.6
258.082	71.51
258.299	-90.28
258.515	24.4
258.732	69.46
258.948	-47.27
259.165	-10.41
259.381	-2.22
259.597	8.02
259.814	32.6
260.03	-14.51
260.246	3.93
260.463	18.26
260.679	61.27
260.895	42.84
261.112	-49.32
261.328	-77.99
261.544	18.26
261.761	-18.6
261.977	18.26
262.193	-2.22
262.409	36.69
262.626	5.97
262.842	-43.18
263.058	16.21
263.274	12.12
263.49	-22.7
263.707	-12.46
263.923	69.46
264.139	143.19
264.355	-4.27
264.571	-47.27
264.787	65.36
265.004	26.45
265.22	-43.18
265.436	-57.51
265.652	30.55
265.868	16.21
266.084	-0.17
266.3	20.31
266.516	-12.46
266.732	48.98
266.948	-57.51
267.164	-47.27
267.38	28.5
267.596	81.75
267.812	22.36
268.028	30.55
268.244	26.45
268.46	22.36
268.676	38.74
268.892	12.12
269.108	30.55
269.324	-0.17
269.54	-28.84
269.756	-16.55
269.972	-20.65
270.188	22.36
270.403	8.02
270.619	-39.08
270.835	-0.17
271.051	5.97
271.267	44.88
271.483	3.93
271.698	22.36
271.914	48.98
272.13	-39.08
272.346	55.12
272.562	-0.17
272.777	-6.31
272.993	-4.27
273.209	12.12
273.425	22.36
273.64	16.21
273.856	38.74
274.072	-16.55
274.287	-69.8
274.503	5.97
274.719	10.07
274.934	-8.36
275.15	24.4
275.366	-2.22
275.581	-30.89
275.797	40.79
276.012	98.13
276.228	100.18
276.444	57.17
276.659	-22.7
276.875	-49.32
277.09	20.31
277.306	-10.41
277.521	85.84
277.737	-8.36
277.952	28.5
278.168	-6.31
278.383	-12.46
278.599	16.21
278.814	51.03
279.03	1.88
279.245	-16.55
279.461	-32.94
279.676	32.6
279.892	38.74
280.107	-0.17
280.322	-14.51
280.538	-30.89
280.753	38.74
280.969	32.6
281.184	-47.27
281.399	53.08
281.615	-18.6
281.83	48.98
282.045	3.93
282.26	-8.36
282.476	22.36
282.691	26.45
282.906	20.31
283.122	53.08
283.337	53.08
283.552	-18.6
283.767	34.64
283.983	24.4
284.198	3.93
284.413	12.12
284.628	-22.7
284.843	128.85
285.058	38.74
285.274	20.31
285.489	-53.42
285.704	32.6
285.919	-2.22
286.134	71.51
286.349	65.36
286.564	5.97
286.779	-30.89
286.995	48.98
287.21	22.36
287.425	-0.17
287.64	30.55
287.855	-24.75
288.07	42.84
288.285	-20.65
288.5	-16.55
288.715	61.27
288.93	-18.6
289.145	24.4
289.36	10.07
289.575	42.84
289.79	8.02
290.004	8.02
290.219	10.07
290.434	40.79
290.649	30.55
290.864	20.31
291.079	16.21
291.294	51.03
291.509	28.5
291.724	-10.41
291.938	1.88
292.153	-24.75
292.368	-14.51
292.583	-24.75
292.798	12.12
293.012	57.17
293.227	-49.32
293.442	5.97
293.657	-20.65
293.871	18.26
294.086	34.64
294.301	26.45
294.516	8.02
294.73	5.97
294.945	14.17
295.16	-8.36
295.374	1.88
295.589	57.17
295.804	28.5
296.018	65.36
296.233	69.46
296.447	79.7
296.662	18.26
296.877	65.36
297.091	32.6
297.306	3.93
297.52	36.69
297.735	-43.18
297.949	75.6
298.164	22.36
298.378	-51.37
298.593	75.6
298.807	57.17
299.022	-28.84
299.236	71.51
299.451	14.17
299.665	-26.79
299.88	18.26
300.094	10.07
300.309	69.46
300.523	32.6
300.737	10.07
300.952	-14.51
301.166	79.7
301.381	-24.75
301.595	-10.41
301.809	26.45
302.024	18.26
302.238	-4.27
302.452	-32.94
302.667	75.6
302.881	69.46
303.095	-12.46
303.309	26.45
303.524	-2.22
303.738	69.46
303.952	116.56
304.166	30.55
304.381	32.6
304.595	36.69
304.809	-49.32
305.023	89.94
305.237	83.8
305.452	-4.27
305.666	63.32
305.88	65.36
306.094	-26.79
306.308	-4.27
306.522	-20.65
306.736	57.17
306.95	36.69
307.164	-0.17
307.379	89.94
307.593	42.84
307.807	-16.55
308.021	12.12
308.235	57.17
308.449	-20.65
308.663	53.08
308.877	57.17
309.091	59.22
309.305	26.45
309.519	32.6
309.733	36.69
309.947	-49.32
310.161	1.88
310.374	38.74
310.588	1.88
310.802	34.64
311.016	3.93
311.23	-114.86
311.444	12.12
311.658	-8.36
311.872	55.12
312.085	34.64
312.299	12.12
312.513	69.46
312.727	-6.31
312.941	63.32
313.154	16.21
313.368	16.21
313.582	44.88
313.796	16.21
314.009	100.18
314.223	18.26
314.437	18.26
314.651	67.41
314.864	104.28
315.078	94.04
315.292	32.6
315.505	-0.17
315.719	24.4
315.933	38.74
316.146	53.08
316.36	42.84
316.573	5.97
316.787	51.03
317.001	-0.17
317.214	65.36
317.428	-26.79
317.641	36.69
317.855	1.88
318.068	8.02
318.282	16.21
318.495	63.32
318.709	73.56
318.922	-16.55
319.136	71.51
319.349	51.03
319.563	10.07
319.776	-43.18
319.99	-32.94
320.203	26.45
320.417	14.17
320.63	51.03
320.843	98.13
321.057	22.36
321.27	-16.55
321.483	-2.22
321.697	18.26
321.91	5.97
322.124	20.31
322.337	-8.36
322.55	24.4
322.763	-30.89
322.977	40.79
323.19	18.26
323.403	48.98
323.617	59.22
323.83	75.6
324.043	53.08
324.256	44.88
324.469	36.69
324.683	14.17
324.896	-22.7
325.109	44.88
325.322	20.31
325.535	55.12
325.748	5.97
325.962	89.94
326.175	73.56
326.388	79.7
326.601	12.12
326.814	44.88
327.027	61.27
327.24	51.03
327.453	8.02
327.666	-57.51
327.879	-55.47
328.092	24.4
328.305	16.21
328.518	40.79
328.731	5.97
328.944	-43.18
329.157	48.98
329.37	34.64
329.583	8.02
329.796	69.46
330.009	3.93
330.222	3.93
330.435	36.69
330.648	-30.89
330.861	3.93
331.073	-2.22
331.286	77.65
331.499	24.4
331.712	32.6
331.925	10.07
332.138	3.93
332.35	40.79
332.563	20.31
332.776	48.98
332.989	75.6
333.202	44.88
333.414	34.64
333.627	34.64
333.84	-39.08
334.053	44.88
334.265	16.21
334.478	1.88
334.691	34.64
334.903	3.93
335.116	-41.13
335.329	-12.46
335.541	-20.65
335.754	87.89
335.966	79.7
336.179	-34.99
336.392	20.31
336.604	-32.94
336.817	18.26
337.029	32.6
337.242	-20.65
337.454	-2.22
337.667	24.4
337.88	32.6
338.092	44.88
338.305	83.8
338.517	61.27
338.729	94.04
338.942	46.93
339.154	10.07
339.367	89.94
339.579	34.64
339.792	59.22
340.004	36.69
340.217	61.27
340.429	28.5
340.641	28.5
340.854	10.07
341.066	-47.27
341.278	32.6
341.491	32.6
341.703	44.88
341.915	-0.17
342.128	48.98
342.34	-10.41
342.552	14.17
342.764	-14.51
342.977	8.02
343.189	42.84
343.401	40.79
343.613	-39.08
343.826	36.69
344.038	26.45
344.25	30.55
344.462	-26.79
344.674	57.17
344.886	20.31
345.099	16.21
345.311	28.5
345.523	55.12
345.735	-41.13
345.947	46.93
346.159	-24.75
346.371	20.31
346.583	87.89
346.795	34.64
347.007	10.07
347.219	-6.31
347.431	69.46
347.643	48.98
347.855	16.21
348.067	-18.6
348.279	30.55
348.491	-16.55
348.703	30.55
348.915	61.27
349.127	3.93
349.339	55.12
349.551	94.04
349.763	18.26
349.975	40.79
350.187	-12.46
350.399	-28.84
350.61	85.84
350.822	-0.17
351.034	-32.94
351.246	-32.94
351.458	42.84
351.669	26.45
351.881	-4.27
352.093	32.6
352.305	51.03
352.517	-10.41
352.728	24.4
352.94	-32.94
353.152	12.12
353.363	-4.27
353.575	12.12
353.787	34.64
353.999	32.6
354.21	34.64
354.422	22.36
354.633	24.4
354.845	1.88
355.057	-6.31
355.268	-24.75
355.48	51.03
355.692	-8.36
355.903	-8.36
356.115	59.22
356.326	30.55
356.538	63.32
356.749	38.74
356.961	10.07
357.172	34.64
357.384	42.84
357.595	55.12
357.807	16.21
358.018	16.21
358.23	32.6
358.441	69.46
358.653	26.45
358.864	-24.75
359.075	40.79
359.287	-0.17
359.498	53.08
359.709	-39.08
359.921	63.32
360.132	83.8
360.344	65.36
360.555	-8.36
360.766	-0.17
360.977	-47.27
361.189	20.31
361.4	28.5
361.611	16.21
361.823	69.46
362.034	65.36
362.245	12.12
362.456	-8.36
362.667	8.02
362.879	28.5
363.09	-45.23
363.301	59.22
363.512	20.31
363.723	44.88
363.935	-0.17
364.146	28.5
364.357	-8.36
364.568	-22.7
364.779	28.5
364.99	89.94
365.201	30.55
365.412	51.03
365.623	116.56
365.834	-16.55
366.045	-10.41
366.256	18.26
366.467	55.12
366.678	30.55
366.889	1.88
367.1	42.84
367.311	-16.55
367.522	3.93
367.733	-14.51
367.944	44.88
368.155	30.55
368.366	71.51
368.577	3.93
368.788	59.22
368.999	57.17
369.209	61.27
369.42	-34.99
369.631	63.32
369.842	79.7
370.053	32.6
370.264	-53.42
370.474	32.6
370.685	5.97
370.896	-30.89
371.107	130.9
371.317	57.17
371.528	-24.75
371.739	-24.75
371.95	20.31
372.16	122.71
372.371	46.93
372.582	3.93
372.792	-18.6
373.003	22.36
373.214	98.13
373.424	38.74
373.635	34.64
373.846	24.4
374.056	-4.27
374.267	20.31
374.477	-12.46
374.688	8.02
374.898	53.08
375.109	-6.31
375.319	114.52
375.53	-8.36
375.74	57.17
375.951	-47.27
376.161	-4.27
376.372	3.93
376.582	16.21
376.793	40.79
377.003	59.22
377.214	59.22
377.424	-51.37
377.635	65.36
377.845	-12.46
378.055	30.55
378.266	-28.84
378.476	85.84
378.686	87.89
378.897	8.02
379.107	114.52
379.317	-22.7
379.528	-4.27
379.738	71.51
379.948	65.36
380.158	87.89
380.369	-0.17
380.579	81.75
380.789	38.74
380.999	18.26
381.21	79.7
381.42	30.55
381.63	12.12
381.84	91.99
382.05	65.36
382.261	57.17
382.471	73.56
382.681	-2.22
382.891	32.6
383.101	61.27
383.311	-24.75
383.521	51.03
383.731	48.98
383.941	44.88
384.151	38.74
384.361	10.07
384.571	36.69
384.781	75.6
384.991	63.32
385.201	32.6
385.411	-16.55
385.621	-24.75
385.831	100.18
386.041	5.97
386.251	36.69
386.461	73.56
386.671	-30.89
386.881	87.89
387.091	-12.46
387.301	42.84
387.511	48.98
387.72	85.84
387.93	-26.79
388.14	114.52
388.35	48.98
388.56	44.88
388.769	44.88
388.979	-0.17
389.189	16.21
389.399	34.64
389.609	40.79
389.818	83.8
390.028	-16.55
390.238	42.84
390.447	61.27
390.657	73.56
390.867	65.36
391.076	10.07
391.286	3.93
391.496	-30.89
391.705	-0.17
391.915	108.37
392.125	36.69
392.334	38.74
392.544	14.17
392.753	51.03
392.963	26.45
393.172	1.88
393.382	40.79
393.591	51.03
393.801	67.41
394.01	77.65
394.22	57.17
394.429	-0.17
394.639	32.6
394.848	116.56
395.058	36.69
395.267	24.4
395.477	14.17
395.686	40.79
395.895	116.56
396.105	75.6
396.314	16.21
396.524	87.89
396.733	73.56
396.942	87.89
397.152	55.12
397.361	98.13
397.57	32.6
397.78	63.32
397.989	-39.08
398.198	110.42
398.407	108.37
398.617	83.8
398.826	73.56
399.035	51.03
399.244	34.64
399.453	98.13
399.663	73.56
399.872	48.98
400.081	-0.17
400.29	40.79
400.499	122.71
400.708	67.41
400.917	67.41
401.127	59.22
401.336	98.13
401.545	96.08
401.754	30.55
401.963	77.65
402.172	3.93
402.381	87.89
402.59	65.36
402.799	34.64
403.008	59.22
403.217	94.04
403.426	73.56
403.635	71.51
403.844	30.55
404.053	-22.7
404.262	40.79
404.471	73.56
404.68	79.7
404.888	40.79
405.097	75.6
405.306	98.13
405.515	51.03
405.724	114.52
405.933	34.64
406.142	69.46
406.35	69.46
406.559	114.52
406.768	147.28
406.977	153.43
407.185	192.34
407.394	69.46
407.603	98.13
407.812	108.37
408.02	104.28
408.229	155.47
408.438	79.7
408.646	157.52
408.855	153.43
409.064	132.95
409.272	128.85
409.481	157.52
409.69	83.8
409.898	171.86
410.107	151.38
410.315	145.24
410.524	212.82
410.733	214.87
410.941	128.85
411.15	149.33
411.358	208.72
411.567	196.43
411.775	155.47
411.984	231.25
412.192	190.29
412.401	210.77
412.609	214.87
412.818	223.06
413.026	270.16
413.234	264.02
413.443	292.69
413.651	255.83
413.86	143.19
414.068	325.46
414.276	319.31
414.485	268.11
414.693	304.98
414.901	327.5
415.11	380.75
415.318	302.93
415.526	409.42
415.734	409.42
415.943	378.7
416.151	403.28
416.359	477.01
416.567	384.85
416.776	403.28
416.984	491.34
417.192	530.25
417.4	458.57
417.608	407.38
417.817	495.44
418.025	515.92
418.233	599.88
418.441	493.39
418.649	614.22
418.857	698.19
419.065	728.91
419.273	532.3
419.481	606.03
419.689	655.18
419.897	763.72
420.105	728.91
420.313	689.99
420.521	751.43
420.729	741.19
420.937	937.8
421.145	829.26
421.353	843.59
421.561	921.42
421.769	892.74
421.977	986.95
422.185	907.08
422.393	1013.57
422.601	1097.54
422.809	1042.25
423.017	1083.2
423.224	1109.83
423.432	1165.12
423.64	1105.73
423.848	1277.76
424.056	1244.99
424.263	1361.73
424.471	1333.06
424.679	1384.26
424.887	1439.55
425.094	1533.76
425.302	1589.05
425.51	1599.29
425.718	1556.29
425.925	1584.96
426.133	1650.49
426.341	1756.99
426.548	1834.81
426.756	1785.66
426.964	1883.96
427.171	1939.26
427.379	1998.65
427.586	2068.28
427.794	2105.14
428.001	2246.45
428.209	2432.82
428.417	2314.03
428.624	2420.53
428.832	2504.5
429.039	2451.25
429.247	2516.78
429.454	2795.31
429.662	2821.93
429.869	2621.23
430.076	2895.66
430.284	2733.87
430.491	2920.23
430.699	3030.82
430.906	3153.7
431.114	3161.89
431.321	3229.48
431.528	3305.25
431.736	3477.28
431.943	3587.87
432.15	3483.42
432.358	3581.73
432.565	3784.48
432.772	3751.71
432.979	4017.94
433.187	4050.71
433.394	4019.99
433.601	4366.1
433.808	4306.71
434.016	4228.88
434.223	4488.98
434.43	4730.64
434.637	4634.38
434.844	4988.68
435.052	4929.29
435.259	5056.26
435.466	4951.82
435.673	5056.26
435.88	5177.09
436.087	5576.45
436.294	5512.96
436.501	5486.34
436.708	5510.91
436.915	5842.68
437.122	5943.03
437.329	6012.67
437.537	6110.97
437.743	6125.3
437.95	6205.17
438.157	6473.46
438.364	6860.52
438.571	6733.55
438.778	6719.21
438.985	7333.61
439.192	7145.19
439.399	7532.26
439.606	7311.08
439.813	7585.51
440.02	8224.47
440.227	7919.32
440.433	7792.35
440.64	8031.96
440.847	8056.54
441.054	8388.31
441.261	8625.87
441.467	8808.14
441.674	9035.47
441.881	9191.11
442.088	9330.37
442.294	9076.43
442.501	9357
442.708	9481.92
442.914	9721.54
443.121	10327.74
443.328	10215.1
443.534	10761.91
443.741	10249.91
443.948	10110.65
444.154	11132.59
444.361	10919.6
444.568	11105.96
444.774	10847.92
444.981	11071.15
445.187	11486.89
445.394	12056.22
445.6	11628.2
445.807	12934.8
446.013	12132
446.22	12596.89
446.426	13108.88
446.633	13125.26
446.839	13717.12
447.046	12938.9
447.252	13887.11
447.459	13590.15
447.665	13854.34
447.871	14356.09
448.078	15029.87
448.284	14210.68
448.491	14376.57
448.697	15056.5
448.903	15478.38
449.11	15357.55
449.316	15257.2
449.522	15236.72
449.728	15822.44
449.935	15982.18
450.141	16111.2
450.347	16186.97
450.553	15945.31
450.76	16105.06
450.966	16672.34
451.172	16422.49
451.378	16825.94
451.584	16289.37
451.791	16836.18
451.997	16852.56
452.203	16819.8
452.409	17008.21
452.615	16844.37
452.821	16510.55
453.027	16082.53
453.233	16871
453.44	16387.68
453.646	16524.89
453.852	16735.83
454.058	16645.72
454.264	16404.06
454.47	16522.84
454.676	16234.08
454.882	16723.54
455.088	14958.19
455.294	15621.73
455.5	15742.57
455.705	16172.64
455.911	15218.29
456.117	14872.18
456.323	14640.76
456.529	13987.46
456.735	14374.52
456.941	14374.52
457.147	14046.85
457.352	13553.29
457.558	13340.3
457.764	13457.03
457.97	13065.87
458.176	13045.39
458.381	12918.42
458.587	12201.63
458.793	12314.27
458.999	11624.1
459.204	12455.58
459.41	12072.61
459.616	11265.71
459.821	11361.96
460.027	11255.47
460.233	11060.91
460.438	10639.03
460.644	10692.27
460.85	10182.33
461.055	9883.33
461.261	10018.49
461.466	9299.66
461.672	9080.52
461.878	9483.97
462.083	8840.91
462.289	8713.94
462.494	8472.28
462.7	8380.12
462.905	7984.86
463.111	8363.73
463.316	8333.01
463.522	8208.09
463.727	8300.25
463.932	8384.21
464.138	8050.39
464.343	8408.79
464.549	8038.11
464.754	8187.61
464.959	8304.34
465.165	8046.3
465.37	7855.84
465.575	7532.26
465.781	7939.8
465.986	7868.13
466.191	7667.42
466.397	7462.63
466.602	7044.84
466.807	7487.2
467.012	7440.1
467.218	7431.91
467.423	7409.38
467.628	7444.2
467.833	7593.7
468.038	7241.45
468.244	7235.3
468.449	7415.52
468.654	7249.64
468.859	7171.82
469.064	7104.23
