Data from USB4F104151__285__14-02-30-758.txt Node

Date: Thu Mar 13 14:02:30 EDT 2025
User: louis
Spectrometer: USB4F10415
Trigger mode: 4
Integration Time (sec): 1.000000E-2
Scans to average: 1
Electric dark correction enabled: true
Nonlinearity correction enabled: false
Boxcar width: 0
XAxis mode: Wavelengths
Number of Pixels in Spectrum: 3648
>>>>>Begin Spectral Data<<<<<
178.204	-0.68
178.424	-0.68
178.644	-0.68
178.864	-78.51
179.084	-62.12
179.304	-29.35
179.524	25.94
179.744	-0.68
179.964	-43.69
180.184	38.23
180.404	52.56
180.624	1.37
180.844	13.65
181.064	-66.22
181.283	109.91
181.503	-35.5
181.723	-66.22
181.943	-12.97
182.163	5.46
182.383	36.18
182.602	-33.45
182.822	-33.45
183.042	40.28
183.262	-68.27
183.482	-19.11
183.701	-58.03
183.921	30.04
184.141	-66.22
184.361	-6.83
184.58	-19.11
184.8	36.18
185.02	-55.98
185.239	-35.5
185.459	-31.4
185.679	-39.59
185.898	-37.55
186.118	9.56
186.338	-15.02
186.557	3.41
186.777	9.56
186.997	40.28
187.216	-2.73
187.436	40.28
187.655	11.61
187.875	56.66
188.095	-10.92
188.314	-0.68
188.534	-6.83
188.753	34.13
188.973	-12.97
189.192	-6.83
189.412	-76.46
189.631	-8.87
189.851	48.47
190.07	9.56
190.29	-29.35
190.509	-8.87
190.729	-0.68
190.948	71
191.168	99.67
191.387	13.65
191.607	-53.93
191.826	50.52
192.045	-74.41
192.265	3.41
192.484	-10.92
192.704	17.75
192.923	-10.92
193.142	-27.31
193.362	34.13
193.581	-12.97
193.8	-68.27
194.02	15.7
194.239	-58.03
194.458	-10.92
194.678	52.56
194.897	-31.4
195.116	-33.45
195.335	-72.36
195.555	3.41
195.774	-2.73
195.993	25.94
196.212	15.7
196.432	-25.26
196.651	-4.78
196.87	-92.84
197.089	-27.31
197.308	-35.5
197.528	32.08
197.747	-39.59
197.966	-2.73
198.185	25.94
198.404	-2.73
198.623	9.56
198.842	3.41
199.062	-25.26
199.281	9.56
199.5	-43.69
199.719	15.7
199.938	5.46
200.157	54.61
200.376	-41.64
200.595	-21.16
200.814	-45.74
201.033	32.08
201.252	1.37
201.471	54.61
201.69	-33.45
201.909	23.89
202.128	-0.68
202.347	15.7
202.566	-23.21
202.785	-19.11
203.004	-39.59
203.223	68.95
203.442	-37.55
203.661	34.13
203.879	-6.83
204.098	58.71
204.317	38.23
204.536	-21.16
204.755	-55.98
204.974	-35.5
205.193	-12.97
205.411	-58.03
205.63	-12.97
205.849	-4.78
206.068	56.66
206.287	-4.78
206.505	-35.5
206.724	-19.11
206.943	-19.11
207.162	-58.03
207.381	17.75
207.599	-27.31
207.818	-70.31
208.037	-2.73
208.255	34.13
208.474	46.42
208.693	38.23
208.911	99.67
209.13	25.94
209.349	30.04
209.567	-45.74
209.786	27.99
210.005	-27.31
210.223	-43.69
210.442	-58.03
210.661	17.75
210.879	-31.4
211.098	32.08
211.316	-45.74
211.535	25.94
211.753	32.08
211.972	-27.31
212.191	23.89
212.409	-27.31
212.628	95.57
212.846	-45.74
213.065	52.56
213.283	5.46
213.502	15.7
213.72	-33.45
213.938	5.46
214.157	11.61
214.375	-8.87
214.594	-21.16
214.812	30.04
215.031	-55.98
215.249	-15.02
215.467	19.8
215.686	-64.17
215.904	-37.55
216.122	-33.45
216.341	62.8
216.559	-6.83
216.778	25.94
216.996	-19.11
217.214	-51.88
217.432	3.41
217.651	21.85
217.869	-6.83
218.087	-19.11
218.306	-19.11
218.524	50.52
218.742	38.23
218.96	-17.07
219.179	-4.78
219.397	23.89
219.615	9.56
219.833	3.41
220.051	40.28
220.27	-21.16
220.488	-27.31
220.706	13.65
220.924	-33.45
221.142	-43.69
221.36	66.9
221.578	-33.45
221.796	-25.26
222.015	-60.07
222.233	-39.59
222.451	34.13
222.669	-76.46
222.887	17.75
223.105	15.7
223.323	5.46
223.541	-84.65
223.759	1.37
223.977	-74.41
224.195	-47.79
224.413	-41.64
224.631	15.7
224.849	-31.4
225.067	34.13
225.285	34.13
225.503	9.56
225.721	-23.21
225.939	-60.07
226.157	1.37
226.375	36.18
226.592	73.04
226.81	52.56
227.028	5.46
227.246	21.85
227.464	-0.68
227.682	73.04
227.9	30.04
228.117	-76.46
228.335	-29.35
228.553	-51.88
228.771	73.04
228.989	-53.93
229.206	17.75
229.424	1.37
229.642	13.65
229.86	19.8
230.077	17.75
230.295	5.46
230.513	46.42
230.731	46.42
230.948	-53.93
231.166	56.66
231.384	-27.31
231.601	-4.78
231.819	-17.07
232.037	-27.31
232.254	5.46
232.472	-27.31
232.689	7.51
232.907	11.61
233.125	-23.21
233.342	23.89
233.56	-10.92
233.777	-51.88
233.995	13.65
234.213	-6.83
234.43	21.85
234.648	-4.78
234.865	-10.92
235.083	-23.21
235.3	25.94
235.518	-2.73
235.735	-47.79
235.953	-15.02
236.17	7.51
236.388	-35.5
236.605	-2.73
236.822	-31.4
237.04	15.7
237.257	15.7
237.475	-27.31
237.692	56.66
237.909	3.41
238.127	-64.17
238.344	21.85
238.562	-2.73
238.779	27.99
238.996	40.28
239.214	3.41
239.431	23.89
239.648	-33.45
239.865	13.65
240.083	-29.35
240.3	3.41
240.517	38.23
240.735	-39.59
240.952	-25.26
241.169	25.94
241.386	-31.4
241.603	21.85
241.821	-51.88
242.038	15.7
242.255	-35.5
242.472	-41.64
242.689	30.04
242.907	13.65
243.124	-19.11
243.341	9.56
243.558	30.04
243.775	25.94
243.992	-17.07
244.209	-37.55
244.426	11.61
244.643	-31.4
244.86	23.89
245.078	-51.88
245.295	38.23
245.512	81.24
245.729	-8.87
245.946	54.61
246.163	-35.5
246.38	32.08
246.597	5.46
246.814	32.08
247.031	-10.92
247.248	15.7
247.464	-68.27
247.681	-4.78
247.898	13.65
248.115	30.04
248.332	-0.68
248.549	34.13
248.766	5.46
248.983	-19.11
249.2	-51.88
249.417	54.61
249.633	-4.78
249.85	-27.31
250.067	40.28
250.284	1.37
250.501	-0.68
250.717	13.65
250.934	-19.11
251.151	-8.87
251.368	9.56
251.585	-43.69
251.801	40.28
252.018	11.61
252.235	-19.11
252.451	-35.5
252.668	-29.35
252.885	54.61
253.102	25.94
253.318	-19.11
253.535	-80.55
253.752	21.85
253.968	-41.64
254.185	-31.4
254.401	-19.11
254.618	-76.46
254.835	-29.35
255.051	-19.11
255.268	32.08
255.484	-41.64
255.701	-25.26
255.917	-2.73
256.134	9.56
256.351	5.46
256.567	-68.27
256.784	-55.98
257	15.7
257.217	27.99
257.433	34.13
257.65	40.28
257.866	17.75
258.082	-33.45
258.299	-29.35
258.515	9.56
258.732	-109.22
258.948	-25.26
259.165	-84.65
259.381	52.56
259.597	-17.07
259.814	-31.4
260.03	-39.59
260.246	40.28
260.463	38.23
260.679	-19.11
260.895	15.7
261.112	-15.02
261.328	7.51
261.544	-76.46
261.761	52.56
261.977	7.51
262.193	-80.55
262.409	103.76
262.626	25.94
262.842	32.08
263.058	-43.69
263.274	-19.11
263.49	32.08
263.707	48.47
263.923	27.99
264.139	13.65
264.355	-23.21
264.571	36.18
264.787	11.61
265.004	15.7
265.22	9.56
265.436	-39.59
265.652	-15.02
265.868	83.28
266.084	11.61
266.3	-80.55
266.516	-33.45
266.732	30.04
266.948	13.65
267.164	-33.45
267.38	7.51
267.596	-55.98
267.812	-27.31
268.028	54.61
268.244	-6.83
268.46	-2.73
268.676	-8.87
268.892	7.51
269.108	7.51
269.324	-43.69
269.54	-25.26
269.756	17.75
269.972	11.61
270.188	-43.69
270.403	19.8
270.619	-29.35
270.835	7.51
271.051	11.61
271.267	73.04
271.483	-80.55
271.698	-10.92
271.914	71
272.13	-60.07
272.346	3.41
272.562	17.75
272.777	-37.55
272.993	-35.5
273.209	38.23
273.425	87.38
273.64	9.56
273.856	17.75
274.072	73.04
274.287	-74.41
274.503	-25.26
274.719	17.75
274.934	30.04
275.15	-2.73
275.366	-12.97
275.581	-49.83
275.797	-17.07
276.012	38.23
276.228	48.47
276.444	30.04
276.659	-33.45
276.875	-80.55
277.09	7.51
277.306	-31.4
277.521	19.8
277.737	9.56
277.952	23.89
278.168	32.08
278.383	64.85
278.599	23.89
278.814	60.76
279.03	50.52
279.245	1.37
279.461	-25.26
279.676	-19.11
279.892	-21.16
280.107	-27.31
280.322	23.89
280.538	17.75
280.753	-4.78
280.969	-15.02
281.184	19.8
281.399	-0.68
281.615	21.85
281.83	73.04
282.045	-72.36
282.26	68.95
282.476	-49.83
282.691	-49.83
282.906	48.47
283.122	38.23
283.337	-21.16
283.552	-8.87
283.767	-2.73
283.983	52.56
284.198	50.52
284.413	-68.27
284.628	-12.97
284.843	21.85
285.058	99.67
285.274	-12.97
285.489	32.08
285.704	36.18
285.919	48.47
286.134	-2.73
286.349	9.56
286.564	17.75
286.779	-10.92
286.995	-0.68
287.21	-49.83
287.425	-23.21
287.64	-55.98
287.855	1.37
288.07	1.37
288.285	-2.73
288.5	-29.35
288.715	-43.69
288.93	-2.73
289.145	85.33
289.36	9.56
289.575	-47.79
289.79	11.61
290.004	36.18
290.219	46.42
290.434	-23.21
290.649	40.28
290.864	40.28
291.079	5.46
291.294	-29.35
291.509	1.37
291.724	-4.78
291.938	68.95
292.153	-27.31
292.368	56.66
292.583	30.04
292.798	27.99
293.012	50.52
293.227	-29.35
293.442	9.56
293.657	40.28
293.871	97.62
294.086	-45.74
294.301	30.04
294.516	21.85
294.73	25.94
294.945	46.42
295.16	-43.69
295.374	-23.21
295.589	46.42
295.804	-10.92
296.018	-2.73
296.233	30.04
296.447	54.61
296.662	-2.73
296.877	-10.92
297.091	46.42
297.306	62.8
297.52	-8.87
297.735	-25.26
297.949	15.7
298.164	7.51
298.378	71
298.593	30.04
298.807	-2.73
299.022	64.85
299.236	-10.92
299.451	40.28
299.665	7.51
299.88	27.99
300.094	38.23
300.309	5.46
300.523	-33.45
300.737	-0.68
300.952	21.85
301.166	95.57
301.381	1.37
301.595	-17.07
301.809	-31.4
302.024	64.85
302.238	-33.45
302.452	21.85
302.667	-31.4
302.881	-8.87
303.095	-23.21
303.309	42.32
303.524	-2.73
303.738	40.28
303.952	21.85
304.166	32.08
304.381	-88.75
304.595	5.46
304.809	40.28
305.023	30.04
305.237	21.85
305.452	-10.92
305.666	1.37
305.88	54.61
306.094	1.37
306.308	-39.59
306.522	-27.31
306.736	9.56
306.95	9.56
307.164	-68.27
307.379	52.56
307.593	46.42
307.807	-17.07
308.021	1.37
308.235	-6.83
308.449	-6.83
308.663	23.89
308.877	-10.92
309.091	13.65
309.305	-23.21
309.519	-37.55
309.733	32.08
309.947	-76.46
310.161	-0.68
310.374	30.04
310.588	66.9
310.802	-0.68
311.016	-19.11
311.23	-78.51
311.444	46.42
311.658	32.08
311.872	46.42
312.085	27.99
312.299	-4.78
312.513	-15.02
312.727	-17.07
312.941	30.04
313.154	50.52
313.368	-25.26
313.582	9.56
313.796	9.56
314.009	15.7
314.223	34.13
314.437	9.56
314.651	-31.4
314.864	46.42
315.078	1.37
315.292	-0.68
315.505	30.04
315.719	-23.21
315.933	-2.73
316.146	7.51
316.36	64.85
316.573	-21.16
316.787	-0.68
317.001	5.46
317.214	-8.87
317.428	-35.5
317.641	-8.87
317.855	5.46
318.068	7.51
318.282	75.09
318.495	1.37
318.709	-0.68
318.922	-29.35
319.136	-19.11
319.349	-25.26
319.563	68.95
319.776	9.56
319.99	15.7
320.203	1.37
320.417	-35.5
320.63	23.89
320.843	25.94
321.057	-10.92
321.27	21.85
321.483	52.56
321.697	40.28
321.91	-60.07
322.124	38.23
322.337	21.85
322.55	27.99
322.763	-8.87
322.977	17.75
323.19	13.65
323.403	52.56
323.617	1.37
323.83	27.99
324.043	5.46
324.256	58.71
324.469	-45.74
324.683	38.23
324.896	25.94
325.109	21.85
325.322	17.75
325.535	75.09
325.748	-8.87
325.962	17.75
326.175	-19.11
326.388	-19.11
326.601	7.51
326.814	32.08
327.027	-2.73
327.24	-31.4
327.453	-39.59
327.666	21.85
327.879	21.85
328.092	27.99
328.305	1.37
328.518	-29.35
328.731	1.37
328.944	38.23
329.157	-51.88
329.37	54.61
329.583	44.37
329.796	44.37
330.009	-12.97
330.222	5.46
330.435	-35.5
330.648	56.66
330.861	-49.83
331.073	-39.59
331.286	-10.92
331.499	54.61
331.712	-0.68
331.925	21.85
332.138	-17.07
332.35	56.66
332.563	42.32
332.776	40.28
332.989	46.42
333.202	64.85
333.414	-12.97
333.627	54.61
333.84	-2.73
334.053	58.71
334.265	56.66
334.478	-41.64
334.691	83.28
334.903	5.46
335.116	-35.5
335.329	21.85
335.541	-21.16
335.754	7.51
335.966	21.85
336.179	5.46
336.392	1.37
336.604	19.8
336.817	23.89
337.029	83.28
337.242	42.32
337.454	-6.83
337.667	-76.46
337.88	9.56
338.092	-6.83
338.305	64.85
338.517	-47.79
338.729	3.41
338.942	64.85
339.154	5.46
339.367	-27.31
339.579	38.23
339.792	-60.07
340.004	-45.74
340.217	27.99
340.429	54.61
340.641	-25.26
340.854	46.42
341.066	-17.07
341.278	7.51
341.491	-19.11
341.703	36.18
341.915	-58.03
342.128	5.46
342.34	7.51
342.552	42.32
342.764	-43.69
342.977	25.94
343.189	-2.73
343.401	1.37
343.613	17.75
343.826	27.99
344.038	-43.69
344.25	36.18
344.462	75.09
344.674	75.09
344.886	25.94
345.099	9.56
345.311	25.94
345.523	46.42
345.735	-53.93
345.947	99.67
346.159	54.61
346.371	50.52
346.583	1.37
346.795	21.85
347.007	3.41
347.219	-17.07
347.431	21.85
347.643	15.7
347.855	-15.02
348.067	54.61
348.279	-29.35
348.491	27.99
348.703	40.28
348.915	38.23
349.127	15.7
349.339	-8.87
349.551	17.75
349.763	62.8
349.975	36.18
350.187	42.32
350.399	9.56
350.61	56.66
350.822	50.52
351.034	50.52
351.246	-0.68
351.458	-8.87
351.669	-0.68
351.881	32.08
352.093	11.61
352.305	23.89
352.517	-47.79
352.728	-25.26
352.94	83.28
353.152	44.37
353.363	75.09
353.575	32.08
353.787	23.89
353.999	13.65
354.21	-2.73
354.422	79.19
354.633	-23.21
354.845	75.09
355.057	7.51
355.268	25.94
355.48	103.76
355.692	32.08
355.903	54.61
356.115	-84.65
356.326	15.7
356.538	50.52
356.749	11.61
356.961	64.85
357.172	40.28
357.384	68.95
357.595	5.46
357.807	101.72
358.018	30.04
358.23	46.42
358.441	-21.16
358.653	-12.97
358.864	34.13
359.075	52.56
359.287	-23.21
359.498	9.56
359.709	-4.78
359.921	-8.87
360.132	9.56
360.344	36.18
360.555	32.08
360.766	56.66
360.977	5.46
361.189	7.51
361.4	79.19
361.611	5.46
361.823	38.23
362.034	25.94
362.245	-2.73
362.456	62.8
362.667	25.94
362.879	-35.5
363.09	-12.97
363.301	-10.92
363.512	-15.02
363.723	-0.68
363.935	13.65
364.146	64.85
364.357	-92.84
364.568	42.32
364.779	-47.79
364.99	44.37
365.201	46.42
365.412	114
365.623	-0.68
365.834	66.9
366.045	7.51
366.256	81.24
366.467	46.42
366.678	-39.59
366.889	48.47
367.1	50.52
367.311	15.7
367.522	68.95
367.733	54.61
367.944	111.96
368.155	79.19
368.366	44.37
368.577	-27.31
368.788	-23.21
368.999	15.7
369.209	25.94
369.42	-33.45
369.631	17.75
369.842	46.42
370.053	-41.64
370.264	48.47
370.474	50.52
370.685	81.24
370.896	46.42
371.107	7.51
371.317	79.19
371.528	1.37
371.739	13.65
371.95	9.56
372.16	85.33
372.371	-10.92
372.582	1.37
372.792	-62.12
373.003	11.61
373.214	-12.97
373.424	34.13
373.635	23.89
373.846	44.37
374.056	-33.45
374.267	38.23
374.477	-8.87
374.688	5.46
374.898	19.8
375.109	-10.92
375.319	13.65
375.53	-6.83
375.74	38.23
375.951	30.04
376.161	34.13
376.372	87.38
376.582	-70.31
376.793	1.37
377.003	5.46
377.214	56.66
377.424	38.23
377.635	50.52
377.845	-19.11
378.055	46.42
378.266	103.76
378.476	64.85
378.686	66.9
378.897	30.04
379.107	62.8
379.317	-21.16
379.528	-23.21
379.738	48.47
379.948	-0.68
380.158	34.13
380.369	34.13
380.579	30.04
380.789	21.85
380.999	30.04
381.21	38.23
381.42	36.18
381.63	21.85
381.84	-12.97
382.05	46.42
382.261	64.85
382.471	46.42
382.681	-17.07
382.891	38.23
383.101	46.42
383.311	-4.78
383.521	-31.4
383.731	11.61
383.941	77.14
384.151	23.89
384.361	-39.59
384.571	95.57
384.781	103.76
384.991	-10.92
385.201	3.41
385.411	7.51
385.621	44.37
385.831	40.28
386.041	38.23
386.251	30.04
386.461	48.47
386.671	-19.11
386.881	-27.31
387.091	38.23
387.301	77.14
387.511	58.71
387.72	13.65
387.93	68.95
388.14	48.47
388.35	54.61
388.56	64.85
388.769	19.8
388.979	40.28
389.189	-19.11
389.399	-0.68
389.609	3.41
389.818	25.94
390.028	23.89
390.238	5.46
390.447	-15.02
390.657	66.9
390.867	19.8
391.076	9.56
391.286	56.66
391.496	5.46
391.705	5.46
391.915	15.7
392.125	64.85
392.334	7.51
392.544	81.24
392.753	81.24
392.963	19.8
393.172	66.9
393.382	17.75
393.591	50.52
393.801	30.04
394.01	32.08
394.22	-6.83
394.429	17.75
394.639	36.18
394.848	64.85
395.058	50.52
395.267	48.47
395.477	-4.78
395.686	-8.87
395.895	83.28
396.105	71
396.314	42.32
396.524	73.04
396.733	77.14
396.942	75.09
397.152	75.09
397.361	169.3
397.57	60.76
397.78	62.8
397.989	48.47
398.198	68.95
398.407	54.61
398.617	105.81
398.826	64.85
399.035	116.05
399.244	109.91
399.453	40.28
399.663	111.96
399.872	71
400.081	52.56
400.29	99.67
400.499	109.91
400.708	93.52
400.917	62.8
401.127	56.66
401.336	79.19
401.545	23.89
401.754	95.57
401.963	81.24
402.172	85.33
402.381	58.71
402.59	54.61
402.799	95.57
403.008	75.09
403.217	62.8
403.426	50.52
403.635	87.38
403.844	157.01
404.053	132.44
404.262	126.29
404.471	177.49
404.68	99.67
404.888	120.15
405.097	107.86
405.306	97.62
405.515	236.88
405.724	234.83
405.933	152.91
406.142	234.83
406.35	128.34
406.559	73.04
406.768	171.35
406.977	189.78
407.185	183.63
407.394	157.01
407.603	169.3
407.812	222.55
408.02	226.64
408.229	302.42
408.438	206.16
408.646	238.93
408.855	169.3
409.064	216.4
409.272	263.51
409.481	267.6
409.69	365.9
409.898	333.14
410.107	240.98
410.315	308.56
410.524	382.29
410.733	339.28
410.941	390.48
411.15	390.48
411.358	372.05
411.567	443.73
411.775	456.01
411.984	398.67
412.192	441.68
412.401	439.63
412.609	523.6
412.818	474.45
413.026	447.82
413.234	529.74
413.443	523.6
413.651	521.55
413.86	617.8
414.068	568.65
414.276	603.47
414.485	712.01
414.693	619.85
414.901	771.4
415.11	728.39
415.318	712.01
415.526	830.79
415.734	810.31
415.943	787.79
416.151	884.04
416.359	920.9
416.567	804.17
416.776	906.57
416.984	955.72
417.192	1090.88
417.4	976.2
417.608	1045.83
417.817	1111.36
418.025	1107.27
418.233	1226.05
418.441	1056.07
418.649	1279.3
418.857	1353.02
419.065	1377.6
419.273	1400.13
419.481	1389.89
419.689	1436.99
419.897	1523.01
420.105	1574.21
420.313	1654.08
420.521	1547.58
420.729	1713.47
420.937	1711.42
421.145	1819.96
421.353	1942.84
421.561	2055.48
421.769	1873.21
421.977	2125.11
422.185	2209.08
422.393	2344.24
422.601	2381.1
422.809	2352.43
423.017	2473.26
423.224	2463.02
423.432	2510.13
423.64	2739.5
423.848	2751.79
424.056	2864.43
424.263	3052.84
424.471	3028.26
424.679	2987.3
424.887	3323.17
425.094	3351.84
425.302	3292.45
425.51	3456.29
425.718	3534.11
425.925	3743
426.133	3794.2
426.341	4003.1
426.548	4056.34
426.756	4103.45
426.964	4066.58
427.171	4420.88
427.379	4373.78
427.586	4635.92
427.794	4668.69
428.001	4990.22
428.209	5305.6
428.417	4973.83
428.624	5481.73
428.832	5416.19
429.039	5391.62
429.247	5575.94
429.454	5917.95
429.662	6321.4
429.869	5868.8
430.076	6409.46
430.284	6042.87
430.491	6302.97
430.699	6888.68
430.906	6821.1
431.114	7021.8
431.321	7136.49
431.528	7267.56
431.736	7716.06
431.943	7924.96
432.15	7632.1
432.358	7953.63
432.565	8367.32
432.772	8498.39
432.979	8744.14
433.187	8858.83
433.394	8971.47
433.601	9682.11
433.808	9585.86
434.016	9471.17
434.223	9813.18
434.43	10677.43
434.637	10249.4
434.844	10917.04
435.052	11240.62
435.259	10990.77
435.466	11181.23
435.673	11285.67
435.88	11826.34
436.087	12225.69
436.294	12545.17
436.501	12235.93
436.708	12416.15
436.915	12809.36
437.122	13460.62
437.329	13323.4
437.537	13948.03
437.743	14007.42
437.95	13655.17
438.157	14666.87
438.364	15148.14
438.571	15006.83
438.778	14996.59
438.985	16499.8
439.192	15977.57
439.399	16299.1
439.606	15922.27
439.813	16981.07
440.02	17914.95
440.227	17716.29
440.433	17323.08
440.64	18218.05
440.847	17767.49
441.054	18142.27
441.261	19567.66
441.467	19432.49
441.674	19729.45
441.881	20243.49
442.088	20397.09
442.294	20155.43
442.501	20667.42
442.708	21154.83
442.914	22115.33
443.121	22879.22
443.328	22508.54
443.534	23913.45
443.741	23213.04
443.948	23043.06
444.154	24374.24
444.361	24529.89
444.568	24402.91
444.774	24527.84
444.981	24892.38
445.187	25603.02
445.394	26704.83
445.6	26325.96
445.807	29012.89
446.013	27540.4
446.22	28273.57
446.426	29172.63
446.633	29418.39
446.839	30280.58
447.046	29287.32
447.252	30925.69
447.459	30868.35
447.665	30233.48
447.871	32082.8
448.078	33491.8
448.284	31695.73
448.491	32633.7
448.697	33682.26
448.903	34534.21
449.11	34288.46
449.316	34093.9
449.522	34710.34
449.728	35525.43
449.935	35945.26
450.141	35711.8
450.347	36530.98
450.553	35582.77
450.76	35765.04
450.966	37112.61
451.172	36404.01
451.378	37387.03
451.584	36782.88
451.791	37593.88
451.997	37411.61
452.203	38208.27
452.409	38019.86
452.615	37600.02
452.821	36469.54
453.027	36035.38
453.233	38038.29
453.44	36440.87
453.646	36856.61
453.852	36662.05
454.058	37552.92
454.264	36444.97
454.47	37419.8
454.676	35978.03
454.882	37704.47
455.088	34145.1
455.294	35193.66
455.5	35287.87
455.705	35502.9
455.911	34196.3
456.117	33514.33
456.323	33442.65
456.529	31394.68
456.735	32785.25
456.941	31859.57
457.147	31167.35
457.352	30712.7
457.558	30288.78
457.764	29868.94
457.97	29520.79
458.176	29103
458.381	28638.11
458.587	27378.61
458.793	27620.27
458.999	26532.8
459.204	28249
459.41	27317.17
459.616	25469.9
459.821	25252.82
460.027	25465.81
460.233	24681.44
460.438	23569.39
460.644	24067.05
460.85	22887.42
461.055	22410.24
461.261	22297.6
461.466	20691.99
461.672	20302.88
461.878	21478.41
462.083	19842.09
462.289	20059.17
462.494	19708.97
462.7	18472
462.905	18220.1
463.111	18687.03
463.316	18918.45
463.522	18402.36
463.727	18578.49
463.932	18433.08
464.138	18359.36
464.343	18426.94
464.549	17910.85
464.754	18535.48
464.959	18420.8
465.165	18168.9
465.37	17087.57
465.575	17007.7
465.781	17689.67
465.986	18015.3
466.191	17179.73
466.397	16723.03
466.602	16010.34
466.807	16565.34
467.012	16313.44
