Data from USB4F104151__264__14-01-58-241.txt Node

Date: Thu Mar 13 14:01:58 EDT 2025
User: louis
Spectrometer: USB4F10415
Trigger mode: 4
Integration Time (sec): 1.000000E-2
Scans to average: 1
Electric dark correction enabled: true
Nonlinearity correction enabled: false
Boxcar width: 0
XAxis mode: Wavelengths
Number of Pixels in Spectrum: 3648
>>>>>Begin Spectral Data<<<<<
178.204	-18.94
178.424	-18.94
178.644	-18.94
178.864	-57.86
179.084	17.92
179.304	-68.09
179.524	-2.56
179.744	-25.09
179.964	-84.48
180.184	40.45
180.404	7.68
180.624	7.68
180.844	34.3
181.064	22.02
181.283	17.92
181.503	-0.51
181.723	50.69
181.943	11.78
182.163	77.31
182.383	69.12
182.602	-6.66
182.822	36.35
183.042	-10.75
183.262	62.98
183.482	-10.75
183.701	46.59
183.921	-37.38
184.141	40.45
184.361	11.78
184.58	46.59
184.8	24.06
185.02	-12.8
185.239	40.45
185.459	56.83
185.679	48.64
185.898	-18.94
186.118	46.59
186.338	79.36
186.557	-20.99
186.777	46.59
186.997	52.74
187.216	-0.51
187.436	15.87
187.655	101.89
187.875	28.16
188.095	-51.71
188.314	44.54
188.534	91.65
188.753	46.59
188.973	-31.23
189.192	-23.04
189.412	62.98
189.631	36.35
189.851	83.45
190.07	52.74
190.29	75.26
190.509	36.35
190.729	54.78
190.948	159.23
191.168	60.93
191.387	-4.61
191.607	42.5
191.826	62.98
192.045	3.58
192.265	1.54
192.484	44.54
192.704	9.73
192.923	32.26
193.142	50.69
193.362	30.21
193.581	67.07
193.8	30.21
194.02	11.78
194.239	30.21
194.458	46.59
194.678	11.78
194.897	13.82
195.116	5.63
195.335	22.02
195.555	19.97
195.774	-55.81
195.993	58.88
196.212	28.16
196.432	-33.28
196.651	77.31
196.87	32.26
197.089	28.16
197.308	-68.09
197.528	40.45
197.747	-4.61
197.966	9.73
198.185	54.78
198.404	28.16
198.623	-8.7
198.842	69.12
199.062	-47.62
199.281	52.74
199.5	32.26
199.719	3.58
199.938	-4.61
200.157	3.58
200.376	36.35
200.595	-12.8
200.814	15.87
201.033	13.82
201.252	7.68
201.471	30.21
201.69	30.21
201.909	26.11
202.128	-0.51
202.347	26.11
202.566	30.21
202.785	73.21
203.004	9.73
203.223	42.5
203.442	-20.99
203.661	48.64
203.879	54.78
204.098	67.07
204.317	9.73
204.536	34.3
204.755	30.21
204.974	79.36
205.193	48.64
205.411	67.07
205.63	28.16
205.849	9.73
206.068	101.89
206.287	85.5
206.505	36.35
206.724	-41.47
206.943	5.63
207.162	-4.61
207.381	-29.18
207.599	15.87
207.818	62.98
208.037	36.35
208.255	11.78
208.474	69.12
208.693	-25.09
208.911	60.93
209.13	15.87
209.349	52.74
209.567	52.74
209.786	28.16
210.005	-4.61
210.223	15.87
210.442	40.45
210.661	40.45
210.879	-25.09
211.098	-0.51
211.316	13.82
211.535	40.45
211.753	-10.75
211.972	36.35
212.191	5.63
212.409	73.21
212.628	44.54
212.846	5.63
213.065	-27.14
213.283	28.16
213.502	24.06
213.72	17.92
213.938	54.78
214.157	-33.28
214.375	38.4
214.594	28.16
214.812	44.54
215.031	50.69
215.249	30.21
215.467	24.06
215.686	85.5
215.904	11.78
216.122	-37.38
216.341	93.69
216.559	-0.51
216.778	38.4
216.996	3.58
217.214	32.26
217.432	22.02
217.651	-18.94
217.869	58.88
218.087	-2.56
218.306	3.58
218.524	40.45
218.742	36.35
218.96	75.26
219.179	5.63
219.397	22.02
219.615	36.35
219.833	-68.09
220.051	13.82
220.27	48.64
220.488	34.3
220.706	11.78
220.924	-16.9
221.142	-33.28
221.36	-53.76
221.578	40.45
221.796	7.68
222.015	-2.56
222.233	22.02
222.451	60.93
222.669	11.78
222.887	52.74
223.105	-25.09
223.323	56.83
223.541	-51.71
223.759	-8.7
223.977	-2.56
224.195	108.03
224.413	3.58
224.631	-4.61
224.849	11.78
225.067	44.54
225.285	69.12
225.503	5.63
225.721	46.59
225.939	30.21
226.157	-20.99
226.375	62.98
226.592	-4.61
226.81	-45.57
227.028	26.11
227.246	56.83
227.464	-4.61
227.682	-4.61
227.9	7.68
228.117	95.74
228.335	-2.56
228.553	24.06
228.771	34.3
228.989	85.5
229.206	54.78
229.424	19.97
229.642	67.07
229.86	9.73
230.077	11.78
230.295	9.73
230.513	19.97
230.731	60.93
230.948	69.12
231.166	32.26
231.384	79.36
231.601	-0.51
231.819	40.45
232.037	38.4
232.254	36.35
232.472	60.93
232.689	-14.85
232.907	62.98
233.125	77.31
233.342	110.08
233.56	44.54
233.777	42.5
233.995	28.16
234.213	-2.56
234.43	56.83
234.648	46.59
234.865	62.98
235.083	26.11
235.3	32.26
235.518	38.4
235.735	13.82
235.953	34.3
236.17	75.26
236.388	81.41
236.605	-43.52
236.822	30.21
237.04	32.26
237.257	44.54
237.475	-14.85
237.692	48.64
237.909	-0.51
238.127	-18.94
238.344	19.97
238.562	9.73
238.779	105.98
238.996	62.98
239.214	-18.94
239.431	44.54
239.648	42.5
239.865	69.12
240.083	28.16
240.3	77.31
240.517	1.54
240.735	93.69
240.952	110.08
241.169	28.16
241.386	-0.51
241.603	19.97
241.821	30.21
242.038	38.4
242.255	28.16
242.472	28.16
242.689	11.78
242.907	62.98
243.124	24.06
243.341	52.74
243.558	13.82
243.775	-12.8
243.992	62.98
244.209	62.98
244.426	69.12
244.643	11.78
244.86	58.88
245.078	13.82
245.295	36.35
245.512	-14.85
245.729	11.78
245.946	56.83
246.163	-0.51
246.38	-4.61
246.597	19.97
246.814	54.78
247.031	58.88
247.248	-20.99
247.464	62.98
247.681	3.58
247.898	5.63
248.115	17.92
248.332	-37.38
248.549	48.64
248.766	38.4
248.983	-4.61
249.2	-6.66
249.417	85.5
249.633	15.87
249.85	9.73
250.067	46.59
250.284	91.65
250.501	19.97
250.717	46.59
250.934	56.83
251.151	40.45
251.368	103.93
251.585	69.12
251.801	52.74
252.018	-31.23
252.235	3.58
252.451	81.41
252.668	-0.51
252.885	83.45
253.102	-8.7
253.318	71.17
253.535	26.11
253.752	44.54
253.968	138.75
254.185	50.69
254.401	62.98
254.618	30.21
254.835	-0.51
255.051	38.4
255.268	79.36
255.484	-29.18
255.701	73.21
255.917	30.21
256.134	-0.51
256.351	-0.51
256.567	44.54
256.784	69.12
257	40.45
257.217	26.11
257.433	65.02
257.65	54.78
257.866	42.5
258.082	22.02
258.299	38.4
258.515	50.69
258.732	15.87
258.948	30.21
259.165	-10.75
259.381	67.07
259.597	40.45
259.814	19.97
260.03	15.87
260.246	22.02
260.463	34.3
260.679	46.59
260.895	30.21
261.112	34.3
261.328	40.45
261.544	56.83
261.761	38.4
261.977	67.07
262.193	-14.85
262.409	-0.51
262.626	7.68
262.842	73.21
263.058	-0.51
263.274	42.5
263.49	-10.75
263.707	-2.56
263.923	108.03
264.139	42.5
264.355	48.64
264.571	79.36
264.787	3.58
265.004	11.78
265.22	36.35
265.436	13.82
265.652	5.63
265.868	19.97
266.084	-51.71
266.3	19.97
266.516	36.35
266.732	42.5
266.948	13.82
267.164	19.97
267.38	-14.85
267.596	52.74
267.812	62.98
268.028	52.74
268.244	161.28
268.46	40.45
268.676	62.98
268.892	19.97
269.108	44.54
269.324	71.17
269.54	-2.56
269.756	99.84
269.972	-16.9
270.188	56.83
270.403	-14.85
270.619	69.12
270.835	-0.51
271.051	81.41
271.267	26.11
271.483	5.63
271.698	3.58
271.914	22.02
272.13	-2.56
272.346	73.21
272.562	44.54
272.777	-18.94
272.993	-8.7
273.209	-27.14
273.425	19.97
273.64	50.69
273.856	54.78
274.072	46.59
274.287	26.11
274.503	-57.86
274.719	52.74
274.934	24.06
275.15	60.93
275.366	19.97
275.581	-33.28
275.797	128.51
276.012	54.78
276.228	-0.51
276.444	101.89
276.659	38.4
276.875	40.45
277.09	5.63
277.306	19.97
277.521	-2.56
277.737	46.59
277.952	48.64
278.168	26.11
278.383	81.41
278.599	-47.62
278.814	114.17
279.03	24.06
279.245	69.12
279.461	-23.04
279.676	69.12
279.892	26.11
280.107	93.69
280.322	-8.7
280.538	-33.28
280.753	54.78
280.969	52.74
281.184	54.78
281.399	-4.61
281.615	3.58
281.83	46.59
282.045	56.83
282.26	58.88
282.476	-29.18
282.691	24.06
282.906	73.21
283.122	13.82
283.337	-20.99
283.552	13.82
283.767	67.07
283.983	44.54
284.198	30.21
284.413	1.54
284.628	112.13
284.843	34.3
285.058	77.31
285.274	54.78
285.489	7.68
285.704	56.83
285.919	13.82
286.134	54.78
286.349	48.64
286.564	38.4
286.779	32.26
286.995	-4.61
287.21	122.37
287.425	60.93
287.64	-35.33
287.855	52.74
288.07	58.88
288.285	44.54
288.5	38.4
288.715	-35.33
288.93	-8.7
289.145	3.58
289.36	48.64
289.575	32.26
289.79	40.45
290.004	30.21
290.219	52.74
290.434	-29.18
290.649	26.11
290.864	26.11
291.079	67.07
291.294	36.35
291.509	7.68
291.724	62.98
291.938	-8.7
292.153	71.17
292.368	13.82
292.583	36.35
292.798	42.5
293.012	-16.9
293.227	3.58
293.442	40.45
293.657	62.98
293.871	105.98
294.086	40.45
294.301	97.79
294.516	-2.56
294.73	-2.56
294.945	26.11
295.16	-37.38
295.374	71.17
295.589	30.21
295.804	-6.66
296.018	46.59
296.233	60.93
296.447	110.08
296.662	-20.99
296.877	75.26
297.091	38.4
297.306	65.02
297.52	28.16
297.735	52.74
297.949	60.93
298.164	28.16
298.378	48.64
298.593	38.4
298.807	-20.99
299.022	42.5
299.236	142.85
299.451	38.4
299.665	36.35
299.88	11.78
300.094	-10.75
300.309	34.3
300.523	38.4
300.737	3.58
300.952	69.12
301.166	56.83
301.381	85.5
301.595	62.98
301.809	67.07
302.024	36.35
302.238	13.82
302.452	136.7
302.667	30.21
302.881	46.59
303.095	19.97
303.309	46.59
303.524	-53.76
303.738	38.4
303.952	19.97
304.166	17.92
304.381	13.82
304.595	38.4
304.809	13.82
305.023	5.63
305.237	52.74
305.452	142.85
305.666	42.5
305.88	46.59
306.094	75.26
306.308	46.59
306.522	89.6
306.736	114.17
306.95	46.59
307.164	-16.9
307.379	26.11
307.593	3.58
307.807	54.78
308.021	44.54
308.235	3.58
308.449	89.6
308.663	71.17
308.877	58.88
309.091	-27.14
309.305	103.93
309.519	7.68
309.733	44.54
309.947	11.78
310.161	19.97
310.374	40.45
310.588	5.63
310.802	44.54
311.016	-37.38
311.23	105.98
311.444	30.21
311.658	40.45
311.872	101.89
312.085	19.97
312.299	103.93
312.513	34.3
312.727	103.93
312.941	-59.9
313.154	30.21
313.368	73.21
313.582	62.98
313.796	30.21
314.009	89.6
314.223	60.93
314.437	58.88
314.651	-2.56
314.864	40.45
315.078	40.45
315.292	75.26
315.505	85.5
315.719	40.45
315.933	126.46
316.146	30.21
316.36	40.45
316.573	19.97
316.787	15.87
317.001	44.54
317.214	38.4
317.428	148.99
317.641	50.69
317.855	38.4
318.068	26.11
318.282	34.3
318.495	52.74
318.709	44.54
318.922	-0.51
319.136	3.58
319.349	40.45
319.563	118.27
319.776	24.06
319.99	11.78
320.203	48.64
320.417	62.98
320.63	83.45
320.843	103.93
321.057	34.3
321.27	81.41
321.483	1.54
321.697	77.31
321.91	-20.99
322.124	28.16
322.337	142.85
322.55	60.93
322.763	-18.94
322.977	87.55
323.19	-0.51
323.403	28.16
323.617	-68.09
323.83	65.02
324.043	62.98
324.256	15.87
324.469	-29.18
324.683	22.02
324.896	19.97
325.109	42.5
325.322	7.68
325.535	118.27
325.748	116.22
325.962	19.97
326.175	73.21
326.388	81.41
326.601	-41.47
326.814	-10.75
327.027	26.11
327.24	71.17
327.453	-0.51
327.666	60.93
327.879	60.93
328.092	56.83
328.305	40.45
328.518	81.41
328.731	-43.52
328.944	81.41
329.157	28.16
329.37	75.26
329.583	69.12
329.796	97.79
330.009	-70.14
330.222	38.4
330.435	62.98
330.648	95.74
330.861	36.35
331.073	48.64
331.286	-0.51
331.499	32.26
331.712	24.06
331.925	44.54
332.138	73.21
332.35	69.12
332.563	50.69
332.776	48.64
332.989	17.92
333.202	7.68
333.414	-14.85
333.627	52.74
333.84	50.69
334.053	71.17
334.265	3.58
334.478	13.82
334.691	79.36
334.903	34.3
335.116	-49.66
335.329	52.74
335.541	50.69
335.754	79.36
335.966	-10.75
336.179	40.45
336.392	56.83
336.604	44.54
336.817	83.45
337.029	44.54
337.242	40.45
337.454	26.11
337.667	101.89
337.88	13.82
338.092	81.41
338.305	-20.99
338.517	-18.94
338.729	83.45
338.942	81.41
339.154	46.59
339.367	36.35
339.579	3.58
339.792	60.93
340.004	36.35
340.217	3.58
340.429	52.74
340.641	36.35
340.854	28.16
341.066	103.93
341.278	54.78
341.491	48.64
341.703	-10.75
341.915	-8.7
342.128	9.73
342.34	105.98
342.552	97.79
342.764	60.93
342.977	52.74
343.189	77.31
343.401	93.69
343.613	42.5
343.826	22.02
344.038	5.63
344.25	56.83
344.462	60.93
344.674	38.4
344.886	60.93
345.099	32.26
345.311	46.59
345.523	40.45
345.735	1.54
345.947	34.3
346.159	-10.75
346.371	26.11
346.583	40.45
346.795	85.5
347.007	40.45
347.219	46.59
347.431	28.16
347.643	52.74
347.855	40.45
348.067	99.84
348.279	81.41
348.491	9.73
348.703	122.37
348.915	114.17
349.127	-23.04
349.339	52.74
349.551	42.5
349.763	85.5
349.975	79.36
350.187	142.85
350.399	42.5
350.61	67.07
350.822	15.87
351.034	28.16
351.246	-20.99
351.458	93.69
351.669	71.17
351.881	60.93
352.093	9.73
352.305	89.6
352.517	-0.51
352.728	144.89
352.94	108.03
353.152	24.06
353.363	-6.66
353.575	67.07
353.787	34.3
353.999	101.89
354.21	34.3
354.422	22.02
354.633	-33.28
354.845	38.4
355.057	46.59
355.268	40.45
355.48	-8.7
355.692	-2.56
355.903	28.16
356.115	108.03
356.326	5.63
356.538	112.13
356.749	-14.85
356.961	42.5
357.172	71.17
357.384	93.69
357.595	69.12
357.807	62.98
358.018	40.45
358.23	42.5
358.441	85.5
358.653	38.4
358.864	40.45
359.075	28.16
359.287	34.3
359.498	93.69
359.709	7.68
359.921	24.06
360.132	91.65
360.344	11.78
360.555	99.84
360.766	19.97
360.977	28.16
361.189	36.35
361.4	30.21
361.611	140.8
361.823	-25.09
362.034	-12.8
362.245	42.5
362.456	105.98
362.667	17.92
362.879	7.68
363.09	71.17
363.301	97.79
363.512	62.98
363.723	-6.66
363.935	1.54
364.146	87.55
364.357	40.45
364.568	105.98
364.779	15.87
364.99	60.93
365.201	105.98
365.412	151.04
365.623	-12.8
365.834	52.74
366.045	28.16
366.256	71.17
366.467	1.54
366.678	13.82
366.889	28.16
367.1	93.69
367.311	58.88
367.522	85.5
367.733	19.97
367.944	-18.94
368.155	13.82
368.366	48.64
368.577	42.5
368.788	38.4
368.999	28.16
369.209	3.58
369.42	110.08
369.631	97.79
369.842	110.08
370.053	83.45
370.264	67.07
370.474	79.36
370.685	50.69
370.896	36.35
371.107	46.59
371.317	50.69
371.528	-20.99
371.739	93.69
371.95	52.74
372.16	36.35
372.371	48.64
372.582	36.35
372.792	97.79
373.003	5.63
373.214	69.12
373.424	79.36
373.635	1.54
373.846	73.21
374.056	-45.57
374.267	89.6
374.477	44.54
374.688	52.74
374.898	65.02
375.109	101.89
375.319	81.41
375.53	24.06
375.74	128.51
375.951	60.93
376.161	77.31
376.372	28.16
376.582	46.59
376.793	44.54
377.003	77.31
377.214	97.79
377.424	28.16
377.635	60.93
377.845	46.59
378.055	69.12
378.266	40.45
378.476	46.59
378.686	89.6
378.897	15.87
379.107	83.45
379.317	138.75
379.528	52.74
379.738	116.22
379.948	77.31
380.158	77.31
380.369	77.31
380.579	71.17
380.789	1.54
380.999	46.59
381.21	46.59
381.42	69.12
381.63	114.17
381.84	42.5
382.05	138.75
382.261	148.99
382.471	83.45
382.681	77.31
382.891	69.12
383.101	32.26
383.311	44.54
383.521	15.87
383.731	79.36
383.941	3.58
384.151	48.64
384.361	-6.66
384.571	24.06
384.781	40.45
384.991	85.5
385.201	110.08
385.411	91.65
385.621	101.89
385.831	91.65
386.041	38.4
386.251	28.16
386.461	144.89
386.671	58.88
386.881	30.21
387.091	38.4
387.301	19.97
387.511	40.45
387.72	54.78
387.93	69.12
388.14	38.4
388.35	22.02
388.56	-0.51
388.769	46.59
388.979	24.06
389.189	15.87
389.399	69.12
389.609	42.5
389.818	103.93
390.028	67.07
390.238	77.31
390.447	134.65
390.657	108.03
390.867	93.69
391.076	83.45
391.286	50.69
391.496	28.16
391.705	24.06
391.915	7.68
392.125	58.88
392.334	-64
392.544	40.45
392.753	124.41
392.963	75.26
393.172	36.35
393.382	48.64
393.591	36.35
393.801	19.97
394.01	81.41
394.22	40.45
394.429	34.3
394.639	30.21
394.848	196.09
395.058	26.11
395.267	126.46
395.477	79.36
395.686	93.69
395.895	81.41
396.105	112.13
396.314	79.36
396.524	120.32
396.733	136.7
396.942	126.46
397.152	105.98
397.361	114.17
397.57	85.5
397.78	85.5
397.989	87.55
398.198	36.35
398.407	60.93
398.617	101.89
398.826	138.75
399.035	112.13
399.244	114.17
399.453	118.27
399.663	138.75
399.872	148.99
400.081	87.55
400.29	144.89
400.499	105.98
400.708	120.32
400.917	89.6
401.127	105.98
401.336	79.36
401.545	175.61
401.754	87.55
401.963	153.09
402.172	65.02
402.381	77.31
402.59	126.46
402.799	187.9
403.008	85.5
403.217	85.5
403.426	132.61
403.635	134.65
403.844	171.52
404.053	114.17
404.262	101.89
404.471	167.42
404.68	210.43
404.888	114.17
405.097	91.65
405.306	122.37
405.515	38.4
405.724	93.69
405.933	146.94
406.142	181.76
406.35	120.32
406.559	171.52
406.768	151.04
406.977	239.1
407.185	249.34
407.394	243.2
407.603	200.19
407.812	232.96
408.02	220.67
408.229	237.05
408.438	142.85
408.646	183.81
408.855	181.76
409.064	126.46
409.272	298.49
409.481	222.72
409.69	232.96
409.898	278.01
410.107	318.97
410.315	306.68
410.524	337.4
410.733	343.55
410.941	368.12
411.15	359.93
411.358	318.97
411.567	431.61
411.775	249.34
411.984	364.03
412.192	388.6
412.401	382.46
412.609	427.51
412.818	398.84
413.026	423.42
413.234	396.79
413.443	355.83
413.651	474.62
413.86	536.06
414.068	443.9
414.276	603.64
414.485	542.2
414.693	511.48
414.901	593.4
415.11	572.92
415.318	599.54
415.526	605.69
415.734	634.36
415.943	654.84
416.151	703.99
416.359	716.28
416.567	697.85
416.776	751.09
416.984	835.06
417.192	798.2
417.4	830.96
417.608	859.63
417.817	894.45
418.025	986.61
418.233	968.18
418.441	955.89
418.649	1015.28
418.857	1058.29
419.065	1064.43
419.273	1105.39
419.481	1054.19
419.689	1185.26
419.897	1199.6
420.105	1355.24
420.313	1371.63
420.521	1449.45
420.729	1306.09
420.937	1396.2
421.145	1453.55
421.353	1498.6
421.561	1742.31
421.769	1652.2
421.977	1779.17
422.185	1670.63
422.393	1863.14
422.601	1934.82
422.809	1949.15
423.017	1914.34
423.224	2010.59
423.432	2121.18
423.64	2117.09
423.848	2381.28
424.056	2217.44
424.263	2430.43
424.471	2387.42
424.679	2436.57
424.887	2684.38
425.094	2532.83
425.302	2663.9
425.51	2837.97
425.718	2815.45
425.925	2690.52
426.133	3014.1
426.341	3096.02
426.548	3255.76
426.756	3196.37
426.964	3411.4
427.171	3407.31
427.379	3696.07
427.586	3640.78
427.794	3755.46
428.001	4126.15
428.209	4111.81
428.417	3993.03
428.624	4257.22
428.832	4234.69
429.039	4410.81
429.247	4251.07
429.454	4687.29
429.662	5006.77
429.869	4754.87
430.076	5080.5
430.284	4967.86
430.491	5191.09
430.699	5524.91
430.906	5236.14
431.114	5471.66
431.321	5733.8
431.528	5715.37
431.736	6036.9
431.943	6548.89
432.15	6227.36
432.358	6325.66
432.565	6643.1
432.772	6604.19
432.979	6991.25
433.187	7179.67
433.394	7136.66
433.601	7626.12
433.808	7830.92
434.016	7538.06
434.223	7851.4
434.43	8408.45
434.637	8064.39
434.844	8699.26
435.052	8897.91
435.259	8883.58
435.466	8942.97
435.673	8826.23
435.88	9538.93
436.087	9882.99
436.294	9815.4
436.501	9850.22
436.708	9821.55
436.915	10288.48
437.122	10878.3
437.329	10505.57
437.537	11105.62
437.743	11191.64
437.95	11208.02
438.157	11707.73
438.364	12338.5
438.571	12010.82
438.778	12170.57
438.985	13442.35
439.192	12676.41
439.399	13110.58
439.606	12629.31
439.813	13440.31
440.02	14574.88
440.227	13815.09
440.433	13954.35
440.64	14398.76
440.847	14341.41
441.054	14550.31
441.261	15713.55
441.467	15396.12
441.674	15867.15
441.881	16256.26
442.088	16379.14
442.294	16272.65
442.501	16725.25
442.708	17034.49
442.914	17581.3
443.121	18132.2
443.328	17800.43
443.534	19107.04
443.741	18576.61
443.948	18363.62
444.154	19713.24
444.361	19311.83
444.568	19471.57
444.774	19236.06
444.981	19889.36
445.187	20405.45
445.394	21376.19
445.6	20946.11
445.807	23000.23
446.013	22164.65
446.22	22412.46
446.426	22989.99
446.633	23643.29
446.839	24192.14
447.046	23211.17
447.252	24683.66
447.459	24499.34
447.665	24196.24
447.871	25605.24
448.078	26475.63
448.284	25570.43
448.491	25891.96
448.697	26969.19
448.903	27714.65
449.11	27470.94
449.316	26977.38
449.522	27425.89
449.728	28468.3
449.935	28429.39
450.141	28587.08
450.347	29049.92
450.553	28322.9
450.76	28429.39
450.966	29406.27
451.172	29045.83
451.378	29690.94
451.584	29230.15
451.791	30016.57
451.997	29781.05
452.203	30518.32
452.409	30465.07
452.615	30037.05
452.821	28763.21
453.027	28761.16
453.233	30233.65
453.44	28888.14
453.646	29101.12
453.852	29334.59
454.058	29697.08
454.264	28525.64
454.47	29885.5
454.676	28865.61
454.882	29967.41
455.088	27241.57
455.294	27696.22
455.5	28114
455.705	28488.78
455.911	27130.98
456.117	26844.26
456.323	26199.15
456.529	24874.12
456.735	26014.84
456.941	25488.51
457.147	24806.53
457.352	24231.05
457.558	23696.53
457.764	23960.72
457.97	23209.12
458.176	23000.23
458.381	23096.48
458.587	21736.63
458.793	21966
458.999	20686.02
459.204	22193.33
459.41	21507.26
459.616	20186.32
459.821	20071.63
460.027	20321.48
460.233	19766.48
460.438	18752.74
460.644	18959.58
460.85	18148.59
461.055	17908.97
461.261	17902.83
461.466	16583.94
461.672	15881.49
461.878	17071.36
462.083	16043.28
462.289	15834.38
462.494	15582.48
462.7	14675.23
462.905	14562.59
463.111	14908.7
463.316	15142.17
463.522	14634.27
463.727	14865.69
463.932	14765.34
464.138	14474.53
464.343	14609.7
464.549	14308.65
464.754	14830.88
464.959	14488.87
465.165	14566.69
465.37	13815.09
465.575	13346.1
465.781	14177.58
465.986	14169.38
466.191	13606.19
466.397	13331.76
466.602	12670.27
466.807	13106.49
467.012	13382.96
467.218	13059.38
467.423	12899.64
467.628	12967.23
467.833	13456.69
468.038	13028.67
468.244	12682.56
