Data from USB4F104151__16__13-52-30-284.txt Node

Date: Thu Mar 13 13:52:30 EDT 2025
User: louis
Spectrometer: USB4F10415
Trigger mode: 4
Integration Time (sec): 1.000000E-2
Scans to average: 1
Electric dark correction enabled: true
Nonlinearity correction enabled: false
Boxcar width: 0
XAxis mode: Wavelengths
Number of Pixels in Spectrum: 3648
>>>>>Begin Spectral Data<<<<<
178.204	-40.11
178.424	-40.11
178.644	-40.11
178.864	-62.63
179.084	-44.2
179.304	-21.67
179.524	-9.39
179.744	0.85
179.964	15.19
180.184	-1.19
180.404	-54.44
180.624	-36.01
180.844	21.33
181.064	-11.43
181.283	15.19
181.503	15.19
181.723	66.39
181.943	17.24
182.163	66.39
182.383	35.67
182.602	15.19
182.822	-31.91
183.042	4.95
183.262	-44.2
183.482	52.05
183.701	19.29
183.921	17.24
184.141	45.91
184.361	13.14
184.58	60.24
184.8	47.96
185.02	-52.39
185.239	45.91
185.459	19.29
185.679	62.29
185.898	-31.91
186.118	19.29
186.338	60.24
186.557	35.67
186.777	50
186.997	19.29
187.216	76.63
187.436	23.38
187.655	-52.39
187.875	76.63
188.095	33.62
188.314	64.34
188.534	11.09
188.753	23.38
188.973	64.34
189.192	60.24
189.412	103.25
189.631	31.57
189.851	58.2
190.07	0.85
190.29	-5.29
190.509	93.01
190.729	2.9
190.948	-46.25
191.168	72.53
191.387	56.15
191.607	-1.19
191.826	-29.87
192.045	15.19
192.265	47.96
192.484	9.05
192.704	37.72
192.923	19.29
193.142	9.05
193.362	-7.34
193.581	64.34
193.8	15.19
194.02	68.44
194.239	37.72
194.458	33.62
194.678	66.39
194.897	115.54
195.116	41.81
195.335	-17.58
195.555	43.86
195.774	0.85
195.993	33.62
196.212	2.9
196.432	-9.39
196.651	17.24
196.87	-15.53
197.089	70.48
197.308	25.43
197.528	-13.48
197.747	27.48
197.966	-11.43
198.185	90.96
198.404	39.76
198.623	25.43
198.842	56.15
199.062	86.87
199.281	-7.34
199.5	-23.72
199.719	-1.19
199.938	60.24
200.157	-1.19
200.376	72.53
200.595	33.62
200.814	88.92
201.033	-7.34
201.252	43.86
201.471	-21.67
201.69	80.72
201.909	72.53
202.128	95.06
202.347	43.86
202.566	-48.3
202.785	11.09
203.004	68.44
203.223	54.1
203.442	-19.63
203.661	23.38
203.879	31.57
204.098	-36.01
204.317	-1.19
204.536	27.48
204.755	131.92
204.974	0.85
205.193	-3.24
205.411	68.44
205.63	2.9
205.849	4.95
206.068	-9.39
206.287	37.72
206.505	-11.43
206.724	62.29
206.943	0.85
207.162	37.72
207.381	52.05
207.599	39.76
207.818	33.62
208.037	52.05
208.255	37.72
208.474	2.9
208.693	15.19
208.911	35.67
209.13	-3.24
209.349	37.72
209.567	-3.24
209.786	129.88
210.005	23.38
210.223	11.09
210.442	66.39
210.661	54.1
210.879	37.72
211.098	33.62
211.316	-9.39
211.535	9.05
211.753	35.67
211.972	58.2
212.191	21.33
212.409	90.96
212.628	-5.29
212.846	35.67
213.065	62.29
213.283	68.44
213.502	60.24
213.72	84.82
213.938	54.1
214.157	25.43
214.375	-42.15
214.594	21.33
214.812	37.72
215.031	50
215.249	76.63
215.467	13.14
215.686	29.52
215.904	80.72
216.122	111.44
216.341	45.91
216.559	9.05
216.778	93.01
216.996	9.05
217.214	50
217.432	2.9
217.651	23.38
217.869	-36.01
218.087	29.52
218.306	62.29
218.524	43.86
218.742	45.91
218.96	101.2
219.179	19.29
219.397	43.86
219.615	-5.29
219.833	19.29
220.051	60.24
220.27	123.73
220.488	0.85
220.706	76.63
220.924	39.76
221.142	-7.34
221.36	-5.29
221.578	-9.39
221.796	84.82
222.015	101.2
222.233	-70.83
222.451	60.24
222.669	-17.58
222.887	58.2
223.105	84.82
223.323	97.11
223.541	45.91
223.759	54.1
223.977	43.86
224.195	80.72
224.413	-1.19
224.631	56.15
224.849	-19.63
225.067	78.68
225.285	101.2
225.503	64.34
225.721	-9.39
225.939	58.2
226.157	111.44
226.375	4.95
226.592	31.57
226.81	43.86
227.028	29.52
227.246	84.82
227.464	35.67
227.682	64.34
227.9	80.72
228.117	54.1
228.335	74.58
228.553	60.24
228.771	80.72
228.989	88.92
229.206	-11.43
229.424	60.24
229.642	-3.24
229.86	-29.87
230.077	58.2
230.295	-1.19
230.513	-17.58
230.731	62.29
230.948	43.86
231.166	82.77
231.384	-44.2
231.601	-48.3
231.819	29.52
232.037	15.19
232.254	-5.29
232.472	68.44
232.689	13.14
232.907	33.62
233.125	70.48
233.342	-5.29
233.56	-7.34
233.777	60.24
233.995	-15.53
234.213	41.81
234.43	66.39
234.648	-48.3
234.865	86.87
235.083	70.48
235.3	-1.19
235.518	21.33
235.735	70.48
235.953	86.87
236.17	-5.29
236.388	86.87
236.605	27.48
236.822	39.76
237.04	52.05
237.257	37.72
237.475	4.95
237.692	-66.73
237.909	23.38
238.127	31.57
238.344	11.09
238.562	50
238.779	66.39
238.996	47.96
239.214	47.96
239.431	-11.43
239.648	35.67
239.865	23.38
240.083	88.92
240.3	47.96
240.517	78.68
240.735	31.57
240.952	31.57
241.169	39.76
241.386	41.81
241.603	11.09
241.821	50
242.038	101.2
242.255	31.57
242.472	7
242.689	29.52
242.907	23.38
243.124	45.91
243.341	4.95
243.558	31.57
243.775	45.91
243.992	78.68
244.209	82.77
244.426	58.2
244.643	50
244.86	33.62
245.078	23.38
245.295	-50.35
245.512	4.95
245.729	13.14
245.946	27.48
246.163	82.77
246.38	21.33
246.597	15.19
246.814	-19.63
247.031	78.68
247.248	62.29
247.464	7
247.681	50
247.898	58.2
248.115	72.53
248.332	58.2
248.549	56.15
248.766	86.87
248.983	-5.29
249.2	23.38
249.417	-1.19
249.633	39.76
249.85	13.14
250.067	13.14
250.284	47.96
250.501	97.11
250.717	138.07
250.934	11.09
251.151	35.67
251.368	35.67
251.585	29.52
251.801	2.9
252.018	43.86
252.235	35.67
252.451	23.38
252.668	47.96
252.885	60.24
253.102	43.86
253.318	62.29
253.535	15.19
253.752	70.48
253.968	-17.58
254.185	31.57
254.401	7
254.618	84.82
254.835	37.72
255.051	2.9
255.268	70.48
255.484	60.24
255.701	13.14
255.917	64.34
256.134	-7.34
256.351	39.76
256.567	45.91
256.784	-19.63
257	29.52
257.217	-23.72
257.433	56.15
257.65	72.53
257.866	60.24
258.082	31.57
258.299	7
258.515	11.09
258.732	52.05
258.948	-1.19
259.165	62.29
259.381	19.29
259.597	90.96
259.814	80.72
260.03	7
260.246	9.05
260.463	21.33
260.679	47.96
260.895	23.38
261.112	117.59
261.328	21.33
261.544	31.57
261.761	31.57
261.977	13.14
262.193	97.11
262.409	29.52
262.626	76.63
262.842	68.44
263.058	-5.29
263.274	56.15
263.49	-25.77
263.707	35.67
263.923	64.34
264.139	93.01
264.355	90.96
264.571	9.05
264.787	-11.43
265.004	76.63
265.22	-9.39
265.436	31.57
265.652	-5.29
265.868	74.58
266.084	80.72
266.3	80.72
266.516	23.38
266.732	84.82
266.948	80.72
267.164	4.95
267.38	80.72
267.596	88.92
267.812	4.95
268.028	66.39
268.244	9.05
268.46	31.57
268.676	-5.29
268.892	23.38
269.108	93.01
269.324	23.38
269.54	-1.19
269.756	41.81
269.972	41.81
270.188	125.78
270.403	47.96
270.619	76.63
270.835	68.44
271.051	-5.29
271.267	109.4
271.483	84.82
271.698	-7.34
271.914	37.72
272.13	31.57
272.346	35.67
272.562	39.76
272.777	47.96
272.993	41.81
273.209	31.57
273.425	-11.43
273.64	80.72
273.856	95.06
274.072	19.29
274.287	62.29
274.503	-1.19
274.719	70.48
274.934	-23.72
275.15	35.67
275.366	-9.39
275.581	29.52
275.797	80.72
276.012	-25.77
276.228	86.87
276.444	37.72
276.659	11.09
276.875	-23.72
277.09	60.24
277.306	144.21
277.521	39.76
277.737	50
277.952	-3.24
278.168	62.29
278.383	27.48
278.599	19.29
278.814	43.86
279.03	105.3
279.245	21.33
279.461	41.81
279.676	7
279.892	15.19
280.107	2.9
280.322	17.24
280.538	80.72
280.753	64.34
280.969	-19.63
281.184	58.2
281.399	160.59
281.615	2.9
281.83	27.48
282.045	19.29
282.26	50
282.476	37.72
282.691	62.29
282.906	9.05
283.122	66.39
283.337	64.34
283.552	93.01
283.767	86.87
283.983	99.16
284.198	74.58
284.413	15.19
284.628	17.24
284.843	117.59
285.058	-9.39
285.274	37.72
285.489	82.77
285.704	31.57
285.919	-1.19
286.134	-17.58
286.349	56.15
286.564	72.53
286.779	29.52
286.995	68.44
287.21	60.24
287.425	-25.77
287.64	33.62
287.855	21.33
288.07	72.53
288.285	129.88
288.5	35.67
288.715	78.68
288.93	11.09
289.145	113.49
289.36	4.95
289.575	-9.39
289.79	7
290.004	72.53
290.219	105.3
290.434	80.72
290.649	80.72
290.864	37.72
291.079	13.14
291.294	50
291.509	17.24
291.724	58.2
291.938	9.05
292.153	35.67
292.368	45.91
292.583	11.09
292.798	78.68
293.012	-15.53
293.227	150.36
293.442	21.33
293.657	76.63
293.871	50
294.086	19.29
294.301	31.57
294.516	33.62
294.73	70.48
294.945	0.85
295.16	39.76
295.374	29.52
295.589	-29.87
295.804	68.44
296.018	107.35
296.233	-11.43
296.447	97.11
296.662	27.48
296.877	17.24
297.091	-25.77
297.306	129.88
297.52	21.33
297.735	90.96
297.949	33.62
298.164	84.82
298.378	-19.63
298.593	15.19
298.807	2.9
299.022	84.82
299.236	43.86
299.451	52.05
299.665	109.4
299.88	66.39
300.094	37.72
300.309	39.76
300.523	60.24
300.737	37.72
300.952	58.2
301.166	-7.34
301.381	-17.58
301.595	27.48
301.809	52.05
302.024	37.72
302.238	25.43
302.452	15.19
302.667	-42.15
302.881	-11.43
303.095	29.52
303.309	-7.34
303.524	-38.06
303.738	76.63
303.952	-38.06
304.166	-44.2
304.381	21.33
304.595	78.68
304.809	35.67
305.023	23.38
305.237	7
305.452	19.29
305.666	101.2
305.88	62.29
306.094	-17.58
306.308	25.43
306.522	54.1
306.736	64.34
306.95	-15.53
307.164	27.48
307.379	52.05
307.593	21.33
307.807	113.49
308.021	43.86
308.235	133.97
308.449	-7.34
308.663	64.34
308.877	113.49
309.091	62.29
309.305	-3.24
309.519	31.57
309.733	21.33
309.947	-1.19
310.161	33.62
310.374	19.29
310.588	80.72
310.802	39.76
311.016	-40.11
311.23	160.59
311.444	88.92
311.658	25.43
311.872	60.24
312.085	58.2
312.299	54.1
312.513	45.91
312.727	47.96
312.941	52.05
313.154	37.72
313.368	93.01
313.582	84.82
313.796	99.16
314.009	70.48
314.223	-3.24
314.437	76.63
314.651	109.4
314.864	41.81
315.078	37.72
315.292	39.76
315.505	84.82
315.719	113.49
315.933	115.54
316.146	72.53
316.36	45.91
316.573	76.63
316.787	58.2
317.001	43.86
317.214	76.63
317.428	58.2
317.641	29.52
317.855	21.33
318.068	23.38
318.282	45.91
318.495	43.86
318.709	121.68
318.922	2.9
319.136	31.57
319.349	-11.43
319.563	4.95
319.776	25.43
319.99	72.53
320.203	21.33
320.417	41.81
320.63	50
320.843	27.48
321.057	82.77
321.27	68.44
321.483	37.72
321.697	70.48
321.91	-31.91
322.124	86.87
322.337	31.57
322.55	11.09
322.763	29.52
322.977	70.48
323.19	25.43
323.403	70.48
323.617	-60.59
323.83	19.29
324.043	103.25
324.256	35.67
324.469	99.16
324.683	105.3
324.896	90.96
325.109	35.67
325.322	50
325.535	97.11
325.748	-21.67
325.962	23.38
326.175	60.24
326.388	54.1
326.601	84.82
326.814	15.19
327.027	15.19
327.24	68.44
327.453	11.09
327.666	54.1
327.879	76.63
328.092	76.63
328.305	25.43
328.518	58.2
328.731	27.48
328.944	45.91
329.157	27.48
329.37	27.48
329.583	-40.11
329.796	33.62
330.009	-25.77
330.222	68.44
330.435	-17.58
330.648	80.72
330.861	-19.63
331.073	88.92
331.286	23.38
331.499	25.43
331.712	27.48
331.925	25.43
332.138	52.05
332.35	142.16
332.563	52.05
332.776	119.64
332.989	29.52
333.202	21.33
333.414	43.86
333.627	13.14
333.84	35.67
334.053	76.63
334.265	29.52
334.478	-1.19
334.691	25.43
334.903	76.63
335.116	-1.19
335.329	19.29
335.541	86.87
335.754	66.39
335.966	-38.06
336.179	43.86
336.392	19.29
336.604	43.86
336.817	39.76
337.029	60.24
337.242	129.88
337.454	144.21
337.667	13.14
337.88	101.2
338.092	7
338.305	37.72
338.517	60.24
338.729	82.77
338.942	107.35
339.154	95.06
339.367	109.4
339.579	-3.24
339.792	21.33
340.004	0.85
340.217	-3.24
340.429	27.48
340.641	58.2
340.854	0.85
341.066	37.72
341.278	80.72
341.491	125.78
341.703	54.1
341.915	93.01
342.128	64.34
342.34	35.67
342.552	35.67
342.764	33.62
342.977	76.63
343.189	29.52
343.401	56.15
343.613	19.29
343.826	11.09
344.038	50
344.25	80.72
344.462	58.2
344.674	39.76
344.886	78.68
345.099	111.44
345.311	29.52
345.523	80.72
345.735	50
345.947	123.73
346.159	-17.58
346.371	25.43
346.583	103.25
346.795	64.34
347.007	45.91
347.219	15.19
347.431	97.11
347.643	70.48
347.855	31.57
348.067	56.15
348.279	41.81
348.491	52.05
348.703	39.76
348.915	-27.82
349.127	35.67
349.339	54.1
349.551	21.33
349.763	60.24
349.975	9.05
350.187	70.48
350.399	13.14
350.61	41.81
350.822	50
351.034	31.57
351.246	52.05
351.458	117.59
351.669	7
351.881	31.57
352.093	84.82
352.305	47.96
352.517	39.76
352.728	64.34
352.94	78.68
353.152	35.67
353.363	27.48
353.575	-25.77
353.787	119.64
353.999	90.96
354.21	19.29
354.422	80.72
354.633	-25.77
354.845	70.48
355.057	72.53
355.268	-3.24
355.48	80.72
355.692	35.67
355.903	7
356.115	84.82
356.326	45.91
356.538	99.16
356.749	97.11
356.961	80.72
357.172	19.29
357.384	56.15
357.595	86.87
357.807	80.72
358.018	0.85
358.23	54.1
358.441	-5.29
358.653	50
358.864	76.63
359.075	78.68
359.287	60.24
359.498	117.59
359.709	13.14
359.921	64.34
360.132	25.43
360.344	43.86
360.555	25.43
360.766	88.92
360.977	15.19
361.189	88.92
361.4	78.68
361.611	90.96
361.823	62.29
362.034	29.52
362.245	-13.48
362.456	68.44
362.667	64.34
362.879	2.9
363.09	11.09
363.301	25.43
363.512	23.38
363.723	62.29
363.935	2.9
364.146	50
364.357	58.2
364.568	58.2
364.779	78.68
364.99	31.57
365.201	70.48
365.412	105.3
365.623	66.39
365.834	74.58
366.045	7
366.256	82.77
366.467	74.58
366.678	111.44
366.889	54.1
367.1	72.53
367.311	80.72
367.522	74.58
367.733	-5.29
367.944	-7.34
368.155	54.1
368.366	39.76
368.577	90.96
368.788	68.44
368.999	86.87
369.209	70.48
369.42	103.25
369.631	125.78
369.842	35.67
370.053	17.24
370.264	64.34
370.474	-15.53
370.685	78.68
370.896	68.44
371.107	103.25
371.317	84.82
371.528	101.2
371.739	33.62
371.95	54.1
372.16	101.2
372.371	54.1
372.582	95.06
372.792	103.25
373.003	107.35
373.214	17.24
373.424	-38.06
373.635	84.82
373.846	68.44
374.056	64.34
374.267	99.16
374.477	37.72
374.688	66.39
374.898	29.52
375.109	50
375.319	39.76
375.53	121.68
375.74	7
375.951	43.86
376.161	39.76
376.372	80.72
376.582	70.48
376.793	113.49
377.003	27.48
377.214	99.16
377.424	7
377.635	43.86
377.845	39.76
378.055	115.54
378.266	31.57
378.476	37.72
378.686	105.3
378.897	105.3
379.107	50
379.317	93.01
379.528	72.53
379.738	88.92
379.948	109.4
380.158	43.86
380.369	37.72
380.579	31.57
380.789	45.91
380.999	33.62
381.21	84.82
381.42	60.24
381.63	47.96
381.84	31.57
382.05	27.48
382.261	52.05
382.471	86.87
382.681	13.14
382.891	35.67
383.101	50
383.311	56.15
383.521	19.29
383.731	58.2
383.941	76.63
384.151	82.77
384.361	56.15
384.571	70.48
384.781	64.34
384.991	82.77
385.201	60.24
385.411	19.29
385.621	9.05
385.831	4.95
386.041	97.11
386.251	95.06
386.461	68.44
386.671	-5.29
386.881	172.88
387.091	66.39
387.301	97.11
387.511	58.2
387.72	105.3
387.93	62.29
388.14	37.72
388.35	84.82
388.56	133.97
388.769	60.24
388.979	133.97
389.189	43.86
389.399	9.05
389.609	84.82
389.818	119.64
390.028	-5.29
390.238	54.1
390.447	9.05
390.657	88.92
390.867	58.2
391.076	52.05
391.286	-15.53
391.496	66.39
391.705	37.72
391.915	56.15
392.125	66.39
392.334	60.24
392.544	58.2
392.753	66.39
392.963	78.68
393.172	58.2
393.382	39.76
393.591	121.68
393.801	90.96
394.01	119.64
394.22	45.91
394.429	76.63
394.639	160.59
394.848	88.92
395.058	84.82
395.267	56.15
395.477	127.83
395.686	189.27
395.895	105.3
396.105	150.36
396.314	121.68
396.524	84.82
396.733	97.11
396.942	123.73
397.152	41.81
397.361	211.79
397.57	80.72
397.78	105.3
397.989	86.87
398.198	117.59
398.407	70.48
398.617	93.01
398.826	136.02
399.035	170.83
399.244	103.25
399.453	97.11
399.663	162.64
399.872	146.26
400.081	19.29
400.29	103.25
400.499	127.83
400.708	154.45
400.917	162.64
401.127	162.64
401.336	117.59
401.545	142.16
401.754	109.4
401.963	152.4
402.172	78.68
402.381	136.02
402.59	142.16
402.799	181.07
403.008	111.44
403.217	224.08
403.426	183.12
403.635	76.63
403.844	138.07
404.053	117.59
404.262	193.36
404.471	217.94
404.68	125.78
404.888	133.97
405.097	107.35
405.306	162.64
405.515	129.88
405.724	203.6
405.933	172.88
406.142	189.27
406.35	203.6
406.559	84.82
406.768	191.31
406.977	316.24
407.185	238.42
407.394	234.32
407.603	207.7
407.812	207.7
408.02	252.75
408.229	260.95
408.438	299.86
408.646	254.8
408.855	303.95
409.064	295.76
409.272	285.52
409.481	254.8
409.69	246.61
409.898	258.9
410.107	289.62
410.315	367.44
410.524	377.68
410.733	338.77
410.941	330.58
411.15	371.54
411.358	447.31
411.567	430.93
411.775	459.6
411.984	471.89
412.192	389.97
412.401	484.17
412.609	412.5
412.818	490.32
413.026	463.69
413.234	527.18
413.443	559.95
413.651	607.05
413.86	627.53
414.068	617.29
414.276	639.82
414.485	629.58
414.693	707.4
414.901	766.79
415.11	803.66
415.318	703.31
415.526	742.22
415.734	748.36
415.943	777.03
416.151	789.32
416.359	949.06
416.567	877.38
416.776	1018.69
416.984	990.02
417.192	971.59
417.4	1022.79
417.608	1049.41
417.817	1063.75
418.025	1069.89
418.233	1258.31
418.441	1168.2
418.649	1284.93
418.857	1276.74
419.065	1295.17
419.273	1301.31
419.481	1510.21
419.689	1483.58
419.897	1555.26
420.105	1602.36
420.313	1639.23
420.521	1852.22
420.729	1764.15
420.937	1833.79
421.145	1925.94
421.353	1948.47
421.561	2114.36
421.769	2048.82
421.977	2216.76
422.185	2288.43
422.393	2251.57
422.601	2423.6
422.809	2362.16
423.017	2491.18
423.224	2528.05
423.432	2521.9
423.64	2698.03
423.848	2790.19
424.056	2888.49
424.263	2931.5
424.471	3031.85
424.679	2970.41
424.887	3293.99
425.094	3408.67
425.302	3353.38
425.51	3521.31
425.718	3472.16
425.925	3642.14
426.133	3701.53
426.341	3975.96
426.548	4131.61
426.756	4193.05
426.964	4113.17
427.171	4371.22
427.379	4485.9
427.586	4473.62
427.794	4719.37
428.001	4854.54
428.209	5061.38
428.417	5192.45
428.624	5487.36
428.832	5405.44
429.039	5491.46
429.247	5511.94
429.454	5939.96
429.662	6329.08
429.869	5978.87
430.076	6318.84
430.284	6429.43
430.491	6501.11
430.699	6734.57
430.906	6621.94
431.114	6982.38
431.321	7244.52
431.528	7203.56
431.736	7733.98
431.943	8045.27
432.15	7738.08
432.358	7994.08
432.565	8456.92
432.772	8262.36
432.979	8547.03
433.187	8886.99
433.394	8872.65
433.601	9540.29
433.808	9681.6
434.016	9695.94
434.223	9908.93
434.43	10670.77
434.637	10304.18
434.844	11066.03
435.052	11340.46
435.259	11008.69
435.466	11127.47
435.673	11395.75
435.88	12008.09
436.087	12356.25
436.294	12675.73
436.501	12200.6
436.708	12659.35
436.915	12810.9
437.122	13591.17
437.329	13496.97
437.537	13890.18
437.743	14070.4
437.95	14080.64
438.157	14905.97
438.364	15272.56
438.571	15239.79
438.778	15387.24
438.985	16585.3
439.192	16208.48
439.399	16726.61
439.606	16476.76
439.813	17078.86
440.02	18119.23
440.227	17979.97
440.433	17490.51
440.64	18356.8
440.847	18242.11
441.054	18723.38
441.261	19788.33
441.467	19487.28
441.674	19886.63
441.881	20617.75
442.088	20636.19
442.294	20437.53
442.501	21023.25
442.708	21103.12
442.914	22321.66
443.121	22991.35
443.328	22477.31
443.534	24224.23
443.741	23568.88
443.948	23484.91
444.154	25035.22
444.361	24717.79
444.568	24977.88
444.774	24881.63
444.981	25225.68
445.187	26104.26
445.394	26960.31
445.6	26692.03
445.807	29161.88
446.013	27994.54
446.22	28617.12
446.426	29905.29
446.633	29710.74
446.839	30904.7
447.046	29637.01
447.252	31781.23
447.459	31531.38
447.665	31023.48
447.871	32731.49
448.078	34093.39
448.284	31889.77
448.491	33014.11
448.697	34365.77
448.903	35139.9
449.11	35365.18
449.316	34388.3
449.522	34904.38
449.728	36276.52
449.935	36401.45
450.141	36282.67
450.347	37181.73
450.553	35836.21
450.76	36180.27
450.966	37679.38
451.172	36831.52
451.378	37718.29
451.584	36733.22
451.791	38297.87
451.997	38109.46
452.203	38572.3
452.409	38572.3
452.615	38158.61
452.821	36376.87
453.027	36219.18
453.233	38635.78
453.44	37044.51
453.646	36981.03
453.852	37171.49
454.058	37736.73
454.264	36548.9
454.47	37069.09
454.676	36583.72
454.882	37863.7
455.088	34570.57
455.294	34859.33
455.5	35506.49
455.705	35555.64
455.911	34234.7
456.117	33599.83
456.323	33190.23
456.529	31320.44
456.735	32911.71
456.941	31711.6
457.147	31347.06
457.352	30306.69
457.558	30013.84
457.764	30105.99
457.97	29694.35
458.176	29045.15
458.381	28914.08
458.587	27693.49
458.793	27648.43
458.999	25924.04
459.204	27732.4
459.41	26911.16
459.616	25151.96
459.821	25469.39
460.027	25268.69
460.233	24588.77
460.438	23757.29
460.644	23777.77
460.85	22528.51
461.055	22295.04
461.261	22346.24
461.466	20865.56
461.672	20181.54
461.878	21731.85
462.083	20068.9
462.289	19937.83
462.494	19194.42
462.7	18795.06
462.905	18158.14
463.111	18944.56
463.316	18700.86
463.522	18375.23
463.727	18715.19
463.932	18457.15
464.138	18364.99
464.343	18272.83
464.549	17898.05
464.754	18485.82
464.959	18293.31
465.165	18201.15
465.37	17445.45
465.575	17005.14
465.781	17697.35
465.986	17910.34
466.191	17400.4
466.397	16654.94
466.602	15903.33
466.807	16550.49
467.012	16325.21
467.218	16487
467.423	16380.51
467.628	16409.18
467.833	17128.02
468.038	16278.11
468.244	16128.61
468.449	16990.8
468.654	16243.29
468.859	15866.47
469.064	16024.16
