Data from USB4F104151__139__13-58-10-736.txt Node

Date: Thu Mar 13 13:58:10 EDT 2025
User: louis
Spectrometer: USB4F10415
Trigger mode: 4
Integration Time (sec): 1.000000E-2
Scans to average: 1
Electric dark correction enabled: true
Nonlinearity correction enabled: false
Boxcar width: 0
XAxis mode: Wavelengths
Number of Pixels in Spectrum: 3648
>>>>>Begin Spectral Data<<<<<
178.204	-23.55
178.424	-23.55
178.644	-23.55
178.864	-23.55
179.084	-70.65
179.304	-11.26
179.524	5.12
179.744	-35.84
179.964	-5.12
180.184	3.07
180.404	1.02
180.624	-5.12
180.844	58.37
181.064	-13.31
181.283	15.36
181.503	23.55
181.723	-35.84
181.943	-13.31
182.163	-19.46
182.383	46.08
182.602	27.65
182.822	11.26
183.042	-13.31
183.262	-13.31
183.482	-50.18
183.701	-29.7
183.921	1.02
184.141	-103.42
184.361	66.56
184.58	50.18
184.8	13.31
185.02	-64.51
185.239	-33.79
185.459	-95.23
185.679	-27.65
185.898	-19.46
186.118	21.5
186.338	11.26
186.557	-5.12
186.777	9.22
186.997	56.32
187.216	-74.75
187.436	11.26
187.655	-9.22
187.875	1.02
188.095	27.65
188.314	21.5
188.534	-13.31
188.753	-25.6
188.973	-27.65
189.192	7.17
189.412	1.02
189.631	-23.55
189.851	50.18
190.07	3.07
190.29	-52.22
190.509	-31.74
190.729	11.26
190.948	-3.07
191.168	44.03
191.387	11.26
191.607	46.08
191.826	19.46
192.045	7.17
192.265	11.26
192.484	-66.56
192.704	39.94
192.923	-76.8
193.142	17.41
193.362	60.42
193.581	-37.89
193.8	93.18
194.02	46.08
194.239	-60.42
194.458	7.17
194.678	-9.22
194.897	27.65
195.116	-29.7
195.335	-33.79
195.555	3.07
195.774	-25.6
195.993	-7.17
196.212	33.79
196.432	-23.55
196.651	13.31
196.87	7.17
197.089	82.94
197.308	39.94
197.528	-7.17
197.747	56.32
197.966	41.98
198.185	9.22
198.404	50.18
198.623	70.65
198.842	35.84
199.062	-9.22
199.281	-23.55
199.5	-25.6
199.719	33.79
199.938	-50.18
200.157	-23.55
200.376	-11.26
200.595	9.22
200.814	-56.32
201.033	-23.55
201.252	7.17
201.471	15.36
201.69	54.27
201.909	-33.79
202.128	-60.42
202.347	23.55
202.566	-62.46
202.785	-9.22
203.004	-23.55
203.223	74.75
203.442	58.37
203.661	11.26
203.879	19.46
204.098	-25.6
204.317	-3.07
204.536	19.46
204.755	35.84
204.974	7.17
205.193	-35.84
205.411	62.46
205.63	70.65
205.849	-25.6
206.068	-13.31
206.287	33.79
206.505	23.55
206.724	-3.07
206.943	17.41
207.162	-54.27
207.381	31.74
207.599	-21.5
207.818	1.02
208.037	1.02
208.255	-31.74
208.474	-15.36
208.693	-5.12
208.911	-68.61
209.13	31.74
209.349	25.6
209.567	9.22
209.786	-17.41
210.005	-3.07
210.223	9.22
210.442	37.89
210.661	-23.55
210.879	23.55
211.098	-87.04
211.316	25.6
211.535	39.94
211.753	15.36
211.972	9.22
212.191	-52.22
212.409	-33.79
212.628	33.79
212.846	3.07
213.065	82.94
213.283	-37.89
213.502	56.32
213.72	93.18
213.938	-52.22
214.157	-39.94
214.375	-33.79
214.594	-105.47
214.812	-25.6
215.031	41.98
215.249	-97.28
215.467	23.55
215.686	52.22
215.904	66.56
216.122	33.79
216.341	-13.31
216.559	33.79
216.778	-5.12
216.996	-52.22
217.214	19.46
217.432	-31.74
217.651	-13.31
217.869	9.22
218.087	91.13
218.306	46.08
218.524	7.17
218.742	-27.65
218.96	17.41
219.179	-3.07
219.397	23.55
219.615	54.27
219.833	-33.79
220.051	-35.84
220.27	11.26
220.488	15.36
220.706	15.36
220.924	7.17
221.142	25.6
221.36	-5.12
221.578	-21.5
221.796	33.79
222.015	27.65
222.233	1.02
222.451	33.79
222.669	-21.5
222.887	31.74
223.105	15.36
223.323	-15.36
223.541	-5.12
223.759	82.94
223.977	37.89
224.195	39.94
224.413	-80.89
224.631	41.98
224.849	-15.36
225.067	33.79
225.285	31.74
225.503	-41.98
225.721	39.94
225.939	-52.22
226.157	33.79
226.375	50.18
226.592	-33.79
226.81	-68.61
227.028	-27.65
227.246	-33.79
227.464	23.55
227.682	68.61
227.9	-19.46
228.117	25.6
228.335	54.27
228.553	-9.22
228.771	5.12
228.989	-25.6
229.206	-5.12
229.424	-21.5
229.642	66.56
229.86	97.28
230.077	56.32
230.295	-27.65
230.513	5.12
230.731	-21.5
230.948	3.07
231.166	60.42
231.384	-66.56
231.601	9.22
231.819	56.32
232.037	25.6
232.254	21.5
232.472	7.17
232.689	56.32
232.907	-33.79
233.125	-7.17
233.342	72.7
233.56	-1.02
233.777	66.56
233.995	-56.32
234.213	3.07
234.43	25.6
234.648	-3.07
234.865	17.41
235.083	74.75
235.3	41.98
235.518	29.7
235.735	-31.74
235.953	27.65
236.17	15.36
236.388	-35.84
236.605	13.31
236.822	31.74
237.04	27.65
237.257	64.51
237.475	-31.74
237.692	46.08
237.909	39.94
238.127	33.79
238.344	-91.13
238.562	15.36
238.779	-105.47
238.996	-41.98
239.214	-9.22
239.431	109.57
239.648	-37.89
239.865	-25.6
240.083	13.31
240.3	37.89
240.517	-27.65
240.735	17.41
240.952	50.18
241.169	7.17
241.386	-7.17
241.603	11.26
241.821	35.84
242.038	17.41
242.255	-23.55
242.472	9.22
242.689	31.74
242.907	11.26
243.124	3.07
243.341	13.31
243.558	-64.51
243.775	7.17
243.992	-1.02
244.209	9.22
244.426	50.18
244.643	-21.5
244.86	-27.65
245.078	-33.79
245.295	-50.18
245.512	78.85
245.729	-21.5
245.946	-9.22
246.163	-31.74
246.38	35.84
246.597	39.94
246.814	23.55
247.031	-64.51
247.248	41.98
247.464	48.13
247.681	33.79
247.898	17.41
248.115	-3.07
248.332	33.79
248.549	76.8
248.766	-17.41
248.983	-5.12
249.2	54.27
249.417	19.46
249.633	7.17
249.85	9.22
250.067	-19.46
250.284	23.55
250.501	-41.98
250.717	-35.84
250.934	-50.18
251.151	-68.61
251.368	-5.12
251.585	33.79
251.801	-7.17
252.018	29.7
252.235	-9.22
252.451	56.32
252.668	41.98
252.885	-1.02
253.102	29.7
253.318	-15.36
253.535	-3.07
253.752	-50.18
253.968	9.22
254.185	-3.07
254.401	-29.7
254.618	-5.12
254.835	-41.98
255.051	-48.13
255.268	3.07
255.484	25.6
255.701	31.74
255.917	25.6
256.134	9.22
256.351	7.17
256.567	5.12
256.784	7.17
257	-9.22
257.217	56.32
257.433	-7.17
257.65	52.22
257.866	11.26
258.082	-25.6
258.299	-50.18
258.515	46.08
258.732	-23.55
258.948	-29.7
259.165	37.89
259.381	15.36
259.597	-5.12
259.814	-48.13
260.03	-52.22
260.246	-1.02
260.463	-33.79
260.679	72.7
260.895	19.46
261.112	19.46
261.328	-35.84
261.544	-21.5
261.761	-54.27
261.977	-3.07
262.193	19.46
262.409	-29.7
262.626	52.22
262.842	29.7
263.058	29.7
263.274	-3.07
263.49	-23.55
263.707	13.31
263.923	-68.61
264.139	48.13
264.355	-17.41
264.571	-41.98
264.787	-5.12
265.004	-76.8
265.22	-39.94
265.436	-23.55
265.652	11.26
265.868	23.55
266.084	64.51
266.3	44.03
266.516	-21.5
266.732	-1.02
266.948	-1.02
267.164	46.08
267.38	-19.46
267.596	23.55
267.812	9.22
268.028	78.85
268.244	-27.65
268.46	37.89
268.676	-5.12
268.892	15.36
269.108	29.7
269.324	15.36
269.54	-52.22
269.756	60.42
269.972	-3.07
270.188	-37.89
270.403	-33.79
270.619	17.41
270.835	23.55
271.051	64.51
271.267	-25.6
271.483	25.6
271.698	72.7
271.914	-3.07
272.13	-46.08
272.346	44.03
272.562	23.55
272.777	15.36
272.993	-35.84
273.209	19.46
273.425	48.13
273.64	5.12
273.856	7.17
274.072	35.84
274.287	39.94
274.503	17.41
274.719	-25.6
274.934	44.03
275.15	50.18
275.366	9.22
275.581	-44.03
275.797	-3.07
276.012	-9.22
276.228	46.08
276.444	17.41
276.659	21.5
276.875	-27.65
277.09	17.41
277.306	37.89
277.521	56.32
277.737	29.7
277.952	3.07
278.168	19.46
278.383	-7.17
278.599	29.7
278.814	21.5
279.03	-15.36
279.245	-29.7
279.461	-11.26
279.676	56.32
279.892	-15.36
280.107	41.98
280.322	-27.65
280.538	-1.02
280.753	-33.79
280.969	19.46
281.184	-17.41
281.399	44.03
281.615	-1.02
281.83	-68.61
282.045	13.31
282.26	-33.79
282.476	-66.56
282.691	68.61
282.906	-17.41
283.122	23.55
283.337	1.02
283.552	-48.13
283.767	-17.41
283.983	-50.18
284.198	-3.07
284.413	19.46
284.628	7.17
284.843	17.41
285.058	-39.94
285.274	44.03
285.489	-25.6
285.704	-29.7
285.919	-33.79
286.134	-95.23
286.349	-25.6
286.564	9.22
286.779	9.22
286.995	-9.22
287.21	-64.51
287.425	76.8
287.64	7.17
287.855	-48.13
288.07	33.79
288.285	31.74
288.5	-50.18
288.715	-5.12
288.93	-44.03
289.145	17.41
289.36	-5.12
289.575	-27.65
289.79	9.22
290.004	11.26
290.219	78.85
290.434	13.31
290.649	13.31
290.864	27.65
291.079	-5.12
291.294	-1.02
291.509	-39.94
291.724	23.55
291.938	-21.5
292.153	3.07
292.368	-31.74
292.583	23.55
292.798	13.31
293.012	-23.55
293.227	21.5
293.442	35.84
293.657	-17.41
293.871	39.94
294.086	-64.51
294.301	-19.46
294.516	1.02
294.73	19.46
294.945	3.07
295.16	41.98
295.374	5.12
295.589	-7.17
295.804	44.03
296.018	-48.13
296.233	-15.36
296.447	15.36
296.662	-21.5
296.877	-37.89
297.091	9.22
297.306	56.32
297.52	29.7
297.735	-41.98
297.949	-11.26
298.164	56.32
298.378	72.7
298.593	19.46
298.807	-13.31
299.022	-25.6
299.236	-11.26
299.451	15.36
299.665	27.65
299.88	60.42
300.094	-46.08
300.309	25.6
300.523	-7.17
300.737	13.31
300.952	72.7
301.166	-54.27
301.381	-31.74
301.595	17.41
301.809	-37.89
302.024	-9.22
302.238	-52.22
302.452	80.89
302.667	33.79
302.881	48.13
303.095	-3.07
303.309	-39.94
303.524	-31.74
303.738	-44.03
303.952	-25.6
304.166	-17.41
304.381	-17.41
304.595	58.37
304.809	35.84
305.023	-17.41
305.237	-15.36
305.452	70.65
305.666	50.18
305.88	-23.55
306.094	25.6
306.308	-3.07
306.522	-19.46
306.736	21.5
306.95	-48.13
307.164	44.03
307.379	-15.36
307.593	37.89
307.807	25.6
308.021	-25.6
308.235	13.31
308.449	-58.37
308.663	-27.65
308.877	13.31
309.091	-27.65
309.305	-23.55
309.519	52.22
309.733	7.17
309.947	-37.89
310.161	64.51
310.374	50.18
310.588	95.23
310.802	-62.46
311.016	17.41
311.23	-21.5
311.444	37.89
311.658	-41.98
311.872	54.27
312.085	60.42
312.299	17.41
312.513	15.36
312.727	-15.36
312.941	-37.89
313.154	-23.55
313.368	-11.26
313.582	-29.7
313.796	9.22
314.009	37.89
314.223	31.74
314.437	-3.07
314.651	-13.31
314.864	-23.55
315.078	-1.02
315.292	-62.46
315.505	39.94
315.719	-44.03
315.933	-80.89
316.146	-19.46
316.36	27.65
316.573	39.94
316.787	17.41
317.001	23.55
317.214	9.22
317.428	19.46
317.641	33.79
317.855	105.47
318.068	39.94
318.282	-1.02
318.495	7.17
318.709	19.46
318.922	29.7
319.136	74.75
319.349	15.36
319.563	-31.74
319.776	-78.85
319.99	33.79
320.203	-50.18
320.417	-41.98
320.63	33.79
320.843	-17.41
321.057	-15.36
321.27	-1.02
321.483	31.74
321.697	21.5
321.91	1.02
322.124	39.94
322.337	48.13
322.55	56.32
322.763	31.74
322.977	3.07
323.19	11.26
323.403	41.98
323.617	-52.22
323.83	31.74
324.043	-37.89
324.256	-11.26
324.469	50.18
324.683	27.65
324.896	7.17
325.109	-27.65
325.322	-33.79
325.535	-9.22
325.748	-13.31
325.962	82.94
326.175	7.17
326.388	-13.31
326.601	9.22
326.814	-41.98
327.027	-21.5
327.24	-9.22
327.453	-54.27
327.666	33.79
327.879	-31.74
328.092	29.7
328.305	-25.6
328.518	58.37
328.731	27.65
328.944	64.51
329.157	23.55
329.37	48.13
329.583	-27.65
329.796	-17.41
330.009	-31.74
330.222	-1.02
330.435	-46.08
330.648	23.55
330.861	-35.84
331.073	15.36
331.286	-15.36
331.499	35.84
331.712	31.74
331.925	21.5
332.138	-29.7
332.35	7.17
332.563	1.02
332.776	72.7
332.989	-13.31
333.202	29.7
333.414	21.5
333.627	70.65
333.84	-7.17
334.053	29.7
334.265	-39.94
334.478	64.51
334.691	1.02
334.903	91.13
335.116	5.12
335.329	17.41
335.541	60.42
335.754	56.32
335.966	-76.8
336.179	-1.02
336.392	3.07
336.604	-13.31
336.817	-29.7
337.029	48.13
337.242	23.55
337.454	9.22
337.667	-64.51
337.88	80.89
338.092	-1.02
338.305	-3.07
338.517	-5.12
338.729	-11.26
338.942	-19.46
339.154	60.42
339.367	27.65
339.579	44.03
339.792	-29.7
340.004	66.56
340.217	-46.08
340.429	-44.03
340.641	-17.41
340.854	52.22
341.066	-31.74
341.278	-5.12
341.491	13.31
341.703	-21.5
341.915	7.17
342.128	9.22
342.34	-68.61
342.552	33.79
342.764	-60.42
342.977	-29.7
343.189	-44.03
343.401	27.65
343.613	7.17
343.826	1.02
344.038	-46.08
344.25	54.27
344.462	48.13
344.674	-19.46
344.886	15.36
345.099	19.46
345.311	31.74
345.523	-7.17
345.735	50.18
345.947	56.32
346.159	44.03
346.371	23.55
346.583	46.08
346.795	17.41
347.007	-46.08
347.219	-21.5
347.431	15.36
347.643	-13.31
347.855	-33.79
348.067	-3.07
348.279	44.03
348.491	1.02
348.703	25.6
348.915	29.7
349.127	39.94
349.339	27.65
349.551	39.94
349.763	46.08
349.975	27.65
350.187	25.6
350.399	56.32
350.61	9.22
350.822	-76.8
351.034	3.07
351.246	-21.5
351.458	62.46
351.669	15.36
351.881	80.89
352.093	-37.89
352.305	-23.55
352.517	23.55
352.728	-31.74
352.94	66.56
353.152	1.02
353.363	-48.13
353.575	-37.89
353.787	54.27
353.999	54.27
354.21	-9.22
354.422	-46.08
354.633	27.65
354.845	-66.56
355.057	78.85
355.268	-7.17
355.48	56.32
355.692	23.55
355.903	15.36
356.115	58.37
356.326	58.37
356.538	-60.42
356.749	-3.07
356.961	105.47
357.172	23.55
357.384	29.7
357.595	23.55
357.807	-5.12
358.018	-15.36
358.23	58.37
358.441	39.94
358.653	76.8
358.864	-21.5
359.075	-23.55
359.287	-50.18
359.498	-7.17
359.709	23.55
359.921	60.42
360.132	19.46
360.344	78.85
360.555	-23.55
360.766	-5.12
360.977	-23.55
361.189	105.47
361.4	58.37
361.611	50.18
361.823	41.98
362.034	11.26
362.245	-29.7
362.456	48.13
362.667	1.02
362.879	15.36
363.09	13.31
363.301	66.56
363.512	7.17
363.723	-21.5
363.935	7.17
364.146	1.02
364.357	9.22
364.568	1.02
364.779	35.84
364.99	82.94
365.201	15.36
365.412	15.36
365.623	-5.12
365.834	7.17
366.045	3.07
366.256	64.51
366.467	-1.02
366.678	-48.13
366.889	27.65
367.1	-15.36
367.311	11.26
367.522	50.18
367.733	3.07
367.944	7.17
368.155	-15.36
368.366	21.5
368.577	9.22
368.788	3.07
368.999	23.55
369.209	11.26
369.42	25.6
369.631	58.37
369.842	15.36
370.053	46.08
370.264	3.07
370.474	58.37
370.685	58.37
370.896	7.17
371.107	9.22
371.317	29.7
371.528	-64.51
371.739	76.8
371.95	76.8
372.16	3.07
372.371	27.65
372.582	-44.03
372.792	13.31
373.003	-3.07
373.214	64.51
373.424	-13.31
373.635	31.74
373.846	-5.12
374.056	-5.12
374.267	3.07
374.477	35.84
374.688	-9.22
374.898	37.89
375.109	1.02
375.319	13.31
375.53	50.18
375.74	48.13
375.951	11.26
376.161	17.41
376.372	15.36
376.582	-11.26
376.793	29.7
377.003	48.13
377.214	-1.02
377.424	17.41
377.635	27.65
377.845	41.98
378.055	13.31
378.266	-37.89
378.476	-62.46
378.686	-1.02
378.897	25.6
379.107	23.55
379.317	13.31
379.528	19.46
379.738	-35.84
379.948	7.17
380.158	44.03
380.369	-1.02
380.579	-1.02
380.789	41.98
380.999	35.84
381.21	-37.89
381.42	52.22
381.63	17.41
381.84	25.6
382.05	60.42
382.261	54.27
382.471	21.5
382.681	76.8
382.891	52.22
383.101	-7.17
383.311	-9.22
383.521	-15.36
383.731	60.42
383.941	-1.02
384.151	-31.74
384.361	-3.07
384.571	-37.89
384.781	13.31
384.991	-46.08
385.201	58.37
385.411	93.18
385.621	-19.46
385.831	48.13
386.041	39.94
386.251	64.51
386.461	78.85
386.671	48.13
386.881	23.55
387.091	-37.89
387.301	-1.02
387.511	-13.31
387.72	-37.89
387.93	-64.51
388.14	17.41
388.35	48.13
388.56	74.75
388.769	84.99
388.979	68.61
389.189	-37.89
389.399	15.36
389.609	29.7
389.818	48.13
390.028	56.32
390.238	-3.07
390.447	-48.13
390.657	7.17
390.867	46.08
391.076	5.12
391.286	50.18
391.496	27.65
391.705	5.12
391.915	58.37
392.125	23.55
392.334	-7.17
392.544	113.66
392.753	11.26
392.963	-3.07
393.172	-31.74
393.382	29.7
393.591	84.99
393.801	64.51
394.01	60.42
394.22	-21.5
394.429	21.5
394.639	9.22
394.848	84.99
395.058	-9.22
395.267	72.7
395.477	31.74
395.686	9.22
395.895	11.26
396.105	-9.22
396.314	-15.36
396.524	17.41
396.733	33.79
396.942	-15.36
397.152	17.41
397.361	39.94
397.57	-19.46
397.78	5.12
397.989	37.89
398.198	76.8
398.407	31.74
398.617	-19.46
398.826	48.13
399.035	-37.89
399.244	97.28
399.453	91.13
399.663	35.84
399.872	58.37
400.081	-1.02
400.29	-1.02
400.499	29.7
400.708	48.13
400.917	41.98
401.127	27.65
401.336	31.74
401.545	60.42
401.754	72.7
401.963	64.51
402.172	33.79
402.381	11.26
402.59	84.99
402.799	21.5
403.008	33.79
403.217	39.94
403.426	27.65
403.635	44.03
403.844	19.46
404.053	21.5
404.262	25.6
404.471	99.33
404.68	39.94
404.888	87.04
405.097	35.84
405.306	56.32
405.515	132.09
405.724	89.09
405.933	62.46
406.142	-3.07
406.35	95.23
406.559	105.47
406.768	80.89
406.977	-11.26
407.185	25.6
407.394	3.07
407.603	117.76
407.812	134.14
408.02	78.85
408.229	99.33
408.438	80.89
408.646	82.94
408.855	93.18
409.064	39.94
409.272	105.47
409.481	82.94
409.69	41.98
409.898	56.32
410.107	84.99
410.315	156.67
410.524	113.66
410.733	177.15
410.941	152.57
411.15	162.81
411.358	138.24
411.567	138.24
411.775	125.95
411.984	160.77
412.192	166.91
412.401	158.72
412.609	117.76
412.818	203.77
413.026	130.05
413.234	244.73
413.443	183.29
413.651	146.43
413.86	234.49
414.068	164.86
414.276	281.6
414.485	162.81
414.693	248.83
414.901	197.63
415.11	257.02
415.318	287.74
415.526	211.96
415.734	349.18
415.943	269.31
416.151	340.99
416.359	252.92
416.567	345.08
416.776	390.14
416.984	273.4
417.192	269.31
417.4	285.69
417.608	373.75
417.817	379.9
418.025	392.19
418.233	381.95
418.441	386.04
418.649	420.86
418.857	422.91
419.065	445.43
419.273	449.53
419.481	361.47
419.689	476.15
419.897	603.13
420.105	566.26
420.313	562.17
420.521	672.76
420.729	637.94
420.937	613.37
421.145	623.61
421.353	658.42
421.561	680.95
421.769	678.9
421.977	728.05
422.185	670.71
422.393	719.86
422.601	785.4
422.809	818.16
423.017	820.21
423.224	840.69
423.432	900.08
423.64	785.4
423.848	904.18
424.056	898.03
424.263	1016.82
424.471	1033.2
424.679	1031.15
424.887	1164.27
425.094	1098.74
425.302	1158.13
425.51	1154.03
425.718	1297.39
425.925	1156.08
426.133	1285.1
426.341	1268.72
426.548	1293.29
426.756	1493.99
426.964	1346.54
427.171	1412.07
427.379	1516.52
427.586	1565.67
427.794	1582.06
428.001	1659.88
428.209	1745.89
428.417	1698.79
428.624	1764.33
428.832	1729.51
429.039	1907.68
429.247	1815.52
429.454	1928.16
429.662	2032.61
429.869	1879.01
430.076	2065.38
430.284	1958.88
430.491	2143.2
430.699	2194.4
430.906	2313.18
431.114	2268.13
431.321	2470.87
431.528	2509.79
431.736	2474.97
431.943	2692.05
432.15	2612.18
432.358	2538.46
432.565	2780.12
432.772	2776.02
432.979	2958.29
433.187	3048.4
433.394	2870.23
433.601	2997.2
433.808	3204.05
434.016	3189.71
434.223	3259.34
434.43	3625.93
434.637	3484.62
434.844	3695.56
435.052	3627.98
435.259	3597.26
435.466	3660.74
435.673	3724.23
435.88	3777.48
436.087	4113.35
436.294	4094.91
436.501	4154.3
436.708	4107.2
436.915	4281.28
437.122	4467.64
437.329	4457.4
437.537	4453.31
437.743	4613.05
437.95	4637.63
438.157	4864.95
438.364	4971.44
438.571	4959.16
438.778	4940.72
438.985	5530.54
439.192	5188.53
439.399	5450.67
439.606	5286.83
439.813	5620.65
440.02	5905.32
440.227	5964.71
440.433	5878.69
440.64	5852.07
440.847	5985.19
441.054	6007.72
441.261	6509.47
441.467	6304.67
441.674	6712.22
441.881	6609.82
442.088	6613.92
442.294	6742.94
442.501	6964.12
442.708	7027.6
442.914	7291.79
443.121	7490.45
443.328	7271.31
443.534	7988.1
443.741	7521.17
443.948	7621.52
444.154	8211.33
444.361	7957.38
444.568	8016.77
444.774	8031.11
444.981	8199.04
445.187	8414.08
445.394	8795
445.6	8694.65
445.807	9513.84
446.013	9194.36
446.22	8950.65
446.426	9730.92
446.633	9657.2
446.839	10036.07
447.046	9687.92
447.252	10314.59
447.459	10279.78
447.665	10034.02
447.871	10638.17
448.078	11066.2
448.284	10609.5
448.491	10709.85
448.697	11262.8
448.903	11510.61
449.11	11623.25
449.316	11242.32
449.522	11508.56
449.728	11613.01
449.935	11952.97
450.141	12147.53
450.347	12118.86
450.553	11901.77
450.76	12116.81
450.966	12354.37
451.172	12247.88
451.378	12604.22
451.584	12258.12
451.791	12614.46
451.997	12716.86
452.203	12675.9
452.409	12534.59
452.615	12653.37
452.821	12151.62
453.027	12196.68
453.233	12845.88
453.44	12313.41
453.646	12520.26
453.852	12383.04
454.058	12739.39
454.264	12282.69
454.47	12270.4
454.676	12217.16
454.882	12745.53
455.088	11586.38
455.294	11938.63
455.5	12010.31
455.705	12065.61
455.911	11705.17
456.117	11535.18
456.323	11182.93
456.529	10546.02
456.735	11207.51
456.941	10883.93
457.147	10470.24
457.352	10402.66
457.558	10283.88
457.764	10494.82
457.97	10163.04
458.176	9835.37
458.381	9763.69
458.587	9450.35
458.793	9304.95
458.999	8903.54
459.204	9696.11
459.41	9259.89
459.616	8647.55
459.821	8747.9
460.027	8842.11
460.233	8479.61
460.438	8041.35
460.644	8323.97
460.85	7642
461.055	7564.17
461.261	7719.82
461.466	7000.98
461.672	6863.77
461.878	7463.82
462.083	7043.99
462.289	6790.04
462.494	6742.94
462.7	6433.69
462.905	6163.36
463.111	6396.83
463.316	6601.63
463.522	6423.45
463.727	6366.11
463.932	6337.44
464.138	6288.29
464.343	6364.06
464.549	6134.69
464.754	6290.34
464.959	6228.9
465.165	6333.34
465.37	5819.3
465.575	5712.81
465.781	6101.92
465.986	6075.3
466.191	5807.02
466.397	5702.57
466.602	5399.47
466.807	5669.8
467.012	5634.99
467.218	5579.69
467.423	5415.85
467.628	5569.45
467.833	5741.48
468.038	5489.58
468.244	5440.43
468.449	5585.83
468.654	5532.59
468.859	5397.42
469.064	5475.24
