Data from USB4F104151__254__14-01-36-264.txt Node

Date: Thu Mar 13 14:01:36 EDT 2025
User: louis
Spectrometer: USB4F10415
Trigger mode: 4
Integration Time (sec): 1.000000E-2
Scans to average: 1
Electric dark correction enabled: true
Nonlinearity correction enabled: false
Boxcar width: 0
XAxis mode: Wavelengths
Number of Pixels in Spectrum: 3648
>>>>>Begin Spectral Data<<<<<
178.204	-97.96
178.424	-97.96
178.644	-97.96
178.864	-44.71
179.084	-44.71
179.304	8.53
179.524	-52.91
179.744	-3.75
179.964	80.21
180.184	-26.28
180.404	-7.85
180.624	35.16
180.844	-7.85
181.064	-38.57
181.283	10.58
181.503	16.73
181.723	-13.99
181.943	74.07
182.163	88.4
182.383	-1.71
182.602	22.87
182.822	65.88
183.042	72.02
183.262	-36.52
183.482	-18.09
183.701	37.2
183.921	-22.19
184.141	63.83
184.361	67.92
184.58	10.58
184.8	-3.75
185.02	8.53
185.239	80.21
185.459	88.4
185.679	20.82
185.898	-18.09
186.118	57.68
186.338	8.53
186.557	65.88
186.777	39.25
186.997	92.5
187.216	80.21
187.436	67.92
187.655	-3.75
187.875	-69.29
188.095	26.96
188.314	-5.8
188.534	76.12
188.753	41.3
188.973	43.35
189.192	18.77
189.412	49.49
189.631	29.01
189.851	-7.85
190.07	-30.38
190.29	-13.99
190.509	47.44
190.729	29.01
190.948	6.49
191.168	53.59
191.387	51.54
191.607	-26.28
191.826	-38.57
192.045	88.4
192.265	-46.76
192.484	33.11
192.704	20.82
192.923	-13.99
193.142	47.44
193.362	69.97
193.581	-42.67
193.8	-18.09
194.02	98.64
194.239	45.4
194.458	18.77
194.678	-59.05
194.897	80.21
195.116	22.87
195.335	59.73
195.555	65.88
195.774	2.39
195.993	53.59
196.212	57.68
196.432	53.59
196.651	-44.71
196.87	0.34
197.089	-9.9
197.308	22.87
197.528	63.83
197.747	-20.14
197.966	22.87
198.185	76.12
198.404	102.74
198.623	55.64
198.842	47.44
199.062	106.84
199.281	41.3
199.5	63.83
199.719	31.06
199.938	82.26
200.157	88.4
200.376	24.92
200.595	0.34
200.814	51.54
201.033	47.44
201.252	6.49
201.471	-7.85
201.69	53.59
201.909	121.17
202.128	53.59
202.347	110.93
202.566	92.5
202.785	6.49
203.004	43.35
203.223	90.45
203.442	65.88
203.661	22.87
203.879	2.39
204.098	43.35
204.317	47.44
204.536	51.54
204.755	67.92
204.974	20.82
205.193	41.3
205.411	90.45
205.63	-1.71
205.849	29.01
206.068	-5.8
206.287	49.49
206.505	-5.8
206.724	43.35
206.943	-5.8
207.162	24.92
207.381	67.92
207.599	35.16
207.818	16.73
208.037	59.73
208.255	-9.9
208.474	8.53
208.693	135.51
208.911	88.4
209.13	-40.62
209.349	63.83
209.567	127.32
209.786	80.21
210.005	29.01
210.223	10.58
210.442	67.92
210.661	33.11
210.879	80.21
211.098	35.16
211.316	-20.14
211.535	14.68
211.753	80.21
211.972	41.3
212.191	63.83
212.409	8.53
212.628	22.87
212.846	47.44
213.065	-7.85
213.283	102.74
213.502	90.45
213.72	6.49
213.938	-24.23
214.157	98.64
214.375	22.87
214.594	74.07
214.812	100.69
215.031	51.54
215.249	18.77
215.467	84.31
215.686	24.92
215.904	-9.9
216.122	63.83
216.341	6.49
216.559	-5.8
216.778	115.03
216.996	-5.8
217.214	6.49
217.432	47.44
217.651	14.68
217.869	8.53
218.087	90.45
218.306	39.25
218.524	20.82
218.742	-54.95
218.96	141.65
219.179	-32.43
219.397	39.25
219.615	39.25
219.833	24.92
220.051	22.87
220.27	65.88
220.488	67.92
220.706	57.68
220.924	35.16
221.142	39.25
221.36	53.59
221.578	-34.47
221.796	41.3
222.015	76.12
222.233	26.96
222.451	10.58
222.669	8.53
222.887	26.96
223.105	47.44
223.323	53.59
223.541	14.68
223.759	39.25
223.977	18.77
224.195	59.73
224.413	35.16
224.631	108.88
224.849	22.87
225.067	53.59
225.285	0.34
225.503	49.49
225.721	8.53
225.939	80.21
226.157	29.01
226.375	72.02
226.592	-5.8
226.81	47.44
227.028	53.59
227.246	26.96
227.464	76.12
227.682	88.4
227.9	57.68
228.117	33.11
228.335	39.25
228.553	39.25
228.771	59.73
228.989	65.88
229.206	22.87
229.424	108.88
229.642	51.54
229.86	67.92
230.077	92.5
230.295	-1.71
230.513	51.54
230.731	26.96
230.948	61.78
231.166	117.08
231.384	102.74
231.601	-40.62
231.819	0.34
232.037	43.35
232.254	-3.75
232.472	10.58
232.689	41.3
232.907	-13.99
233.125	16.73
233.342	31.06
233.56	-48.81
233.777	72.02
233.995	69.97
234.213	80.21
234.43	-24.23
234.648	80.21
234.865	4.44
235.083	110.93
235.3	6.49
235.518	37.2
235.735	39.25
235.953	96.6
236.17	69.97
236.388	-40.62
236.605	18.77
236.822	153.94
237.04	-26.28
237.257	31.06
237.475	-22.19
237.692	-16.04
237.909	31.06
238.127	4.44
238.344	37.2
238.562	-9.9
238.779	-5.8
238.996	78.16
239.214	133.46
239.431	41.3
239.648	80.21
239.865	4.44
240.083	84.31
240.3	96.6
240.517	47.44
240.735	0.34
240.952	33.11
241.169	121.17
241.386	18.77
241.603	63.83
241.821	96.6
242.038	53.59
242.255	37.2
242.472	10.58
242.689	47.44
242.907	96.6
243.124	55.64
243.341	51.54
243.558	43.35
243.775	39.25
243.992	55.64
244.209	63.83
244.426	88.4
244.643	-16.04
244.86	88.4
245.078	55.64
245.295	112.98
245.512	39.25
245.729	29.01
245.946	51.54
246.163	100.69
246.38	65.88
246.597	33.11
246.814	26.96
247.031	49.49
247.248	43.35
247.464	63.83
247.681	59.73
247.898	94.55
248.115	39.25
248.332	-34.47
248.549	31.06
248.766	76.12
248.983	16.73
249.2	12.63
249.417	119.12
249.633	-9.9
249.85	33.11
250.067	88.4
250.284	108.88
250.501	53.59
250.717	8.53
250.934	84.31
251.151	2.39
251.368	37.2
251.585	-46.76
251.801	78.16
252.018	51.54
252.235	43.35
252.451	51.54
252.668	53.59
252.885	59.73
253.102	84.31
253.318	-30.38
253.535	-7.85
253.752	-7.85
253.968	35.16
254.185	39.25
254.401	53.59
254.618	26.96
254.835	6.49
255.051	63.83
255.268	-1.71
255.484	78.16
255.701	26.96
255.917	35.16
256.134	65.88
256.351	-36.52
256.567	59.73
256.784	18.77
257	72.02
257.217	37.2
257.433	88.4
257.65	31.06
257.866	82.26
258.082	31.06
258.299	18.77
258.515	102.74
258.732	86.36
258.948	-20.14
259.165	-20.14
259.381	20.82
259.597	47.44
259.814	39.25
260.03	63.83
260.246	31.06
260.463	33.11
260.679	49.49
260.895	72.02
261.112	67.92
261.328	12.63
261.544	8.53
261.761	65.88
261.977	55.64
262.193	22.87
262.409	-97.96
262.626	47.44
262.842	49.49
263.058	82.26
263.274	8.53
263.49	35.16
263.707	90.45
263.923	65.88
264.139	49.49
264.355	26.96
264.571	115.03
264.787	90.45
265.004	22.87
265.22	-13.99
265.436	88.4
265.652	18.77
265.868	26.96
266.084	108.88
266.3	96.6
266.516	0.34
266.732	98.64
266.948	2.39
267.164	76.12
267.38	57.68
267.596	47.44
267.812	59.73
268.028	49.49
268.244	18.77
268.46	18.77
268.676	6.49
268.892	41.3
269.108	8.53
269.324	-26.28
269.54	63.83
269.756	57.68
269.972	49.49
270.188	72.02
270.403	74.07
270.619	24.92
270.835	125.27
271.051	-42.67
271.267	41.3
271.483	49.49
271.698	33.11
271.914	35.16
272.13	72.02
272.346	88.4
272.562	26.96
272.777	72.02
272.993	112.98
273.209	49.49
273.425	-9.9
273.64	65.88
273.856	67.92
274.072	59.73
274.287	2.39
274.503	69.97
274.719	35.16
274.934	4.44
275.15	-26.28
275.366	8.53
275.581	43.35
275.797	102.74
276.012	-13.99
276.228	49.49
276.444	-5.8
276.659	74.07
276.875	4.44
277.09	-3.75
277.306	4.44
277.521	-9.9
277.737	4.44
277.952	-9.9
278.168	59.73
278.383	78.16
278.599	-1.71
278.814	47.44
279.03	-9.9
279.245	0.34
279.461	51.54
279.676	59.73
279.892	8.53
280.107	35.16
280.322	88.4
280.538	65.88
280.753	-20.14
280.969	-5.8
281.184	82.26
281.399	98.64
281.615	2.39
281.83	82.26
282.045	37.2
282.26	88.4
282.476	-3.75
282.691	6.49
282.906	-7.85
283.122	-18.09
283.337	12.63
283.552	80.21
283.767	41.3
283.983	24.92
284.198	-7.85
284.413	57.68
284.628	29.01
284.843	55.64
285.058	-1.71
285.274	18.77
285.489	59.73
285.704	0.34
285.919	-20.14
286.134	100.69
286.349	-48.81
286.564	100.69
286.779	49.49
286.995	72.02
287.21	31.06
287.425	-24.23
287.64	43.35
287.855	12.63
288.07	4.44
288.285	94.55
288.5	22.87
288.715	26.96
288.93	61.78
289.145	53.59
289.36	26.96
289.575	24.92
289.79	12.63
290.004	51.54
290.219	22.87
290.434	86.36
290.649	57.68
290.864	29.01
291.079	39.25
291.294	100.69
291.509	65.88
291.724	-16.04
291.938	55.64
292.153	74.07
292.368	-24.23
292.583	37.2
292.798	61.78
293.012	98.64
293.227	6.49
293.442	37.2
293.657	104.79
293.871	78.16
294.086	94.55
294.301	18.77
294.516	57.68
294.73	20.82
294.945	47.44
295.16	-7.85
295.374	57.68
295.589	-26.28
295.804	6.49
296.018	47.44
296.233	104.79
296.447	39.25
296.662	-11.95
296.877	92.5
297.091	43.35
297.306	63.83
297.52	-67.24
297.735	92.5
297.949	49.49
298.164	26.96
298.378	55.64
298.593	61.78
298.807	-11.95
299.022	6.49
299.236	41.3
299.451	18.77
299.665	47.44
299.88	18.77
300.094	72.02
300.309	90.45
300.523	16.73
300.737	35.16
300.952	2.39
301.166	63.83
301.381	14.68
301.595	49.49
301.809	65.88
302.024	80.21
302.238	41.3
302.452	29.01
302.667	31.06
302.881	12.63
303.095	51.54
303.309	108.88
303.524	6.49
303.738	16.73
303.952	22.87
304.166	-9.9
304.381	20.82
304.595	20.82
304.809	82.26
305.023	47.44
305.237	41.3
305.452	76.12
305.666	18.77
305.88	72.02
306.094	76.12
306.308	112.98
306.522	110.93
306.736	65.88
306.95	57.68
307.164	-13.99
307.379	35.16
307.593	26.96
307.807	-24.23
308.021	33.11
308.235	63.83
308.449	24.92
308.663	123.22
308.877	6.49
309.091	22.87
309.305	16.73
309.519	35.16
309.733	72.02
309.947	12.63
310.161	82.26
310.374	45.4
310.588	6.49
310.802	26.96
311.016	49.49
311.23	22.87
311.444	14.68
311.658	127.32
311.872	86.36
312.085	12.63
312.299	16.73
312.513	51.54
312.727	8.53
312.941	-20.14
313.154	43.35
313.368	49.49
313.582	84.31
313.796	63.83
314.009	29.01
314.223	-11.95
314.437	51.54
314.651	8.53
314.864	24.92
315.078	47.44
315.292	41.3
315.505	31.06
315.719	-18.09
315.933	57.68
316.146	31.06
316.36	80.21
316.573	106.84
316.787	41.3
317.001	110.93
317.214	-3.75
317.428	86.36
317.641	-11.95
317.855	39.25
318.068	-22.19
318.282	55.64
318.495	8.53
318.709	26.96
318.922	72.02
319.136	98.64
319.349	92.5
319.563	33.11
319.776	76.12
319.99	-34.47
320.203	90.45
320.417	59.73
320.63	55.64
320.843	135.51
321.057	112.98
321.27	88.4
321.483	-3.75
321.697	43.35
321.91	59.73
322.124	26.96
322.337	35.16
322.55	76.12
322.763	82.26
322.977	31.06
323.19	-5.8
323.403	86.36
323.617	80.21
323.83	14.68
324.043	6.49
324.256	74.07
324.469	31.06
324.683	90.45
324.896	22.87
325.109	72.02
325.322	86.36
325.535	80.21
325.748	16.73
325.962	43.35
326.175	29.01
326.388	39.25
326.601	53.59
326.814	37.2
327.027	137.56
327.24	55.64
327.453	29.01
327.666	72.02
327.879	115.03
328.092	96.6
328.305	65.88
328.518	88.4
328.731	78.16
328.944	139.6
329.157	47.44
329.37	139.6
329.583	106.84
329.796	88.4
330.009	-40.62
330.222	14.68
330.435	22.87
330.648	-30.38
330.861	92.5
331.073	-18.09
331.286	94.55
331.499	16.73
331.712	35.16
331.925	100.69
332.138	0.34
332.35	8.53
332.563	0.34
332.776	-13.99
332.989	78.16
333.202	51.54
333.414	86.36
333.627	72.02
333.84	39.25
334.053	96.6
334.265	67.92
334.478	6.49
334.691	104.79
334.903	51.54
335.116	-20.14
335.329	43.35
335.541	-1.71
335.754	57.68
335.966	12.63
336.179	49.49
336.392	55.64
336.604	98.64
336.817	94.55
337.029	26.96
337.242	57.68
337.454	127.32
337.667	39.25
337.88	74.07
338.092	59.73
338.305	-24.23
338.517	-44.71
338.729	14.68
338.942	18.77
339.154	35.16
339.367	47.44
339.579	69.97
339.792	55.64
340.004	29.01
340.217	-7.85
340.429	14.68
340.641	49.49
340.854	31.06
341.066	-34.47
341.278	84.31
341.491	57.68
341.703	59.73
341.915	-18.09
342.128	57.68
342.34	31.06
342.552	51.54
342.764	16.73
342.977	102.74
343.189	108.88
343.401	-11.95
343.613	12.63
343.826	92.5
344.038	-5.8
344.25	88.4
344.462	29.01
344.674	-32.43
344.886	49.49
345.099	29.01
345.311	24.92
345.523	6.49
345.735	0.34
345.947	33.11
346.159	0.34
346.371	98.64
346.583	-1.71
346.795	84.31
347.007	20.82
347.219	43.35
347.431	31.06
347.643	47.44
347.855	61.78
348.067	76.12
348.279	4.44
348.491	31.06
348.703	24.92
348.915	63.83
349.127	-40.62
349.339	43.35
349.551	35.16
349.763	37.2
349.975	-3.75
350.187	80.21
350.399	-26.28
350.61	31.06
350.822	-1.71
351.034	2.39
351.246	43.35
351.458	-38.57
351.669	6.49
351.881	55.64
352.093	63.83
352.305	125.27
352.517	59.73
352.728	84.31
352.94	61.78
353.152	88.4
353.363	117.08
353.575	6.49
353.787	84.31
353.999	57.68
354.21	80.21
354.422	31.06
354.633	47.44
354.845	67.92
355.057	49.49
355.268	45.4
355.48	-30.38
355.692	-36.52
355.903	20.82
356.115	72.02
356.326	-24.23
356.538	31.06
356.749	98.64
356.961	125.27
357.172	-1.71
357.384	26.96
357.595	53.59
357.807	31.06
358.018	8.53
358.23	106.84
358.441	80.21
358.653	49.49
358.864	35.16
359.075	72.02
359.287	72.02
359.498	0.34
359.709	31.06
359.921	49.49
360.132	74.07
360.344	96.6
360.555	72.02
360.766	20.82
360.977	39.25
361.189	88.4
361.4	-1.71
361.611	69.97
361.823	45.4
362.034	63.83
362.245	41.3
362.456	96.6
362.667	63.83
362.879	16.73
363.09	47.44
363.301	6.49
363.512	35.16
363.723	41.3
363.935	26.96
364.146	43.35
364.357	-9.9
364.568	47.44
364.779	35.16
364.99	65.88
365.201	59.73
365.412	88.4
365.623	24.92
365.834	92.5
366.045	78.16
366.256	74.07
366.467	67.92
366.678	88.4
366.889	55.64
367.1	57.68
367.311	14.68
367.522	8.53
367.733	-9.9
367.944	94.55
368.155	61.78
368.366	-16.04
368.577	-9.9
368.788	74.07
368.999	20.82
369.209	55.64
369.42	78.16
369.631	47.44
369.842	96.6
370.053	55.64
370.264	74.07
370.474	49.49
370.685	49.49
370.896	35.16
371.107	43.35
371.317	-13.99
371.528	24.92
371.739	80.21
371.95	53.59
372.16	84.31
372.371	20.82
372.582	47.44
372.792	20.82
373.003	69.97
373.214	108.88
373.424	-1.71
373.635	-24.23
373.846	121.17
374.056	47.44
374.267	78.16
374.477	10.58
374.688	49.49
374.898	63.83
375.109	84.31
375.319	98.64
375.53	57.68
375.74	0.34
375.951	67.92
376.161	49.49
376.372	33.11
376.582	12.63
376.793	16.73
377.003	18.77
377.214	59.73
377.424	29.01
377.635	55.64
377.845	41.3
378.055	51.54
378.266	4.44
378.476	94.55
378.686	-52.91
378.897	33.11
379.107	147.8
379.317	96.6
379.528	61.78
379.738	31.06
379.948	108.88
380.158	6.49
380.369	39.25
380.579	74.07
380.789	92.5
380.999	45.4
381.21	6.49
381.42	33.11
381.63	22.87
381.84	14.68
382.05	84.31
382.261	65.88
382.471	22.87
382.681	82.26
382.891	47.44
383.101	135.51
383.311	61.78
383.521	53.59
383.731	2.39
383.941	90.45
384.151	59.73
384.361	86.36
384.571	86.36
384.781	67.92
384.991	59.73
385.201	26.96
385.411	29.01
385.621	26.96
385.831	-34.47
386.041	22.87
386.251	65.88
386.461	86.36
386.671	47.44
386.881	82.26
387.091	35.16
387.301	59.73
387.511	-44.71
387.72	-13.99
387.93	43.35
388.14	-7.85
388.35	12.63
388.56	57.68
388.769	127.32
388.979	2.39
389.189	-3.75
389.399	16.73
389.609	61.78
389.818	67.92
390.028	80.21
390.238	82.26
390.447	24.92
390.657	78.16
390.867	33.11
391.076	6.49
391.286	100.69
391.496	26.96
391.705	65.88
391.915	51.54
392.125	65.88
392.334	63.83
392.544	90.45
392.753	104.79
392.963	88.4
393.172	26.96
393.382	31.06
393.591	72.02
393.801	-11.95
394.01	41.3
394.22	76.12
394.429	59.73
394.639	55.64
394.848	69.97
395.058	31.06
395.267	96.6
395.477	121.17
395.686	90.45
395.895	2.39
396.105	63.83
396.314	-30.38
396.524	51.54
396.733	59.73
396.942	72.02
397.152	61.78
397.361	123.22
397.57	80.21
397.78	55.64
397.989	33.11
398.198	47.44
398.407	82.26
398.617	104.79
398.826	112.98
399.035	115.03
399.244	57.68
399.453	39.25
399.663	65.88
399.872	39.25
400.081	65.88
400.29	90.45
400.499	24.92
400.708	35.16
400.917	20.82
401.127	51.54
401.336	14.68
401.545	129.36
401.754	180.56
401.963	39.25
402.172	121.17
402.381	43.35
402.59	94.55
402.799	10.58
403.008	76.12
403.217	84.31
403.426	55.64
403.635	-5.8
403.844	26.96
404.053	14.68
404.262	123.22
404.471	123.22
404.68	102.74
404.888	82.26
405.097	100.69
405.306	90.45
405.515	92.5
405.724	92.5
405.933	39.25
406.142	74.07
406.35	102.74
406.559	143.7
406.768	108.88
406.977	84.31
407.185	102.74
407.394	112.98
407.603	90.45
407.812	112.98
408.02	121.17
408.229	160.08
408.438	92.5
408.646	49.49
408.855	96.6
409.064	86.36
409.272	53.59
409.481	174.42
409.69	129.36
409.898	201.04
410.107	141.65
410.315	186.71
410.524	164.18
410.733	121.17
410.941	201.04
411.15	207.19
411.358	168.27
411.567	215.38
411.775	125.27
411.984	143.7
412.192	248.15
412.401	219.47
412.609	242
412.818	207.19
413.026	260.43
413.234	287.06
413.443	325.97
413.651	264.53
413.86	207.19
414.068	237.91
414.276	235.86
414.485	270.67
414.693	282.96
414.901	323.92
415.11	305.49
415.318	325.97
415.526	293.2
415.734	309.58
415.943	336.21
416.151	352.59
416.359	360.78
416.567	409.94
416.776	358.74
416.984	342.35
417.192	375.12
417.4	393.55
417.608	401.74
417.817	377.17
418.025	465.23
418.233	446.8
418.441	473.42
418.649	424.27
418.857	448.85
419.065	579.92
419.273	487.76
419.481	579.92
419.689	530.77
419.897	612.68
420.105	631.12
420.313	590.16
420.521	639.31
420.729	725.32
420.937	665.93
421.145	713.03
421.353	770.38
421.561	729.42
421.769	813.38
421.977	842.06
422.185	885.06
422.393	817.48
422.601	850.25
422.809	835.91
423.017	891.21
423.224	911.69
423.432	870.73
423.64	952.65
423.848	1077.57
424.056	917.83
424.263	1141.06
424.471	1104.2
424.679	1159.49
424.887	1063.24
425.094	1196.36
425.302	1177.92
425.51	1274.18
425.718	1206.59
425.925	1284.42
426.133	1325.38
426.341	1534.27
426.548	1478.97
426.756	1487.17
426.964	1577.28
427.171	1632.57
427.379	1661.24
427.586	1794.36
427.794	1620.28
428.001	1734.97
428.209	1931.58
428.417	1759.55
428.624	1984.82
428.832	1993.01
429.039	2023.73
429.247	1986.87
429.454	2042.17
429.662	2185.52
429.869	2142.52
430.076	2283.83
430.284	2277.68
430.491	2277.68
430.699	2515.25
430.906	2414.9
431.114	2558.25
431.321	2613.55
431.528	2572.59
431.736	2787.63
431.943	2857.26
432.15	2830.63
432.358	2732.33
432.565	2959.66
432.772	2996.52
432.979	3039.53
433.187	3193.12
433.394	3195.17
433.601	3459.36
433.808	3483.94
434.016	3512.61
434.223	3531.04
434.43	3848.47
434.637	3627.29
434.844	4065.56
435.052	4024.6
435.259	3928.35
435.466	4008.22
435.673	3879.19
435.88	4348.18
436.087	4278.55
436.294	4315.41
436.501	4299.03
436.708	4344.08
436.915	4735.25
437.122	4761.87
437.329	4692.24
437.537	4966.67
437.743	4948.23
437.95	4968.71
438.157	5318.92
438.364	5241.09
438.571	5275.91
438.778	5402.88
438.985	5986.55
439.192	5650.69
439.399	5925.11
439.606	5679.36
439.813	5904.64
440.02	6379.76
440.227	6283.51
440.433	6072.57
440.64	6387.96
440.847	6326.52
441.054	6439.16
441.261	6959.34
441.467	6887.66
441.674	7004.39
441.881	7258.34
442.088	7268.58
442.294	7319.78
442.501	7307.49
442.708	7549.15
442.914	7889.12
443.121	8095.96
443.328	7837.92
443.534	8442.07
443.741	8345.81
443.948	8046.81
444.154	8579.28
444.361	8648.91
444.568	8773.84
444.774	8730.83
444.981	8757.46
445.187	8923.34
445.394	9410.76
445.6	9115.85
445.807	10229.95
446.013	9699.52
446.22	9812.16
446.426	10168.51
446.633	10551.48
446.839	10948.78
447.046	10139.83
447.252	10772.66
447.459	10827.95
447.665	11030.7
447.871	11341.99
448.078	11679.91
448.284	11131.05
448.491	11641
448.697	12075.17
448.903	12109.98
449.11	12349.59
449.316	12146.84
449.522	12312.73
449.728	12386.46
449.935	12679.32
450.141	12773.52
450.347	12914.83
450.553	12427.42
450.76	12693.65
450.966	13138.06
451.172	13019.28
451.378	13211.79
451.584	12877.97
451.791	13236.36
451.997	13326.47
452.203	13516.94
452.409	13334.67
452.615	13359.24
452.821	12941.46
453.027	12789.91
453.233	13166.73
453.44	12869.78
453.646	12861.59
453.852	12955.79
454.058	13187.21
454.264	12785.81
454.47	13195.4
454.676	12806.29
454.882	13125.77
455.088	12114.08
455.294	12159.13
455.5	12560.53
455.705	12564.63
455.911	12077.21
456.117	11692.19
456.323	11454.63
456.529	10786.99
456.735	11559.08
456.941	11356.33
457.147	11024.56
457.352	10467.51
457.558	10512.56
457.764	10412.21
457.97	10229.95
458.176	10188.99
458.381	10186.94
458.587	9666.75
458.793	9656.51
458.999	8964.3
459.204	9707.71
459.41	9564.36
459.616	8997.07
459.821	9029.84
460.027	9021.64
460.233	8644.82
460.438	8231.13
460.644	8265.94
460.85	8071.39
461.055	7903.45
461.261	7710.94
461.466	7387.36
461.672	7141.61
461.878	7635.17
462.083	7071.98
462.289	6932.72
462.494	6883.56
462.7	6512.88
462.905	6379.76
463.111	6488.31
463.316	6521.07
463.522	6539.51
463.727	6660.34
463.932	6695.15
464.138	6494.45
464.343	6379.76
464.549	6314.23
464.754	6512.88
464.959	6361.33
465.165	6297.85
465.37	6191.35
465.575	5957.88
465.781	6236.41
465.986	6392.05
466.191	6004.99
466.397	5785.85
466.602	5673.21
466.807	5736.7
467.012	5951.74
467.218	5867.77
467.423	5716.22
467.628	5716.22
467.833	6035.71
468.038	5644.54
468.244	5636.35
468.449	5839.1
468.654	5845.24
468.859	5650.69
469.064	5773.57
469.269	5351.68
469.474	5589.25
469.679	5478.66
469.885	5302.53
470.09	5531.9
470.295	5298.44
