Data from USB4F104151__105__13-54-45-288.txt Node

Date: Thu Mar 13 13:54:45 EDT 2025
User: louis
Spectrometer: USB4F10415
Trigger mode: 4
Integration Time (sec): 1.000000E-2
Scans to average: 1
Electric dark correction enabled: true
Nonlinearity correction enabled: false
Boxcar width: 0
XAxis mode: Wavelengths
Number of Pixels in Spectrum: 3648
>>>>>Begin Spectral Data<<<<<
178.204	-31.74
178.424	-31.74
178.644	-31.74
178.864	-89.09
179.084	23.55
179.304	-46.08
179.524	-1.02
179.744	-5.12
179.964	23.55
180.184	-19.46
180.404	35.84
180.624	-17.41
180.844	23.55
181.064	-15.36
181.283	5.12
181.503	-70.65
181.723	87.04
181.943	-9.22
182.163	-46.08
182.383	11.26
182.602	-9.22
182.822	56.32
183.042	-23.55
183.262	33.79
183.482	64.51
183.701	-66.56
183.921	-11.26
184.141	-52.22
184.361	74.75
184.58	-68.61
184.8	-58.37
185.02	19.46
185.239	119.81
185.459	-11.26
185.679	31.74
185.898	-35.84
186.118	19.46
186.338	-80.89
186.557	11.26
186.777	-60.42
186.997	41.98
187.216	7.17
187.436	-80.89
187.655	-5.12
187.875	-68.61
188.095	62.46
188.314	17.41
188.534	31.74
188.753	31.74
188.973	-7.17
189.192	19.46
189.412	52.22
189.631	-54.27
189.851	-37.89
190.07	5.12
190.29	-19.46
190.509	31.74
190.729	35.84
190.948	11.26
191.168	68.61
191.387	21.5
191.607	-39.94
191.826	13.31
192.045	23.55
192.265	15.36
192.484	23.55
192.704	87.04
192.923	-41.98
193.142	46.08
193.362	31.74
193.581	31.74
193.8	-31.74
194.02	78.85
194.239	72.7
194.458	7.17
194.678	-21.5
194.897	21.5
195.116	11.26
195.335	-44.03
195.555	25.6
195.774	35.84
195.993	64.51
196.212	-15.36
196.432	-52.22
196.651	60.42
196.87	39.94
197.089	-13.31
197.308	23.55
197.528	13.31
197.747	-13.31
197.966	-3.07
198.185	-27.65
198.404	15.36
198.623	25.6
198.842	-7.17
199.062	50.18
199.281	56.32
199.5	-25.6
199.719	1.02
199.938	-33.79
200.157	-5.12
200.376	19.46
200.595	1.02
200.814	-5.12
201.033	44.03
201.252	-29.7
201.471	13.31
201.69	-21.5
201.909	1.02
202.128	70.65
202.347	15.36
202.566	33.79
202.785	-9.22
203.004	-5.12
203.223	44.03
203.442	3.07
203.661	-19.46
203.879	5.12
204.098	7.17
204.317	-17.41
204.536	-9.22
204.755	-50.18
204.974	17.41
205.193	35.84
205.411	33.79
205.63	33.79
205.849	80.89
206.068	52.22
206.287	-9.22
206.505	39.94
206.724	39.94
206.943	1.02
207.162	56.32
207.381	-1.02
207.599	-15.36
207.818	41.98
208.037	9.22
208.255	19.46
208.474	35.84
208.693	17.41
208.911	-7.17
209.13	-31.74
209.349	44.03
209.567	23.55
209.786	-19.46
210.005	3.07
210.223	-11.26
210.442	3.07
210.661	70.65
210.879	-33.79
211.098	91.13
211.316	11.26
211.535	-44.03
211.753	-9.22
211.972	-9.22
212.191	56.32
212.409	54.27
212.628	-48.13
212.846	50.18
213.065	-27.65
213.283	105.47
213.502	-37.89
213.72	3.07
213.938	-21.5
214.157	1.02
214.375	74.75
214.594	-13.31
214.812	54.27
215.031	3.07
215.249	58.37
215.467	74.75
215.686	46.08
215.904	25.6
216.122	-3.07
216.341	31.74
216.559	-19.46
216.778	-25.6
216.996	-25.6
217.214	-27.65
217.432	-33.79
217.651	11.26
217.869	3.07
218.087	46.08
218.306	5.12
218.524	-7.17
218.742	31.74
218.96	44.03
219.179	44.03
219.397	11.26
219.615	121.85
219.833	68.61
220.051	17.41
220.27	-1.02
220.488	44.03
220.706	-1.02
220.924	84.99
221.142	41.98
221.36	39.94
221.578	54.27
221.796	-37.89
222.015	-31.74
222.233	1.02
222.451	13.31
222.669	-17.41
222.887	76.8
223.105	15.36
223.323	17.41
223.541	-5.12
223.759	1.02
223.977	-62.46
224.195	-35.84
224.413	-39.94
224.631	-33.79
224.849	-35.84
225.067	17.41
225.285	-13.31
225.503	41.98
225.721	37.89
225.939	-11.26
226.157	29.7
226.375	37.89
226.592	21.5
226.81	91.13
227.028	60.42
227.246	87.04
227.464	17.41
227.682	76.8
227.9	21.5
228.117	11.26
228.335	72.7
228.553	1.02
228.771	3.07
228.989	29.7
229.206	29.7
229.424	-19.46
229.642	5.12
229.86	21.5
230.077	-1.02
230.295	3.07
230.513	17.41
230.731	-1.02
230.948	-25.6
231.166	25.6
231.384	-3.07
231.601	41.98
231.819	66.56
232.037	5.12
232.254	5.12
232.472	29.7
232.689	-37.89
232.907	1.02
233.125	68.61
233.342	64.51
233.56	-11.26
233.777	27.65
233.995	-11.26
234.213	-39.94
234.43	31.74
234.648	39.94
234.865	-13.31
235.083	50.18
235.3	39.94
235.518	13.31
235.735	44.03
235.953	60.42
236.17	29.7
236.388	-13.31
236.605	23.55
236.822	48.13
237.04	5.12
237.257	33.79
237.475	19.46
237.692	-39.94
237.909	31.74
238.127	31.74
238.344	58.37
238.562	-27.65
238.779	7.17
238.996	46.08
239.214	17.41
239.431	29.7
239.648	-9.22
239.865	25.6
240.083	37.89
240.3	-11.26
240.517	1.02
240.735	-25.6
240.952	66.56
241.169	54.27
241.386	-9.22
241.603	-11.26
241.821	-9.22
242.038	58.37
242.255	37.89
242.472	44.03
242.689	-44.03
242.907	39.94
243.124	-17.41
243.341	64.51
243.558	1.02
243.775	52.22
243.992	19.46
244.209	91.13
244.426	-19.46
244.643	35.84
244.86	74.75
245.078	41.98
245.295	-37.89
245.512	1.02
245.729	23.55
245.946	62.46
246.163	-9.22
246.38	-11.26
246.597	46.08
246.814	-15.36
247.031	64.51
247.248	-95.23
247.464	37.89
247.681	11.26
247.898	25.6
248.115	11.26
248.332	19.46
248.549	-11.26
248.766	13.31
248.983	3.07
249.2	-7.17
249.417	-13.31
249.633	39.94
249.85	11.26
250.067	29.7
250.284	15.36
250.501	-19.46
250.717	93.18
250.934	-21.5
251.151	3.07
251.368	33.79
251.585	54.27
251.801	-37.89
252.018	5.12
252.235	27.65
252.451	80.89
252.668	78.85
252.885	-29.7
253.102	-1.02
253.318	27.65
253.535	-1.02
253.752	11.26
253.968	35.84
254.185	-21.5
254.401	-21.5
254.618	35.84
254.835	11.26
255.051	29.7
255.268	52.22
255.484	11.26
255.701	-3.07
255.917	15.36
256.134	-1.02
256.351	17.41
256.567	-13.31
256.784	60.42
257	3.07
257.217	-37.89
257.433	27.65
257.65	-1.02
257.866	48.13
258.082	-17.41
258.299	-19.46
258.515	17.41
258.732	66.56
258.948	72.7
259.165	37.89
259.381	87.04
259.597	13.31
259.814	-41.98
260.03	66.56
260.246	29.7
260.463	15.36
260.679	1.02
260.895	-46.08
261.112	54.27
261.328	-15.36
261.544	9.22
261.761	7.17
261.977	41.98
262.193	-23.55
262.409	44.03
262.626	52.22
262.842	109.57
263.058	58.37
263.274	105.47
263.49	-27.65
263.707	29.7
263.923	-60.42
264.139	44.03
264.355	-64.51
264.571	19.46
264.787	-19.46
265.004	23.55
265.22	17.41
265.436	-11.26
265.652	-11.26
265.868	17.41
266.084	48.13
266.3	70.65
266.516	58.37
266.732	-15.36
266.948	25.6
267.164	54.27
267.38	11.26
267.596	17.41
267.812	35.84
268.028	76.8
268.244	-13.31
268.46	50.18
268.676	-11.26
268.892	35.84
269.108	-39.94
269.324	11.26
269.54	-33.79
269.756	76.8
269.972	-39.94
270.188	-46.08
270.403	-5.12
270.619	11.26
270.835	89.09
271.051	15.36
271.267	35.84
271.483	89.09
271.698	48.13
271.914	-13.31
272.13	-11.26
272.346	97.28
272.562	41.98
272.777	48.13
272.993	41.98
273.209	1.02
273.425	15.36
273.64	-5.12
273.856	68.61
274.072	-41.98
274.287	15.36
274.503	7.17
274.719	-1.02
274.934	99.33
275.15	-19.46
275.366	-19.46
275.581	48.13
275.797	23.55
276.012	31.74
276.228	97.28
276.444	13.31
276.659	52.22
276.875	33.79
277.09	-41.98
277.306	41.98
277.521	25.6
277.737	23.55
277.952	31.74
278.168	-5.12
278.383	33.79
278.599	29.7
278.814	-25.6
279.03	-15.36
279.245	56.32
279.461	60.42
279.676	-19.46
279.892	-17.41
280.107	-17.41
280.322	-17.41
280.538	64.51
280.753	-3.07
280.969	27.65
281.184	15.36
281.399	80.89
281.615	-13.31
281.83	68.61
282.045	1.02
282.26	78.85
282.476	-27.65
282.691	5.12
282.906	5.12
283.122	48.13
283.337	-29.7
283.552	23.55
283.767	52.22
283.983	41.98
284.198	11.26
284.413	3.07
284.628	23.55
284.843	44.03
285.058	56.32
285.274	72.7
285.489	56.32
285.704	1.02
285.919	-11.26
286.134	25.6
286.349	13.31
286.564	-13.31
286.779	39.94
286.995	-1.02
287.21	9.22
287.425	9.22
287.64	-7.17
287.855	-17.41
288.07	-48.13
288.285	35.84
288.5	15.36
288.715	-1.02
288.93	48.13
289.145	105.47
289.36	48.13
289.575	33.79
289.79	80.89
290.004	29.7
290.219	1.02
290.434	54.27
290.649	23.55
290.864	5.12
291.079	37.89
291.294	37.89
291.509	44.03
291.724	44.03
291.938	-21.5
292.153	-17.41
292.368	-3.07
292.583	-15.36
292.798	-41.98
293.012	-7.17
293.227	5.12
293.442	46.08
293.657	39.94
293.871	60.42
294.086	56.32
294.301	39.94
294.516	31.74
294.73	-21.5
294.945	11.26
295.16	-52.22
295.374	66.56
295.589	19.46
295.804	-11.26
296.018	58.37
296.233	29.7
296.447	76.8
296.662	13.31
296.877	41.98
297.091	52.22
297.306	25.6
297.52	3.07
297.735	74.75
297.949	37.89
298.164	27.65
298.378	-19.46
298.593	15.36
298.807	7.17
299.022	-13.31
299.236	41.98
299.451	13.31
299.665	52.22
299.88	46.08
300.094	39.94
300.309	39.94
300.523	21.5
300.737	-64.51
300.952	-41.98
301.166	56.32
301.381	-13.31
301.595	33.79
301.809	11.26
302.024	-50.18
302.238	-31.74
302.452	17.41
302.667	-9.22
302.881	58.37
303.095	7.17
303.309	52.22
303.524	52.22
303.738	3.07
303.952	13.31
304.166	-48.13
304.381	21.5
304.595	9.22
304.809	21.5
305.023	33.79
305.237	39.94
305.452	113.66
305.666	21.5
305.88	52.22
306.094	107.52
306.308	66.56
306.522	21.5
306.736	27.65
306.95	29.7
307.164	37.89
307.379	9.22
307.593	15.36
307.807	-50.18
308.021	5.12
308.235	70.65
308.449	68.61
308.663	-48.13
308.877	78.85
309.091	-9.22
309.305	99.33
309.519	52.22
309.733	54.27
309.947	-3.07
310.161	44.03
310.374	-21.5
310.588	84.99
310.802	-15.36
311.016	52.22
311.23	35.84
311.444	46.08
311.658	31.74
311.872	39.94
312.085	70.65
312.299	31.74
312.513	1.02
312.727	56.32
312.941	46.08
313.154	21.5
313.368	64.51
313.582	84.99
313.796	80.89
314.009	64.51
314.223	35.84
314.437	29.7
314.651	25.6
314.864	-1.02
315.078	70.65
315.292	74.75
315.505	27.65
315.719	78.85
315.933	17.41
316.146	52.22
316.36	1.02
316.573	39.94
316.787	-39.94
317.001	-39.94
317.214	-19.46
317.428	17.41
317.641	-17.41
317.855	50.18
318.068	68.61
318.282	54.27
318.495	39.94
318.709	62.46
318.922	35.84
319.136	27.65
319.349	29.7
319.563	82.94
319.776	37.89
319.99	46.08
320.203	3.07
320.417	39.94
320.63	15.36
320.843	-44.03
321.057	9.22
321.27	54.27
321.483	19.46
321.697	3.07
321.91	35.84
322.124	50.18
322.337	-9.22
322.55	41.98
322.763	-23.55
322.977	37.89
323.19	82.94
323.403	-17.41
323.617	39.94
323.83	41.98
324.043	68.61
324.256	52.22
324.469	25.6
324.683	25.6
324.896	35.84
325.109	17.41
325.322	17.41
325.535	64.51
325.748	66.56
325.962	31.74
326.175	-46.08
326.388	50.18
326.601	21.5
326.814	11.26
327.027	78.85
327.24	39.94
327.453	-23.55
327.666	-5.12
327.879	44.03
328.092	72.7
328.305	-5.12
328.518	64.51
328.731	-19.46
328.944	54.27
329.157	11.26
329.37	23.55
329.583	35.84
329.796	-1.02
330.009	13.31
330.222	-29.7
330.435	46.08
330.648	-23.55
330.861	25.6
331.073	27.65
331.286	74.75
331.499	48.13
331.712	48.13
331.925	1.02
332.138	121.85
332.35	101.37
332.563	25.6
332.776	93.18
332.989	1.02
333.202	11.26
333.414	56.32
333.627	-76.8
333.84	23.55
334.053	-13.31
334.265	93.18
334.478	31.74
334.691	60.42
334.903	37.89
335.116	13.31
335.329	3.07
335.541	13.31
335.754	48.13
335.966	7.17
336.179	-21.5
336.392	80.89
336.604	11.26
336.817	41.98
337.029	15.36
337.242	29.7
337.454	-29.7
337.667	46.08
337.88	89.09
338.092	70.65
338.305	3.07
338.517	29.7
338.729	76.8
338.942	11.26
339.154	52.22
339.367	37.89
339.579	72.7
339.792	66.56
340.004	17.41
340.217	27.65
340.429	-13.31
340.641	-15.36
340.854	19.46
341.066	21.5
341.278	37.89
341.491	66.56
341.703	60.42
341.915	41.98
342.128	33.79
342.34	56.32
342.552	91.13
342.764	23.55
342.977	5.12
343.189	15.36
343.401	33.79
343.613	70.65
343.826	33.79
344.038	1.02
344.25	7.17
344.462	1.02
344.674	-13.31
344.886	48.13
345.099	48.13
345.311	-33.79
345.523	17.41
345.735	58.37
345.947	27.65
346.159	33.79
346.371	-17.41
346.583	-9.22
346.795	31.74
347.007	76.8
347.219	5.12
347.431	-17.41
347.643	35.84
347.855	27.65
348.067	37.89
348.279	72.7
348.491	105.47
348.703	3.07
348.915	72.7
349.127	11.26
349.339	-15.36
349.551	29.7
349.763	44.03
349.975	-9.22
350.187	5.12
350.399	27.65
350.61	58.37
350.822	50.18
351.034	-5.12
351.246	56.32
351.458	7.17
351.669	-17.41
351.881	7.17
352.093	-48.13
352.305	119.81
352.517	7.17
352.728	33.79
352.94	21.5
353.152	76.8
353.363	70.65
353.575	-64.51
353.787	89.09
353.999	-35.84
354.21	48.13
354.422	35.84
354.633	7.17
354.845	-9.22
355.057	150.53
355.268	35.84
355.48	39.94
355.692	17.41
355.903	-72.7
356.115	70.65
356.326	25.6
356.538	15.36
356.749	-1.02
356.961	62.46
357.172	-48.13
357.384	50.18
357.595	48.13
357.807	72.7
358.018	-1.02
358.23	78.85
358.441	64.51
358.653	-7.17
358.864	31.74
359.075	-29.7
359.287	84.99
359.498	56.32
359.709	23.55
359.921	46.08
360.132	23.55
360.344	60.42
360.555	9.22
360.766	144.38
360.977	21.5
361.189	70.65
361.4	27.65
361.611	31.74
361.823	-13.31
362.034	-19.46
362.245	44.03
362.456	68.61
362.667	15.36
362.879	107.52
363.09	54.27
363.301	41.98
363.512	-41.98
363.723	111.61
363.935	72.7
364.146	41.98
364.357	35.84
364.568	23.55
364.779	119.81
364.99	87.04
365.201	7.17
365.412	3.07
365.623	-17.41
365.834	68.61
366.045	54.27
366.256	50.18
366.467	60.42
366.678	-39.94
366.889	39.94
367.1	13.31
367.311	-5.12
367.522	-23.55
367.733	17.41
367.944	62.46
368.155	-7.17
368.366	109.57
368.577	25.6
368.788	-13.31
368.999	41.98
369.209	-27.65
369.42	56.32
369.631	101.37
369.842	1.02
370.053	-13.31
370.264	50.18
370.474	44.03
370.685	44.03
370.896	46.08
371.107	64.51
371.317	-7.17
371.528	46.08
371.739	70.65
371.95	78.85
372.16	-5.12
372.371	111.61
372.582	125.95
372.792	50.18
373.003	-19.46
373.214	66.56
373.424	37.89
373.635	35.84
373.846	78.85
374.056	-7.17
374.267	29.7
374.477	7.17
374.688	115.71
374.898	84.99
375.109	54.27
375.319	19.46
375.53	60.42
375.74	9.22
375.951	13.31
376.161	46.08
376.372	82.94
376.582	17.41
376.793	-33.79
377.003	9.22
377.214	-1.02
377.424	-17.41
377.635	29.7
377.845	33.79
378.055	97.28
378.266	25.6
378.476	39.94
378.686	54.27
378.897	35.84
379.107	29.7
379.317	66.56
379.528	27.65
379.738	103.42
379.948	29.7
380.158	39.94
380.369	-7.17
380.579	5.12
380.789	89.09
380.999	101.37
381.21	109.57
381.42	25.6
381.63	125.95
381.84	82.94
382.05	-1.02
382.261	29.7
382.471	17.41
382.681	48.13
382.891	19.46
383.101	31.74
383.311	78.85
383.521	31.74
383.731	19.46
383.941	89.09
384.151	-31.74
384.361	29.7
384.571	74.75
384.781	68.61
384.991	50.18
385.201	72.7
385.411	60.42
385.621	23.55
385.831	48.13
386.041	89.09
386.251	64.51
386.461	3.07
386.671	21.5
386.881	15.36
387.091	50.18
387.301	74.75
387.511	-1.02
387.72	37.89
387.93	44.03
388.14	19.46
388.35	-72.7
388.56	136.19
388.769	54.27
388.979	37.89
389.189	-7.17
389.399	48.13
389.609	39.94
389.818	23.55
390.028	56.32
390.238	140.29
390.447	-19.46
390.657	25.6
390.867	1.02
391.076	70.65
391.286	-23.55
391.496	-13.31
391.705	-27.65
391.915	60.42
392.125	-27.65
392.334	-21.5
392.544	21.5
392.753	33.79
392.963	17.41
393.172	44.03
393.382	64.51
393.591	72.7
393.801	64.51
394.01	74.75
394.22	-41.98
394.429	35.84
394.639	44.03
394.848	21.5
395.058	48.13
395.267	68.61
395.477	91.13
395.686	54.27
395.895	52.22
396.105	101.37
396.314	-33.79
396.524	72.7
396.733	87.04
396.942	99.33
397.152	101.37
397.361	80.89
397.57	11.26
397.78	1.02
397.989	39.94
398.198	58.37
398.407	-7.17
398.617	35.84
398.826	41.98
399.035	60.42
399.244	78.85
399.453	115.71
399.663	74.75
399.872	35.84
400.081	-1.02
400.29	91.13
400.499	19.46
400.708	62.46
400.917	91.13
401.127	103.42
401.336	29.7
401.545	87.04
401.754	27.65
401.963	70.65
402.172	80.89
402.381	95.23
402.59	48.13
402.799	-3.07
403.008	101.37
403.217	31.74
403.426	74.75
403.635	17.41
403.844	33.79
404.053	103.42
404.262	128
404.471	64.51
404.68	146.43
404.888	44.03
405.097	82.94
405.306	115.71
405.515	140.29
405.724	101.37
405.933	58.37
406.142	119.81
406.35	60.42
406.559	130.05
406.768	119.81
406.977	128
407.185	187.39
407.394	181.25
407.603	74.75
407.812	111.61
408.02	123.9
408.229	164.86
408.438	89.09
408.646	168.96
408.855	142.33
409.064	216.06
409.272	175.1
409.481	152.57
409.69	240.64
409.898	162.81
410.107	168.96
410.315	160.77
410.524	216.06
410.733	244.73
410.941	183.29
411.15	214.01
411.358	246.78
411.567	271.36
411.775	209.92
411.984	211.96
412.192	232.44
412.401	306.17
412.609	252.92
412.818	351.23
413.026	357.37
413.234	330.75
413.443	267.26
413.651	375.8
413.86	308.22
414.068	453.63
414.276	367.61
414.485	392.19
414.693	461.82
414.901	537.59
415.11	431.1
415.318	349.18
415.526	472.06
415.734	439.29
415.943	496.63
416.151	513.02
416.359	480.25
416.567	607.22
416.776	529.4
416.984	566.26
417.192	541.69
417.4	666.61
417.608	633.85
417.817	572.41
418.025	668.66
418.233	734.2
418.441	719.86
418.649	773.11
418.857	814.07
419.065	771.06
419.273	867.31
419.481	877.55
419.689	842.74
419.897	951.28
420.105	984.05
420.313	928.75
420.521	959.47
420.729	1039.34
420.937	1070.06
421.145	992.24
421.353	1070.06
421.561	1135.6
421.769	1053.68
421.977	1276.91
422.185	1289.2
422.393	1307.63
422.601	1407.98
422.809	1487.85
423.017	1364.97
423.224	1502.19
423.432	1481.71
423.64	1545.19
423.848	1747.94
424.056	1653.73
424.263	1772.52
424.471	1754.09
424.679	1862.63
424.887	1971.17
425.094	1932.26
425.302	2063.33
425.51	2063.33
425.718	2100.19
425.925	2098.14
426.133	2094.05
426.341	2323.42
426.548	2540.51
426.756	2421.72
426.964	2460.63
427.171	2573.27
427.379	2647
427.586	2704.34
427.794	2712.53
428.001	2798.55
428.209	3019.73
428.417	2950.1
428.624	3290.06
428.832	3202
429.039	3132.37
429.247	3193.81
429.454	3453.9
429.662	3769.29
429.869	3353.55
430.076	3763.14
430.284	3693.51
430.491	3783.62
430.699	3996.61
430.906	3843.01
431.114	3824.58
431.321	4182.98
431.528	4182.98
431.736	4559.8
431.943	4854.71
432.15	4645.82
432.358	4664.25
432.565	4916.15
432.772	4819.89
432.979	5069.75
433.187	5295.02
433.394	5340.08
433.601	5491.63
433.808	5487.53
434.016	5528.49
434.223	5860.26
434.43	6198.18
434.637	5845.93
434.844	6329.25
435.052	6634.39
435.259	6521.76
435.466	6423.45
435.673	6552.48
435.88	6921.11
436.087	7203.73
436.294	7338.9
436.501	7111.57
436.708	7265.17
436.915	7410.57
437.122	7590.8
437.329	7762.83
437.537	7971.72
437.743	8211.33
437.95	8221.57
438.157	8672.12
438.364	8721.27
438.571	8846.2
438.778	8838.01
438.985	9751.4
439.192	9147.25
439.399	9515.89
439.606	9407.34
439.813	9855.85
440.02	10474.34
440.227	10373.99
440.433	10177.38
440.64	10496.86
440.847	10380.13
441.054	10955.61
441.261	11467.6
441.467	11264.85
441.674	11459.41
441.881	12010.31
442.088	11854.67
442.294	11658.06
442.501	12151.62
442.708	12319.56
442.914	12909.37
443.121	13439.79
443.328	13009.72
443.534	13927.21
443.741	13417.27
443.948	13361.97
444.154	14416.68
444.361	14175.02
444.568	14414.63
444.774	14480.16
444.981	14613.28
445.187	14861.09
445.394	15899.41
445.6	15455
445.807	16782.08
446.013	16018.19
446.22	16288.52
446.426	17173.24
446.633	17289.98
446.839	17490.68
447.046	17097.47
447.252	17844.98
447.459	18193.13
447.665	18043.63
447.871	18805.47
448.078	19249.88
448.284	18553.57
448.491	18838.24
448.697	19987.15
448.903	20409.03
449.11	20382.41
449.316	19847.89
449.522	20239.05
449.728	20859.59
449.935	21084.86
450.141	20765.38
450.347	21590.71
450.553	20667.08
450.76	20873.92
450.966	21697.2
451.172	21519.03
451.378	22088.37
451.584	21502.65
451.791	22280.88
451.997	22147.76
452.203	22391.47
452.409	22207.15
452.615	22209.2
452.821	21414.59
453.027	21048
453.233	22149.81
453.44	21035.71
453.646	21586.61
453.852	21664.44
454.058	21902
454.264	21228.22
454.47	21504.7
454.676	21291.71
454.882	21777.08
455.088	19968.72
455.294	20347.59
455.5	20830.91
455.705	20769.48
455.911	20146.89
456.117	19618.52
456.323	19296.99
456.529	18279.15
456.735	19045.09
456.941	18627.3
457.147	18240.23
457.352	17668.85
457.558	17388.28
457.764	17736.43
457.97	17212.15
458.176	16771.84
458.381	16757.5
458.587	15971.08
458.793	16022.28
458.999	15074.07
459.204	16409.35
459.41	15799.05
459.616	14752.54
459.821	14893.85
460.027	14793.5
460.233	14324.52
460.438	13835.05
460.644	13902.64
460.85	13140.79
461.055	13280.05
461.261	13077.3
461.466	12313.41
461.672	11791.18
461.878	12479.3
462.083	11725.65
462.289	11543.38
462.494	11549.52
462.7	10896.22
462.905	10695.52
463.111	10908.51
463.316	11197.27
463.522	10664.8
463.727	10769.24
463.932	10855.26
464.138	10683.23
464.343	10730.33
464.549	10333.03
464.754	10650.46
464.959	10509.15
465.165	10580.83
465.37	10181.48
465.575	9845.61
465.781	10373.99
465.986	10300.26
466.191	9919.34
466.397	9689.96
466.602	9562.99
466.807	9669.48
467.012	9546.61
467.218	9522.03
467.423	9524.08
467.628	9741.16
467.833	9837.42
468.038	9472.88
468.244	9306.99
468.449	9530.22
468.654	9356.15
