Data from USB4F104151__235__14-00-51-358.txt Node

Date: Thu Mar 13 14:00:51 EDT 2025
User: louis
Spectrometer: USB4F10415
Trigger mode: 4
Integration Time (sec): 1.000000E-2
Scans to average: 1
Electric dark correction enabled: true
Nonlinearity correction enabled: false
Boxcar width: 0
XAxis mode: Wavelengths
Number of Pixels in Spectrum: 3648
>>>>>Begin Spectral Data<<<<<
178.204	-139.09
178.424	-139.09
178.644	-139.09
178.864	-114.52
179.084	-24.4
179.304	-18.26
179.524	-3.93
179.744	43.18
179.964	45.23
180.184	-8.02
180.404	-3.93
180.624	2.22
180.844	18.6
181.064	-55.12
181.283	-24.4
181.503	-3.93
181.723	8.36
181.943	-22.36
182.163	-53.08
182.383	-3.93
182.602	-16.21
182.822	-53.08
183.042	41.13
183.262	-57.17
183.482	34.99
183.701	2.22
183.921	6.31
184.141	30.89
184.361	-8.02
184.58	16.55
184.8	43.18
185.02	-42.84
185.239	-22.36
185.459	67.75
185.679	-12.12
185.898	-38.74
186.118	16.55
186.338	-3.93
186.557	-18.26
186.777	67.75
186.997	2.22
187.216	96.43
187.436	20.65
187.655	57.51
187.875	-16.21
188.095	43.18
188.314	-63.32
188.534	-38.74
188.753	-30.55
188.973	20.65
189.192	41.13
189.412	0.17
189.631	8.36
189.851	82.09
190.07	-1.88
190.29	37.03
190.509	16.55
190.729	-30.55
190.948	45.23
191.168	39.08
191.387	51.37
191.607	-34.64
191.826	49.32
192.045	2.22
192.265	-38.74
192.484	-32.6
192.704	96.43
192.923	51.37
193.142	51.37
193.362	-34.64
193.581	18.6
193.8	-26.45
194.02	20.65
194.239	18.6
194.458	34.99
194.678	-63.32
194.897	20.65
195.116	-32.6
195.335	18.6
195.555	-10.07
195.774	-20.31
195.993	-28.5
196.212	-8.02
196.432	-5.97
196.651	8.36
196.87	-1.88
197.089	88.23
197.308	-22.36
197.528	22.7
197.747	28.84
197.966	-51.03
198.185	-67.41
198.404	41.13
198.623	39.08
198.842	18.6
199.062	71.85
199.281	16.55
199.5	-46.93
199.719	2.22
199.938	-55.12
200.157	-42.84
200.376	41.13
200.595	-42.84
200.814	32.94
201.033	30.89
201.252	-18.26
201.471	34.99
201.69	16.55
201.909	59.56
202.128	8.36
202.347	-89.94
202.566	-24.4
202.785	-5.97
203.004	-8.02
203.223	8.36
203.442	-10.07
203.661	67.75
203.879	41.13
204.098	-3.93
204.317	12.46
204.536	-3.93
204.755	10.41
204.974	30.89
205.193	26.79
205.411	63.66
205.63	16.55
205.849	41.13
206.068	16.55
206.287	43.18
206.505	47.27
206.724	65.71
206.943	41.13
207.162	-24.4
207.381	-30.55
207.599	10.41
207.818	16.55
208.037	16.55
208.255	10.41
208.474	-16.21
208.693	-36.69
208.911	22.7
209.13	-55.12
209.349	41.13
209.567	41.13
209.786	4.27
210.005	14.51
210.223	-48.98
210.442	51.37
210.661	-3.93
210.879	-38.74
211.098	-55.12
211.316	-55.12
211.535	92.33
211.753	16.55
211.972	14.51
212.191	18.6
212.409	-36.69
212.628	28.84
212.846	43.18
213.065	-48.98
213.283	20.65
213.502	67.75
213.72	-63.32
213.938	-14.17
214.157	30.89
214.375	-28.5
214.594	10.41
214.812	-20.31
215.031	16.55
215.249	-32.6
215.467	-34.64
215.686	-18.26
215.904	49.32
216.122	2.22
216.341	51.37
216.559	-16.21
216.778	12.46
216.996	24.75
217.214	73.9
217.432	6.31
217.651	39.08
217.869	-91.99
218.087	-3.93
218.306	-30.55
218.524	69.8
218.742	-22.36
218.96	67.75
219.179	-20.31
219.397	-40.79
219.615	16.55
219.833	41.13
220.051	-10.07
220.27	67.75
220.488	39.08
220.706	-48.98
220.924	0.17
221.142	-5.97
221.36	14.51
221.578	28.84
221.796	-16.21
222.015	-16.21
222.233	-30.55
222.451	8.36
222.669	14.51
222.887	0.17
223.105	-38.74
223.323	14.51
223.541	6.31
223.759	16.55
223.977	-40.79
224.195	8.36
224.413	-61.27
224.631	65.71
224.849	-40.79
225.067	-12.12
225.285	-32.6
225.503	8.36
225.721	2.22
225.939	34.99
226.157	-53.08
226.375	67.75
226.592	-32.6
226.81	24.75
227.028	-85.84
227.246	-8.02
227.464	10.41
227.682	57.51
227.9	69.8
228.117	45.23
228.335	20.65
228.553	102.57
228.771	-63.32
228.989	84.14
229.206	-12.12
229.424	137.38
229.642	-5.97
229.86	82.09
230.077	-14.17
230.295	73.9
230.513	12.46
230.731	4.27
230.948	30.89
231.166	16.55
231.384	-36.69
231.601	8.36
231.819	-46.93
232.037	-40.79
232.254	2.22
232.472	-1.88
232.689	-20.31
232.907	-38.74
233.125	65.71
233.342	-24.4
233.56	37.03
233.777	75.95
233.995	39.08
234.213	0.17
234.43	8.36
234.648	-14.17
234.865	26.79
235.083	6.31
235.3	10.41
235.518	26.79
235.735	24.75
235.953	-8.02
236.17	24.75
236.388	16.55
236.605	8.36
236.822	-16.21
237.04	-24.4
237.257	18.6
237.475	24.75
237.692	-22.36
237.909	18.6
238.127	37.03
238.344	-34.64
238.562	59.56
238.779	34.99
238.996	-16.21
239.214	-22.36
239.431	-65.36
239.648	26.79
239.865	-16.21
240.083	-30.55
240.3	2.22
240.517	51.37
240.735	96.43
240.952	28.84
241.169	41.13
241.386	61.61
241.603	-24.4
241.821	-16.21
242.038	-48.98
242.255	2.22
242.472	-34.64
242.689	16.55
242.907	100.52
243.124	32.94
243.341	34.99
243.558	-16.21
243.775	-63.32
243.992	-38.74
244.209	10.41
244.426	-16.21
244.643	-1.88
244.86	0.17
245.078	0.17
245.295	-61.27
245.512	-28.5
245.729	-34.64
245.946	108.71
246.163	-30.55
246.38	-18.26
246.597	-32.6
246.814	14.51
247.031	8.36
247.248	47.27
247.464	20.65
247.681	18.6
247.898	-20.31
248.115	-26.45
248.332	-108.37
248.549	43.18
248.766	-24.4
248.983	0.17
249.2	16.55
249.417	-5.97
249.633	18.6
249.85	6.31
250.067	6.31
250.284	24.75
250.501	-34.64
250.717	-8.02
250.934	18.6
251.151	49.32
251.368	-55.12
251.585	22.7
251.801	47.27
252.018	-44.88
252.235	-32.6
252.451	86.19
252.668	65.71
252.885	10.41
253.102	30.89
253.318	-28.5
253.535	0.17
253.752	-38.74
253.968	-53.08
254.185	-40.79
254.401	-32.6
254.618	-30.55
254.835	-18.26
255.051	10.41
255.268	-30.55
255.484	-5.97
255.701	-32.6
255.917	20.65
256.134	-40.79
256.351	24.75
256.567	18.6
256.784	-8.02
257	34.99
257.217	-57.17
257.433	45.23
257.65	8.36
257.866	37.03
258.082	-96.08
258.299	-8.02
258.515	-38.74
258.732	96.43
258.948	4.27
259.165	4.27
259.381	20.65
259.597	-1.88
259.814	8.36
260.03	-14.17
260.246	0.17
260.463	-40.79
260.679	6.31
260.895	18.6
261.112	34.99
261.328	34.99
261.544	80.04
261.761	12.46
261.977	12.46
262.193	-22.36
262.409	32.94
262.626	-1.88
262.842	24.75
263.058	41.13
263.274	4.27
263.49	-57.17
263.707	24.75
263.923	51.37
264.139	-65.36
264.355	45.23
264.571	2.22
264.787	-44.88
265.004	14.51
265.22	-32.6
265.436	14.51
265.652	-24.4
265.868	10.41
266.084	-79.7
266.3	104.62
266.516	-22.36
266.732	-14.17
266.948	43.18
267.164	12.46
267.38	10.41
267.596	4.27
267.812	-1.88
268.028	30.89
268.244	-14.17
268.46	-44.88
268.676	-5.97
268.892	-34.64
269.108	8.36
269.324	61.61
269.54	-24.4
269.756	0.17
269.972	2.22
270.188	-32.6
270.403	-8.02
270.619	-3.93
270.835	16.55
271.051	10.41
271.267	-36.69
271.483	-81.75
271.698	-18.26
271.914	8.36
272.13	-14.17
272.346	-3.93
272.562	10.41
272.777	6.31
272.993	-14.17
273.209	-1.88
273.425	-8.02
273.64	8.36
273.856	34.99
274.072	-24.4
274.287	22.7
274.503	2.22
274.719	-26.45
274.934	75.95
275.15	45.23
275.366	22.7
275.581	-5.97
275.797	-8.02
276.012	18.6
276.228	-20.31
276.444	16.55
276.659	12.46
276.875	45.23
277.09	57.51
277.306	24.75
277.521	34.99
277.737	4.27
277.952	24.75
278.168	32.94
278.383	2.22
278.599	-34.64
278.814	0.17
279.03	-12.12
279.245	0.17
279.461	-30.55
279.676	53.42
279.892	12.46
280.107	41.13
280.322	-8.02
280.538	-1.88
280.753	-1.88
280.969	88.23
281.184	-1.88
281.399	6.31
281.615	73.9
281.83	-16.21
282.045	-8.02
282.26	-30.55
282.476	-32.6
282.691	-20.31
282.906	28.84
283.122	49.32
283.337	-36.69
283.552	43.18
283.767	34.99
283.983	43.18
284.198	14.51
284.413	-14.17
284.628	2.22
284.843	41.13
285.058	30.89
285.274	6.31
285.489	49.32
285.704	14.51
285.919	-38.74
286.134	67.75
286.349	-59.22
286.564	32.94
286.779	32.94
286.995	73.9
287.21	14.51
287.425	32.94
287.64	-44.88
287.855	-18.26
288.07	-18.26
288.285	37.03
288.5	73.9
288.715	28.84
288.93	73.9
289.145	75.95
289.36	-59.22
289.575	32.94
289.79	43.18
290.004	8.36
290.219	-5.97
290.434	-5.97
290.649	-26.45
290.864	34.99
291.079	14.51
291.294	24.75
291.509	8.36
291.724	-8.02
291.938	-28.5
292.153	65.71
292.368	-24.4
292.583	24.75
292.798	-10.07
293.012	2.22
293.227	20.65
293.442	-48.98
293.657	43.18
293.871	-8.02
294.086	61.61
294.301	2.22
294.516	-8.02
294.73	-1.88
294.945	-28.5
295.16	-14.17
295.374	82.09
295.589	-16.21
295.804	-40.79
296.018	24.75
296.233	2.22
296.447	43.18
296.662	-20.31
296.877	61.61
297.091	90.28
297.306	-57.17
297.52	69.8
297.735	12.46
297.949	-55.12
298.164	-79.7
298.378	22.7
298.593	71.85
298.807	-34.64
299.022	-65.36
299.236	-16.21
299.451	-38.74
299.665	-5.97
299.88	14.51
300.094	55.47
300.309	10.41
300.523	67.75
300.737	63.66
300.952	4.27
301.166	77.99
301.381	45.23
301.595	65.71
301.809	-65.36
302.024	39.08
302.238	51.37
302.452	-24.4
302.667	-42.84
302.881	86.19
303.095	-12.12
303.309	24.75
303.524	14.51
303.738	55.47
303.952	-12.12
304.166	-8.02
304.381	12.46
304.595	-20.31
304.809	-42.84
305.023	6.31
305.237	8.36
305.452	32.94
305.666	-69.46
305.88	6.31
306.094	18.6
306.308	-8.02
306.522	22.7
306.736	16.55
306.95	71.85
307.164	14.51
307.379	6.31
307.593	2.22
307.807	6.31
308.021	16.55
308.235	6.31
308.449	-34.64
308.663	57.51
308.877	67.75
309.091	51.37
309.305	-69.46
309.519	-42.84
309.733	37.03
309.947	-55.12
310.161	41.13
310.374	8.36
310.588	49.32
310.802	6.31
311.016	-12.12
311.23	-20.31
311.444	24.75
311.658	16.55
311.872	41.13
312.085	49.32
312.299	73.9
312.513	57.51
312.727	-34.64
312.941	-22.36
313.154	39.08
313.368	-8.02
313.582	-16.21
313.796	-10.07
314.009	65.71
314.223	41.13
314.437	-5.97
314.651	12.46
314.864	-32.6
315.078	32.94
315.292	92.33
315.505	28.84
315.719	16.55
315.933	-8.02
316.146	71.85
316.36	2.22
316.573	24.75
316.787	-38.74
317.001	-12.12
317.214	-36.69
317.428	-12.12
317.641	73.9
317.855	-22.36
318.068	22.7
318.282	12.46
318.495	84.14
318.709	-53.08
318.922	43.18
319.136	4.27
319.349	24.75
319.563	67.75
319.776	16.55
319.99	-16.21
320.203	-32.6
320.417	-28.5
320.63	-40.79
320.843	51.37
321.057	16.55
321.27	28.84
321.483	8.36
321.697	77.99
321.91	41.13
322.124	26.79
322.337	-28.5
322.55	10.41
322.763	16.55
322.977	41.13
323.19	53.42
323.403	-32.6
323.617	57.51
323.83	49.32
324.043	39.08
324.256	-36.69
324.469	-38.74
324.683	49.32
324.896	-28.5
325.109	-16.21
325.322	55.47
325.535	-24.4
325.748	6.31
325.962	2.22
326.175	26.79
326.388	16.55
326.601	34.99
326.814	34.99
327.027	-12.12
327.24	47.27
327.453	-51.03
327.666	18.6
327.879	26.79
328.092	4.27
328.305	65.71
328.518	73.9
328.731	41.13
328.944	-10.07
329.157	57.51
329.37	-12.12
329.583	61.61
329.796	41.13
330.009	71.85
330.222	26.79
330.435	-20.31
330.648	49.32
330.861	12.46
331.073	-36.69
331.286	37.03
331.499	2.22
331.712	-14.17
331.925	55.47
332.138	-46.93
332.35	24.75
332.563	-46.93
332.776	26.79
332.989	32.94
333.202	18.6
333.414	41.13
333.627	14.51
333.84	-10.07
334.053	-24.4
334.265	16.55
334.478	47.27
334.691	-30.55
334.903	2.22
335.116	82.09
335.329	53.42
335.541	24.75
335.754	41.13
335.966	20.65
336.179	51.37
336.392	16.55
336.604	0.17
336.817	34.99
337.029	-24.4
337.242	16.55
337.454	18.6
337.667	-48.98
337.88	-28.5
338.092	-96.08
338.305	4.27
338.517	6.31
338.729	53.42
338.942	49.32
339.154	82.09
339.367	53.42
339.579	2.22
339.792	-26.45
340.004	-5.97
340.217	28.84
340.429	26.79
340.641	16.55
340.854	-3.93
341.066	-22.36
341.278	37.03
341.491	-24.4
341.703	8.36
341.915	0.17
342.128	12.46
342.34	-14.17
342.552	-24.4
342.764	-32.6
342.977	98.47
343.189	24.75
343.401	28.84
343.613	-1.88
343.826	-24.4
344.038	-20.31
344.25	-1.88
344.462	30.89
344.674	28.84
344.886	26.79
345.099	-1.88
345.311	32.94
345.523	59.56
345.735	16.55
345.947	24.75
346.159	10.41
346.371	14.51
346.583	-98.13
346.795	80.04
347.007	-24.4
347.219	28.84
347.431	-8.02
347.643	-5.97
347.855	75.95
348.067	-40.79
348.279	-51.03
348.491	-24.4
348.703	-40.79
348.915	-8.02
349.127	34.99
349.339	41.13
349.551	-67.41
349.763	0.17
349.975	-44.88
350.187	0.17
350.399	37.03
350.61	49.32
350.822	16.55
351.034	-44.88
351.246	-20.31
351.458	-30.55
351.669	-14.17
351.881	34.99
352.093	14.51
352.305	77.99
352.517	-42.84
352.728	-5.97
352.94	-24.4
353.152	-16.21
353.363	20.65
353.575	-44.88
353.787	39.08
353.999	55.47
354.21	0.17
354.422	-8.02
354.633	39.08
354.845	32.94
355.057	2.22
355.268	59.56
355.48	12.46
355.692	4.27
355.903	24.75
356.115	0.17
356.326	0.17
356.538	28.84
356.749	82.09
356.961	12.46
357.172	28.84
357.384	-20.31
357.595	75.95
357.807	41.13
358.018	65.71
358.23	-36.69
358.441	55.47
358.653	41.13
358.864	34.99
359.075	24.75
359.287	20.65
359.498	49.32
359.709	18.6
359.921	-24.4
360.132	-20.31
360.344	-40.79
360.555	-16.21
360.766	55.47
360.977	86.19
361.189	53.42
361.4	-71.51
361.611	26.79
361.823	-28.5
362.034	73.9
362.245	-1.88
362.456	-63.32
362.667	-16.21
362.879	28.84
363.09	-89.94
363.301	18.6
363.512	8.36
363.723	49.32
363.935	6.31
364.146	10.41
364.357	-16.21
364.568	-38.74
364.779	-22.36
364.99	37.03
365.201	-61.27
365.412	32.94
365.623	-26.45
365.834	24.75
366.045	28.84
366.256	12.46
366.467	4.27
366.678	-3.93
366.889	-28.5
367.1	24.75
367.311	2.22
367.522	4.27
367.733	26.79
367.944	-55.12
368.155	53.42
368.366	18.6
368.577	12.46
368.788	90.28
368.999	20.65
369.209	12.46
369.42	45.23
369.631	28.84
369.842	26.79
370.053	41.13
370.264	-8.02
370.474	32.94
370.685	-10.07
370.896	67.75
371.107	73.9
371.317	73.9
371.528	22.7
371.739	-26.45
371.95	32.94
372.16	28.84
372.371	-67.41
372.582	98.47
372.792	14.51
373.003	6.31
373.214	-22.36
373.424	49.32
373.635	69.8
373.846	53.42
374.056	30.89
374.267	37.03
374.477	-40.79
374.688	53.42
374.898	37.03
375.109	43.18
375.319	-57.17
375.53	37.03
375.74	10.41
375.951	26.79
376.161	24.75
376.372	43.18
376.582	-1.88
376.793	43.18
377.003	16.55
377.214	20.65
377.424	10.41
377.635	-26.45
377.845	16.55
378.055	57.51
378.266	-1.88
378.476	45.23
378.686	2.22
378.897	59.56
379.107	2.22
379.317	41.13
379.528	53.42
379.738	106.67
379.948	34.99
380.158	-26.45
380.369	30.89
380.579	37.03
380.789	-30.55
380.999	57.51
381.21	-3.93
381.42	69.8
381.63	49.32
381.84	30.89
382.05	24.75
382.261	32.94
382.471	47.27
382.681	24.75
382.891	65.71
383.101	-8.02
383.311	0.17
383.521	53.42
383.731	73.9
383.941	125.1
384.151	-3.93
384.361	0.17
384.571	41.13
384.781	102.57
384.991	12.46
385.201	10.41
385.411	20.65
385.621	-18.26
385.831	69.8
386.041	-16.21
386.251	0.17
386.461	20.65
386.671	49.32
386.881	-26.45
387.091	57.51
387.301	32.94
387.511	47.27
387.72	43.18
387.93	-10.07
388.14	14.51
388.35	86.19
388.56	-1.88
388.769	12.46
388.979	24.75
389.189	55.47
389.399	73.9
389.609	63.66
389.818	61.61
390.028	-8.02
390.238	45.23
390.447	34.99
390.657	92.33
390.867	0.17
391.076	12.46
391.286	-42.84
391.496	37.03
391.705	18.6
391.915	131.24
392.125	37.03
392.334	2.22
392.544	49.32
392.753	61.61
392.963	-32.6
393.172	90.28
393.382	65.71
393.591	51.37
393.801	-8.02
394.01	65.71
394.22	37.03
394.429	4.27
394.639	43.18
394.848	14.51
395.058	4.27
395.267	-22.36
395.477	41.13
395.686	0.17
395.895	63.66
396.105	63.66
396.314	98.47
396.524	-24.4
396.733	-8.02
396.942	39.08
397.152	59.56
397.361	26.79
397.57	-48.98
397.78	55.47
397.989	32.94
398.198	116.9
398.407	37.03
398.617	71.85
398.826	37.03
399.035	24.75
399.244	18.6
399.453	106.67
399.663	-16.21
399.872	4.27
400.081	98.47
400.29	20.65
400.499	59.56
400.708	24.75
400.917	51.37
401.127	102.57
401.336	114.86
401.545	-12.12
401.754	51.37
401.963	67.75
402.172	67.75
402.381	65.71
402.59	55.47
402.799	30.89
403.008	57.51
403.217	41.13
403.426	98.47
403.635	125.1
403.844	37.03
404.053	57.51
404.262	92.33
404.471	90.28
404.68	65.71
404.888	92.33
405.097	116.9
405.306	127.14
405.515	131.24
405.724	28.84
405.933	57.51
406.142	80.04
406.35	135.34
406.559	123.05
406.768	110.76
406.977	147.62
407.185	164.01
407.394	155.82
407.603	37.03
407.812	127.14
408.02	147.62
408.229	147.62
408.438	110.76
408.646	123.05
408.855	65.71
409.064	221.35
409.272	143.53
409.481	82.09
409.69	151.72
409.898	182.44
410.107	186.54
410.315	215.21
410.524	161.96
410.733	166.06
410.941	221.35
411.15	250.02
411.358	243.88
411.567	180.39
411.775	282.79
411.984	164.01
412.192	270.5
412.401	200.87
412.609	274.6
412.818	272.55
413.026	297.13
413.234	327.85
413.443	284.84
413.651	286.89
413.86	329.89
414.068	325.8
414.276	370.85
414.485	307.37
414.693	395.43
414.901	420
415.11	413.86
415.318	360.61
415.526	377
415.734	495.78
415.943	469.16
416.151	471.2
416.359	387.24
416.567	479.4
416.776	526.5
416.984	477.35
417.192	463.01
417.4	647.33
417.608	553.12
417.817	639.14
418.025	587.94
418.233	678.05
418.441	649.38
418.649	712.86
418.857	723.1
419.065	764.06
419.273	811.17
419.481	721.06
419.689	698.53
419.897	897.18
420.105	835.74
420.313	784.54
420.521	909.47
420.729	880.8
420.937	864.41
421.145	948.38
421.353	962.72
421.561	1124.51
421.769	1114.27
421.977	1144.99
422.185	1122.46
422.393	1247.38
422.601	1208.47
422.809	1331.35
423.017	1290.39
423.224	1319.06
423.432	1327.25
423.64	1427.6
423.848	1517.72
424.056	1443.99
424.263	1583.25
424.471	1761.42
424.679	1691.79
424.887	1790.1
425.094	1720.46
425.302	1769.62
425.51	1816.72
425.718	1896.59
425.925	1917.07
426.133	1996.94
426.341	2148.49
426.548	2130.06
426.756	2105.48
426.964	2080.91
427.171	2443.4
427.379	2424.97
427.586	2392.2
427.794	2474.12
428.001	2488.45
428.209	2719.87
428.417	2613.38
428.624	2893.95
428.832	2814.08
429.039	2955.39
429.247	2834.56
429.454	3162.23
429.662	3281.02
429.869	3086.46
430.076	3190.91
430.284	3399.8
430.491	3297.4
430.699	3655.79
430.906	3610.74
431.114	3629.17
431.321	3584.12
431.528	3758.19
431.736	4042.86
431.943	4243.56
432.15	4141.16
432.358	4218.99
432.565	4329.58
432.772	4472.93
432.979	4599.91
433.187	4706.4
433.394	4737.12
433.601	5005.41
433.808	4974.69
434.016	4978.78
434.223	5236.83
434.43	5503.06
434.637	5578.84
434.844	5789.78
435.052	5734.48
435.259	5896.27
435.466	5791.83
435.673	5894.22
435.88	6223.95
436.087	6578.25
436.294	6594.63
436.501	6377.55
436.708	6492.23
436.915	6803.52
437.122	7127.1
437.329	6871.11
437.537	7262.27
437.743	7141.44
437.95	7178.3
438.157	7665.72
438.364	7886.9
438.571	7847.99
438.778	8036.4
438.985	8704.04
439.192	8443.95
439.399	8509.48
439.606	8292.4
439.813	8921.12
440.02	9314.33
440.227	9074.72
440.433	9134.11
440.64	9551.9
440.847	9611.29
441.054	9599
441.261	10280.97
441.467	9957.39
441.674	10547.21
441.881	10659.85
442.088	10555.4
442.294	10530.83
442.501	10838.02
442.708	10956.8
442.914	11558.91
443.121	11878.39
443.328	11550.71
443.534	12285.94
443.741	12052.47
443.948	11927.54
444.154	12873.7
444.361	12771.3
444.568	12609.51
444.774	12781.54
444.981	13053.92
445.187	13225.95
445.394	13842.39
445.6	13889.49
445.807	14952.39
446.013	14338
446.22	14432.21
446.426	15310.79
446.633	15122.37
446.839	15802.3
447.046	15175.62
447.252	16035.77
447.459	16007.09
447.665	15761.34
447.871	16797.61
448.078	17371.04
448.284	16560.05
448.491	16924.58
448.697	17723.29
448.903	18147.22
449.11	18061.21
449.316	17831.83
449.522	18132.89
449.728	18474.9
449.935	18663.31
450.141	18517.9
450.347	19120.01
450.553	18571.15
450.76	18554.77
450.966	19351.43
451.172	19144.58
451.378	19681.15
451.584	18796.43
451.791	19351.43
451.997	19650.43
452.203	20146.04
452.409	20070.26
452.615	19795.84
452.821	19187.59
453.027	18591.63
453.233	20062.07
453.44	19148.68
453.646	19474.31
453.852	19509.12
454.058	19562.37
454.264	18898.83
454.47	19804.03
454.676	19003.27
454.882	19754.88
455.088	17942.42
455.294	18356.11
455.5	18509.71
455.705	18753.42
455.911	17901.47
456.117	17282.98
456.323	17354.66
456.529	16598.96
456.735	17305.51
456.941	16478.13
457.147	16351.15
457.352	16062.39
457.558	15753.15
457.764	15802.3
457.97	15529.92
458.176	15290.31
458.381	15267.78
458.587	14249.94
458.793	14446.54
458.999	13705.18
459.204	14745.55
459.41	14241.75
459.616	13219.81
459.821	13539.29
460.027	13184.99
460.233	13211.62
460.438	12552.17
460.644	12455.92
460.85	11874.29
461.055	11702.26
461.261	11675.64
461.466	10899.46
461.672	10745.86
461.878	11429.88
462.083	10493.96
462.289	10338.32
462.494	10313.74
462.7	9981.97
462.905	9779.22
463.111	10027.03
463.316	9902.1
463.522	9828.37
463.727	9666.58
463.932	9842.71
464.138	9951.25
464.343	9588.76
464.549	9592.86
464.754	9592.86
464.959	9785.37
465.165	9725.97
465.37	9123.87
465.575	9011.23
465.781	9308.19
465.986	9285.66
466.191	8990.75
466.397	8486.95
466.602	8359.98
466.807	8714.28
467.012	8806.44
467.218	8591.4
467.423	8470.57
467.628	8605.74
467.833	9170.97
468.038	8466.47
468.244	8421.42
