Data from USB4F104151__295__14-02-52-616.txt Node

Date: Thu Mar 13 14:02:52 EDT 2025
User: louis
Spectrometer: USB4F10415
Trigger mode: 4
Integration Time (sec): 1.000000E-2
Scans to average: 1
Electric dark correction enabled: true
Nonlinearity correction enabled: false
Boxcar width: 0
XAxis mode: Wavelengths
Number of Pixels in Spectrum: 3648
>>>>>Begin Spectral Data<<<<<
178.204	-25.6
178.424	-25.6
178.644	-25.6
178.864	-91.13
179.084	-3.07
179.304	-7.17
179.524	7.17
179.744	-21.5
179.964	-3.07
180.184	17.41
180.404	29.7
180.624	-5.12
180.844	5.12
181.064	-1.02
181.283	17.41
181.503	13.31
181.723	-52.22
181.943	-25.6
182.163	7.17
182.383	-7.17
182.602	-64.51
182.822	-29.7
183.042	35.84
183.262	66.56
183.482	-17.41
183.701	-39.94
183.921	74.75
184.141	-62.46
184.361	-13.31
184.58	21.5
184.8	-25.6
185.02	-15.36
185.239	-56.32
185.459	-1.02
185.679	29.7
185.898	9.22
186.118	56.32
186.338	-64.51
186.557	41.98
186.777	-7.17
186.997	-37.89
187.216	5.12
187.436	25.6
187.655	27.65
187.875	-11.26
188.095	3.07
188.314	-9.22
188.534	-21.5
188.753	-13.31
188.973	13.31
189.192	5.12
189.412	5.12
189.631	21.5
189.851	3.07
190.07	82.94
190.29	-19.46
190.509	-5.12
190.729	-33.79
190.948	-21.5
191.168	11.26
191.387	-35.84
191.607	44.03
191.826	-11.26
192.045	-39.94
192.265	-66.56
192.484	-13.31
192.704	9.22
192.923	52.22
193.142	-19.46
193.362	35.84
193.581	37.89
193.8	-19.46
194.02	-33.79
194.239	19.46
194.458	15.36
194.678	-31.74
194.897	74.75
195.116	1.02
195.335	-9.22
195.555	-15.36
195.774	19.46
195.993	-31.74
196.212	33.79
196.432	-52.22
196.651	39.94
196.87	78.85
197.089	29.7
197.308	37.89
197.528	-13.31
197.747	-19.46
197.966	74.75
198.185	41.98
198.404	-39.94
198.623	-9.22
198.842	37.89
199.062	62.46
199.281	31.74
199.5	-21.5
199.719	35.84
199.938	-33.79
200.157	-17.41
200.376	17.41
200.595	15.36
200.814	7.17
201.033	-15.36
201.252	52.22
201.471	-37.89
201.69	27.65
201.909	-3.07
202.128	29.7
202.347	21.5
202.566	31.74
202.785	54.27
203.004	11.26
203.223	62.46
203.442	19.46
203.661	25.6
203.879	33.79
204.098	17.41
204.317	5.12
204.536	17.41
204.755	-11.26
204.974	-46.08
205.193	50.18
205.411	17.41
205.63	39.94
205.849	5.12
206.068	-13.31
206.287	37.89
206.505	-52.22
206.724	-41.98
206.943	-5.12
207.162	17.41
207.381	-3.07
207.599	-3.07
207.818	-68.61
208.037	11.26
208.255	-7.17
208.474	62.46
208.693	9.22
208.911	15.36
209.13	19.46
209.349	13.31
209.567	-5.12
209.786	11.26
210.005	-35.84
210.223	19.46
210.442	15.36
210.661	-5.12
210.879	-13.31
211.098	-62.46
211.316	9.22
211.535	27.65
211.753	7.17
211.972	37.89
212.191	41.98
212.409	125.95
212.628	29.7
212.846	-5.12
213.065	78.85
213.283	25.6
213.502	-58.37
213.72	-13.31
213.938	-27.65
214.157	52.22
214.375	-56.32
214.594	-7.17
214.812	39.94
215.031	-46.08
215.249	68.61
215.467	-7.17
215.686	-74.75
215.904	54.27
216.122	-3.07
216.341	-11.26
216.559	44.03
216.778	44.03
216.996	3.07
217.214	-15.36
217.432	60.42
217.651	1.02
217.869	-23.55
218.087	41.98
218.306	17.41
218.524	58.37
218.742	-5.12
218.96	-11.26
219.179	9.22
219.397	21.5
219.615	99.33
219.833	3.07
220.051	37.89
220.27	66.56
220.488	-21.5
220.706	-31.74
220.924	3.07
221.142	76.8
221.36	15.36
221.578	60.42
221.796	29.7
222.015	9.22
222.233	29.7
222.451	7.17
222.669	-31.74
222.887	-7.17
223.105	7.17
223.323	-21.5
223.541	-29.7
223.759	-7.17
223.977	-11.26
224.195	74.75
224.413	-13.31
224.631	19.46
224.849	7.17
225.067	70.65
225.285	-15.36
225.503	-19.46
225.721	-11.26
225.939	19.46
226.157	31.74
226.375	58.37
226.592	-25.6
226.81	-64.51
227.028	5.12
227.246	19.46
227.464	58.37
227.682	46.08
227.9	-5.12
228.117	-37.89
228.335	13.31
228.553	17.41
228.771	-5.12
228.989	5.12
229.206	-62.46
229.424	-35.84
229.642	-78.85
229.86	29.7
230.077	-19.46
230.295	-7.17
230.513	-76.8
230.731	33.79
230.948	-9.22
231.166	13.31
231.384	-60.42
231.601	5.12
231.819	125.95
232.037	-23.55
232.254	-15.36
232.472	19.46
232.689	1.02
232.907	44.03
233.125	48.13
233.342	-5.12
233.56	-35.84
233.777	70.65
233.995	3.07
234.213	29.7
234.43	-15.36
234.648	11.26
234.865	-27.65
235.083	21.5
235.3	-56.32
235.518	-46.08
235.735	-23.55
235.953	-39.94
236.17	3.07
236.388	44.03
236.605	9.22
236.822	11.26
237.04	-13.31
237.257	68.61
237.475	21.5
237.692	50.18
237.909	66.56
238.127	-31.74
238.344	9.22
238.562	41.98
238.779	17.41
238.996	29.7
239.214	5.12
239.431	93.18
239.648	19.46
239.865	-35.84
240.083	-5.12
240.3	25.6
240.517	-15.36
240.735	11.26
240.952	21.5
241.169	3.07
241.386	54.27
241.603	5.12
241.821	-5.12
242.038	17.41
242.255	-1.02
242.472	-3.07
242.689	19.46
242.907	50.18
243.124	9.22
243.341	-56.32
243.558	41.98
243.775	62.46
243.992	-19.46
244.209	-89.09
244.426	82.94
244.643	-11.26
244.86	-27.65
245.078	31.74
245.295	29.7
245.512	5.12
245.729	-29.7
245.946	50.18
246.163	62.46
246.38	11.26
246.597	17.41
246.814	-31.74
247.031	-62.46
247.248	39.94
247.464	64.51
247.681	46.08
247.898	-72.7
248.115	50.18
248.332	25.6
248.549	66.56
248.766	-29.7
248.983	33.79
249.2	35.84
249.417	142.33
249.633	17.41
249.85	-3.07
250.067	-41.98
250.284	-15.36
250.501	25.6
250.717	31.74
250.934	5.12
251.151	1.02
251.368	-60.42
251.585	46.08
251.801	1.02
252.018	-31.74
252.235	-56.32
252.451	-46.08
252.668	-3.07
252.885	-17.41
253.102	-41.98
253.318	52.22
253.535	62.46
253.752	1.02
253.968	35.84
254.185	-70.65
254.401	99.33
254.618	37.89
254.835	-82.94
255.051	31.74
255.268	37.89
255.484	13.31
255.701	58.37
255.917	5.12
256.134	54.27
256.351	11.26
256.567	-33.79
256.784	-39.94
257	25.6
257.217	41.98
257.433	-9.22
257.65	72.7
257.866	23.55
258.082	-5.12
258.299	25.6
258.515	17.41
258.732	7.17
258.948	13.31
259.165	-1.02
259.381	-48.13
259.597	-27.65
259.814	23.55
260.03	-5.12
260.246	87.04
260.463	3.07
260.679	64.51
260.895	27.65
261.112	35.84
261.328	41.98
261.544	76.8
261.761	25.6
261.977	39.94
262.193	-5.12
262.409	25.6
262.626	27.65
262.842	-58.37
263.058	52.22
263.274	-13.31
263.49	66.56
263.707	62.46
263.923	-1.02
264.139	62.46
264.355	19.46
264.571	37.89
264.787	41.98
265.004	-7.17
265.22	35.84
265.436	5.12
265.652	-31.74
265.868	11.26
266.084	52.22
266.3	-9.22
266.516	27.65
266.732	-25.6
266.948	29.7
267.164	11.26
267.38	-46.08
267.596	68.61
267.812	66.56
268.028	21.5
268.244	-5.12
268.46	-19.46
268.676	19.46
268.892	-56.32
269.108	50.18
269.324	29.7
269.54	-39.94
269.756	-3.07
269.972	-19.46
270.188	-13.31
270.403	1.02
270.619	-31.74
270.835	60.42
271.051	-5.12
271.267	1.02
271.483	-7.17
271.698	17.41
271.914	33.79
272.13	21.5
272.346	-23.55
272.562	-37.89
272.777	9.22
272.993	35.84
273.209	-35.84
273.425	-17.41
273.64	-62.46
273.856	41.98
274.072	-19.46
274.287	-27.65
274.503	41.98
274.719	46.08
274.934	21.5
275.15	-44.03
275.366	9.22
275.581	15.36
275.797	-7.17
276.012	13.31
276.228	56.32
276.444	-31.74
276.659	17.41
276.875	25.6
277.09	-23.55
277.306	58.37
277.521	25.6
277.737	-21.5
277.952	58.37
278.168	54.27
278.383	29.7
278.599	39.94
278.814	-3.07
279.03	9.22
279.245	91.13
279.461	-56.32
279.676	25.6
279.892	1.02
280.107	-48.13
280.322	46.08
280.538	19.46
280.753	62.46
280.969	-52.22
281.184	-37.89
281.399	58.37
281.615	-3.07
281.83	60.42
282.045	21.5
282.26	1.02
282.476	11.26
282.691	41.98
282.906	-44.03
283.122	-25.6
283.337	-48.13
283.552	33.79
283.767	72.7
283.983	15.36
284.198	-7.17
284.413	-44.03
284.628	-35.84
284.843	-72.7
285.058	-3.07
285.274	13.31
285.489	-15.36
285.704	-3.07
285.919	50.18
286.134	-7.17
286.349	15.36
286.564	-37.89
286.779	35.84
286.995	27.65
287.21	-19.46
287.425	74.75
287.64	50.18
287.855	31.74
288.07	-15.36
288.285	27.65
288.5	1.02
288.715	1.02
288.93	-15.36
289.145	-31.74
289.36	-46.08
289.575	68.61
289.79	-1.02
290.004	74.75
290.219	25.6
290.434	9.22
290.649	-35.84
290.864	-13.31
291.079	46.08
291.294	-19.46
291.509	-52.22
291.724	-11.26
291.938	-5.12
292.153	54.27
292.368	5.12
292.583	35.84
292.798	101.37
293.012	1.02
293.227	-15.36
293.442	-7.17
293.657	23.55
293.871	27.65
294.086	33.79
294.301	76.8
294.516	39.94
294.73	-23.55
294.945	-7.17
295.16	11.26
295.374	35.84
295.589	33.79
295.804	-1.02
296.018	-37.89
296.233	9.22
296.447	13.31
296.662	37.89
296.877	78.85
297.091	66.56
297.306	21.5
297.52	-74.75
297.735	-15.36
297.949	-41.98
298.164	25.6
298.378	-25.6
298.593	19.46
298.807	1.02
299.022	19.46
299.236	35.84
299.451	13.31
299.665	-56.32
299.88	101.37
300.094	-35.84
300.309	-15.36
300.523	11.26
300.737	115.71
300.952	-25.6
301.166	66.56
301.381	39.94
301.595	-66.56
301.809	7.17
302.024	17.41
302.238	82.94
302.452	21.5
302.667	74.75
302.881	44.03
303.095	50.18
303.309	33.79
303.524	1.02
303.738	50.18
303.952	58.37
304.166	58.37
304.381	-56.32
304.595	-7.17
304.809	21.5
305.023	82.94
305.237	7.17
305.452	-11.26
305.666	-3.07
305.88	58.37
306.094	7.17
306.308	-99.33
306.522	13.31
306.736	66.56
306.95	-17.41
307.164	13.31
307.379	-1.02
307.593	13.31
307.807	-11.26
308.021	-35.84
308.235	15.36
308.449	-17.41
308.663	27.65
308.877	25.6
309.091	9.22
309.305	66.56
309.519	-19.46
309.733	13.31
309.947	50.18
310.161	-7.17
310.374	44.03
310.588	62.46
310.802	-84.99
311.016	5.12
311.23	-19.46
311.444	39.94
311.658	11.26
311.872	5.12
312.085	-1.02
312.299	17.41
312.513	54.27
312.727	-7.17
312.941	1.02
313.154	50.18
313.368	-39.94
313.582	1.02
313.796	-31.74
314.009	25.6
314.223	54.27
314.437	37.89
314.651	27.65
314.864	74.75
315.078	41.98
315.292	-3.07
315.505	-48.13
315.719	80.89
315.933	97.28
316.146	56.32
316.36	27.65
316.573	39.94
316.787	-21.5
317.001	50.18
317.214	-33.79
317.428	48.13
317.641	-1.02
317.855	46.08
318.068	29.7
318.282	23.55
318.495	33.79
318.709	-5.12
318.922	27.65
319.136	33.79
319.349	130.05
319.563	68.61
319.776	39.94
319.99	-31.74
320.203	-27.65
320.417	21.5
320.63	-9.22
320.843	3.07
321.057	27.65
321.27	76.8
321.483	-11.26
321.697	76.8
321.91	50.18
322.124	33.79
322.337	13.31
322.55	101.37
322.763	66.56
322.977	-35.84
323.19	7.17
323.403	66.56
323.617	37.89
323.83	97.28
324.043	9.22
324.256	7.17
324.469	-7.17
324.683	66.56
324.896	9.22
325.109	19.46
325.322	13.31
325.535	11.26
325.748	58.37
325.962	46.08
326.175	-3.07
326.388	25.6
326.601	-7.17
326.814	29.7
327.027	7.17
327.24	62.46
327.453	50.18
327.666	70.65
327.879	-41.98
328.092	27.65
328.305	-52.22
328.518	-1.02
328.731	-78.85
328.944	60.42
329.157	-46.08
329.37	-3.07
329.583	68.61
329.796	107.52
330.009	-44.03
330.222	54.27
330.435	-3.07
330.648	-48.13
330.861	58.37
331.073	-5.12
331.286	-35.84
331.499	15.36
331.712	62.46
331.925	-11.26
332.138	25.6
332.35	89.09
332.563	-11.26
332.776	76.8
332.989	29.7
333.202	-21.5
333.414	39.94
333.627	78.85
333.84	17.41
334.053	13.31
334.265	46.08
334.478	35.84
334.691	-29.7
334.903	13.31
335.116	25.6
335.329	35.84
335.541	5.12
335.754	41.98
335.966	-64.51
336.179	13.31
336.392	-31.74
336.604	11.26
336.817	17.41
337.029	19.46
337.242	17.41
337.454	60.42
337.667	29.7
337.88	44.03
338.092	23.55
338.305	-11.26
338.517	-3.07
338.729	58.37
338.942	39.94
339.154	5.12
339.367	7.17
339.579	39.94
339.792	11.26
340.004	58.37
340.217	-11.26
340.429	25.6
340.641	37.89
340.854	-11.26
341.066	7.17
341.278	3.07
341.491	29.7
341.703	33.79
341.915	5.12
342.128	3.07
342.34	19.46
342.552	60.42
342.764	-66.56
342.977	41.98
343.189	11.26
343.401	56.32
343.613	62.46
343.826	48.13
344.038	-7.17
344.25	1.02
344.462	-15.36
344.674	93.18
344.886	17.41
345.099	-52.22
345.311	56.32
345.523	3.07
345.735	21.5
345.947	1.02
346.159	19.46
346.371	58.37
346.583	17.41
346.795	15.36
347.007	46.08
347.219	66.56
347.431	15.36
347.643	27.65
347.855	29.7
348.067	111.61
348.279	39.94
348.491	-13.31
348.703	21.5
348.915	54.27
349.127	7.17
349.339	9.22
349.551	-15.36
349.763	19.46
349.975	50.18
350.187	76.8
350.399	54.27
350.61	72.7
350.822	35.84
351.034	21.5
351.246	-23.55
351.458	11.26
351.669	-52.22
351.881	11.26
352.093	-5.12
352.305	37.89
352.517	50.18
352.728	35.84
352.94	3.07
353.152	-23.55
353.363	5.12
353.575	17.41
353.787	27.65
353.999	21.5
354.21	27.65
354.422	33.79
354.633	74.75
354.845	-29.7
355.057	-27.65
355.268	50.18
355.48	25.6
355.692	9.22
355.903	19.46
356.115	-29.7
356.326	78.85
356.538	70.65
356.749	27.65
356.961	-29.7
357.172	37.89
357.384	-15.36
357.595	80.89
357.807	50.18
358.018	-1.02
358.23	68.61
358.441	3.07
358.653	29.7
358.864	-27.65
359.075	46.08
359.287	1.02
359.498	-33.79
359.709	-19.46
359.921	48.13
360.132	21.5
360.344	80.89
360.555	-52.22
360.766	50.18
360.977	-5.12
361.189	-17.41
361.4	31.74
361.611	44.03
361.823	46.08
362.034	-60.42
362.245	35.84
362.456	15.36
362.667	82.94
362.879	5.12
363.09	44.03
363.301	56.32
363.512	-13.31
363.723	-11.26
363.935	-23.55
364.146	66.56
364.357	-17.41
364.568	17.41
364.779	-35.84
364.99	78.85
365.201	72.7
365.412	111.61
365.623	-25.6
365.834	-21.5
366.045	89.09
366.256	27.65
366.467	41.98
366.678	125.95
366.889	44.03
367.1	35.84
367.311	50.18
367.522	99.33
367.733	54.27
367.944	33.79
368.155	-37.89
368.366	66.56
368.577	-23.55
368.788	39.94
368.999	50.18
369.209	44.03
369.42	25.6
369.631	52.22
369.842	58.37
370.053	41.98
370.264	23.55
370.474	76.8
370.685	115.71
370.896	7.17
371.107	29.7
371.317	5.12
371.528	-23.55
371.739	111.61
371.95	52.22
372.16	19.46
372.371	-46.08
372.582	-19.46
372.792	13.31
373.003	27.65
373.214	58.37
373.424	70.65
373.635	-35.84
373.846	13.31
374.056	35.84
374.267	58.37
374.477	52.22
374.688	-37.89
374.898	11.26
375.109	21.5
375.319	-27.65
375.53	39.94
375.74	-7.17
375.951	27.65
376.161	9.22
376.372	-11.26
376.582	27.65
376.793	58.37
377.003	1.02
377.214	54.27
377.424	1.02
377.635	9.22
377.845	68.61
378.055	11.26
378.266	15.36
378.476	58.37
378.686	1.02
378.897	68.61
379.107	62.46
379.317	54.27
379.528	-7.17
379.738	50.18
379.948	91.13
380.158	95.23
380.369	50.18
380.579	44.03
380.789	54.27
380.999	44.03
381.21	15.36
381.42	123.9
381.63	-21.5
381.84	17.41
382.05	48.13
382.261	29.7
382.471	15.36
382.681	35.84
382.891	37.89
383.101	103.42
383.311	-1.02
383.521	3.07
383.731	-35.84
383.941	95.23
384.151	44.03
384.361	101.37
384.571	56.32
384.781	46.08
384.991	56.32
385.201	62.46
385.411	17.41
385.621	9.22
385.831	76.8
386.041	-5.12
386.251	-13.31
386.461	25.6
386.671	1.02
386.881	66.56
387.091	-48.13
387.301	66.56
387.511	37.89
387.72	62.46
387.93	58.37
388.14	-56.32
388.35	35.84
388.56	41.98
388.769	19.46
388.979	68.61
389.189	41.98
389.399	-27.65
389.609	3.07
389.818	121.85
390.028	33.79
390.238	48.13
390.447	17.41
390.657	101.37
390.867	5.12
391.076	23.55
391.286	91.13
391.496	72.7
391.705	-29.7
391.915	89.09
392.125	74.75
392.334	37.89
392.544	68.61
392.753	74.75
392.963	11.26
393.172	82.94
393.382	78.85
393.591	19.46
393.801	82.94
394.01	117.76
394.22	-3.07
394.429	66.56
394.639	7.17
394.848	58.37
395.058	105.47
395.267	48.13
395.477	91.13
395.686	58.37
395.895	-15.36
396.105	95.23
396.314	93.18
396.524	97.28
396.733	84.99
396.942	140.29
397.152	1.02
397.361	52.22
397.57	35.84
397.78	115.71
397.989	60.42
398.198	62.46
398.407	33.79
398.617	78.85
398.826	78.85
399.035	80.89
399.244	-31.74
399.453	74.75
399.663	128
399.872	64.51
400.081	125.95
400.29	58.37
400.499	27.65
400.708	136.19
400.917	27.65
401.127	58.37
401.336	66.56
401.545	91.13
401.754	109.57
401.963	25.6
402.172	115.71
402.381	52.22
402.59	50.18
402.799	66.56
403.008	82.94
403.217	91.13
403.426	107.52
403.635	25.6
403.844	21.5
404.053	142.33
404.262	78.85
404.471	62.46
404.68	66.56
404.888	93.18
405.097	41.98
405.306	97.28
405.515	107.52
405.724	113.66
405.933	107.52
406.142	82.94
406.35	125.95
406.559	150.53
406.768	54.27
406.977	107.52
407.185	125.95
407.394	134.14
407.603	72.7
407.812	109.57
408.02	158.72
408.229	195.58
408.438	195.58
408.646	89.09
408.855	181.25
409.064	117.76
409.272	130.05
409.481	160.77
409.69	146.43
409.898	179.2
410.107	123.9
410.315	238.59
410.524	203.77
410.733	297.98
410.941	246.78
411.15	209.92
411.358	304.12
411.567	312.32
411.775	185.34
411.984	295.93
412.192	271.36
412.401	359.42
412.609	263.16
412.818	261.12
413.026	353.27
413.234	279.55
413.443	328.7
413.651	402.43
413.86	359.42
414.068	357.37
414.276	427
414.485	379.9
414.693	451.58
414.901	449.53
415.11	429.05
415.318	498.68
415.526	515.06
415.734	576.5
415.943	506.87
416.151	551.93
416.359	574.46
416.567	543.74
416.776	623.61
416.984	599.03
417.192	588.79
417.4	760.82
417.608	666.61
417.817	715.77
418.025	738.29
418.233	855.03
418.441	685.05
418.649	871.41
418.857	781.3
419.065	898.03
419.273	830.45
419.481	967.67
419.689	926.71
419.897	1059.82
420.105	926.71
420.313	1102.83
420.521	1100.78
420.729	1025.01
420.937	1119.21
421.145	1238
421.353	1266.67
421.561	1305.58
421.769	1319.92
421.977	1444.84
422.185	1416.17
422.393	1407.98
422.601	1594.34
422.809	1526.76
423.017	1498.09
423.224	1569.77
423.432	1602.54
423.64	1651.69
423.848	1741.8
424.056	1741.8
424.263	1926.11
424.471	1833.96
424.679	1928.16
424.887	2059.23
425.094	2089.95
425.302	2216.93
425.51	2171.87
425.718	2188.25
425.925	2229.21
426.133	2376.67
426.341	2550.75
426.548	2536.41
426.756	2642.9
426.964	2616.28
427.171	2800.6
427.379	2927.57
427.586	2851.8
427.794	3009.49
428.001	3165.14
428.209	3343.31
428.417	3107.79
428.624	3371.98
428.832	3326.93
429.039	3335.12
429.247	3331.02
429.454	3785.67
429.662	3951.56
429.869	3771.33
430.076	4060.1
430.284	3855.3
430.491	4053.95
430.699	4240.32
430.906	4244.42
431.114	4391.87
431.321	4418.49
431.528	4576.19
431.736	4889.53
431.943	5106.61
432.15	5098.42
432.358	4969.4
432.565	5389.23
432.772	5194.67
432.979	5415.85
433.187	5741.48
433.394	5661.61
433.601	5972.9
433.808	5942.18
434.016	6208.42
434.223	6384.54
434.43	6689.69
434.637	6466.46
434.844	7013.27
435.052	7062.42
435.259	7150.48
435.466	7199.63
435.673	6992.79
435.88	7324.56
436.087	7861.13
436.294	7832.46
436.501	7670.67
436.708	7881.61
436.915	7963.53
437.122	8426.37
437.329	8436.61
437.537	8622.97
437.743	8790.91
437.95	8817.53
438.157	9249.65
438.364	9405.3
438.571	9493.36
438.778	9431.92
438.985	10421.09
439.192	10021.74
439.399	10175.33
439.606	10120.04
439.813	10675.04
440.02	11191.13
440.227	11141.97
440.433	11000.66
440.64	11311.96
440.847	11240.28
441.054	11543.38
441.261	12452.67
441.467	12065.61
441.674	12532.54
441.881	12954.43
442.088	13181.75
442.294	12919.61
442.501	13198.13
442.708	13503.28
442.914	13935.4
443.121	14402.34
443.328	14031.66
443.534	14961.44
443.741	14537.51
443.948	14621.47
444.154	15557.39
444.361	15442.71
444.568	15459.09
444.774	15479.57
444.981	15438.61
445.187	16253.7
445.394	16843.52
445.6	16519.94
445.807	18252.52
446.013	17279.74
446.22	17644.27
446.426	18490.09
446.633	18713.31
446.839	19354.33
447.046	18500.33
447.252	19784.4
447.459	19438.3
447.665	19305.18
447.871	20363.98
448.078	21086.91
448.284	20069.07
448.491	20865.73
448.697	21525.18
448.903	21877.43
449.11	22076.08
449.316	21680.82
449.522	22276.78
449.728	22227.63
449.935	22669.99
450.141	22651.56
450.347	23368.35
450.553	22516.39
450.76	22964.9
450.966	23757.46
451.172	23200.41
451.378	23777.94
451.584	23079.58
451.791	24007.31
451.997	23859.86
452.203	24476.3
452.409	24101.52
452.615	24238.73
452.821	23233.18
453.027	22915.75
453.233	24158.86
453.44	23138.97
453.646	23227.04
453.852	23507.61
454.058	24093.33
454.264	23212.7
454.47	23958.16
454.676	23018.14
454.882	24119.95
455.088	21873.33
455.294	22002.35
455.5	22690.47
455.705	22719.14
455.911	21463.74
456.117	21539.51
456.323	20947.65
456.529	20083.41
456.735	20964.03
456.941	20327.11
457.147	19659.48
457.352	19391.19
457.558	19192.54
457.764	19260.12
457.97	18871.01
458.176	18494.18
458.381	18430.69
458.587	17564.4
458.793	17732.34
458.999	16573.19
459.204	17933.04
459.41	17507.06
459.616	16177.93
459.821	16196.36
460.027	16196.36
460.233	15778.58
460.438	15196.95
460.644	15094.55
460.85	14228.26
461.055	14400.29
461.261	14398.24
461.466	13247.29
461.672	13071.16
461.878	13796.14
462.083	12935.99
462.289	12499.78
462.494	12694.33
462.7	11744.08
462.905	11518.8
463.111	11971.4
463.316	12219.21
463.522	11830.09
463.727	11889.48
463.932	11942.73
464.138	11633.49
464.343	11864.91
464.549	11363.15
464.754	11553.62
464.959	11668.3
465.165	11592.53
465.37	11207.51
465.575	10928.99
465.781	11268.95
465.986	11301.72
466.191	10830.68
466.397	10740.57
466.602	10150.76
466.807	10646.37
467.012	10623.84
467.218	10509.15
467.423	10357.6
467.628	10330.98
467.833	10808.16
468.038	10384.23
