Data from USB4F104151__74__13-54-07-133.txt Node

Date: Thu Mar 13 13:54:07 EDT 2025
User: louis
Spectrometer: USB4F10415
Trigger mode: 4
Integration Time (sec): 1.000000E-2
Scans to average: 1
Electric dark correction enabled: true
Nonlinearity correction enabled: false
Boxcar width: 0
XAxis mode: Wavelengths
Number of Pixels in Spectrum: 3648
>>>>>Begin Spectral Data<<<<<
178.204	18.26
178.424	18.26
178.644	18.26
178.864	-30.89
179.084	-73.9
179.304	-37.03
179.524	42.84
179.744	8.02
179.964	57.17
180.184	-94.38
180.404	30.55
180.624	20.31
180.844	-2.22
181.064	-49.32
181.283	-14.51
181.503	5.97
181.723	32.6
181.943	-28.84
182.163	22.36
182.383	46.93
182.602	20.31
182.822	3.93
183.042	32.6
183.262	20.31
183.482	-28.84
183.701	3.93
183.921	32.6
184.141	-94.38
184.361	53.08
184.58	-10.41
184.8	-2.22
185.02	16.21
185.239	18.26
185.459	42.84
185.679	3.93
185.898	-10.41
186.118	26.45
186.338	55.12
186.557	59.22
186.777	-12.46
186.997	5.97
187.216	-18.6
187.436	-8.36
187.655	-24.75
187.875	-30.89
188.095	-18.6
188.314	10.07
188.534	96.08
188.753	1.88
188.973	55.12
189.192	-2.22
189.412	12.12
189.631	-2.22
189.851	-37.03
190.07	22.36
190.29	38.74
190.509	38.74
190.729	53.08
190.948	-16.55
191.168	10.07
191.387	16.21
191.607	-41.13
191.826	87.89
192.045	24.4
192.265	-6.31
192.484	53.08
192.704	-6.31
192.923	3.93
193.142	42.84
193.362	28.5
193.581	38.74
193.8	48.98
194.02	-41.13
194.239	-47.27
194.458	-47.27
194.678	-10.41
194.897	14.17
195.116	-59.56
195.335	28.5
195.555	57.17
195.774	-39.08
195.993	8.02
196.212	-34.99
196.432	30.55
196.651	34.64
196.87	34.64
197.089	65.36
197.308	34.64
197.528	-10.41
197.747	40.79
197.966	57.17
198.185	18.26
198.404	-57.51
198.623	-4.27
198.842	24.4
199.062	12.12
199.281	-30.89
199.5	51.03
199.719	20.31
199.938	-0.17
200.157	59.22
200.376	-41.13
200.595	79.7
200.814	-49.32
201.033	-14.51
201.252	-77.99
201.471	46.93
201.69	24.4
201.909	46.93
202.128	38.74
202.347	42.84
202.566	-30.89
202.785	20.31
203.004	1.88
203.223	59.22
203.442	12.12
203.661	77.65
203.879	38.74
204.098	-20.65
204.317	40.79
204.536	46.93
204.755	-59.56
204.974	38.74
205.193	46.93
205.411	40.79
205.63	22.36
205.849	24.4
206.068	16.21
206.287	3.93
206.505	3.93
206.724	67.41
206.943	3.93
207.162	16.21
207.381	12.12
207.599	22.36
207.818	-37.03
208.037	3.93
208.255	71.51
208.474	-28.84
208.693	-55.47
208.911	30.55
209.13	28.5
209.349	44.88
209.567	67.41
209.786	44.88
210.005	20.31
210.223	-0.17
210.442	20.31
210.661	-32.94
210.879	-34.99
211.098	57.17
211.316	38.74
211.535	-10.41
211.753	24.4
211.972	8.02
212.191	5.97
212.409	8.02
212.628	8.02
212.846	22.36
213.065	-8.36
213.283	73.56
213.502	-8.36
213.72	-8.36
213.938	22.36
214.157	28.5
214.375	-4.27
214.594	34.64
214.812	63.32
215.031	28.5
215.249	-16.55
215.467	100.18
215.686	51.03
215.904	53.08
216.122	40.79
216.341	1.88
216.559	28.5
216.778	40.79
216.996	59.22
217.214	-14.51
217.432	-32.94
217.651	63.32
217.869	8.02
218.087	106.32
218.306	-18.6
218.524	81.75
218.742	51.03
218.96	-2.22
219.179	10.07
219.397	-0.17
219.615	77.65
219.833	96.08
220.051	-43.18
220.27	51.03
220.488	-8.36
220.706	-41.13
220.924	-4.27
221.142	57.17
221.36	110.42
221.578	12.12
221.796	-32.94
222.015	22.36
222.233	73.56
222.451	38.74
222.669	51.03
222.887	30.55
223.105	61.27
223.323	18.26
223.541	22.36
223.759	-8.36
223.977	-6.31
224.195	-51.37
224.413	69.46
224.631	22.36
224.849	81.75
225.067	51.03
225.285	-12.46
225.503	24.4
225.721	-41.13
225.939	-18.6
226.157	26.45
226.375	26.45
226.592	-22.7
226.81	120.66
227.028	-2.22
227.246	59.22
227.464	36.69
227.682	38.74
227.9	-4.27
228.117	55.12
228.335	22.36
228.553	46.93
228.771	-30.89
228.989	42.84
229.206	38.74
229.424	-20.65
229.642	34.64
229.86	85.84
230.077	71.51
230.295	-2.22
230.513	-2.22
230.731	22.36
230.948	46.93
231.166	3.93
231.384	-16.55
231.601	34.64
231.819	24.4
232.037	59.22
232.254	1.88
232.472	-47.27
232.689	57.17
232.907	32.6
233.125	8.02
233.342	38.74
233.56	8.02
233.777	16.21
233.995	8.02
234.213	42.84
234.43	34.64
234.648	65.36
234.865	53.08
235.083	-53.42
235.3	10.07
235.518	10.07
235.735	69.46
235.953	67.41
236.17	34.64
236.388	32.6
236.605	16.21
236.822	5.97
237.04	12.12
237.257	75.6
237.475	-0.17
237.692	5.97
237.909	18.26
238.127	40.79
238.344	-24.75
238.562	83.8
238.779	-2.22
238.996	20.31
239.214	51.03
239.431	-47.27
239.648	1.88
239.865	-34.99
240.083	63.32
240.3	44.88
240.517	-10.41
240.735	98.13
240.952	10.07
241.169	30.55
241.386	16.21
241.603	71.51
241.821	36.69
242.038	14.17
242.255	30.55
242.472	38.74
242.689	94.04
242.907	10.07
243.124	28.5
243.341	-30.89
243.558	30.55
243.775	-20.65
243.992	-16.55
244.209	38.74
244.426	26.45
244.643	83.8
244.86	65.36
245.078	-39.08
245.295	-0.17
245.512	12.12
245.729	-4.27
245.946	71.51
246.163	102.23
246.38	22.36
246.597	48.98
246.814	-2.22
247.031	16.21
247.248	63.32
247.464	-14.51
247.681	18.26
247.898	-24.75
248.115	26.45
248.332	32.6
248.549	16.21
248.766	28.5
248.983	81.75
249.2	1.88
249.417	-28.84
249.633	14.17
249.85	53.08
250.067	85.84
250.284	26.45
250.501	28.5
250.717	85.84
250.934	-39.08
251.151	-8.36
251.368	102.23
251.585	44.88
251.801	-2.22
252.018	-12.46
252.235	14.17
252.451	22.36
252.668	-30.89
252.885	-41.13
253.102	34.64
253.318	-16.55
253.535	-16.55
253.752	53.08
253.968	16.21
254.185	34.64
254.401	32.6
254.618	61.27
254.835	34.64
255.051	69.46
255.268	75.6
255.484	53.08
255.701	44.88
255.917	112.47
256.134	79.7
256.351	38.74
256.567	42.84
256.784	3.93
257	-43.18
257.217	12.12
257.433	38.74
257.65	30.55
257.866	3.93
258.082	10.07
258.299	57.17
258.515	48.98
258.732	-65.71
258.948	53.08
259.165	71.51
259.381	-16.55
259.597	34.64
259.814	98.13
260.03	16.21
260.246	-2.22
260.463	51.03
260.679	61.27
260.895	96.08
261.112	14.17
261.328	1.88
261.544	30.55
261.761	114.52
261.977	-0.17
262.193	-28.84
262.409	26.45
262.626	87.89
262.842	48.98
263.058	-61.61
263.274	26.45
263.49	44.88
263.707	30.55
263.923	-49.32
264.139	3.93
264.355	-37.03
264.571	-18.6
264.787	59.22
265.004	28.5
265.22	16.21
265.436	36.69
265.652	24.4
265.868	59.22
266.084	40.79
266.3	-41.13
266.516	55.12
266.732	44.88
266.948	-47.27
267.164	-12.46
267.38	34.64
267.596	26.45
267.812	36.69
268.028	48.98
268.244	-28.84
268.46	20.31
268.676	-20.65
268.892	10.07
269.108	71.51
269.324	-37.03
269.54	-18.6
269.756	55.12
269.972	30.55
270.188	22.36
270.403	-30.89
270.619	38.74
270.835	8.02
271.051	-0.17
271.267	79.7
271.483	-12.46
271.698	53.08
271.914	65.36
272.13	-49.32
272.346	18.26
272.562	10.07
272.777	34.64
272.993	-32.94
273.209	81.75
273.425	3.93
273.64	38.74
273.856	-30.89
274.072	26.45
274.287	42.84
274.503	-43.18
274.719	61.27
274.934	34.64
275.15	-45.23
275.366	-6.31
275.581	18.26
275.797	55.12
276.012	-12.46
276.228	16.21
276.444	46.93
276.659	40.79
276.875	85.84
277.09	38.74
277.306	-14.51
277.521	8.02
277.737	-18.6
277.952	14.17
278.168	-49.32
278.383	8.02
278.599	-16.55
278.814	71.51
279.03	-43.18
279.245	81.75
279.461	-32.94
279.676	32.6
279.892	26.45
280.107	32.6
280.322	5.97
280.538	81.75
280.753	-49.32
280.969	24.4
281.184	-4.27
281.399	30.55
281.615	-14.51
281.83	38.74
282.045	-14.51
282.26	-18.6
282.476	3.93
282.691	73.56
282.906	-34.99
283.122	3.93
283.337	18.26
283.552	71.51
283.767	-6.31
283.983	-6.31
284.198	22.36
284.413	42.84
284.628	55.12
284.843	-30.89
285.058	-8.36
285.274	-0.17
285.489	46.93
285.704	-32.94
285.919	-14.51
286.134	57.17
286.349	14.17
286.564	-2.22
286.779	102.23
286.995	16.21
287.21	57.17
287.425	38.74
287.64	-45.23
287.855	28.5
288.07	-26.79
288.285	32.6
288.5	79.7
288.715	-10.41
288.93	-41.13
289.145	-18.6
289.36	-39.08
289.575	53.08
289.79	65.36
290.004	-4.27
290.219	-10.41
290.434	44.88
290.649	-18.6
290.864	8.02
291.079	5.97
291.294	46.93
291.509	63.32
291.724	83.8
291.938	87.89
292.153	57.17
292.368	32.6
292.583	22.36
292.798	73.56
293.012	61.27
293.227	-55.47
293.442	24.4
293.657	94.04
293.871	32.6
294.086	-18.6
294.301	118.61
294.516	14.17
294.73	-26.79
294.945	63.32
295.16	71.51
295.374	-14.51
295.589	61.27
295.804	-34.99
296.018	40.79
296.233	-24.75
296.447	-0.17
296.662	-55.47
296.877	14.17
297.091	46.93
297.306	32.6
297.52	91.99
297.735	-47.27
297.949	22.36
298.164	10.07
298.378	85.84
298.593	-28.84
298.807	67.41
299.022	75.6
299.236	3.93
299.451	12.12
299.665	30.55
299.88	48.98
300.094	100.18
300.309	-2.22
300.523	69.46
300.737	-4.27
300.952	38.74
301.166	69.46
301.381	-28.84
301.595	30.55
301.809	14.17
302.024	-26.79
302.238	3.93
302.452	26.45
302.667	-20.65
302.881	69.46
303.095	-24.75
303.309	3.93
303.524	44.88
303.738	-10.41
303.952	26.45
304.166	32.6
304.381	-28.84
304.595	63.32
304.809	-0.17
305.023	5.97
305.237	53.08
305.452	57.17
305.666	83.8
305.88	10.07
306.094	24.4
306.308	38.74
306.522	-8.36
306.736	-45.23
306.95	-14.51
307.164	-2.22
307.379	-26.79
307.593	5.97
307.807	69.46
308.021	69.46
308.235	73.56
308.449	10.07
308.663	26.45
308.877	126.8
309.091	83.8
309.305	18.26
309.519	-37.03
309.733	120.66
309.947	16.21
310.161	24.4
310.374	22.36
310.588	57.17
310.802	79.7
311.016	40.79
311.23	18.26
311.444	40.79
311.658	34.64
311.872	71.51
312.085	63.32
312.299	10.07
312.513	38.74
312.727	32.6
312.941	10.07
313.154	34.64
313.368	32.6
313.582	55.12
313.796	-20.65
314.009	63.32
314.223	51.03
314.437	22.36
314.651	-47.27
314.864	24.4
315.078	-20.65
315.292	46.93
315.505	-41.13
315.719	16.21
315.933	-8.36
316.146	-0.17
316.36	28.5
316.573	10.07
316.787	26.45
317.001	-20.65
317.214	-16.55
317.428	46.93
317.641	20.31
317.855	26.45
318.068	-22.7
318.282	-49.32
318.495	110.42
318.709	108.37
318.922	16.21
319.136	159.57
319.349	61.27
319.563	79.7
319.776	87.89
319.99	55.12
320.203	-10.41
320.417	34.64
320.63	14.17
320.843	8.02
321.057	-4.27
321.27	22.36
321.483	40.79
321.697	67.41
321.91	-22.7
322.124	18.26
322.337	22.36
322.55	-10.41
322.763	5.97
322.977	22.36
323.19	-26.79
323.403	10.07
323.617	63.32
323.83	12.12
324.043	-30.89
324.256	20.31
324.469	14.17
324.683	85.84
324.896	-28.84
325.109	24.4
325.322	40.79
325.535	-16.55
325.748	-4.27
325.962	36.69
326.175	-16.55
326.388	-22.7
326.601	-6.31
326.814	89.94
327.027	32.6
327.24	83.8
327.453	20.31
327.666	5.97
327.879	36.69
328.092	-0.17
328.305	55.12
328.518	36.69
328.731	24.4
328.944	55.12
329.157	59.22
329.37	30.55
329.583	94.04
329.796	46.93
330.009	-73.9
330.222	-18.6
330.435	-0.17
330.648	-18.6
330.861	51.03
331.073	24.4
331.286	-45.23
331.499	34.64
331.712	-0.17
331.925	79.7
332.138	22.36
332.35	42.84
332.563	24.4
332.776	89.94
332.989	-10.41
333.202	-47.27
333.414	-8.36
333.627	55.12
333.84	-0.17
334.053	-6.31
334.265	20.31
334.478	81.75
334.691	48.98
334.903	14.17
335.116	16.21
335.329	-4.27
335.541	-8.36
335.754	46.93
335.966	-61.61
336.179	38.74
336.392	3.93
336.604	42.84
336.817	44.88
337.029	46.93
337.242	30.55
337.454	-20.65
337.667	12.12
337.88	22.36
338.092	40.79
338.305	46.93
338.517	30.55
338.729	-4.27
338.942	48.98
339.154	5.97
339.367	55.12
339.579	91.99
339.792	22.36
340.004	53.08
340.217	18.26
340.429	65.36
340.641	-45.23
340.854	14.17
341.066	-2.22
341.278	51.03
341.491	-14.51
341.703	-2.22
341.915	75.6
342.128	16.21
342.34	65.36
342.552	14.17
342.764	3.93
342.977	1.88
343.189	59.22
343.401	-10.41
343.613	30.55
343.826	-55.47
344.038	32.6
344.25	44.88
344.462	12.12
344.674	5.97
344.886	-43.18
345.099	26.45
345.311	-22.7
345.523	46.93
345.735	55.12
345.947	1.88
346.159	53.08
346.371	-34.99
346.583	118.61
346.795	42.84
347.007	1.88
347.219	40.79
347.431	-12.46
347.643	-12.46
347.855	16.21
348.067	48.98
348.279	-18.6
348.491	12.12
348.703	55.12
348.915	-10.41
349.127	55.12
349.339	-0.17
349.551	-53.42
349.763	40.79
349.975	57.17
350.187	30.55
350.399	5.97
350.61	55.12
350.822	-55.47
351.034	77.65
351.246	40.79
351.458	30.55
351.669	-0.17
351.881	85.84
352.093	65.36
352.305	34.64
352.517	-59.56
352.728	65.36
352.94	-26.79
353.152	89.94
353.363	24.4
353.575	-6.31
353.787	83.8
353.999	20.31
354.21	44.88
354.422	18.26
354.633	48.98
354.845	22.36
355.057	57.17
355.268	85.84
355.48	81.75
355.692	5.97
355.903	48.98
356.115	40.79
356.326	10.07
356.538	30.55
356.749	-16.55
356.961	83.8
357.172	-8.36
357.384	26.45
357.595	14.17
357.807	65.36
358.018	-14.51
358.23	46.93
358.441	34.64
358.653	73.56
358.864	51.03
359.075	5.97
359.287	12.12
359.498	63.32
359.709	10.07
359.921	5.97
360.132	83.8
360.344	46.93
360.555	75.6
360.766	89.94
360.977	-37.03
361.189	32.6
361.4	3.93
361.611	102.23
361.823	110.42
362.034	8.02
362.245	-2.22
362.456	-61.61
362.667	51.03
362.879	-22.7
363.09	-22.7
363.301	151.38
363.512	22.36
363.723	22.36
363.935	14.17
364.146	100.18
364.357	89.94
364.568	75.6
364.779	44.88
364.99	57.17
365.201	30.55
365.412	18.26
365.623	-39.08
365.834	18.26
366.045	-22.7
366.256	120.66
366.467	44.88
366.678	28.5
366.889	28.5
367.1	57.17
367.311	-2.22
367.522	-67.75
367.733	1.88
367.944	8.02
368.155	42.84
368.366	48.98
368.577	87.89
368.788	24.4
368.999	59.22
369.209	22.36
369.42	61.27
369.631	77.65
369.842	14.17
370.053	32.6
370.264	-14.51
370.474	-2.22
370.685	-6.31
370.896	96.08
371.107	-6.31
371.317	18.26
371.528	38.74
371.739	67.41
371.95	53.08
372.16	71.51
372.371	10.07
372.582	-6.31
372.792	22.36
373.003	98.13
373.214	30.55
373.424	34.64
373.635	65.36
373.846	-75.95
374.056	59.22
374.267	194.39
374.477	-10.41
374.688	46.93
374.898	42.84
375.109	46.93
375.319	-14.51
375.53	28.5
375.74	48.98
375.951	-28.84
376.161	38.74
376.372	87.89
376.582	12.12
376.793	63.32
377.003	46.93
377.214	1.88
377.424	-6.31
377.635	-20.65
377.845	51.03
378.055	67.41
378.266	10.07
378.476	75.6
378.686	16.21
378.897	73.56
379.107	42.84
379.317	53.08
379.528	69.46
379.738	30.55
379.948	28.5
380.158	-26.79
380.369	24.4
380.579	14.17
380.789	46.93
380.999	28.5
381.21	28.5
381.42	18.26
381.63	-30.89
381.84	26.45
382.05	38.74
382.261	69.46
382.471	36.69
382.681	42.84
382.891	24.4
383.101	42.84
383.311	-10.41
383.521	18.26
383.731	3.93
383.941	8.02
384.151	48.98
384.361	38.74
384.571	51.03
384.781	48.98
384.991	73.56
385.201	122.71
385.411	-41.13
385.621	61.27
385.831	53.08
386.041	51.03
386.251	-8.36
386.461	8.02
386.671	42.84
386.881	16.21
387.091	83.8
387.301	63.32
387.511	14.17
387.72	32.6
387.93	42.84
388.14	-12.46
388.35	139.09
388.56	55.12
388.769	81.75
388.979	20.31
389.189	44.88
389.399	102.23
389.609	-4.27
389.818	-20.65
390.028	-0.17
390.238	14.17
390.447	-20.65
390.657	-45.23
390.867	36.69
391.076	51.03
391.286	-0.17
391.496	57.17
391.705	53.08
391.915	126.8
392.125	147.28
392.334	42.84
392.544	53.08
392.753	40.79
392.963	48.98
393.172	53.08
393.382	57.17
393.591	22.36
393.801	81.75
394.01	59.22
394.22	48.98
394.429	38.74
394.639	44.88
394.848	38.74
395.058	59.22
395.267	40.79
395.477	-47.27
395.686	46.93
395.895	79.7
396.105	114.52
396.314	-12.46
396.524	30.55
396.733	-10.41
396.942	98.13
397.152	67.41
397.361	12.12
397.57	98.13
397.78	65.36
397.989	42.84
398.198	71.51
398.407	85.84
398.617	108.37
398.826	18.26
399.035	87.89
399.244	44.88
399.453	143.19
399.663	81.75
399.872	63.32
400.081	40.79
400.29	63.32
400.499	87.89
400.708	75.6
400.917	28.5
401.127	40.79
401.336	18.26
401.545	75.6
401.754	94.04
401.963	-22.7
402.172	132.95
402.381	46.93
402.59	38.74
402.799	28.5
403.008	100.18
403.217	87.89
403.426	89.94
403.635	14.17
403.844	55.12
404.053	55.12
404.262	85.84
404.471	77.65
404.68	137.04
404.888	175.95
405.097	94.04
405.306	26.45
405.515	124.76
405.724	188.24
405.933	96.08
406.142	77.65
406.35	44.88
406.559	106.32
406.768	110.42
406.977	118.61
407.185	169.81
407.394	175.95
407.603	171.86
407.812	114.52
408.02	171.86
408.229	108.37
408.438	110.42
408.646	153.43
408.855	83.8
409.064	202.58
409.272	159.57
409.481	167.76
409.69	165.71
409.898	223.06
410.107	247.63
410.315	218.96
410.524	251.73
410.733	235.35
410.941	223.06
411.15	218.96
411.358	268.11
411.567	241.49
411.775	233.3
411.984	288.59
412.192	231.25
412.401	280.4
412.609	249.68
412.818	382.8
413.026	341.84
413.234	347.98
413.443	347.98
413.651	261.97
413.86	368.46
414.068	317.26
414.276	419.66
414.485	415.57
414.693	393.04
414.901	386.9
415.11	431.95
415.318	458.57
415.526	472.91
415.734	569.16
415.943	534.35
416.151	468.81
416.359	479.05
416.567	571.21
416.776	550.73
416.984	560.97
417.192	571.21
417.4	601.93
417.608	653.13
417.817	579.4
418.025	655.18
418.233	689.99
418.441	773.96
418.649	741.19
418.857	806.73
419.065	819.02
419.273	806.73
419.481	917.32
419.689	933.7
419.897	911.18
420.105	966.47
420.313	982.85
420.521	999.24
420.729	1052.49
420.937	1046.34
421.145	1050.44
421.353	1140.55
421.561	1244.99
421.769	1240.9
421.977	1298.24
422.185	1277.76
422.393	1337.15
422.601	1460.03
422.809	1414.98
423.017	1419.07
423.224	1472.32
423.432	1494.85
423.64	1656.64
423.848	1599.29
424.056	1691.45
424.263	1812.28
424.471	1771.32
424.679	1838.91
424.887	1845.05
425.094	1900.34
425.302	1877.82
425.51	2111.29
425.718	2131.76
425.925	2043.7
426.133	2197.3
426.341	2338.61
426.548	2438.96
426.756	2629.42
426.964	2494.26
427.171	2688.81
427.379	2660.14
427.586	2717.48
427.794	2807.59
428.001	2883.37
428.209	3219.24
428.417	2936.62
428.624	3165.99
428.832	3274.53
429.039	3127.08
429.247	3280.68
429.454	3534.62
429.662	3647.26
429.869	3385.12
430.076	3702.56
430.284	3735.32
430.491	3770.14
430.699	4069.14
430.906	4011.8
431.114	4056.86
431.321	4163.35
431.528	4400.91
431.736	4552.46
431.943	4810.51
432.15	4749.07
432.358	4810.51
432.565	4873.99
432.772	5041.93
432.979	5162.76
433.187	5252.87
433.394	5330.69
433.601	5797.63
433.808	5494.53
434.016	5730.05
434.223	5914.36
434.43	6174.46
434.637	5908.22
434.844	6512.37
435.052	6708.97
435.259	6653.68
435.466	6622.96
435.673	6627.06
435.88	6878.96
436.087	7331.56
436.294	7290.6
436.501	7198.44
436.708	7417.57
436.915	7618.27
437.122	7913.18
437.329	7958.24
437.537	7986.91
437.743	8275.67
437.95	8222.42
438.157	8646.35
438.364	8779.47
438.571	8818.38
438.778	8961.74
438.985	9766.59
439.192	9397.96
439.399	9713.35
439.606	9377.48
439.813	10045.12
440.02	10536.63
440.227	10436.28
440.433	10251.96
440.64	10757.81
440.847	10712.75
441.054	11009.71
441.261	11327.14
441.467	11427.49
441.674	11632.29
441.881	12175
442.088	12170.91
442.294	12099.23
442.501	12275.35
442.708	12783.25
442.914	12934.8
443.121	13448.84
443.328	13139.6
443.534	14212.73
443.741	13631.11
443.948	13702.79
444.154	14470.78
444.361	14534.26
444.568	14458.49
444.774	14530.17
444.981	14786.16
445.187	15289.96
445.394	15740.52
445.6	15650.41
445.807	17051.22
446.013	16428.63
446.22	16727.64
446.426	17145.42
446.633	17458.76
446.839	17946.18
447.046	17405.52
447.252	18269.76
447.459	18099.78
447.665	17995.33
447.871	18943.54
448.078	19607.08
448.284	18808.37
448.491	19559.98
448.697	20248.1
448.903	20428.32
449.11	20809.24
449.316	20211.23
449.522	20545.05
449.728	20909.59
449.935	21229.07
450.141	21569.04
450.347	21861.9
450.553	20792.86
450.76	21272.08
450.966	22273.54
451.172	21698.06
451.378	22515.2
451.584	21610
451.791	22478.33
451.997	22007.3
452.203	22607.36
452.409	22187.52
452.615	22418.94
452.821	21796.36
453.027	21274.13
453.233	22543.87
453.44	21638.67
453.646	21880.33
453.852	21982.73
454.058	22607.36
454.264	21583.37
454.47	22107.65
454.676	21405.2
454.882	22099.46
455.088	20373.02
455.294	20583.96
455.5	20889.11
455.705	21083.67
455.911	20108.83
456.117	19590.7
456.323	19572.27
456.529	18439.74
456.735	19207.73
456.941	18738.74
457.147	18300.48
457.352	17884.74
457.558	17710.66
457.764	17563.21
457.97	17372.75
458.176	16918.1
458.381	16907.86
458.587	16195.17
458.793	16277.08
458.999	15421.03
459.204	16352.86
459.41	15781.48
459.616	14587.51
459.821	14816.88
460.027	15011.44
460.233	14409.34
460.438	13692.55
460.644	13848.19
460.85	13301.39
461.055	13061.77
461.261	13225.61
461.466	12033.69
461.672	11691.68
461.878	12578.45
462.083	11853.47
462.289	11431.59
462.494	11484.84
462.7	10892.98
462.905	10821.3
463.111	11005.61
463.316	11060.91
463.522	10958.51
463.727	10800.82
463.932	10813.1
464.138	10733.23
464.343	10858.16
464.549	10360.5
464.754	10759.86
464.959	10776.24
465.165	10661.55
465.37	10288.82
465.575	9819.84
465.781	10350.26
465.986	10479.29
466.191	10288.82
466.397	9891.52
466.602	9490.12
466.807	9764.54
467.012	9668.29
467.218	9803.46
467.423	9404.1
467.628	9725.63
467.833	9942.72
468.038	9817.79
468.244	9385.67
