Data from USB4F104151__229__14-00-23-322.txt Node

Date: Thu Mar 13 14:00:23 EDT 2025
User: louis
Spectrometer: USB4F10415
Trigger mode: 4
Integration Time (sec): 1.000000E-2
Scans to average: 1
Electric dark correction enabled: true
Nonlinearity correction enabled: false
Boxcar width: 0
XAxis mode: Wavelengths
Number of Pixels in Spectrum: 3648
>>>>>Begin Spectral Data<<<<<
178.204	-5.97
178.424	-5.97
178.644	-5.97
178.864	-20.31
179.084	14.51
179.304	4.27
179.524	-12.12
179.744	2.22
179.964	32.94
180.184	145.58
180.404	-10.07
180.624	-32.6
180.844	-5.97
181.064	22.7
181.283	-63.32
181.503	-89.94
181.723	6.31
181.943	-55.12
182.163	47.27
182.383	6.31
182.602	63.66
182.822	49.32
183.042	45.23
183.262	43.18
183.482	100.52
183.701	0.17
183.921	55.47
184.141	45.23
184.361	22.7
184.58	55.47
184.8	108.71
185.02	32.94
185.239	51.37
185.459	14.51
185.679	75.95
185.898	14.51
186.118	90.28
186.338	24.75
186.557	55.47
186.777	30.89
186.997	-44.88
187.216	14.51
187.436	24.75
187.655	-8.02
187.875	59.56
188.095	18.6
188.314	45.23
188.534	30.89
188.753	71.85
188.973	39.08
189.192	20.65
189.412	59.56
189.631	18.6
189.851	108.71
190.07	22.7
190.29	-30.55
190.509	-5.97
190.729	75.95
190.948	57.51
191.168	39.08
191.387	65.71
191.607	34.99
191.826	-30.55
192.045	131.24
192.265	20.65
192.484	26.79
192.704	24.75
192.923	65.71
193.142	47.27
193.362	53.42
193.581	12.46
193.8	32.94
194.02	34.99
194.239	108.71
194.458	41.13
194.678	24.75
194.897	-34.64
195.116	-3.93
195.335	80.04
195.555	75.95
195.774	55.47
195.993	10.41
196.212	47.27
196.432	-14.17
196.651	24.75
196.87	80.04
197.089	55.47
197.308	43.18
197.528	10.41
197.747	51.37
197.966	82.09
198.185	22.7
198.404	55.47
198.623	0.17
198.842	37.03
199.062	26.79
199.281	30.89
199.5	14.51
199.719	86.19
199.938	34.99
200.157	47.27
200.376	47.27
200.595	49.32
200.814	26.79
201.033	49.32
201.252	47.27
201.471	8.36
201.69	55.47
201.909	88.23
202.128	28.84
202.347	-20.31
202.566	-14.17
202.785	-26.45
203.004	45.23
203.223	82.09
203.442	24.75
203.661	0.17
203.879	26.79
204.098	80.04
204.317	28.84
204.536	47.27
204.755	-20.31
204.974	43.18
205.193	39.08
205.411	73.9
205.63	-59.22
205.849	39.08
206.068	96.43
206.287	57.51
206.505	39.08
206.724	28.84
206.943	26.79
207.162	34.99
207.381	6.31
207.599	73.9
207.818	26.79
208.037	59.56
208.255	4.27
208.474	39.08
208.693	100.52
208.911	82.09
209.13	22.7
209.349	49.32
209.567	43.18
209.786	63.66
210.005	47.27
210.223	-5.97
210.442	20.65
210.661	6.31
210.879	63.66
211.098	61.61
211.316	-26.45
211.535	137.38
211.753	61.61
211.972	-10.07
212.191	37.03
212.409	28.84
212.628	-32.6
212.846	10.41
213.065	51.37
213.283	30.89
213.502	92.33
213.72	57.51
213.938	71.85
214.157	0.17
214.375	96.43
214.594	80.04
214.812	112.81
215.031	0.17
215.249	55.47
215.467	53.42
215.686	37.03
215.904	-22.36
216.122	12.46
216.341	88.23
216.559	37.03
216.778	32.94
216.996	39.08
217.214	12.46
217.432	53.42
217.651	-24.4
217.869	98.47
218.087	47.27
218.306	30.89
218.524	24.75
218.742	39.08
218.96	12.46
219.179	80.04
219.397	32.94
219.615	57.51
219.833	84.14
220.051	26.79
220.27	6.31
220.488	49.32
220.706	69.8
220.924	34.99
221.142	6.31
221.36	-14.17
221.578	-20.31
221.796	16.55
222.015	16.55
222.233	37.03
222.451	75.95
222.669	22.7
222.887	55.47
223.105	-53.08
223.323	22.7
223.541	45.23
223.759	71.85
223.977	104.62
224.195	41.13
224.413	51.37
224.631	80.04
224.849	71.85
225.067	92.33
225.285	12.46
225.503	55.47
225.721	30.89
225.939	-14.17
226.157	88.23
226.375	63.66
226.592	30.89
226.81	14.51
227.028	65.71
227.246	80.04
227.464	20.65
227.682	71.85
227.9	57.51
228.117	22.7
228.335	-1.88
228.553	-10.07
228.771	88.23
228.989	55.47
229.206	28.84
229.424	112.81
229.642	51.37
229.86	32.94
230.077	121
230.295	39.08
230.513	96.43
230.731	69.8
230.948	41.13
231.166	45.23
231.384	16.55
231.601	16.55
231.819	41.13
232.037	24.75
232.254	45.23
232.472	61.61
232.689	80.04
232.907	90.28
233.125	28.84
233.342	6.31
233.56	53.42
233.777	51.37
233.995	59.56
234.213	69.8
234.43	77.99
234.648	-3.93
234.865	14.51
235.083	0.17
235.3	71.85
235.518	47.27
235.735	26.79
235.953	106.67
236.17	22.7
236.388	-46.93
236.605	59.56
236.822	53.42
237.04	24.75
237.257	63.66
237.475	20.65
237.692	47.27
237.909	6.31
238.127	73.9
238.344	102.57
238.562	63.66
238.779	-24.4
238.996	77.99
239.214	43.18
239.431	55.47
239.648	49.32
239.865	43.18
240.083	47.27
240.3	57.51
240.517	43.18
240.735	84.14
240.952	43.18
241.169	37.03
241.386	90.28
241.603	37.03
241.821	65.71
242.038	61.61
242.255	59.56
242.472	114.86
242.689	20.65
242.907	84.14
243.124	90.28
243.341	57.51
243.558	53.42
243.775	-14.17
243.992	71.85
244.209	84.14
244.426	30.89
244.643	73.9
244.86	12.46
245.078	92.33
245.295	41.13
245.512	32.94
245.729	65.71
245.946	51.37
246.163	18.6
246.38	16.55
246.597	37.03
246.814	24.75
247.031	37.03
247.248	45.23
247.464	26.79
247.681	34.99
247.898	-16.21
248.115	22.7
248.332	16.55
248.549	28.84
248.766	151.72
248.983	75.95
249.2	59.56
249.417	8.36
249.633	92.33
249.85	49.32
250.067	-10.07
250.284	20.65
250.501	55.47
250.717	22.7
250.934	88.23
251.151	112.81
251.368	80.04
251.585	0.17
251.801	24.75
252.018	12.46
252.235	41.13
252.451	0.17
252.668	26.79
252.885	57.51
253.102	53.42
253.318	86.19
253.535	-1.88
253.752	14.51
253.968	90.28
254.185	10.41
254.401	10.41
254.618	24.75
254.835	22.7
255.051	24.75
255.268	-1.88
255.484	41.13
255.701	39.08
255.917	32.94
256.134	71.85
256.351	67.75
256.567	-28.5
256.784	37.03
257	112.81
257.217	30.89
257.433	57.51
257.65	94.38
257.866	14.51
258.082	32.94
258.299	47.27
258.515	37.03
258.732	34.99
258.948	18.6
259.165	24.75
259.381	71.85
259.597	0.17
259.814	51.37
260.03	61.61
260.246	61.61
260.463	92.33
260.679	86.19
260.895	22.7
261.112	96.43
261.328	82.09
261.544	57.51
261.761	82.09
261.977	6.31
262.193	-30.55
262.409	108.71
262.626	47.27
262.842	12.46
263.058	63.66
263.274	-18.26
263.49	98.47
263.707	82.09
263.923	32.94
264.139	49.32
264.355	37.03
264.571	39.08
264.787	-8.02
265.004	112.81
265.22	71.85
265.436	43.18
265.652	-5.97
265.868	80.04
266.084	24.75
266.3	30.89
266.516	-10.07
266.732	41.13
266.948	-22.36
267.164	67.75
267.38	90.28
267.596	75.95
267.812	86.19
268.028	112.81
268.244	55.47
268.46	41.13
268.676	112.81
268.892	92.33
269.108	47.27
269.324	-8.02
269.54	30.89
269.756	-34.64
269.972	-1.88
270.188	-30.55
270.403	-18.26
270.619	88.23
270.835	59.56
271.051	6.31
271.267	28.84
271.483	30.89
271.698	75.95
271.914	-38.74
272.13	37.03
272.346	71.85
272.562	37.03
272.777	73.9
272.993	22.7
273.209	57.51
273.425	43.18
273.64	73.9
273.856	43.18
274.072	41.13
274.287	-8.02
274.503	67.75
274.719	14.51
274.934	49.32
275.15	16.55
275.366	67.75
275.581	98.47
275.797	51.37
276.012	26.79
276.228	65.71
276.444	26.79
276.659	96.43
276.875	77.99
277.09	24.75
277.306	65.71
277.521	75.95
277.737	55.47
277.952	106.67
278.168	104.62
278.383	-1.88
278.599	51.37
278.814	75.95
279.03	59.56
279.245	116.9
279.461	6.31
279.676	26.79
279.892	32.94
280.107	43.18
280.322	12.46
280.538	32.94
280.753	49.32
280.969	69.8
281.184	4.27
281.399	24.75
281.615	49.32
281.83	67.75
282.045	16.55
282.26	6.31
282.476	63.66
282.691	30.89
282.906	-3.93
283.122	-18.26
283.337	61.61
283.552	80.04
283.767	84.14
283.983	-1.88
284.198	77.99
284.413	145.58
284.628	51.37
284.843	-10.07
285.058	88.23
285.274	80.04
285.489	75.95
285.704	51.37
285.919	69.8
286.134	49.32
286.349	67.75
286.564	20.65
286.779	129.19
286.995	30.89
287.21	82.09
287.425	26.79
287.64	-10.07
287.855	49.32
288.07	45.23
288.285	43.18
288.5	104.62
288.715	59.56
288.93	80.04
289.145	61.61
289.36	22.7
289.575	39.08
289.79	59.56
290.004	-10.07
290.219	75.95
290.434	-18.26
290.649	-38.74
290.864	88.23
291.079	118.95
291.294	88.23
291.509	-24.4
291.724	80.04
291.938	12.46
292.153	96.43
292.368	77.99
292.583	59.56
292.798	-3.93
293.012	96.43
293.227	14.51
293.442	49.32
293.657	18.6
293.871	24.75
294.086	53.42
294.301	32.94
294.516	28.84
294.73	86.19
294.945	20.65
295.16	-10.07
295.374	22.7
295.589	59.56
295.804	32.94
296.018	6.31
296.233	82.09
296.447	43.18
296.662	14.51
296.877	63.66
297.091	123.05
297.306	45.23
297.52	84.14
297.735	22.7
297.949	26.79
298.164	14.51
298.378	53.42
298.593	51.37
298.807	34.99
299.022	32.94
299.236	22.7
299.451	39.08
299.665	51.37
299.88	63.66
300.094	22.7
300.309	80.04
300.523	14.51
300.737	-8.02
300.952	80.04
301.166	77.99
301.381	41.13
301.595	-3.93
301.809	96.43
302.024	63.66
302.238	4.27
302.452	47.27
302.667	121
302.881	55.47
303.095	45.23
303.309	-5.97
303.524	-1.88
303.738	57.51
303.952	-20.31
304.166	53.42
304.381	-34.64
304.595	41.13
304.809	30.89
305.023	37.03
305.237	30.89
305.452	43.18
305.666	6.31
305.88	59.56
306.094	2.22
306.308	75.95
306.522	10.41
306.736	-8.02
306.95	73.9
307.164	61.61
307.379	53.42
307.593	18.6
307.807	96.43
308.021	100.52
308.235	32.94
308.449	51.37
308.663	84.14
308.877	96.43
309.091	14.51
309.305	24.75
309.519	59.56
309.733	67.75
309.947	-5.97
310.161	32.94
310.374	63.66
310.588	39.08
310.802	14.51
311.016	-30.55
311.23	34.99
311.444	30.89
311.658	59.56
311.872	80.04
312.085	63.66
312.299	145.58
312.513	20.65
312.727	34.99
312.941	133.29
313.154	34.99
313.368	-16.21
313.582	61.61
313.796	39.08
314.009	-10.07
314.223	80.04
314.437	96.43
314.651	41.13
314.864	30.89
315.078	18.6
315.292	80.04
315.505	67.75
315.719	47.27
315.933	4.27
316.146	26.79
316.36	82.09
316.573	37.03
316.787	51.37
317.001	114.86
317.214	75.95
317.428	92.33
317.641	71.85
317.855	63.66
318.068	-5.97
318.282	65.71
318.495	98.47
318.709	71.85
318.922	12.46
319.136	90.28
319.349	30.89
319.563	16.55
319.776	28.84
319.99	30.89
320.203	108.71
320.417	84.14
320.63	82.09
320.843	47.27
321.057	45.23
321.27	47.27
321.483	61.61
321.697	100.52
321.91	41.13
322.124	84.14
322.337	45.23
322.55	47.27
322.763	77.99
322.977	-26.45
323.19	26.79
323.403	39.08
323.617	20.65
323.83	90.28
324.043	-18.26
324.256	61.61
324.469	32.94
324.683	22.7
324.896	104.62
325.109	34.99
325.322	39.08
325.535	106.67
325.748	8.36
325.962	24.75
326.175	39.08
326.388	100.52
326.601	4.27
326.814	0.17
327.027	114.86
327.24	30.89
327.453	94.38
327.666	88.23
327.879	41.13
328.092	12.46
328.305	96.43
328.518	6.31
328.731	12.46
328.944	104.62
329.157	73.9
329.37	45.23
329.583	55.47
329.796	65.71
330.009	10.41
330.222	129.19
330.435	67.75
330.648	98.47
330.861	37.03
331.073	49.32
331.286	92.33
331.499	-18.26
331.712	16.55
331.925	-8.02
332.138	80.04
332.35	96.43
332.563	65.71
332.776	88.23
332.989	65.71
333.202	65.71
333.414	-34.64
333.627	24.75
333.84	16.55
334.053	57.51
334.265	121
334.478	51.37
334.691	-55.12
334.903	73.9
335.116	24.75
335.329	47.27
335.541	28.84
335.754	-1.88
335.966	55.47
336.179	37.03
336.392	100.52
336.604	47.27
336.817	6.31
337.029	41.13
337.242	63.66
337.454	49.32
337.667	90.28
337.88	8.36
338.092	121
338.305	71.85
338.517	14.51
338.729	-36.69
338.942	-12.12
339.154	80.04
339.367	41.13
339.579	2.22
339.792	102.57
340.004	63.66
340.217	24.75
340.429	34.99
340.641	96.43
340.854	59.56
341.066	-10.07
341.278	49.32
341.491	88.23
341.703	57.51
341.915	41.13
342.128	8.36
342.34	80.04
342.552	32.94
342.764	18.6
342.977	10.41
343.189	65.71
343.401	49.32
343.613	57.51
343.826	6.31
344.038	-1.88
344.25	71.85
344.462	-10.07
344.674	114.86
344.886	108.71
345.099	24.75
345.311	104.62
345.523	57.51
345.735	53.42
345.947	71.85
346.159	104.62
346.371	24.75
346.583	125.1
346.795	151.72
347.007	-44.88
347.219	92.33
347.431	12.46
347.643	63.66
347.855	8.36
348.067	24.75
348.279	-26.45
348.491	65.71
348.703	-1.88
348.915	18.6
349.127	-20.31
349.339	59.56
349.551	22.7
349.763	112.81
349.975	86.19
350.187	108.71
350.399	39.08
350.61	49.32
350.822	8.36
351.034	65.71
351.246	49.32
351.458	88.23
351.669	-5.97
351.881	104.62
352.093	61.61
352.305	37.03
352.517	39.08
352.728	37.03
352.94	-10.07
353.152	-8.02
353.363	39.08
353.575	39.08
353.787	84.14
353.999	65.71
354.21	73.9
354.422	22.7
354.633	4.27
354.845	30.89
355.057	30.89
355.268	14.51
355.48	24.75
355.692	32.94
355.903	-10.07
356.115	114.86
356.326	34.99
356.538	26.79
356.749	18.6
356.961	153.77
357.172	45.23
357.384	22.7
357.595	59.56
357.807	88.23
358.018	2.22
358.23	16.55
358.441	112.81
358.653	28.84
358.864	45.23
359.075	84.14
359.287	14.51
359.498	55.47
359.709	112.81
359.921	84.14
360.132	-34.64
360.344	100.52
360.555	63.66
360.766	63.66
360.977	86.19
361.189	41.13
361.4	18.6
361.611	82.09
361.823	73.9
362.034	75.95
362.245	88.23
362.456	16.55
362.667	6.31
362.879	43.18
363.09	41.13
363.301	-46.93
363.512	30.89
363.723	82.09
363.935	-22.36
364.146	84.14
364.357	94.38
364.568	41.13
364.779	39.08
364.99	112.81
365.201	34.99
365.412	51.37
365.623	14.51
365.834	37.03
366.045	37.03
366.256	24.75
366.467	39.08
366.678	77.99
366.889	41.13
367.1	18.6
367.311	0.17
367.522	47.27
367.733	110.76
367.944	34.99
368.155	57.51
368.366	82.09
368.577	47.27
368.788	71.85
368.999	24.75
369.209	39.08
369.42	47.27
369.631	49.32
369.842	-10.07
370.053	18.6
370.264	47.27
370.474	20.65
370.685	8.36
370.896	43.18
371.107	71.85
371.317	102.57
371.528	77.99
371.739	10.41
371.95	82.09
372.16	75.95
372.371	18.6
372.582	34.99
372.792	-24.4
373.003	75.95
373.214	30.89
373.424	71.85
373.635	43.18
373.846	45.23
374.056	123.05
374.267	121
374.477	55.47
374.688	8.36
374.898	55.47
375.109	80.04
375.319	88.23
375.53	26.79
375.74	18.6
375.951	71.85
376.161	30.89
376.372	49.32
376.582	69.8
376.793	49.32
377.003	75.95
377.214	47.27
377.424	55.47
377.635	6.31
377.845	55.47
378.055	73.9
378.266	16.55
378.476	69.8
378.686	34.99
378.897	82.09
379.107	82.09
379.317	51.37
379.528	47.27
379.738	57.51
379.948	-16.21
380.158	39.08
380.369	59.56
380.579	73.9
380.789	86.19
380.999	73.9
381.21	55.47
381.42	41.13
381.63	77.99
381.84	12.46
382.05	2.22
382.261	65.71
382.471	32.94
382.681	100.52
382.891	92.33
383.101	59.56
383.311	24.75
383.521	26.79
383.731	73.9
383.941	96.43
384.151	67.75
384.361	67.75
384.571	4.27
384.781	55.47
384.991	98.47
385.201	55.47
385.411	84.14
385.621	80.04
385.831	-38.74
386.041	98.47
386.251	73.9
386.461	43.18
386.671	92.33
386.881	47.27
387.091	73.9
387.301	153.77
387.511	22.7
387.72	-1.88
387.93	104.62
388.14	47.27
388.35	157.86
388.56	26.79
388.769	34.99
388.979	63.66
389.189	0.17
389.399	47.27
389.609	39.08
389.818	77.99
390.028	51.37
390.238	45.23
390.447	43.18
390.657	90.28
390.867	47.27
391.076	32.94
391.286	77.99
391.496	26.79
391.705	24.75
391.915	47.27
392.125	37.03
392.334	45.23
392.544	71.85
392.753	8.36
392.963	47.27
393.172	114.86
393.382	88.23
393.591	80.04
393.801	82.09
394.01	94.38
394.22	-18.26
394.429	69.8
394.639	90.28
394.848	49.32
395.058	61.61
395.267	63.66
395.477	80.04
395.686	147.62
395.895	49.32
396.105	71.85
396.314	26.79
396.524	108.71
396.733	47.27
396.942	96.43
397.152	92.33
397.361	168.1
397.57	51.37
397.78	61.61
397.989	77.99
398.198	116.9
398.407	96.43
398.617	82.09
398.826	47.27
399.035	106.67
399.244	65.71
399.453	104.62
399.663	57.51
399.872	6.31
400.081	135.34
400.29	88.23
400.499	39.08
400.708	82.09
400.917	96.43
401.127	73.9
401.336	92.33
401.545	164.01
401.754	155.82
401.963	65.71
402.172	43.18
402.381	84.14
402.59	133.29
402.799	94.38
403.008	139.43
403.217	147.62
403.426	8.36
403.635	77.99
403.844	110.76
404.053	125.1
404.262	147.62
404.471	129.19
404.68	102.57
404.888	22.7
405.097	90.28
405.306	139.43
405.515	39.08
405.724	202.92
405.933	73.9
406.142	157.86
406.35	137.38
406.559	139.43
406.768	96.43
406.977	186.54
407.185	116.9
407.394	190.63
407.603	166.06
407.812	176.3
408.02	157.86
408.229	168.1
408.438	213.16
408.646	34.99
408.855	168.1
409.064	221.35
409.272	225.45
409.481	170.15
409.69	161.96
409.898	207.02
410.107	194.73
410.315	280.74
410.524	264.36
410.733	247.97
410.941	317.61
411.15	268.45
411.358	272.55
411.567	252.07
411.775	264.36
411.984	250.02
412.192	254.12
412.401	336.04
412.609	311.46
412.818	364.71
413.026	321.7
413.234	393.38
413.443	268.45
413.651	372.9
413.86	403.62
414.068	399.52
414.276	344.23
414.485	420
414.693	542.88
414.901	354.47
415.11	409.76
415.318	465.06
415.526	436.39
415.734	598.18
415.943	512.16
416.151	534.69
416.359	567.46
416.567	571.55
416.776	544.93
416.984	600.23
417.192	596.13
417.4	602.27
417.608	676
417.817	747.68
418.025	680.1
418.233	825.5
418.441	624.8
418.649	768.16
418.857	798.88
419.065	825.5
419.273	788.64
419.481	782.49
419.689	839.84
419.897	903.32
420.105	1044.63
420.313	909.47
420.521	985.24
420.729	948.38
420.937	1097.88
421.145	1120.41
421.353	1179.8
421.561	1228.95
421.769	1218.71
421.977	1280.15
422.185	1226.9
422.393	1374.36
422.601	1409.17
422.809	1429.65
423.017	1456.28
423.224	1534.1
423.432	1648.79
423.64	1622.16
423.848	1630.35
424.056	1704.08
424.263	1763.47
424.471	1714.32
424.679	1738.9
424.887	1841.29
425.094	1915.02
425.302	1974.41
425.51	2033.8
425.718	2029.71
425.925	2037.9
426.133	2173.07
426.341	2259.08
426.548	2300.04
426.756	2427.01
426.964	2365.57
427.171	2572.42
427.379	2578.56
427.586	2644.1
427.794	2662.53
428.001	2951.29
428.209	2943.1
428.417	2998.4
428.624	3149.95
428.832	3229.82
429.039	3135.61
429.247	3141.75
429.454	3426.42
429.662	3557.49
429.869	3483.77
430.076	3737.71
430.284	3614.84
430.491	3774.58
430.699	3958.89
430.906	3879.02
431.114	3944.56
431.321	4143.21
431.528	4274.28
431.736	4495.46
431.943	4694.12
432.15	4520.04
432.358	4540.52
432.565	4866.14
432.772	4798.56
432.979	5087.33
433.187	5072.99
433.394	5132.38
433.601	5595.22
433.808	5576.79
434.016	5482.58
434.223	5769.3
434.43	6027.34
434.637	5931.09
434.844	6277.19
435.052	6320.2
435.259	6447.18
435.466	6527.05
435.673	6398.03
435.88	6850.63
436.087	7080
436.294	7112.77
436.501	7116.86
436.708	7166.01
436.915	7239.74
437.122	7718.96
437.329	7645.24
437.537	7774.26
437.743	8132.65
437.95	8108.08
438.157	8429.61
438.364	8624.17
438.571	8632.36
438.778	8628.26
438.985	9586.71
439.192	9123.87
439.399	9467.93
439.606	9269.28
439.813	9928.72
440.02	10426.38
440.227	10233.87
440.433	10033.17
440.64	10358.8
440.847	10344.46
441.054	10721.29
441.261	11245.57
441.467	11141.12
441.674	11247.62
441.881	11808.76
442.088	11788.28
442.294	11638.78
442.501	11698.17
442.708	12146.67
442.914	12656.62
443.121	13213.67
443.328	12836.84
443.534	13713.37
443.741	13223.9
443.948	13010.92
444.154	13959.13
444.361	14067.67
444.568	13899.73
444.774	14092.24
444.981	14383.06
445.187	14612.43
445.394	15374.27
445.6	15177.67
445.807	16558
446.013	15898.55
446.22	16115.64
446.426	16707.5
446.633	16869.29
446.839	17674.14
447.046	16693.16
447.252	17684.38
447.459	17549.21
447.665	17483.68
447.871	18562.96
448.078	19212.17
448.284	18227.09
448.491	18896.78
448.697	19541.89
448.903	19920.76
449.11	20082.55
449.316	19562.37
449.522	19910.52
449.728	20516.72
449.935	20455.28
450.141	20715.37
450.347	21219.17
450.553	20508.53
450.76	20604.78
450.966	21501.79
451.172	21153.64
451.378	21626.72
451.584	21301.09
451.791	21673.82
451.997	21583.71
452.203	21974.88
452.409	21993.31
452.615	21849.95
452.821	20895.6
453.027	20780.91
453.233	21782.37
453.44	20799.34
453.646	21206.89
453.852	21243.75
454.058	22173.53
454.264	20940.65
454.47	21516.13
454.676	20918.12
454.882	21780.32
455.088	20027.26
455.294	20412.28
455.5	20475.76
455.705	20498.29
455.911	19634.05
456.117	19380.1
456.323	19380.1
456.529	18067.35
456.735	18999.18
456.941	18452.37
457.147	18141.08
457.352	17602.46
457.558	17346.47
457.764	17610.65
457.97	16883.63
458.176	16783.27
458.381	16881.58
458.587	16136.12
458.793	16046.01
458.999	15122.37
459.204	16207.8
459.41	15884.22
459.616	14831.56
459.821	14639.05
460.027	14804.94
460.233	14356.43
460.438	13768.66
460.644	13901.78
460.85	13289.44
461.055	12974.05
461.261	12793.83
461.466	12220.4
461.672	11630.59
461.878	12466.16
462.083	11606.01
462.289	11399.16
462.494	11421.69
462.7	10852.36
462.905	10547.21
463.111	11005.95
463.316	10862.6
463.522	10792.97
463.727	10784.77
463.932	10709
464.138	10606.6
464.343	10719.24
464.549	10475.53
464.754	10573.83
464.959	10766.34
465.165	10477.58
465.37	10139.66
465.575	9828.37
465.781	10338.32
465.986	10436.62
466.191	10145.81
466.397	9883.67
466.602	9500.7
466.807	9588.76
467.012	9568.28
467.218	9496.6
467.423	9459.74
467.628	9662.49
467.833	9881.62
468.038	9666.58
468.244	9265.18
468.449	9463.83
468.654	9414.68
468.859	9197.6
469.064	9220.13
