Data from USB4F104151__286__14-02-31-138.txt Node

Date: Thu Mar 13 14:02:31 EDT 2025
User: louis
Spectrometer: USB4F10415
Trigger mode: 4
Integration Time (sec): 1.000000E-2
Scans to average: 1
Electric dark correction enabled: true
Nonlinearity correction enabled: false
Boxcar width: 0
XAxis mode: Wavelengths
Number of Pixels in Spectrum: 3648
>>>>>Begin Spectral Data<<<<<
178.204	-20.82
178.424	-20.82
178.644	-20.82
178.864	-6.49
179.084	-26.96
179.304	-14.68
179.524	-29.01
179.744	69.29
179.964	5.8
180.184	30.38
180.404	13.99
180.624	16.04
180.844	5.8
181.064	-47.44
181.283	-8.53
181.503	-57.68
181.723	16.04
181.943	-4.44
182.163	52.91
182.383	-14.68
182.602	9.9
182.822	34.47
183.042	50.86
183.262	48.81
183.482	42.67
183.701	40.62
183.921	13.99
184.141	110.25
184.361	116.39
184.58	36.52
184.8	48.81
185.02	57
185.239	71.34
185.459	-20.82
185.679	102.06
185.898	52.91
186.118	3.75
186.338	-8.53
186.557	-8.53
186.777	57
186.997	1.71
187.216	7.85
187.436	3.75
187.655	-41.3
187.875	-29.01
188.095	83.63
188.314	-31.06
188.534	30.38
188.753	-20.82
188.973	18.09
189.192	77.48
189.412	3.75
189.631	-12.63
189.851	87.72
190.07	89.77
190.29	-43.35
190.509	46.76
190.729	36.52
190.948	61.1
191.168	126.63
191.387	11.95
191.607	59.05
191.826	-0.34
192.045	-20.82
192.265	89.77
192.484	30.38
192.704	3.75
192.923	20.14
193.142	-45.4
193.362	22.19
193.581	59.05
193.8	61.1
194.02	57
194.239	7.85
194.458	46.76
194.678	54.95
194.897	3.75
195.116	79.53
195.335	20.14
195.555	30.38
195.774	3.75
195.993	40.62
196.212	85.67
196.432	20.14
196.651	-26.96
196.87	106.15
197.089	7.85
197.308	32.43
197.528	-14.68
197.747	22.19
197.966	46.76
198.185	42.67
198.404	69.29
198.623	38.57
198.842	-0.34
199.062	-31.06
199.281	-16.73
199.5	52.91
199.719	54.95
199.938	52.91
200.157	-8.53
200.376	28.33
200.595	63.15
200.814	28.33
201.033	16.04
201.252	91.82
201.471	-86.36
201.69	73.39
201.909	44.71
202.128	24.23
202.347	20.14
202.566	-35.16
202.785	20.14
203.004	57
203.223	52.91
203.442	46.76
203.661	20.14
203.879	-37.2
204.098	5.8
204.317	26.28
204.536	89.77
204.755	20.14
204.974	77.48
205.193	-29.01
205.411	59.05
205.63	7.85
205.849	36.52
206.068	-29.01
206.287	-24.92
206.505	1.71
206.724	93.87
206.943	40.62
207.162	85.67
207.381	24.23
207.599	40.62
207.818	-4.44
208.037	9.9
208.255	112.3
208.474	61.1
208.693	-29.01
208.911	1.71
209.13	87.72
209.349	108.2
209.567	77.48
209.786	-2.39
210.005	61.1
210.223	57
210.442	79.53
210.661	20.14
210.879	93.87
211.098	-53.59
211.316	57
211.535	-24.92
211.753	-12.63
211.972	91.82
212.191	-39.25
212.409	26.28
212.628	28.33
212.846	38.57
213.065	36.52
213.283	73.39
213.502	77.48
213.72	16.04
213.938	93.87
214.157	-12.63
214.375	-8.53
214.594	108.2
214.812	11.95
215.031	-20.82
215.249	16.04
215.467	71.34
215.686	-63.83
215.904	81.58
216.122	-22.87
216.341	54.95
216.559	77.48
216.778	77.48
216.996	20.14
217.214	-8.53
217.432	30.38
217.651	65.19
217.869	54.95
218.087	3.75
218.306	11.95
218.524	65.19
218.742	44.71
218.96	93.87
219.179	89.77
219.397	93.87
219.615	36.52
219.833	30.38
220.051	-6.49
220.27	-61.78
220.488	32.43
220.706	73.39
220.924	-43.35
221.142	13.99
221.36	20.14
221.578	71.34
221.796	-10.58
222.015	79.53
222.233	40.62
222.451	61.1
222.669	-2.39
222.887	16.04
223.105	-4.44
223.323	48.81
223.541	83.63
223.759	48.81
223.977	3.75
224.195	44.71
224.413	85.67
224.631	52.91
224.849	44.71
225.067	52.91
225.285	52.91
225.503	36.52
225.721	-2.39
225.939	11.95
226.157	24.23
226.375	52.91
226.592	65.19
226.81	3.75
227.028	24.23
227.246	52.91
227.464	46.76
227.682	61.1
227.9	18.09
228.117	5.8
228.335	22.19
228.553	44.71
228.771	9.9
228.989	38.57
229.206	34.47
229.424	48.81
229.642	24.23
229.86	-4.44
230.077	-63.83
230.295	102.06
230.513	28.33
230.731	69.29
230.948	34.47
231.166	50.86
231.384	57
231.601	46.76
231.819	36.52
232.037	128.68
232.254	38.57
232.472	67.24
232.689	5.8
232.907	61.1
233.125	44.71
233.342	13.99
233.56	79.53
233.777	63.15
233.995	65.19
234.213	3.75
234.43	36.52
234.648	48.81
234.865	-10.58
235.083	16.04
235.3	20.14
235.518	79.53
235.735	50.86
235.953	46.76
236.17	7.85
236.388	42.67
236.605	36.52
236.822	52.91
237.04	59.05
237.257	57
237.475	63.15
237.692	28.33
237.909	59.05
238.127	28.33
238.344	24.23
238.562	-10.58
238.779	79.53
238.996	20.14
239.214	28.33
239.431	26.28
239.648	-4.44
239.865	63.15
240.083	48.81
240.3	104.11
240.517	22.19
240.735	102.06
240.952	32.43
241.169	87.72
241.386	57
241.603	20.14
241.821	46.76
242.038	40.62
242.255	54.95
242.472	54.95
242.689	24.23
242.907	73.39
243.124	40.62
243.341	-12.63
243.558	52.91
243.775	50.86
243.992	42.67
244.209	114.34
244.426	5.8
244.643	112.3
244.86	-10.58
245.078	102.06
245.295	54.95
245.512	30.38
245.729	-24.92
245.946	69.29
246.163	63.15
246.38	69.29
246.597	-24.92
246.814	52.91
247.031	77.48
247.248	48.81
247.464	85.67
247.681	102.06
247.898	36.52
248.115	30.38
248.332	85.67
248.549	79.53
248.766	40.62
248.983	5.8
249.2	11.95
249.417	118.44
249.633	-16.73
249.85	63.15
250.067	20.14
250.284	71.34
250.501	24.23
250.717	28.33
250.934	-8.53
251.151	50.86
251.368	61.1
251.585	32.43
251.801	93.87
252.018	91.82
252.235	65.19
252.451	85.67
252.668	32.43
252.885	63.15
253.102	-35.16
253.318	-12.63
253.535	-59.73
253.752	-35.16
253.968	50.86
254.185	40.62
254.401	-14.68
254.618	61.1
254.835	24.23
255.051	36.52
255.268	50.86
255.484	65.19
255.701	-8.53
255.917	85.67
256.134	73.39
256.351	87.72
256.567	-8.53
256.784	9.9
257	59.05
257.217	50.86
257.433	16.04
257.65	93.87
257.866	36.52
258.082	22.19
258.299	-6.49
258.515	73.39
258.732	46.76
258.948	44.71
259.165	-26.96
259.381	30.38
259.597	71.34
259.814	-8.53
260.03	112.3
260.246	-16.73
260.463	22.19
260.679	104.11
260.895	24.23
261.112	11.95
261.328	59.05
261.544	-2.39
261.761	42.67
261.977	65.19
262.193	34.47
262.409	61.1
262.626	40.62
262.842	46.76
263.058	52.91
263.274	79.53
263.49	40.62
263.707	36.52
263.923	48.81
264.139	-39.25
264.355	26.28
264.571	16.04
264.787	24.23
265.004	54.95
265.22	91.82
265.436	145.06
265.652	71.34
265.868	48.81
266.084	-16.73
266.3	138.92
266.516	9.9
266.732	118.44
266.948	130.73
267.164	3.75
267.38	-0.34
267.596	34.47
267.812	71.34
268.028	54.95
268.244	-16.73
268.46	77.48
268.676	54.95
268.892	87.72
269.108	59.05
269.324	48.81
269.54	28.33
269.756	69.29
269.972	13.99
270.188	69.29
270.403	48.81
270.619	130.73
270.835	116.39
271.051	40.62
271.267	81.58
271.483	65.19
271.698	11.95
271.914	30.38
272.13	20.14
272.346	65.19
272.562	48.81
272.777	20.14
272.993	48.81
273.209	-31.06
273.425	42.67
273.64	52.91
273.856	30.38
274.072	-18.77
274.287	-2.39
274.503	77.48
274.719	48.81
274.934	30.38
275.15	-8.53
275.366	83.63
275.581	13.99
275.797	9.9
276.012	36.52
276.228	112.3
276.444	-2.39
276.659	71.34
276.875	77.48
277.09	-12.63
277.306	65.19
277.521	20.14
277.737	93.87
277.952	28.33
278.168	52.91
278.383	42.67
278.599	-39.25
278.814	63.15
279.03	85.67
279.245	46.76
279.461	34.47
279.676	100.01
279.892	91.82
280.107	73.39
280.322	77.48
280.538	30.38
280.753	-33.11
280.969	-16.73
281.184	46.76
281.399	61.1
281.615	59.05
281.83	-6.49
282.045	24.23
282.26	3.75
282.476	-29.01
282.691	85.67
282.906	-4.44
283.122	30.38
283.337	-4.44
283.552	52.91
283.767	28.33
283.983	52.91
284.198	42.67
284.413	69.29
284.628	7.85
284.843	34.47
285.058	18.09
285.274	81.58
285.489	73.39
285.704	69.29
285.919	52.91
286.134	38.57
286.349	20.14
286.564	-53.59
286.779	100.01
286.995	-26.96
287.21	-8.53
287.425	32.43
287.64	11.95
287.855	85.67
288.07	16.04
288.285	-2.39
288.5	-10.58
288.715	73.39
288.93	30.38
289.145	44.71
289.36	52.91
289.575	77.48
289.79	100.01
290.004	48.81
290.219	63.15
290.434	11.95
290.649	52.91
290.864	89.77
291.079	32.43
291.294	63.15
291.509	44.71
291.724	20.14
291.938	-33.11
292.153	-2.39
292.368	22.19
292.583	67.24
292.798	40.62
293.012	97.96
293.227	30.38
293.442	-0.34
293.657	85.67
293.871	20.14
294.086	30.38
294.301	69.29
294.516	44.71
294.73	52.91
294.945	11.95
295.16	57
295.374	46.76
295.589	71.34
295.804	30.38
296.018	143.02
296.233	61.1
296.447	57
296.662	89.77
296.877	34.47
297.091	69.29
297.306	71.34
297.52	-8.53
297.735	110.25
297.949	63.15
298.164	122.54
298.378	38.57
298.593	24.23
298.807	44.71
299.022	44.71
299.236	24.23
299.451	89.77
299.665	48.81
299.88	34.47
300.094	38.57
300.309	40.62
300.523	54.95
300.737	-10.58
300.952	34.47
301.166	85.67
301.381	24.23
301.595	54.95
301.809	11.95
302.024	13.99
302.238	20.14
302.452	118.44
302.667	63.15
302.881	102.06
303.095	28.33
303.309	32.43
303.524	26.28
303.738	65.19
303.952	106.15
304.166	18.09
304.381	63.15
304.595	100.01
304.809	61.1
305.023	54.95
305.237	59.05
305.452	44.71
305.666	38.57
305.88	36.52
306.094	20.14
306.308	81.58
306.522	36.52
306.736	71.34
306.95	30.38
307.164	71.34
307.379	-39.25
307.593	118.44
307.807	61.1
308.021	63.15
308.235	48.81
308.449	54.95
308.663	-35.16
308.877	32.43
309.091	-8.53
309.305	-4.44
309.519	-14.68
309.733	61.1
309.947	28.33
310.161	61.1
310.374	13.99
310.588	26.28
310.802	95.91
311.016	95.91
311.23	65.19
311.444	13.99
311.658	61.1
311.872	79.53
312.085	40.62
312.299	79.53
312.513	42.67
312.727	73.39
312.941	-35.16
313.154	87.72
313.368	32.43
313.582	32.43
313.796	5.8
314.009	26.28
314.223	75.43
314.437	73.39
314.651	54.95
314.864	61.1
315.078	34.47
315.292	28.33
315.505	28.33
315.719	75.43
315.933	18.09
316.146	30.38
316.36	-24.92
316.573	108.2
316.787	89.77
317.001	67.24
317.214	-2.39
317.428	114.34
317.641	59.05
317.855	132.78
318.068	42.67
318.282	13.99
318.495	65.19
318.709	77.48
318.922	91.82
319.136	85.67
319.349	44.71
319.563	44.71
319.776	69.29
319.99	11.95
320.203	13.99
320.417	93.87
320.63	38.57
320.843	57
321.057	85.67
321.27	71.34
321.483	71.34
321.697	54.95
321.91	30.38
322.124	79.53
322.337	13.99
322.55	7.85
322.763	63.15
322.977	1.71
323.19	102.06
323.403	30.38
323.617	22.19
323.83	38.57
324.043	30.38
324.256	30.38
324.469	32.43
324.683	89.77
324.896	75.43
325.109	91.82
325.322	-0.34
325.535	46.76
325.748	83.63
325.962	61.1
326.175	63.15
326.388	13.99
326.601	46.76
326.814	102.06
327.027	16.04
327.24	77.48
327.453	54.95
327.666	87.72
327.879	52.91
328.092	30.38
328.305	67.24
328.518	104.11
328.731	11.95
328.944	114.34
329.157	110.25
329.37	61.1
329.583	-8.53
329.796	83.63
330.009	-14.68
330.222	46.76
330.435	95.91
330.648	7.85
330.861	61.1
331.073	63.15
331.286	5.8
331.499	63.15
331.712	1.71
331.925	32.43
332.138	5.8
332.35	110.25
332.563	22.19
332.776	46.76
332.989	22.19
333.202	36.52
333.414	95.91
333.627	54.95
333.84	-55.64
334.053	28.33
334.265	16.04
334.478	36.52
334.691	28.33
334.903	7.85
335.116	34.47
335.329	-4.44
335.541	40.62
335.754	89.77
335.966	110.25
336.179	16.04
336.392	61.1
336.604	36.52
336.817	52.91
337.029	69.29
337.242	108.2
337.454	32.43
337.667	9.9
337.88	77.48
338.092	95.91
338.305	34.47
338.517	22.19
338.729	63.15
338.942	28.33
339.154	71.34
339.367	11.95
339.579	5.8
339.792	-20.82
340.004	65.19
340.217	69.29
340.429	67.24
340.641	89.77
340.854	120.49
341.066	59.05
341.278	77.48
341.491	65.19
341.703	48.81
341.915	32.43
342.128	73.39
342.34	46.76
342.552	67.24
342.764	61.1
342.977	-4.44
343.189	-4.44
343.401	57
343.613	69.29
343.826	50.86
344.038	7.85
344.25	57
344.462	7.85
344.674	63.15
344.886	48.81
345.099	167.59
345.311	77.48
345.523	95.91
345.735	52.91
345.947	112.3
346.159	130.73
346.371	97.96
346.583	36.52
346.795	48.81
347.007	159.4
347.219	77.48
347.431	-12.63
347.643	34.47
347.855	57
348.067	61.1
348.279	52.91
348.491	24.23
348.703	181.93
348.915	30.38
349.127	48.81
349.339	44.71
349.551	79.53
349.763	71.34
349.975	-18.77
350.187	79.53
350.399	40.62
350.61	-14.68
350.822	79.53
351.034	32.43
351.246	89.77
351.458	85.67
351.669	95.91
351.881	65.19
352.093	77.48
352.305	102.06
352.517	32.43
352.728	140.97
352.94	-24.92
353.152	110.25
353.363	13.99
353.575	65.19
353.787	63.15
353.999	75.43
354.21	7.85
354.422	65.19
354.633	7.85
354.845	126.63
355.057	13.99
355.268	73.39
355.48	120.49
355.692	20.14
355.903	32.43
356.115	57
356.326	89.77
356.538	95.91
356.749	3.75
356.961	102.06
357.172	69.29
357.384	85.67
357.595	36.52
357.807	20.14
358.018	69.29
358.23	79.53
358.441	54.95
358.653	44.71
358.864	79.53
359.075	85.67
359.287	-22.87
359.498	40.62
359.709	24.23
359.921	-2.39
360.132	79.53
360.344	75.43
360.555	38.57
360.766	63.15
360.977	81.58
361.189	77.48
361.4	20.14
361.611	130.73
361.823	63.15
362.034	87.72
362.245	38.57
362.456	22.19
362.667	36.52
362.879	102.06
363.09	-10.58
363.301	46.76
363.512	22.19
363.723	54.95
363.935	102.06
364.146	83.63
364.357	40.62
364.568	54.95
364.779	61.1
364.99	69.29
365.201	30.38
365.412	116.39
365.623	44.71
365.834	11.95
366.045	110.25
366.256	67.24
366.467	18.09
366.678	11.95
366.889	26.28
367.1	42.67
367.311	46.76
367.522	77.48
367.733	28.33
367.944	61.1
368.155	57
368.366	20.14
368.577	22.19
368.788	85.67
368.999	22.19
369.209	81.58
369.42	11.95
369.631	143.02
369.842	52.91
370.053	63.15
370.264	61.1
370.474	46.76
370.685	52.91
370.896	110.25
371.107	85.67
371.317	61.1
371.528	122.54
371.739	24.23
371.95	102.06
372.16	22.19
372.371	136.87
372.582	36.52
372.792	97.96
373.003	89.77
373.214	69.29
373.424	95.91
373.635	73.39
373.846	120.49
374.056	71.34
374.267	93.87
374.477	67.24
374.688	112.3
374.898	32.43
375.109	24.23
375.319	13.99
375.53	26.28
375.74	13.99
375.951	44.71
376.161	75.43
376.372	93.87
376.582	30.38
376.793	61.1
377.003	73.39
377.214	87.72
377.424	44.71
377.635	42.67
377.845	32.43
378.055	57
378.266	77.48
378.476	42.67
378.686	89.77
378.897	61.1
379.107	87.72
379.317	65.19
379.528	24.23
379.738	73.39
379.948	81.58
380.158	65.19
380.369	59.05
380.579	48.81
380.789	112.3
380.999	100.01
381.21	61.1
381.42	159.4
381.63	108.2
381.84	118.44
382.05	75.43
382.261	42.67
382.471	34.47
382.681	50.86
382.891	44.71
383.101	38.57
383.311	93.87
383.521	65.19
383.731	110.25
383.941	24.23
384.151	69.29
384.361	93.87
384.571	63.15
384.781	81.58
384.991	89.77
385.201	145.06
385.411	44.71
385.621	61.1
385.831	77.48
386.041	93.87
386.251	57
386.461	75.43
386.671	24.23
386.881	124.58
387.091	122.54
387.301	93.87
387.511	102.06
387.72	69.29
387.93	40.62
388.14	36.52
388.35	63.15
388.56	63.15
388.769	93.87
388.979	44.71
389.189	36.52
389.399	95.91
389.609	124.58
389.818	100.01
390.028	102.06
390.238	102.06
390.447	79.53
390.657	134.82
390.867	40.62
391.076	118.44
391.286	32.43
391.496	110.25
391.705	38.57
391.915	85.67
392.125	85.67
392.334	63.15
392.544	73.39
392.753	118.44
392.963	108.2
393.172	97.96
393.382	75.43
393.591	100.01
393.801	57
394.01	112.3
394.22	112.3
394.429	61.1
394.639	118.44
394.848	77.48
395.058	138.92
395.267	110.25
395.477	102.06
395.686	120.49
395.895	118.44
396.105	100.01
396.314	116.39
396.524	77.48
396.733	57
396.942	102.06
397.152	151.21
397.361	87.72
397.57	138.92
397.78	134.82
397.989	183.98
398.198	110.25
398.407	118.44
398.617	120.49
398.826	97.96
399.035	167.59
399.244	110.25
399.453	122.54
399.663	108.2
399.872	97.96
400.081	106.15
400.29	93.87
400.499	118.44
400.708	34.47
400.917	120.49
401.127	65.19
401.336	167.59
401.545	143.02
401.754	202.41
401.963	196.26
402.172	136.87
402.381	169.64
402.59	153.26
402.799	112.3
403.008	175.78
403.217	161.45
403.426	163.5
403.635	138.92
403.844	220.84
404.053	124.58
404.262	229.03
404.471	210.6
404.68	214.7
404.888	136.87
405.097	114.34
405.306	165.54
405.515	159.4
405.724	241.32
405.933	118.44
406.142	204.46
406.35	233.13
406.559	222.89
406.768	247.46
406.977	249.51
407.185	239.27
407.394	218.79
407.603	216.74
407.812	315.05
408.02	298.66
408.229	218.79
408.438	263.85
408.646	212.65
408.855	249.51
409.064	294.57
409.272	282.28
409.481	274.09
409.69	380.58
409.898	376.48
410.107	327.33
410.315	315.05
410.524	370.34
410.733	308.9
410.941	409.25
411.15	399.01
411.358	317.09
411.567	380.58
411.775	419.49
411.984	396.96
412.192	464.55
412.401	497.32
412.609	468.64
412.818	501.41
413.026	536.23
413.234	622.24
413.443	601.76
413.651	513.7
413.86	626.34
414.068	642.72
414.276	628.39
414.485	677.54
414.693	659.1
414.901	634.53
415.11	732.83
415.318	698.02
415.526	716.45
415.734	831.13
415.943	857.76
416.151	990.88
416.359	874.14
416.567	962.2
416.776	1011.36
416.984	1062.55
417.192	970.4
417.4	1046.17
417.608	994.97
417.817	1121.95
418.025	1175.19
418.233	1210.01
418.441	1285.78
418.649	1275.54
418.857	1359.51
419.065	1246.87
419.273	1425.04
419.481	1445.52
419.689	1466
419.897	1541.78
420.105	1627.79
420.313	1717.9
420.521	1687.18
420.729	1660.56
420.937	1767.06
421.145	1920.65
421.353	1994.38
421.561	1965.71
421.769	2111.11
421.977	2170.51
422.185	2186.89
422.393	2391.69
422.601	2426.5
422.809	2322.06
423.017	2453.13
423.224	2561.67
423.432	2715.27
423.64	2676.35
423.848	2862.72
424.056	2915.97
424.263	2913.92
424.471	3114.62
424.679	3149.43
424.887	3337.85
425.094	3389.05
425.302	3380.86
425.51	3423.86
425.718	3634.8
425.925	3694.19
426.133	3724.91
426.341	3931.76
426.548	4144.75
426.756	4247.15
426.964	4253.29
427.171	4468.33
427.379	4617.83
427.586	4607.59
427.794	4714.08
428.001	4949.6
428.209	5066.33
428.417	5076.57
428.624	5410.39
428.832	5490.26
429.039	5502.55
429.247	5465.69
429.454	6129.23
429.662	6301.26
429.869	6002.26
430.076	6426.18
430.284	6159.95
430.491	6377.03
430.699	6749.76
430.906	6913.6
431.114	6987.33
431.321	7108.16
431.528	7358.01
431.736	7851.57
431.943	8117.81
432.15	7773.75
432.358	8123.95
432.565	8519.21
432.772	8304.17
432.979	8887.84
433.187	9115.17
433.394	9094.69
433.601	9688.6
433.808	9567.77
434.016	9604.63
434.223	10010.13
434.43	10595.85
434.637	10577.42
434.844	10796.55
435.052	11171.33
435.259	11236.86
435.466	11152.9
435.673	11204.1
435.88	11869.69
436.087	12449.26
436.294	12348.91
436.501	12117.49
436.708	12594.67
436.915	13084.13
437.122	13520.35
437.329	13426.14
437.537	13671.9
437.743	14296.53
437.95	14001.62
438.157	14802.38
438.364	15150.53
438.571	14890.44
438.778	15234.5
438.985	16680.36
439.192	15586.75
439.399	16332.21
439.606	16151.99
439.813	16956.84
440.02	17964.44
440.227	17845.66
440.433	17395.11
440.64	18206.1
440.847	18165.14
441.054	18535.82
441.261	19678.59
441.467	19572.1
441.674	19946.87
441.881	20727.15
442.088	20426.1
442.294	20442.48
442.501	20714.86
442.708	21187.94
442.914	22060.38
443.121	23106.89
443.328	22549.84
443.534	23747.9
443.741	23244.1
443.948	22893.9
444.154	24950.06
444.361	24409.4
444.568	24851.76
444.774	24583.48
444.981	24646.96
445.187	25627.94
445.394	26955.02
445.6	26236.19
445.807	28972.27
446.013	27620.61
446.22	28112.13
446.426	29187.31
446.633	29713.64
446.839	30375.13
447.046	29279.47
447.252	31012.05
447.459	30981.33
447.665	30512.35
447.871	31843.52
448.078	33311.92
448.284	31950.02
448.491	32773.3
448.697	34165.92
448.903	34444.45
449.11	34655.39
449.316	34319.52
449.522	34692.25
449.728	35589.26
449.935	35755.15
450.141	35826.82
450.347	36590.72
450.553	35708.04
450.76	35996.81
450.966	37215.35
451.172	36574.33
451.378	37649.52
451.584	36850.81
451.791	37837.93
451.997	37461.1
452.203	38124.64
452.409	38569.05
452.615	38149.22
452.821	36729.98
453.027	36134.02
453.233	37760.11
453.44	36590.72
453.646	37106.8
453.852	37225.59
454.058	37676.14
454.264	36576.38
454.47	37534.83
454.676	36365.44
454.882	37833.83
455.088	34448.54
455.294	34751.64
455.5	35275.92
455.705	36076.68
455.911	34352.29
456.117	33711.27
456.323	33123.51
456.529	31806.66
456.735	33166.51
456.941	31710.41
457.147	31630.54
457.352	30321.88
457.558	30141.66
457.764	30244.06
457.97	29623.53
458.176	29242.6
458.381	29117.68
458.587	27563.27
458.793	27979.01
458.999	26273.05
459.204	28425.46
459.41	27370.76
459.616	25378.09
459.821	25625.89
460.027	25353.51
460.233	25027.88
460.438	23770.43
460.644	24255.8
460.85	22902.09
461.055	22582.61
461.261	22469.97
461.466	20858.22
461.672	19942.78
461.878	21349.73
462.083	20561.26
462.289	19901.82
462.494	19737.98
462.7	18908.55
462.905	18251.16
463.111	18939.27
463.316	19109.26
463.522	18417.04
463.727	18554.26
463.932	18611.6
464.138	18025.88
464.343	18525.58
464.549	17952.15
464.754	18595.21
464.959	18032.02
465.165	18222.48
465.37	17712.54
465.575	17087.91
465.781	17421.73
465.986	17661.34
466.191	17317.28
466.397	16856.49
466.602	16004.53
466.807	16764.33
467.012	16498.09
467.218	16571.82
467.423	16301.49
467.628	16442.8
467.833	17182.12
