Data from USB4F104151__40__13-53-14-579.txt Node

Date: Thu Mar 13 13:53:14 EDT 2025
User: louis
Spectrometer: USB4F10415
Trigger mode: 4
Integration Time (sec): 1.000000E-2
Scans to average: 1
Electric dark correction enabled: true
Nonlinearity correction enabled: false
Boxcar width: 0
XAxis mode: Wavelengths
Number of Pixels in Spectrum: 3648
>>>>>Begin Spectral Data<<<<<
178.204	3.41
178.424	3.41
178.644	3.41
178.864	17.75
179.084	-47.79
179.304	-33.45
179.524	-4.78
179.744	34.13
179.964	13.65
180.184	3.41
180.404	-8.87
180.624	30.04
180.844	25.94
181.064	-62.12
181.283	-12.97
181.503	1.37
181.723	13.65
181.943	9.56
182.163	1.37
182.383	27.99
182.602	11.61
182.822	9.56
183.042	52.56
183.262	-10.92
183.482	48.47
183.701	-23.21
183.921	54.61
184.141	34.13
184.361	-8.87
184.58	-35.5
184.8	34.13
185.02	17.75
185.239	87.38
185.459	15.7
185.679	-2.73
185.898	-47.79
186.118	62.8
186.338	13.65
186.557	50.52
186.777	-33.45
186.997	-19.11
187.216	34.13
187.436	-6.83
187.655	-27.31
187.875	77.14
188.095	34.13
188.314	-27.31
188.534	36.18
188.753	-53.93
188.973	7.51
189.192	9.56
189.412	-21.16
189.631	38.23
189.851	46.42
190.07	17.75
190.29	54.61
190.509	62.8
190.729	46.42
190.948	97.62
191.168	-6.83
191.387	58.71
191.607	-8.87
191.826	-25.26
192.045	-2.73
192.265	1.37
192.484	-2.73
192.704	25.94
192.923	3.41
193.142	-37.55
193.362	40.28
193.581	56.66
193.8	34.13
194.02	52.56
194.239	50.52
194.458	75.09
194.678	46.42
194.897	-41.64
195.116	32.08
195.335	9.56
195.555	-23.21
195.774	85.33
195.993	89.43
196.212	32.08
196.432	40.28
196.651	21.84
196.87	-49.83
197.089	19.8
197.308	7.51
197.528	40.28
197.747	-2.73
197.966	-39.59
198.185	1.37
198.404	68.95
198.623	-17.07
198.842	42.32
199.062	58.71
199.281	103.76
199.5	-17.07
199.719	68.95
199.938	5.46
200.157	52.56
200.376	21.84
200.595	38.23
200.814	-0.68
201.033	-12.97
201.252	-43.69
201.471	1.37
201.69	-31.4
201.909	5.46
202.128	46.42
202.347	40.28
202.566	50.52
202.785	68.95
203.004	-4.78
203.223	3.41
203.442	9.56
203.661	-6.83
203.879	3.41
204.098	36.18
204.317	13.65
204.536	25.94
204.755	23.89
204.974	95.57
205.193	17.75
205.411	7.51
205.63	103.76
205.849	44.37
206.068	-25.26
206.287	60.76
206.505	13.65
206.724	21.84
206.943	34.13
207.162	30.04
207.381	32.08
207.599	-25.26
207.818	54.61
208.037	27.99
208.255	34.13
208.474	40.28
208.693	21.84
208.911	21.84
209.13	13.65
209.349	32.08
209.567	38.23
209.786	56.66
210.005	77.14
210.223	3.41
210.442	-10.92
210.661	62.8
210.879	40.28
211.098	-15.02
211.316	7.51
211.535	103.76
211.753	-82.6
211.972	52.56
212.191	1.37
212.409	11.61
212.628	7.51
212.846	32.08
213.065	71
213.283	81.24
213.502	23.89
213.72	40.28
213.938	7.51
214.157	30.04
214.375	23.89
214.594	58.71
214.812	-10.92
215.031	-15.02
215.249	34.13
215.467	-4.78
215.686	-29.35
215.904	44.37
216.122	48.47
216.341	23.89
216.559	48.47
216.778	58.71
216.996	-21.16
217.214	36.18
217.432	25.94
217.651	3.41
217.869	-21.16
218.087	19.8
218.306	50.52
218.524	93.52
218.742	71
218.96	75.09
219.179	-29.35
219.397	-25.26
219.615	56.66
219.833	19.8
220.051	-62.12
220.27	7.51
220.488	56.66
220.706	30.04
220.924	101.72
221.142	25.94
221.36	-10.92
221.578	7.51
221.796	48.47
222.015	9.56
222.233	21.84
222.451	64.85
222.669	-21.16
222.887	27.99
223.105	-31.4
223.323	42.32
223.541	64.85
223.759	25.94
223.977	-35.5
224.195	46.42
224.413	36.18
224.631	15.7
224.849	64.85
225.067	38.23
225.285	-19.11
225.503	15.7
225.721	13.65
225.939	30.04
226.157	68.95
226.375	111.96
226.592	11.61
226.81	56.66
227.028	79.19
227.246	58.71
227.464	3.41
227.682	64.85
227.9	68.95
228.117	64.85
228.335	17.75
228.553	32.08
228.771	-4.78
228.989	11.61
229.206	54.61
229.424	95.57
229.642	71
229.86	64.85
230.077	25.94
230.295	58.71
230.513	64.85
230.731	15.7
230.948	38.23
231.166	-12.97
231.384	44.37
231.601	-2.73
231.819	44.37
232.037	19.8
232.254	46.42
232.472	-6.83
232.689	-49.83
232.907	-25.26
233.125	-25.26
233.342	17.75
233.56	3.41
233.777	25.94
233.995	99.67
234.213	-8.87
234.43	-4.78
234.648	7.51
234.865	36.18
235.083	9.56
235.3	-15.02
235.518	-0.68
235.735	38.23
235.953	-10.92
236.17	-4.78
236.388	56.66
236.605	-23.21
236.822	83.28
237.04	19.8
237.257	48.47
237.475	42.32
237.692	58.71
237.909	81.24
238.127	52.56
238.344	56.66
238.562	40.28
238.779	95.57
238.996	25.94
239.214	11.61
239.431	52.56
239.648	5.46
239.865	64.85
240.083	40.28
240.3	56.66
240.517	44.37
240.735	-33.45
240.952	5.46
241.169	-31.4
241.386	-53.93
241.603	27.99
241.821	23.89
242.038	-4.78
242.255	5.46
242.472	97.62
242.689	73.04
242.907	-12.97
243.124	40.28
243.341	-2.73
243.558	-19.11
243.775	-6.83
243.992	-29.35
244.209	-15.02
244.426	66.9
244.643	56.66
244.86	38.23
245.078	40.28
245.295	52.56
245.512	71
245.729	-21.16
245.946	-2.73
246.163	126.29
246.38	40.28
246.597	7.51
246.814	15.7
247.031	50.52
247.248	60.76
247.464	52.56
247.681	17.75
247.898	-47.79
248.115	-23.21
248.332	-8.87
248.549	30.04
248.766	48.47
248.983	44.37
249.2	13.65
249.417	79.19
249.633	17.75
249.85	32.08
250.067	-27.31
250.284	-37.55
250.501	-12.97
250.717	40.28
250.934	-31.4
251.151	56.66
251.368	46.42
251.585	40.28
251.801	81.24
252.018	40.28
252.235	42.32
252.451	64.85
252.668	52.56
252.885	-4.78
253.102	27.99
253.318	3.41
253.535	-17.07
253.752	27.99
253.968	-25.26
254.185	52.56
254.401	32.08
254.618	5.46
254.835	32.08
255.051	52.56
255.268	109.91
255.484	52.56
255.701	46.42
255.917	97.62
256.134	17.75
256.351	21.84
256.567	-12.97
256.784	-0.68
257	87.38
257.217	-2.73
257.433	15.7
257.65	60.76
257.866	-0.68
258.082	68.95
258.299	-10.92
258.515	64.85
258.732	3.41
258.948	54.61
259.165	52.56
259.381	60.76
259.597	50.52
259.814	83.28
260.03	38.23
260.246	42.32
260.463	5.46
260.679	62.8
260.895	3.41
261.112	15.7
261.328	30.04
261.544	-0.68
261.761	68.95
261.977	38.23
262.193	-21.16
262.409	13.65
262.626	19.8
262.842	44.37
263.058	34.13
263.274	36.18
263.49	-8.87
263.707	40.28
263.923	23.89
264.139	50.52
264.355	46.42
264.571	60.76
264.787	71
265.004	62.8
265.22	25.94
265.436	1.37
265.652	23.89
265.868	83.28
266.084	27.99
266.3	-23.21
266.516	11.61
266.732	44.37
266.948	-47.79
267.164	68.95
267.38	-45.74
267.596	42.32
267.812	36.18
268.028	56.66
268.244	77.14
268.46	40.28
268.676	-62.12
268.892	17.75
269.108	1.37
269.324	66.9
269.54	58.71
269.756	27.99
269.972	1.37
270.188	11.61
270.403	97.62
270.619	77.14
270.835	30.04
271.051	87.38
271.267	23.89
271.483	38.23
271.698	-8.87
271.914	-8.87
272.13	30.04
272.346	114
272.562	40.28
272.777	60.76
272.993	89.43
273.209	93.52
273.425	-21.16
273.64	9.56
273.856	111.96
274.072	23.89
274.287	85.33
274.503	21.84
274.719	-8.87
274.934	50.52
275.15	5.46
275.366	-21.16
275.581	60.76
275.797	44.37
276.012	58.71
276.228	-35.5
276.444	44.37
276.659	34.13
276.875	5.46
277.09	-0.68
277.306	62.8
277.521	25.94
277.737	7.51
277.952	68.95
278.168	19.8
278.383	52.56
278.599	9.56
278.814	142.68
279.03	48.47
279.245	62.8
279.461	79.19
279.676	3.41
279.892	-10.92
280.107	95.57
280.322	114
280.538	-0.68
280.753	66.9
280.969	-29.35
281.184	15.7
281.399	27.99
281.615	-4.78
281.83	27.99
282.045	-43.69
282.26	-2.73
282.476	5.46
282.691	9.56
282.906	1.37
283.122	91.48
283.337	-6.83
283.552	95.57
283.767	42.32
283.983	75.09
284.198	56.66
284.413	32.08
284.628	25.94
284.843	25.94
285.058	-4.78
285.274	40.28
285.489	3.41
285.704	-15.02
285.919	15.7
286.134	-2.73
286.349	9.56
286.564	42.32
286.779	27.99
286.995	-0.68
287.21	-15.02
287.425	7.51
287.64	11.61
287.855	38.23
288.07	46.42
288.285	-86.7
288.5	36.18
288.715	68.95
288.93	87.38
289.145	54.61
289.36	25.94
289.575	32.08
289.79	23.89
290.004	30.04
290.219	1.37
290.434	95.57
290.649	19.8
290.864	44.37
291.079	-49.83
291.294	46.42
291.509	38.23
291.724	5.46
291.938	46.42
292.153	54.61
292.368	11.61
292.583	23.89
292.798	5.46
293.012	124.24
293.227	89.43
293.442	64.85
293.657	60.76
293.871	79.19
294.086	23.89
294.301	95.57
294.516	13.65
294.73	42.32
294.945	48.47
295.16	17.75
295.374	91.48
295.589	73.04
295.804	54.61
296.018	73.04
296.233	21.84
296.447	75.09
296.662	-19.11
296.877	48.47
297.091	-41.64
297.306	71
297.52	38.23
297.735	50.52
297.949	34.13
298.164	-2.73
298.378	-8.87
298.593	21.84
298.807	40.28
299.022	85.33
299.236	-17.07
299.451	1.37
299.665	40.28
299.88	3.41
300.094	32.08
300.309	56.66
300.523	42.32
300.737	89.43
300.952	-49.83
301.166	97.62
301.381	17.75
301.595	50.52
301.809	58.71
302.024	56.66
302.238	15.7
302.452	-19.11
302.667	60.76
302.881	-19.11
303.095	46.42
303.309	-23.21
303.524	-17.07
303.738	-72.36
303.952	5.46
304.166	-23.21
304.381	23.89
304.595	103.76
304.809	15.7
305.023	19.8
305.237	71
305.452	60.76
305.666	46.42
305.88	32.08
306.094	50.52
306.308	97.62
306.522	99.67
306.736	-15.02
306.95	60.76
307.164	-0.68
307.379	62.8
307.593	120.15
307.807	23.89
308.021	46.42
308.235	25.94
308.449	-25.26
308.663	-15.02
308.877	101.72
309.091	30.04
309.305	93.52
309.519	44.37
309.733	66.9
309.947	30.04
310.161	44.37
310.374	15.7
310.588	-2.73
310.802	5.46
311.016	15.7
311.23	58.71
311.444	-0.68
311.658	44.37
311.872	38.23
312.085	64.85
312.299	58.71
312.513	66.9
312.727	-0.68
312.941	87.38
313.154	60.76
313.368	79.19
313.582	42.32
313.796	13.65
314.009	34.13
314.223	46.42
314.437	75.09
314.651	-0.68
314.864	48.47
315.078	-23.21
315.292	27.99
315.505	111.96
315.719	103.76
315.933	-43.69
316.146	5.46
316.36	36.18
316.573	23.89
316.787	34.13
317.001	64.85
317.214	23.89
317.428	97.62
317.641	85.33
317.855	5.46
318.068	48.47
318.282	42.32
318.495	-21.16
318.709	34.13
318.922	75.09
319.136	50.52
319.349	-21.16
319.563	42.32
319.776	87.38
319.99	48.47
320.203	25.94
320.417	11.61
320.63	3.41
320.843	118.1
321.057	52.56
321.27	-2.73
321.483	42.32
321.697	56.66
321.91	17.75
322.124	-31.4
322.337	32.08
322.55	-23.21
322.763	19.8
322.977	9.56
323.19	42.32
323.403	27.99
323.617	30.04
323.83	27.99
324.043	-17.07
324.256	58.71
324.469	52.56
324.683	93.52
324.896	30.04
325.109	40.28
325.322	-10.92
325.535	13.65
325.748	46.42
325.962	81.24
326.175	21.84
326.388	32.08
326.601	44.37
326.814	17.75
327.027	1.37
327.24	87.38
327.453	-23.21
327.666	64.85
327.879	66.9
328.092	66.9
328.305	-4.78
328.518	68.95
328.731	44.37
328.944	109.91
329.157	58.71
329.37	9.56
329.583	68.95
329.796	27.99
330.009	93.52
330.222	23.89
330.435	79.19
330.648	68.95
330.861	42.32
331.073	46.42
331.286	36.18
331.499	62.8
331.712	58.71
331.925	34.13
332.138	40.28
332.35	60.76
332.563	-10.92
332.776	30.04
332.989	23.89
333.202	13.65
333.414	52.56
333.627	-8.87
333.84	3.41
334.053	116.05
334.265	19.8
334.478	40.28
334.691	58.71
334.903	85.33
335.116	68.95
335.329	30.04
335.541	25.94
335.754	66.9
335.966	-19.11
336.179	30.04
336.392	64.85
336.604	40.28
336.817	46.42
337.029	42.32
337.242	7.51
337.454	50.52
337.667	7.51
337.88	48.47
338.092	-17.07
338.305	58.71
338.517	13.65
338.729	34.13
338.942	66.9
339.154	30.04
339.367	46.42
339.579	-17.07
339.792	13.65
340.004	-0.68
340.217	27.99
340.429	42.32
340.641	-0.68
340.854	-23.21
341.066	30.04
341.278	25.94
341.491	50.52
341.703	99.67
341.915	-62.12
342.128	81.24
342.34	17.75
342.552	54.61
342.764	-0.68
342.977	46.42
343.189	54.61
343.401	30.04
343.613	-0.68
343.826	-19.11
344.038	-27.31
344.25	64.85
344.462	73.04
344.674	40.28
344.886	1.37
345.099	48.47
345.311	19.8
345.523	42.32
345.735	-15.02
345.947	38.23
346.159	-49.83
346.371	5.46
346.583	-45.74
346.795	107.86
347.007	15.7
347.219	81.24
347.431	13.65
347.643	73.04
347.855	38.23
348.067	27.99
348.279	75.09
348.491	-19.11
348.703	17.75
348.915	50.52
349.127	11.61
349.339	58.71
349.551	52.56
349.763	9.56
349.975	46.42
350.187	75.09
350.399	44.37
350.61	58.71
350.822	60.76
351.034	36.18
351.246	30.04
351.458	36.18
351.669	32.08
351.881	77.14
352.093	56.66
352.305	118.1
352.517	91.48
352.728	54.61
352.94	34.13
353.152	9.56
353.363	-21.16
353.575	68.95
353.787	89.43
353.999	111.96
354.21	48.47
354.422	64.85
354.633	40.28
354.845	-6.83
355.057	25.94
355.268	7.51
355.48	83.28
355.692	36.18
355.903	27.99
356.115	64.85
356.326	13.65
356.538	118.1
356.749	9.56
356.961	38.23
357.172	64.85
357.384	-0.68
357.595	44.37
357.807	-10.92
358.018	-37.55
358.23	32.08
358.441	89.43
358.653	52.56
358.864	62.8
359.075	68.95
359.287	44.37
359.498	77.14
359.709	52.56
359.921	58.71
360.132	75.09
360.344	15.7
360.555	56.66
360.766	105.81
360.977	34.13
361.189	32.08
361.4	25.94
361.611	85.33
361.823	66.9
362.034	36.18
362.245	60.76
362.456	64.85
362.667	15.7
362.879	3.41
363.09	40.28
363.301	-15.02
363.512	-0.68
363.723	40.28
363.935	38.23
364.146	56.66
364.357	-4.78
364.568	87.38
364.779	111.96
364.99	89.43
365.201	32.08
365.412	25.94
365.623	79.19
365.834	34.13
366.045	5.46
366.256	56.66
366.467	11.61
366.678	42.32
366.889	19.8
367.1	19.8
367.311	36.18
367.522	50.52
367.733	81.24
367.944	73.04
368.155	7.51
368.366	36.18
368.577	7.51
368.788	75.09
368.999	46.42
369.209	46.42
369.42	122.2
369.631	128.34
369.842	27.99
370.053	27.99
370.264	50.52
370.474	-4.78
370.685	15.7
370.896	87.38
371.107	9.56
371.317	-4.78
371.528	27.99
371.739	71
371.95	62.8
372.16	101.72
372.371	50.52
372.582	23.89
372.792	97.62
373.003	77.14
373.214	99.67
373.424	3.41
373.635	-25.26
373.846	111.96
374.056	56.66
374.267	42.32
374.477	132.44
374.688	13.65
374.898	64.85
375.109	44.37
375.319	-29.35
375.53	118.1
375.74	62.8
375.951	73.04
376.161	91.48
376.372	101.72
376.582	38.23
376.793	52.56
377.003	13.65
377.214	54.61
377.424	42.32
377.635	87.38
377.845	-66.22
378.055	19.8
378.266	46.42
378.476	79.19
378.686	52.56
378.897	75.09
379.107	13.65
379.317	-4.78
379.528	68.95
379.738	-19.11
379.948	42.32
380.158	52.56
380.369	73.04
380.579	56.66
380.789	23.89
380.999	81.24
381.21	15.7
381.42	42.32
381.63	36.18
381.84	58.71
382.05	38.23
382.261	71
382.471	62.8
382.681	130.39
382.891	101.72
383.101	30.04
383.311	1.37
383.521	50.52
383.731	71
383.941	19.8
384.151	42.32
384.361	42.32
384.571	71
384.781	101.72
384.991	68.95
385.201	60.76
385.411	25.94
385.621	89.43
385.831	75.09
386.041	66.9
386.251	9.56
386.461	56.66
386.671	89.43
386.881	32.08
387.091	85.33
387.301	36.18
387.511	-31.4
387.72	54.61
387.93	40.28
388.14	-12.97
388.35	81.24
388.56	36.18
388.769	66.9
388.979	62.8
389.189	87.38
389.399	62.8
389.609	-15.02
389.818	114
390.028	-25.26
390.238	79.19
390.447	46.42
390.657	132.44
390.867	15.7
391.076	95.57
391.286	36.18
391.496	95.57
391.705	48.47
391.915	44.37
392.125	30.04
392.334	101.72
392.544	21.84
392.753	66.9
392.963	17.75
393.172	68.95
393.382	58.71
393.591	23.89
393.801	58.71
394.01	68.95
394.22	46.42
394.429	73.04
394.639	97.62
394.848	48.47
395.058	111.96
395.267	-4.78
395.477	11.61
395.686	40.28
395.895	93.52
396.105	75.09
396.314	124.24
396.524	34.13
396.733	79.19
396.942	124.24
397.152	101.72
397.361	105.81
397.57	38.23
397.78	54.61
397.989	81.24
398.198	124.24
398.407	5.46
398.617	91.48
398.826	54.61
399.035	23.89
399.244	77.14
399.453	42.32
399.663	48.47
399.872	71
400.081	27.99
400.29	132.44
400.499	50.52
400.708	93.52
400.917	52.56
401.127	62.8
401.336	161.11
401.545	73.04
401.754	95.57
401.963	111.96
402.172	36.18
402.381	71
402.59	163.15
402.799	34.13
403.008	44.37
403.217	116.05
403.426	62.8
403.635	101.72
403.844	152.91
404.053	116.05
404.262	64.85
404.471	79.19
404.68	157.01
404.888	89.43
405.097	46.42
405.306	130.39
405.515	126.29
405.724	111.96
405.933	56.66
406.142	167.25
406.35	81.24
406.559	167.25
406.768	146.77
406.977	144.72
407.185	132.44
407.394	146.77
407.603	146.77
407.812	173.39
408.02	197.97
408.229	150.87
408.438	165.2
408.646	177.49
408.855	187.73
409.064	187.73
409.272	249.17
409.481	232.79
409.69	300.37
409.898	200.02
410.107	126.29
410.315	281.94
410.524	222.55
410.733	240.98
410.941	220.5
411.15	208.21
411.358	277.84
411.567	288.08
411.775	308.56
411.984	275.79
412.192	302.42
412.401	222.55
412.609	339.28
412.818	269.65
413.026	449.87
413.234	347.47
413.443	378.19
413.651	281.94
413.86	310.61
414.068	388.43
414.276	406.86
414.485	421.2
414.693	478.54
414.901	439.63
415.11	429.39
415.318	462.16
415.526	380.24
415.734	486.73
415.943	458.06
416.151	494.93
416.359	505.17
416.567	507.21
416.776	566.6
416.984	617.8
417.192	640.33
417.4	646.48
417.608	644.43
417.817	699.72
418.025	734.54
418.233	830.79
418.441	773.45
418.649	812.36
418.857	865.61
419.065	916.81
419.273	826.7
419.481	859.46
419.689	912.71
419.897	931.14
420.105	922.95
420.313	1058.12
420.521	998.73
420.729	1135.94
420.937	1123.65
421.145	1240.39
421.353	1133.89
421.561	1279.3
421.769	1310.02
421.977	1293.63
422.185	1291.59
422.393	1267.01
422.601	1492.29
422.809	1594.68
423.017	1449.28
423.224	1586.49
423.432	1502.53
423.64	1592.64
423.848	1731.9
424.056	1670.46
424.263	1893.69
424.471	1858.87
424.679	1879.35
424.887	2035
425.094	2098.49
425.302	2065.72
425.51	2069.81
425.718	2325.81
425.925	2196.79
426.133	2331.95
426.341	2426.16
426.548	2598.19
426.756	2514.22
426.964	2598.19
427.171	2762.03
427.379	2831.66
427.586	2833.71
427.794	2919.72
428.001	2977.06
428.209	3204.39
428.417	3159.33
428.624	3278.12
428.832	3425.57
429.039	3337.51
429.247	3321.12
429.454	3554.59
429.662	4044.06
429.869	3595.55
430.076	3757.34
430.284	3810.59
430.491	3925.27
430.699	4160.79
430.906	3933.47
431.114	4312.34
431.321	4347.15
431.528	4508.94
431.736	4689.17
431.943	5020.94
432.15	4732.17
432.358	4877.58
432.565	5246.21
432.772	5143.81
432.979	5444.87
433.187	5418.24
433.394	5369.09
433.601	5911.8
433.808	5924.09
434.016	5954.81
434.223	5952.76
434.43	6495.47
434.637	6204.66
434.844	6755.57
435.052	6798.57
435.259	6868.2
435.466	6845.68
435.673	6800.62
435.88	7296.23
436.087	7736.54
436.294	7632.1
436.501	7722.21
436.708	7591.14
436.915	7972.06
437.122	8326.36
437.329	8441.04
437.537	8342.74
437.743	8475.86
437.95	8637.65
438.157	8985.8
438.364	9045.2
438.571	9096.39
438.778	9479.36
438.985	10079.42
439.192	9798.85
439.399	10036.41
439.606	9944.25
439.813	10478.77
440.02	11166.89
440.227	10962.09
440.433	10669.23
440.64	11125.93
440.847	10996.91
441.054	11424.93
441.261	12065.95
441.467	11852.96
441.674	12371.1
441.881	12522.65
442.088	12594.33
442.294	12588.18
442.501	12815.51
442.708	12962.96
442.914	13581.45
443.121	14050.43
443.328	13831.3
443.534	14771.32
443.741	14384.25
443.948	14156.93
444.154	15283.31
444.361	15123.57
444.568	15131.76
444.774	15432.81
444.981	15252.59
445.187	15846.5
445.394	16436.31
445.6	16217.18
445.807	17781.83
446.013	16893.01
446.22	17255.5
446.426	18060.35
446.633	18228.29
446.839	18641.98
447.046	18125.89
447.252	19033.14
447.459	19020.85
447.665	18943.03
447.871	19881
448.078	20642.84
448.284	19465.26
448.491	20126.75
448.697	20859.93
448.903	21330.96
449.11	20995.09
449.316	21103.64
449.522	21302.29
449.728	21883.91
449.935	22197.25
450.141	22057.99
450.347	22821.88
450.553	21785.61
450.76	22203.39
450.966	22707.19
451.172	22719.48
451.378	23211
451.584	22526.97
451.791	22950.9
451.997	23284.72
452.203	23765.99
452.409	23217.14
452.615	23133.17
452.821	22594.56
453.027	22178.82
453.233	23411.7
453.44	22242.31
453.646	22733.82
453.852	22840.31
454.058	22942.71
454.264	22348.8
454.47	23022.58
454.676	22455.29
454.882	23129.08
455.088	20904.98
455.294	21201.94
455.5	21486.61
455.705	21756.94
455.911	20812.82
456.117	20737.05
456.323	20446.24
456.529	19092.53
456.735	20093.99
456.941	19510.32
457.147	19199.02
457.352	18615.35
457.558	18306.11
457.764	18314.3
457.97	18068.55
458.176	17454.15
458.381	17523.79
458.587	16589.91
458.793	16718.93
458.999	15793.25
459.204	17040.47
459.41	16776.28
459.616	15275.12
459.821	15488.1
460.027	15529.06
460.233	14881.91
460.438	14206.08
460.644	14599.29
460.85	13962.37
461.055	13857.92
461.261	13556.87
461.466	12645.52
461.672	12076.19
461.878	13175.95
462.083	12297.37
462.289	11805.86
462.494	11967.65
462.7	11396.26
462.905	11095.21
463.111	11582.63
463.316	11420.84
463.522	11259.05
463.727	11320.49
463.932	11281.58
464.138	11084.97
464.343	11222.19
464.549	10855.6
464.754	11373.74
464.959	11250.86
465.165	10986.67
465.37	10620.08
465.575	10398.9
465.781	10716.34
465.986	10908.85
466.191	10368.18
466.397	10349.75
466.602	9680.07
466.807	10079.42
467.012	10044.6
467.218	10097.85
467.423	9776.32
467.628	9903.29
467.833	10235.07
468.038	9979.07
468.244	9555.14
468.449	10038.46
468.654	9714.88
468.859	9776.32
469.064	9708.74
469.269	9331.91
