Data from USB4F104151__283__14-02-30-038.txt Node

Date: Thu Mar 13 14:02:30 EDT 2025
User: louis
Spectrometer: USB4F10415
Trigger mode: 4
Integration Time (sec): 1.000000E-2
Scans to average: 1
Electric dark correction enabled: true
Nonlinearity correction enabled: false
Boxcar width: 0
XAxis mode: Wavelengths
Number of Pixels in Spectrum: 3648
>>>>>Begin Spectral Data<<<<<
178.204	-70.65
178.424	-70.65
178.644	-70.65
178.864	-23.55
179.084	-13.31
179.304	17.41
179.524	-54.27
179.744	-115.71
179.964	33.79
180.184	17.41
180.404	-3.07
180.624	-37.89
180.844	37.89
181.064	-15.36
181.283	3.07
181.503	13.31
181.723	103.42
181.943	17.41
182.163	27.65
182.383	-5.12
182.602	-13.31
182.822	33.79
183.042	7.17
183.262	25.6
183.482	-48.13
183.701	46.08
183.921	-1.02
184.141	35.84
184.361	-29.7
184.58	37.89
184.8	25.6
185.02	-33.79
185.239	9.22
185.459	44.03
185.679	27.65
185.898	-29.7
186.118	15.36
186.338	1.02
186.557	19.46
186.777	9.22
186.997	-11.26
187.216	11.26
187.436	62.46
187.655	25.6
187.875	9.22
188.095	37.89
188.314	15.36
188.534	-9.22
188.753	31.74
188.973	11.26
189.192	27.65
189.412	27.65
189.631	-50.18
189.851	19.46
190.07	66.56
190.29	-7.17
190.509	-48.13
190.729	17.41
190.948	84.99
191.168	66.56
191.387	72.7
191.607	23.55
191.826	11.26
192.045	-37.89
192.265	-31.74
192.484	11.26
192.704	37.89
192.923	-48.13
193.142	-9.22
193.362	-35.84
193.581	19.46
193.8	44.03
194.02	41.98
194.239	-5.12
194.458	46.08
194.678	29.7
194.897	15.36
195.116	87.04
195.335	39.94
195.555	33.79
195.774	9.22
195.993	46.08
196.212	60.42
196.432	39.94
196.651	-56.32
196.87	-29.7
197.089	17.41
197.308	80.89
197.528	33.79
197.747	1.02
197.966	-23.55
198.185	25.6
198.404	52.22
198.623	76.8
198.842	-3.07
199.062	41.98
199.281	115.71
199.5	3.07
199.719	52.22
199.938	-3.07
200.157	74.75
200.376	-27.65
200.595	41.98
200.814	13.31
201.033	-11.26
201.252	44.03
201.471	50.18
201.69	41.98
201.909	-9.22
202.128	-101.37
202.347	25.6
202.566	99.33
202.785	-15.36
203.004	-70.65
203.223	29.7
203.442	17.41
203.661	33.79
203.879	-19.46
204.098	46.08
204.317	-48.13
204.536	27.65
204.755	1.02
204.974	-64.51
205.193	33.79
205.411	11.26
205.63	25.6
205.849	-44.03
206.068	21.5
206.287	-11.26
206.505	19.46
206.724	17.41
206.943	27.65
207.162	-7.17
207.381	41.98
207.599	33.79
207.818	72.7
208.037	-23.55
208.255	54.27
208.474	-15.36
208.693	5.12
208.911	-19.46
209.13	23.55
209.349	37.89
209.567	11.26
209.786	23.55
210.005	-46.08
210.223	31.74
210.442	1.02
210.661	3.07
210.879	44.03
211.098	17.41
211.316	41.98
211.535	-9.22
211.753	-5.12
211.972	7.17
212.191	84.99
212.409	-19.46
212.628	-9.22
212.846	-50.18
213.065	52.22
213.283	87.04
213.502	1.02
213.72	-37.89
213.938	37.89
214.157	-17.41
214.375	82.94
214.594	72.7
214.812	17.41
215.031	27.65
215.249	17.41
215.467	-5.12
215.686	-11.26
215.904	70.65
216.122	21.5
216.341	56.32
216.559	1.02
216.778	58.37
216.996	44.03
217.214	-13.31
217.432	-21.5
217.651	56.32
217.869	82.94
218.087	13.31
218.306	21.5
218.524	41.98
218.742	-37.89
218.96	9.22
219.179	41.98
219.397	-19.46
219.615	-33.79
219.833	11.26
220.051	50.18
220.27	54.27
220.488	3.07
220.706	5.12
220.924	37.89
221.142	15.36
221.36	25.6
221.578	41.98
221.796	-54.27
222.015	41.98
222.233	-7.17
222.451	-17.41
222.669	-76.8
222.887	-54.27
223.105	31.74
223.323	35.84
223.541	3.07
223.759	1.02
223.977	-62.46
224.195	21.5
224.413	35.84
224.631	37.89
224.849	46.08
225.067	46.08
225.285	-39.94
225.503	-23.55
225.721	-13.31
225.939	-19.46
226.157	23.55
226.375	58.37
226.592	-29.7
226.81	-13.31
227.028	70.65
227.246	48.13
227.464	68.61
227.682	44.03
227.9	-5.12
228.117	64.51
228.335	-9.22
228.553	21.5
228.771	-1.02
228.989	50.18
229.206	1.02
229.424	58.37
229.642	82.94
229.86	-9.22
230.077	33.79
230.295	17.41
230.513	41.98
230.731	70.65
230.948	74.75
231.166	21.5
231.384	-5.12
231.601	1.02
231.819	56.32
232.037	17.41
232.254	21.5
232.472	-31.74
232.689	13.31
232.907	91.13
233.125	27.65
233.342	50.18
233.56	-60.42
233.777	23.55
233.995	-25.6
234.213	3.07
234.43	-46.08
234.648	17.41
234.865	37.89
235.083	-9.22
235.3	-7.17
235.518	5.12
235.735	117.76
235.953	-15.36
236.17	33.79
236.388	58.37
236.605	95.23
236.822	5.12
237.04	50.18
237.257	76.8
237.475	1.02
237.692	39.94
237.909	31.74
238.127	46.08
238.344	-13.31
238.562	54.27
238.779	5.12
238.996	33.79
239.214	-17.41
239.431	19.46
239.648	19.46
239.865	-9.22
240.083	-9.22
240.3	23.55
240.517	-74.75
240.735	15.36
240.952	3.07
241.169	-37.89
241.386	37.89
241.603	41.98
241.821	54.27
242.038	11.26
242.255	19.46
242.472	17.41
242.689	29.7
242.907	-5.12
243.124	9.22
243.341	52.22
243.558	-35.84
243.775	-64.51
243.992	-46.08
244.209	-7.17
244.426	46.08
244.643	39.94
244.86	1.02
245.078	13.31
245.295	80.89
245.512	27.65
245.729	23.55
245.946	74.75
246.163	17.41
246.38	-46.08
246.597	95.23
246.814	-48.13
247.031	41.98
247.248	56.32
247.464	-25.6
247.681	11.26
247.898	-23.55
248.115	-1.02
248.332	-13.31
248.549	1.02
248.766	29.7
248.983	-74.75
249.2	-9.22
249.417	-23.55
249.633	74.75
249.85	21.5
250.067	-1.02
250.284	7.17
250.501	74.75
250.717	109.57
250.934	-5.12
251.151	35.84
251.368	54.27
251.585	31.74
251.801	7.17
252.018	78.85
252.235	23.55
252.451	-21.5
252.668	35.84
252.885	1.02
253.102	17.41
253.318	44.03
253.535	-1.02
253.752	62.46
253.968	1.02
254.185	50.18
254.401	-27.65
254.618	-46.08
254.835	46.08
255.051	54.27
255.268	17.41
255.484	13.31
255.701	-62.46
255.917	68.61
256.134	-31.74
256.351	19.46
256.567	15.36
256.784	1.02
257	9.22
257.217	9.22
257.433	11.26
257.65	-13.31
257.866	41.98
258.082	41.98
258.299	1.02
258.515	66.56
258.732	23.55
258.948	1.02
259.165	-23.55
259.381	41.98
259.597	82.94
259.814	-9.22
260.03	1.02
260.246	17.41
260.463	-11.26
260.679	-23.55
260.895	-17.41
261.112	56.32
261.328	25.6
261.544	-23.55
261.761	66.56
261.977	33.79
262.193	5.12
262.409	74.75
262.626	23.55
262.842	-17.41
263.058	13.31
263.274	87.04
263.49	58.37
263.707	60.42
263.923	35.84
264.139	62.46
264.355	121.85
264.571	9.22
264.787	-7.17
265.004	87.04
265.22	66.56
265.436	-7.17
265.652	3.07
265.868	27.65
266.084	-5.12
266.3	9.22
266.516	107.52
266.732	41.98
266.948	27.65
267.164	25.6
267.38	54.27
267.596	54.27
267.812	29.7
268.028	78.85
268.244	87.04
268.46	50.18
268.676	3.07
268.892	39.94
269.108	-1.02
269.324	15.36
269.54	-39.94
269.756	15.36
269.972	3.07
270.188	13.31
270.403	76.8
270.619	50.18
270.835	-5.12
271.051	11.26
271.267	-11.26
271.483	66.56
271.698	-3.07
271.914	13.31
272.13	-19.46
272.346	17.41
272.562	21.5
272.777	74.75
272.993	35.84
273.209	-15.36
273.425	11.26
273.64	50.18
273.856	50.18
274.072	5.12
274.287	-35.84
274.503	78.85
274.719	56.32
274.934	33.79
275.15	-3.07
275.366	60.42
275.581	35.84
275.797	9.22
276.012	15.36
276.228	9.22
276.444	-11.26
276.659	-9.22
276.875	13.31
277.09	35.84
277.306	-70.65
277.521	21.5
277.737	-29.7
277.952	121.85
278.168	62.46
278.383	82.94
278.599	44.03
278.814	11.26
279.03	54.27
279.245	62.46
279.461	-9.22
279.676	35.84
279.892	5.12
280.107	21.5
280.322	-1.02
280.538	25.6
280.753	54.27
280.969	-23.55
281.184	29.7
281.399	93.18
281.615	-15.36
281.83	74.75
282.045	-23.55
282.26	62.46
282.476	35.84
282.691	1.02
282.906	-3.07
283.122	60.42
283.337	17.41
283.552	50.18
283.767	-35.84
283.983	19.46
284.198	15.36
284.413	60.42
284.628	19.46
284.843	70.65
285.058	33.79
285.274	-37.89
285.489	39.94
285.704	9.22
285.919	-7.17
286.134	33.79
286.349	64.51
286.564	19.46
286.779	56.32
286.995	60.42
287.21	-1.02
287.425	107.52
287.64	21.5
287.855	23.55
288.07	-5.12
288.285	41.98
288.5	68.61
288.715	62.46
288.93	25.6
289.145	-3.07
289.36	-46.08
289.575	31.74
289.79	19.46
290.004	31.74
290.219	25.6
290.434	-48.13
290.649	35.84
290.864	91.13
291.079	29.7
291.294	109.57
291.509	33.79
291.724	-3.07
291.938	-7.17
292.153	105.47
292.368	11.26
292.583	74.75
292.798	17.41
293.012	35.84
293.227	48.13
293.442	72.7
293.657	70.65
293.871	21.5
294.086	107.52
294.301	91.13
294.516	17.41
294.73	13.31
294.945	-15.36
295.16	1.02
295.374	41.98
295.589	21.5
295.804	27.65
296.018	-25.6
296.233	35.84
296.447	5.12
296.662	5.12
296.877	60.42
297.091	9.22
297.306	46.08
297.52	33.79
297.735	82.94
297.949	70.65
298.164	46.08
298.378	-46.08
298.593	48.13
298.807	-9.22
299.022	7.17
299.236	13.31
299.451	-5.12
299.665	58.37
299.88	-39.94
300.094	3.07
300.309	-5.12
300.523	33.79
300.737	21.5
300.952	68.61
301.166	33.79
301.381	9.22
301.595	-19.46
301.809	15.36
302.024	1.02
302.238	-48.13
302.452	31.74
302.667	62.46
302.881	37.89
303.095	17.41
303.309	117.76
303.524	5.12
303.738	35.84
303.952	21.5
304.166	74.75
304.381	78.85
304.595	60.42
304.809	-11.26
305.023	82.94
305.237	17.41
305.452	-46.08
305.666	-5.12
305.88	35.84
306.094	50.18
306.308	50.18
306.522	54.27
306.736	44.03
306.95	37.89
307.164	-11.26
307.379	15.36
307.593	11.26
307.807	119.81
308.021	41.98
308.235	-1.02
308.449	37.89
308.663	11.26
308.877	33.79
309.091	37.89
309.305	1.02
309.519	19.46
309.733	27.65
309.947	-5.12
310.161	31.74
310.374	29.7
310.588	91.13
310.802	-44.03
311.016	89.09
311.23	50.18
311.444	-11.26
311.658	29.7
311.872	60.42
312.085	33.79
312.299	7.17
312.513	52.22
312.727	-7.17
312.941	41.98
313.154	9.22
313.368	25.6
313.582	41.98
313.796	-11.26
314.009	105.47
314.223	82.94
314.437	7.17
314.651	33.79
314.864	25.6
315.078	-58.37
315.292	-17.41
315.505	37.89
315.719	-23.55
315.933	35.84
316.146	9.22
316.36	7.17
316.573	64.51
316.787	23.55
317.001	27.65
317.214	1.02
317.428	-23.55
317.641	119.81
317.855	50.18
318.068	19.46
318.282	-7.17
318.495	60.42
318.709	27.65
318.922	82.94
319.136	33.79
319.349	5.12
319.563	74.75
319.776	29.7
319.99	-41.98
320.203	13.31
320.417	52.22
320.63	-9.22
320.843	132.09
321.057	46.08
321.27	41.98
321.483	13.31
321.697	74.75
321.91	68.61
322.124	50.18
322.337	-9.22
322.55	52.22
322.763	58.37
322.977	50.18
323.19	-27.65
323.403	29.7
323.617	35.84
323.83	82.94
324.043	64.51
324.256	84.99
324.469	-1.02
324.683	60.42
324.896	11.26
325.109	27.65
325.322	-31.74
325.535	60.42
325.748	-13.31
325.962	17.41
326.175	70.65
326.388	5.12
326.601	13.31
326.814	5.12
327.027	21.5
327.24	3.07
327.453	-46.08
327.666	48.13
327.879	56.32
328.092	62.46
328.305	19.46
328.518	5.12
328.731	60.42
328.944	50.18
329.157	33.79
329.37	58.37
329.583	-3.07
329.796	29.7
330.009	23.55
330.222	58.37
330.435	-21.5
330.648	-23.55
330.861	-3.07
331.073	35.84
331.286	48.13
331.499	-15.36
331.712	27.65
331.925	27.65
332.138	25.6
332.35	58.37
332.563	72.7
332.776	9.22
332.989	-95.23
333.202	-1.02
333.414	-74.75
333.627	125.95
333.84	44.03
334.053	-9.22
334.265	17.41
334.478	74.75
334.691	17.41
334.903	3.07
335.116	-23.55
335.329	48.13
335.541	-11.26
335.754	-3.07
335.966	-21.5
336.179	11.26
336.392	74.75
336.604	21.5
336.817	9.22
337.029	23.55
337.242	58.37
337.454	21.5
337.667	31.74
337.88	50.18
338.092	15.36
338.305	33.79
338.517	27.65
338.729	29.7
338.942	-29.7
339.154	70.65
339.367	17.41
339.579	39.94
339.792	-3.07
340.004	68.61
340.217	48.13
340.429	15.36
340.641	58.37
340.854	-7.17
341.066	50.18
341.278	80.89
341.491	76.8
341.703	50.18
341.915	35.84
342.128	93.18
342.34	13.31
342.552	9.22
342.764	9.22
342.977	-46.08
343.189	70.65
343.401	11.26
343.613	-9.22
343.826	-15.36
344.038	-5.12
344.25	-23.55
344.462	-15.36
344.674	-19.46
344.886	23.55
345.099	31.74
345.311	64.51
345.523	50.18
345.735	-7.17
345.947	64.51
346.159	62.46
346.371	44.03
346.583	13.31
346.795	66.56
347.007	11.26
347.219	19.46
347.431	134.14
347.643	31.74
347.855	29.7
348.067	50.18
348.279	66.56
348.491	23.55
348.703	74.75
348.915	82.94
349.127	91.13
349.339	29.7
349.551	52.22
349.763	19.46
349.975	-5.12
350.187	50.18
350.399	21.5
350.61	50.18
350.822	-23.55
351.034	44.03
351.246	9.22
351.458	9.22
351.669	84.99
351.881	37.89
352.093	35.84
352.305	46.08
352.517	82.94
352.728	78.85
352.94	87.04
353.152	29.7
353.363	17.41
353.575	25.6
353.787	-11.26
353.999	44.03
354.21	13.31
354.422	19.46
354.633	35.84
354.845	76.8
355.057	58.37
355.268	58.37
355.48	89.09
355.692	25.6
355.903	15.36
356.115	-13.31
356.326	1.02
356.538	-7.17
356.749	128
356.961	62.46
357.172	54.27
357.384	27.65
357.595	62.46
357.807	107.52
358.018	25.6
358.23	97.28
358.441	109.57
358.653	41.98
358.864	-56.32
359.075	78.85
359.287	72.7
359.498	80.89
359.709	50.18
359.921	52.22
360.132	48.13
360.344	84.99
360.555	50.18
360.766	19.46
360.977	52.22
361.189	35.84
361.4	74.75
361.611	58.37
361.823	33.79
362.034	41.98
362.245	-11.26
362.456	44.03
362.667	70.65
362.879	72.7
363.09	29.7
363.301	11.26
363.512	-29.7
363.723	-5.12
363.935	17.41
364.146	64.51
364.357	62.46
364.568	39.94
364.779	46.08
364.99	41.98
365.201	37.89
365.412	93.18
365.623	41.98
365.834	62.46
366.045	128
366.256	111.61
366.467	95.23
366.678	-7.17
366.889	117.76
367.1	62.46
367.311	1.02
367.522	64.51
367.733	37.89
367.944	17.41
368.155	50.18
368.366	-19.46
368.577	68.61
368.788	70.65
368.999	25.6
369.209	19.46
369.42	76.8
369.631	97.28
369.842	25.6
370.053	125.95
370.264	37.89
370.474	50.18
370.685	41.98
370.896	66.56
371.107	48.13
371.317	62.46
371.528	-52.22
371.739	64.51
371.95	50.18
372.16	84.99
372.371	41.98
372.582	46.08
372.792	80.89
373.003	91.13
373.214	35.84
373.424	50.18
373.635	3.07
373.846	-5.12
374.056	76.8
374.267	76.8
374.477	87.04
374.688	33.79
374.898	41.98
375.109	58.37
375.319	-41.98
375.53	35.84
375.74	76.8
375.951	84.99
376.161	17.41
376.372	66.56
376.582	35.84
376.793	50.18
377.003	17.41
377.214	74.75
377.424	33.79
377.635	82.94
377.845	-13.31
378.055	-5.12
378.266	33.79
378.476	72.7
378.686	68.61
378.897	54.27
379.107	111.61
379.317	33.79
379.528	33.79
379.738	62.46
379.948	50.18
380.158	7.17
380.369	7.17
380.579	-27.65
380.789	52.22
380.999	60.42
381.21	3.07
381.42	70.65
381.63	11.26
381.84	74.75
382.05	-5.12
382.261	105.47
382.471	144.38
382.681	99.33
382.891	74.75
383.101	50.18
383.311	-48.13
383.521	13.31
383.731	-31.74
383.941	68.61
384.151	66.56
384.361	25.6
384.571	66.56
384.781	78.85
384.991	123.9
385.201	17.41
385.411	50.18
385.621	95.23
385.831	33.79
386.041	60.42
386.251	97.28
386.461	41.98
386.671	33.79
386.881	11.26
387.091	35.84
387.301	68.61
387.511	7.17
387.72	76.8
387.93	95.23
388.14	11.26
388.35	1.02
388.56	189.44
388.769	101.37
388.979	31.74
389.189	91.13
389.399	56.32
389.609	35.84
389.818	123.9
390.028	25.6
390.238	44.03
390.447	58.37
390.657	-15.36
390.867	50.18
391.076	105.47
391.286	95.23
391.496	9.22
391.705	58.37
391.915	27.65
392.125	25.6
392.334	74.75
392.544	72.7
392.753	78.85
392.963	70.65
393.172	138.24
393.382	117.76
393.591	132.09
393.801	29.7
394.01	89.09
394.22	119.81
394.429	25.6
394.639	27.65
394.848	132.09
395.058	89.09
395.267	84.99
395.477	109.57
395.686	19.46
395.895	87.04
396.105	156.67
396.314	103.42
396.524	91.13
396.733	72.7
396.942	121.85
397.152	87.04
397.361	115.71
397.57	101.37
397.78	152.57
397.989	156.67
398.198	148.48
398.407	78.85
398.617	93.18
398.826	89.09
399.035	84.99
399.244	123.9
399.453	132.09
399.663	68.61
399.872	62.46
400.081	115.71
400.29	115.71
400.499	87.04
400.708	78.85
400.917	140.29
401.127	142.33
401.336	128
401.545	152.57
401.754	107.52
401.963	130.05
402.172	130.05
402.381	97.28
402.59	93.18
402.799	66.56
403.008	109.57
403.217	154.62
403.426	123.9
403.635	78.85
403.844	119.81
404.053	144.38
404.262	117.76
404.471	146.43
404.68	103.42
404.888	99.33
405.097	164.86
405.306	173.05
405.515	152.57
405.724	162.81
405.933	152.57
406.142	181.25
406.35	130.05
406.559	193.53
406.768	154.62
406.977	216.06
407.185	234.49
407.394	173.05
407.603	115.71
407.812	195.58
408.02	259.07
408.229	263.16
408.438	181.25
408.646	199.68
408.855	269.31
409.064	310.27
409.272	230.4
409.481	377.85
409.69	306.17
409.898	234.49
410.107	404.47
410.315	361.47
410.524	334.84
410.733	345.08
410.941	304.12
411.15	377.85
411.358	373.75
411.567	451.58
411.775	427
411.984	404.47
412.192	480.25
412.401	422.91
412.609	472.06
412.818	517.11
413.026	551.93
413.234	558.07
413.443	537.59
413.651	584.7
413.86	564.22
414.068	666.61
414.276	642.04
414.485	668.66
414.693	705.53
414.901	691.19
415.11	746.48
415.318	728.05
415.526	683
415.734	703.48
415.943	830.45
416.151	779.25
416.359	861.17
416.567	945.14
416.776	951.28
416.984	988.14
417.192	992.24
417.4	994.29
417.608	994.29
417.817	1014.77
418.025	1238
418.233	1270.76
418.441	1078.26
418.649	1387.5
418.857	1442.79
419.065	1313.77
419.273	1338.35
419.481	1362.92
419.689	1547.24
419.897	1483.75
420.105	1586.15
420.313	1655.78
420.521	1694.69
420.729	1676.26
420.937	1735.65
421.145	1762.28
421.353	1985.51
421.561	2085.86
421.769	2048.99
421.977	2116.58
422.185	2178.01
422.393	2247.65
422.601	2399.2
422.809	2493.4
423.017	2388.96
423.224	2573.27
423.432	2575.32
423.64	2622.42
423.848	2886.61
424.056	2859.99
424.263	2880.47
424.471	3062.74
424.679	3017.68
424.887	3247.05
425.094	3331.02
425.302	3339.21
425.51	3501
425.718	3517.39
425.925	3584.97
426.133	3886.02
426.341	4025.28
426.548	4123.59
426.756	4094.91
426.964	4236.22
427.171	4320.19
427.379	4596.67
427.586	4783.03
427.794	4809.65
428.001	4899.77
428.209	5192.62
428.417	5084.08
428.624	5465
428.832	5350.32
429.039	5540.78
429.247	5419.95
429.454	6151.07
429.662	6261.66
429.869	5897.13
430.076	6136.74
430.284	6198.18
430.491	6415.26
430.699	6857.62
430.906	6757.27
431.114	6785.94
431.321	7066.52
431.528	7302.03
431.736	7910.28
431.943	8022.92
432.15	8004.49
432.358	7883.66
432.565	8344.45
432.772	8262.53
432.979	8725.37
433.187	8768.38
433.394	9001.85
433.601	9397.1
433.808	9536.37
434.016	9692.01
434.223	10038.12
434.43	10720.09
434.637	10369.89
434.844	10963.8
435.052	11273.04
435.259	11049.82
435.466	11273.04
435.673	10904.41
435.88	11682.64
436.087	12309.32
436.294	12524.35
436.501	12178.25
436.708	12520.26
436.915	12815.16
437.122	13112.12
437.329	13783.85
437.537	14082.86
437.743	14205.74
437.95	13951.79
438.157	14641.95
438.364	15188.76
438.571	15012.63
438.778	15184.66
438.985	16554.76
439.192	15762.19
439.399	16521.99
439.606	16073.48
439.813	17050.36
440.02	18154.22
440.227	17572.6
440.433	17343.22
440.64	18238.19
440.847	18250.47
441.054	18545.38
441.261	19624.66
441.467	19247.83
441.674	19751.63
441.881	20423.37
442.088	20493
442.294	20128.46
442.501	20411.08
442.708	21138.11
442.914	22123.18
443.121	22813.35
443.328	22407.85
443.534	24031.89
443.741	23044.77
443.948	22973.09
444.154	24652.42
444.361	24386.19
444.568	24535.69
444.774	24445.58
444.981	24846.98
445.187	25379.45
445.394	26538.6
445.6	26395.25
445.807	28758.6
446.013	27462.24
446.22	28125.78
446.426	29172.29
446.633	29461.05
446.839	30618.16
447.046	29037.12
447.252	30745.13
447.459	30892.58
447.665	30970.41
447.871	32217.62
448.078	33032.71
448.284	31676.96
448.491	32256.53
448.697	33888.76
448.903	34683.37
449.11	34750.96
449.316	34068.98
449.522	34562.54
449.728	35359.2
449.935	35705.31
450.141	35625.44
450.347	36602.32
450.553	35088.87
450.76	35582.43
450.966	37085.64
451.172	36536.79
451.378	37595.59
451.584	36712.91
451.791	37675.46
451.997	37290.44
452.203	38179.26
452.409	38162.87
452.615	37986.75
452.821	36506.07
453.027	36035.03
453.233	38025.66
453.44	36231.64
453.646	36768.21
453.852	36903.37
454.058	37636.55
454.264	36620.75
454.47	36848.08
454.676	36166.1
454.882	37847.49
455.088	34458.1
455.294	34824.68
455.5	35088.87
455.705	35754.46
455.911	34294.26
456.117	33460.74
456.323	33059.34
456.529	31148.58
456.735	32864.78
456.941	31906.33
457.147	31494.69
457.352	30161.46
457.558	30231.09
457.764	30108.21
457.97	29250.11
458.176	28957.25
458.381	29065.8
458.587	27394.65
458.793	27587.16
458.999	26086
459.204	28109.4
459.41	27478.62
459.616	25408.12
459.821	25643.64
460.027	25614.97
460.233	25076.35
460.438	23456.41
460.644	23902.87
460.85	22854.31
461.055	22315.69
461.261	22295.21
461.466	20892.35
461.672	20185.8
461.878	21420.73
462.083	19942.1
462.289	19981.01
462.494	19759.83
462.7	18764.51
462.905	18019.05
463.111	18889.44
463.316	19110.62
463.522	18277.1
463.727	18774.75
463.932	18340.58
464.138	18334.44
464.343	18389.74
464.549	17842.93
464.754	18600.68
464.959	18309.86
465.165	18047.72
465.37	17666.8
465.575	16907.01
465.781	17578.74
465.986	17875.7
466.191	17052.41
466.397	16741.12
466.602	15917.84
466.807	16460.55
467.012	16560.9
467.218	16374.53
467.423	16218.89
467.628	16335.62
467.833	17023.74
468.038	16352.01
