Data from USB4F104151__42__13-53-17-638.txt Node

Date: Thu Mar 13 13:53:17 EDT 2025
User: louis
Spectrometer: USB4F10415
Trigger mode: 4
Integration Time (sec): 1.000000E-2
Scans to average: 1
Electric dark correction enabled: true
Nonlinearity correction enabled: false
Boxcar width: 0
XAxis mode: Wavelengths
Number of Pixels in Spectrum: 3648
>>>>>Begin Spectral Data<<<<<
178.204	-21.5
178.424	-21.5
178.644	-21.5
178.864	-25.6
179.084	-97.28
179.304	-11.26
179.524	29.7
179.744	5.12
179.964	-13.31
180.184	-54.27
180.404	-3.07
180.624	21.5
180.844	-5.12
181.064	-15.36
181.283	35.84
181.503	11.26
181.723	-1.02
181.943	31.74
182.163	82.94
182.383	37.89
182.602	50.18
182.822	44.03
183.042	23.55
183.262	1.02
183.482	56.32
183.701	44.03
183.921	56.32
184.141	21.5
184.361	107.52
184.58	-95.23
184.8	48.13
185.02	39.94
185.239	-23.55
185.459	76.8
185.679	-33.79
185.898	-19.46
186.118	60.42
186.338	-7.17
186.557	11.26
186.777	-35.84
186.997	123.9
187.216	54.27
187.436	37.89
187.655	23.55
187.875	60.42
188.095	87.04
188.314	41.98
188.534	46.08
188.753	17.41
188.973	56.32
189.192	29.7
189.412	1.02
189.631	33.79
189.851	33.79
190.07	25.6
190.29	54.27
190.509	46.08
190.729	25.6
190.948	31.74
191.168	62.46
191.387	54.27
191.607	50.18
191.826	70.65
192.045	-41.98
192.265	52.22
192.484	9.22
192.704	13.31
192.923	-33.79
193.142	66.56
193.362	70.65
193.581	50.18
193.8	1.02
194.02	70.65
194.239	-35.84
194.458	23.55
194.678	-68.61
194.897	46.08
195.116	-27.65
195.335	11.26
195.555	5.12
195.774	72.7
195.993	23.55
196.212	54.27
196.432	29.7
196.651	-9.22
196.87	27.65
197.089	-33.79
197.308	17.41
197.528	64.51
197.747	31.74
197.966	15.36
198.185	5.12
198.404	35.84
198.623	23.55
198.842	107.52
199.062	27.65
199.281	33.79
199.5	-7.17
199.719	15.36
199.938	7.17
200.157	62.46
200.376	19.46
200.595	3.07
200.814	-25.6
201.033	25.6
201.252	58.37
201.471	23.55
201.69	91.13
201.909	50.18
202.128	54.27
202.347	29.7
202.566	46.08
202.785	-23.55
203.004	-7.17
203.223	39.94
203.442	-23.55
203.661	-27.65
203.879	37.89
204.098	46.08
204.317	-25.6
204.536	95.23
204.755	52.22
204.974	3.07
205.193	19.46
205.411	72.7
205.63	19.46
205.849	78.85
206.068	3.07
206.287	-27.65
206.505	60.42
206.724	19.46
206.943	44.03
207.162	66.56
207.381	29.7
207.599	23.55
207.818	70.65
208.037	19.46
208.255	-5.12
208.474	19.46
208.693	25.6
208.911	31.74
209.13	19.46
209.349	109.57
209.567	101.37
209.786	13.31
210.005	44.03
210.223	107.52
210.442	105.47
210.661	39.94
210.879	48.13
211.098	44.03
211.316	-11.26
211.535	74.75
211.753	138.24
211.972	41.98
212.191	46.08
212.409	37.89
212.628	56.32
212.846	1.02
213.065	78.85
213.283	58.37
213.502	15.36
213.72	-11.26
213.938	27.65
214.157	17.41
214.375	52.22
214.594	103.42
214.812	60.42
215.031	9.22
215.249	-89.09
215.467	27.65
215.686	-1.02
215.904	-11.26
216.122	11.26
216.341	-29.7
216.559	3.07
216.778	37.89
216.996	33.79
217.214	-17.41
217.432	70.65
217.651	27.65
217.869	41.98
218.087	21.5
218.306	1.02
218.524	-1.02
218.742	-46.08
218.96	66.56
219.179	56.32
219.397	31.74
219.615	91.13
219.833	-33.79
220.051	64.51
220.27	78.85
220.488	41.98
220.706	44.03
220.924	17.41
221.142	64.51
221.36	72.7
221.578	74.75
221.796	44.03
222.015	35.84
222.233	-21.5
222.451	46.08
222.669	54.27
222.887	37.89
223.105	-19.46
223.323	82.94
223.541	11.26
223.759	50.18
223.977	80.89
224.195	44.03
224.413	-1.02
224.631	52.22
224.849	-44.03
225.067	80.89
225.285	-7.17
225.503	23.55
225.721	-3.07
225.939	58.37
226.157	56.32
226.375	25.6
226.592	-21.5
226.81	13.31
227.028	33.79
227.246	31.74
227.464	66.56
227.682	60.42
227.9	54.27
228.117	-23.55
228.335	-11.26
228.553	-17.41
228.771	-7.17
228.989	82.94
229.206	9.22
229.424	74.75
229.642	9.22
229.86	39.94
230.077	80.89
230.295	1.02
230.513	80.89
230.731	54.27
230.948	78.85
231.166	72.7
231.384	33.79
231.601	46.08
231.819	13.31
232.037	52.22
232.254	11.26
232.472	-9.22
232.689	-5.12
232.907	-25.6
233.125	72.7
233.342	35.84
233.56	27.65
233.777	-1.02
233.995	15.36
234.213	-44.03
234.43	-13.31
234.648	37.89
234.865	-3.07
235.083	68.61
235.3	3.07
235.518	17.41
235.735	91.13
235.953	87.04
236.17	-5.12
236.388	-9.22
236.605	37.89
236.822	95.23
237.04	74.75
237.257	13.31
237.475	97.28
237.692	46.08
237.909	35.84
238.127	101.37
238.344	39.94
238.562	44.03
238.779	3.07
238.996	-52.22
239.214	33.79
239.431	54.27
239.648	39.94
239.865	-15.36
240.083	25.6
240.3	39.94
240.517	21.5
240.735	52.22
240.952	80.89
241.169	52.22
241.386	19.46
241.603	35.84
241.821	56.32
242.038	-9.22
242.255	23.55
242.472	1.02
242.689	39.94
242.907	29.7
243.124	13.31
243.341	9.22
243.558	99.33
243.775	52.22
243.992	11.26
244.209	58.37
244.426	17.41
244.643	54.27
244.86	91.13
245.078	80.89
245.295	15.36
245.512	52.22
245.729	9.22
245.946	64.51
246.163	62.46
246.38	48.13
246.597	87.04
246.814	50.18
247.031	44.03
247.248	60.42
247.464	-1.02
247.681	-19.46
247.898	68.61
248.115	-5.12
248.332	27.65
248.549	48.13
248.766	66.56
248.983	109.57
249.2	46.08
249.417	27.65
249.633	58.37
249.85	48.13
250.067	41.98
250.284	7.17
250.501	46.08
250.717	70.65
250.934	19.46
251.151	58.37
251.368	-29.7
251.585	46.08
251.801	7.17
252.018	119.81
252.235	-1.02
252.451	82.94
252.668	-25.6
252.885	11.26
253.102	46.08
253.318	7.17
253.535	44.03
253.752	76.8
253.968	-89.09
254.185	39.94
254.401	33.79
254.618	142.33
254.835	15.36
255.051	-1.02
255.268	52.22
255.484	-11.26
255.701	-7.17
255.917	72.7
256.134	11.26
256.351	17.41
256.567	-91.13
256.784	46.08
257	50.18
257.217	76.8
257.433	11.26
257.65	-27.65
257.866	3.07
258.082	46.08
258.299	-7.17
258.515	-21.5
258.732	3.07
258.948	27.65
259.165	35.84
259.381	23.55
259.597	17.41
259.814	-44.03
260.03	25.6
260.246	56.32
260.463	54.27
260.679	78.85
260.895	-13.31
261.112	19.46
261.328	17.41
261.544	54.27
261.761	-7.17
261.977	37.89
262.193	37.89
262.409	-9.22
262.626	70.65
262.842	54.27
263.058	60.42
263.274	-17.41
263.49	66.56
263.707	58.37
263.923	46.08
264.139	19.46
264.355	-13.31
264.571	41.98
264.787	33.79
265.004	50.18
265.22	-35.84
265.436	15.36
265.652	23.55
265.868	54.27
266.084	33.79
266.3	80.89
266.516	13.31
266.732	78.85
266.948	46.08
267.164	52.22
267.38	46.08
267.596	62.46
267.812	56.32
268.028	19.46
268.244	17.41
268.46	33.79
268.676	27.65
268.892	15.36
269.108	-29.7
269.324	58.37
269.54	41.98
269.756	44.03
269.972	89.09
270.188	-3.07
270.403	-21.5
270.619	23.55
270.835	35.84
271.051	19.46
271.267	50.18
271.483	44.03
271.698	52.22
271.914	-35.84
272.13	-3.07
272.346	56.32
272.562	72.7
272.777	78.85
272.993	33.79
273.209	19.46
273.425	-7.17
273.64	-31.74
273.856	82.94
274.072	91.13
274.287	9.22
274.503	37.89
274.719	46.08
274.934	76.8
275.15	-27.65
275.366	48.13
275.581	11.26
275.797	31.74
276.012	109.57
276.228	60.42
276.444	9.22
276.659	-44.03
276.875	29.7
277.09	52.22
277.306	-19.46
277.521	-11.26
277.737	60.42
277.952	29.7
278.168	39.94
278.383	74.75
278.599	31.74
278.814	52.22
279.03	-5.12
279.245	5.12
279.461	25.6
279.676	82.94
279.892	44.03
280.107	19.46
280.322	50.18
280.538	87.04
280.753	91.13
280.969	17.41
281.184	19.46
281.399	27.65
281.615	-35.84
281.83	97.28
282.045	29.7
282.26	52.22
282.476	11.26
282.691	13.31
282.906	-3.07
283.122	78.85
283.337	-15.36
283.552	48.13
283.767	33.79
283.983	87.04
284.198	27.65
284.413	29.7
284.628	52.22
284.843	-17.41
285.058	76.8
285.274	52.22
285.489	23.55
285.704	39.94
285.919	17.41
286.134	74.75
286.349	-5.12
286.564	48.13
286.779	68.61
286.995	99.33
287.21	70.65
287.425	80.89
287.64	44.03
287.855	-5.12
288.07	46.08
288.285	56.32
288.5	56.32
288.715	87.04
288.93	31.74
289.145	27.65
289.36	60.42
289.575	72.7
289.79	7.17
290.004	41.98
290.219	-62.46
290.434	25.6
290.649	21.5
290.864	87.04
291.079	-5.12
291.294	121.85
291.509	-33.79
291.724	35.84
291.938	62.46
292.153	119.81
292.368	58.37
292.583	39.94
292.798	17.41
293.012	44.03
293.227	27.65
293.442	21.5
293.657	17.41
293.871	44.03
294.086	-15.36
294.301	44.03
294.516	97.28
294.73	15.36
294.945	9.22
295.16	60.42
295.374	21.5
295.589	27.65
295.804	37.89
296.018	7.17
296.233	46.08
296.447	41.98
296.662	1.02
296.877	54.27
297.091	68.61
297.306	33.79
297.52	111.61
297.735	21.5
297.949	76.8
298.164	33.79
298.378	13.31
298.593	48.13
298.807	50.18
299.022	121.85
299.236	56.32
299.451	17.41
299.665	-7.17
299.88	99.33
300.094	117.76
300.309	27.65
300.523	64.51
300.737	5.12
300.952	-41.98
301.166	50.18
301.381	-7.17
301.595	66.56
301.809	13.31
302.024	23.55
302.238	31.74
302.452	50.18
302.667	68.61
302.881	115.71
303.095	46.08
303.309	17.41
303.524	33.79
303.738	56.32
303.952	46.08
304.166	44.03
304.381	25.6
304.595	46.08
304.809	11.26
305.023	25.6
305.237	21.5
305.452	9.22
305.666	7.17
305.88	27.65
306.094	41.98
306.308	56.32
306.522	7.17
306.736	39.94
306.95	13.31
307.164	60.42
307.379	-15.36
307.593	-27.65
307.807	82.94
308.021	56.32
308.235	68.61
308.449	52.22
308.663	-13.31
308.877	25.6
309.091	54.27
309.305	80.89
309.519	27.65
309.733	19.46
309.947	15.36
310.161	19.46
310.374	-5.12
310.588	9.22
310.802	25.6
311.016	44.03
311.23	41.98
311.444	41.98
311.658	27.65
311.872	9.22
312.085	84.99
312.299	39.94
312.513	44.03
312.727	5.12
312.941	70.65
313.154	87.04
313.368	-5.12
313.582	44.03
313.796	31.74
314.009	64.51
314.223	-5.12
314.437	33.79
314.651	1.02
314.864	56.32
315.078	-23.55
315.292	66.56
315.505	-44.03
315.719	41.98
315.933	44.03
316.146	37.89
316.36	7.17
316.573	13.31
316.787	-5.12
317.001	60.42
317.214	54.27
317.428	58.37
317.641	46.08
317.855	23.55
318.068	7.17
318.282	72.7
318.495	25.6
318.709	70.65
318.922	1.02
319.136	56.32
319.349	50.18
319.563	80.89
319.776	82.94
319.99	41.98
320.203	44.03
320.417	39.94
320.63	-7.17
320.843	93.18
321.057	-9.22
321.27	50.18
321.483	7.17
321.697	23.55
321.91	-7.17
322.124	41.98
322.337	105.47
322.55	41.98
322.763	25.6
322.977	-9.22
323.19	58.37
323.403	41.98
323.617	76.8
323.83	87.04
324.043	17.41
324.256	68.61
324.469	7.17
324.683	33.79
324.896	35.84
325.109	39.94
325.322	39.94
325.535	95.23
325.748	74.75
325.962	-1.02
326.175	13.31
326.388	3.07
326.601	19.46
326.814	39.94
327.027	76.8
327.24	39.94
327.453	35.84
327.666	91.13
327.879	-21.5
328.092	35.84
328.305	62.46
328.518	23.55
328.731	5.12
328.944	66.56
329.157	1.02
329.37	33.79
329.583	19.46
329.796	99.33
330.009	37.89
330.222	68.61
330.435	50.18
330.648	48.13
330.861	39.94
331.073	46.08
331.286	62.46
331.499	48.13
331.712	29.7
331.925	68.61
332.138	-1.02
332.35	56.32
332.563	52.22
332.776	31.74
332.989	54.27
333.202	95.23
333.414	-17.41
333.627	130.05
333.84	46.08
334.053	56.32
334.265	27.65
334.478	44.03
334.691	44.03
334.903	115.71
335.116	80.89
335.329	119.81
335.541	105.47
335.754	80.89
335.966	87.04
336.179	19.46
336.392	72.7
336.604	9.22
336.817	-11.26
337.029	48.13
337.242	1.02
337.454	107.52
337.667	54.27
337.88	-1.02
338.092	37.89
338.305	60.42
338.517	31.74
338.729	89.09
338.942	39.94
339.154	78.85
339.367	9.22
339.579	58.37
339.792	60.42
340.004	46.08
340.217	11.26
340.429	87.04
340.641	101.37
340.854	111.61
341.066	17.41
341.278	95.23
341.491	23.55
341.703	74.75
341.915	27.65
342.128	60.42
342.34	64.51
342.552	-9.22
342.764	23.55
342.977	78.85
343.189	101.37
343.401	17.41
343.613	78.85
343.826	35.84
344.038	56.32
344.25	13.31
344.462	19.46
344.674	-11.26
344.886	31.74
345.099	44.03
345.311	72.7
345.523	35.84
345.735	105.47
345.947	52.22
346.159	78.85
346.371	39.94
346.583	46.08
346.795	44.03
347.007	103.42
347.219	66.56
347.431	11.26
347.643	31.74
347.855	64.51
348.067	74.75
348.279	-25.6
348.491	72.7
348.703	5.12
348.915	3.07
349.127	78.85
349.339	29.7
349.551	-17.41
349.763	87.04
349.975	52.22
350.187	66.56
350.399	80.89
350.61	52.22
350.822	46.08
351.034	91.13
351.246	91.13
351.458	-3.07
351.669	29.7
351.881	70.65
352.093	109.57
352.305	37.89
352.517	13.31
352.728	31.74
352.94	35.84
353.152	15.36
353.363	72.7
353.575	70.65
353.787	54.27
353.999	25.6
354.21	-23.55
354.422	37.89
354.633	50.18
354.845	80.89
355.057	72.7
355.268	105.47
355.48	50.18
355.692	-17.41
355.903	3.07
356.115	50.18
356.326	-39.94
356.538	58.37
356.749	66.56
356.961	46.08
357.172	46.08
357.384	80.89
357.595	89.09
357.807	44.03
358.018	64.51
358.23	48.13
358.441	17.41
358.653	117.76
358.864	23.55
359.075	39.94
359.287	105.47
359.498	62.46
359.709	31.74
359.921	48.13
360.132	119.81
360.344	78.85
360.555	27.65
360.766	60.42
360.977	99.33
361.189	11.26
361.4	27.65
361.611	97.28
361.823	39.94
362.034	52.22
362.245	-11.26
362.456	33.79
362.667	39.94
362.879	78.85
363.09	-33.79
363.301	15.36
363.512	76.8
363.723	64.51
363.935	74.75
364.146	119.81
364.357	9.22
364.568	119.81
364.779	7.17
364.99	29.7
365.201	-21.5
365.412	82.94
365.623	54.27
365.834	39.94
366.045	35.84
366.256	-3.07
366.467	44.03
366.678	66.56
366.889	17.41
367.1	113.66
367.311	70.65
367.522	103.42
367.733	-21.5
367.944	33.79
368.155	33.79
368.366	50.18
368.577	44.03
368.788	58.37
368.999	115.71
369.209	-33.79
369.42	27.65
369.631	41.98
369.842	13.31
370.053	-3.07
370.264	60.42
370.474	-7.17
370.685	-44.03
370.896	80.89
371.107	58.37
371.317	52.22
371.528	56.32
371.739	134.14
371.95	68.61
372.16	54.27
372.371	-25.6
372.582	41.98
372.792	39.94
373.003	17.41
373.214	62.46
373.424	62.46
373.635	-27.65
373.846	46.08
374.056	33.79
374.267	11.26
374.477	56.32
374.688	17.41
374.898	72.7
375.109	56.32
375.319	70.65
375.53	93.18
375.74	76.8
375.951	119.81
376.161	50.18
376.372	93.18
376.582	101.37
376.793	95.23
377.003	9.22
377.214	41.98
377.424	7.17
377.635	60.42
377.845	3.07
378.055	7.17
378.266	9.22
378.476	64.51
378.686	64.51
378.897	17.41
379.107	-25.6
379.317	62.46
379.528	29.7
379.738	46.08
379.948	17.41
380.158	19.46
380.369	-25.6
380.579	128
380.789	-21.5
380.999	25.6
381.21	179.2
381.42	46.08
381.63	62.46
381.84	62.46
382.05	72.7
382.261	70.65
382.471	89.09
382.681	50.18
382.891	54.27
383.101	91.13
383.311	-1.02
383.521	74.75
383.731	99.33
383.941	89.09
384.151	52.22
384.361	72.7
384.571	5.12
384.781	54.27
384.991	91.13
385.201	136.19
385.411	41.98
385.621	76.8
385.831	3.07
386.041	11.26
386.251	-9.22
386.461	87.04
386.671	44.03
386.881	62.46
387.091	54.27
387.301	64.51
387.511	84.99
387.72	41.98
387.93	48.13
388.14	84.99
388.35	52.22
388.56	117.76
388.769	29.7
388.979	17.41
389.189	-17.41
389.399	44.03
389.609	93.18
389.818	25.6
390.028	9.22
390.238	-1.02
390.447	54.27
390.657	107.52
390.867	11.26
391.076	11.26
391.286	44.03
391.496	52.22
391.705	27.65
391.915	125.95
392.125	56.32
392.334	27.65
392.544	107.52
392.753	134.14
392.963	29.7
393.172	123.9
393.382	44.03
393.591	82.94
393.801	27.65
394.01	113.66
394.22	64.51
394.429	54.27
394.639	9.22
394.848	76.8
395.058	84.99
395.267	46.08
395.477	82.94
395.686	78.85
395.895	41.98
396.105	115.71
396.314	154.62
396.524	41.98
396.733	35.84
396.942	123.9
397.152	109.57
397.361	64.51
397.57	138.24
397.78	62.46
397.989	21.5
398.198	117.76
398.407	87.04
398.617	72.7
398.826	74.75
399.035	7.17
399.244	66.56
399.453	39.94
399.663	70.65
399.872	138.24
400.081	37.89
400.29	109.57
400.499	148.48
400.708	134.14
400.917	56.32
401.127	27.65
401.336	107.52
401.545	128
401.754	99.33
401.963	101.37
402.172	103.42
402.381	60.42
402.59	76.8
402.799	60.42
403.008	25.6
403.217	128
403.426	107.52
403.635	44.03
403.844	101.37
404.053	91.13
404.262	107.52
404.471	128
404.68	164.86
404.888	138.24
405.097	158.72
405.306	97.28
405.515	87.04
405.724	68.61
405.933	109.57
406.142	125.95
406.35	95.23
406.559	197.63
406.768	123.9
406.977	99.33
407.185	224.25
407.394	181.25
407.603	111.61
407.812	193.53
408.02	144.38
408.229	148.48
408.438	140.29
408.646	205.82
408.855	84.99
409.064	156.67
409.272	220.16
409.481	193.53
409.69	160.77
409.898	175.1
410.107	246.78
410.315	156.67
410.524	173.05
410.733	220.16
410.941	205.82
411.15	287.74
411.358	234.49
411.567	281.6
411.775	216.06
411.984	222.2
412.192	273.4
412.401	269.31
412.609	263.16
412.818	265.21
413.026	390.14
413.234	289.79
413.443	316.41
413.651	302.08
413.86	361.47
414.068	383.99
414.276	392.19
414.485	406.52
414.693	410.62
414.901	427
415.11	424.95
415.318	383.99
415.526	416.76
415.734	449.53
415.943	431.1
416.151	455.67
416.359	488.44
416.567	476.15
416.776	519.16
416.984	543.74
417.192	611.32
417.4	654.33
417.608	527.35
417.817	576.5
418.025	660.47
418.233	683
418.441	631.8
418.649	678.9
418.857	818.16
419.065	744.44
419.273	744.44
419.481	670.71
419.689	822.26
419.897	891.89
420.105	879.6
420.313	820.21
420.521	895.99
420.729	844.79
420.937	926.71
421.145	1074.16
421.353	1045.49
421.561	1117.17
421.769	1063.92
421.977	1168.37
422.185	1156.08
422.393	1317.87
422.601	1252.33
422.809	1272.81
423.017	1348.59
423.224	1340.4
423.432	1407.98
423.64	1362.92
423.848	1600.49
424.056	1567.72
424.263	1629.16
424.471	1618.92
424.679	1659.88
424.887	1721.32
425.094	1778.66
425.302	1811.43
425.51	1864.68
425.718	1956.83
425.925	1922.02
426.133	2032.61
426.341	2128.86
426.548	2196.45
426.756	2229.21
426.964	2274.27
427.171	2436.06
427.379	2520.03
427.586	2440.15
427.794	2522.07
428.001	2599.9
428.209	2798.55
428.417	2757.59
428.624	2911.19
428.832	2853.84
429.039	2948.05
429.247	3097.55
429.454	3253.2
429.662	3308.49
429.869	3277.77
430.076	3458
430.284	3238.86
430.491	3406.8
430.699	3541.96
430.906	3736.52
431.114	3738.57
431.321	3691.46
431.528	3933.12
431.736	4086.72
431.943	4236.22
432.15	4139.97
432.358	4217.79
432.565	4510.65
432.772	4451.26
432.979	4658.1
433.187	4701.11
433.394	4768.7
433.601	4989.88
433.808	5077.94
434.016	5116.85
434.223	5139.38
434.43	5606.31
434.637	5514.16
434.844	5780.39
435.052	5987.24
435.259	6034.34
435.466	5983.14
435.673	6060.96
435.88	6396.83
436.087	6609.82
436.294	6644.63
436.501	6556.57
436.708	6744.99
436.915	6808.47
437.122	7267.22
437.329	7209.87
437.537	7457.68
437.743	7449.49
437.95	7390.1
438.157	7910.28
438.364	8070.02
438.571	8100.74
438.778	8172.42
438.985	8846.2
439.192	8530.81
439.399	8809.34
439.606	8643.45
439.813	9034.61
440.02	9485.17
440.227	9677.68
440.433	9472.88
440.64	10036.07
440.847	9556.85
441.054	9798.51
441.261	10521.44
441.467	10310.5
441.674	10580.83
441.881	11074.39
442.088	10945.37
442.294	10914.65
442.501	11103.06
442.708	11271
442.914	11838.28
443.121	12217.16
443.328	12010.31
443.534	12655.42
443.741	12655.42
443.948	12319.56
444.154	13294.39
444.361	13183.8
444.568	13228.85
444.774	13341.49
444.981	13396.79
445.187	13732.65
445.394	14230.31
445.6	14076.71
445.807	15543.06
446.013	14564.13
446.22	14957.34
446.426	15917.84
446.633	15622.93
446.839	16345.86
447.046	15688.46
447.252	16478.98
447.459	16620.29
447.665	16599.81
447.871	17052.41
448.078	17830.64
448.284	16990.97
448.491	17650.42
448.697	17842.93
448.903	18498.28
449.11	18520.81
449.316	18481.89
449.522	18557.67
449.728	19290.84
449.935	19587.8
450.141	19231.45
450.347	19655.38
450.553	18995.93
450.76	19278.55
450.966	19856.08
451.172	19639
451.378	20140.75
451.584	19835.6
451.791	20040.4
451.997	20335.31
452.203	20546.25
452.409	20269.77
452.615	20366.03
452.821	19497.69
453.027	19692.24
453.233	20161.23
453.44	19450.58
453.646	19761.87
453.852	20001.49
454.058	20351.69
454.264	19575.51
454.47	19972.82
454.676	19450.58
454.882	20148.94
455.088	18561.76
455.294	18623.2
455.5	19102.43
455.705	19165.92
455.911	18332.39
456.117	17896.17
456.323	17681.14
456.529	16782.08
456.735	17406.71
456.941	17126.14
457.147	16569.09
457.352	16325.38
457.558	16194.31
457.764	16067.34
457.97	15434.52
458.176	15393.56
458.381	15350.55
458.587	14654.24
458.793	14553.89
458.999	13828.91
459.204	15178.52
459.41	14318.37
459.616	13534
459.821	13718.32
460.027	13579.06
460.233	13122.36
460.438	12569.41
460.644	12753.73
460.85	11912.01
461.055	12153.67
461.261	11848.52
461.466	11176.79
461.672	10914.65
461.878	11471.7
462.083	10859.35
462.289	10572.64
462.494	10531.68
462.7	10015.59
462.905	9755.5
463.111	9986.92
463.316	10050.41
463.522	9984.87
463.727	9851.75
463.932	9888.62
464.138	9806.7
464.343	9853.8
464.549	9730.92
464.754	10077.03
464.959	9841.51
465.165	9814.89
465.37	9378.67
465.575	8940.41
465.781	9546.61
465.986	9413.49
466.191	9171.83
466.397	9010.04
466.602	8522.62
466.807	8960.89
467.012	8952.7
467.218	8938.36
467.423	8586.11
467.628	8625.02
467.833	9290.61
468.038	8727.42
468.244	8557.44
468.449	9005.94
468.654	8594.3
468.859	8518.53
469.064	8342.4
469.269	8160.13
469.474	8162.18
469.679	8393.6
