Data from USB4F104151__56__13-53-34-636.txt Node

Date: Thu Mar 13 13:53:34 EDT 2025
User: louis
Spectrometer: USB4F10415
Trigger mode: 4
Integration Time (sec): 1.000000E-2
Scans to average: 1
Electric dark correction enabled: true
Nonlinearity correction enabled: false
Boxcar width: 0
XAxis mode: Wavelengths
Number of Pixels in Spectrum: 3648
>>>>>Begin Spectral Data<<<<<
178.204	0
178.424	0
178.644	0
178.864	-26.62
179.084	-59.39
179.304	-28.67
179.524	6.14
179.744	-32.77
179.964	24.58
180.184	-47.1
180.404	71.68
180.624	-6.14
180.844	6.14
181.064	-40.96
181.283	43.01
181.503	0
181.723	4.1
181.943	32.77
182.163	28.67
182.383	-28.67
182.602	26.62
182.822	18.43
183.042	12.29
183.262	53.25
183.482	49.15
183.701	22.53
183.921	16.38
184.141	45.06
184.361	-24.58
184.58	14.34
184.8	88.06
185.02	45.06
185.239	2.05
185.459	-47.1
185.679	45.06
185.898	20.48
186.118	2.05
186.338	38.91
186.557	-24.58
186.777	28.67
186.997	28.67
187.216	49.15
187.436	77.82
187.655	59.39
187.875	8.19
188.095	77.82
188.314	59.39
188.534	47.1
188.753	-47.1
188.973	18.43
189.192	90.11
189.412	14.34
189.631	77.82
189.851	-16.38
190.07	34.82
190.29	18.43
190.509	4.1
190.729	32.77
190.948	34.82
191.168	34.82
191.387	75.77
191.607	-16.38
191.826	14.34
192.045	24.58
192.265	71.68
192.484	-2.05
192.704	22.53
192.923	18.43
193.142	100.35
193.362	53.25
193.581	18.43
193.8	90.11
194.02	30.72
194.239	-38.91
194.458	67.58
194.678	32.77
194.897	129.02
195.116	26.62
195.335	47.1
195.555	24.58
195.774	22.53
195.993	94.21
196.212	4.1
196.432	14.34
196.651	71.68
196.87	71.68
197.089	12.29
197.308	28.67
197.528	79.87
197.747	51.2
197.966	112.64
198.185	26.62
198.404	0
198.623	77.82
198.842	6.14
199.062	178.17
199.281	55.3
199.5	86.01
199.719	53.25
199.938	38.91
200.157	30.72
200.376	0
200.595	55.3
200.814	43.01
201.033	20.48
201.252	73.73
201.471	30.72
201.69	69.63
201.909	-14.34
202.128	61.44
202.347	34.82
202.566	92.16
202.785	14.34
203.004	2.05
203.223	59.39
203.442	-30.72
203.661	45.06
203.879	94.21
204.098	47.1
204.317	36.86
204.536	12.29
204.755	43.01
204.974	75.77
205.193	55.3
205.411	106.49
205.63	-2.05
205.849	81.92
206.068	-20.48
206.287	32.77
206.505	-65.53
206.724	24.58
206.943	16.38
207.162	4.1
207.381	116.73
207.599	57.34
207.818	55.3
208.037	83.97
208.255	-28.67
208.474	-18.43
208.693	55.3
208.911	57.34
209.13	36.86
209.349	6.14
209.567	10.24
209.786	122.88
210.005	14.34
210.223	2.05
210.442	-10.24
210.661	36.86
210.879	65.54
211.098	83.97
211.316	36.86
211.535	63.49
211.753	71.68
211.972	-12.29
212.191	59.39
212.409	-30.72
212.628	-2.05
212.846	-26.62
213.065	20.48
213.283	71.68
213.502	28.67
213.72	53.25
213.938	4.1
214.157	-6.14
214.375	83.97
214.594	57.34
214.812	49.15
215.031	81.92
215.249	4.1
215.467	71.68
215.686	-12.29
215.904	12.29
216.122	45.06
216.341	34.82
216.559	51.2
216.778	16.38
216.996	40.96
217.214	47.1
217.432	-47.1
217.651	12.29
217.869	0
218.087	-16.38
218.306	18.43
218.524	32.77
218.742	-30.72
218.96	45.06
219.179	12.29
219.397	55.3
219.615	2.05
219.833	-40.96
220.051	55.3
220.27	38.91
220.488	73.73
220.706	63.49
220.924	-40.96
221.142	-8.19
221.36	73.73
221.578	55.3
221.796	67.58
222.015	22.53
222.233	-10.24
222.451	65.54
222.669	96.25
222.887	69.63
223.105	38.91
223.323	20.48
223.541	-10.24
223.759	26.62
223.977	55.3
224.195	53.25
224.413	55.3
224.631	43.01
224.849	-26.62
225.067	71.68
225.285	51.2
225.503	32.77
225.721	0
225.939	24.58
226.157	59.39
226.375	90.11
226.592	47.1
226.81	63.49
227.028	30.72
227.246	83.97
227.464	53.25
227.682	6.14
227.9	16.38
228.117	67.58
228.335	96.25
228.553	12.29
228.771	61.44
228.989	47.1
229.206	45.06
229.424	-2.05
229.642	16.38
229.86	6.14
230.077	137.21
230.295	36.86
230.513	63.49
230.731	32.77
230.948	47.1
231.166	49.15
231.384	30.72
231.601	65.54
231.819	22.53
232.037	81.92
232.254	24.58
232.472	79.87
232.689	38.91
232.907	-8.19
233.125	2.05
233.342	59.39
233.56	61.44
233.777	32.77
233.995	18.43
234.213	49.15
234.43	34.82
234.648	32.77
234.865	-32.77
235.083	32.77
235.3	-2.05
235.518	88.06
235.735	59.39
235.953	-24.58
236.17	59.39
236.388	40.96
236.605	-10.24
236.822	-28.67
237.04	30.72
237.257	40.96
237.475	18.43
237.692	59.39
237.909	51.2
238.127	18.43
238.344	77.82
238.562	-12.29
238.779	0
238.996	47.1
239.214	-2.05
239.431	108.54
239.648	8.19
239.865	55.3
240.083	24.58
240.3	-12.29
240.517	-8.19
240.735	47.1
240.952	83.97
241.169	122.88
241.386	26.62
241.603	30.72
241.821	53.25
242.038	18.43
242.255	32.77
242.472	51.2
242.689	-6.14
242.907	71.68
243.124	63.49
243.341	69.63
243.558	49.15
243.775	81.92
243.992	22.53
244.209	-28.67
244.426	59.39
244.643	22.53
244.86	75.77
245.078	-10.24
245.295	57.34
245.512	22.53
245.729	71.68
245.946	6.14
246.163	51.2
246.38	59.39
246.597	38.91
246.814	4.1
247.031	81.92
247.248	51.2
247.464	40.96
247.681	86.01
247.898	49.15
248.115	65.54
248.332	18.43
248.549	57.34
248.766	38.91
248.983	73.73
249.2	83.97
249.417	18.43
249.633	67.58
249.85	38.91
250.067	10.24
250.284	38.91
250.501	83.97
250.717	49.15
250.934	24.58
251.151	88.06
251.368	47.1
251.585	-10.24
251.801	63.49
252.018	59.39
252.235	69.63
252.451	32.77
252.668	92.16
252.885	67.58
253.102	83.97
253.318	51.2
253.535	61.44
253.752	73.73
253.968	6.14
254.185	0
254.401	26.62
254.618	116.73
254.835	61.44
255.051	-49.15
255.268	-10.24
255.484	139.26
255.701	49.15
255.917	18.43
256.134	40.96
256.351	22.53
256.567	112.64
256.784	-4.1
257	22.53
257.217	24.58
257.433	-6.14
257.65	28.67
257.866	75.77
258.082	43.01
258.299	61.44
258.515	57.34
258.732	14.34
258.948	73.73
259.165	69.63
259.381	30.72
259.597	18.43
259.814	36.86
260.03	-2.05
260.246	49.15
260.463	43.01
260.679	-12.29
260.895	-12.29
261.112	79.87
261.328	61.44
261.544	49.15
261.761	65.54
261.977	-18.43
262.193	40.96
262.409	69.63
262.626	2.05
262.842	67.58
263.058	67.58
263.274	73.73
263.49	120.83
263.707	40.96
263.923	45.06
264.139	24.58
264.355	98.3
264.571	83.97
264.787	47.1
265.004	104.45
265.22	6.14
265.436	10.24
265.652	14.34
265.868	-22.53
266.084	65.54
266.3	4.1
266.516	30.72
266.732	-69.63
266.948	34.82
267.164	43.01
267.38	83.97
267.596	104.45
267.812	110.59
268.028	14.34
268.244	75.77
268.46	75.77
268.676	12.29
268.892	30.72
269.108	6.14
269.324	38.91
269.54	-4.1
269.756	75.77
269.972	14.34
270.188	75.77
270.403	34.82
270.619	59.39
270.835	53.25
271.051	36.86
271.267	77.82
271.483	114.69
271.698	34.82
271.914	71.68
272.13	129.02
272.346	14.34
272.562	53.25
272.777	18.43
272.993	22.53
273.209	20.48
273.425	-2.05
273.64	40.96
273.856	49.15
274.072	32.77
274.287	59.39
274.503	28.67
274.719	-34.82
274.934	10.24
275.15	43.01
275.366	40.96
275.581	32.77
275.797	16.38
276.012	-6.14
276.228	20.48
276.444	-4.1
276.659	88.06
276.875	59.39
277.09	28.67
277.306	24.58
277.521	67.58
277.737	22.53
277.952	30.72
278.168	34.82
278.383	67.58
278.599	16.38
278.814	8.19
279.03	22.53
279.245	-14.34
279.461	40.96
279.676	30.72
279.892	-40.96
280.107	110.59
280.322	73.73
280.538	38.91
280.753	86.01
280.969	36.86
281.184	45.06
281.399	53.25
281.615	0
281.83	-12.29
282.045	16.38
282.26	88.06
282.476	-34.82
282.691	45.06
282.906	26.62
283.122	51.2
283.337	-18.43
283.552	-43.01
283.767	59.39
283.983	10.24
284.198	24.58
284.413	38.91
284.628	6.14
284.843	-6.14
285.058	43.01
285.274	57.34
285.489	61.44
285.704	30.72
285.919	69.63
286.134	28.67
286.349	88.06
286.564	-16.38
286.779	73.73
286.995	90.11
287.21	57.34
287.425	43.01
287.64	120.83
287.855	55.3
288.07	22.53
288.285	88.06
288.5	24.58
288.715	47.1
288.93	10.24
289.145	47.1
289.36	28.67
289.575	45.06
289.79	116.73
290.004	51.2
290.219	53.25
290.434	-10.24
290.649	36.86
290.864	10.24
291.079	69.63
291.294	86.01
291.509	49.15
291.724	6.14
291.938	112.64
292.153	69.63
292.368	100.35
292.583	14.34
292.798	18.43
293.012	36.86
293.227	-51.2
293.442	10.24
293.657	65.54
293.871	75.77
294.086	34.82
294.301	104.45
294.516	-12.29
294.73	-40.96
294.945	53.25
295.16	69.63
295.374	77.82
295.589	55.3
295.804	51.2
296.018	-24.58
296.233	71.68
296.447	20.48
296.662	-4.1
296.877	75.77
297.091	22.53
297.306	36.86
297.52	14.34
297.735	88.06
297.949	36.86
298.164	6.14
298.378	26.62
298.593	55.3
298.807	-2.05
299.022	24.58
299.236	120.83
299.451	-18.43
299.665	43.01
299.88	53.25
300.094	40.96
300.309	40.96
300.523	-14.34
300.737	67.58
300.952	-4.1
301.166	59.39
301.381	8.19
301.595	63.49
301.809	67.58
302.024	26.62
302.238	102.4
302.452	14.34
302.667	-16.38
302.881	61.44
303.095	6.14
303.309	32.77
303.524	43.01
303.738	63.49
303.952	32.77
304.166	14.34
304.381	28.67
304.595	59.39
304.809	55.3
305.023	53.25
305.237	36.86
305.452	81.92
305.666	40.96
305.88	36.86
306.094	-55.3
306.308	36.86
306.522	8.19
306.736	10.24
306.95	88.06
307.164	32.77
307.379	-6.14
307.593	47.1
307.807	100.35
308.021	-12.29
308.235	43.01
308.449	18.43
308.663	10.24
308.877	0
309.091	49.15
309.305	100.35
309.519	34.82
309.733	32.77
309.947	8.19
310.161	34.82
310.374	59.39
310.588	94.21
310.802	-10.24
311.016	120.83
311.23	20.48
311.444	20.48
311.658	94.21
311.872	32.77
312.085	65.54
312.299	79.87
312.513	65.54
312.727	59.39
312.941	24.58
313.154	75.77
313.368	0
313.582	38.91
313.796	-4.1
314.009	36.86
314.223	8.19
314.437	38.91
314.651	2.05
314.864	61.44
315.078	0
315.292	51.2
315.505	73.73
315.719	67.58
315.933	-36.86
316.146	22.53
316.36	83.97
316.573	40.96
316.787	-30.72
317.001	92.16
317.214	14.34
317.428	59.39
317.641	-2.05
317.855	-36.86
318.068	32.77
318.282	43.01
318.495	71.68
318.709	20.48
318.922	69.63
319.136	8.19
319.349	47.1
319.563	-30.72
319.776	90.11
319.99	96.25
320.203	36.86
320.417	59.39
320.63	49.15
320.843	22.53
321.057	8.19
321.27	61.44
321.483	24.58
321.697	49.15
321.91	28.67
322.124	100.35
322.337	51.2
322.55	47.1
322.763	0
322.977	81.92
323.19	81.92
323.403	-4.1
323.617	61.44
323.83	22.53
324.043	67.58
324.256	137.21
324.469	116.73
324.683	141.31
324.896	49.15
325.109	55.3
325.322	57.34
325.535	30.72
325.748	71.68
325.962	63.49
326.175	38.91
326.388	114.69
326.601	-6.14
326.814	83.97
327.027	83.97
327.24	0
327.453	12.29
327.666	2.05
327.879	36.86
328.092	63.49
328.305	18.43
328.518	18.43
328.731	-6.14
328.944	96.25
329.157	26.62
329.37	-30.72
329.583	-16.38
329.796	57.34
330.009	61.44
330.222	71.68
330.435	63.49
330.648	36.86
330.861	22.53
331.073	90.11
331.286	-24.58
331.499	36.86
331.712	47.1
331.925	36.86
332.138	141.31
332.35	16.38
332.563	69.63
332.776	43.01
332.989	16.38
333.202	30.72
333.414	-8.19
333.627	47.1
333.84	77.82
334.053	-16.38
334.265	-10.24
334.478	71.68
334.691	61.44
334.903	30.72
335.116	20.48
335.329	49.15
335.541	26.62
335.754	147.45
335.966	45.06
336.179	73.73
336.392	2.05
336.604	100.35
336.817	36.86
337.029	108.54
337.242	-24.58
337.454	53.25
337.667	-22.53
337.88	32.77
338.092	53.25
338.305	-10.24
338.517	-14.34
338.729	86.01
338.942	30.72
339.154	0
339.367	18.43
339.579	28.67
339.792	6.14
340.004	30.72
340.217	-12.29
340.429	88.06
340.641	-10.24
340.854	53.25
341.066	57.34
341.278	122.88
341.491	49.15
341.703	73.73
341.915	14.34
342.128	98.3
342.34	88.06
342.552	45.06
342.764	79.87
342.977	102.4
343.189	65.54
343.401	61.44
343.613	10.24
343.826	45.06
344.038	67.58
344.25	86.01
344.462	36.86
344.674	51.2
344.886	65.54
345.099	43.01
345.311	79.87
345.523	-14.34
345.735	-57.34
345.947	67.58
346.159	98.3
346.371	32.77
346.583	47.1
346.795	77.82
347.007	63.49
347.219	12.29
347.431	40.96
347.643	98.3
347.855	55.3
348.067	49.15
348.279	61.44
348.491	-4.1
348.703	81.92
348.915	40.96
349.127	18.43
349.339	30.72
349.551	51.2
349.763	0
349.975	32.77
350.187	65.54
350.399	-73.73
350.61	40.96
350.822	131.07
351.034	28.67
351.246	12.29
351.458	86.01
351.669	6.14
351.881	43.01
352.093	67.58
352.305	18.43
352.517	77.82
352.728	28.67
352.94	114.69
353.152	28.67
353.363	77.82
353.575	57.34
353.787	73.73
353.999	6.14
354.21	55.3
354.422	55.3
354.633	-24.58
354.845	24.58
355.057	96.25
355.268	71.68
355.48	43.01
355.692	43.01
355.903	0
356.115	57.34
356.326	120.83
356.538	61.44
356.749	10.24
356.961	83.97
357.172	49.15
357.384	40.96
357.595	81.92
357.807	-14.34
358.018	67.58
358.23	8.19
358.441	77.82
358.653	32.77
358.864	24.58
359.075	-6.14
359.287	77.82
359.498	-10.24
359.709	-20.48
359.921	94.21
360.132	43.01
360.344	55.3
360.555	26.62
360.766	92.16
360.977	65.54
361.189	34.82
361.4	88.06
361.611	26.62
361.823	22.53
362.034	81.92
362.245	24.58
362.456	26.62
362.667	26.62
362.879	12.29
363.09	32.77
363.301	61.44
363.512	-8.19
363.723	30.72
363.935	28.67
364.146	2.05
364.357	-4.1
364.568	90.11
364.779	-47.1
364.99	145.41
365.201	30.72
365.412	28.67
365.623	22.53
365.834	63.49
366.045	67.58
366.256	36.86
366.467	32.77
366.678	20.48
366.889	55.3
367.1	22.53
367.311	14.34
367.522	26.62
367.733	38.91
367.944	116.73
368.155	63.49
368.366	43.01
368.577	71.68
368.788	49.15
368.999	55.3
369.209	81.92
369.42	53.25
369.631	45.06
369.842	126.97
370.053	67.58
370.264	67.58
370.474	38.91
370.685	36.86
370.896	108.54
371.107	106.49
371.317	110.59
371.528	34.82
371.739	8.19
371.95	36.86
372.16	47.1
372.371	61.44
372.582	61.44
372.792	79.87
373.003	73.73
373.214	94.21
373.424	49.15
373.635	40.96
373.846	63.49
374.056	63.49
374.267	104.45
374.477	26.62
374.688	96.25
374.898	61.44
375.109	122.88
375.319	12.29
375.53	81.92
375.74	141.31
375.951	36.86
376.161	12.29
376.372	55.3
376.582	116.73
376.793	26.62
377.003	106.49
377.214	75.77
377.424	112.64
377.635	92.16
377.845	-20.48
378.055	53.25
378.266	43.01
378.476	28.67
378.686	24.58
378.897	112.64
379.107	-2.05
379.317	38.91
379.528	8.19
379.738	137.21
379.948	16.38
380.158	47.1
380.369	22.53
380.579	114.69
380.789	34.82
380.999	36.86
381.21	73.73
381.42	32.77
381.63	34.82
381.84	36.86
382.05	22.53
382.261	61.44
382.471	57.34
382.681	22.53
382.891	32.77
383.101	-16.38
383.311	53.25
383.521	28.67
383.731	18.43
383.941	67.58
384.151	57.34
384.361	88.06
384.571	65.54
384.781	104.45
384.991	57.34
385.201	36.86
385.411	-2.05
385.621	6.14
385.831	53.25
386.041	-16.38
386.251	102.4
386.461	114.69
386.671	83.97
386.881	49.15
387.091	63.49
387.301	55.3
387.511	4.1
387.72	26.62
387.93	63.49
388.14	90.11
388.35	67.58
388.56	83.97
388.769	92.16
388.979	53.25
389.189	32.77
389.399	6.14
389.609	61.44
389.818	104.45
390.028	94.21
390.238	69.63
390.447	18.43
390.657	139.26
390.867	16.38
391.076	77.82
391.286	63.49
391.496	38.91
391.705	45.06
391.915	118.78
392.125	79.87
392.334	110.59
392.544	24.58
392.753	73.73
392.963	-18.43
393.172	69.63
393.382	67.58
393.591	51.2
393.801	12.29
394.01	106.49
394.22	88.06
394.429	102.4
394.639	86.01
394.848	8.19
395.058	77.82
395.267	90.11
395.477	86.01
395.686	100.35
395.895	92.16
396.105	47.1
396.314	104.45
396.524	32.77
396.733	98.3
396.942	208.89
397.152	71.68
397.361	149.5
397.57	106.49
397.78	182.27
397.989	120.83
398.198	53.25
398.407	65.54
398.617	57.34
398.826	77.82
399.035	147.45
399.244	73.73
399.453	45.06
399.663	96.25
399.872	129.02
400.081	90.11
400.29	135.17
400.499	81.92
400.708	151.55
400.917	155.65
401.127	98.3
401.336	73.73
401.545	120.83
401.754	69.63
401.963	186.37
402.172	63.49
402.381	114.69
402.59	47.1
402.799	32.77
403.008	79.87
403.217	106.49
403.426	96.25
403.635	32.77
403.844	92.16
404.053	145.41
404.262	112.64
404.471	126.97
404.68	145.41
404.888	22.53
405.097	104.45
405.306	141.31
405.515	88.06
405.724	139.26
405.933	104.45
406.142	129.02
406.35	100.35
406.559	159.74
406.768	172.03
406.977	112.64
407.185	147.45
407.394	145.41
407.603	114.69
407.812	163.84
408.02	225.28
408.229	202.75
408.438	200.7
408.646	155.65
408.855	239.61
409.064	178.17
409.272	233.47
409.481	215.04
409.69	284.67
409.898	200.7
410.107	176.13
410.315	233.47
410.524	245.76
410.733	184.32
410.941	223.23
411.15	278.52
411.358	346.11
411.567	251.9
411.775	350.2
411.984	299
412.192	321.53
412.401	237.56
412.609	307.2
412.818	370.68
413.026	370.68
413.234	413.69
413.443	354.3
413.651	344.06
413.86	348.15
414.068	462.84
414.276	401.4
414.485	378.87
414.693	397.31
414.901	495.61
415.11	452.6
415.318	438.27
415.526	520.18
415.734	493.56
415.943	587.77
416.151	462.84
416.359	567.29
416.567	610.29
416.776	620.53
416.984	673.78
417.192	665.59
417.4	598.01
417.608	692.21
417.817	745.46
418.025	737.27
418.233	739.32
418.441	786.42
418.649	813.04
418.857	776.18
419.065	849.91
419.273	821.24
419.481	882.67
419.689	962.55
419.897	1026.03
420.105	993.26
420.313	1030.13
420.521	1091.57
420.729	1110
420.937	1103.86
421.145	1257.45
421.353	1183.73
421.561	1308.65
421.769	1202.16
421.977	1279.98
422.185	1345.52
422.393	1480.68
422.601	1476.59
422.809	1439.72
423.017	1503.21
423.224	1689.57
423.432	1679.33
423.64	1699.81
423.848	1759.21
424.056	1726.44
424.263	2015.2
424.471	1748.97
424.679	1947.62
424.887	2021.35
425.094	2090.98
425.302	2113.5
425.51	2209.76
425.718	2215.9
425.925	2275.29
426.133	2295.77
426.341	2408.41
426.548	2539.48
426.756	2574.3
426.964	2631.64
427.171	2746.33
427.379	2879.44
427.586	2973.65
427.794	3020.75
428.001	3033.04
428.209	3166.16
428.417	3198.93
428.624	3385.29
428.832	3436.49
429.039	3446.73
429.247	3260.37
429.454	3712.97
429.662	3893.19
429.869	3833.8
430.076	4118.47
430.284	3786.69
430.491	3872.71
430.699	4231.1
430.906	4227.01
431.114	4140.99
431.321	4589.5
431.528	4405.18
431.736	4847.54
431.943	5009.33
432.15	4894.65
432.358	4841.4
432.565	5205.94
432.772	5148.59
432.979	5246.9
433.187	5388.21
433.394	5574.57
433.601	6115.23
433.808	6041.51
434.016	5937.06
434.223	6160.29
434.43	6543.26
434.637	6563.74
434.844	6883.22
435.052	6967.19
435.259	6809.5
435.466	6856.6
435.673	6795.16
435.88	7384.98
436.087	7823.24
436.294	7698.31
436.501	7608.2
436.708	7763.85
436.915	7987.08
437.122	8187.78
437.329	8423.3
437.537	8515.45
437.743	8523.65
437.95	8693.63
438.157	9035.64
438.364	9523.05
438.571	9422.7
438.778	9363.31
438.985	10211.17
439.192	9992.04
439.399	10190.69
439.606	9926.5
439.813	10403.68
440.02	11345.75
440.227	10993.5
440.433	10784.6
440.64	11251.54
440.847	11245.4
441.054	11540.3
441.261	12300.1
441.467	11972.43
441.674	12230.47
441.881	12799.8
442.088	12654.4
442.294	12494.66
442.501	12859.2
442.708	13156.15
442.914	13707.05
443.121	14190.38
443.328	13840.17
443.534	14692.13
443.741	14462.76
443.948	14212.9
444.154	15636.24
444.361	15114.01
444.568	15456.02
444.774	15552.27
444.981	15609.62
445.187	15894.29
445.394	16776.96
445.6	16541.44
445.807	17913.58
446.013	17073.92
446.22	17544.95
446.426	18314.98
446.633	18411.24
446.839	19033.82
447.046	18290.41
447.252	19160.8
447.459	19453.66
447.665	18956
447.871	20059.85
448.078	20735.68
448.284	19523.29
448.491	20358.86
448.697	20889.28
448.903	21477.05
449.11	21569.21
449.316	21268.16
449.522	21495.48
449.728	22109.87
449.935	22177.45
450.141	22554.28
450.347	22728.36
450.553	22193.84
450.76	22404.78
450.966	23158.43
451.172	22851.24
451.378	23369.37
451.584	22705.83
451.791	23547.54
451.997	23330.46
452.203	23721.62
452.409	23785.11
452.615	23537.3
452.821	22574.76
453.027	22490.79
453.233	23746.2
453.44	22759.08
453.646	23152.29
453.852	23383.71
454.058	23379.61
454.264	22716.07
454.47	23219.87
454.676	22320.81
454.882	23297.69
455.088	21376.7
455.294	21575.35
455.5	21708.47
455.705	22021.81
455.911	20913.86
456.117	20895.43
456.323	20614.85
456.529	19402.46
456.735	20055.76
456.941	19799.76
457.147	19480.28
457.352	18984.67
457.558	18667.24
457.764	18437.86
457.97	18357.99
458.176	18038.51
458.381	17692.4
458.587	16783.1
458.793	17137.4
458.999	16172.81
459.204	17286.9
459.41	16715.52
459.616	15589.14
459.821	15662.86
460.027	15552.27
460.233	15130.39
460.438	14323.49
460.644	14622.5
460.85	13961
461.055	13831.98
461.261	13532.98
461.466	12728.13
461.672	12496.71
461.878	13279.03
462.083	12408.64
462.289	12486.47
462.494	12248.9
462.7	11538.26
462.905	11251.54
463.111	11816.78
463.316	11480.91
463.522	11366.23
463.727	11489.1
463.932	11319.12
464.138	11339.6
464.343	11360.08
464.549	10747.74
464.754	11372.37
464.959	11048.79
465.165	11372.37
465.37	10563.42
465.575	10487.65
465.781	11024.22
465.986	10803.04
466.191	10729.31
466.397	10444.64
466.602	9731.95
466.807	10280.8
467.012	10340.19
467.218	10170.21
467.423	10065.77
467.628	10002.28
467.833	10354.53
468.038	10123.11
468.244	9973.61
468.449	10233.7
468.654	9918.31
468.859	9854.83
469.064	9744.24
469.269	9543.53
469.474	9432.94
469.679	9672.56
