Data from USB4F104151__213__14-00-02-324.txt Node

Date: Thu Mar 13 14:00:02 EDT 2025
User: louis
Spectrometer: USB4F10415
Trigger mode: 4
Integration Time (sec): 1.000000E-2
Scans to average: 1
Electric dark correction enabled: true
Nonlinearity correction enabled: false
Boxcar width: 0
XAxis mode: Wavelengths
Number of Pixels in Spectrum: 3648
>>>>>Begin Spectral Data<<<<<
178.204	-40.45
178.424	-40.45
178.644	-40.45
178.864	-60.93
179.084	-91.65
179.304	20.99
179.524	16.9
179.744	-40.45
179.964	43.52
180.184	29.18
180.404	2.56
180.624	-58.88
180.844	18.94
181.064	-40.45
181.283	49.66
181.503	16.9
181.723	-58.88
181.943	-54.78
182.163	47.62
182.383	-56.83
182.602	61.95
182.822	49.66
183.042	90.62
183.262	41.47
183.482	51.71
183.701	-3.58
183.921	20.99
184.141	41.47
184.361	6.66
184.58	-7.68
184.8	-32.26
185.02	12.8
185.239	6.66
185.459	-15.87
185.679	10.75
185.898	31.23
186.118	25.09
186.338	29.18
186.557	31.23
186.777	25.09
186.997	-24.06
187.216	-15.87
187.436	74.24
187.655	29.18
187.875	57.86
188.095	-11.78
188.314	29.18
188.534	2.56
188.753	25.09
188.973	25.09
189.192	-28.16
189.412	88.57
189.631	41.47
189.851	-24.06
190.07	61.95
190.29	-28.16
190.509	-15.87
190.729	8.7
190.948	31.23
191.168	37.38
191.387	12.8
191.607	20.99
191.826	57.86
192.045	37.38
192.265	-3.58
192.484	74.24
192.704	-34.3
192.923	55.81
193.142	43.52
193.362	4.61
193.581	-40.45
193.8	4.61
194.02	37.38
194.239	-22.02
194.458	51.71
194.678	18.94
194.897	31.23
195.116	-17.92
195.335	-11.78
195.555	-13.82
195.774	29.18
195.993	84.48
196.212	68.09
196.432	33.28
196.651	-48.64
196.87	49.66
197.089	33.28
197.308	14.85
197.528	76.29
197.747	-50.69
197.966	-7.68
198.185	84.48
198.404	-1.54
198.623	12.8
198.842	76.29
199.062	-19.97
199.281	49.66
199.5	45.57
199.719	90.62
199.938	-28.16
200.157	74.24
200.376	66.05
200.595	-24.06
200.814	45.57
201.033	16.9
201.252	39.42
201.471	74.24
201.69	4.61
201.909	82.43
202.128	4.61
202.347	0.51
202.566	-15.87
202.785	78.33
203.004	-24.06
203.223	8.7
203.442	-5.63
203.661	2.56
203.879	-44.54
204.098	45.57
204.317	35.33
204.536	-28.16
204.755	-11.78
204.974	37.38
205.193	57.86
205.411	72.19
205.63	35.33
205.849	53.76
206.068	-50.69
206.287	55.81
206.505	-30.21
206.724	31.23
206.943	37.38
207.162	33.28
207.381	20.99
207.599	45.57
207.818	53.76
208.037	35.33
208.255	10.75
208.474	25.09
208.693	2.56
208.911	-13.82
209.13	29.18
209.349	33.28
209.567	31.23
209.786	-11.78
210.005	-7.68
210.223	16.9
210.442	57.86
210.661	51.71
210.879	29.18
211.098	33.28
211.316	-5.63
211.535	92.67
211.753	53.76
211.972	82.43
212.191	31.23
212.409	-30.21
212.628	4.61
212.846	2.56
213.065	39.42
213.283	29.18
213.502	-1.54
213.72	72.19
213.938	16.9
214.157	31.23
214.375	20.99
214.594	-22.02
214.812	-28.16
215.031	-11.78
215.249	45.57
215.467	35.33
215.686	39.42
215.904	12.8
216.122	-24.06
216.341	-1.54
216.559	104.96
216.778	2.56
216.996	-32.26
217.214	-48.64
217.432	49.66
217.651	-13.82
217.869	2.56
218.087	16.9
218.306	-30.21
218.524	8.7
218.742	25.09
218.96	-28.16
219.179	-7.68
219.397	16.9
219.615	57.86
219.833	53.76
220.051	2.56
220.27	27.14
220.488	18.94
220.706	-24.06
220.924	33.28
221.142	18.94
221.36	25.09
221.578	90.62
221.796	55.81
222.015	6.66
222.233	4.61
222.451	57.86
222.669	33.28
222.887	12.8
223.105	37.38
223.323	35.33
223.541	4.61
223.759	-22.02
223.977	-3.58
224.195	51.71
224.413	10.75
224.631	-24.06
224.849	-5.63
225.067	76.29
225.285	-17.92
225.503	-3.58
225.721	27.14
225.939	-3.58
226.157	59.9
226.375	37.38
226.592	33.28
226.81	57.86
227.028	-30.21
227.246	25.09
227.464	49.66
227.682	27.14
227.9	-26.11
228.117	-5.63
228.335	20.99
228.553	72.19
228.771	2.56
228.989	55.81
229.206	-19.97
229.424	45.57
229.642	47.62
229.86	-17.92
230.077	64
230.295	68.09
230.513	12.8
230.731	41.47
230.948	31.23
231.166	18.94
231.384	-34.3
231.601	57.86
231.819	29.18
232.037	-24.06
232.254	18.94
232.472	33.28
232.689	-13.82
232.907	-13.82
233.125	-15.87
233.342	55.81
233.56	-22.02
233.777	29.18
233.995	20.99
234.213	31.23
234.43	25.09
234.648	74.24
234.865	-1.54
235.083	16.9
235.3	-24.06
235.518	16.9
235.735	80.38
235.953	33.28
236.17	47.62
236.388	2.56
236.605	98.81
236.822	51.71
237.04	16.9
237.257	45.57
237.475	0.51
237.692	12.8
237.909	-7.68
238.127	6.66
238.344	4.61
238.562	-9.73
238.779	-7.68
238.996	55.81
239.214	51.71
239.431	6.66
239.648	-32.26
239.865	-7.68
240.083	76.29
240.3	-42.5
240.517	43.52
240.735	14.85
240.952	14.85
241.169	43.52
241.386	-11.78
241.603	-32.26
241.821	27.14
242.038	64
242.255	-5.63
242.472	-28.16
242.689	76.29
242.907	68.09
243.124	61.95
243.341	84.48
243.558	45.57
243.775	-22.02
243.992	33.28
244.209	25.09
244.426	55.81
244.643	29.18
244.86	-22.02
245.078	41.47
245.295	8.7
245.512	59.9
245.729	16.9
245.946	33.28
246.163	74.24
246.38	-50.69
246.597	-5.63
246.814	37.38
247.031	49.66
247.248	-15.87
247.464	51.71
247.681	8.7
247.898	-15.87
248.115	0.51
248.332	0.51
248.549	78.33
248.766	66.05
248.983	39.42
249.2	-1.54
249.417	49.66
249.633	35.33
249.85	16.9
250.067	-44.54
250.284	18.94
250.501	16.9
250.717	16.9
250.934	8.7
251.151	74.24
251.368	68.09
251.585	10.75
251.801	109.05
252.018	41.47
252.235	33.28
252.451	33.28
252.668	23.04
252.885	27.14
253.102	-7.68
253.318	-85.5
253.535	68.09
253.752	94.72
253.968	23.04
254.185	6.66
254.401	14.85
254.618	-13.82
254.835	-5.63
255.051	-40.45
255.268	10.75
255.484	53.76
255.701	31.23
255.917	61.95
256.134	-32.26
256.351	-7.68
256.567	-42.5
256.784	16.9
257	-38.4
257.217	18.94
257.433	66.05
257.65	0.51
257.866	25.09
258.082	8.7
258.299	-30.21
258.515	57.86
258.732	-7.68
258.948	37.38
259.165	49.66
259.381	2.56
259.597	-9.73
259.814	-3.58
260.03	55.81
260.246	133.63
260.463	-3.58
260.679	10.75
260.895	-17.92
261.112	51.71
261.328	25.09
261.544	16.9
261.761	33.28
261.977	43.52
262.193	23.04
262.409	-11.78
262.626	33.28
262.842	-7.68
263.058	29.18
263.274	45.57
263.49	74.24
263.707	61.95
263.923	37.38
264.139	82.43
264.355	-81.41
264.571	55.81
264.787	102.91
265.004	16.9
265.22	-13.82
265.436	16.9
265.652	47.62
265.868	82.43
266.084	18.94
266.3	-38.4
266.516	57.86
266.732	0.51
266.948	51.71
267.164	-11.78
267.38	31.23
267.596	-11.78
267.812	-5.63
268.028	8.7
268.244	43.52
268.46	-11.78
268.676	51.71
268.892	45.57
269.108	-28.16
269.324	66.05
269.54	-34.3
269.756	92.67
269.972	29.18
270.188	-9.73
270.403	-26.11
270.619	4.61
270.835	53.76
271.051	14.85
271.267	-9.73
271.483	0.51
271.698	2.56
271.914	41.47
272.13	-7.68
272.346	-13.82
272.562	-54.78
272.777	66.05
272.993	-36.35
273.209	92.67
273.425	74.24
273.64	31.23
273.856	4.61
274.072	49.66
274.287	8.7
274.503	72.19
274.719	27.14
274.934	-28.16
275.15	-19.97
275.366	61.95
275.581	80.38
275.797	43.52
276.012	51.71
276.228	20.99
276.444	29.18
276.659	-7.68
276.875	64
277.09	59.9
277.306	68.09
277.521	43.52
277.737	-28.16
277.952	51.71
278.168	-5.63
278.383	18.94
278.599	-69.12
278.814	84.48
279.03	37.38
279.245	20.99
279.461	-3.58
279.676	68.09
279.892	51.71
280.107	-1.54
280.322	-26.11
280.538	59.9
280.753	16.9
280.969	35.33
281.184	35.33
281.399	82.43
281.615	33.28
281.83	2.56
282.045	4.61
282.26	12.8
282.476	23.04
282.691	98.81
282.906	18.94
283.122	4.61
283.337	-13.82
283.552	61.95
283.767	2.56
283.983	84.48
284.198	8.7
284.413	37.38
284.628	96.77
284.843	43.52
285.058	33.28
285.274	20.99
285.489	20.99
285.704	82.43
285.919	29.18
286.134	-11.78
286.349	-1.54
286.564	16.9
286.779	49.66
286.995	45.57
287.21	39.42
287.425	59.9
287.64	4.61
287.855	137.73
288.07	-56.83
288.285	96.77
288.5	-13.82
288.715	8.7
288.93	27.14
289.145	-48.64
289.36	49.66
289.575	78.33
289.79	31.23
290.004	0.51
290.219	-26.11
290.434	12.8
290.649	-93.69
290.864	-9.73
291.079	59.9
291.294	45.57
291.509	-19.97
291.724	53.76
291.938	-15.87
292.153	37.38
292.368	25.09
292.583	33.28
292.798	31.23
293.012	-15.87
293.227	27.14
293.442	43.52
293.657	37.38
293.871	41.47
294.086	-19.97
294.301	-24.06
294.516	25.09
294.73	64
294.945	59.9
295.16	49.66
295.374	-15.87
295.589	88.57
295.804	-24.06
296.018	53.76
296.233	49.66
296.447	-32.26
296.662	2.56
296.877	35.33
297.091	57.86
297.306	33.28
297.52	43.52
297.735	27.14
297.949	43.52
298.164	27.14
298.378	2.56
298.593	18.94
298.807	37.38
299.022	-1.54
299.236	115.2
299.451	80.38
299.665	23.04
299.88	43.52
300.094	33.28
300.309	0.51
300.523	-24.06
300.737	-97.79
300.952	-24.06
301.166	47.62
301.381	70.14
301.595	8.7
301.809	49.66
302.024	2.56
302.238	27.14
302.452	-7.68
302.667	-28.16
302.881	18.94
303.095	33.28
303.309	66.05
303.524	49.66
303.738	-13.82
303.952	43.52
304.166	35.33
304.381	59.9
304.595	66.05
304.809	10.75
305.023	29.18
305.237	70.14
305.452	47.62
305.666	20.99
305.88	82.43
306.094	0.51
306.308	12.8
306.522	-24.06
306.736	37.38
306.95	-11.78
307.164	10.75
307.379	-19.97
307.593	107.01
307.807	25.09
308.021	-19.97
308.235	41.47
308.449	33.28
308.663	18.94
308.877	88.57
309.091	4.61
309.305	14.85
309.519	6.66
309.733	57.86
309.947	-13.82
310.161	-28.16
310.374	35.33
310.588	82.43
310.802	8.7
311.016	76.29
311.23	45.57
311.444	35.33
311.658	74.24
311.872	64
312.085	68.09
312.299	27.14
312.513	18.94
312.727	49.66
312.941	6.66
313.154	53.76
313.368	25.09
313.582	27.14
313.796	29.18
314.009	100.86
314.223	2.56
314.437	74.24
314.651	29.18
314.864	53.76
315.078	64
315.292	102.91
315.505	59.9
315.719	31.23
315.933	43.52
316.146	66.05
316.36	4.61
316.573	8.7
316.787	109.05
317.001	-22.02
317.214	45.57
317.428	45.57
317.641	59.9
317.855	31.23
318.068	12.8
318.282	-9.73
318.495	82.43
318.709	45.57
318.922	23.04
319.136	43.52
319.349	29.18
319.563	82.43
319.776	94.72
319.99	57.86
320.203	35.33
320.417	45.57
320.63	0.51
320.843	-13.82
321.057	31.23
321.27	-13.82
321.483	39.42
321.697	20.99
321.91	29.18
322.124	98.81
322.337	61.95
322.55	-69.12
322.763	43.52
322.977	0.51
323.19	94.72
323.403	12.8
323.617	61.95
323.83	107.01
324.043	0.51
324.256	49.66
324.469	-7.68
324.683	4.61
324.896	27.14
325.109	-13.82
325.322	-46.59
325.535	66.05
325.748	29.18
325.962	35.33
326.175	45.57
326.388	12.8
326.601	25.09
326.814	80.38
327.027	41.47
327.24	92.67
327.453	49.66
327.666	18.94
327.879	43.52
328.092	39.42
328.305	76.29
328.518	-1.54
328.731	-46.59
328.944	59.9
329.157	-50.69
329.37	-13.82
329.583	29.18
329.796	29.18
330.009	57.86
330.222	25.09
330.435	29.18
330.648	68.09
330.861	45.57
331.073	25.09
331.286	8.7
331.499	45.57
331.712	4.61
331.925	43.52
332.138	20.99
332.35	6.66
332.563	57.86
332.776	29.18
332.989	-9.73
333.202	43.52
333.414	0.51
333.627	88.57
333.84	6.66
334.053	53.76
334.265	-24.06
334.478	23.04
334.691	6.66
334.903	27.14
335.116	78.33
335.329	20.99
335.541	129.53
335.754	55.81
335.966	12.8
336.179	84.48
336.392	74.24
336.604	33.28
336.817	31.23
337.029	31.23
337.242	66.05
337.454	27.14
337.667	6.66
337.88	35.33
338.092	25.09
338.305	53.76
338.517	31.23
338.729	80.38
338.942	123.39
339.154	8.7
339.367	4.61
339.579	-22.02
339.792	4.61
340.004	-13.82
340.217	23.04
340.429	113.15
340.641	35.33
340.854	82.43
341.066	70.14
341.278	25.09
341.491	41.47
341.703	-19.97
341.915	25.09
342.128	43.52
342.34	-44.54
342.552	25.09
342.764	-56.83
342.977	2.56
343.189	-36.35
343.401	68.09
343.613	29.18
343.826	25.09
344.038	-15.87
344.25	55.81
344.462	57.86
344.674	25.09
344.886	14.85
345.099	10.75
345.311	29.18
345.523	-7.68
345.735	14.85
345.947	8.7
346.159	68.09
346.371	107.01
346.583	43.52
346.795	113.15
347.007	-5.63
347.219	33.28
347.431	20.99
347.643	53.76
347.855	-9.73
348.067	45.57
348.279	-24.06
348.491	10.75
348.703	43.52
348.915	43.52
349.127	2.56
349.339	59.9
349.551	8.7
349.763	66.05
349.975	8.7
350.187	51.71
350.399	43.52
350.61	-7.68
350.822	6.66
351.034	35.33
351.246	-17.92
351.458	92.67
351.669	82.43
351.881	33.28
352.093	51.71
352.305	23.04
352.517	31.23
352.728	6.66
352.94	37.38
353.152	47.62
353.363	-26.11
353.575	74.24
353.787	74.24
353.999	70.14
354.21	49.66
354.422	53.76
354.633	-40.45
354.845	18.94
355.057	4.61
355.268	68.09
355.48	-1.54
355.692	33.28
355.903	2.56
356.115	-36.35
356.326	45.57
356.538	49.66
356.749	-5.63
356.961	41.47
357.172	6.66
357.384	-1.54
357.595	-11.78
357.807	-54.78
358.018	96.77
358.23	41.47
358.441	104.96
358.653	33.28
358.864	92.67
359.075	18.94
359.287	-11.78
359.498	45.57
359.709	0.51
359.921	29.18
360.132	-13.82
360.344	29.18
360.555	49.66
360.766	8.7
360.977	43.52
361.189	20.99
361.4	6.66
361.611	47.62
361.823	64
362.034	-17.92
362.245	70.14
362.456	16.9
362.667	25.09
362.879	23.04
363.09	2.56
363.301	33.28
363.512	80.38
363.723	68.09
363.935	16.9
364.146	-32.26
364.357	43.52
364.568	96.77
364.779	41.47
364.99	18.94
365.201	55.81
365.412	45.57
365.623	-1.54
365.834	-40.45
366.045	-9.73
366.256	84.48
366.467	74.24
366.678	59.9
366.889	74.24
367.1	49.66
367.311	37.38
367.522	45.57
367.733	2.56
367.944	88.57
368.155	61.95
368.366	45.57
368.577	-3.58
368.788	53.76
368.999	57.86
369.209	33.28
369.42	82.43
369.631	41.47
369.842	12.8
370.053	31.23
370.264	-48.64
370.474	-3.58
370.685	25.09
370.896	66.05
371.107	59.9
371.317	90.62
371.528	-3.58
371.739	66.05
371.95	-7.68
372.16	41.47
372.371	-15.87
372.582	2.56
372.792	-5.63
373.003	20.99
373.214	68.09
373.424	57.86
373.635	55.81
373.846	64
374.056	0.51
374.267	74.24
374.477	70.14
374.688	25.09
374.898	55.81
375.109	66.05
375.319	2.56
375.53	117.25
375.74	-46.59
375.951	4.61
376.161	57.86
376.372	74.24
376.582	45.57
376.793	70.14
377.003	92.67
377.214	80.38
377.424	8.7
377.635	76.29
377.845	-1.54
378.055	76.29
378.266	53.76
378.476	76.29
378.686	-7.68
378.897	57.86
379.107	41.47
379.317	57.86
379.528	-11.78
379.738	74.24
379.948	33.28
380.158	94.72
380.369	31.23
380.579	51.71
380.789	16.9
380.999	74.24
381.21	41.47
381.42	51.71
381.63	35.33
381.84	51.71
382.05	18.94
382.261	68.09
382.471	90.62
382.681	8.7
382.891	-1.54
383.101	29.18
383.311	-13.82
383.521	18.94
383.731	25.09
383.941	-1.54
384.151	68.09
384.361	51.71
384.571	143.87
384.781	31.23
384.991	35.33
385.201	86.53
385.411	80.38
385.621	100.86
385.831	14.85
386.041	68.09
386.251	84.48
386.461	47.62
386.671	86.53
386.881	27.14
387.091	18.94
387.301	57.86
387.511	8.7
387.72	-5.63
387.93	98.81
388.14	29.18
388.35	0.51
388.56	-40.45
388.769	20.99
388.979	45.57
389.189	82.43
389.399	6.66
389.609	94.72
389.818	14.85
390.028	45.57
390.238	61.95
390.447	10.75
390.657	51.71
390.867	31.23
391.076	57.86
391.286	98.81
391.496	61.95
391.705	43.52
391.915	57.86
392.125	113.15
392.334	82.43
392.544	90.62
392.753	115.2
392.963	47.62
393.172	78.33
393.382	80.38
393.591	94.72
393.801	16.9
394.01	107.01
394.22	84.48
394.429	98.81
394.639	55.81
394.848	27.14
395.058	49.66
395.267	45.57
395.477	66.05
395.686	98.81
395.895	135.68
396.105	92.67
396.314	66.05
396.524	88.57
396.733	49.66
396.942	78.33
397.152	111.1
397.361	66.05
397.57	113.15
397.78	20.99
397.989	147.97
398.198	125.44
398.407	70.14
398.617	45.57
398.826	78.33
399.035	92.67
399.244	57.86
399.453	131.58
399.663	16.9
399.872	133.63
400.081	88.57
400.29	98.81
400.499	127.49
400.708	49.66
400.917	53.76
401.127	76.29
401.336	84.48
401.545	168.45
401.754	88.57
401.963	176.64
402.172	160.25
402.381	92.67
402.59	29.18
402.799	86.53
403.008	33.28
403.217	55.81
403.426	115.2
403.635	127.49
403.844	23.04
404.053	164.35
404.262	127.49
404.471	74.24
404.68	68.09
404.888	92.67
405.097	70.14
405.306	215.55
405.515	49.66
405.724	180.73
405.933	168.45
406.142	176.64
406.35	96.77
406.559	221.69
406.768	201.21
406.977	174.59
407.185	190.97
407.394	211.45
407.603	133.63
407.812	123.39
408.02	209.4
408.229	115.2
408.438	211.45
408.646	184.83
408.855	180.73
409.064	262.65
409.272	211.45
409.481	231.93
409.69	283.13
409.898	242.17
410.107	264.7
410.315	199.16
410.524	285.18
410.733	291.32
410.941	334.33
411.15	309.76
411.358	307.71
411.567	406.01
411.775	401.91
411.984	332.28
412.192	393.72
412.401	403.96
412.609	338.43
412.818	393.72
413.026	459.26
413.234	408.06
413.443	451.07
413.651	485.88
413.86	502.26
414.068	543.22
414.276	526.84
414.485	580.09
414.693	512.5
414.901	551.42
415.11	508.41
415.318	557.56
415.526	588.28
415.734	616.95
415.943	651.77
416.151	721.4
416.359	657.91
416.567	684.53
416.776	778.74
416.984	782.84
417.192	758.26
417.4	850.42
417.608	852.47
417.817	877.04
418.025	932.34
418.233	948.72
418.441	993.78
418.649	956.91
418.857	1069.55
419.065	1018.35
419.273	1100.27
419.481	1130.99
419.689	1196.53
419.897	1241.58
420.105	1223.15
420.313	1339.88
420.521	1282.54
420.729	1352.17
420.937	1452.52
421.145	1544.68
421.353	1503.72
421.561	1581.54
421.769	1622.5
421.977	1712.61
422.185	1683.94
422.393	1765.86
422.601	1978.85
422.809	1935.84
423.017	1821.16
423.224	1978.85
423.432	1999.33
423.64	1987.04
423.848	2277.85
424.056	2212.32
424.263	2320.86
424.471	2435.55
424.679	2329.05
424.887	2607.58
425.094	2689.49
425.302	2509.27
425.51	2691.54
425.718	2763.22
425.925	2820.56
426.133	3051.99
426.341	3219.92
426.548	3301.84
426.756	3244.49
426.964	3262.93
427.171	3467.72
427.379	3621.32
427.586	3416.52
427.794	3656.14
428.001	3967.43
428.209	4055.49
428.417	4137.41
428.624	4202.94
428.832	4291.01
429.039	4381.12
429.247	4192.7
429.454	4630.97
429.662	4835.77
429.869	4561.34
430.076	4841.91
430.284	4794.81
430.491	4981.17
430.699	5448.11
430.906	5339.57
431.114	5284.27
431.321	5577.13
431.528	5704.1
431.736	6046.12
431.943	6314.4
432.15	6099.36
432.358	6234.53
432.565	6621.59
432.772	6531.48
432.979	6662.55
433.187	7127.44
433.394	7047.57
433.601	7549.32
433.808	7477.65
434.016	7332.24
434.223	7690.63
434.43	8321.41
434.637	8157.57
434.844	8626.56
435.052	8712.57
435.259	8599.93
435.466	8800.63
435.673	8608.12
435.88	9404.78
436.087	9718.12
436.294	9591.15
436.501	9613.68
436.708	9689.45
436.915	9937.26
437.122	10369.38
437.329	10373.47
437.537	10707.29
437.743	10975.58
437.95	10926.43
438.157	11495.76
438.364	11813.2
438.571	11784.52
438.778	11809.1
438.985	12976.44
439.192	12366.15
439.399	12841.28
439.606	12616
439.813	13066.55
440.02	14264.61
440.227	13801.77
440.433	13601.07
440.64	14025
440.847	13918.51
441.054	14471.46
441.261	15446.29
441.467	14944.54
441.674	15538.45
441.881	16056.59
442.088	15993.1
442.294	15839.5
442.501	16449.8
442.708	16578.82
442.914	17004.8
443.121	17842.42
443.328	17475.83
443.534	18618.6
443.741	18278.63
443.948	17883.38
444.154	19493.08
444.361	18913.5
444.568	19374.3
444.774	19271.9
444.981	19425.5
445.187	20037.84
445.394	20762.82
445.6	20695.24
445.807	22728.87
446.013	21407.93
446.22	22020.27
446.426	22694.05
446.633	23050.4
446.839	23808.15
447.046	22659.24
447.252	23871.64
447.459	23867.54
447.665	24223.89
447.871	24969.35
448.078	26255.47
448.284	25059.46
448.491	25636.98
448.697	26398.83
448.903	26697.83
449.11	27197.54
449.316	26787.94
449.522	27088.99
449.728	27830.36
449.935	28049.49
450.141	28178.51
450.347	28471.37
450.553	27961.43
450.76	28211.28
450.966	29003.85
451.172	29120.58
451.378	29311.04
451.584	28717.13
451.791	29407.3
451.997	29380.67
452.203	30310.45
452.409	30267.44
452.615	29845.56
452.821	28487.76
453.027	28184.66
453.233	29829.18
453.44	28473.42
453.646	29003.85
453.852	28987.46
454.058	29501.5
454.264	28616.78
454.47	29300.8
454.676	28579.92
454.882	29065.28
455.088	26925.16
455.294	27471.96
455.5	27713.63
455.705	28188.75
455.911	26755.18
456.117	26300.53
456.323	26011.76
456.529	24699.02
456.735	25522.3
456.941	25188.48
457.147	24600.71
457.352	23730.33
457.558	23734.42
457.764	23728.28
457.97	22974.63
458.176	22706.34
458.381	22775.97
458.587	21500.09
458.793	21891.25
458.999	20560.07
459.204	22296.75
459.41	21645.49
459.616	19912.91
459.821	20064.46
460.027	19923.15
460.233	19587.29
460.438	18532.58
460.644	18925.79
460.85	18028.78
461.055	17672.43
461.261	17723.63
461.466	16335.11
461.672	16197.9
461.878	17023.23
462.083	15853.84
462.289	15681.81
462.494	15718.67
462.7	14756.13
462.905	14436.64
463.111	14840.09
463.316	14866.72
463.522	14633.25
463.727	14758.17
463.932	14545.19
464.138	14719.26
464.343	14756.13
464.549	14080.3
464.754	14532.9
464.959	14561.57
465.165	14410.02
465.37	13898.03
465.575	13490.48
465.781	13951.28
465.986	14051.63
466.191	13672.75
466.397	13300.02
466.602	12706.11
466.807	13365.56
467.012	13224.25
467.218	13236.53
467.423	12919.1
467.628	13197.62
467.833	13480.24
468.038	12818.75
468.244	12575.04
468.449	13181.24
468.654	12798.27
