Data from USB4F104151__67__13-53-53-894.txt Node

Date: Thu Mar 13 13:53:53 EDT 2025
User: louis
Spectrometer: USB4F10415
Trigger mode: 4
Integration Time (sec): 1.000000E-2
Scans to average: 1
Electric dark correction enabled: true
Nonlinearity correction enabled: false
Boxcar width: 0
XAxis mode: Wavelengths
Number of Pixels in Spectrum: 3648
>>>>>Begin Spectral Data<<<<<
178.204	-89.09
178.424	-89.09
178.644	-89.09
178.864	-107.52
179.084	9.22
179.304	15.36
179.524	37.89
179.744	-21.5
179.964	11.26
180.184	-39.94
180.404	3.07
180.624	-19.46
180.844	31.74
181.064	-11.26
181.283	-9.22
181.503	-52.22
181.723	54.27
181.943	-31.74
182.163	21.5
182.383	17.41
182.602	-84.99
182.822	68.61
183.042	-46.08
183.262	23.55
183.482	35.84
183.701	-52.22
183.921	-13.31
184.141	-33.79
184.361	-17.41
184.58	21.5
184.8	3.07
185.02	-13.31
185.239	-62.46
185.459	46.08
185.679	-23.55
185.898	-31.74
186.118	17.41
186.338	-58.37
186.557	21.5
186.777	58.37
186.997	-19.46
187.216	-54.27
187.436	5.12
187.655	-89.09
187.875	-9.22
188.095	-17.41
188.314	-5.12
188.534	-1.02
188.753	3.07
188.973	15.36
189.192	-3.07
189.412	52.22
189.631	-48.13
189.851	1.02
190.07	66.56
190.29	-1.02
190.509	-5.12
190.729	-19.46
190.948	29.7
191.168	44.03
191.387	27.65
191.607	7.17
191.826	13.31
192.045	72.7
192.265	-17.41
192.484	13.31
192.704	-44.03
192.923	-21.5
193.142	-7.17
193.362	-33.79
193.581	21.5
193.8	11.26
194.02	27.65
194.239	-39.94
194.458	44.03
194.678	-17.41
194.897	-3.07
195.116	-27.65
195.335	-15.36
195.555	21.5
195.774	21.5
195.993	13.31
196.212	80.89
196.432	31.74
196.651	-9.22
196.87	-27.65
197.089	78.85
197.308	64.51
197.528	29.7
197.747	-17.41
197.966	11.26
198.185	-17.41
198.404	-17.41
198.623	29.7
198.842	-1.02
199.062	11.26
199.281	23.55
199.5	-31.74
199.719	35.84
199.938	21.5
200.157	74.75
200.376	-21.5
200.595	39.94
200.814	29.7
201.033	-13.31
201.252	5.12
201.471	15.36
201.69	-13.31
201.909	19.46
202.128	-9.22
202.347	-13.31
202.566	-3.07
202.785	5.12
203.004	50.18
203.223	31.74
203.442	1.02
203.661	19.46
203.879	5.12
204.098	37.89
204.317	-33.79
204.536	80.89
204.755	-5.12
204.974	-11.26
205.193	19.46
205.411	-48.13
205.63	-35.84
205.849	62.46
206.068	-39.94
206.287	-66.56
206.505	25.6
206.724	-15.36
206.943	-19.46
207.162	9.22
207.381	-9.22
207.599	-64.51
207.818	23.55
208.037	7.17
208.255	-13.31
208.474	11.26
208.693	-46.08
208.911	17.41
209.13	58.37
209.349	-15.36
209.567	-13.31
209.786	60.42
210.005	-19.46
210.223	11.26
210.442	-3.07
210.661	27.65
210.879	-3.07
211.098	-91.13
211.316	35.84
211.535	-25.6
211.753	-9.22
211.972	15.36
212.191	1.02
212.409	-7.17
212.628	5.12
212.846	-3.07
213.065	-101.37
213.283	13.31
213.502	-5.12
213.72	35.84
213.938	9.22
214.157	-1.02
214.375	-35.84
214.594	-25.6
214.812	7.17
215.031	-64.51
215.249	-5.12
215.467	48.13
215.686	25.6
215.904	39.94
216.122	7.17
216.341	-1.02
216.559	-46.08
216.778	-70.65
216.996	-11.26
217.214	-33.79
217.432	-5.12
217.651	3.07
217.869	-52.22
218.087	-7.17
218.306	-7.17
218.524	11.26
218.742	54.27
218.96	-19.46
219.179	3.07
219.397	-25.6
219.615	1.02
219.833	19.46
220.051	-11.26
220.27	37.89
220.488	48.13
220.706	-3.07
220.924	-19.46
221.142	-9.22
221.36	-5.12
221.578	31.74
221.796	1.02
222.015	-13.31
222.233	29.7
222.451	-17.41
222.669	25.6
222.887	72.7
223.105	27.65
223.323	33.79
223.541	-82.94
223.759	62.46
223.977	-39.94
224.195	15.36
224.413	-35.84
224.631	-48.13
224.849	-19.46
225.067	56.32
225.285	39.94
225.503	25.6
225.721	23.55
225.939	-19.46
226.157	21.5
226.375	105.47
226.592	-48.13
226.81	-17.41
227.028	-46.08
227.246	5.12
227.464	-66.56
227.682	82.94
227.9	-70.65
228.117	-13.31
228.335	15.36
228.553	37.89
228.771	29.7
228.989	7.17
229.206	46.08
229.424	25.6
229.642	-66.56
229.86	-29.7
230.077	33.79
230.295	56.32
230.513	-21.5
230.731	52.22
230.948	5.12
231.166	31.74
231.384	1.02
231.601	13.31
231.819	-5.12
232.037	3.07
232.254	-19.46
232.472	66.56
232.689	-11.26
232.907	58.37
233.125	56.32
233.342	-11.26
233.56	-13.31
233.777	35.84
233.995	27.65
234.213	33.79
234.43	-3.07
234.648	19.46
234.865	23.55
235.083	-25.6
235.3	9.22
235.518	-5.12
235.735	29.7
235.953	-21.5
236.17	-35.84
236.388	-68.61
236.605	-5.12
236.822	-7.17
237.04	-44.03
237.257	-44.03
237.475	23.55
237.692	31.74
237.909	13.31
238.127	-1.02
238.344	-48.13
238.562	-3.07
238.779	5.12
238.996	37.89
239.214	1.02
239.431	17.41
239.648	23.55
239.865	-21.5
240.083	3.07
240.3	-25.6
240.517	-13.31
240.735	13.31
240.952	15.36
241.169	-5.12
241.386	31.74
241.603	48.13
241.821	-25.6
242.038	15.36
242.255	-91.13
242.472	25.6
242.689	-54.27
242.907	-35.84
243.124	-50.18
243.341	13.31
243.558	21.5
243.775	-3.07
243.992	13.31
244.209	54.27
244.426	66.56
244.643	33.79
244.86	15.36
245.078	11.26
245.295	-9.22
245.512	7.17
245.729	-7.17
245.946	37.89
246.163	11.26
246.38	76.8
246.597	-9.22
246.814	-9.22
247.031	58.37
247.248	39.94
247.464	46.08
247.681	-46.08
247.898	-29.7
248.115	-48.13
248.332	-52.22
248.549	91.13
248.766	50.18
248.983	19.46
249.2	-25.6
249.417	76.8
249.633	-19.46
249.85	41.98
250.067	19.46
250.284	-7.17
250.501	5.12
250.717	15.36
250.934	52.22
251.151	-3.07
251.368	64.51
251.585	-44.03
251.801	7.17
252.018	-50.18
252.235	-5.12
252.451	33.79
252.668	72.7
252.885	33.79
253.102	54.27
253.318	-25.6
253.535	23.55
253.752	-27.65
253.968	-21.5
254.185	-3.07
254.401	-27.65
254.618	-52.22
254.835	-23.55
255.051	-21.5
255.268	5.12
255.484	13.31
255.701	-23.55
255.917	44.03
256.134	-23.55
256.351	31.74
256.567	35.84
256.784	-13.31
257	23.55
257.217	9.22
257.433	-11.26
257.65	25.6
257.866	31.74
258.082	-27.65
258.299	19.46
258.515	27.65
258.732	-31.74
258.948	33.79
259.165	15.36
259.381	37.89
259.597	54.27
259.814	-1.02
260.03	76.8
260.246	39.94
260.463	-19.46
260.679	41.98
260.895	25.6
261.112	60.42
261.328	-3.07
261.544	-25.6
261.761	-1.02
261.977	-5.12
262.193	-15.36
262.409	1.02
262.626	-23.55
262.842	13.31
263.058	-44.03
263.274	-39.94
263.49	-9.22
263.707	54.27
263.923	-11.26
264.139	-29.7
264.355	-19.46
264.571	-19.46
264.787	-29.7
265.004	46.08
265.22	-1.02
265.436	-62.46
265.652	37.89
265.868	11.26
266.084	-33.79
266.3	3.07
266.516	15.36
266.732	84.99
266.948	-31.74
267.164	50.18
267.38	-7.17
267.596	52.22
267.812	7.17
268.028	56.32
268.244	-7.17
268.46	33.79
268.676	-33.79
268.892	37.89
269.108	72.7
269.324	-19.46
269.54	5.12
269.756	44.03
269.972	29.7
270.188	74.75
270.403	44.03
270.619	56.32
270.835	33.79
271.051	41.98
271.267	-23.55
271.483	17.41
271.698	3.07
271.914	-11.26
272.13	44.03
272.346	-13.31
272.562	-25.6
272.777	48.13
272.993	-33.79
273.209	9.22
273.425	-3.07
273.64	-19.46
273.856	-17.41
274.072	78.85
274.287	3.07
274.503	19.46
274.719	23.55
274.934	-9.22
275.15	-44.03
275.366	-3.07
275.581	1.02
275.797	7.17
276.012	-50.18
276.228	-21.5
276.444	54.27
276.659	-5.12
276.875	70.65
277.09	46.08
277.306	76.8
277.521	-52.22
277.737	-46.08
277.952	66.56
278.168	-31.74
278.383	-27.65
278.599	31.74
278.814	3.07
279.03	-35.84
279.245	23.55
279.461	25.6
279.676	23.55
279.892	25.6
280.107	93.18
280.322	66.56
280.538	-37.89
280.753	23.55
280.969	33.79
281.184	39.94
281.399	23.55
281.615	21.5
281.83	44.03
282.045	-9.22
282.26	-13.31
282.476	58.37
282.691	15.36
282.906	39.94
283.122	7.17
283.337	11.26
283.552	23.55
283.767	-60.42
283.983	27.65
284.198	-54.27
284.413	87.04
284.628	17.41
284.843	-5.12
285.058	39.94
285.274	29.7
285.489	-50.18
285.704	25.6
285.919	-5.12
286.134	-21.5
286.349	68.61
286.564	76.8
286.779	52.22
286.995	52.22
287.21	-5.12
287.425	29.7
287.64	25.6
287.855	9.22
288.07	-39.94
288.285	41.98
288.5	-1.02
288.715	15.36
288.93	19.46
289.145	15.36
289.36	5.12
289.575	11.26
289.79	-44.03
290.004	52.22
290.219	19.46
290.434	5.12
290.649	13.31
290.864	-39.94
291.079	19.46
291.294	-15.36
291.509	-31.74
291.724	-56.32
291.938	82.94
292.153	48.13
292.368	39.94
292.583	23.55
292.798	39.94
293.012	35.84
293.227	3.07
293.442	7.17
293.657	-15.36
293.871	-5.12
294.086	3.07
294.301	-15.36
294.516	52.22
294.73	-7.17
294.945	1.02
295.16	-19.46
295.374	23.55
295.589	9.22
295.804	-23.55
296.018	41.98
296.233	13.31
296.447	-21.5
296.662	50.18
296.877	-19.46
297.091	52.22
297.306	-19.46
297.52	-13.31
297.735	25.6
297.949	-23.55
298.164	-11.26
298.378	-9.22
298.593	13.31
298.807	84.99
299.022	-31.74
299.236	-11.26
299.451	-21.5
299.665	1.02
299.88	13.31
300.094	7.17
300.309	-21.5
300.523	-35.84
300.737	39.94
300.952	9.22
301.166	-9.22
301.381	3.07
301.595	35.84
301.809	-54.27
302.024	-23.55
302.238	-17.41
302.452	33.79
302.667	-35.84
302.881	-5.12
303.095	15.36
303.309	60.42
303.524	33.79
303.738	35.84
303.952	-5.12
304.166	37.89
304.381	-21.5
304.595	46.08
304.809	5.12
305.023	-31.74
305.237	1.02
305.452	44.03
305.666	-13.31
305.88	27.65
306.094	11.26
306.308	-21.5
306.522	-23.55
306.736	-1.02
306.95	46.08
307.164	13.31
307.379	-23.55
307.593	7.17
307.807	7.17
308.021	5.12
308.235	-44.03
308.449	91.13
308.663	33.79
308.877	29.7
309.091	11.26
309.305	-7.17
309.519	44.03
309.733	7.17
309.947	-70.65
310.161	101.37
310.374	41.98
310.588	19.46
310.802	-3.07
311.016	-82.94
311.23	-64.51
311.444	-29.7
311.658	-5.12
311.872	68.61
312.085	-19.46
312.299	23.55
312.513	-15.36
312.727	5.12
312.941	74.75
313.154	54.27
313.368	64.51
313.582	44.03
313.796	13.31
314.009	-21.5
314.223	-9.22
314.437	-31.74
314.651	13.31
314.864	46.08
315.078	-35.84
315.292	23.55
315.505	-5.12
315.719	-44.03
315.933	-3.07
316.146	29.7
316.36	17.41
316.573	39.94
316.787	29.7
317.001	-9.22
317.214	-19.46
317.428	-11.26
317.641	-23.55
317.855	82.94
318.068	-9.22
318.282	52.22
318.495	3.07
318.709	-66.56
318.922	-5.12
319.136	-15.36
319.349	-17.41
319.563	-27.65
319.776	-23.55
319.99	-27.65
320.203	17.41
320.417	21.5
320.63	35.84
320.843	21.5
321.057	-17.41
321.27	-25.6
321.483	-19.46
321.697	-5.12
321.91	11.26
322.124	78.85
322.337	39.94
322.55	-41.98
322.763	23.55
322.977	-5.12
323.19	-128
323.403	-35.84
323.617	44.03
323.83	-3.07
324.043	21.5
324.256	37.89
324.469	17.41
324.683	52.22
324.896	-23.55
325.109	-11.26
325.322	21.5
325.535	87.04
325.748	-19.46
325.962	17.41
326.175	9.22
326.388	-5.12
326.601	44.03
326.814	44.03
327.027	-13.31
327.24	-44.03
327.453	-5.12
327.666	23.55
327.879	-1.02
328.092	99.33
328.305	87.04
328.518	52.22
328.731	27.65
328.944	-64.51
329.157	-29.7
329.37	-7.17
329.583	27.65
329.796	41.98
330.009	-13.31
330.222	48.13
330.435	29.7
330.648	-44.03
330.861	39.94
331.073	-35.84
331.286	21.5
331.499	-15.36
331.712	11.26
331.925	-41.98
332.138	27.65
332.35	3.07
332.563	-19.46
332.776	-7.17
332.989	-62.46
333.202	101.37
333.414	-37.89
333.627	23.55
333.84	52.22
334.053	-9.22
334.265	-1.02
334.478	27.65
334.691	-11.26
334.903	7.17
335.116	-7.17
335.329	9.22
335.541	-17.41
335.754	-54.27
335.966	-7.17
336.179	37.89
336.392	41.98
336.604	50.18
336.817	52.22
337.029	-37.89
337.242	25.6
337.454	-52.22
337.667	35.84
337.88	-11.26
338.092	29.7
338.305	17.41
338.517	-1.02
338.729	29.7
338.942	-23.55
339.154	-25.6
339.367	27.65
339.579	46.08
339.792	5.12
340.004	21.5
340.217	-1.02
340.429	44.03
340.641	-23.55
340.854	-13.31
341.066	7.17
341.278	13.31
341.491	31.74
341.703	-19.46
341.915	-19.46
342.128	-3.07
342.34	9.22
342.552	-29.7
342.764	-11.26
342.977	-11.26
343.189	52.22
343.401	44.03
343.613	3.07
343.826	-15.36
344.038	44.03
344.25	82.94
344.462	-35.84
344.674	-41.98
344.886	-9.22
345.099	-64.51
345.311	19.46
345.523	-19.46
345.735	-9.22
345.947	29.7
346.159	31.74
346.371	3.07
346.583	27.65
346.795	13.31
347.007	7.17
347.219	7.17
347.431	89.09
347.643	87.04
347.855	-25.6
348.067	-58.37
348.279	29.7
348.491	11.26
348.703	64.51
348.915	1.02
349.127	25.6
349.339	54.27
349.551	-31.74
349.763	37.89
349.975	27.65
350.187	60.42
350.399	-1.02
350.61	29.7
350.822	-19.46
351.034	35.84
351.246	17.41
351.458	39.94
351.669	39.94
351.881	-39.94
352.093	31.74
352.305	70.65
352.517	-21.5
352.728	9.22
352.94	37.89
353.152	19.46
353.363	-25.6
353.575	33.79
353.787	15.36
353.999	-5.12
354.21	60.42
354.422	35.84
354.633	48.13
354.845	-1.02
355.057	17.41
355.268	-1.02
355.48	56.32
355.692	-111.61
355.903	74.75
356.115	9.22
356.326	13.31
356.538	1.02
356.749	91.13
356.961	29.7
357.172	13.31
357.384	19.46
357.595	-27.65
357.807	13.31
358.018	48.13
358.23	21.5
358.441	-29.7
358.653	7.17
358.864	56.32
359.075	-33.79
359.287	-60.42
359.498	-15.36
359.709	29.7
359.921	78.85
360.132	19.46
360.344	60.42
360.555	-21.5
360.766	11.26
360.977	7.17
361.189	-7.17
361.4	11.26
361.611	23.55
361.823	48.13
362.034	99.33
362.245	-7.17
362.456	-23.55
362.667	52.22
362.879	-41.98
363.09	60.42
363.301	46.08
363.512	15.36
363.723	7.17
363.935	-19.46
364.146	66.56
364.357	-11.26
364.568	62.46
364.779	21.5
364.99	17.41
365.201	15.36
365.412	-1.02
365.623	7.17
365.834	35.84
366.045	5.12
366.256	15.36
366.467	19.46
366.678	52.22
366.889	13.31
367.1	37.89
367.311	-3.07
367.522	-52.22
367.733	-1.02
367.944	78.85
368.155	25.6
368.366	-3.07
368.577	52.22
368.788	7.17
368.999	7.17
369.209	15.36
369.42	-25.6
369.631	37.89
369.842	11.26
370.053	-5.12
370.264	29.7
370.474	7.17
370.685	5.12
370.896	-35.84
371.107	48.13
371.317	33.79
371.528	-23.55
371.739	41.98
371.95	-15.36
372.16	-5.12
372.371	29.7
372.582	15.36
372.792	46.08
373.003	9.22
373.214	-33.79
373.424	21.5
373.635	-13.31
373.846	66.56
374.056	25.6
374.267	-15.36
374.477	50.18
374.688	13.31
374.898	56.32
375.109	-1.02
375.319	23.55
375.53	35.84
375.74	-29.7
375.951	-37.89
376.161	115.71
376.372	72.7
376.582	-25.6
376.793	64.51
377.003	-5.12
377.214	-3.07
377.424	15.36
377.635	-19.46
377.845	-33.79
378.055	-29.7
378.266	29.7
378.476	46.08
378.686	13.31
378.897	5.12
379.107	60.42
379.317	31.74
379.528	-19.46
379.738	29.7
379.948	93.18
380.158	27.65
380.369	-48.13
380.579	7.17
380.789	27.65
380.999	52.22
381.21	7.17
381.42	-23.55
381.63	17.41
381.84	46.08
382.05	23.55
382.261	46.08
382.471	-5.12
382.681	3.07
382.891	-11.26
383.101	23.55
383.311	3.07
383.521	-29.7
383.731	56.32
383.941	29.7
384.151	-25.6
384.361	-35.84
384.571	78.85
384.781	23.55
384.991	132.09
385.201	60.42
385.411	27.65
385.621	-5.12
385.831	35.84
386.041	-9.22
386.251	17.41
386.461	87.04
386.671	-1.02
386.881	64.51
387.091	-23.55
387.301	25.6
387.511	-9.22
387.72	54.27
387.93	76.8
388.14	25.6
388.35	56.32
388.56	-17.41
388.769	33.79
388.979	-37.89
389.189	19.46
389.399	15.36
389.609	62.46
389.818	31.74
390.028	-44.03
390.238	54.27
390.447	-72.7
390.657	-21.5
390.867	-7.17
391.076	33.79
391.286	3.07
391.496	48.13
391.705	35.84
391.915	29.7
392.125	27.65
392.334	46.08
392.544	78.85
392.753	-31.74
392.963	44.03
393.172	37.89
393.382	41.98
393.591	60.42
393.801	13.31
394.01	105.47
394.22	50.18
394.429	39.94
394.639	-15.36
394.848	-19.46
395.058	-39.94
395.267	-9.22
395.477	-3.07
395.686	11.26
395.895	74.75
396.105	31.74
396.314	76.8
396.524	41.98
396.733	48.13
396.942	5.12
397.152	3.07
397.361	54.27
397.57	27.65
397.78	31.74
397.989	58.37
398.198	68.61
398.407	7.17
398.617	50.18
398.826	46.08
399.035	31.74
399.244	27.65
399.453	27.65
399.663	101.37
399.872	54.27
400.081	62.46
400.29	52.22
400.499	25.6
400.708	82.94
400.917	-5.12
401.127	62.46
401.336	19.46
401.545	82.94
401.754	64.51
401.963	-3.07
402.172	35.84
402.381	11.26
402.59	33.79
402.799	82.94
403.008	89.09
403.217	87.04
403.426	48.13
403.635	46.08
403.844	93.18
404.053	29.7
404.262	39.94
404.471	62.46
404.68	44.03
404.888	-11.26
405.097	64.51
405.306	64.51
405.515	117.76
405.724	7.17
405.933	146.43
406.142	56.32
406.35	54.27
406.559	21.5
406.768	128
406.977	89.09
407.185	64.51
407.394	82.94
407.603	46.08
407.812	82.94
408.02	142.33
408.229	101.37
408.438	111.61
408.646	35.84
408.855	148.48
409.064	93.18
409.272	82.94
409.481	144.38
409.69	64.51
409.898	89.09
410.107	148.48
410.315	166.91
410.524	138.24
410.733	125.95
410.941	123.9
411.15	115.71
411.358	156.67
411.567	195.58
411.775	128
411.984	177.15
412.192	224.25
412.401	144.38
412.609	228.35
412.818	197.63
413.026	193.53
413.234	236.54
413.443	209.92
413.651	242.68
413.86	230.4
414.068	306.17
414.276	252.92
414.485	218.11
414.693	316.41
414.901	310.27
415.11	281.6
415.318	318.46
415.526	277.5
415.734	302.08
415.943	369.66
416.151	371.71
416.359	398.33
416.567	390.14
416.776	300.03
416.984	443.39
417.192	377.85
417.4	349.18
417.608	379.9
417.817	441.34
418.025	508.92
418.233	463.86
418.441	484.34
418.649	498.68
418.857	494.58
419.065	545.78
419.273	492.54
419.481	551.93
419.689	652.28
419.897	676.85
420.105	639.99
420.313	699.38
420.521	656.37
420.729	609.27
420.937	687.09
421.145	842.74
421.353	769.01
421.561	787.44
421.769	764.92
421.977	936.95
422.185	891.89
422.393	893.94
422.601	930.8
422.809	961.52
423.017	979.95
423.224	1059.82
423.432	1098.74
423.64	1100.78
423.848	1072.11
424.056	1156.08
424.263	1238
424.471	1223.66
424.679	1289.2
424.887	1330.16
425.094	1291.24
425.302	1324.01
425.51	1397.74
425.718	1422.31
425.925	1358.83
426.133	1547.24
426.341	1594.34
426.548	1639.4
426.756	1674.21
426.964	1649.64
427.171	1797.09
427.379	1831.91
427.586	1852.39
427.794	1958.88
428.001	2118.62
428.209	2089.95
428.417	2114.53
428.624	2141.15
428.832	2190.3
429.039	2149.34
429.247	2151.39
429.454	2425.82
429.662	2628.57
429.869	2409.44
430.076	2591.7
430.284	2612.18
430.491	2573.27
430.699	2823.12
430.906	2794.45
431.114	2769.88
431.321	2941.91
431.528	2997.2
431.736	3120.08
431.943	3226.57
432.15	3132.37
432.358	3273.68
432.565	3414.99
432.772	3445.71
432.979	3615.69
433.187	3605.45
433.394	3683.27
433.601	3843.01
433.808	3904.45
434.016	3902.4
434.223	4029.38
434.43	4228.03
434.637	4299.71
434.844	4533.18
435.052	4529.08
435.259	4438.97
435.466	4586.43
435.673	4608.95
435.88	4737.98
436.087	5088.18
436.294	4981.68
436.501	5002.16
436.708	4998.07
436.915	5327.79
437.122	5444.52
437.329	5497.77
437.537	5680.04
437.743	5772.2
437.95	5649.32
438.157	5903.27
438.364	6192.03
438.571	6331.3
438.778	6108.07
438.985	6749.08
439.192	6456.22
439.399	6718.36
439.606	6568.86
439.813	6925.21
440.02	7474.06
440.227	7064.47
440.433	7209.87
440.64	7345.04
440.847	7228.31
441.054	7639.95
441.261	8006.53
441.467	7918.47
441.674	7895.94
441.881	8381.31
442.088	8225.67
442.294	8102.79
442.501	8428.42
442.708	8700.8
442.914	9005.94
443.121	9393.01
443.328	9204.6
443.534	9694.06
443.741	9544.56
443.948	9462.64
444.154	10007.4
444.361	9919.34
444.568	10003.3
444.774	9968.49
444.981	10236.77
445.187	10632.03
445.394	11076.44
445.6	10785.63
445.807	11711.31
446.013	11367.25
446.22	11486.03
446.426	12094.28
446.633	12145.48
446.839	12479.3
447.046	12069.7
447.252	12696.38
447.459	12821.31
447.665	12464.96
447.871	13179.7
448.078	13746.99
448.284	13069.11
448.491	13423.41
448.697	14121.77
448.903	14089
449.11	14117.67
449.316	13916.97
449.522	14152.49
449.728	14656.29
449.935	14564.13
450.141	14844.7
450.347	14928.67
450.553	14635.81
450.76	14928.67
450.966	15160.09
451.172	15141.66
451.378	15123.23
451.584	15440.66
451.791	15418.13
451.997	15561.49
452.203	15661.84
452.409	15584.02
452.615	15532.82
452.821	14777.12
453.027	14983.96
453.233	15393.56
453.44	14908.19
453.646	15014.68
453.852	15115.03
454.058	15379.22
454.264	14828.32
454.47	15166.23
454.676	14844.7
454.882	15340.31
455.088	13810.48
455.294	14332.71
455.5	14242.6
455.705	14492.45
455.911	13992.75
456.117	13620.02
456.323	13454.13
456.529	12933.95
456.735	13081.4
456.941	13034.3
457.147	12696.38
457.352	12403.52
457.558	12239.69
457.764	12272.45
457.97	11883.34
458.176	11770.7
458.381	11826
458.587	11289.43
458.793	11072.34
458.999	10605.41
459.204	11055.96
459.41	11234.13
459.616	10244.96
459.821	10210.15
460.027	10117.99
460.233	10031.97
460.438	9468.78
460.644	9663.34
460.85	9010.04
461.055	9112.44
461.261	9081.72
461.466	8313.73
461.672	8033.16
461.878	8766.33
462.083	8020.87
462.289	7920.52
462.494	8035.21
462.7	7668.62
462.905	7377.81
463.111	7631.76
463.316	7570.32
463.522	7553.93
463.727	7408.53
463.932	7422.86
464.138	7338.9
464.343	7467.92
464.549	7318.42
464.754	7396.24
464.959	7357.33
465.165	7351.18
465.37	7238.55
465.575	7068.56
465.781	7375.76
465.986	7162.77
466.191	6984.6
466.397	6837.14
466.602	6394.78
466.807	6769.56
467.012	6683.55
467.218	6632.35
467.423	6673.31
467.628	6841.24
467.833	6974.36
468.038	6658.97
468.244	6513.56
468.449	6757.27
468.654	6493.08
468.859	6507.42
