Data from USB4F104151__17__13-52-30-903.txt Node

Date: Thu Mar 13 13:52:30 EDT 2025
User: louis
Spectrometer: USB4F10415
Trigger mode: 4
Integration Time (sec): 1.000000E-2
Scans to average: 1
Electric dark correction enabled: true
Nonlinearity correction enabled: false
Boxcar width: 0
XAxis mode: Wavelengths
Number of Pixels in Spectrum: 3648
>>>>>Begin Spectral Data<<<<<
178.204	-39.76
178.424	-39.76
178.644	-39.76
178.864	-54.1
179.084	-50
179.304	-25.43
179.524	-47.96
179.744	-0.85
179.964	36.01
180.184	13.48
180.404	-19.29
180.624	48.3
180.844	-0.85
181.064	29.87
181.283	-29.52
181.503	15.53
181.723	-19.29
181.943	-15.19
182.163	33.96
182.383	-29.52
182.602	-23.38
182.822	25.77
183.042	-11.09
183.262	-33.62
183.482	7.34
183.701	19.63
183.921	58.54
184.141	-13.14
184.361	-2.9
184.58	7.34
184.8	-27.48
185.02	-35.67
185.239	64.68
185.459	-99.16
185.679	79.02
185.898	-27.48
186.118	60.59
186.338	-29.52
186.557	-13.14
186.777	-33.62
186.997	19.63
187.216	-37.72
187.436	-0.85
187.655	-4.95
187.875	11.43
188.095	-23.38
188.314	7.34
188.534	27.82
188.753	-27.48
188.973	87.21
189.192	-23.38
189.412	-25.43
189.631	31.91
189.851	-43.86
190.07	-21.33
190.29	1.19
190.509	68.78
190.729	25.77
190.948	56.49
191.168	29.87
191.387	23.72
191.607	-0.85
191.826	19.63
192.045	70.83
192.265	-4.95
192.484	-47.96
192.704	33.96
192.923	-9.05
193.142	91.31
193.362	1.19
193.581	-68.44
193.8	38.06
194.02	-19.29
194.239	7.34
194.458	68.78
194.678	5.29
194.897	-25.43
195.116	79.02
195.335	101.55
195.555	13.48
195.774	17.58
195.993	-27.48
196.212	-9.05
196.432	-33.62
196.651	-9.05
196.87	-35.67
197.089	-25.43
197.308	-54.1
197.528	-7
197.747	56.49
197.966	-2.9
198.185	52.39
198.404	5.29
198.623	11.43
198.842	-9.05
199.062	21.67
199.281	66.73
199.5	54.44
199.719	33.96
199.938	1.19
200.157	-29.52
200.376	3.24
200.595	50.35
200.814	-19.29
201.033	17.58
201.252	76.97
201.471	21.67
201.69	70.83
201.909	-17.24
202.128	-52.05
202.347	23.72
202.566	19.63
202.785	19.63
203.004	3.24
203.223	5.29
203.442	68.78
203.661	-0.85
203.879	36.01
204.098	-19.29
204.317	50.35
204.536	11.43
204.755	-11.09
204.974	17.58
205.193	-9.05
205.411	-2.9
205.63	-0.85
205.849	25.77
206.068	40.11
206.287	7.34
206.505	-25.43
206.724	-31.57
206.943	66.73
207.162	89.26
207.381	-7
207.599	-62.29
207.818	13.48
208.037	-4.95
208.255	23.72
208.474	-31.57
208.693	25.77
208.911	17.58
209.13	-31.57
209.349	25.77
209.567	-47.96
209.786	-58.2
210.005	21.67
210.223	-41.81
210.442	-19.29
210.661	11.43
210.879	48.3
211.098	3.24
211.316	-33.62
211.535	23.72
211.753	-35.67
211.972	19.63
212.191	13.48
212.409	48.3
212.628	-76.63
212.846	58.54
213.065	1.19
213.283	13.48
213.502	-35.67
213.72	-45.91
213.938	-0.85
214.157	46.25
214.375	-33.62
214.594	29.87
214.812	7.34
215.031	62.63
215.249	-9.05
215.467	74.92
215.686	23.72
215.904	54.44
216.122	9.39
216.341	38.06
216.559	21.67
216.778	23.72
216.996	5.29
217.214	-4.95
217.432	56.49
217.651	17.58
217.869	23.72
218.087	29.87
218.306	23.72
218.524	-15.19
218.742	44.2
218.96	13.48
219.179	19.63
219.397	58.54
219.615	103.59
219.833	3.24
220.051	50.35
220.27	-31.57
220.488	40.11
220.706	50.35
220.924	-25.43
221.142	36.01
221.36	33.96
221.578	29.87
221.796	5.29
222.015	62.63
222.233	-0.85
222.451	17.58
222.669	-11.09
222.887	58.54
223.105	3.24
223.323	85.16
223.541	36.01
223.759	33.96
223.977	15.53
224.195	23.72
224.413	5.29
224.631	25.77
224.849	50.35
225.067	21.67
225.285	-7
225.503	-9.05
225.721	-47.96
225.939	33.96
226.157	27.82
226.375	33.96
226.592	9.39
226.81	36.01
227.028	64.68
227.246	29.87
227.464	21.67
227.682	38.06
227.9	31.91
228.117	54.44
228.335	27.82
228.553	38.06
228.771	17.58
228.989	19.63
229.206	60.59
229.424	-9.05
229.642	25.77
229.86	-9.05
230.077	38.06
230.295	3.24
230.513	-45.91
230.731	-29.52
230.948	15.53
231.166	52.39
231.384	-2.9
231.601	50.35
231.819	46.25
232.037	44.2
232.254	50.35
232.472	42.15
232.689	-7
232.907	33.96
233.125	19.63
233.342	42.15
233.56	44.2
233.777	-15.19
233.995	-15.19
234.213	60.59
234.43	-9.05
234.648	21.67
234.865	50.35
235.083	44.2
235.3	-27.48
235.518	19.63
235.735	1.19
235.953	72.87
236.17	-0.85
236.388	56.49
236.605	40.11
236.822	-19.29
237.04	9.39
237.257	85.16
237.475	9.39
237.692	-13.14
237.909	-4.95
238.127	21.67
238.344	-0.85
238.562	72.87
238.779	-78.68
238.996	3.24
239.214	-0.85
239.431	7.34
239.648	42.15
239.865	50.35
240.083	13.48
240.3	38.06
240.517	40.11
240.735	50.35
240.952	52.39
241.169	-54.1
241.386	17.58
241.603	23.72
241.821	-2.9
242.038	60.59
242.255	-19.29
242.472	-27.48
242.689	1.19
242.907	150.7
243.124	7.34
243.341	13.48
243.558	-19.29
243.775	38.06
243.992	29.87
244.209	-7
244.426	9.39
244.643	70.83
244.86	40.11
245.078	15.53
245.295	60.59
245.512	31.91
245.729	-27.48
245.946	48.3
246.163	56.49
246.38	23.72
246.597	9.39
246.814	23.72
247.031	25.77
247.248	-7
247.464	15.53
247.681	33.96
247.898	95.4
248.115	11.43
248.332	58.54
248.549	21.67
248.766	3.24
248.983	40.11
249.2	11.43
249.417	5.29
249.633	-45.91
249.85	-23.38
250.067	79.02
250.284	-23.38
250.501	36.01
250.717	5.29
250.934	-21.33
251.151	5.29
251.368	40.11
251.585	27.82
251.801	-27.48
252.018	-9.05
252.235	-41.81
252.451	-19.29
252.668	89.26
252.885	15.53
253.102	31.91
253.318	42.15
253.535	1.19
253.752	-7
253.968	42.15
254.185	-41.81
254.401	21.67
254.618	11.43
254.835	23.72
255.051	56.49
255.268	64.68
255.484	1.19
255.701	38.06
255.917	54.44
256.134	72.87
256.351	56.49
256.567	50.35
256.784	95.4
257	56.49
257.217	23.72
257.433	17.58
257.65	13.48
257.866	7.34
258.082	93.35
258.299	17.58
258.515	-15.19
258.732	46.25
258.948	46.25
259.165	64.68
259.381	-11.09
259.597	40.11
259.814	46.25
260.03	29.87
260.246	15.53
260.463	-35.67
260.679	-47.96
260.895	-11.09
261.112	19.63
261.328	-39.76
261.544	-0.85
261.761	-39.76
261.977	-23.38
262.193	-66.39
262.409	19.63
262.626	-2.9
262.842	5.29
263.058	40.11
263.274	-37.72
263.49	-9.05
263.707	50.35
263.923	-11.09
264.139	87.21
264.355	-7
264.571	68.78
264.787	17.58
265.004	50.35
265.22	-2.9
265.436	-7
265.652	58.54
265.868	11.43
266.084	42.15
266.3	81.07
266.516	42.15
266.732	-17.24
266.948	-31.57
267.164	23.72
267.38	23.72
267.596	-2.9
267.812	89.26
268.028	9.39
268.244	-29.52
268.46	5.29
268.676	-39.76
268.892	-19.29
269.108	58.54
269.324	-27.48
269.54	5.29
269.756	29.87
269.972	-35.67
270.188	42.15
270.403	-2.9
270.619	13.48
270.835	-27.48
271.051	54.44
271.267	36.01
271.483	38.06
271.698	-33.62
271.914	-2.9
272.13	-25.43
272.346	-33.62
272.562	11.43
272.777	23.72
272.993	-27.48
273.209	46.25
273.425	-15.19
273.64	-0.85
273.856	-21.33
274.072	60.59
274.287	13.48
274.503	72.87
274.719	-13.14
274.934	27.82
275.15	25.77
275.366	-7
275.581	-31.57
275.797	76.97
276.012	-21.33
276.228	46.25
276.444	23.72
276.659	99.5
276.875	-11.09
277.09	25.77
277.306	-39.76
277.521	36.01
277.737	-39.76
277.952	-43.86
278.168	13.48
278.383	-9.05
278.599	1.19
278.814	21.67
279.03	9.39
279.245	15.53
279.461	-62.29
279.676	17.58
279.892	19.63
280.107	52.39
280.322	17.58
280.538	-2.9
280.753	5.29
280.969	11.43
281.184	-23.38
281.399	46.25
281.615	54.44
281.83	29.87
282.045	58.54
282.26	27.82
282.476	31.91
282.691	33.96
282.906	19.63
283.122	21.67
283.337	33.96
283.552	-2.9
283.767	-7
283.983	44.2
284.198	17.58
284.413	42.15
284.628	-29.52
284.843	-35.67
285.058	7.34
285.274	-29.52
285.489	1.19
285.704	54.44
285.919	-19.29
286.134	-27.48
286.349	-2.9
286.564	-4.95
286.779	29.87
286.995	81.07
287.21	-21.33
287.425	111.78
287.64	-11.09
287.855	74.92
288.07	-2.9
288.285	13.48
288.5	-7
288.715	11.43
288.93	62.63
289.145	81.07
289.36	40.11
289.575	19.63
289.79	-4.95
290.004	-11.09
290.219	33.96
290.434	33.96
290.649	9.39
290.864	46.25
291.079	-29.52
291.294	33.96
291.509	21.67
291.724	52.39
291.938	38.06
292.153	33.96
292.368	-72.53
292.583	62.63
292.798	21.67
293.012	44.2
293.227	97.45
293.442	29.87
293.657	-17.24
293.871	62.63
294.086	81.07
294.301	50.35
294.516	13.48
294.73	54.44
294.945	-13.14
295.16	31.91
295.374	50.35
295.589	-25.43
295.804	27.82
296.018	-39.76
296.233	38.06
296.447	5.29
296.662	-64.34
296.877	81.07
297.091	40.11
297.306	29.87
297.52	-25.43
297.735	70.83
297.949	29.87
298.164	70.83
298.378	83.11
298.593	44.2
298.807	70.83
299.022	46.25
299.236	-4.95
299.451	9.39
299.665	79.02
299.88	66.73
300.094	42.15
300.309	27.82
300.523	-35.67
300.737	17.58
300.952	42.15
301.166	-15.19
301.381	50.35
301.595	72.87
301.809	52.39
302.024	5.29
302.238	50.35
302.452	-0.85
302.667	19.63
302.881	-31.57
303.095	46.25
303.309	-11.09
303.524	68.78
303.738	38.06
303.952	97.45
304.166	3.24
304.381	13.48
304.595	83.11
304.809	36.01
305.023	13.48
305.237	19.63
305.452	27.82
305.666	83.11
305.88	31.91
306.094	56.49
306.308	48.3
306.522	54.44
306.736	23.72
306.95	-19.29
307.164	91.31
307.379	-2.9
307.593	-0.85
307.807	-2.9
308.021	64.68
308.235	21.67
308.449	15.53
308.663	15.53
308.877	-11.09
309.091	42.15
309.305	-17.24
309.519	-9.05
309.733	13.48
309.947	119.98
310.161	60.59
310.374	97.45
310.588	83.11
310.802	38.06
311.016	-52.05
311.23	87.21
311.444	-23.38
311.658	7.34
311.872	83.11
312.085	68.78
312.299	-25.43
312.513	83.11
312.727	50.35
312.941	50.35
313.154	36.01
313.368	11.43
313.582	29.87
313.796	36.01
314.009	31.91
314.223	29.87
314.437	56.49
314.651	-35.67
314.864	-43.86
315.078	40.11
315.292	-13.14
315.505	52.39
315.719	62.63
315.933	44.2
316.146	19.63
316.36	25.77
316.573	46.25
316.787	-37.72
317.001	5.29
317.214	27.82
317.428	36.01
317.641	-4.95
317.855	72.87
318.068	17.58
318.282	58.54
318.495	11.43
318.709	36.01
318.922	50.35
319.136	-15.19
319.349	17.58
319.563	40.11
319.776	42.15
319.99	36.01
320.203	68.78
320.417	31.91
320.63	56.49
320.843	9.39
321.057	15.53
321.27	29.87
321.483	42.15
321.697	79.02
321.91	-9.05
322.124	5.29
322.337	-19.29
322.55	111.78
322.763	-52.05
322.977	31.91
323.19	25.77
323.403	-11.09
323.617	-13.14
323.83	21.67
324.043	15.53
324.256	-9.05
324.469	-2.9
324.683	42.15
324.896	19.63
325.109	9.39
325.322	-9.05
325.535	40.11
325.748	46.25
325.962	13.48
326.175	11.43
326.388	109.74
326.601	68.78
326.814	74.92
327.027	93.35
327.24	23.72
327.453	19.63
327.666	93.35
327.879	25.77
328.092	62.63
328.305	-35.67
328.518	33.96
328.731	46.25
328.944	62.63
329.157	54.44
329.37	60.59
329.583	66.73
329.796	11.43
330.009	58.54
330.222	79.02
330.435	3.24
330.648	-35.67
330.861	70.83
331.073	113.83
331.286	33.96
331.499	3.24
331.712	99.5
331.925	-31.57
332.138	62.63
332.35	52.39
332.563	-21.33
332.776	-9.05
332.989	-25.43
333.202	-2.9
333.414	50.35
333.627	76.97
333.84	19.63
334.053	54.44
334.265	21.67
334.478	42.15
334.691	27.82
334.903	29.87
335.116	-31.57
335.329	33.96
335.541	-2.9
335.754	50.35
335.966	56.49
336.179	42.15
336.392	-41.81
336.604	-19.29
336.817	19.63
337.029	72.87
337.242	50.35
337.454	9.39
337.667	-15.19
337.88	1.19
338.092	1.19
338.305	-9.05
338.517	1.19
338.729	64.68
338.942	74.92
339.154	5.29
339.367	5.29
339.579	29.87
339.792	-2.9
340.004	19.63
340.217	11.43
340.429	60.59
340.641	15.53
340.854	17.58
341.066	-43.86
341.278	89.26
341.491	31.91
341.703	33.96
341.915	33.96
342.128	89.26
342.34	91.31
342.552	44.2
342.764	17.58
342.977	42.15
343.189	56.49
343.401	83.11
343.613	29.87
343.826	15.53
344.038	3.24
344.25	48.3
344.462	60.59
344.674	58.54
344.886	36.01
345.099	-11.09
345.311	-25.43
345.523	27.82
345.735	13.48
345.947	60.59
346.159	56.49
346.371	9.39
346.583	40.11
346.795	54.44
347.007	-0.85
347.219	52.39
347.431	19.63
347.643	-0.85
347.855	-7
348.067	31.91
348.279	27.82
348.491	3.24
348.703	17.58
348.915	46.25
349.127	31.91
349.339	-7
349.551	70.83
349.763	3.24
349.975	31.91
350.187	105.64
350.399	36.01
350.61	117.93
350.822	79.02
351.034	19.63
351.246	25.77
351.458	38.06
351.669	56.49
351.881	58.54
352.093	70.83
352.305	21.67
352.517	56.49
352.728	40.11
352.94	-0.85
353.152	83.11
353.363	-80.72
353.575	42.15
353.787	38.06
353.999	40.11
354.21	68.78
354.422	21.67
354.633	54.44
354.845	107.69
355.057	25.77
355.268	23.72
355.48	62.63
355.692	23.72
355.903	54.44
356.115	40.11
356.326	19.63
356.538	74.92
356.749	68.78
356.961	70.83
357.172	40.11
357.384	-25.43
357.595	74.92
357.807	27.82
358.018	19.63
358.23	13.48
358.441	13.48
358.653	29.87
358.864	124.07
359.075	-31.57
359.287	-11.09
359.498	89.26
359.709	25.77
359.921	46.25
360.132	33.96
360.344	91.31
360.555	1.19
360.766	31.91
360.977	54.44
361.189	19.63
361.4	29.87
361.611	17.58
361.823	56.49
362.034	-29.52
362.245	19.63
362.456	54.44
362.667	66.73
362.879	50.35
363.09	48.3
363.301	29.87
363.512	-47.96
363.723	11.43
363.935	56.49
364.146	74.92
364.357	33.96
364.568	79.02
364.779	36.01
364.99	40.11
365.201	74.92
365.412	74.92
365.623	83.11
365.834	36.01
366.045	-21.33
366.256	74.92
366.467	-54.1
366.678	60.59
366.889	91.31
367.1	85.16
367.311	50.35
367.522	79.02
367.733	83.11
367.944	48.3
368.155	33.96
368.366	48.3
368.577	17.58
368.788	36.01
368.999	23.72
369.209	48.3
369.42	29.87
369.631	109.74
369.842	7.34
370.053	11.43
370.264	79.02
370.474	62.63
370.685	62.63
370.896	62.63
371.107	27.82
371.317	25.77
371.528	-17.24
371.739	21.67
371.95	25.77
372.16	68.78
372.371	-17.24
372.582	-4.95
372.792	-21.33
373.003	130.22
373.214	72.87
373.424	-56.15
373.635	-7
373.846	38.06
374.056	-19.29
374.267	74.92
374.477	54.44
374.688	21.67
374.898	83.11
375.109	70.83
375.319	11.43
375.53	23.72
375.74	38.06
375.951	-43.86
376.161	31.91
376.372	44.2
376.582	11.43
376.793	70.83
377.003	150.7
377.214	68.78
377.424	-11.09
377.635	58.54
377.845	95.4
378.055	44.2
378.266	93.35
378.476	60.59
378.686	60.59
378.897	115.88
379.107	36.01
379.317	33.96
379.528	68.78
379.738	70.83
379.948	-2.9
380.158	79.02
380.369	5.29
380.579	40.11
380.789	50.35
380.999	91.31
381.21	66.73
381.42	7.34
381.63	89.26
381.84	76.97
382.05	7.34
382.261	62.63
382.471	95.4
382.681	7.34
382.891	31.91
383.101	-0.85
383.311	13.48
383.521	17.58
383.731	68.78
383.941	27.82
384.151	-29.52
384.361	44.2
384.571	76.97
384.781	7.34
384.991	5.29
385.201	115.88
385.411	103.59
385.621	70.83
385.831	33.96
386.041	25.77
386.251	50.35
386.461	17.58
386.671	122.02
386.881	46.25
387.091	-7
387.301	107.69
387.511	66.73
387.72	70.83
387.93	87.21
388.14	-4.95
388.35	52.39
388.56	44.2
388.769	72.87
388.979	60.59
389.189	103.59
389.399	130.22
389.609	25.77
389.818	93.35
390.028	87.21
390.238	31.91
390.447	50.35
390.657	36.01
390.867	31.91
391.076	13.48
391.286	31.91
391.496	70.83
391.705	95.4
391.915	17.58
392.125	85.16
392.334	83.11
392.544	-23.38
392.753	48.3
392.963	21.67
393.172	46.25
393.382	-2.9
393.591	103.59
393.801	44.2
394.01	107.69
394.22	81.07
394.429	48.3
394.639	99.5
394.848	44.2
395.058	-2.9
395.267	58.54
395.477	95.4
395.686	113.83
395.895	74.92
396.105	85.16
396.314	40.11
396.524	89.26
396.733	76.97
396.942	95.4
397.152	70.83
397.361	83.11
397.57	103.59
397.78	83.11
397.989	142.5
398.198	105.64
398.407	52.39
398.617	111.78
398.826	130.22
399.035	87.21
399.244	83.11
399.453	142.5
399.663	109.74
399.872	128.17
400.081	79.02
400.29	138.41
400.499	132.26
400.708	79.02
400.917	81.07
401.127	60.59
401.336	146.6
401.545	56.49
401.754	124.07
401.963	158.89
402.172	66.73
402.381	83.11
402.59	128.17
402.799	25.77
403.008	134.31
403.217	81.07
403.426	160.94
403.635	142.5
403.844	119.98
404.053	154.79
404.262	154.79
404.471	107.69
404.68	124.07
404.888	136.36
405.097	58.54
405.306	167.08
405.515	160.94
405.724	136.36
405.933	167.08
406.142	193.7
406.35	165.03
406.559	138.41
406.768	265.38
406.977	191.66
407.185	158.89
407.394	156.84
407.603	199.85
407.812	214.18
408.02	228.52
408.229	228.52
408.438	226.47
408.646	218.28
408.855	273.57
409.064	287.91
409.272	242.85
409.481	253.09
409.69	322.73
409.898	310.44
410.107	230.57
410.315	277.67
410.524	414.88
410.733	332.97
410.941	332.97
411.15	457.89
411.358	373.92
411.567	418.98
411.775	414.88
411.984	474.28
412.192	414.88
412.401	400.55
412.609	423.08
412.818	394.4
413.026	478.37
413.234	591.01
413.443	470.18
413.651	580.77
413.86	541.86
414.068	623.78
414.276	644.26
414.485	650.4
414.693	691.36
414.901	750.75
415.11	660.64
415.318	679.07
415.526	801.95
415.734	717.98
415.943	781.47
416.151	842.91
416.359	883.87
416.567	877.73
416.776	935.07
416.984	926.88
417.192	941.21
417.4	982.17
417.608	1021.08
417.817	1090.71
418.025	1141.91
418.233	1293.46
418.441	1193.11
418.649	1283.22
418.857	1377.43
419.065	1334.42
419.273	1365.14
419.481	1442.96
419.689	1490.07
419.897	1526.93
420.105	1629.33
420.313	1680.53
420.521	1696.91
420.729	1719.44
420.937	1741.97
421.145	1789.07
421.353	1852.56
421.561	1993.87
421.769	2028.68
421.977	2239.62
422.185	2221.19
422.393	2215.05
422.601	2342.02
422.809	2339.97
423.017	2382.98
423.224	2530.44
423.432	2673.79
423.64	2591.88
423.848	2743.42
424.056	2788.48
424.263	3069.05
424.471	2964.61
424.679	2921.6
424.887	3282.04
425.094	3404.92
425.302	3310.71
425.51	3535.99
425.718	3478.65
425.925	3624.05
426.133	3716.21
426.341	3918.96
426.548	4019.31
426.756	4134
426.964	4156.52
427.171	4385.9
427.379	4529.25
427.586	4539.49
427.794	4639.84
428.001	4934.75
428.209	5217.37
428.417	5178.46
428.624	5483.61
428.832	5504.09
429.039	5368.92
429.247	5301.34
429.454	5956.69
429.662	6130.77
429.869	5809.23
430.076	6220.88
430.284	6196.3
430.491	6452.3
430.699	6794.31
430.906	6794.31
431.114	6863.94
431.321	7142.46
431.528	7312.44
431.736	7672.89
431.943	8006.7
432.15	7918.64
432.358	7935.03
432.565	8354.86
432.772	8426.54
432.979	8889.38
433.187	8938.53
433.394	8932.39
433.601	9579.54
433.808	9690.13
434.016	9514.01
434.223	9962.51
434.43	10521.61
434.637	10308.62
434.844	10902.53
435.052	11365.37
435.259	11099.14
435.466	11312.13
435.673	11377.66
435.88	11936.76
436.087	12495.85
436.294	12547.05
436.501	12192.75
436.708	12573.67
436.915	12725.22
437.122	13487.07
437.329	13429.73
437.537	13657.05
437.743	14035.92
437.95	14007.25
438.157	14584.78
438.364	15268.8
438.571	15408.06
438.778	15283.14
438.985	16735.15
439.192	16047.03
439.399	16352.18
439.606	16087.99
439.813	17124.26
440.02	18029.46
440.227	17933.21
440.433	17593.25
440.64	18623.37
440.847	18103.19
441.054	18699.15
441.261	19563.39
441.467	19379.07
441.674	20091.77
441.881	20487.03
442.088	20675.44
442.294	20458.35
442.501	20837.23
442.708	21357.41
442.914	22076.25
443.121	23143.24
443.328	22498.13
443.534	24281.91
443.741	23448.39
443.948	23030.6
444.154	24957.74
444.361	24804.14
444.568	24881.97
444.774	24914.73
444.981	25228.07
445.187	26235.67
445.394	27038.48
445.6	26718.99
445.807	29500.14
446.013	28162.81
446.22	28494.58
446.426	29776.61
446.633	30085.86
446.839	30948.05
447.046	29696.74
447.252	31328.97
447.459	31331.02
447.665	31247.05
447.871	32588.47
448.078	34050.72
448.284	32082.63
448.491	33186.48
448.697	34241.18
448.903	35148.43
449.11	35281.55
449.316	34566.81
449.522	35445.39
449.728	35951.24
449.935	36194.95
450.141	36293.25
450.347	36600.44
450.553	35904.13
450.76	36330.11
450.966	37626.48
451.172	36756.09
451.378	37751.4
451.584	36938.36
451.791	37810.79
451.997	37876.33
452.203	38498.91
452.409	38238.82
452.615	38681.18
452.821	36792.95
453.027	36346.5
453.233	38402.66
453.44	36950.65
453.646	37345.9
453.852	37618.28
454.058	38287.97
454.264	36418.17
454.47	37368.43
454.676	36442.75
454.882	37671.53
455.088	34327.2
455.294	34728.6
455.5	35306.13
455.705	35803.78
455.911	34063.01
456.117	33862.31
456.323	33020.59
456.529	31326.92
456.735	32764.6
456.941	31933.12
457.147	31245.01
457.352	30378.72
457.558	30333.66
457.764	30075.62
457.97	29575.91
458.176	28955.38
458.381	29086.45
458.587	27384.58
458.793	27755.27
458.999	26219.29
459.204	28050.17
459.41	27075.34
459.616	25240.36
459.821	25342.76
460.027	25107.24
460.233	24582.96
460.438	23364.42
460.644	23995.2
460.85	22537.04
461.055	22395.73
461.261	22416.21
461.466	20745.07
461.672	20120.44
461.878	21324.65
462.083	20138.87
462.289	19782.52
462.494	19504
462.7	18613.13
462.905	18154.39
463.111	18684.81
463.316	19078.02
463.522	18506.64
463.727	18586.51
463.932	18629.52
464.138	18467.73
464.343	18254.74
464.549	17820.57
464.754	18416.53
464.959	18451.35
465.165	18314.13
465.37	17445.79
465.575	16925.61
465.781	17703.84
465.986	17732.51
466.191	17085.35
466.397	16651.18
466.602	15815.61
466.807	16706.48
467.012	16694.19
467.218	16399.28
467.423	16425.9
467.628	16255.92
467.833	17011.62
