Data from USB4F104151__299__14-03-03-664.txt Node

Date: Thu Mar 13 14:03:03 EDT 2025
User: louis
Spectrometer: USB4F10415
Trigger mode: 4
Integration Time (sec): 1.000000E-2
Scans to average: 1
Electric dark correction enabled: true
Nonlinearity correction enabled: false
Boxcar width: 0
XAxis mode: Wavelengths
Number of Pixels in Spectrum: 3648
>>>>>Begin Spectral Data<<<<<
178.204	3.75
178.424	3.75
178.644	3.75
178.864	-14.68
179.084	-94.55
179.304	-67.92
179.524	-61.78
179.744	-14.68
179.964	11.95
180.184	-18.77
180.404	-12.63
180.624	32.43
180.844	57
181.064	-31.06
181.283	75.43
181.503	-6.49
181.723	36.52
181.943	-29.01
182.163	-8.53
182.383	79.53
182.602	18.09
182.822	22.19
183.042	42.67
183.262	-22.87
183.482	34.47
183.701	-0.34
183.921	32.43
184.141	-14.68
184.361	-4.44
184.58	28.33
184.8	-10.58
185.02	34.47
185.239	18.09
185.459	52.91
185.679	3.75
185.898	-2.39
186.118	54.95
186.338	16.04
186.557	36.52
186.777	3.75
186.997	26.28
187.216	9.9
187.436	34.47
187.655	65.19
187.875	67.24
188.095	-33.11
188.314	1.71
188.534	34.47
188.753	36.52
188.973	50.86
189.192	9.9
189.412	16.04
189.631	24.23
189.851	36.52
190.07	28.33
190.29	24.23
190.509	69.29
190.729	54.95
190.948	5.8
191.168	75.43
191.387	122.54
191.607	18.09
191.826	59.05
192.045	3.75
192.265	-0.34
192.484	20.14
192.704	36.52
192.923	-55.64
193.142	57
193.362	34.47
193.581	5.8
193.8	-0.34
194.02	87.72
194.239	-29.01
194.458	63.15
194.678	61.1
194.897	-22.87
195.116	61.1
195.335	-45.4
195.555	-8.53
195.774	50.86
195.993	52.91
196.212	42.67
196.432	46.76
196.651	-12.63
196.87	83.63
197.089	71.34
197.308	7.85
197.528	40.62
197.747	-31.06
197.966	22.19
198.185	38.57
198.404	-47.44
198.623	40.62
198.842	24.23
199.062	32.43
199.281	36.52
199.5	36.52
199.719	63.15
199.938	-12.63
200.157	38.57
200.376	-6.49
200.595	57
200.814	-35.16
201.033	7.85
201.252	-35.16
201.471	22.19
201.69	-12.63
201.909	85.67
202.128	-53.59
202.347	26.28
202.566	-0.34
202.785	1.71
203.004	1.71
203.223	77.48
203.442	79.53
203.661	20.14
203.879	-8.53
204.098	108.2
204.317	52.91
204.536	-10.58
204.755	-39.25
204.974	83.63
205.193	36.52
205.411	34.47
205.63	5.8
205.849	5.8
206.068	104.11
206.287	-65.88
206.505	-0.34
206.724	28.33
206.943	-29.01
207.162	40.62
207.381	75.43
207.599	-10.58
207.818	-4.44
208.037	13.99
208.255	5.8
208.474	-6.49
208.693	91.82
208.911	40.62
209.13	3.75
209.349	-24.92
209.567	50.86
209.786	9.9
210.005	50.86
210.223	16.04
210.442	40.62
210.661	95.91
210.879	63.15
211.098	22.19
211.316	91.82
211.535	50.86
211.753	5.8
211.972	34.47
212.191	1.71
212.409	-12.63
212.628	-8.53
212.846	7.85
213.065	104.11
213.283	-6.49
213.502	57
213.72	20.14
213.938	44.71
214.157	32.43
214.375	50.86
214.594	-10.58
214.812	-10.58
215.031	9.9
215.249	30.38
215.467	18.09
215.686	36.52
215.904	-22.87
216.122	-43.35
216.341	46.76
216.559	-12.63
216.778	54.95
216.996	40.62
217.214	9.9
217.432	69.29
217.651	-31.06
217.869	-6.49
218.087	-37.2
218.306	44.71
218.524	52.91
218.742	83.63
218.96	11.95
219.179	3.75
219.397	63.15
219.615	-22.87
219.833	67.24
220.051	-2.39
220.27	50.86
220.488	157.35
220.706	11.95
220.924	128.68
221.142	28.33
221.36	54.95
221.578	38.57
221.796	-72.02
222.015	-6.49
222.233	-6.49
222.451	71.34
222.669	75.43
222.887	61.1
223.105	20.14
223.323	-16.73
223.541	30.38
223.759	26.28
223.977	44.71
224.195	69.29
224.413	9.9
224.631	81.58
224.849	13.99
225.067	59.05
225.285	28.33
225.503	-31.06
225.721	5.8
225.939	122.54
226.157	18.09
226.375	-55.64
226.592	87.72
226.81	54.95
227.028	3.75
227.246	36.52
227.464	-33.11
227.682	50.86
227.9	83.63
228.117	3.75
228.335	-14.68
228.553	-4.44
228.771	-6.49
228.989	9.9
229.206	9.9
229.424	32.43
229.642	-8.53
229.86	65.19
230.077	-43.35
230.295	-61.78
230.513	11.95
230.731	42.67
230.948	1.71
231.166	36.52
231.384	61.1
231.601	36.52
231.819	67.24
232.037	67.24
232.254	69.29
232.472	-18.77
232.689	48.81
232.907	-51.54
233.125	87.72
233.342	87.72
233.56	-63.83
233.777	-45.4
233.995	46.76
234.213	54.95
234.43	48.81
234.648	-39.25
234.865	-4.44
235.083	-51.54
235.3	71.34
235.518	-24.92
235.735	83.63
235.953	77.48
236.17	54.95
236.388	67.24
236.605	13.99
236.822	9.9
237.04	44.71
237.257	145.06
237.475	-82.26
237.692	67.24
237.909	3.75
238.127	104.11
238.344	-16.73
238.562	-31.06
238.779	13.99
238.996	1.71
239.214	32.43
239.431	3.75
239.648	36.52
239.865	-8.53
240.083	-22.87
240.3	73.39
240.517	91.82
240.735	13.99
240.952	5.8
241.169	-2.39
241.386	18.09
241.603	50.86
241.821	22.19
242.038	54.95
242.255	16.04
242.472	54.95
242.689	50.86
242.907	42.67
243.124	36.52
243.341	-18.77
243.558	52.91
243.775	30.38
243.992	38.57
244.209	13.99
244.426	54.95
244.643	44.71
244.86	38.57
245.078	-6.49
245.295	1.71
245.512	34.47
245.729	11.95
245.946	22.19
246.163	38.57
246.38	-24.92
246.597	-16.73
246.814	3.75
247.031	28.33
247.248	26.28
247.464	13.99
247.681	50.86
247.898	40.62
248.115	24.23
248.332	22.19
248.549	30.38
248.766	18.09
248.983	57
249.2	54.95
249.417	9.9
249.633	-12.63
249.85	-24.92
250.067	71.34
250.284	54.95
250.501	24.23
250.717	34.47
250.934	104.11
251.151	83.63
251.368	-14.68
251.585	1.71
251.801	59.05
252.018	-6.49
252.235	54.95
252.451	73.39
252.668	42.67
252.885	-6.49
253.102	52.91
253.318	38.57
253.535	34.47
253.752	67.24
253.968	85.67
254.185	22.19
254.401	-10.58
254.618	28.33
254.835	-29.01
255.051	75.43
255.268	34.47
255.484	52.91
255.701	42.67
255.917	93.87
256.134	-22.87
256.351	97.96
256.567	34.47
256.784	-4.44
257	5.8
257.217	59.05
257.433	44.71
257.65	-4.44
257.866	20.14
258.082	18.09
258.299	-72.02
258.515	69.29
258.732	7.85
258.948	-18.77
259.165	75.43
259.381	3.75
259.597	9.9
259.814	24.23
260.03	34.47
260.246	22.19
260.463	42.67
260.679	91.82
260.895	44.71
261.112	85.67
261.328	54.95
261.544	34.47
261.761	83.63
261.977	9.9
262.193	36.52
262.409	40.62
262.626	22.19
262.842	59.05
263.058	30.38
263.274	11.95
263.49	93.87
263.707	16.04
263.923	38.57
264.139	-69.97
264.355	26.28
264.571	44.71
264.787	48.81
265.004	59.05
265.22	3.75
265.436	20.14
265.652	-4.44
265.868	40.62
266.084	81.58
266.3	-45.4
266.516	-26.96
266.732	28.33
266.948	87.72
267.164	75.43
267.38	-22.87
267.596	77.48
267.812	34.47
268.028	52.91
268.244	-31.06
268.46	50.86
268.676	48.81
268.892	13.99
269.108	3.75
269.324	11.95
269.54	20.14
269.756	18.09
269.972	-2.39
270.188	50.86
270.403	-14.68
270.619	93.87
270.835	3.75
271.051	3.75
271.267	5.8
271.483	-43.35
271.698	-37.2
271.914	38.57
272.13	38.57
272.346	30.38
272.562	20.14
272.777	7.85
272.993	20.14
273.209	28.33
273.425	83.63
273.64	26.28
273.856	-10.58
274.072	28.33
274.287	42.67
274.503	134.82
274.719	7.85
274.934	59.05
275.15	48.81
275.366	52.91
275.581	52.91
275.797	-45.4
276.012	46.76
276.228	69.29
276.444	-2.39
276.659	20.14
276.875	-43.35
277.09	75.43
277.306	-22.87
277.521	-4.44
277.737	-8.53
277.952	26.28
278.168	-6.49
278.383	81.58
278.599	44.71
278.814	91.82
279.03	-31.06
279.245	81.58
279.461	83.63
279.676	3.75
279.892	-4.44
280.107	18.09
280.322	50.86
280.538	34.47
280.753	11.95
280.969	54.95
281.184	-6.49
281.399	48.81
281.615	38.57
281.83	59.05
282.045	26.28
282.26	61.1
282.476	-57.68
282.691	91.82
282.906	-6.49
283.122	75.43
283.337	61.1
283.552	24.23
283.767	-37.2
283.983	34.47
284.198	13.99
284.413	30.38
284.628	3.75
284.843	-26.96
285.058	16.04
285.274	-2.39
285.489	36.52
285.704	-39.25
285.919	87.72
286.134	-6.49
286.349	9.9
286.564	46.76
286.779	32.43
286.995	59.05
287.21	42.67
287.425	-14.68
287.64	-10.58
287.855	50.86
288.07	44.71
288.285	-45.4
288.5	-16.73
288.715	3.75
288.93	-24.92
289.145	114.34
289.36	71.34
289.575	38.57
289.79	9.9
290.004	9.9
290.219	26.28
290.434	34.47
290.649	5.8
290.864	13.99
291.079	20.14
291.294	69.29
291.509	81.58
291.724	28.33
291.938	18.09
292.153	-74.07
292.368	11.95
292.583	42.67
292.798	30.38
293.012	18.09
293.227	-20.82
293.442	-10.58
293.657	36.52
293.871	75.43
294.086	34.47
294.301	26.28
294.516	18.09
294.73	13.99
294.945	-8.53
295.16	65.19
295.374	20.14
295.589	61.1
295.804	3.75
296.018	44.71
296.233	26.28
296.447	46.76
296.662	13.99
296.877	40.62
297.091	46.76
297.306	63.15
297.52	9.9
297.735	44.71
297.949	32.43
298.164	34.47
298.378	1.71
298.593	11.95
298.807	3.75
299.022	42.67
299.236	3.75
299.451	-10.58
299.665	44.71
299.88	28.33
300.094	28.33
300.309	59.05
300.523	5.8
300.737	63.15
300.952	63.15
301.166	-16.73
301.381	-24.92
301.595	13.99
301.809	20.14
302.024	3.75
302.238	28.33
302.452	18.09
302.667	16.04
302.881	42.67
303.095	44.71
303.309	20.14
303.524	42.67
303.738	16.04
303.952	42.67
304.166	44.71
304.381	16.04
304.595	67.24
304.809	24.23
305.023	50.86
305.237	9.9
305.452	24.23
305.666	18.09
305.88	67.24
306.094	85.67
306.308	-2.39
306.522	24.23
306.736	3.75
306.95	38.57
307.164	44.71
307.379	42.67
307.593	46.76
307.807	77.48
308.021	52.91
308.235	52.91
308.449	36.52
308.663	-35.16
308.877	34.47
309.091	44.71
309.305	75.43
309.519	-18.77
309.733	18.09
309.947	18.09
310.161	48.81
310.374	63.15
310.588	32.43
310.802	18.09
311.016	36.52
311.23	50.86
311.444	13.99
311.658	38.57
311.872	-22.87
312.085	59.05
312.299	93.87
312.513	13.99
312.727	95.91
312.941	16.04
313.154	100.01
313.368	-0.34
313.582	104.11
313.796	34.47
314.009	-22.87
314.223	-26.96
314.437	69.29
314.651	-26.96
314.864	46.76
315.078	71.34
315.292	13.99
315.505	52.91
315.719	-47.44
315.933	-12.63
316.146	30.38
316.36	5.8
316.573	52.91
316.787	83.63
317.001	42.67
317.214	48.81
317.428	59.05
317.641	-37.2
317.855	75.43
318.068	26.28
318.282	57
318.495	85.67
318.709	97.96
318.922	46.76
319.136	102.06
319.349	63.15
319.563	-0.34
319.776	50.86
319.99	28.33
320.203	-53.59
320.417	22.19
320.63	5.8
320.843	24.23
321.057	7.85
321.27	-6.49
321.483	36.52
321.697	16.04
321.91	-4.44
322.124	44.71
322.337	59.05
322.55	100.01
322.763	63.15
322.977	-53.59
323.19	44.71
323.403	13.99
323.617	-20.82
323.83	132.78
324.043	46.76
324.256	18.09
324.469	-20.82
324.683	91.82
324.896	102.06
325.109	-4.44
325.322	9.9
325.535	16.04
325.748	36.52
325.962	73.39
326.175	1.71
326.388	73.39
326.601	22.19
326.814	71.34
327.027	83.63
327.24	83.63
327.453	46.76
327.666	-18.77
327.879	-47.44
328.092	42.67
328.305	59.05
328.518	79.53
328.731	-31.06
328.944	50.86
329.157	57
329.37	16.04
329.583	124.58
329.796	85.67
330.009	20.14
330.222	46.76
330.435	46.76
330.648	54.95
330.861	95.91
331.073	34.47
331.286	38.57
331.499	50.86
331.712	-0.34
331.925	22.19
332.138	91.82
332.35	-47.44
332.563	59.05
332.776	77.48
332.989	50.86
333.202	71.34
333.414	-37.2
333.627	69.29
333.84	32.43
334.053	112.3
334.265	48.81
334.478	52.91
334.691	40.62
334.903	89.77
335.116	-14.68
335.329	61.1
335.541	36.52
335.754	118.44
335.966	1.71
336.179	75.43
336.392	-14.68
336.604	87.72
336.817	-12.63
337.029	9.9
337.242	26.28
337.454	71.34
337.667	3.75
337.88	124.58
338.092	77.48
338.305	61.1
338.517	50.86
338.729	16.04
338.942	36.52
339.154	-22.87
339.367	44.71
339.579	71.34
339.792	28.33
340.004	22.19
340.217	-6.49
340.429	-31.06
340.641	-47.44
340.854	16.04
341.066	18.09
341.278	102.06
341.491	71.34
341.703	75.43
341.915	61.1
342.128	-6.49
342.34	87.72
342.552	59.05
342.764	42.67
342.977	18.09
343.189	-10.58
343.401	9.9
343.613	67.24
343.826	-20.82
344.038	-20.82
344.25	34.47
344.462	-16.73
344.674	77.48
344.886	54.95
345.099	-6.49
345.311	102.06
345.523	79.53
345.735	100.01
345.947	106.15
346.159	-10.58
346.371	-12.63
346.583	59.05
346.795	36.52
347.007	-8.53
347.219	65.19
347.431	59.05
347.643	108.2
347.855	11.95
348.067	73.39
348.279	44.71
348.491	75.43
348.703	9.9
348.915	-6.49
349.127	18.09
349.339	-2.39
349.551	-33.11
349.763	67.24
349.975	-22.87
350.187	42.67
350.399	-12.63
350.61	83.63
350.822	32.43
351.034	9.9
351.246	38.57
351.458	32.43
351.669	1.71
351.881	11.95
352.093	38.57
352.305	46.76
352.517	52.91
352.728	102.06
352.94	7.85
353.152	50.86
353.363	83.63
353.575	16.04
353.787	81.58
353.999	42.67
354.21	32.43
354.422	-14.68
354.633	1.71
354.845	5.8
355.057	59.05
355.268	85.67
355.48	63.15
355.692	63.15
355.903	30.38
356.115	36.52
356.326	61.1
356.538	-31.06
356.749	108.2
356.961	75.43
357.172	50.86
357.384	42.67
357.595	85.67
357.807	13.99
358.018	24.23
358.23	100.01
358.441	63.15
358.653	34.47
358.864	22.19
359.075	50.86
359.287	120.49
359.498	48.81
359.709	7.85
359.921	61.1
360.132	-18.77
360.344	42.67
360.555	75.43
360.766	83.63
360.977	73.39
361.189	61.1
361.4	36.52
361.611	71.34
361.823	67.24
362.034	36.52
362.245	11.95
362.456	28.33
362.667	65.19
362.879	69.29
363.09	20.14
363.301	28.33
363.512	-0.34
363.723	7.85
363.935	42.67
364.146	9.9
364.357	26.28
364.568	9.9
364.779	91.82
364.99	81.58
365.201	-16.73
365.412	71.34
365.623	34.47
365.834	63.15
366.045	59.05
366.256	38.57
366.467	24.23
366.678	7.85
366.889	61.1
367.1	42.67
367.311	26.28
367.522	-4.44
367.733	71.34
367.944	38.57
368.155	50.86
368.366	34.47
368.577	30.38
368.788	67.24
368.999	16.04
369.209	48.81
369.42	16.04
369.631	50.86
369.842	26.28
370.053	40.62
370.264	13.99
370.474	77.48
370.685	77.48
370.896	34.47
371.107	52.91
371.317	85.67
371.528	110.25
371.739	7.85
371.95	71.34
372.16	87.72
372.371	112.3
372.582	67.24
372.792	-10.58
373.003	73.39
373.214	81.58
373.424	-22.87
373.635	59.05
373.846	-6.49
374.056	50.86
374.267	42.67
374.477	85.67
374.688	46.76
374.898	-6.49
375.109	83.63
375.319	-20.82
375.53	81.58
375.74	20.14
375.951	40.62
376.161	26.28
376.372	-31.06
376.582	28.33
376.793	63.15
377.003	42.67
377.214	18.09
377.424	9.9
377.635	28.33
377.845	-31.06
378.055	1.71
378.266	24.23
378.476	46.76
378.686	50.86
378.897	7.85
379.107	57
379.317	124.58
379.528	20.14
379.738	102.06
379.948	5.8
380.158	93.87
380.369	-0.34
380.579	73.39
380.789	42.67
380.999	114.34
381.21	-0.34
381.42	102.06
381.63	-35.16
381.84	69.29
382.05	30.38
382.261	1.71
382.471	75.43
382.681	28.33
382.891	71.34
383.101	67.24
383.311	77.48
383.521	-6.49
383.731	42.67
383.941	67.24
384.151	11.95
384.361	1.71
384.571	18.09
384.781	5.8
384.991	69.29
385.201	28.33
385.411	79.53
385.621	77.48
385.831	110.25
386.041	79.53
386.251	-41.3
386.461	42.67
386.671	9.9
386.881	116.39
387.091	100.01
387.301	81.58
387.511	36.52
387.72	38.57
387.93	63.15
388.14	71.34
388.35	-51.54
388.56	108.2
388.769	48.81
388.979	24.23
389.189	85.67
389.399	59.05
389.609	75.43
389.818	77.48
390.028	63.15
390.238	91.82
390.447	22.19
390.657	38.57
390.867	22.19
391.076	36.52
391.286	79.53
391.496	128.68
391.705	132.78
391.915	110.25
392.125	67.24
392.334	-6.49
392.544	36.52
392.753	52.91
392.963	100.01
393.172	69.29
393.382	11.95
393.591	91.82
393.801	59.05
394.01	71.34
394.22	79.53
394.429	65.19
394.639	52.91
394.848	42.67
395.058	20.14
395.267	79.53
395.477	67.24
395.686	95.91
395.895	87.72
396.105	100.01
396.314	85.67
396.524	138.92
396.733	124.58
396.942	108.2
397.152	104.11
397.361	59.05
397.57	38.57
397.78	9.9
397.989	132.78
398.198	61.1
398.407	3.75
398.617	79.53
398.826	18.09
399.035	50.86
399.244	140.97
399.453	50.86
399.663	28.33
399.872	71.34
400.081	110.25
400.29	155.3
400.499	59.05
400.708	126.63
400.917	81.58
401.127	42.67
401.336	81.58
401.545	177.83
401.754	81.58
401.963	69.29
402.172	124.58
402.381	20.14
402.59	83.63
402.799	126.63
403.008	120.49
403.217	63.15
403.426	100.01
403.635	143.02
403.844	77.48
404.053	87.72
404.262	116.39
404.471	171.69
404.68	77.48
404.888	128.68
405.097	67.24
405.306	145.06
405.515	102.06
405.724	95.91
405.933	136.87
406.142	83.63
406.35	93.87
406.559	114.34
406.768	147.11
406.977	140.97
407.185	138.92
407.394	132.78
407.603	102.06
407.812	155.3
408.02	124.58
408.229	149.16
408.438	173.74
408.646	136.87
408.855	112.3
409.064	149.16
409.272	183.98
409.481	200.36
409.69	124.58
409.898	237.22
410.107	243.37
410.315	218.79
410.524	190.12
410.733	200.36
410.941	204.46
411.15	233.13
411.358	196.26
411.567	249.51
411.775	341.67
411.984	274.09
412.192	325.29
412.401	306.85
412.609	222.89
412.818	308.9
413.026	269.99
413.234	378.53
413.443	337.57
413.651	335.53
413.86	296.61
414.068	300.71
414.276	425.64
414.485	429.73
414.693	370.34
414.901	423.59
415.11	370.34
415.318	478.88
415.526	464.55
415.734	435.88
415.943	495.27
416.151	458.4
416.359	536.23
416.567	525.99
416.776	552.61
416.984	550.56
417.192	603.81
417.4	616.1
417.608	571.04
417.817	648.86
418.025	681.63
418.233	734.88
418.441	659.1
418.649	665.25
418.857	781.98
419.065	724.64
419.273	798.37
419.481	808.61
419.689	941.72
419.897	1050.27
420.105	956.06
420.313	970.4
420.521	960.16
420.729	968.35
420.937	986.78
421.145	1087.13
421.353	1093.27
421.561	1169.05
421.769	1197.72
421.977	1205.91
422.185	1183.38
422.393	1253.02
422.601	1320.6
422.809	1316.5
423.017	1404.57
423.224	1470.1
423.432	1506.96
423.64	1554.07
423.848	1554.07
424.056	1592.98
424.263	1814.16
424.471	1830.54
424.679	1773.2
424.887	1834.64
425.094	1803.92
425.302	1982.09
425.51	1959.56
425.718	1982.09
425.925	2047.63
426.133	2160.27
426.341	2233.99
426.548	2297.48
426.756	2311.82
426.964	2387.59
427.171	2502.28
427.379	2616.96
427.586	2659.97
427.794	2827.9
428.001	2754.18
428.209	3032.7
428.417	2901.63
428.624	3190.39
428.832	3165.82
429.039	3151.48
429.247	3106.43
429.454	3376.76
429.662	3597.94
429.869	3358.33
430.076	3591.8
430.284	3630.71
430.491	3548.79
430.699	3894.9
430.906	4001.39
431.114	4032.11
431.321	4120.17
431.528	4236.91
431.736	4476.52
431.943	4591.2
432.15	4726.37
432.358	4634.21
432.565	4699.75
432.772	4865.63
432.979	4916.83
433.187	5031.52
433.394	5041.76
433.601	5563.99
433.808	5422.68
434.016	5598.81
434.223	5662.29
434.43	5942.86
434.637	5981.78
434.844	6321.74
435.052	6413.9
435.259	6264.4
435.466	6301.26
435.673	6338.12
435.88	6809.15
436.087	7061.05
436.294	7136.83
436.501	7007.81
436.708	7061.05
436.915	7427.64
437.122	7755.32
437.329	7616.05
437.537	7927.35
437.743	8152.62
437.95	7921.2
438.157	8578.6
438.364	8611.37
438.571	8945.19
438.778	8594.98
438.985	9455.13
439.192	9186.85
439.399	9301.53
439.606	9127.46
439.813	9725.46
440.02	10208.78
440.227	10259.98
440.433	9879.06
440.64	10296.85
440.847	10259.98
441.054	10399.24
441.261	11105.79
441.467	10999.3
441.674	11425.28
441.881	11785.72
442.088	11525.63
442.294	11611.64
442.501	11867.64
442.708	12129.78
442.914	12707.3
443.121	13211.11
443.328	12623.34
443.534	13813.21
443.741	13233.63
443.948	13000.16
444.154	14040.53
444.361	13911.51
444.568	13839.83
444.774	14128.6
444.981	14190.03
445.187	14708.17
445.394	15308.23
445.6	15214.02
445.807	16567.73
446.013	15857.08
446.22	16104.88
446.426	16831.91
446.633	16811.43
446.839	17554.85
447.046	16586.16
447.252	17751.45
447.459	17634.72
447.665	17460.64
447.871	18345.36
448.078	19406.21
448.284	18453.91
448.491	18634.13
448.697	19420.55
448.903	19772.8
449.11	19914.11
449.316	19721.6
449.522	19907.96
449.728	20557.17
449.935	20643.18
450.141	20624.75
450.347	21067.11
450.553	20575.6
450.76	20546.93
450.966	21392.74
451.172	21378.4
451.378	21517.67
451.584	21261.67
451.791	21607.78
451.997	21618.02
452.203	22017.37
452.409	21992.8
452.615	21671.26
452.821	20985.19
453.027	20815.21
453.233	21699.94
453.44	20831.6
453.646	21321.06
453.852	21581.15
454.058	21564.77
454.264	21067.11
454.47	21523.81
454.676	20960.62
454.882	21505.38
455.088	19799.42
455.294	20206.97
455.5	20407.67
455.705	20454.77
455.911	19858.81
456.117	19385.73
456.323	19240.33
456.529	18050.46
456.735	18800.01
456.941	18138.52
457.147	18034.07
457.352	17522.08
457.558	17483.17
457.764	17288.61
457.97	16969.13
458.176	16453.04
458.381	16879.02
458.587	15705.53
458.793	15795.64
458.999	15087.04
459.204	16051.64
459.41	15486.4
459.616	14632.4
459.821	14742.99
460.027	14534.09
460.233	14493.13
460.438	13659.61
460.644	13907.41
460.85	12963.3
461.055	12830.18
461.261	13045.22
461.466	12043.76
461.672	11503.1
461.878	12484.08
462.083	11421.18
462.289	11302.4
462.494	11415.04
462.7	10948.1
462.905	10423.82
463.111	11109.89
463.316	10888.71
463.522	10849.8
463.727	10909.19
463.932	10810.89
464.138	10745.35
464.343	10743.3
464.549	10358.28
464.754	10704.39
464.959	10640.9
465.165	10546.7
465.37	10024.47
465.575	10112.53
465.781	10186.26
465.986	10161.68
466.191	9791
466.397	9774.61
466.602	9485.85
466.807	9598.49
467.012	9602.58
467.218	9719.32
467.423	9491.99
467.628	9661.98
467.833	10092.05
468.038	9606.68
468.244	9319.96
468.449	9539.1
468.654	9563.67
468.859	9473.56
469.064	9309.72
