Data from USB4F104151__118__13-55-02-447.txt Node

Date: Thu Mar 13 13:55:02 EDT 2025
User: louis
Spectrometer: USB4F10415
Trigger mode: 4
Integration Time (sec): 1.000000E-2
Scans to average: 1
Electric dark correction enabled: true
Nonlinearity correction enabled: false
Boxcar width: 0
XAxis mode: Wavelengths
Number of Pixels in Spectrum: 3648
>>>>>Begin Spectral Data<<<<<
178.204	-43.52
178.424	-43.52
178.644	-43.52
178.864	22.02
179.084	-84.48
179.304	-84.48
179.524	7.68
179.744	38.4
179.964	-10.75
180.184	42.5
180.404	-25.09
180.624	3.58
180.844	22.02
181.064	17.92
181.283	11.78
181.503	-33.28
181.723	9.73
181.943	-14.85
182.163	54.78
182.383	-35.33
182.602	-27.14
182.822	-33.28
183.042	-29.18
183.262	34.3
183.482	22.02
183.701	5.63
183.921	58.88
184.141	38.4
184.361	13.82
184.58	-6.66
184.8	65.02
185.02	112.13
185.239	13.82
185.459	42.5
185.679	9.73
185.898	-2.56
186.118	-45.57
186.338	101.89
186.557	40.45
186.777	-16.9
186.997	-72.19
187.216	65.02
187.436	73.21
187.655	-6.66
187.875	-2.56
188.095	22.02
188.314	22.02
188.534	34.3
188.753	32.26
188.973	54.78
189.192	5.63
189.412	50.69
189.631	13.82
189.851	-0.51
190.07	38.4
190.29	13.82
190.509	81.41
190.729	19.97
190.948	1.54
191.168	22.02
191.387	77.31
191.607	34.3
191.826	36.35
192.045	-4.61
192.265	42.5
192.484	110.08
192.704	54.78
192.923	26.11
193.142	5.63
193.362	-14.85
193.581	-37.38
193.8	-4.61
194.02	-27.14
194.239	-0.51
194.458	32.26
194.678	58.88
194.897	42.5
195.116	62.98
195.335	48.64
195.555	26.11
195.774	62.98
195.993	-29.18
196.212	1.54
196.432	-29.18
196.651	50.69
196.87	34.3
197.089	38.4
197.308	36.35
197.528	36.35
197.747	-18.94
197.966	11.78
198.185	87.55
198.404	79.36
198.623	87.55
198.842	75.26
199.062	120.32
199.281	11.78
199.5	-8.7
199.719	56.83
199.938	62.98
200.157	73.21
200.376	-31.23
200.595	38.4
200.814	-20.99
201.033	-0.51
201.252	56.83
201.471	56.83
201.69	-10.75
201.909	48.64
202.128	58.88
202.347	13.82
202.566	-10.75
202.785	7.68
203.004	-41.47
203.223	124.41
203.442	91.65
203.661	11.78
203.879	52.74
204.098	54.78
204.317	46.59
204.536	85.5
204.755	44.54
204.974	-33.28
205.193	-43.52
205.411	19.97
205.63	24.06
205.849	36.35
206.068	26.11
206.287	28.16
206.505	48.64
206.724	28.16
206.943	-14.85
207.162	108.03
207.381	44.54
207.599	-29.18
207.818	19.97
208.037	-37.38
208.255	-6.66
208.474	103.93
208.693	-4.61
208.911	9.73
209.13	38.4
209.349	77.31
209.567	-18.94
209.786	65.02
210.005	36.35
210.223	-61.95
210.442	-57.86
210.661	26.11
210.879	1.54
211.098	42.5
211.316	34.3
211.535	30.21
211.753	26.11
211.972	13.82
212.191	73.21
212.409	11.78
212.628	36.35
212.846	69.12
213.065	65.02
213.283	-2.56
213.502	-10.75
213.72	79.36
213.938	-10.75
214.157	-16.9
214.375	73.21
214.594	32.26
214.812	112.13
215.031	13.82
215.249	34.3
215.467	26.11
215.686	44.54
215.904	32.26
216.122	-31.23
216.341	62.98
216.559	60.93
216.778	89.6
216.996	-10.75
217.214	-27.14
217.432	40.45
217.651	52.74
217.869	52.74
218.087	-4.61
218.306	-37.38
218.524	83.45
218.742	40.45
218.96	54.78
219.179	36.35
219.397	36.35
219.615	67.07
219.833	36.35
220.051	89.6
220.27	38.4
220.488	60.93
220.706	93.69
220.924	1.54
221.142	28.16
221.36	19.97
221.578	28.16
221.796	26.11
222.015	-4.61
222.233	54.78
222.451	93.69
222.669	-16.9
222.887	11.78
223.105	-37.38
223.323	-20.99
223.541	3.58
223.759	19.97
223.977	52.74
224.195	26.11
224.413	50.69
224.631	-2.56
224.849	54.78
225.067	11.78
225.285	15.87
225.503	65.02
225.721	13.82
225.939	44.54
226.157	44.54
226.375	126.46
226.592	-4.61
226.81	52.74
227.028	67.07
227.246	-23.04
227.464	54.78
227.682	83.45
227.9	81.41
228.117	-18.94
228.335	-25.09
228.553	-2.56
228.771	30.21
228.989	50.69
229.206	3.58
229.424	13.82
229.642	5.63
229.86	3.58
230.077	-25.09
230.295	-14.85
230.513	46.59
230.731	3.58
230.948	58.88
231.166	36.35
231.384	65.02
231.601	48.64
231.819	-2.56
232.037	99.84
232.254	1.54
232.472	36.35
232.689	36.35
232.907	56.83
233.125	62.98
233.342	67.07
233.56	-0.51
233.777	26.11
233.995	34.3
234.213	81.41
234.43	67.07
234.648	34.3
234.865	7.68
235.083	60.93
235.3	48.64
235.518	54.78
235.735	60.93
235.953	48.64
236.17	-12.8
236.388	-49.66
236.605	-23.04
236.822	69.12
237.04	-27.14
237.257	67.07
237.475	7.68
237.692	69.12
237.909	-0.51
238.127	9.73
238.344	65.02
238.562	60.93
238.779	50.69
238.996	-23.04
239.214	81.41
239.431	-14.85
239.648	77.31
239.865	75.26
240.083	60.93
240.3	40.45
240.517	-31.23
240.735	65.02
240.952	34.3
241.169	11.78
241.386	3.58
241.603	19.97
241.821	32.26
242.038	22.02
242.255	54.78
242.472	19.97
242.689	17.92
242.907	69.12
243.124	50.69
243.341	38.4
243.558	42.5
243.775	95.74
243.992	40.45
244.209	24.06
244.426	60.93
244.643	81.41
244.86	30.21
245.078	11.78
245.295	-8.7
245.512	93.69
245.729	36.35
245.946	32.26
246.163	34.3
246.38	15.87
246.597	69.12
246.814	67.07
247.031	-2.56
247.248	-8.7
247.464	-16.9
247.681	101.89
247.898	54.78
248.115	7.68
248.332	-12.8
248.549	44.54
248.766	32.26
248.983	40.45
249.2	5.63
249.417	40.45
249.633	22.02
249.85	99.84
250.067	60.93
250.284	75.26
250.501	32.26
250.717	17.92
250.934	54.78
251.151	42.5
251.368	-39.42
251.585	40.45
251.801	-39.42
252.018	101.89
252.235	30.21
252.451	11.78
252.668	28.16
252.885	17.92
253.102	3.58
253.318	-6.66
253.535	-2.56
253.752	36.35
253.968	40.45
254.185	13.82
254.401	62.98
254.618	32.26
254.835	-20.99
255.051	40.45
255.268	-18.94
255.484	-61.95
255.701	32.26
255.917	60.93
256.134	-12.8
256.351	52.74
256.567	65.02
256.784	15.87
257	17.92
257.217	19.97
257.433	34.3
257.65	-2.56
257.866	93.69
258.082	44.54
258.299	-10.75
258.515	-25.09
258.732	38.4
258.948	13.82
259.165	65.02
259.381	36.35
259.597	22.02
259.814	34.3
260.03	95.74
260.246	-51.71
260.463	81.41
260.679	30.21
260.895	28.16
261.112	17.92
261.328	-6.66
261.544	34.3
261.761	91.65
261.977	65.02
262.193	62.98
262.409	15.87
262.626	26.11
262.842	67.07
263.058	44.54
263.274	15.87
263.49	50.69
263.707	15.87
263.923	5.63
264.139	-25.09
264.355	56.83
264.571	65.02
264.787	-66.05
265.004	-12.8
265.22	87.55
265.436	71.17
265.652	13.82
265.868	112.13
266.084	48.64
266.3	69.12
266.516	3.58
266.732	24.06
266.948	30.21
267.164	11.78
267.38	34.3
267.596	79.36
267.812	-4.61
268.028	62.98
268.244	81.41
268.46	42.5
268.676	11.78
268.892	114.17
269.108	42.5
269.324	-6.66
269.54	24.06
269.756	73.21
269.972	24.06
270.188	73.21
270.403	73.21
270.619	46.59
270.835	44.54
271.051	-68.09
271.267	28.16
271.483	79.36
271.698	-4.61
271.914	-55.81
272.13	1.54
272.346	-18.94
272.562	3.58
272.777	71.17
272.993	-14.85
273.209	52.74
273.425	99.84
273.64	52.74
273.856	15.87
274.072	19.97
274.287	-0.51
274.503	93.69
274.719	3.58
274.934	65.02
275.15	17.92
275.366	146.94
275.581	22.02
275.797	40.45
276.012	5.63
276.228	42.5
276.444	-25.09
276.659	26.11
276.875	13.82
277.09	3.58
277.306	71.17
277.521	3.58
277.737	52.74
277.952	7.68
278.168	60.93
278.383	44.54
278.599	-6.66
278.814	-4.61
279.03	24.06
279.245	89.6
279.461	9.73
279.676	46.59
279.892	81.41
280.107	52.74
280.322	-14.85
280.538	60.93
280.753	54.78
280.969	-31.23
281.184	-51.71
281.399	48.64
281.615	-20.99
281.83	65.02
282.045	28.16
282.26	-4.61
282.476	71.17
282.691	-86.53
282.906	1.54
283.122	-8.7
283.337	-33.28
283.552	65.02
283.767	-10.75
283.983	-0.51
284.198	58.88
284.413	28.16
284.628	22.02
284.843	30.21
285.058	3.58
285.274	69.12
285.489	116.22
285.704	32.26
285.919	-45.57
286.134	-25.09
286.349	15.87
286.564	-8.7
286.779	42.5
286.995	79.36
287.21	-74.24
287.425	44.54
287.64	-31.23
287.855	50.69
288.07	32.26
288.285	128.51
288.5	71.17
288.715	85.5
288.93	52.74
289.145	-8.7
289.36	-10.75
289.575	46.59
289.79	7.68
290.004	38.4
290.219	87.55
290.434	67.07
290.649	9.73
290.864	15.87
291.079	71.17
291.294	17.92
291.509	28.16
291.724	11.78
291.938	30.21
292.153	-29.18
292.368	42.5
292.583	-35.33
292.798	-20.99
293.012	38.4
293.227	54.78
293.442	69.12
293.657	56.83
293.871	73.21
294.086	-0.51
294.301	73.21
294.516	60.93
294.73	13.82
294.945	52.74
295.16	30.21
295.374	126.46
295.589	69.12
295.804	79.36
296.018	95.74
296.233	-2.56
296.447	44.54
296.662	67.07
296.877	22.02
297.091	11.78
297.306	15.87
297.52	32.26
297.735	-12.8
297.949	-10.75
298.164	3.58
298.378	-10.75
298.593	-10.75
298.807	-10.75
299.022	34.3
299.236	118.27
299.451	11.78
299.665	83.45
299.88	1.54
300.094	15.87
300.309	-2.56
300.523	-10.75
300.737	15.87
300.952	91.65
301.166	81.41
301.381	75.26
301.595	56.83
301.809	-31.23
302.024	73.21
302.238	65.02
302.452	69.12
302.667	38.4
302.881	44.54
303.095	36.35
303.309	65.02
303.524	26.11
303.738	34.3
303.952	-20.99
304.166	44.54
304.381	26.11
304.595	11.78
304.809	-12.8
305.023	48.64
305.237	17.92
305.452	67.07
305.666	7.68
305.88	13.82
306.094	17.92
306.308	48.64
306.522	32.26
306.736	89.6
306.95	30.21
307.164	38.4
307.379	54.78
307.593	54.78
307.807	67.07
308.021	26.11
308.235	-10.75
308.449	30.21
308.663	67.07
308.877	67.07
309.091	34.3
309.305	108.03
309.519	-0.51
309.733	93.69
309.947	48.64
310.161	5.63
310.374	-20.99
310.588	44.54
310.802	28.16
311.016	11.78
311.23	58.88
311.444	-23.04
311.658	-20.99
311.872	62.98
312.085	77.31
312.299	54.78
312.513	44.54
312.727	77.31
312.941	38.4
313.154	73.21
313.368	-4.61
313.582	60.93
313.796	56.83
314.009	11.78
314.223	60.93
314.437	46.59
314.651	-10.75
314.864	46.59
315.078	105.98
315.292	30.21
315.505	-2.56
315.719	67.07
315.933	56.83
316.146	-41.47
316.36	81.41
316.573	52.74
316.787	73.21
317.001	22.02
317.214	-10.75
317.428	-18.94
317.641	69.12
317.855	65.02
318.068	-10.75
318.282	75.26
318.495	-16.9
318.709	105.98
318.922	32.26
319.136	38.4
319.349	40.45
319.563	22.02
319.776	17.92
319.99	159.23
320.203	62.98
320.417	19.97
320.63	3.58
320.843	112.13
321.057	120.32
321.27	-51.71
321.483	97.79
321.697	79.36
321.91	19.97
322.124	46.59
322.337	15.87
322.55	28.16
322.763	56.83
322.977	26.11
323.19	15.87
323.403	77.31
323.617	13.82
323.83	44.54
324.043	-16.9
324.256	79.36
324.469	81.41
324.683	-4.61
324.896	58.88
325.109	38.4
325.322	56.83
325.535	62.98
325.748	-2.56
325.962	42.5
326.175	5.63
326.388	-0.51
326.601	62.98
326.814	1.54
327.027	95.74
327.24	77.31
327.453	15.87
327.666	54.78
327.879	-6.66
328.092	26.11
328.305	-6.66
328.518	44.54
328.731	62.98
328.944	67.07
329.157	93.69
329.37	11.78
329.583	15.87
329.796	30.21
330.009	38.4
330.222	87.55
330.435	-20.99
330.648	44.54
330.861	17.92
331.073	67.07
331.286	36.35
331.499	40.45
331.712	56.83
331.925	54.78
332.138	-12.8
332.35	120.32
332.563	87.55
332.776	79.36
332.989	9.73
333.202	15.87
333.414	46.59
333.627	85.5
333.84	48.64
334.053	40.45
334.265	38.4
334.478	34.3
334.691	89.6
334.903	26.11
335.116	7.68
335.329	44.54
335.541	54.78
335.754	15.87
335.966	52.74
336.179	83.45
336.392	11.78
336.604	50.69
336.817	60.93
337.029	114.17
337.242	-35.33
337.454	136.7
337.667	22.02
337.88	15.87
338.092	93.69
338.305	93.69
338.517	46.59
338.729	1.54
338.942	-27.14
339.154	-10.75
339.367	-10.75
339.579	15.87
339.792	22.02
340.004	28.16
340.217	15.87
340.429	-4.61
340.641	42.5
340.854	-8.7
341.066	15.87
341.278	93.69
341.491	17.92
341.703	48.64
341.915	22.02
342.128	-6.66
342.34	56.83
342.552	-0.51
342.764	15.87
342.977	99.84
343.189	-2.56
343.401	93.69
343.613	38.4
343.826	52.74
344.038	-43.52
344.25	32.26
344.462	13.82
344.674	3.58
344.886	89.6
345.099	26.11
345.311	77.31
345.523	24.06
345.735	36.35
345.947	65.02
346.159	65.02
346.371	67.07
346.583	38.4
346.795	48.64
347.007	48.64
347.219	69.12
347.431	73.21
347.643	71.17
347.855	38.4
348.067	69.12
348.279	15.87
348.491	-0.51
348.703	28.16
348.915	73.21
349.127	30.21
349.339	13.82
349.551	42.5
349.763	36.35
349.975	11.78
350.187	75.26
350.399	19.97
350.61	13.82
350.822	22.02
351.034	1.54
351.246	62.98
351.458	56.83
351.669	79.36
351.881	101.89
352.093	73.21
352.305	15.87
352.517	26.11
352.728	118.27
352.94	-12.8
353.152	22.02
353.363	28.16
353.575	65.02
353.787	34.3
353.999	52.74
354.21	-12.8
354.422	73.21
354.633	71.17
354.845	128.51
355.057	13.82
355.268	44.54
355.48	-2.56
355.692	77.31
355.903	-6.66
356.115	30.21
356.326	46.59
356.538	58.88
356.749	73.21
356.961	95.74
357.172	89.6
357.384	65.02
357.595	60.93
357.807	-8.7
358.018	69.12
358.23	34.3
358.441	56.83
358.653	73.21
358.864	-6.66
359.075	69.12
359.287	30.21
359.498	89.6
359.709	13.82
359.921	52.74
360.132	1.54
360.344	56.83
360.555	60.93
360.766	48.64
360.977	93.69
361.189	-27.14
361.4	91.65
361.611	-29.18
361.823	101.89
362.034	46.59
362.245	42.5
362.456	73.21
362.667	120.32
362.879	40.45
363.09	85.5
363.301	116.22
363.512	85.5
363.723	36.35
363.935	26.11
364.146	5.63
364.357	15.87
364.568	95.74
364.779	65.02
364.99	77.31
365.201	-39.42
365.412	62.98
365.623	-2.56
365.834	62.98
366.045	17.92
366.256	136.7
366.467	7.68
366.678	116.22
366.889	65.02
367.1	116.22
367.311	-4.61
367.522	69.12
367.733	77.31
367.944	110.08
368.155	122.37
368.366	-0.51
368.577	42.5
368.788	40.45
368.999	36.35
369.209	71.17
369.42	157.18
369.631	132.61
369.842	-18.94
370.053	62.98
370.264	48.64
370.474	-18.94
370.685	75.26
370.896	91.65
371.107	112.13
371.317	71.17
371.528	46.59
371.739	50.69
371.95	81.41
372.16	73.21
372.371	71.17
372.582	110.08
372.792	38.4
373.003	44.54
373.214	65.02
373.424	22.02
373.635	-8.7
373.846	56.83
374.056	7.68
374.267	60.93
374.477	50.69
374.688	50.69
374.898	67.07
375.109	103.93
375.319	93.69
375.53	3.58
375.74	65.02
375.951	-0.51
376.161	34.3
376.372	22.02
376.582	11.78
376.793	13.82
377.003	1.54
377.214	11.78
377.424	79.36
377.635	60.93
377.845	40.45
378.055	38.4
378.266	71.17
378.476	112.13
378.686	38.4
378.897	22.02
379.107	79.36
379.317	52.74
379.528	32.26
379.738	79.36
379.948	46.59
380.158	155.13
380.369	26.11
380.579	120.32
380.789	38.4
380.999	77.31
381.21	93.69
381.42	52.74
381.63	93.69
381.84	46.59
382.05	62.98
382.261	132.61
382.471	38.4
382.681	46.59
382.891	40.45
383.101	85.5
383.311	17.92
383.521	71.17
383.731	56.83
383.941	28.16
384.151	69.12
384.361	69.12
384.571	48.64
384.781	89.6
384.991	-2.56
385.201	40.45
385.411	38.4
385.621	81.41
385.831	-10.75
386.041	103.93
386.251	73.21
386.461	34.3
386.671	65.02
386.881	19.97
387.091	81.41
387.301	32.26
387.511	151.04
387.72	44.54
387.93	26.11
388.14	105.98
388.35	65.02
388.56	103.93
388.769	44.54
388.979	138.75
389.189	79.36
389.399	60.93
389.609	62.98
389.818	81.41
390.028	52.74
390.238	79.36
390.447	-51.71
390.657	122.37
390.867	7.68
391.076	130.56
391.286	77.31
391.496	110.08
391.705	42.5
391.915	132.61
392.125	75.26
392.334	97.79
392.544	69.12
392.753	69.12
392.963	110.08
393.172	93.69
393.382	83.45
393.591	79.36
393.801	52.74
394.01	81.41
394.22	99.84
394.429	62.98
394.639	56.83
394.848	71.17
395.058	28.16
395.267	42.5
395.477	48.64
395.686	128.51
395.895	99.84
396.105	118.27
396.314	165.37
396.524	85.5
396.733	22.02
396.942	163.33
397.152	73.21
397.361	91.65
397.57	132.61
397.78	73.21
397.989	58.88
398.198	161.28
398.407	71.17
398.617	40.45
398.826	116.22
399.035	87.55
399.244	89.6
399.453	130.56
399.663	101.89
399.872	101.89
400.081	114.17
400.29	101.89
400.499	62.98
400.708	91.65
400.917	116.22
401.127	189.95
401.336	105.98
401.545	185.85
401.754	120.32
401.963	179.71
402.172	130.56
402.381	126.46
402.59	153.09
402.799	93.69
403.008	122.37
403.217	134.65
403.426	91.65
403.635	89.6
403.844	136.7
404.053	148.99
404.262	97.79
404.471	192
404.68	95.74
404.888	214.52
405.097	120.32
405.306	237.05
405.515	85.5
405.724	169.47
405.933	206.33
406.142	196.09
406.35	177.66
406.559	230.91
406.768	157.18
406.977	157.18
407.185	226.81
407.394	216.57
407.603	263.68
407.812	175.61
408.02	206.33
408.229	183.81
408.438	228.86
408.646	288.25
408.855	142.85
409.064	265.72
409.272	179.71
409.481	310.78
409.69	271.87
409.898	273.92
410.107	331.26
410.315	331.26
410.524	341.5
410.733	351.74
410.941	314.88
411.15	398.84
411.358	380.41
411.567	458.23
411.775	423.42
411.984	384.51
412.192	470.52
412.401	474.62
412.609	497.14
412.818	538.1
413.026	511.48
413.234	470.52
413.443	495.1
413.651	566.78
413.86	615.93
414.068	554.49
414.276	638.45
414.485	622.07
414.693	689.65
414.901	628.21
415.11	642.55
415.318	679.41
415.526	667.13
415.734	773.62
415.943	728.56
416.151	863.73
416.359	787.96
416.567	898.55
416.776	869.87
416.984	974.32
417.192	972.27
417.4	1046
417.608	1013.23
417.817	1082.86
418.025	1134.06
418.233	1166.83
418.441	1150.45
418.649	1162.73
418.857	1185.26
419.065	1394.15
419.273	1334.76
419.481	1406.44
419.689	1418.73
419.897	1494.51
420.105	1566.18
420.313	1461.74
420.521	1562.09
420.729	1684.97
420.937	1682.92
421.145	1820.13
421.353	1857
421.561	1820.13
421.769	1791.46
421.977	1992.16
422.185	1990.11
422.393	2145.76
422.601	2252.25
422.809	2276.83
423.017	2293.21
423.224	2344.41
423.432	2500.06
423.64	2399.71
423.848	2805.21
424.056	2645.46
424.263	2868.69
424.471	2815.45
424.679	2909.65
424.887	3227.09
425.094	3102.16
425.302	3145.17
425.51	3210.7
425.718	3333.58
425.925	3376.59
426.133	3636.68
426.341	3601.87
426.548	3925.44
426.756	4021.7
426.964	3997.12
427.171	4265.41
427.379	4341.18
427.586	4468.16
427.794	4441.53
428.001	4715.96
428.209	4937.14
428.417	4806.07
428.624	5092.79
428.832	5094.83
429.039	5121.46
429.247	5117.36
429.454	5764.52
429.662	6118.82
429.869	5633.45
430.076	6004.13
430.284	5830.06
430.491	6274.46
430.699	6415.77
430.906	6530.46
431.114	6596
431.321	6821.27
431.528	6999.45
431.736	7335.31
431.943	7650.7
432.15	7450
432.358	7480.72
432.565	7992.71
432.772	8125.83
432.979	8349.06
433.187	8476.03
433.394	8430.98
433.601	9168.24
433.808	8938.87
434.016	9000.31
434.223	9543.02
434.43	10042.73
434.637	9893.23
434.844	10540.38
435.052	10485.09
435.259	10601.82
435.466	10644.83
435.673	10524
435.88	11289.94
436.087	11914.57
436.294	11865.42
436.501	11562.32
436.708	11949.39
436.915	11998.54
437.122	12746.05
437.329	12588.35
437.537	13198.65
437.743	13106.49
437.95	13188.41
438.157	13872.43
438.364	14406.95
438.571	14417.19
438.778	14535.97
438.985	15873.29
439.192	14970.14
439.399	15691.02
439.606	15240.47
439.813	16272.65
440.02	17009.92
440.227	17075.45
440.433	16637.19
440.64	17165.56
440.847	17022.2
441.054	17431.8
441.261	18722.02
441.467	18382.06
441.674	18650.34
441.881	19451.1
442.088	19264.73
442.294	18828.51
442.501	19569.88
442.708	20073.68
442.914	20827.33
443.121	21935.28
443.328	21052.61
443.534	22680.74
443.741	22256.81
443.948	22047.92
444.154	23428.25
444.361	23000.23
444.568	23587.99
444.774	23280.8
444.981	23731.35
445.187	24315.02
445.394	25375.87
445.6	24917.12
445.807	27481.18
446.013	26084.47
446.22	26494.06
446.426	27454.56
446.633	27786.33
446.839	29051.97
447.046	27587.68
447.252	29434.94
447.459	29377.6
447.665	29273.15
447.871	30127.16
448.078	31800.35
448.284	30354.48
448.491	30839.85
448.697	32128.02
448.903	32789.52
449.11	32607.25
449.316	32214.04
449.522	32998.41
449.728	33780.73
449.935	34032.63
450.141	33969.15
450.347	34782.19
450.553	33233.92
450.76	33868.8
450.966	35152.87
451.172	34948.07
451.378	35501.03
451.584	34933.74
451.791	35326.95
451.997	35558.37
452.203	36170.71
452.409	36051.93
452.615	35779.55
452.821	34831.34
453.027	34302.96
453.233	36180.95
453.44	34522.1
453.646	35341.28
453.852	35433.44
454.058	35810.27
454.264	34679.79
454.47	35349.48
454.676	34524.15
454.882	35587.04
455.088	32310.29
455.294	33170.44
455.5	33713.15
455.705	33819.64
455.911	32263.19
456.117	32076.82
456.323	31157.28
456.529	29848.63
456.735	31091.75
456.941	30250.03
457.147	29381.7
457.352	28988.49
457.558	28574.8
457.764	28804.17
457.97	28056.66
458.176	27149.41
458.381	27499.61
458.587	26258.54
458.793	26530.92
458.999	24781.96
459.204	26582.12
459.41	25650.3
459.616	24136.85
459.821	24286.35
460.027	24456.33
460.233	23432.35
460.438	22627.49
460.644	22705.32
460.85	21542.07
461.055	21140.67
461.261	21714.1
461.466	19715.28
461.672	19238.11
461.878	20440.26
462.083	19111.13
462.289	18593
462.494	18595.04
462.7	18029.8
462.905	17343.74
463.111	17833.2
463.316	17937.65
463.522	17593.59
463.727	17591.54
463.932	17587.44
464.138	17558.77
464.343	17300.73
464.549	16848.13
464.754	17552.63
464.959	17476.85
465.165	17102.08
465.37	16399.62
465.575	16139.53
465.781	16479.49
465.986	16827.65
466.191	16059.66
466.397	15889.68
466.602	15095.07
466.807	15531.28
467.012	15377.69
467.218	15598.87
467.423	15185.18
467.628	15523.09
467.833	16278.79
