Data from USB4F104151__275__14-02-21-659.txt Node

Date: Thu Mar 13 14:02:21 EDT 2025
User: louis
Spectrometer: USB4F10415
Trigger mode: 4
Integration Time (sec): 1.000000E-2
Scans to average: 1
Electric dark correction enabled: true
Nonlinearity correction enabled: false
Boxcar width: 0
XAxis mode: Wavelengths
Number of Pixels in Spectrum: 3648
>>>>>Begin Spectral Data<<<<<
178.204	-54.61
178.424	-54.61
178.644	-54.61
178.864	-73.04
179.084	-23.89
179.304	15.02
179.524	-58.71
179.744	33.45
179.964	21.16
180.184	-7.51
180.404	-15.7
180.624	-3.41
180.844	37.55
181.064	-32.08
181.283	15.02
181.503	19.11
181.723	-23.89
181.943	-11.61
182.163	-3.41
182.383	64.17
182.602	27.31
182.822	51.88
183.042	2.73
183.262	35.5
183.482	37.55
183.701	-7.51
183.921	-23.89
184.141	17.07
184.361	23.21
184.58	66.22
184.8	-11.61
185.02	-32.08
185.239	-5.46
185.459	-23.89
185.679	12.97
185.898	-11.61
186.118	55.98
186.338	-68.95
186.557	23.21
186.777	-5.46
186.997	19.11
187.216	-1.37
187.436	4.78
187.655	49.83
187.875	60.07
188.095	-9.56
188.314	41.64
188.534	-1.37
188.753	15.02
188.973	-7.51
189.192	68.27
189.412	2.73
189.631	78.51
189.851	-21.84
190.07	41.64
190.29	10.92
190.509	88.75
190.729	47.79
190.948	76.46
191.168	66.22
191.387	8.87
191.607	37.55
191.826	86.7
192.045	12.97
192.265	8.87
192.484	12.97
192.704	41.64
192.923	-13.65
193.142	66.22
193.362	-23.89
193.581	27.31
193.8	6.83
194.02	-15.7
194.239	-7.51
194.458	10.92
194.678	-11.61
194.897	27.31
195.116	12.97
195.335	-3.41
195.555	47.79
195.774	62.12
195.993	-5.46
196.212	-77.14
196.432	25.26
196.651	45.74
196.87	6.83
197.089	-15.7
197.308	-30.04
197.528	23.21
197.747	2.73
197.966	27.31
198.185	-23.89
198.404	10.92
198.623	-68.95
198.842	-95.57
199.062	-15.7
199.281	-9.56
199.5	-56.66
199.719	66.22
199.938	-9.56
200.157	35.5
200.376	66.22
200.595	-7.51
200.814	-36.18
201.033	0.68
201.252	15.02
201.471	0.68
201.69	12.97
201.909	19.11
202.128	35.5
202.347	-32.08
202.566	-23.89
202.785	-19.8
203.004	29.35
203.223	-1.37
203.442	27.31
203.661	27.31
203.879	-36.18
204.098	49.83
204.317	10.92
204.536	82.6
204.755	17.07
204.974	-13.65
205.193	-3.41
205.411	43.69
205.63	98.99
205.849	37.55
206.068	-15.7
206.287	-11.61
206.505	58.03
206.724	-19.8
206.943	31.4
207.162	31.4
207.381	-25.94
207.599	49.83
207.818	33.45
208.037	53.93
208.255	4.78
208.474	-44.37
208.693	41.64
208.911	19.11
209.13	64.17
209.349	2.73
209.567	10.92
209.786	-19.8
210.005	-17.75
210.223	10.92
210.442	-25.94
210.661	25.26
210.879	-73.04
211.098	27.31
211.316	0.68
211.535	27.31
211.753	-38.23
211.972	45.74
212.191	12.97
212.409	-7.51
212.628	19.11
212.846	37.55
213.065	21.16
213.283	29.35
213.502	-5.46
213.72	19.11
213.938	8.87
214.157	29.35
214.375	19.11
214.594	49.83
214.812	-5.46
215.031	-11.61
215.249	-21.84
215.467	25.26
215.686	0.68
215.904	58.03
216.122	25.26
216.341	-11.61
216.559	-19.8
216.778	49.83
216.996	-3.41
217.214	33.45
217.432	31.4
217.651	-13.65
217.869	6.83
218.087	80.55
218.306	10.92
218.524	60.07
218.742	-9.56
218.96	-21.84
219.179	51.88
219.397	-5.46
219.615	53.93
219.833	72.36
220.051	45.74
220.27	8.87
220.488	70.31
220.706	17.07
220.924	-66.9
221.142	33.45
221.36	60.07
221.578	-5.46
221.796	-36.18
222.015	43.69
222.233	27.31
222.451	-25.94
222.669	12.97
222.887	-5.46
223.105	21.16
223.323	19.11
223.541	-46.42
223.759	101.03
223.977	41.64
224.195	-13.65
224.413	-7.51
224.631	29.35
224.849	0.68
225.067	0.68
225.285	-58.71
225.503	17.07
225.721	41.64
225.939	33.45
226.157	-3.41
226.375	33.45
226.592	31.4
226.81	33.45
227.028	76.46
227.246	19.11
227.464	51.88
227.682	27.31
227.9	27.31
228.117	58.03
228.335	-23.89
228.553	27.31
228.771	66.22
228.989	8.87
229.206	-23.89
229.424	74.41
229.642	-64.85
229.86	43.69
230.077	27.31
230.295	-13.65
230.513	8.87
230.731	17.07
230.948	0.68
231.166	-44.37
231.384	39.59
231.601	12.97
231.819	-36.18
232.037	39.59
232.254	-23.89
232.472	27.31
232.689	2.73
232.907	10.92
233.125	-15.7
233.342	39.59
233.56	-23.89
233.777	-46.42
233.995	41.64
234.213	58.03
234.43	0.68
234.648	-75.09
234.865	-9.56
235.083	-1.37
235.3	41.64
235.518	15.02
235.735	10.92
235.953	103.08
236.17	-25.94
236.388	-21.84
236.605	-15.7
236.822	70.31
237.04	25.26
237.257	29.35
237.475	58.03
237.692	51.88
237.909	33.45
238.127	15.02
238.344	25.26
238.562	8.87
238.779	-40.28
238.996	-5.46
239.214	-27.99
239.431	60.07
239.648	78.51
239.865	25.26
240.083	27.31
240.3	49.83
240.517	8.87
240.735	74.41
240.952	90.79
241.169	0.68
241.386	0.68
241.603	49.83
241.821	-42.32
242.038	33.45
242.255	17.07
242.472	37.55
242.689	21.16
242.907	15.02
243.124	-11.61
243.341	19.11
243.558	51.88
243.775	25.26
243.992	31.4
244.209	74.41
244.426	41.64
244.643	10.92
244.86	74.41
245.078	23.21
245.295	23.21
245.512	-11.61
245.729	101.03
245.946	53.93
246.163	-15.7
246.38	-19.8
246.597	15.02
246.814	45.74
247.031	29.35
247.248	23.21
247.464	2.73
247.681	74.41
247.898	86.7
248.115	68.27
248.332	70.31
248.549	51.88
248.766	19.11
248.983	0.68
249.2	29.35
249.417	-58.71
249.633	45.74
249.85	10.92
250.067	41.64
250.284	29.35
250.501	21.16
250.717	25.26
250.934	23.21
251.151	19.11
251.368	49.83
251.585	10.92
251.801	31.4
252.018	-30.04
252.235	4.78
252.451	43.69
252.668	-11.61
252.885	109.23
253.102	41.64
253.318	31.4
253.535	-23.89
253.752	64.17
253.968	37.55
254.185	19.11
254.401	-7.51
254.618	-13.65
254.835	55.98
255.051	33.45
255.268	-15.7
255.484	-3.41
255.701	-15.7
255.917	33.45
256.134	-15.7
256.351	-15.7
256.567	21.16
256.784	4.78
257	-5.46
257.217	17.07
257.433	-34.13
257.65	-19.8
257.866	0.68
258.082	-5.46
258.299	-21.84
258.515	23.21
258.732	27.31
258.948	21.16
259.165	62.12
259.381	45.74
259.597	-17.75
259.814	90.79
260.03	33.45
260.246	17.07
260.463	-23.89
260.679	15.02
260.895	-25.94
261.112	-15.7
261.328	72.36
261.544	-48.47
261.761	51.88
261.977	41.64
262.193	70.31
262.409	41.64
262.626	0.68
262.842	-19.8
263.058	129.7
263.274	0.68
263.49	-17.75
263.707	47.79
263.923	-38.23
264.139	-13.65
264.355	58.03
264.571	33.45
264.787	68.27
265.004	41.64
265.22	-11.61
265.436	-5.46
265.652	74.41
265.868	4.78
266.084	-19.8
266.3	35.5
266.516	-27.99
266.732	-13.65
266.948	39.59
267.164	8.87
267.38	-15.7
267.596	-11.61
267.812	8.87
268.028	33.45
268.244	-38.23
268.46	-60.76
268.676	17.07
268.892	10.92
269.108	12.97
269.324	8.87
269.54	47.79
269.756	-9.56
269.972	25.26
270.188	6.83
270.403	25.26
270.619	19.11
270.835	-17.75
271.051	21.16
271.267	0.68
271.483	8.87
271.698	27.31
271.914	19.11
272.13	76.46
272.346	-5.46
272.562	-15.7
272.777	12.97
272.993	74.41
273.209	6.83
273.425	12.97
273.64	60.07
273.856	23.21
274.072	37.55
274.287	-32.08
274.503	25.26
274.719	47.79
274.934	12.97
275.15	58.03
275.366	-23.89
275.581	51.88
275.797	27.31
276.012	-3.41
276.228	53.93
276.444	33.45
276.659	21.16
276.875	68.27
277.09	-27.99
277.306	-11.61
277.521	84.65
277.737	66.22
277.952	103.08
278.168	0.68
278.383	43.69
278.599	4.78
278.814	43.69
279.03	12.97
279.245	146.09
279.461	8.87
279.676	21.16
279.892	66.22
280.107	43.69
280.322	29.35
280.538	58.03
280.753	-13.65
280.969	62.12
281.184	43.69
281.399	-13.65
281.615	47.79
281.83	51.88
282.045	19.11
282.26	17.07
282.476	35.5
282.691	55.98
282.906	2.73
283.122	88.75
283.337	-11.61
283.552	74.41
283.767	-48.47
283.983	-21.84
284.198	-3.41
284.413	49.83
284.628	4.78
284.843	25.26
285.058	43.69
285.274	17.07
285.489	-17.75
285.704	43.69
285.919	-44.37
286.134	58.03
286.349	33.45
286.564	33.45
286.779	51.88
286.995	76.46
287.21	-15.7
287.425	0.68
287.64	17.07
287.855	55.98
288.07	-21.84
288.285	82.6
288.5	19.11
288.715	-7.51
288.93	33.45
289.145	68.27
289.36	0.68
289.575	41.64
289.79	78.51
290.004	53.93
290.219	0.68
290.434	17.07
290.649	23.21
290.864	-7.51
291.079	0.68
291.294	62.12
291.509	49.83
291.724	-3.41
291.938	49.83
292.153	19.11
292.368	21.16
292.583	10.92
292.798	8.87
293.012	23.21
293.227	74.41
293.442	-15.7
293.657	-23.89
293.871	39.59
294.086	29.35
294.301	164.52
294.516	-11.61
294.73	15.02
294.945	82.6
295.16	-30.04
295.374	12.97
295.589	-7.51
295.804	-13.65
296.018	92.84
296.233	33.45
296.447	-13.65
296.662	66.22
296.877	25.26
297.091	-54.61
297.306	-19.8
297.52	66.22
297.735	-1.37
297.949	-7.51
298.164	98.99
298.378	-48.47
298.593	49.83
298.807	43.69
299.022	49.83
299.236	68.27
299.451	51.88
299.665	2.73
299.88	-62.8
300.094	121.51
300.309	68.27
300.523	23.21
300.737	43.69
300.952	21.16
301.166	-46.42
301.381	-11.61
301.595	72.36
301.809	47.79
302.024	-11.61
302.238	49.83
302.452	0.68
302.667	72.36
302.881	27.31
303.095	78.51
303.309	4.78
303.524	-64.85
303.738	29.35
303.952	19.11
304.166	41.64
304.381	-5.46
304.595	19.11
304.809	17.07
305.023	-1.37
305.237	-38.23
305.452	-30.04
305.666	8.87
305.88	51.88
306.094	49.83
306.308	-19.8
306.522	66.22
306.736	23.21
306.95	-60.76
307.164	66.22
307.379	53.93
307.593	0.68
307.807	23.21
308.021	-15.7
308.235	33.45
308.449	33.45
308.663	25.26
308.877	74.41
309.091	72.36
309.305	8.87
309.519	21.16
309.733	-7.51
309.947	111.27
310.161	60.07
310.374	10.92
310.588	41.64
310.802	35.5
311.016	-5.46
311.23	-21.84
311.444	33.45
311.658	45.74
311.872	10.92
312.085	53.93
312.299	35.5
312.513	43.69
312.727	45.74
312.941	-7.51
313.154	25.26
313.368	45.74
313.582	58.03
313.796	-5.46
314.009	45.74
314.223	-62.8
314.437	94.89
314.651	45.74
314.864	12.97
315.078	90.79
315.292	-30.04
315.505	-48.47
315.719	43.69
315.933	-23.89
316.146	45.74
316.36	-56.66
316.573	43.69
316.787	41.64
317.001	62.12
317.214	68.27
317.428	12.97
317.641	-73.04
317.855	-5.46
318.068	-23.89
318.282	47.79
318.495	-11.61
318.709	47.79
318.922	-7.51
319.136	17.07
319.349	-44.37
319.563	-23.89
319.776	94.89
319.99	-52.56
320.203	41.64
320.417	0.68
320.63	70.31
320.843	21.16
321.057	10.92
321.27	39.59
321.483	25.26
321.697	41.64
321.91	55.98
322.124	12.97
322.337	117.42
322.55	41.64
322.763	64.17
322.977	23.21
323.19	-5.46
323.403	-23.89
323.617	51.88
323.83	12.97
324.043	58.03
324.256	55.98
324.469	21.16
324.683	113.32
324.896	-15.7
325.109	33.45
325.322	35.5
325.535	62.12
325.748	27.31
325.962	41.64
326.175	123.56
326.388	82.6
326.601	21.16
326.814	-13.65
327.027	39.59
327.24	62.12
327.453	23.21
327.666	-60.76
327.879	66.22
328.092	90.79
328.305	41.64
328.518	17.07
328.731	-9.56
328.944	12.97
329.157	33.45
329.37	-5.46
329.583	82.6
329.796	86.7
330.009	47.79
330.222	31.4
330.435	66.22
330.648	27.31
330.861	23.21
331.073	49.83
331.286	90.79
331.499	47.79
331.712	25.26
331.925	-11.61
332.138	53.93
332.35	43.69
332.563	19.11
332.776	27.31
332.989	43.69
333.202	12.97
333.414	37.55
333.627	-1.37
333.84	62.12
334.053	90.79
334.265	53.93
334.478	2.73
334.691	-19.8
334.903	31.4
335.116	49.83
335.329	70.31
335.541	37.55
335.754	86.7
335.966	37.55
336.179	33.45
336.392	33.45
336.604	37.55
336.817	45.74
337.029	41.64
337.242	15.02
337.454	64.17
337.667	4.78
337.88	41.64
338.092	-23.89
338.305	27.31
338.517	55.98
338.729	66.22
338.942	25.26
339.154	41.64
339.367	107.18
339.579	37.55
339.792	31.4
340.004	27.31
340.217	-5.46
340.429	101.03
340.641	6.83
340.854	6.83
341.066	49.83
341.278	78.51
341.491	15.02
341.703	45.74
341.915	60.07
342.128	25.26
342.34	10.92
342.552	2.73
342.764	115.37
342.977	35.5
343.189	-54.61
343.401	25.26
343.613	55.98
343.826	66.22
344.038	35.5
344.25	33.45
344.462	62.12
344.674	29.35
344.886	45.74
345.099	41.64
345.311	33.45
345.523	55.98
345.735	-9.56
345.947	-19.8
346.159	70.31
346.371	-3.41
346.583	41.64
346.795	-40.28
347.007	8.87
347.219	4.78
347.431	6.83
347.643	-3.41
347.855	8.87
348.067	107.18
348.279	0.68
348.491	62.12
348.703	51.88
348.915	-9.56
349.127	84.65
349.339	27.31
349.551	39.59
349.763	58.03
349.975	64.17
350.187	58.03
350.399	39.59
350.61	55.98
350.822	17.07
351.034	51.88
351.246	17.07
351.458	15.02
351.669	55.98
351.881	49.83
352.093	12.97
352.305	-11.61
352.517	45.74
352.728	58.03
352.94	41.64
353.152	45.74
353.363	6.83
353.575	70.31
353.787	33.45
353.999	66.22
354.21	4.78
354.422	17.07
354.633	10.92
354.845	17.07
355.057	131.75
355.268	88.75
355.48	-11.61
355.692	33.45
355.903	-13.65
356.115	23.21
356.326	-27.99
356.538	66.22
356.749	33.45
356.961	25.26
357.172	64.17
357.384	-25.94
357.595	19.11
357.807	21.16
358.018	78.51
358.23	76.46
358.441	90.79
358.653	25.26
358.864	-13.65
359.075	0.68
359.287	96.94
359.498	51.88
359.709	12.97
359.921	53.93
360.132	74.41
360.344	-64.85
360.555	23.21
360.766	86.7
360.977	17.07
361.189	90.79
361.4	8.87
361.611	74.41
361.823	37.55
362.034	45.74
362.245	0.68
362.456	37.55
362.667	98.99
362.879	45.74
363.09	25.26
363.301	29.35
363.512	76.46
363.723	84.65
363.935	37.55
364.146	41.64
364.357	17.07
364.568	21.16
364.779	-60.76
364.99	53.93
365.201	43.69
365.412	49.83
365.623	27.31
365.834	64.17
366.045	82.6
366.256	-1.37
366.467	31.4
366.678	27.31
366.889	90.79
367.1	25.26
367.311	45.74
367.522	51.88
367.733	-7.51
367.944	25.26
368.155	-9.56
368.366	72.36
368.577	35.5
368.788	127.66
368.999	88.75
369.209	10.92
369.42	-9.56
369.631	41.64
369.842	33.45
370.053	33.45
370.264	27.31
370.474	-5.46
370.685	107.18
370.896	15.02
371.107	66.22
371.317	74.41
371.528	64.17
371.739	55.98
371.95	60.07
372.16	45.74
372.371	35.5
372.582	29.35
372.792	-5.46
373.003	31.4
373.214	8.87
373.424	41.64
373.635	-9.56
373.846	84.65
374.056	53.93
374.267	-23.89
374.477	12.97
374.688	12.97
374.898	111.27
375.109	21.16
375.319	70.31
375.53	37.55
375.74	-32.08
375.951	51.88
376.161	21.16
376.372	117.42
376.582	33.45
376.793	103.08
377.003	72.36
377.214	10.92
377.424	92.84
377.635	0.68
377.845	78.51
378.055	39.59
378.266	37.55
378.476	55.98
378.686	76.46
378.897	29.35
379.107	92.84
379.317	58.03
379.528	70.31
379.738	72.36
379.948	4.78
380.158	68.27
380.369	37.55
380.579	31.4
380.789	-27.99
380.999	45.74
381.21	103.08
381.42	19.11
381.63	84.65
381.84	94.89
382.05	84.65
382.261	78.51
382.471	98.99
382.681	27.31
382.891	68.27
383.101	4.78
383.311	17.07
383.521	68.27
383.731	66.22
383.941	51.88
384.151	49.83
384.361	107.18
384.571	37.55
384.781	51.88
384.991	45.74
385.201	101.03
385.411	133.8
385.621	43.69
385.831	10.92
386.041	-15.7
386.251	51.88
386.461	58.03
386.671	90.79
386.881	41.64
387.091	27.31
387.301	37.55
387.511	33.45
387.72	88.75
387.93	53.93
388.14	37.55
388.35	43.69
388.56	103.08
388.769	51.88
388.979	33.45
389.189	12.97
389.399	37.55
389.609	84.65
389.818	43.69
390.028	19.11
390.238	98.99
390.447	35.5
390.657	96.94
390.867	51.88
391.076	49.83
391.286	68.27
391.496	74.41
391.705	62.12
391.915	164.52
392.125	-30.04
392.334	55.98
392.544	76.46
392.753	121.51
392.963	45.74
393.172	82.6
393.382	98.99
393.591	119.46
393.801	66.22
394.01	64.17
394.22	80.55
394.429	53.93
394.639	117.42
394.848	29.35
395.058	60.07
395.267	-5.46
395.477	70.31
395.686	117.42
395.895	111.27
396.105	103.08
396.314	121.51
396.524	76.46
396.733	60.07
396.942	70.31
397.152	58.03
397.361	90.79
397.57	76.46
397.78	86.7
397.989	51.88
398.198	92.84
398.407	146.09
398.617	86.7
398.826	62.12
399.035	164.52
399.244	78.51
399.453	131.75
399.663	45.74
399.872	49.83
400.081	86.7
400.29	84.65
400.499	47.79
400.708	66.22
400.917	109.23
401.127	76.46
401.336	121.51
401.545	172.71
401.754	156.33
401.963	94.89
402.172	133.8
402.381	137.9
402.59	131.75
402.799	117.42
403.008	107.18
403.217	152.23
403.426	154.28
403.635	113.32
403.844	92.84
404.053	139.94
404.262	154.28
404.471	195.24
404.68	182.95
404.888	137.9
405.097	62.12
405.306	191.14
405.515	180.9
405.724	139.94
405.933	129.7
406.142	215.72
406.35	248.49
406.559	164.52
406.768	152.23
406.977	223.91
407.185	217.77
407.394	326.31
407.603	264.87
407.812	221.86
408.02	264.87
408.229	297.64
408.438	279.21
408.646	178.86
408.855	266.92
409.064	246.44
409.272	369.32
409.481	234.15
409.69	305.83
409.898	266.92
410.107	295.59
410.315	346.79
410.524	447.14
410.733	344.74
410.941	381.6
411.15	369.32
411.358	289.45
411.567	457.38
411.775	424.61
411.984	434.85
412.192	488.1
412.401	484
412.609	576.16
412.818	467.62
413.026	551.59
413.234	533.15
413.443	582.31
413.651	608.93
413.86	580.26
414.068	688.8
414.276	746.14
414.485	621.22
414.693	668.32
414.901	733.86
415.11	748.19
415.318	715.42
415.526	791.2
415.734	875.17
415.943	740
416.151	909.98
416.359	895.65
416.567	885.41
416.776	1028.76
416.984	1057.43
417.192	993.95
417.4	1077.91
417.608	1100.44
417.817	1098.39
418.025	1260.18
418.233	1272.47
418.441	1249.94
418.649	1225.37
418.857	1340.05
419.065	1467.03
419.273	1335.96
419.481	1469.08
419.689	1528.47
419.897	1485.46
420.105	1641.11
420.313	1618.58
420.521	1663.63
420.729	1802.9
420.937	1843.85
421.145	2022.03
421.353	1872.53
421.561	2034.32
421.769	2093.71
421.977	2218.63
422.185	2173.58
422.393	2347.65
422.601	2521.73
422.809	2454.15
423.017	2482.82
423.224	2634.37
423.432	2591.36
423.64	2730.62
423.848	2859.65
424.056	2951.81
424.263	3058.3
424.471	3117.69
424.679	3093.12
424.887	3316.34
425.094	3357.3
425.302	3394.17
425.51	3494.52
425.718	3680.88
425.925	3607.16
426.133	3820.14
426.341	4026.99
426.548	4201.07
426.756	4350.57
426.964	4303.47
427.171	4526.69
427.379	4727.39
427.586	4682.34
427.794	4889.18
428.001	5104.22
428.209	5298.78
428.417	5036.64
428.624	5511.77
428.832	5718.61
429.039	5712.47
429.247	5589.59
429.454	6101.58
429.662	6312.52
429.869	6154.83
430.076	6146.64
430.284	6259.28
430.491	6615.62
430.699	7031.36
430.906	7031.36
431.114	6871.62
431.321	7473.72
431.528	7635.51
431.736	7965.23
431.943	8278.57
432.15	8079.92
432.358	8227.37
432.565	8471.08
432.772	8362.54
432.979	8944.16
433.187	9083.42
433.394	9151.01
433.601	9691.67
433.808	9861.65
434.016	9679.38
434.223	10369.55
434.43	10770.95
434.637	10641.93
434.844	11497.98
435.052	11411.96
435.259	11389.44
435.466	11450.88
435.673	11121.15
435.88	11997.68
436.087	12632.55
436.294	12861.93
436.501	12605.93
436.708	12558.83
436.915	13165.03
437.122	13763.03
437.329	13527.52
437.537	14248.4
437.743	14250.45
437.95	14238.16
438.157	15131.08
438.364	15679.93
438.571	15477.18
438.778	15280.58
438.985	16912.81
439.192	16183.73
439.399	17017.25
439.606	16452.02
439.813	17471.9
440.02	18479.5
440.227	17871.26
440.433	17979.8
440.64	18618.77
440.847	18493.84
441.054	19079.56
441.261	20228.47
441.467	19921.27
441.674	20373.88
441.881	20887.92
442.088	21131.62
442.294	20734.32
442.501	21444.96
442.708	21692.77
442.914	22350.17
443.121	23683.39
443.328	22778.19
443.534	24461.62
443.741	23900.48
443.948	23472.45
444.154	25303.34
444.361	25092.4
444.568	25164.07
444.774	25325.86
444.981	25284.9
445.187	25950.49
445.394	27328.78
445.6	27246.86
445.807	29491.43
446.013	28346.62
446.22	28766.45
446.426	29901.03
446.633	29948.13
446.839	31314.12
447.046	29632.74
447.252	31369.42
447.459	31563.98
447.665	31254.73
447.871	32700.6
448.078	34093.22
448.284	32383.16
448.491	33292.46
448.697	34543.77
448.903	35125.39
449.11	35541.13
449.316	34404.51
449.522	35420.3
449.728	36098.18
449.935	36624.51
450.141	36792.44
450.347	37202.04
450.553	35987.59
450.76	36724.86
450.966	37662.83
451.172	37091.44
451.378	38166.63
451.584	37576.81
451.791	38393.95
451.997	38033.51
452.203	38795.35
452.409	38717.53
452.615	38819.93
452.821	37257.33
453.027	36915.32
453.233	39014.49
453.44	37638.25
453.646	37511.28
453.852	37648.49
454.058	38346.85
454.264	37191.8
454.47	37845.1
454.676	37593.2
454.882	38350.95
455.088	35281.04
455.294	35600.52
455.5	35831.94
455.705	36319.36
455.911	35031.19
456.117	34488.48
456.323	33888.42
456.529	32194.75
456.735	33577.13
456.941	32673.98
457.147	31998.15
457.352	30904.53
457.558	30464.22
457.764	30894.29
457.97	29991.14
458.176	29778.15
458.381	29630.69
458.587	28094.72
458.793	28289.27
458.999	26589.46
459.204	28741.88
459.41	27644.16
459.616	25643.3
459.821	26159.39
460.027	25741.6
460.233	25188.65
460.438	23968.06
460.644	24428.85
460.85	23314.76
461.055	22677.84
461.261	23234.89
461.466	21113.19
461.672	20744.56
461.878	21602.66
462.083	20408.69
462.289	20187.51
462.494	20021.63
462.7	19181.96
462.905	18575.76
463.111	19368.32
463.316	19493.25
463.522	18549.14
463.727	18837.9
463.932	18885
464.138	18780.56
464.343	19091.85
464.549	18424.21
464.754	18823.56
464.959	18600.33
465.165	18485.65
465.37	17758.62
465.575	17293.73
465.781	17822.11
465.986	18172.31
466.191	17494.43
466.397	17050.02
466.602	16312.75
466.807	17133.99
467.012	16808.36
467.218	16675.24
