Data from USB4F104151__294__14-02-49-296.txt Node

Date: Thu Mar 13 14:02:49 EDT 2025
User: louis
Spectrometer: USB4F10415
Trigger mode: 4
Integration Time (sec): 1.000000E-2
Scans to average: 1
Electric dark correction enabled: true
Nonlinearity correction enabled: false
Boxcar width: 0
XAxis mode: Wavelengths
Number of Pixels in Spectrum: 3648
>>>>>Begin Spectral Data<<<<<
178.204	-64.51
178.424	-64.51
178.644	-64.51
178.864	-37.89
179.084	-54.27
179.304	44.03
179.524	-11.26
179.744	-25.6
179.964	-5.12
180.184	-11.26
180.404	54.27
180.624	-5.12
180.844	-33.79
181.064	-48.13
181.283	9.22
181.503	64.51
181.723	-31.74
181.943	-23.55
182.163	15.36
182.383	-48.13
182.602	-35.84
182.822	19.46
183.042	-3.07
183.262	-27.65
183.482	-64.51
183.701	-35.84
183.921	29.7
184.141	-13.31
184.361	-1.02
184.58	-5.12
184.8	48.13
185.02	13.31
185.239	56.32
185.459	-3.07
185.679	33.79
185.898	-19.46
186.118	19.46
186.338	25.6
186.557	13.31
186.777	21.5
186.997	11.26
187.216	-13.31
187.436	13.31
187.655	-33.79
187.875	29.7
188.095	-52.22
188.314	117.76
188.534	-21.5
188.753	11.26
188.973	123.9
189.192	-27.65
189.412	-5.12
189.631	-29.7
189.851	19.46
190.07	25.6
190.29	-5.12
190.509	23.55
190.729	-11.26
190.948	-33.79
191.168	17.41
191.387	5.12
191.607	-9.22
191.826	-46.08
192.045	7.17
192.265	-46.08
192.484	13.31
192.704	19.46
192.923	-25.6
193.142	21.5
193.362	-23.55
193.581	54.27
193.8	35.84
194.02	27.65
194.239	21.5
194.458	37.89
194.678	-25.6
194.897	-27.65
195.116	27.65
195.335	13.31
195.555	-3.07
195.774	37.89
195.993	33.79
196.212	-19.46
196.432	-1.02
196.651	-52.22
196.87	-39.94
197.089	15.36
197.308	-15.36
197.528	-9.22
197.747	-56.32
197.966	-17.41
198.185	-19.46
198.404	11.26
198.623	-1.02
198.842	-5.12
199.062	29.7
199.281	50.18
199.5	-21.5
199.719	-19.46
199.938	52.22
200.157	-11.26
200.376	19.46
200.595	-64.51
200.814	-7.17
201.033	-23.55
201.252	15.36
201.471	-29.7
201.69	-25.6
201.909	70.65
202.128	29.7
202.347	-3.07
202.566	-25.6
202.785	-15.36
203.004	-41.98
203.223	44.03
203.442	-13.31
203.661	-13.31
203.879	37.89
204.098	-31.74
204.317	-5.12
204.536	27.65
204.755	-37.89
204.974	1.02
205.193	5.12
205.411	60.42
205.63	-29.7
205.849	23.55
206.068	11.26
206.287	-9.22
206.505	-7.17
206.724	-21.5
206.943	-19.46
207.162	-54.27
207.381	7.17
207.599	21.5
207.818	-41.98
208.037	-13.31
208.255	21.5
208.474	44.03
208.693	21.5
208.911	9.22
209.13	-25.6
209.349	-21.5
209.567	15.36
209.786	37.89
210.005	-62.46
210.223	5.12
210.442	-48.13
210.661	15.36
210.879	31.74
211.098	52.22
211.316	82.94
211.535	46.08
211.753	13.31
211.972	11.26
212.191	-27.65
212.409	-37.89
212.628	-37.89
212.846	15.36
213.065	-35.84
213.283	37.89
213.502	33.79
213.72	33.79
213.938	31.74
214.157	11.26
214.375	84.99
214.594	-9.22
214.812	-62.46
215.031	-5.12
215.249	-11.26
215.467	5.12
215.686	5.12
215.904	27.65
216.122	5.12
216.341	54.27
216.559	-19.46
216.778	48.13
216.996	-68.61
217.214	-39.94
217.432	-41.98
217.651	39.94
217.869	17.41
218.087	-44.03
218.306	-62.46
218.524	-39.94
218.742	-52.22
218.96	21.5
219.179	27.65
219.397	-11.26
219.615	27.65
219.833	37.89
220.051	-29.7
220.27	27.65
220.488	11.26
220.706	23.55
220.924	21.5
221.142	33.79
221.36	29.7
221.578	3.07
221.796	54.27
222.015	31.74
222.233	21.5
222.451	39.94
222.669	-11.26
222.887	-27.65
223.105	35.84
223.323	-35.84
223.541	-29.7
223.759	52.22
223.977	-52.22
224.195	44.03
224.413	3.07
224.631	7.17
224.849	-7.17
225.067	29.7
225.285	-11.26
225.503	-19.46
225.721	13.31
225.939	60.42
226.157	-25.6
226.375	-21.5
226.592	-15.36
226.81	-7.17
227.028	15.36
227.246	-5.12
227.464	-17.41
227.682	27.65
227.9	11.26
228.117	5.12
228.335	3.07
228.553	-29.7
228.771	56.32
228.989	39.94
229.206	-13.31
229.424	50.18
229.642	-58.37
229.86	-13.31
230.077	52.22
230.295	-9.22
230.513	72.7
230.731	-17.41
230.948	11.26
231.166	27.65
231.384	-37.89
231.601	-17.41
231.819	19.46
232.037	21.5
232.254	31.74
232.472	7.17
232.689	17.41
232.907	56.32
233.125	37.89
233.342	68.61
233.56	35.84
233.777	7.17
233.995	3.07
234.213	-3.07
234.43	27.65
234.648	50.18
234.865	-3.07
235.083	11.26
235.3	-29.7
235.518	-52.22
235.735	17.41
235.953	-13.31
236.17	27.65
236.388	60.42
236.605	35.84
236.822	5.12
237.04	48.13
237.257	-1.02
237.475	11.26
237.692	-5.12
237.909	-13.31
238.127	-5.12
238.344	35.84
238.562	54.27
238.779	3.07
238.996	-33.79
239.214	-48.13
239.431	-7.17
239.648	37.89
239.865	-46.08
240.083	-9.22
240.3	-5.12
240.517	-3.07
240.735	13.31
240.952	76.8
241.169	66.56
241.386	-25.6
241.603	29.7
241.821	11.26
242.038	64.51
242.255	-1.02
242.472	-44.03
242.689	-33.79
242.907	-11.26
243.124	13.31
243.341	17.41
243.558	25.6
243.775	-33.79
243.992	54.27
244.209	21.5
244.426	46.08
244.643	-13.31
244.86	7.17
245.078	80.89
245.295	29.7
245.512	5.12
245.729	3.07
245.946	23.55
246.163	56.32
246.38	19.46
246.597	46.08
246.814	62.46
247.031	-7.17
247.248	-35.84
247.464	19.46
247.681	68.61
247.898	66.56
248.115	11.26
248.332	33.79
248.549	89.09
248.766	-44.03
248.983	1.02
249.2	3.07
249.417	19.46
249.633	23.55
249.85	13.31
250.067	-11.26
250.284	-13.31
250.501	41.98
250.717	46.08
250.934	3.07
251.151	15.36
251.368	35.84
251.585	-13.31
251.801	29.7
252.018	27.65
252.235	-1.02
252.451	-27.65
252.668	-5.12
252.885	41.98
253.102	-9.22
253.318	-17.41
253.535	13.31
253.752	-13.31
253.968	44.03
254.185	-13.31
254.401	-19.46
254.618	37.89
254.835	-21.5
255.051	37.89
255.268	15.36
255.484	-9.22
255.701	-33.79
255.917	60.42
256.134	-25.6
256.351	3.07
256.567	80.89
256.784	37.89
257	-11.26
257.217	3.07
257.433	-5.12
257.65	3.07
257.866	23.55
258.082	-7.17
258.299	17.41
258.515	48.13
258.732	-37.89
258.948	52.22
259.165	-29.7
259.381	50.18
259.597	15.36
259.814	-7.17
260.03	-44.03
260.246	48.13
260.463	-31.74
260.679	-29.7
260.895	27.65
261.112	-54.27
261.328	-136.19
261.544	-13.31
261.761	50.18
261.977	41.98
262.193	95.23
262.409	29.7
262.626	9.22
262.842	15.36
263.058	-23.55
263.274	80.89
263.49	60.42
263.707	-5.12
263.923	17.41
264.139	-56.32
264.355	-31.74
264.571	11.26
264.787	13.31
265.004	19.46
265.22	52.22
265.436	11.26
265.652	48.13
265.868	-5.12
266.084	-37.89
266.3	39.94
266.516	-17.41
266.732	-44.03
266.948	-39.94
267.164	15.36
267.38	17.41
267.596	68.61
267.812	-7.17
268.028	29.7
268.244	-21.5
268.46	44.03
268.676	17.41
268.892	19.46
269.108	15.36
269.324	-62.46
269.54	-19.46
269.756	-21.5
269.972	60.42
270.188	54.27
270.403	-11.26
270.619	21.5
270.835	7.17
271.051	44.03
271.267	-19.46
271.483	-25.6
271.698	-1.02
271.914	44.03
272.13	-11.26
272.346	19.46
272.562	5.12
272.777	80.89
272.993	9.22
273.209	11.26
273.425	23.55
273.64	15.36
273.856	21.5
274.072	-25.6
274.287	58.37
274.503	-23.55
274.719	-15.36
274.934	-23.55
275.15	-60.42
275.366	29.7
275.581	23.55
275.797	44.03
276.012	111.61
276.228	-62.46
276.444	56.32
276.659	25.6
276.875	-9.22
277.09	-17.41
277.306	35.84
277.521	-37.89
277.737	41.98
277.952	15.36
278.168	19.46
278.383	80.89
278.599	-50.18
278.814	-33.79
279.03	9.22
279.245	7.17
279.461	19.46
279.676	-91.13
279.892	-3.07
280.107	-1.02
280.322	-64.51
280.538	91.13
280.753	70.65
280.969	-29.7
281.184	9.22
281.399	60.42
281.615	9.22
281.83	-25.6
282.045	-21.5
282.26	15.36
282.476	3.07
282.691	-13.31
282.906	-7.17
283.122	33.79
283.337	15.36
283.552	62.46
283.767	-87.04
283.983	62.46
284.198	13.31
284.413	17.41
284.628	-56.32
284.843	44.03
285.058	19.46
285.274	27.65
285.489	-5.12
285.704	3.07
285.919	25.6
286.134	-78.85
286.349	41.98
286.564	46.08
286.779	58.37
286.995	52.22
287.21	15.36
287.425	-5.12
287.64	-68.61
287.855	-50.18
288.07	76.8
288.285	39.94
288.5	33.79
288.715	39.94
288.93	80.89
289.145	5.12
289.36	21.5
289.575	5.12
289.79	1.02
290.004	21.5
290.219	11.26
290.434	29.7
290.649	-7.17
290.864	-17.41
291.079	29.7
291.294	13.31
291.509	41.98
291.724	-1.02
291.938	3.07
292.153	52.22
292.368	17.41
292.583	-3.07
292.798	1.02
293.012	15.36
293.227	44.03
293.442	44.03
293.657	-15.36
293.871	-64.51
294.086	74.75
294.301	-5.12
294.516	29.7
294.73	27.65
294.945	-15.36
295.16	11.26
295.374	-58.37
295.589	21.5
295.804	19.46
296.018	-13.31
296.233	93.18
296.447	21.5
296.662	-25.6
296.877	74.75
297.091	-50.18
297.306	5.12
297.52	3.07
297.735	103.42
297.949	31.74
298.164	3.07
298.378	-33.79
298.593	-13.31
298.807	19.46
299.022	72.7
299.236	-13.31
299.451	-72.7
299.665	103.42
299.88	54.27
300.094	-66.56
300.309	15.36
300.523	15.36
300.737	37.89
300.952	66.56
301.166	-15.36
301.381	-11.26
301.595	44.03
301.809	-15.36
302.024	-17.41
302.238	-13.31
302.452	9.22
302.667	3.07
302.881	41.98
303.095	84.99
303.309	23.55
303.524	52.22
303.738	115.71
303.952	48.13
304.166	-1.02
304.381	-54.27
304.595	72.7
304.809	1.02
305.023	44.03
305.237	62.46
305.452	19.46
305.666	27.65
305.88	-11.26
306.094	-11.26
306.308	-48.13
306.522	39.94
306.736	21.5
306.95	-101.37
307.164	44.03
307.379	21.5
307.593	64.51
307.807	-3.07
308.021	58.37
308.235	-15.36
308.449	-1.02
308.663	50.18
308.877	76.8
309.091	31.74
309.305	-29.7
309.519	41.98
309.733	-29.7
309.947	-52.22
310.161	62.46
310.374	3.07
310.588	-9.22
310.802	27.65
311.016	11.26
311.23	19.46
311.444	13.31
311.658	7.17
311.872	64.51
312.085	3.07
312.299	48.13
312.513	9.22
312.727	52.22
312.941	-35.84
313.154	19.46
313.368	19.46
313.582	41.98
313.796	27.65
314.009	5.12
314.223	-29.7
314.437	41.98
314.651	35.84
314.864	-17.41
315.078	44.03
315.292	-9.22
315.505	35.84
315.719	23.55
315.933	33.79
316.146	-68.61
316.36	72.7
316.573	87.04
316.787	54.27
317.001	-54.27
317.214	-19.46
317.428	11.26
317.641	9.22
317.855	1.02
318.068	7.17
318.282	91.13
318.495	29.7
318.709	3.07
318.922	-23.55
319.136	58.37
319.349	58.37
319.563	58.37
319.776	-3.07
319.99	-3.07
320.203	13.31
320.417	7.17
320.63	41.98
320.843	29.7
321.057	84.99
321.27	17.41
321.483	-5.12
321.697	-1.02
321.91	35.84
322.124	35.84
322.337	-3.07
322.55	25.6
322.763	46.08
322.977	50.18
323.19	7.17
323.403	-29.7
323.617	15.36
323.83	-13.31
324.043	7.17
324.256	11.26
324.469	33.79
324.683	1.02
324.896	48.13
325.109	84.99
325.322	-7.17
325.535	5.12
325.748	9.22
325.962	-17.41
326.175	11.26
326.388	103.42
326.601	119.81
326.814	15.36
327.027	46.08
327.24	-19.46
327.453	-1.02
327.666	23.55
327.879	58.37
328.092	44.03
328.305	7.17
328.518	46.08
328.731	-21.5
328.944	62.46
329.157	13.31
329.37	-27.65
329.583	-7.17
329.796	21.5
330.009	44.03
330.222	-13.31
330.435	13.31
330.648	-5.12
330.861	13.31
331.073	13.31
331.286	-7.17
331.499	113.66
331.712	3.07
331.925	29.7
332.138	-19.46
332.35	50.18
332.563	72.7
332.776	-9.22
332.989	44.03
333.202	84.99
333.414	25.6
333.627	11.26
333.84	17.41
334.053	-11.26
334.265	7.17
334.478	9.22
334.691	3.07
334.903	-62.46
335.116	15.36
335.329	-5.12
335.541	99.33
335.754	7.17
335.966	5.12
336.179	35.84
336.392	37.89
336.604	3.07
336.817	21.5
337.029	-11.26
337.242	15.36
337.454	-1.02
337.667	3.07
337.88	56.32
338.092	-19.46
338.305	27.65
338.517	3.07
338.729	35.84
338.942	7.17
339.154	44.03
339.367	13.31
339.579	11.26
339.792	19.46
340.004	52.22
340.217	-13.31
340.429	-3.07
340.641	9.22
340.854	89.09
341.066	1.02
341.278	97.28
341.491	84.99
341.703	50.18
341.915	-33.79
342.128	19.46
342.34	76.8
342.552	7.17
342.764	25.6
342.977	19.46
343.189	62.46
343.401	78.85
343.613	93.18
343.826	-27.65
344.038	-3.07
344.25	7.17
344.462	13.31
344.674	-58.37
344.886	-1.02
345.099	52.22
345.311	23.55
345.523	74.75
345.735	91.13
345.947	25.6
346.159	-13.31
346.371	-19.46
346.583	19.46
346.795	19.46
347.007	11.26
347.219	37.89
347.431	58.37
347.643	52.22
347.855	27.65
348.067	29.7
348.279	19.46
348.491	23.55
348.703	31.74
348.915	27.65
349.127	72.7
349.339	-13.31
349.551	44.03
349.763	-11.26
349.975	-7.17
350.187	29.7
350.399	62.46
350.61	33.79
350.822	11.26
351.034	44.03
351.246	35.84
351.458	17.41
351.669	-52.22
351.881	-13.31
352.093	19.46
352.305	54.27
352.517	13.31
352.728	27.65
352.94	66.56
353.152	39.94
353.363	27.65
353.575	-19.46
353.787	-25.6
353.999	66.56
354.21	37.89
354.422	-23.55
354.633	-44.03
354.845	-29.7
355.057	70.65
355.268	27.65
355.48	44.03
355.692	95.23
355.903	52.22
356.115	-11.26
356.326	44.03
356.538	-33.79
356.749	11.26
356.961	25.6
357.172	-21.5
357.384	46.08
357.595	39.94
357.807	21.5
358.018	9.22
358.23	25.6
358.441	-9.22
358.653	70.65
358.864	-21.5
359.075	11.26
359.287	84.99
359.498	48.13
359.709	-33.79
359.921	39.94
360.132	37.89
360.344	-19.46
360.555	11.26
360.766	41.98
360.977	-29.7
361.189	25.6
361.4	44.03
361.611	37.89
361.823	19.46
362.034	35.84
362.245	-3.07
362.456	-1.02
362.667	52.22
362.879	27.65
363.09	-7.17
363.301	33.79
363.512	-3.07
363.723	-62.46
363.935	44.03
364.146	-3.07
364.357	54.27
364.568	52.22
364.779	31.74
364.99	27.65
365.201	41.98
365.412	29.7
365.623	9.22
365.834	56.32
366.045	76.8
366.256	62.46
366.467	-15.36
366.678	-5.12
366.889	19.46
367.1	5.12
367.311	41.98
367.522	-29.7
367.733	15.36
367.944	-19.46
368.155	25.6
368.366	-5.12
368.577	76.8
368.788	60.42
368.999	-66.56
369.209	1.02
369.42	23.55
369.631	37.89
369.842	13.31
370.053	35.84
370.264	29.7
370.474	17.41
370.685	21.5
370.896	-19.46
371.107	5.12
371.317	60.42
371.528	39.94
371.739	21.5
371.95	37.89
372.16	27.65
372.371	29.7
372.582	23.55
372.792	-35.84
373.003	48.13
373.214	37.89
373.424	31.74
373.635	31.74
373.846	-7.17
374.056	72.7
374.267	31.74
374.477	48.13
374.688	23.55
374.898	-3.07
375.109	-9.22
375.319	-1.02
375.53	107.52
375.74	60.42
375.951	-15.36
376.161	138.24
376.372	35.84
376.582	80.89
376.793	60.42
377.003	-21.5
377.214	19.46
377.424	29.7
377.635	-5.12
377.845	-11.26
378.055	21.5
378.266	64.51
378.476	58.37
378.686	89.09
378.897	52.22
379.107	-5.12
379.317	9.22
379.528	1.02
379.738	29.7
379.948	-23.55
380.158	70.65
380.369	119.81
380.579	23.55
380.789	39.94
380.999	-23.55
381.21	-27.65
381.42	-27.65
381.63	56.32
381.84	76.8
382.05	80.89
382.261	19.46
382.471	19.46
382.681	35.84
382.891	19.46
383.101	44.03
383.311	72.7
383.521	70.65
383.731	39.94
383.941	27.65
384.151	31.74
384.361	44.03
384.571	15.36
384.781	-13.31
384.991	50.18
385.201	19.46
385.411	48.13
385.621	62.46
385.831	52.22
386.041	97.28
386.251	-9.22
386.461	54.27
386.671	33.79
386.881	27.65
387.091	11.26
387.301	62.46
387.511	35.84
387.72	3.07
387.93	21.5
388.14	19.46
388.35	39.94
388.56	72.7
388.769	-33.79
388.979	44.03
389.189	27.65
389.399	66.56
389.609	76.8
389.818	35.84
390.028	50.18
390.238	-1.02
390.447	56.32
390.657	23.55
390.867	109.57
391.076	9.22
391.286	101.37
391.496	3.07
391.705	11.26
391.915	-21.5
392.125	68.61
392.334	-19.46
392.544	52.22
392.753	46.08
392.963	7.17
393.172	-13.31
393.382	99.33
393.591	19.46
393.801	54.27
394.01	27.65
394.22	44.03
394.429	15.36
394.639	54.27
394.848	60.42
395.058	-17.41
395.267	64.51
395.477	64.51
395.686	68.61
395.895	91.13
396.105	72.7
396.314	48.13
396.524	89.09
396.733	50.18
396.942	11.26
397.152	68.61
397.361	74.75
397.57	72.7
397.78	58.37
397.989	91.13
398.198	125.95
398.407	70.65
398.617	-3.07
398.826	39.94
399.035	48.13
399.244	142.33
399.453	66.56
399.663	25.6
399.872	117.76
400.081	39.94
400.29	125.95
400.499	125.95
400.708	164.86
400.917	87.04
401.127	134.14
401.336	60.42
401.545	68.61
401.754	99.33
401.963	62.46
402.172	144.38
402.381	62.46
402.59	152.57
402.799	164.86
403.008	41.98
403.217	95.23
403.426	68.61
403.635	121.85
403.844	70.65
404.053	168.96
404.262	101.37
404.471	84.99
404.68	175.1
404.888	111.61
405.097	119.81
405.306	125.95
405.515	171.01
405.724	164.86
405.933	191.49
406.142	136.19
406.35	191.49
406.559	166.91
406.768	144.38
406.977	158.72
407.185	183.29
407.394	166.91
407.603	171.01
407.812	224.25
408.02	261.12
408.229	197.63
408.438	128
408.646	234.49
408.855	246.78
409.064	267.26
409.272	211.96
409.481	300.03
409.69	275.45
409.898	277.5
410.107	324.6
410.315	234.49
410.524	297.98
410.733	326.65
410.941	314.36
411.15	297.98
411.358	295.93
411.567	334.84
411.775	420.86
411.984	388.09
412.192	429.05
412.401	408.57
412.609	404.47
412.818	431.1
413.026	480.25
413.234	560.12
413.443	455.67
413.651	457.72
413.86	431.1
414.068	519.16
414.276	547.83
414.485	541.69
414.693	562.17
414.901	639.99
415.11	599.03
415.318	619.51
415.526	562.17
415.734	717.81
415.943	717.81
416.151	707.57
416.359	752.63
416.567	680.95
416.776	814.07
416.984	887.79
417.192	932.85
417.4	863.22
417.608	898.03
417.817	877.55
418.025	928.75
418.233	1037.3
418.441	1135.6
418.649	1119.21
418.857	1180.65
419.065	1217.52
419.273	1258.48
419.481	1307.63
419.689	1258.48
419.897	1289.2
420.105	1410.03
420.313	1514.47
420.521	1526.76
420.729	1553.38
420.937	1606.63
421.145	1596.39
421.353	1627.11
421.561	1674.21
421.769	1823.72
421.977	1850.34
422.185	1788.9
422.393	1954.79
422.601	2010.08
422.809	2079.71
423.017	2067.42
423.224	2104.29
423.432	2272.22
423.64	2247.65
423.848	2431.96
424.056	2419.68
424.263	2667.48
424.471	2624.47
424.679	2661.34
424.887	2841.56
425.094	2829.27
425.302	2892.76
425.51	3025.87
425.718	3034.07
425.925	3120.08
426.133	3281.87
426.341	3355.6
426.548	3519.43
426.756	3584.97
426.964	3576.78
427.171	3843.01
427.379	3836.87
427.586	3933.12
427.794	4123.59
428.001	4295.61
428.209	4545.47
428.417	4426.68
428.624	4713.4
428.832	4676.54
429.039	4836.28
429.247	4862.9
429.454	5245.87
429.662	5575.59
429.869	5053.36
430.076	5321.65
430.284	5258.16
430.491	5653.42
430.699	5804.97
430.906	5759.91
431.114	6022.05
431.321	6251.42
431.528	6382.49
431.736	6513.56
431.943	7025.56
432.15	6843.29
432.358	7005.08
432.565	7287.7
432.772	7252.88
432.979	7621.52
433.187	7771.02
433.394	7877.51
433.601	8391.55
433.808	8360.83
434.016	8211.33
434.223	8797.05
434.43	9190.26
434.637	9059.19
434.844	9610.09
435.052	9692.01
435.259	9587.57
435.466	9825.13
435.673	9810.79
435.88	10359.65
436.087	10971.99
436.294	10840.92
436.501	10492.77
436.708	10863.45
436.915	10881.88
437.122	11799.37
437.329	11529.04
437.537	11813.71
437.743	12176.2
437.95	12030.79
438.157	12737.34
438.364	13136.7
438.571	13347.64
438.778	13042.49
438.985	14332.71
439.192	13728.56
439.399	13986.6
439.606	14054.19
439.813	14893.85
440.02	15571.73
440.227	15391.51
440.433	15127.32
440.64	15641.36
440.847	15391.51
441.054	15964.94
441.261	16792.32
441.467	16853.76
441.674	17296.12
441.881	17752.82
442.088	17765.1
442.294	17349.37
442.501	18143.98
442.708	18586.34
442.914	19444.44
443.121	20019.92
443.328	19632.85
443.534	20638.41
443.741	20298.44
443.948	19991.25
444.154	21494.46
444.361	21496.5
444.568	21629.62
444.774	21373.63
444.981	21623.48
445.187	22147.76
445.394	23505.56
445.6	22891.17
445.807	25139.84
446.013	24068.75
446.22	24339.08
446.426	25092.74
446.633	25533.05
446.839	26524.27
447.046	25350.78
447.252	26714.73
447.459	26903.14
447.665	26714.73
447.871	27712.09
448.078	29086.28
448.284	27978.33
448.491	28312.14
448.697	29430.33
448.903	29901.37
449.11	30108.21
449.316	29768.25
449.522	29973.05
449.728	31212.07
449.935	31228.45
450.141	31052.33
450.347	31869.47
450.553	31068.71
450.76	31171.11
450.966	32375.31
451.172	31998.49
451.378	32971.27
451.584	32182.8
451.791	32920.07
451.997	33083.91
452.203	33280.52
452.409	33145.35
452.615	32889.35
452.821	31787.55
453.027	31699.48
453.233	33194.5
453.44	31824.41
453.646	32295.44
453.852	32461.33
454.058	33022.47
454.264	32029.21
454.47	32662.03
454.676	31877.66
454.882	32776.72
455.088	30112.31
455.294	30448.18
455.5	30927.4
455.705	31037.99
455.911	29772.35
456.117	29227.59
456.323	29135.43
456.529	27664.99
456.735	28463.69
456.941	27859.54
457.147	27556.44
457.352	26411.63
457.558	26350.19
457.764	26374.77
457.97	26088.05
458.176	25365.12
458.381	25223.81
458.587	24070.8
458.793	24382.09
458.999	22964.9
459.204	24482.44
459.41	23659.16
459.616	22305.45
459.821	22289.07
460.027	22284.97
460.233	21600.95
460.438	20978.37
460.644	20961.98
460.85	19958.48
461.055	19577.56
461.261	19716.82
461.466	17965.81
461.672	17748.72
461.878	19061.47
462.083	17838.83
462.289	17365.75
462.494	16960.25
462.7	16544.52
462.905	15833.87
463.111	16476.93
463.316	16591.62
463.522	16325.38
463.727	16247.56
463.932	16251.66
464.138	16233.22
464.343	16370.44
464.549	15633.17
464.754	16388.87
464.959	15952.65
465.165	15923.98
465.37	15194.9
465.575	14971.68
465.781	15577.87
465.986	15557.39
466.191	15004.44
466.397	14666.53
466.602	14048.04
466.807	14482.21
467.012	14502.69
467.218	14498.59
467.423	14318.37
