Data from USB4F104151__137__13-58-09-777.txt Node

Date: Thu Mar 13 13:58:09 EDT 2025
User: louis
Spectrometer: USB4F10415
Trigger mode: 4
Integration Time (sec): 1.000000E-2
Scans to average: 1
Electric dark correction enabled: true
Nonlinearity correction enabled: false
Boxcar width: 0
XAxis mode: Wavelengths
Number of Pixels in Spectrum: 3648
>>>>>Begin Spectral Data<<<<<
178.204	-128
178.424	-128
178.644	-128
178.864	-25.6
179.084	-76.8
179.304	19.46
179.524	-44.03
179.744	5.12
179.964	33.79
180.184	-41.98
180.404	56.32
180.624	-37.89
180.844	-23.55
181.064	-21.5
181.283	-13.31
181.503	33.79
181.723	33.79
181.943	-5.12
182.163	-25.6
182.383	31.74
182.602	19.46
182.822	-7.17
183.042	-21.5
183.262	-1.02
183.482	50.18
183.701	-33.79
183.921	21.5
184.141	15.36
184.361	56.32
184.58	3.07
184.8	-19.46
185.02	-5.12
185.239	-41.98
185.459	33.79
185.679	21.5
185.898	3.07
186.118	23.55
186.338	15.36
186.557	54.27
186.777	21.5
186.997	23.55
187.216	-7.17
187.436	23.55
187.655	46.08
187.875	15.36
188.095	25.6
188.314	41.98
188.534	44.03
188.753	-15.36
188.973	44.03
189.192	52.22
189.412	27.65
189.631	41.98
189.851	19.46
190.07	52.22
190.29	35.84
190.509	9.22
190.729	-7.17
190.948	13.31
191.168	144.38
191.387	66.56
191.607	-60.42
191.826	84.99
192.045	52.22
192.265	-9.22
192.484	-39.94
192.704	7.17
192.923	58.37
193.142	23.55
193.362	25.6
193.581	74.75
193.8	-7.17
194.02	-31.74
194.239	29.7
194.458	48.13
194.678	13.31
194.897	-76.8
195.116	-11.26
195.335	78.85
195.555	66.56
195.774	60.42
195.993	33.79
196.212	17.41
196.432	37.89
196.651	25.6
196.87	17.41
197.089	5.12
197.308	1.02
197.528	91.13
197.747	-3.07
197.966	1.02
198.185	37.89
198.404	64.51
198.623	25.6
198.842	27.65
199.062	1.02
199.281	48.13
199.5	-11.26
199.719	-31.74
199.938	21.5
200.157	113.66
200.376	37.89
200.595	31.74
200.814	7.17
201.033	17.41
201.252	27.65
201.471	13.31
201.69	39.94
201.909	37.89
202.128	68.61
202.347	52.22
202.566	41.98
202.785	-27.65
203.004	11.26
203.223	-39.94
203.442	72.7
203.661	-1.02
203.879	15.36
204.098	-19.46
204.317	68.61
204.536	23.55
204.755	17.41
204.974	-15.36
205.193	-7.17
205.411	27.65
205.63	58.37
205.849	119.81
206.068	19.46
206.287	19.46
206.505	13.31
206.724	-72.7
206.943	-68.61
207.162	17.41
207.381	23.55
207.599	19.46
207.818	39.94
208.037	-44.03
208.255	33.79
208.474	119.81
208.693	5.12
208.911	17.41
209.13	13.31
209.349	-5.12
209.567	5.12
209.786	31.74
210.005	-1.02
210.223	29.7
210.442	-66.56
210.661	15.36
210.879	-5.12
211.098	97.28
211.316	-9.22
211.535	9.22
211.753	-33.79
211.972	76.8
212.191	35.84
212.409	39.94
212.628	41.98
212.846	115.71
213.065	64.51
213.283	37.89
213.502	-52.22
213.72	41.98
213.938	105.47
214.157	89.09
214.375	-11.26
214.594	5.12
214.812	33.79
215.031	41.98
215.249	35.84
215.467	132.09
215.686	58.37
215.904	87.04
216.122	21.5
216.341	33.79
216.559	23.55
216.778	15.36
216.996	3.07
217.214	-27.65
217.432	60.42
217.651	-1.02
217.869	-5.12
218.087	58.37
218.306	3.07
218.524	31.74
218.742	64.51
218.96	15.36
219.179	46.08
219.397	33.79
219.615	70.65
219.833	-1.02
220.051	7.17
220.27	33.79
220.488	9.22
220.706	56.32
220.924	52.22
221.142	13.31
221.36	35.84
221.578	-23.55
221.796	17.41
222.015	31.74
222.233	46.08
222.451	46.08
222.669	41.98
222.887	37.89
223.105	21.5
223.323	19.46
223.541	-29.7
223.759	-17.41
223.977	21.5
224.195	35.84
224.413	-25.6
224.631	27.65
224.849	-17.41
225.067	105.47
225.285	11.26
225.503	62.46
225.721	17.41
225.939	13.31
226.157	-13.31
226.375	50.18
226.592	21.5
226.81	48.13
227.028	-19.46
227.246	58.37
227.464	13.31
227.682	11.26
227.9	41.98
228.117	-13.31
228.335	23.55
228.553	9.22
228.771	11.26
228.989	70.65
229.206	-3.07
229.424	89.09
229.642	25.6
229.86	50.18
230.077	-21.5
230.295	52.22
230.513	9.22
230.731	29.7
230.948	5.12
231.166	37.89
231.384	46.08
231.601	33.79
231.819	-25.6
232.037	-5.12
232.254	5.12
232.472	-15.36
232.689	41.98
232.907	68.61
233.125	17.41
233.342	-1.02
233.56	99.33
233.777	29.7
233.995	9.22
234.213	82.94
234.43	33.79
234.648	19.46
234.865	-7.17
235.083	54.27
235.3	7.17
235.518	76.8
235.735	-29.7
235.953	62.46
236.17	37.89
236.388	-11.26
236.605	31.74
236.822	76.8
237.04	7.17
237.257	70.65
237.475	54.27
237.692	5.12
237.909	44.03
238.127	-19.46
238.344	9.22
238.562	37.89
238.779	-23.55
238.996	-44.03
239.214	-56.32
239.431	39.94
239.648	76.8
239.865	62.46
240.083	74.75
240.3	78.85
240.517	60.42
240.735	21.5
240.952	72.7
241.169	-25.6
241.386	-13.31
241.603	33.79
241.821	-17.41
242.038	-52.22
242.255	17.41
242.472	-7.17
242.689	44.03
242.907	-5.12
243.124	29.7
243.341	-39.94
243.558	29.7
243.775	54.27
243.992	29.7
244.209	68.61
244.426	68.61
244.643	54.27
244.86	3.07
245.078	78.85
245.295	13.31
245.512	-15.36
245.729	-52.22
245.946	62.46
246.163	-3.07
246.38	-25.6
246.597	13.31
246.814	76.8
247.031	19.46
247.248	93.18
247.464	82.94
247.681	5.12
247.898	29.7
248.115	-19.46
248.332	21.5
248.549	21.5
248.766	35.84
248.983	74.75
249.2	29.7
249.417	54.27
249.633	3.07
249.85	37.89
250.067	35.84
250.284	9.22
250.501	78.85
250.717	74.75
250.934	29.7
251.151	52.22
251.368	7.17
251.585	70.65
251.801	-11.26
252.018	5.12
252.235	33.79
252.451	25.6
252.668	60.42
252.885	3.07
253.102	-21.5
253.318	-9.22
253.535	-41.98
253.752	48.13
253.968	60.42
254.185	-41.98
254.401	-13.31
254.618	37.89
254.835	44.03
255.051	41.98
255.268	41.98
255.484	39.94
255.701	91.13
255.917	62.46
256.134	54.27
256.351	64.51
256.567	-13.31
256.784	46.08
257	15.36
257.217	21.5
257.433	23.55
257.65	9.22
257.866	-39.94
258.082	-21.5
258.299	17.41
258.515	21.5
258.732	-27.65
258.948	50.18
259.165	68.61
259.381	27.65
259.597	-46.08
259.814	-68.61
260.03	23.55
260.246	7.17
260.463	48.13
260.679	93.18
260.895	-1.02
261.112	-7.17
261.328	23.55
261.544	111.61
261.761	9.22
261.977	31.74
262.193	25.6
262.409	95.23
262.626	3.07
262.842	56.32
263.058	-7.17
263.274	89.09
263.49	37.89
263.707	39.94
263.923	82.94
264.139	-19.46
264.355	82.94
264.571	103.42
264.787	25.6
265.004	103.42
265.22	5.12
265.436	58.37
265.652	27.65
265.868	44.03
266.084	87.04
266.3	70.65
266.516	87.04
266.732	-1.02
266.948	25.6
267.164	64.51
267.38	46.08
267.596	105.47
267.812	5.12
268.028	33.79
268.244	39.94
268.46	89.09
268.676	60.42
268.892	9.22
269.108	-21.5
269.324	33.79
269.54	-50.18
269.756	-41.98
269.972	70.65
270.188	27.65
270.403	46.08
270.619	-11.26
270.835	-21.5
271.051	54.27
271.267	-1.02
271.483	89.09
271.698	41.98
271.914	89.09
272.13	41.98
272.346	39.94
272.562	-1.02
272.777	29.7
272.993	13.31
273.209	29.7
273.425	60.42
273.64	56.32
273.856	111.61
274.072	19.46
274.287	9.22
274.503	54.27
274.719	35.84
274.934	82.94
275.15	66.56
275.366	50.18
275.581	19.46
275.797	46.08
276.012	68.61
276.228	-9.22
276.444	-17.41
276.659	80.89
276.875	27.65
277.09	62.46
277.306	27.65
277.521	97.28
277.737	-41.98
277.952	54.27
278.168	-17.41
278.383	1.02
278.599	72.7
278.814	25.6
279.03	13.31
279.245	25.6
279.461	7.17
279.676	68.61
279.892	9.22
280.107	39.94
280.322	-17.41
280.538	17.41
280.753	23.55
280.969	29.7
281.184	27.65
281.399	72.7
281.615	-23.55
281.83	21.5
282.045	72.7
282.26	66.56
282.476	7.17
282.691	95.23
282.906	31.74
283.122	3.07
283.337	119.81
283.552	103.42
283.767	17.41
283.983	58.37
284.198	3.07
284.413	35.84
284.628	80.89
284.843	82.94
285.058	41.98
285.274	62.46
285.489	-3.07
285.704	103.42
285.919	58.37
286.134	13.31
286.349	11.26
286.564	95.23
286.779	41.98
286.995	39.94
287.21	44.03
287.425	-46.08
287.64	-54.27
287.855	46.08
288.07	52.22
288.285	62.46
288.5	91.13
288.715	89.09
288.93	-1.02
289.145	21.5
289.36	62.46
289.575	25.6
289.79	27.65
290.004	78.85
290.219	33.79
290.434	5.12
290.649	29.7
290.864	48.13
291.079	35.84
291.294	39.94
291.509	82.94
291.724	-9.22
291.938	11.26
292.153	13.31
292.368	-19.46
292.583	58.37
292.798	111.61
293.012	33.79
293.227	58.37
293.442	27.65
293.657	-27.65
293.871	27.65
294.086	29.7
294.301	7.17
294.516	5.12
294.73	58.37
294.945	58.37
295.16	72.7
295.374	58.37
295.589	68.61
295.804	-19.46
296.018	76.8
296.233	-50.18
296.447	-13.31
296.662	60.42
296.877	29.7
297.091	91.13
297.306	11.26
297.52	33.79
297.735	21.5
297.949	50.18
298.164	64.51
298.378	-25.6
298.593	17.41
298.807	37.89
299.022	76.8
299.236	-21.5
299.451	41.98
299.665	-23.55
299.88	29.7
300.094	29.7
300.309	1.02
300.523	19.46
300.737	-46.08
300.952	9.22
301.166	52.22
301.381	17.41
301.595	-35.84
301.809	19.46
302.024	-3.07
302.238	-5.12
302.452	84.99
302.667	52.22
302.881	5.12
303.095	50.18
303.309	41.98
303.524	76.8
303.738	37.89
303.952	-25.6
304.166	-1.02
304.381	7.17
304.595	74.75
304.809	39.94
305.023	-3.07
305.237	52.22
305.452	46.08
305.666	48.13
305.88	-54.27
306.094	9.22
306.308	33.79
306.522	31.74
306.736	37.89
306.95	99.33
307.164	5.12
307.379	-29.7
307.593	9.22
307.807	27.65
308.021	29.7
308.235	5.12
308.449	13.31
308.663	48.13
308.877	48.13
309.091	89.09
309.305	62.46
309.519	1.02
309.733	9.22
309.947	-1.02
310.161	-29.7
310.374	56.32
310.588	-19.46
310.802	-13.31
311.016	3.07
311.23	17.41
311.444	-17.41
311.658	58.37
311.872	54.27
312.085	-19.46
312.299	52.22
312.513	72.7
312.727	17.41
312.941	-25.6
313.154	48.13
313.368	-1.02
313.582	80.89
313.796	27.65
314.009	33.79
314.223	62.46
314.437	39.94
314.651	41.98
314.864	-17.41
315.078	-35.84
315.292	50.18
315.505	5.12
315.719	66.56
315.933	70.65
316.146	54.27
316.36	27.65
316.573	33.79
316.787	76.8
317.001	17.41
317.214	23.55
317.428	68.61
317.641	56.32
317.855	35.84
318.068	25.6
318.282	82.94
318.495	44.03
318.709	46.08
318.922	60.42
319.136	115.71
319.349	11.26
319.563	68.61
319.776	13.31
319.99	29.7
320.203	99.33
320.417	33.79
320.63	78.85
320.843	121.85
321.057	21.5
321.27	54.27
321.483	-23.55
321.697	9.22
321.91	25.6
322.124	41.98
322.337	-1.02
322.55	-52.22
322.763	1.02
322.977	46.08
323.19	-1.02
323.403	46.08
323.617	27.65
323.83	82.94
324.043	11.26
324.256	9.22
324.469	23.55
324.683	33.79
324.896	72.7
325.109	56.32
325.322	15.36
325.535	50.18
325.748	17.41
325.962	52.22
326.175	5.12
326.388	-23.55
326.601	44.03
326.814	31.74
327.027	-41.98
327.24	78.85
327.453	5.12
327.666	23.55
327.879	76.8
328.092	119.81
328.305	-35.84
328.518	-23.55
328.731	17.41
328.944	5.12
329.157	-1.02
329.37	-1.02
329.583	136.19
329.796	33.79
330.009	-52.22
330.222	11.26
330.435	58.37
330.648	58.37
330.861	33.79
331.073	39.94
331.286	-5.12
331.499	93.18
331.712	15.36
331.925	54.27
332.138	-41.98
332.35	-3.07
332.563	27.65
332.776	82.94
332.989	44.03
333.202	58.37
333.414	54.27
333.627	66.56
333.84	56.32
334.053	21.5
334.265	-66.56
334.478	72.7
334.691	56.32
334.903	-21.5
335.116	-31.74
335.329	31.74
335.541	-1.02
335.754	41.98
335.966	48.13
336.179	13.31
336.392	39.94
336.604	5.12
336.817	56.32
337.029	56.32
337.242	-1.02
337.454	39.94
337.667	17.41
337.88	21.5
338.092	-29.7
338.305	54.27
338.517	17.41
338.729	-31.74
338.942	7.17
339.154	-3.07
339.367	19.46
339.579	54.27
339.792	46.08
340.004	66.56
340.217	50.18
340.429	93.18
340.641	7.17
340.854	17.41
341.066	29.7
341.278	11.26
341.491	48.13
341.703	-15.36
341.915	37.89
342.128	21.5
342.34	39.94
342.552	-7.17
342.764	46.08
342.977	128
343.189	54.27
343.401	46.08
343.613	39.94
343.826	78.85
344.038	-23.55
344.25	111.61
344.462	78.85
344.674	46.08
344.886	9.22
345.099	74.75
345.311	1.02
345.523	89.09
345.735	33.79
345.947	50.18
346.159	-13.31
346.371	84.99
346.583	21.5
346.795	62.46
347.007	29.7
347.219	76.8
347.431	60.42
347.643	13.31
347.855	56.32
348.067	72.7
348.279	5.12
348.491	-37.89
348.703	39.94
348.915	-11.26
349.127	87.04
349.339	13.31
349.551	-33.79
349.763	50.18
349.975	31.74
350.187	-1.02
350.399	29.7
350.61	82.94
350.822	39.94
351.034	62.46
351.246	23.55
351.458	46.08
351.669	87.04
351.881	46.08
352.093	54.27
352.305	82.94
352.517	-13.31
352.728	-27.65
352.94	-15.36
353.152	185.34
353.363	23.55
353.575	78.85
353.787	44.03
353.999	70.65
354.21	44.03
354.422	46.08
354.633	82.94
354.845	46.08
355.057	39.94
355.268	37.89
355.48	-5.12
355.692	13.31
355.903	52.22
356.115	-11.26
356.326	15.36
356.538	60.42
356.749	-39.94
356.961	35.84
357.172	66.56
357.384	64.51
357.595	-1.02
357.807	46.08
358.018	13.31
358.23	9.22
358.441	46.08
358.653	107.52
358.864	31.74
359.075	19.46
359.287	-3.07
359.498	13.31
359.709	31.74
359.921	27.65
360.132	95.23
360.344	64.51
360.555	-15.36
360.766	1.02
360.977	3.07
361.189	3.07
361.4	19.46
361.611	21.5
361.823	19.46
362.034	29.7
362.245	-29.7
362.456	93.18
362.667	44.03
362.879	37.89
363.09	21.5
363.301	7.17
363.512	-46.08
363.723	105.47
363.935	23.55
364.146	50.18
364.357	60.42
364.568	54.27
364.779	29.7
364.99	25.6
365.201	35.84
365.412	5.12
365.623	44.03
365.834	39.94
366.045	13.31
366.256	3.07
366.467	25.6
366.678	13.31
366.889	64.51
367.1	44.03
367.311	7.17
367.522	54.27
367.733	35.84
367.944	-7.17
368.155	-25.6
368.366	27.65
368.577	82.94
368.788	66.56
368.999	58.37
369.209	23.55
369.42	82.94
369.631	29.7
369.842	-17.41
370.053	-19.46
370.264	5.12
370.474	37.89
370.685	97.28
370.896	-25.6
371.107	95.23
371.317	-7.17
371.528	-13.31
371.739	68.61
371.95	23.55
372.16	21.5
372.371	1.02
372.582	70.65
372.792	37.89
373.003	87.04
373.214	62.46
373.424	-19.46
373.635	21.5
373.846	-1.02
374.056	23.55
374.267	74.75
374.477	-11.26
374.688	7.17
374.898	46.08
375.109	21.5
375.319	-1.02
375.53	60.42
375.74	-7.17
375.951	17.41
376.161	123.9
376.372	82.94
376.582	-13.31
376.793	52.22
377.003	5.12
377.214	74.75
377.424	7.17
377.635	48.13
377.845	29.7
378.055	31.74
378.266	1.02
378.476	21.5
378.686	21.5
378.897	7.17
379.107	-9.22
379.317	25.6
379.528	72.7
379.738	13.31
379.948	13.31
380.158	21.5
380.369	68.61
380.579	41.98
380.789	-46.08
380.999	62.46
381.21	78.85
381.42	119.81
381.63	29.7
381.84	37.89
382.05	48.13
382.261	29.7
382.471	-52.22
382.681	23.55
382.891	50.18
383.101	70.65
383.311	37.89
383.521	41.98
383.731	7.17
383.941	68.61
384.151	9.22
384.361	27.65
384.571	68.61
384.781	89.09
384.991	-17.41
385.201	70.65
385.411	50.18
385.621	-3.07
385.831	-15.36
386.041	13.31
386.251	-11.26
386.461	31.74
386.671	31.74
386.881	66.56
387.091	46.08
387.301	64.51
387.511	72.7
387.72	58.37
387.93	54.27
388.14	37.89
388.35	54.27
388.56	29.7
388.769	5.12
388.979	46.08
389.189	48.13
389.399	48.13
389.609	68.61
389.818	25.6
390.028	62.46
390.238	50.18
390.447	74.75
390.657	56.32
390.867	17.41
391.076	-27.65
391.286	44.03
391.496	119.81
391.705	50.18
391.915	7.17
392.125	27.65
392.334	11.26
392.544	52.22
392.753	66.56
392.963	37.89
393.172	9.22
393.382	29.7
393.591	105.47
393.801	46.08
394.01	82.94
394.22	-7.17
394.429	95.23
394.639	13.31
394.848	37.89
395.058	11.26
395.267	50.18
395.477	66.56
395.686	82.94
395.895	78.85
396.105	37.89
396.314	107.52
396.524	82.94
396.733	39.94
396.942	46.08
397.152	29.7
397.361	11.26
397.57	60.42
397.78	103.42
397.989	82.94
398.198	87.04
398.407	60.42
398.617	41.98
398.826	101.37
399.035	50.18
399.244	44.03
399.453	41.98
399.663	78.85
399.872	121.85
400.081	103.42
400.29	76.8
400.499	37.89
400.708	128
400.917	-1.02
401.127	37.89
401.336	68.61
401.545	130.05
401.754	103.42
401.963	62.46
402.172	72.7
402.381	78.85
402.59	-5.12
402.799	78.85
403.008	23.55
403.217	78.85
403.426	52.22
403.635	64.51
403.844	-15.36
404.053	99.33
404.262	105.47
404.471	25.6
404.68	17.41
404.888	87.04
405.097	33.79
405.306	101.37
405.515	39.94
405.724	105.47
405.933	99.33
406.142	109.57
406.35	46.08
406.559	164.86
406.768	128
406.977	171.01
407.185	91.13
407.394	125.95
407.603	89.09
407.812	128
408.02	103.42
408.229	95.23
408.438	74.75
408.646	82.94
408.855	132.09
409.064	-5.12
409.272	23.55
409.481	111.61
409.69	93.18
409.898	152.57
410.107	35.84
410.315	87.04
410.524	39.94
410.733	140.29
410.941	101.37
411.15	148.48
411.358	166.91
411.567	160.77
411.775	107.52
411.984	218.11
412.192	226.3
412.401	187.39
412.609	191.49
412.818	191.49
413.026	177.15
413.234	203.77
413.443	214.01
413.651	269.31
413.86	304.12
414.068	283.64
414.276	232.44
414.485	242.68
414.693	216.06
414.901	312.32
415.11	263.16
415.318	332.79
415.526	238.59
415.734	300.03
415.943	318.46
416.151	277.5
416.359	318.46
416.567	340.99
416.776	343.03
416.984	433.15
417.192	420.86
417.4	394.23
417.608	351.23
417.817	386.04
418.025	396.28
418.233	470.01
418.441	441.34
418.649	478.2
418.857	373.75
419.065	519.16
419.273	543.74
419.481	586.74
419.689	637.94
419.897	556.02
420.105	525.3
420.313	504.82
420.521	619.51
420.729	613.37
420.937	656.37
421.145	627.7
421.353	703.48
421.561	715.77
421.769	756.72
421.977	746.48
422.185	715.77
422.393	699.38
422.601	785.4
422.809	865.27
423.017	799.73
423.224	889.84
423.432	877.55
423.64	857.07
423.848	1008.62
424.056	965.62
424.263	1037.3
424.471	1014.77
424.679	1031.15
424.887	1135.6
425.094	1119.21
425.302	1143.79
425.51	1180.65
425.718	1238
425.925	1213.42
426.133	1246.19
426.341	1276.91
426.548	1297.39
426.756	1309.68
426.964	1336.3
427.171	1438.7
427.379	1502.19
427.586	1565.67
427.794	1600.49
428.001	1788.9
428.209	1717.22
428.417	1774.56
428.624	1795.04
428.832	1934.31
429.039	1811.43
429.247	1786.85
429.454	1973.22
429.662	2139.1
429.869	2020.32
430.076	2151.39
430.284	2108.38
430.491	2167.77
430.699	2360.28
430.906	2311.13
431.114	2294.75
431.321	2513.88
431.528	2491.35
431.736	2649.05
431.943	2626.52
432.15	2681.82
432.358	2706.39
432.565	2849.75
432.772	2800.6
432.979	3048.4
433.187	2847.7
433.394	3021.78
433.601	3134.42
433.808	3224.53
434.016	3097.55
434.223	3204.05
434.43	3572.68
434.637	3531.72
434.844	3781.57
435.052	3687.37
435.259	3722.18
435.466	3718.09
435.673	3644.36
435.88	3873.73
436.087	4158.4
436.294	4072.39
436.501	3951.56
436.708	4062.15
436.915	4111.3
437.122	4459.45
437.329	4494.27
437.537	4600.76
437.743	4641.72
437.95	4662.2
438.157	4871.09
438.364	5022.64
438.571	5073.84
438.778	5004.21
438.985	5671.85
439.192	5305.26
439.399	5395.37
439.606	5252.02
439.813	5815.21
440.02	6042.53
440.227	5989.28
440.433	5870.5
440.64	5952.42
440.847	6003.62
441.054	6028.2
441.261	6435.74
441.467	6570.91
441.674	6560.67
441.881	6839.19
442.088	6888.34
442.294	6787.99
442.501	6867.86
442.708	7021.46
442.914	7314.32
443.121	7871.37
443.328	7590.8
443.534	7897.99
443.741	7623.56
443.948	7676.81
444.154	8205.19
444.361	8201.09
444.568	8178.56
444.774	8305.54
444.981	8479.61
445.187	8463.23
445.394	8797.05
445.6	8647.55
445.807	9544.56
446.013	9280.37
446.22	9481.07
446.426	9640.81
446.633	9933.67
446.839	10220.39
447.046	9757.55
447.252	10464.1
447.459	10476.38
447.665	10302.31
447.871	10699.61
448.078	11082.58
448.284	10470.24
448.491	10914.65
448.697	11436.88
448.903	11850.57
449.11	11535.18
449.316	11410.26
449.522	11453.27
449.728	11934.54
449.935	12104.52
450.141	12174.15
450.347	12321.6
450.553	11881.29
450.76	12100.42
450.966	12278.6
451.172	12395.33
451.378	12479.3
451.584	12555.07
451.791	12704.57
451.997	12718.91
452.203	12899.13
452.409	12907.32
452.615	12923.71
452.821	12280.64
453.027	12374.85
453.233	12811.07
453.44	12559.17
453.646	12505.92
453.852	12544.83
454.058	12694.33
454.264	12446.53
454.47	12813.12
454.676	12317.51
454.882	12884.8
455.088	11762.51
455.294	12045.13
455.5	12317.51
455.705	11955.02
455.911	11856.72
456.117	11512.66
456.323	11275.09
456.529	10634.08
456.735	11213.65
456.941	10937.18
457.147	10773.34
457.352	10376.03
457.558	10261.35
457.764	10234.72
457.97	10175.33
458.176	10091.37
458.381	9995.11
458.587	9464.69
458.793	9593.71
458.999	8983.41
459.204	9558.89
459.41	9284.47
459.616	8651.64
459.821	8979.32
460.027	8639.36
460.233	8598.4
460.438	8182.66
460.644	8180.61
460.85	7959.43
461.055	7728.01
461.261	7668.62
461.466	7195.54
461.672	7027.6
461.878	7416.72
462.083	7019.41
462.289	6718.36
462.494	6722.46
462.7	6372.25
462.905	6181.79
463.111	6484.89
463.316	6488.99
463.522	6429.6
463.727	6394.78
463.932	6370.21
464.138	6355.87
464.343	6263.71
464.549	6224.8
464.754	6200.23
464.959	6378.4
465.165	6136.74
465.37	6056.87
465.575	5868.45
465.781	6017.96
465.986	6003.62
466.191	5741.48
466.397	5600.17
466.602	5473.2
466.807	5747.62
467.012	5643.18
467.218	5591.98
467.423	5542.83
467.628	5634.99
467.833	5796.78
468.038	5512.11
468.244	5526.44
468.449	5579.69
468.654	5489.58
468.859	5540.78
469.064	5456.81
469.269	5348.27
469.474	5108.66
469.679	5282.74
469.885	5301.17
470.09	5149.62
470.295	5135.28
470.5	5061.55
470.705	5331.89
470.91	4942.77
471.115	5122.99
