Data from USB4F104151__177__13-59-00-471.txt Node

Date: Thu Mar 13 13:59:00 EDT 2025
User: louis
Spectrometer: USB4F10415
Trigger mode: 4
Integration Time (sec): 1.000000E-2
Scans to average: 1
Electric dark correction enabled: true
Nonlinearity correction enabled: false
Boxcar width: 0
XAxis mode: Wavelengths
Number of Pixels in Spectrum: 3648
>>>>>Begin Spectral Data<<<<<
178.204	-53.93
178.424	-53.93
178.644	-53.93
178.864	-37.55
179.084	-92.84
179.304	-25.26
179.524	-4.78
179.744	30.04
179.964	1.37
180.184	-21.16
180.404	7.51
180.624	-39.59
180.844	-6.83
181.064	-2.73
181.283	58.71
181.503	13.65
181.723	-10.92
181.943	1.37
182.163	109.91
182.383	-27.31
182.602	58.71
182.822	64.85
183.042	-23.21
183.262	9.56
183.482	-6.83
183.701	11.61
183.921	-17.07
184.141	-8.87
184.361	19.8
184.58	-25.26
184.8	-60.07
185.02	-60.07
185.239	73.04
185.459	-12.97
185.679	36.18
185.898	-12.97
186.118	15.7
186.338	9.56
186.557	-0.68
186.777	56.66
186.997	-17.07
187.216	54.61
187.436	-29.35
187.655	89.43
187.875	19.8
188.095	-35.5
188.314	95.57
188.534	34.13
188.753	-43.69
188.973	-15.02
189.192	54.61
189.412	21.85
189.631	11.61
189.851	54.61
190.07	109.91
190.29	5.46
190.509	21.85
190.729	68.95
190.948	30.04
191.168	36.18
191.387	27.99
191.607	5.46
191.826	-8.87
192.045	-33.45
192.265	46.42
192.484	58.71
192.704	-90.79
192.923	-27.31
193.142	-12.97
193.362	34.13
193.581	103.76
193.8	13.65
194.02	-53.93
194.239	44.37
194.458	36.18
194.678	27.99
194.897	62.8
195.116	46.42
195.335	-10.92
195.555	36.18
195.774	3.41
195.993	46.42
196.212	27.99
196.432	-60.07
196.651	48.47
196.87	9.56
197.089	40.28
197.308	13.65
197.528	13.65
197.747	9.56
197.966	56.66
198.185	56.66
198.404	-2.73
198.623	64.85
198.842	21.85
199.062	-12.97
199.281	89.43
199.5	-6.83
199.719	23.89
199.938	91.48
200.157	-10.92
200.376	11.61
200.595	48.47
200.814	38.23
201.033	-6.83
201.252	56.66
201.471	-47.79
201.69	85.33
201.909	23.89
202.128	5.46
202.347	58.71
202.566	34.13
202.785	64.85
203.004	-21.16
203.223	46.42
203.442	48.47
203.661	34.13
203.879	-25.26
204.098	58.71
204.317	13.65
204.536	7.51
204.755	-2.73
204.974	-25.26
205.193	-70.31
205.411	-27.31
205.63	-0.68
205.849	54.61
206.068	66.9
206.287	-51.88
206.505	-6.83
206.724	79.19
206.943	-25.26
207.162	30.04
207.381	-0.68
207.599	27.99
207.818	-2.73
208.037	30.04
208.255	5.46
208.474	-17.07
208.693	13.65
208.911	-43.69
209.13	7.51
209.349	-21.16
209.567	42.32
209.786	25.94
210.005	-29.35
210.223	17.75
210.442	-19.11
210.661	44.37
210.879	46.42
211.098	11.61
211.316	73.04
211.535	38.23
211.753	13.65
211.972	58.71
212.191	50.52
212.409	68.95
212.628	21.85
212.846	-8.87
213.065	3.41
213.283	7.51
213.502	-62.12
213.72	64.85
213.938	-25.26
214.157	-27.31
214.375	91.48
214.594	-0.68
214.812	68.95
215.031	-10.92
215.249	15.7
215.467	-10.92
215.686	-21.16
215.904	85.33
216.122	54.61
216.341	23.89
216.559	73.04
216.778	15.7
216.996	46.42
217.214	-8.87
217.432	5.46
217.651	32.08
217.869	-23.21
218.087	17.75
218.306	21.85
218.524	42.32
218.742	32.08
218.96	-8.87
219.179	13.65
219.397	83.28
219.615	95.57
219.833	40.28
220.051	25.94
220.27	7.51
220.488	-17.07
220.706	9.56
220.924	56.66
221.142	66.9
221.36	-19.11
221.578	25.94
221.796	1.37
222.015	38.23
222.233	1.37
222.451	30.04
222.669	-2.73
222.887	34.13
223.105	17.75
223.323	56.66
223.541	-0.68
223.759	11.61
223.977	-6.83
224.195	71
224.413	5.46
224.631	23.89
224.849	79.19
225.067	54.61
225.285	34.13
225.503	7.51
225.721	-25.26
225.939	25.94
226.157	-15.02
226.375	71
226.592	23.89
226.81	23.89
227.028	56.66
227.246	40.28
227.464	-43.69
227.682	77.14
227.9	44.37
228.117	-15.02
228.335	11.61
228.553	44.37
228.771	-15.02
228.989	-2.73
229.206	71
229.424	-10.92
229.642	64.85
229.86	-12.97
230.077	30.04
230.295	-64.17
230.513	-17.07
230.731	58.71
230.948	-6.83
231.166	3.41
231.384	-19.11
231.601	-39.59
231.819	38.23
232.037	62.8
232.254	52.56
232.472	1.37
232.689	64.85
232.907	5.46
233.125	13.65
233.342	34.13
233.56	-6.83
233.777	17.75
233.995	15.7
234.213	3.41
234.43	-39.59
234.648	46.42
234.865	62.8
235.083	-19.11
235.3	48.47
235.518	25.94
235.735	-8.87
235.953	-23.21
236.17	-2.73
236.388	48.47
236.605	44.37
236.822	25.94
237.04	-60.07
237.257	13.65
237.475	27.99
237.692	23.89
237.909	1.37
238.127	50.52
238.344	27.99
238.562	46.42
238.779	23.89
238.996	66.9
239.214	19.8
239.431	79.19
239.648	-6.83
239.865	-35.5
240.083	5.46
240.3	95.57
240.517	-6.83
240.735	5.46
240.952	56.66
241.169	42.32
241.386	56.66
241.603	79.19
241.821	30.04
242.038	46.42
242.255	58.71
242.472	9.56
242.689	-8.87
242.907	-25.26
243.124	15.7
243.341	5.46
243.558	-41.64
243.775	15.7
243.992	13.65
244.209	81.24
244.426	-27.31
244.643	11.61
244.86	-39.59
245.078	36.18
245.295	21.85
245.512	-12.97
245.729	-53.93
245.946	1.37
246.163	46.42
246.38	40.28
246.597	-68.27
246.814	19.8
247.031	17.75
247.248	68.95
247.464	40.28
247.681	38.23
247.898	64.85
248.115	40.28
248.332	21.85
248.549	7.51
248.766	79.19
248.983	34.13
249.2	-43.69
249.417	62.8
249.633	15.7
249.85	3.41
250.067	25.94
250.284	-8.87
250.501	48.47
250.717	-2.73
250.934	66.9
251.151	38.23
251.368	36.18
251.585	75.09
251.801	40.28
252.018	-25.26
252.235	1.37
252.451	50.52
252.668	13.65
252.885	42.32
253.102	-23.21
253.318	-25.26
253.535	91.48
253.752	7.51
253.968	118.1
254.185	23.89
254.401	23.89
254.618	95.57
254.835	75.09
255.051	7.51
255.268	7.51
255.484	73.04
255.701	-25.26
255.917	95.57
256.134	-25.26
256.351	91.48
256.567	19.8
256.784	58.71
257	-4.78
257.217	50.52
257.433	17.75
257.65	54.61
257.866	46.42
258.082	17.75
258.299	48.47
258.515	56.66
258.732	25.94
258.948	17.75
259.165	17.75
259.381	13.65
259.597	7.51
259.814	32.08
260.03	-33.45
260.246	-0.68
260.463	5.46
260.679	87.38
260.895	-29.35
261.112	15.7
261.328	30.04
261.544	21.85
261.761	17.75
261.977	19.8
262.193	9.56
262.409	-10.92
262.626	44.37
262.842	62.8
263.058	17.75
263.274	5.46
263.49	9.56
263.707	17.75
263.923	54.61
264.139	64.85
264.355	66.9
264.571	21.85
264.787	1.37
265.004	54.61
265.22	44.37
265.436	9.56
265.652	21.85
265.868	1.37
266.084	13.65
266.3	-27.31
266.516	36.18
266.732	56.66
266.948	19.8
267.164	-41.64
267.38	15.7
267.596	-101.03
267.812	13.65
268.028	-6.83
268.244	62.8
268.46	27.99
268.676	-70.31
268.892	48.47
269.108	19.8
269.324	89.43
269.54	-19.11
269.756	32.08
269.972	21.85
270.188	48.47
270.403	64.85
270.619	42.32
270.835	32.08
271.051	11.61
271.267	13.65
271.483	15.7
271.698	9.56
271.914	64.85
272.13	-10.92
272.346	66.9
272.562	17.75
272.777	48.47
272.993	-58.03
273.209	-64.17
273.425	44.37
273.64	-31.4
273.856	58.71
274.072	32.08
274.287	13.65
274.503	44.37
274.719	30.04
274.934	83.28
275.15	34.13
275.366	30.04
275.581	46.42
275.797	87.38
276.012	38.23
276.228	-25.26
276.444	77.14
276.659	73.04
276.875	-6.83
277.09	38.23
277.306	-0.68
277.521	32.08
277.737	93.52
277.952	-15.02
278.168	83.28
278.383	38.23
278.599	46.42
278.814	56.66
279.03	93.52
279.245	-8.87
279.461	30.04
279.676	46.42
279.892	-51.88
280.107	21.85
280.322	-4.78
280.538	44.37
280.753	71
280.969	23.89
281.184	9.56
281.399	27.99
281.615	58.71
281.83	75.09
282.045	-15.02
282.26	50.52
282.476	-43.69
282.691	1.37
282.906	77.14
283.122	13.65
283.337	56.66
283.552	-19.11
283.767	46.42
283.983	-10.92
284.198	19.8
284.413	-19.11
284.628	54.61
284.843	13.65
285.058	34.13
285.274	38.23
285.489	-2.73
285.704	36.18
285.919	1.37
286.134	62.8
286.349	91.48
286.564	3.41
286.779	25.94
286.995	17.75
287.21	40.28
287.425	89.43
287.64	58.71
287.855	85.33
288.07	30.04
288.285	-29.35
288.5	-21.16
288.715	5.46
288.93	5.46
289.145	64.85
289.36	42.32
289.575	9.56
289.79	11.61
290.004	91.48
290.219	-6.83
290.434	27.99
290.649	56.66
290.864	77.14
291.079	13.65
291.294	36.18
291.509	11.61
291.724	44.37
291.938	-6.83
292.153	91.48
292.368	40.28
292.583	19.8
292.798	1.37
293.012	79.19
293.227	-49.83
293.442	42.32
293.657	97.62
293.871	79.19
294.086	1.37
294.301	38.23
294.516	-10.92
294.73	34.13
294.945	38.23
295.16	99.67
295.374	25.94
295.589	1.37
295.804	9.56
296.018	32.08
296.233	77.14
296.447	-2.73
296.662	-21.16
296.877	19.8
297.091	64.85
297.306	93.52
297.52	23.89
297.735	87.38
297.949	-74.41
298.164	52.56
298.378	21.85
298.593	-15.02
298.807	103.76
299.022	-19.11
299.236	21.85
299.451	71
299.665	-4.78
299.88	34.13
300.094	-47.79
300.309	5.46
300.523	103.76
300.737	68.95
300.952	21.85
301.166	1.37
301.381	-15.02
301.595	23.89
301.809	36.18
302.024	103.76
302.238	-35.5
302.452	30.04
302.667	79.19
302.881	138.58
303.095	21.85
303.309	103.76
303.524	17.75
303.738	-41.64
303.952	60.76
304.166	15.7
304.381	-25.26
304.595	21.85
304.809	-31.4
305.023	79.19
305.237	34.13
305.452	13.65
305.666	62.8
305.88	58.71
306.094	62.8
306.308	77.14
306.522	-23.21
306.736	25.94
306.95	58.71
307.164	23.89
307.379	13.65
307.593	17.75
307.807	81.24
308.021	40.28
308.235	9.56
308.449	73.04
308.663	-35.5
308.877	75.09
309.091	17.75
309.305	21.85
309.519	21.85
309.733	46.42
309.947	-39.59
310.161	-23.21
310.374	23.89
310.588	50.52
310.802	7.51
311.016	-2.73
311.23	56.66
311.444	13.65
311.658	17.75
311.872	95.57
312.085	-29.35
312.299	-41.64
312.513	19.8
312.727	46.42
312.941	15.7
313.154	89.43
313.368	7.51
313.582	40.28
313.796	17.75
314.009	50.52
314.223	89.43
314.437	48.47
314.651	27.99
314.864	19.8
315.078	52.56
315.292	48.47
315.505	-58.03
315.719	38.23
315.933	19.8
316.146	-6.83
316.36	44.37
316.573	56.66
316.787	-21.16
317.001	40.28
317.214	15.7
317.428	52.56
317.641	32.08
317.855	-10.92
318.068	27.99
318.282	62.8
318.495	165.2
318.709	11.61
318.922	130.39
319.136	38.23
319.349	-4.78
319.563	54.61
319.776	30.04
319.99	30.04
320.203	44.37
320.417	73.04
320.63	42.32
320.843	58.71
321.057	44.37
321.27	58.71
321.483	58.71
321.697	68.95
321.91	-43.69
322.124	58.71
322.337	54.61
322.55	-0.68
322.763	38.23
322.977	34.13
323.19	27.99
323.403	54.61
323.617	52.56
323.83	1.37
324.043	66.9
324.256	56.66
324.469	-0.68
324.683	25.94
324.896	54.61
325.109	19.8
325.322	54.61
325.535	64.85
325.748	-0.68
325.962	21.85
326.175	56.66
326.388	46.42
326.601	48.47
326.814	1.37
327.027	48.47
327.24	-2.73
327.453	15.7
327.666	7.51
327.879	93.52
328.092	9.56
328.305	44.37
328.518	40.28
328.731	21.85
328.944	5.46
329.157	42.32
329.37	-8.87
329.583	48.47
329.796	9.56
330.009	-2.73
330.222	64.85
330.435	54.61
330.648	50.52
330.861	15.7
331.073	64.85
331.286	7.51
331.499	54.61
331.712	21.85
331.925	-8.87
332.138	25.94
332.35	30.04
332.563	-19.11
332.776	79.19
332.989	-8.87
333.202	-27.31
333.414	7.51
333.627	-60.07
333.84	7.51
334.053	83.28
334.265	64.85
334.478	68.95
334.691	36.18
334.903	36.18
335.116	-33.45
335.329	30.04
335.541	62.8
335.754	114
335.966	-8.87
336.179	66.9
336.392	36.18
336.604	81.24
336.817	11.61
337.029	44.37
337.242	52.56
337.454	40.28
337.667	30.04
337.88	-35.5
338.092	38.23
338.305	118.1
338.517	-17.07
338.729	54.61
338.942	21.85
339.154	46.42
339.367	-4.78
339.579	38.23
339.792	52.56
340.004	13.65
340.217	40.28
340.429	62.8
340.641	19.8
340.854	23.89
341.066	-23.21
341.278	34.13
341.491	30.04
341.703	46.42
341.915	-6.83
342.128	5.46
342.34	32.08
342.552	68.95
342.764	38.23
342.977	-2.73
343.189	30.04
343.401	97.62
343.613	7.51
343.826	101.72
344.038	-29.35
344.25	9.56
344.462	-39.59
344.674	48.47
344.886	54.61
345.099	52.56
345.311	105.81
345.523	62.8
345.735	-37.55
345.947	46.42
346.159	-6.83
346.371	23.89
346.583	-2.73
346.795	75.09
347.007	3.41
347.219	87.38
347.431	11.61
347.643	-0.68
347.855	-0.68
348.067	1.37
348.279	54.61
348.491	46.42
348.703	58.71
348.915	17.75
349.127	23.89
349.339	-29.35
349.551	27.99
349.763	79.19
349.975	58.71
350.187	114
350.399	66.9
350.61	48.47
350.822	25.94
351.034	19.8
351.246	-35.5
351.458	83.28
351.669	25.94
351.881	-0.68
352.093	-6.83
352.305	99.67
352.517	46.42
352.728	114
352.94	-0.68
353.152	-19.11
353.363	3.41
353.575	126.29
353.787	27.99
353.999	107.86
354.21	34.13
354.422	109.91
354.633	42.32
354.845	30.04
355.057	40.28
355.268	75.09
355.48	93.52
355.692	36.18
355.903	60.76
356.115	46.42
356.326	-8.87
356.538	60.76
356.749	42.32
356.961	58.71
357.172	9.56
357.384	97.62
357.595	17.75
357.807	62.8
358.018	87.38
358.23	42.32
358.441	71
358.653	-25.26
358.864	25.94
359.075	9.56
359.287	73.04
359.498	46.42
359.709	71
359.921	50.52
360.132	46.42
360.344	136.53
360.555	66.9
360.766	44.37
360.977	58.71
361.189	89.43
361.4	42.32
361.611	44.37
361.823	30.04
362.034	48.47
362.245	56.66
362.456	1.37
362.667	42.32
362.879	58.71
363.09	99.67
363.301	19.8
363.512	114
363.723	60.76
363.935	38.23
364.146	54.61
364.357	21.85
364.568	60.76
364.779	-51.88
364.99	118.1
365.201	44.37
365.412	81.24
365.623	-25.26
365.834	54.61
366.045	3.41
366.256	95.57
366.467	42.32
366.678	79.19
366.889	62.8
367.1	66.9
367.311	-8.87
367.522	15.7
367.733	120.15
367.944	-27.31
368.155	85.33
368.366	120.15
368.577	34.13
368.788	15.7
368.999	-2.73
369.209	-37.55
369.42	21.85
369.631	38.23
369.842	75.09
370.053	48.47
370.264	95.57
370.474	73.04
370.685	85.33
370.896	83.28
371.107	34.13
371.317	46.42
371.528	56.66
371.739	56.66
371.95	58.71
372.16	66.9
372.371	9.56
372.582	77.14
372.792	52.56
373.003	36.18
373.214	71
373.424	36.18
373.635	32.08
373.846	75.09
374.056	17.75
374.267	114
374.477	87.38
374.688	48.47
374.898	-15.02
375.109	75.09
375.319	83.28
375.53	103.76
375.74	71
375.951	99.67
376.161	38.23
376.372	40.28
376.582	-35.5
376.793	17.75
377.003	40.28
377.214	54.61
377.424	101.72
377.635	87.38
377.845	52.56
378.055	15.7
378.266	30.04
378.476	52.56
378.686	34.13
378.897	40.28
379.107	101.72
379.317	101.72
379.528	83.28
379.738	50.52
379.948	15.7
380.158	17.75
380.369	77.14
380.579	64.85
380.789	75.09
380.999	9.56
381.21	134.48
381.42	54.61
381.63	54.61
381.84	13.65
382.05	140.63
382.261	122.2
382.471	54.61
382.681	103.76
382.891	25.94
383.101	44.37
383.311	-6.83
383.521	71
383.731	71
383.941	89.43
384.151	83.28
384.361	13.65
384.571	44.37
384.781	38.23
384.991	32.08
385.201	56.66
385.411	25.94
385.621	-2.73
385.831	23.89
386.041	19.8
386.251	83.28
386.461	54.61
386.671	54.61
386.881	48.47
387.091	19.8
387.301	46.42
387.511	27.99
387.72	75.09
387.93	91.48
388.14	21.85
388.35	-23.21
388.56	71
388.769	87.38
388.979	46.42
389.189	21.85
389.399	138.58
389.609	-23.21
389.818	91.48
390.028	97.62
390.238	42.32
390.447	9.56
390.657	32.08
390.867	56.66
391.076	95.57
391.286	62.8
391.496	46.42
391.705	68.95
391.915	11.61
392.125	60.76
392.334	62.8
392.544	48.47
392.753	-10.92
392.963	25.94
393.172	130.39
393.382	132.44
393.591	56.66
393.801	13.65
394.01	111.96
394.22	-2.73
394.429	19.8
394.639	56.66
394.848	126.29
395.058	77.14
395.267	87.38
395.477	93.52
395.686	52.56
395.895	161.11
396.105	83.28
396.314	73.04
396.524	99.67
396.733	91.48
396.942	81.24
397.152	42.32
397.361	71
397.57	32.08
397.78	40.28
397.989	71
398.198	79.19
398.407	79.19
398.617	27.99
398.826	68.95
399.035	97.62
399.244	130.39
399.453	159.06
399.663	40.28
399.872	50.52
400.081	60.76
400.29	142.68
400.499	44.37
400.708	130.39
400.917	85.33
401.127	97.62
401.336	46.42
401.545	132.44
401.754	130.39
401.963	111.96
402.172	165.2
402.381	136.53
402.59	77.14
402.799	87.38
403.008	116.05
403.217	148.82
403.426	73.04
403.635	103.76
403.844	66.9
404.053	116.05
404.262	128.34
404.471	161.11
404.68	103.76
404.888	120.15
405.097	122.2
405.306	120.15
405.515	79.19
405.724	169.3
405.933	210.26
406.142	134.48
406.35	195.92
406.559	103.76
406.768	181.59
406.977	132.44
407.185	150.87
407.394	173.39
407.603	120.15
407.812	259.41
408.02	130.39
408.229	165.2
408.438	208.21
408.646	169.3
408.855	228.69
409.064	261.46
409.272	179.54
409.481	138.58
409.69	210.26
409.898	312.66
410.107	236.88
410.315	288.08
410.524	208.21
410.733	228.69
410.941	316.75
411.15	410.96
411.358	398.67
411.567	341.33
411.775	406.86
411.984	326.99
412.192	382.29
412.401	378.19
412.609	435.53
412.818	425.29
413.026	419.15
413.234	365.9
413.443	445.77
413.651	517.45
413.86	501.07
414.068	548.17
414.276	494.93
414.485	554.32
414.693	572.75
414.901	638.28
415.11	709.96
415.318	644.43
415.526	601.42
415.734	681.29
415.943	636.24
416.151	623.95
416.359	681.29
416.567	781.64
416.776	681.29
416.984	738.63
417.192	965.96
417.4	816.46
417.608	820.55
417.817	974.15
418.025	922.95
418.233	955.72
418.441	972.1
418.649	1043.78
418.857	1047.88
419.065	1107.27
419.273	1201.48
419.481	1269.06
419.689	1189.19
419.897	1221.95
420.105	1250.63
420.313	1301.83
420.521	1359.17
420.729	1326.4
420.937	1498.43
421.145	1516.86
421.353	1582.4
421.561	1568.06
421.769	1631.55
421.977	1838.39
422.185	1789.24
422.393	1776.95
422.601	1963.32
422.809	1938.74
423.017	1957.18
423.224	1932.6
423.432	2118.97
423.64	2053.43
423.848	2256.18
424.056	2370.87
424.263	2364.72
424.471	2391.34
424.679	2485.55
424.887	2694.44
425.094	2749.74
425.302	2714.92
425.51	2796.84
425.718	2880.81
425.925	2901.29
426.133	2999.59
426.341	3171.62
426.548	3355.94
426.756	3274.02
426.964	3403.04
427.171	3671.33
427.379	3730.72
427.586	3794.2
427.794	3790.11
428.001	3999
428.209	4261.14
428.417	4177.17
428.624	4408.59
428.832	4420.88
429.039	4267.28
429.247	4443.41
429.454	4902.15
429.662	5096.71
429.869	4820.24
430.076	5178.63
430.284	4957.45
430.491	5088.52
430.699	5686.53
430.906	5496.07
431.114	5661.95
431.321	5733.63
431.528	5844.22
431.736	6219
431.943	6636.78
432.15	6249.72
432.358	6540.53
432.565	6864.11
432.772	6716.65
432.979	7179.5
433.187	7187.69
433.394	7355.62
433.601	7855.33
433.808	7630.05
434.016	7793.89
434.223	8074.46
434.43	8516.82
434.637	8496.34
434.844	8826.06
435.052	8979.66
435.259	9161.93
435.466	9202.89
435.673	9071.82
435.88	9688.26
436.087	10200.25
436.294	10212.54
436.501	9835.71
436.708	10126.52
436.915	10507.44
437.122	10769.58
437.329	10765.49
437.537	11164.84
437.743	11535.53
437.95	11144.36
438.157	11977.89
438.364	11957.41
438.571	12295.32
438.778	12285.08
438.985	13716.61
439.192	13128.84
439.399	13534.34
439.606	13005.97
439.813	13722.76
440.02	14636.15
440.227	14267.52
440.433	14435.45
440.64	14693.49
440.847	14417.02
441.054	14888.05
441.261	15742.05
441.467	15602.79
441.674	16039.01
441.881	16735.32
442.088	16555.1
442.294	16421.98
442.501	16829.52
442.708	17271.89
442.914	18029.63
443.121	18641.98
443.328	18154.56
443.534	19274.8
443.741	18713.66
443.948	18478.14
444.154	20255.78
444.361	20044.84
444.568	20044.84
444.774	19885.09
444.981	20198.43
445.187	21111.83
445.394	21531.66
445.6	21353.49
445.807	23200.76
446.013	22432.77
446.22	22750.2
446.426	23688.17
446.633	24017.89
446.839	24753.12
447.046	23469.04
447.252	25164.76
447.459	25033.69
447.665	25013.21
447.871	26055.62
448.078	27251.64
448.284	25811.92
448.491	26297.28
448.697	27755.44
448.903	27974.57
449.11	27980.71
449.316	27646.9
449.522	28363.68
449.728	29014.94
449.935	29174.68
450.141	29330.33
450.347	30053.26
450.553	28760.99
450.76	29496.21
450.966	30167.94
451.172	29604.75
451.378	30669.7
451.584	29975.44
451.791	30827.39
451.997	30526.34
452.203	31179.64
452.409	31267.7
452.615	31048.57
452.821	29836.17
453.027	29451.16
453.233	31249.27
453.44	29741.97
453.646	30090.12
453.852	30403.46
454.058	30774.14
454.264	29645.71
454.47	30520.2
454.676	29664.14
454.882	30632.83
455.088	28005.29
455.294	28576.67
455.5	28930.97
455.705	29258.65
455.911	28113.83
456.117	27757.49
456.323	26938.3
456.529	25461.71
456.735	26784.7
456.941	26100.68
457.147	25686.99
457.352	24783.84
457.558	24570.85
457.764	24908.76
457.97	24181.73
458.176	23763.95
458.381	23833.58
458.587	22815.74
458.793	22551.55
458.999	21191.7
459.204	22998.01
459.41	22490.11
459.616	20886.55
459.821	20831.26
460.027	20628.51
460.233	20278.3
460.438	19469.36
460.644	19538.99
460.85	18658.36
461.055	18435.13
461.261	18437.18
461.466	16893.01
461.672	16563.29
461.878	17738.82
462.083	16673.88
462.289	15975.52
462.494	16112.74
462.7	15473.77
462.905	15096.94
463.111	15463.53
463.316	15332.46
463.522	15176.81
463.727	15236.2
463.932	15375.47
464.138	15103.09
464.343	15148.14
464.549	14783.6
464.754	15123.57
464.959	15029.36
465.165	15146.09
465.37	14331
465.575	13929.6
465.781	14402.68
465.986	14654.58
466.191	14288
466.397	13962.37
466.602	13067.41
466.807	13464.71
467.012	13739.14
467.218	13698.18
467.423	13558.92
467.628	13589.64
467.833	14290.04
468.038	13374.6
468.244	13137.04
468.449	13532.29
468.654	13354.12
