Data from USB4F104151__54__13-53-30-497.txt Node

Date: Thu Mar 13 13:53:30 EDT 2025
User: louis
Spectrometer: USB4F10415
Trigger mode: 4
Integration Time (sec): 1.000000E-2
Scans to average: 1
Electric dark correction enabled: true
Nonlinearity correction enabled: false
Boxcar width: 0
XAxis mode: Wavelengths
Number of Pixels in Spectrum: 3648
>>>>>Begin Spectral Data<<<<<
178.204	8.53
178.424	8.53
178.644	8.53
178.864	-83.63
179.084	-5.8
179.304	-13.99
179.524	26.96
179.744	-34.47
179.964	-65.19
180.184	-24.23
180.404	26.96
180.624	18.77
180.844	29.01
181.064	24.92
181.283	-20.14
181.503	10.58
181.723	20.82
181.943	0.34
182.163	51.54
182.383	45.4
182.602	6.49
182.822	47.44
183.042	43.35
183.262	49.49
183.482	-24.23
183.701	-18.09
183.921	24.92
184.141	20.82
184.361	63.83
184.58	41.3
184.8	35.16
185.02	12.63
185.239	26.96
185.459	4.44
185.679	31.06
185.898	16.73
186.118	47.44
186.338	-18.09
186.557	18.77
186.777	2.39
186.997	123.22
187.216	-28.33
187.436	74.07
187.655	53.59
187.875	78.16
188.095	22.87
188.314	61.78
188.534	69.97
188.753	26.96
188.973	63.83
189.192	29.01
189.412	39.25
189.631	12.63
189.851	-20.14
190.07	-7.85
190.29	20.82
190.509	57.68
190.729	8.53
190.948	86.36
191.168	37.2
191.387	94.55
191.607	-13.99
191.826	-24.23
192.045	55.64
192.265	57.68
192.484	57.68
192.704	94.55
192.923	-13.99
193.142	96.6
193.362	35.16
193.581	112.98
193.8	10.58
194.02	37.2
194.239	57.68
194.458	8.53
194.678	49.49
194.897	45.4
195.116	47.44
195.335	37.2
195.555	22.87
195.774	35.16
195.993	65.88
196.212	57.68
196.432	8.53
196.651	29.01
196.87	55.64
197.089	-9.9
197.308	49.49
197.528	14.68
197.747	-36.52
197.966	35.16
198.185	49.49
198.404	4.44
198.623	-18.09
198.842	33.11
199.062	6.49
199.281	59.73
199.5	24.92
199.719	80.21
199.938	-26.28
200.157	57.68
200.376	20.82
200.595	-1.71
200.814	33.11
201.033	8.53
201.252	53.59
201.471	43.35
201.69	2.39
201.909	18.77
202.128	31.06
202.347	0.34
202.566	-48.81
202.785	-24.23
203.004	37.2
203.223	106.84
203.442	45.4
203.661	31.06
203.879	39.25
204.098	63.83
204.317	143.7
204.536	41.3
204.755	29.01
204.974	8.53
205.193	76.12
205.411	43.35
205.63	98.64
205.849	31.06
206.068	18.77
206.287	22.87
206.505	12.63
206.724	-5.8
206.943	31.06
207.162	86.36
207.381	55.64
207.599	82.26
207.818	24.92
208.037	67.92
208.255	-59.05
208.474	72.02
208.693	37.2
208.911	45.4
209.13	20.82
209.349	155.99
209.567	-3.75
209.786	39.25
210.005	63.83
210.223	18.77
210.442	-9.9
210.661	41.3
210.879	65.88
211.098	-5.8
211.316	-26.28
211.535	-34.47
211.753	115.03
211.972	63.83
212.191	43.35
212.409	14.68
212.628	-20.14
212.846	47.44
213.065	8.53
213.283	74.07
213.502	65.88
213.72	96.6
213.938	16.73
214.157	-18.09
214.375	2.39
214.594	39.25
214.812	14.68
215.031	-16.04
215.249	4.44
215.467	-18.09
215.686	-46.76
215.904	53.59
216.122	29.01
216.341	16.73
216.559	24.92
216.778	37.2
216.996	18.77
217.214	88.4
217.432	-11.95
217.651	100.69
217.869	2.39
218.087	31.06
218.306	-16.04
218.524	88.4
218.742	98.64
218.96	57.68
219.179	-18.09
219.397	98.64
219.615	-3.75
219.833	41.3
220.051	18.77
220.27	-18.09
220.488	55.64
220.706	37.2
220.924	18.77
221.142	65.88
221.36	37.2
221.578	24.92
221.796	-36.52
222.015	69.97
222.233	22.87
222.451	45.4
222.669	45.4
222.887	-1.71
223.105	29.01
223.323	41.3
223.541	-18.09
223.759	59.73
223.977	26.96
224.195	115.03
224.413	8.53
224.631	53.59
224.849	49.49
225.067	59.73
225.285	18.77
225.503	49.49
225.721	22.87
225.939	16.73
226.157	106.84
226.375	41.3
226.592	24.92
226.81	24.92
227.028	10.58
227.246	117.08
227.464	37.2
227.682	72.02
227.9	63.83
228.117	12.63
228.335	0.34
228.553	39.25
228.771	47.44
228.989	92.5
229.206	-36.52
229.424	74.07
229.642	65.88
229.86	43.35
230.077	53.59
230.295	18.77
230.513	100.69
230.731	-16.04
230.948	57.68
231.166	37.2
231.384	-5.8
231.601	24.92
231.819	-9.9
232.037	51.54
232.254	-13.99
232.472	86.36
232.689	-1.71
232.907	6.49
233.125	22.87
233.342	-7.85
233.56	26.96
233.777	39.25
233.995	43.35
234.213	41.3
234.43	6.49
234.648	20.82
234.865	49.49
235.083	51.54
235.3	2.39
235.518	6.49
235.735	61.78
235.953	41.3
236.17	33.11
236.388	39.25
236.605	67.92
236.822	29.01
237.04	14.68
237.257	2.39
237.475	-26.28
237.692	31.06
237.909	24.92
238.127	37.2
238.344	35.16
238.562	10.58
238.779	47.44
238.996	63.83
239.214	26.96
239.431	0.34
239.648	29.01
239.865	49.49
240.083	182.61
240.3	26.96
240.517	41.3
240.735	74.07
240.952	45.4
241.169	26.96
241.386	-22.19
241.603	20.82
241.821	31.06
242.038	39.25
242.255	143.7
242.472	104.79
242.689	33.11
242.907	45.4
243.124	-3.75
243.341	41.3
243.558	37.2
243.775	39.25
243.992	12.63
244.209	14.68
244.426	92.5
244.643	24.92
244.86	59.73
245.078	45.4
245.295	84.31
245.512	51.54
245.729	2.39
245.946	63.83
246.163	94.55
246.38	16.73
246.597	35.16
246.814	53.59
247.031	20.82
247.248	0.34
247.464	45.4
247.681	76.12
247.898	-28.33
248.115	31.06
248.332	0.34
248.549	55.64
248.766	-28.33
248.983	72.02
249.2	26.96
249.417	63.83
249.633	2.39
249.85	51.54
250.067	-28.33
250.284	63.83
250.501	16.73
250.717	-3.75
250.934	33.11
251.151	43.35
251.368	63.83
251.585	80.21
251.801	63.83
252.018	-16.04
252.235	45.4
252.451	6.49
252.668	35.16
252.885	53.59
253.102	14.68
253.318	53.59
253.535	65.88
253.752	-16.04
253.968	-1.71
254.185	96.6
254.401	-11.95
254.618	-11.95
254.835	100.69
255.051	86.36
255.268	51.54
255.484	26.96
255.701	-26.28
255.917	125.27
256.134	39.25
256.351	135.51
256.567	29.01
256.784	59.73
257	80.21
257.217	47.44
257.433	72.02
257.65	26.96
257.866	45.4
258.082	51.54
258.299	37.2
258.515	104.79
258.732	-3.75
258.948	29.01
259.165	29.01
259.381	4.44
259.597	47.44
259.814	39.25
260.03	33.11
260.246	65.88
260.463	35.16
260.679	33.11
260.895	90.45
261.112	31.06
261.328	0.34
261.544	49.49
261.761	45.4
261.977	-20.14
262.193	-40.62
262.409	4.44
262.626	43.35
262.842	26.96
263.058	-46.76
263.274	37.2
263.49	72.02
263.707	41.3
263.923	35.16
264.139	12.63
264.355	22.87
264.571	67.92
264.787	12.63
265.004	-5.8
265.22	26.96
265.436	37.2
265.652	67.92
265.868	29.01
266.084	53.59
266.3	-7.85
266.516	80.21
266.732	51.54
266.948	92.5
267.164	14.68
267.38	98.64
267.596	69.97
267.812	74.07
268.028	63.83
268.244	47.44
268.46	39.25
268.676	63.83
268.892	125.27
269.108	18.77
269.324	88.4
269.54	-34.47
269.756	31.06
269.972	-79.53
270.188	88.4
270.403	26.96
270.619	10.58
270.835	88.4
271.051	18.77
271.267	-9.9
271.483	22.87
271.698	100.69
271.914	78.16
272.13	12.63
272.346	61.78
272.562	47.44
272.777	-1.71
272.993	10.58
273.209	69.97
273.425	63.83
273.64	129.36
273.856	72.02
274.072	45.4
274.287	-46.76
274.503	80.21
274.719	-1.71
274.934	47.44
275.15	-52.91
275.366	61.78
275.581	59.73
275.797	2.39
276.012	-11.95
276.228	65.88
276.444	47.44
276.659	41.3
276.875	18.77
277.09	78.16
277.306	51.54
277.521	16.73
277.737	-18.09
277.952	65.88
278.168	-42.67
278.383	100.69
278.599	43.35
278.814	121.17
279.03	106.84
279.245	108.88
279.461	18.77
279.676	88.4
279.892	-50.86
280.107	-59.05
280.322	55.64
280.538	108.88
280.753	65.88
280.969	35.16
281.184	74.07
281.399	22.87
281.615	-7.85
281.83	78.16
282.045	29.01
282.26	22.87
282.476	8.53
282.691	37.2
282.906	51.54
283.122	18.77
283.337	14.68
283.552	-13.99
283.767	67.92
283.983	69.97
284.198	29.01
284.413	96.6
284.628	106.84
284.843	-13.99
285.058	59.73
285.274	8.53
285.489	8.53
285.704	6.49
285.919	-1.71
286.134	53.59
286.349	-9.9
286.564	2.39
286.779	8.53
286.995	55.64
287.21	22.87
287.425	-13.99
287.64	16.73
287.855	24.92
288.07	6.49
288.285	41.3
288.5	45.4
288.715	49.49
288.93	55.64
289.145	84.31
289.36	86.36
289.575	49.49
289.79	-22.19
290.004	39.25
290.219	59.73
290.434	16.73
290.649	65.88
290.864	31.06
291.079	10.58
291.294	-11.95
291.509	67.92
291.724	14.68
291.938	39.25
292.153	39.25
292.368	20.82
292.583	14.68
292.798	6.49
293.012	8.53
293.227	-46.76
293.442	76.12
293.657	-36.52
293.871	53.59
294.086	55.64
294.301	53.59
294.516	-3.75
294.73	59.73
294.945	49.49
295.16	10.58
295.374	82.26
295.589	49.49
295.804	8.53
296.018	8.53
296.233	65.88
296.447	51.54
296.662	18.77
296.877	8.53
297.091	84.31
297.306	22.87
297.52	76.12
297.735	65.88
297.949	59.73
298.164	-36.52
298.378	59.73
298.593	45.4
298.807	59.73
299.022	10.58
299.236	33.11
299.451	51.54
299.665	115.03
299.88	-3.75
300.094	39.25
300.309	-42.67
300.523	39.25
300.737	14.68
300.952	4.44
301.166	55.64
301.381	29.01
301.595	18.77
301.809	6.49
302.024	115.03
302.238	26.96
302.452	45.4
302.667	39.25
302.881	49.49
303.095	88.4
303.309	74.07
303.524	76.12
303.738	4.44
303.952	10.58
304.166	-3.75
304.381	37.2
304.595	8.53
304.809	61.78
305.023	55.64
305.237	49.49
305.452	33.11
305.666	33.11
305.88	31.06
306.094	-13.99
306.308	18.77
306.522	-3.75
306.736	59.73
306.95	12.63
307.164	74.07
307.379	37.2
307.593	96.6
307.807	-13.99
308.021	69.97
308.235	43.35
308.449	12.63
308.663	53.59
308.877	74.07
309.091	39.25
309.305	76.12
309.519	12.63
309.733	55.64
309.947	20.82
310.161	88.4
310.374	-13.99
310.588	84.31
310.802	24.92
311.016	74.07
311.23	84.31
311.444	53.59
311.658	8.53
311.872	84.31
312.085	43.35
312.299	8.53
312.513	104.79
312.727	-1.71
312.941	-18.09
313.154	74.07
313.368	49.49
313.582	-26.28
313.796	135.51
314.009	-67.24
314.223	53.59
314.437	43.35
314.651	-3.75
314.864	49.49
315.078	8.53
315.292	24.92
315.505	33.11
315.719	69.97
315.933	2.39
316.146	90.45
316.36	110.93
316.573	90.45
316.787	16.73
317.001	33.11
317.214	-22.19
317.428	57.68
317.641	39.25
317.855	72.02
318.068	49.49
318.282	35.16
318.495	37.2
318.709	63.83
318.922	41.3
319.136	45.4
319.349	-32.43
319.563	65.88
319.776	-18.09
319.99	35.16
320.203	92.5
320.417	26.96
320.63	-7.85
320.843	29.01
321.057	94.55
321.27	53.59
321.483	22.87
321.697	47.44
321.91	61.78
322.124	29.01
322.337	41.3
322.55	-9.9
322.763	51.54
322.977	-7.85
323.19	96.6
323.403	41.3
323.617	90.45
323.83	29.01
324.043	29.01
324.256	-5.8
324.469	69.97
324.683	-9.9
324.896	29.01
325.109	92.5
325.322	-42.67
325.535	59.73
325.748	10.58
325.962	18.77
326.175	4.44
326.388	57.68
326.601	110.93
326.814	104.79
327.027	-40.62
327.24	94.55
327.453	47.44
327.666	49.49
327.879	123.22
328.092	26.96
328.305	43.35
328.518	100.69
328.731	39.25
328.944	2.39
329.157	10.58
329.37	94.55
329.583	63.83
329.796	69.97
330.009	31.06
330.222	72.02
330.435	65.88
330.648	4.44
330.861	115.03
331.073	-1.71
331.286	72.02
331.499	49.49
331.712	33.11
331.925	51.54
332.138	26.96
332.35	76.12
332.563	26.96
332.776	24.92
332.989	69.97
333.202	67.92
333.414	8.53
333.627	74.07
333.84	31.06
334.053	37.2
334.265	20.82
334.478	16.73
334.691	26.96
334.903	41.3
335.116	96.6
335.329	100.69
335.541	26.96
335.754	82.26
335.966	69.97
336.179	67.92
336.392	41.3
336.604	51.54
336.817	-44.71
337.029	61.78
337.242	108.88
337.454	39.25
337.667	80.21
337.88	35.16
338.092	0.34
338.305	37.2
338.517	18.77
338.729	110.93
338.942	18.77
339.154	16.73
339.367	33.11
339.579	80.21
339.792	39.25
340.004	-42.67
340.217	37.2
340.429	59.73
340.641	72.02
340.854	4.44
341.066	39.25
341.278	33.11
341.491	119.12
341.703	16.73
341.915	6.49
342.128	-16.04
342.34	-1.71
342.552	69.97
342.764	49.49
342.977	-11.95
343.189	63.83
343.401	51.54
343.613	-9.9
343.826	39.25
344.038	49.49
344.25	18.77
344.462	12.63
344.674	57.68
344.886	67.92
345.099	41.3
345.311	12.63
345.523	29.01
345.735	80.21
345.947	76.12
346.159	106.84
346.371	4.44
346.583	-3.75
346.795	33.11
347.007	100.69
347.219	90.45
347.431	-20.14
347.643	-13.99
347.855	63.83
348.067	61.78
348.279	6.49
348.491	29.01
348.703	74.07
348.915	104.79
349.127	-5.8
349.339	51.54
349.551	0.34
349.763	31.06
349.975	-9.9
350.187	8.53
350.399	0.34
350.61	74.07
350.822	47.44
351.034	53.59
351.246	6.49
351.458	96.6
351.669	-7.85
351.881	53.59
352.093	41.3
352.305	37.2
352.517	20.82
352.728	84.31
352.94	10.58
353.152	121.17
353.363	16.73
353.575	65.88
353.787	-5.8
353.999	49.49
354.21	61.78
354.422	-32.43
354.633	92.5
354.845	82.26
355.057	2.39
355.268	94.55
355.48	-9.9
355.692	-28.33
355.903	90.45
356.115	57.68
356.326	-20.14
356.538	67.92
356.749	35.16
356.961	106.84
357.172	24.92
357.384	35.16
357.595	57.68
357.807	31.06
358.018	18.77
358.23	65.88
358.441	80.21
358.653	26.96
358.864	74.07
359.075	51.54
359.287	-32.43
359.498	63.83
359.709	41.3
359.921	65.88
360.132	88.4
360.344	57.68
360.555	-46.76
360.766	67.92
360.977	26.96
361.189	-24.23
361.4	29.01
361.611	98.64
361.823	63.83
362.034	33.11
362.245	112.98
362.456	121.17
362.667	84.31
362.879	10.58
363.09	-26.28
363.301	100.69
363.512	41.3
363.723	92.5
363.935	-22.19
364.146	8.53
364.357	24.92
364.568	119.12
364.779	55.64
364.99	115.03
365.201	76.12
365.412	94.55
365.623	90.45
365.834	78.16
366.045	24.92
366.256	57.68
366.467	59.73
366.678	59.73
366.889	-16.04
367.1	67.92
367.311	53.59
367.522	29.01
367.733	82.26
367.944	59.73
368.155	12.63
368.366	100.69
368.577	18.77
368.788	129.36
368.999	65.88
369.209	29.01
369.42	47.44
369.631	110.93
369.842	2.39
370.053	24.92
370.264	-44.71
370.474	47.44
370.685	47.44
370.896	67.92
371.107	26.96
371.317	63.83
371.528	26.96
371.739	80.21
371.95	80.21
372.16	72.02
372.371	49.49
372.582	84.31
372.792	102.74
373.003	63.83
373.214	80.21
373.424	80.21
373.635	61.78
373.846	43.35
374.056	45.4
374.267	63.83
374.477	53.59
374.688	65.88
374.898	94.55
375.109	98.64
375.319	63.83
375.53	59.73
375.74	26.96
375.951	74.07
376.161	31.06
376.372	63.83
376.582	0.34
376.793	41.3
377.003	-7.85
377.214	108.88
377.424	45.4
377.635	78.16
377.845	43.35
378.055	92.5
378.266	4.44
378.476	20.82
378.686	59.73
378.897	43.35
379.107	31.06
379.317	127.32
379.528	-24.23
379.738	51.54
379.948	31.06
380.158	98.64
380.369	88.4
380.579	35.16
380.789	84.31
380.999	53.59
381.21	-61.1
381.42	22.87
381.63	31.06
381.84	51.54
382.05	72.02
382.261	90.45
382.471	33.11
382.681	57.68
382.891	35.16
383.101	14.68
383.311	61.78
383.521	127.32
383.731	45.4
383.941	74.07
384.151	41.3
384.361	86.36
384.571	74.07
384.781	98.64
384.991	26.96
385.201	-5.8
385.411	51.54
385.621	90.45
385.831	61.78
386.041	45.4
386.251	61.78
386.461	41.3
386.671	33.11
386.881	-48.81
387.091	47.44
387.301	35.16
387.511	16.73
387.72	84.31
387.93	35.16
388.14	47.44
388.35	31.06
388.56	98.64
388.769	76.12
388.979	45.4
389.189	57.68
389.399	55.64
389.609	76.12
389.818	100.69
390.028	6.49
390.238	80.21
390.447	-32.43
390.657	131.41
390.867	90.45
391.076	49.49
391.286	80.21
391.496	96.6
391.705	69.97
391.915	8.53
392.125	104.79
392.334	80.21
392.544	129.36
392.753	53.59
392.963	-5.8
393.172	41.3
393.382	67.92
393.591	78.16
393.801	53.59
394.01	53.59
394.22	135.51
394.429	74.07
394.639	37.2
394.848	110.93
395.058	16.73
395.267	72.02
395.477	84.31
395.686	69.97
395.895	-30.38
396.105	90.45
396.314	69.97
396.524	53.59
396.733	45.4
396.942	84.31
397.152	82.26
397.361	102.74
397.57	129.36
397.78	92.5
397.989	59.73
398.198	117.08
398.407	106.84
398.617	72.02
398.826	51.54
399.035	22.87
399.244	72.02
399.453	61.78
399.663	72.02
399.872	76.12
400.081	59.73
400.29	82.26
400.499	117.08
400.708	65.88
400.917	115.03
401.127	31.06
401.336	125.27
401.545	74.07
401.754	67.92
401.963	104.79
402.172	43.35
402.381	72.02
402.59	55.64
402.799	174.42
403.008	65.88
403.217	90.45
403.426	133.46
403.635	106.84
403.844	80.21
404.053	61.78
404.262	94.55
404.471	151.89
404.68	164.18
404.888	125.27
405.097	127.32
405.306	94.55
405.515	86.36
405.724	84.31
405.933	76.12
406.142	190.8
406.35	117.08
406.559	139.6
406.768	174.42
406.977	102.74
407.185	96.6
407.394	96.6
407.603	164.18
407.812	151.89
408.02	178.51
408.229	149.84
408.438	174.42
408.646	135.51
408.855	168.27
409.064	168.27
409.272	82.26
409.481	209.23
409.69	237.91
409.898	149.84
410.107	201.04
410.315	215.38
410.524	231.76
410.733	233.81
410.941	239.95
411.15	274.77
411.358	254.29
411.567	254.29
411.775	244.05
411.984	231.76
412.192	285.01
412.401	311.63
412.609	340.3
412.818	340.3
413.026	332.11
413.234	336.21
413.443	323.92
413.651	340.3
413.86	364.88
414.068	340.3
414.276	483.66
414.485	436.56
414.693	459.09
414.901	424.27
415.11	479.57
415.318	541.01
415.526	467.28
415.734	459.09
415.943	536.91
416.151	567.63
416.359	592.2
416.567	520.53
416.776	620.88
416.984	692.55
417.192	647.5
417.4	596.3
417.608	612.68
417.817	680.27
418.025	770.38
418.233	770.38
418.441	708.94
418.649	745.8
418.857	794.95
419.065	780.62
419.273	778.57
419.481	930.12
419.689	889.16
419.897	926.02
420.105	962.89
420.313	989.51
420.521	1083.72
420.729	1132.87
420.937	1036.61
421.145	1222.98
421.353	1134.92
421.561	1196.36
421.769	1200.45
421.977	1208.64
422.185	1333.57
422.393	1388.86
422.601	1433.92
422.809	1397.06
423.017	1411.39
423.224	1608
423.432	1534.27
423.64	1644.86
423.848	1737.02
424.056	1642.81
424.263	1800.51
424.471	1806.65
424.679	1913.14
424.887	1962.3
425.094	2015.54
425.302	1972.54
425.51	2146.61
425.718	2148.66
425.925	2185.52
426.133	2345.27
426.341	2339.12
426.548	2439.47
426.756	2486.58
426.964	2560.3
427.171	2765.1
427.379	2681.13
427.586	2763.05
427.794	2865.45
428.001	2957.61
428.209	3154.21
428.417	3035.43
428.624	3201.32
428.832	3361.06
429.039	3244.32
429.247	3090.73
429.454	3725.6
429.662	3784.99
429.869	3504.42
430.076	3899.67
430.284	3819.8
430.491	3879.19
430.699	4292.88
430.906	4026.65
431.114	4112.66
431.321	4327.7
431.528	4339.99
431.736	4587.79
431.943	4823.31
432.15	4661.52
432.358	4851.98
432.565	4940.04
432.772	5058.82
432.979	5267.72
433.187	5363.97
433.394	5488.9
433.601	5818.62
433.808	5705.98
434.016	5558.53
434.223	5918.97
434.43	6383.86
434.637	6273.27
434.844	6758.64
435.052	6631.66
435.259	6824.17
435.466	6822.13
435.673	6715.63
435.88	7198.95
436.087	7467.24
436.294	7465.19
436.501	7377.12
436.708	7618.79
436.915	7717.09
437.122	8155.35
437.329	8159.45
437.537	8169.69
437.743	8556.75
437.95	8190.17
438.157	8874.19
438.364	9165
438.571	9013.45
438.778	9193.67
438.985	10172.6
439.192	9701.57
439.399	9949.37
439.606	9957.57
439.813	10148.03
440.02	10860.72
440.227	10715.31
440.433	10410.17
440.64	10979.5
440.847	11079.85
441.054	10987.69
441.261	11835.55
441.467	11542.69
441.674	12007.58
441.881	12349.59
442.088	12538.01
442.294	12392.6
442.501	12763.28
442.708	12746.9
442.914	13174.92
443.121	14020.74
443.328	13631.62
443.534	14399.61
443.741	13967.49
443.948	13605
444.154	15122.54
444.361	14798.96
444.568	14862.45
444.774	14760.05
444.981	15153.26
445.187	15327.34
445.394	16310.36
445.6	15818.85
445.807	17399.88
446.013	16797.78
446.22	16982.1
446.426	17723.46
446.633	17496.14
446.839	18477.12
447.046	17727.56
447.252	18837.56
447.459	18423.87
447.665	18483.26
447.871	19404.85
448.078	20203.55
448.284	19038.26
448.491	19814.44
448.697	20355.1
448.903	20783.13
449.11	20924.44
449.316	20338.72
449.522	20848.66
449.728	21413.9
449.935	21725.19
450.141	21600.27
450.347	21927.94
450.553	21235.73
450.76	21493.77
450.966	22249.47
451.172	21557.26
451.378	22290.43
451.584	22335.49
451.791	22669.31
451.997	22290.43
452.203	22730.75
452.409	22927.35
452.615	22624.25
452.821	21886.98
453.027	21469.2
453.233	22523.9
453.44	21678.09
453.646	22147.08
453.852	21954.57
454.058	22333.44
454.264	21714.95
454.47	22171.65
454.676	21504.01
454.882	22110.21
455.088	20527.13
455.294	20770.84
455.5	20768.79
455.705	20824.09
455.911	19888.17
456.117	19863.59
456.323	19585.07
456.529	18389.05
456.735	19198
456.941	18741.3
457.147	18200.64
457.352	17625.16
457.558	17535.05
457.764	17954.88
457.97	17158.22
458.176	16851.03
458.381	16848.98
458.587	15851.62
458.793	15986.79
458.999	15245.42
459.204	16353.37
459.41	15636.58
459.616	14598.26
459.821	14811.25
460.027	14821.49
460.233	14385.27
460.438	13885.57
460.644	13744.26
460.85	13273.23
461.055	13002.89
461.261	13029.52
461.466	12329.11
461.672	11761.83
461.878	12527.77
462.083	11923.62
462.289	11505.83
462.494	11350.18
462.7	10821.81
462.905	10688.69
463.111	11088.04
463.316	11188.39
463.522	10725.55
463.727	10873.01
463.932	10811.57
464.138	10721.46
464.343	10606.77
464.549	10258.62
464.754	10713.27
464.959	10535.09
465.165	10696.88
465.37	10201.27
465.575	9902.27
465.781	10352.82
465.986	10268.86
466.191	10053.82
466.397	9836.74
466.602	9418.95
466.807	9787.58
467.012	9832.64
467.218	9625.79
467.423	9611.46
467.628	9633.99
467.833	9914.56
468.038	9640.13
468.244	9412.81
468.449	9722.05
468.654	9281.74
468.859	9259.21
469.064	9320.65
469.269	9033.93
469.474	8859.85
