Data from USB4F104151__75__13-54-07-733.txt Node

Date: Thu Mar 13 13:54:07 EDT 2025
User: louis
Spectrometer: USB4F10415
Trigger mode: 4
Integration Time (sec): 1.000000E-2
Scans to average: 1
Electric dark correction enabled: true
Nonlinearity correction enabled: false
Boxcar width: 0
XAxis mode: Wavelengths
Number of Pixels in Spectrum: 3648
>>>>>Begin Spectral Data<<<<<
178.204	-26.96
178.424	-26.96
178.644	-26.96
178.864	-63.83
179.084	11.95
179.304	-20.82
179.524	-31.06
179.744	-4.44
179.964	-37.2
180.184	-8.53
180.404	26.28
180.624	22.19
180.844	-18.77
181.064	36.52
181.283	-24.92
181.503	46.76
181.723	13.99
181.943	-12.63
182.163	32.43
182.383	38.57
182.602	40.62
182.822	63.15
183.042	97.96
183.262	9.9
183.482	34.47
183.701	9.9
183.921	9.9
184.141	-4.44
184.361	54.95
184.58	-6.49
184.8	-37.2
185.02	-6.49
185.239	22.19
185.459	73.39
185.679	71.34
185.898	-43.35
186.118	52.91
186.338	38.57
186.557	69.29
186.777	-35.16
186.997	5.8
187.216	22.19
187.436	73.39
187.655	28.33
187.875	9.9
188.095	-10.58
188.314	16.04
188.534	-29.01
188.753	134.82
188.973	-22.87
189.192	20.14
189.412	7.85
189.631	52.91
189.851	-57.68
190.07	-18.77
190.29	-6.49
190.509	89.77
190.729	24.23
190.948	52.91
191.168	9.9
191.387	26.28
191.607	-14.68
191.826	22.19
192.045	-10.58
192.265	24.23
192.484	38.57
192.704	106.15
192.923	32.43
193.142	44.71
193.362	40.62
193.581	-6.49
193.8	-86.36
194.02	-80.21
194.239	40.62
194.458	11.95
194.678	18.09
194.897	5.8
195.116	50.86
195.335	9.9
195.555	-0.34
195.774	57
195.993	-12.63
196.212	3.75
196.432	7.85
196.651	85.67
196.87	42.67
197.089	63.15
197.308	22.19
197.528	-14.68
197.747	54.95
197.966	-4.44
198.185	30.38
198.404	108.2
198.623	-33.11
198.842	79.53
199.062	18.09
199.281	18.09
199.5	22.19
199.719	1.71
199.938	13.99
200.157	52.91
200.376	79.53
200.595	61.1
200.814	-10.58
201.033	-0.34
201.252	-0.34
201.471	34.47
201.69	104.11
201.909	11.95
202.128	24.23
202.347	75.43
202.566	3.75
202.785	-6.49
203.004	38.57
203.223	13.99
203.442	-6.49
203.661	-31.06
203.879	30.38
204.098	7.85
204.317	-20.82
204.536	24.23
204.755	-16.73
204.974	18.09
205.193	3.75
205.411	28.33
205.63	1.71
205.849	5.8
206.068	59.05
206.287	5.8
206.505	13.99
206.724	7.85
206.943	-33.11
207.162	13.99
207.381	61.1
207.599	9.9
207.818	30.38
208.037	42.67
208.255	22.19
208.474	16.04
208.693	46.76
208.911	-45.4
209.13	-2.39
209.349	1.71
209.567	28.33
209.786	5.8
210.005	32.43
210.223	-26.96
210.442	40.62
210.661	50.86
210.879	-47.44
211.098	-43.35
211.316	34.47
211.535	-18.77
211.753	-10.58
211.972	89.77
212.191	-24.92
212.409	-12.63
212.628	26.28
212.846	-31.06
213.065	-63.83
213.283	81.58
213.502	34.47
213.72	16.04
213.938	-35.16
214.157	32.43
214.375	63.15
214.594	26.28
214.812	40.62
215.031	54.95
215.249	-35.16
215.467	69.29
215.686	-6.49
215.904	18.09
216.122	30.38
216.341	-61.78
216.559	81.58
216.778	52.91
216.996	1.71
217.214	3.75
217.432	5.8
217.651	13.99
217.869	73.39
218.087	36.52
218.306	9.9
218.524	28.33
218.742	-26.96
218.96	54.95
219.179	3.75
219.397	48.81
219.615	67.24
219.833	-55.64
220.051	-51.54
220.27	85.67
220.488	3.75
220.706	50.86
220.924	-51.54
221.142	48.81
221.36	38.57
221.578	44.71
221.796	-24.92
222.015	46.76
222.233	36.52
222.451	34.47
222.669	-16.73
222.887	7.85
223.105	20.14
223.323	26.28
223.541	-0.34
223.759	100.01
223.977	16.04
224.195	-47.44
224.413	-41.3
224.631	-33.11
224.849	-43.35
225.067	28.33
225.285	-14.68
225.503	73.39
225.721	-69.97
225.939	9.9
226.157	28.33
226.375	104.11
226.592	3.75
226.81	9.9
227.028	24.23
227.246	52.91
227.464	57
227.682	59.05
227.9	-4.44
228.117	-12.63
228.335	42.67
228.553	108.2
228.771	40.62
228.989	3.75
229.206	-4.44
229.424	-10.58
229.642	50.86
229.86	77.48
230.077	-18.77
230.295	63.15
230.513	5.8
230.731	81.58
230.948	-2.39
231.166	46.76
231.384	-10.58
231.601	36.52
231.819	20.14
232.037	40.62
232.254	18.09
232.472	-6.49
232.689	-10.58
232.907	46.76
233.125	59.05
233.342	38.57
233.56	52.91
233.777	34.47
233.995	28.33
234.213	22.19
234.43	48.81
234.648	32.43
234.865	91.82
235.083	-31.06
235.3	-31.06
235.518	42.67
235.735	40.62
235.953	100.01
236.17	57
236.388	50.86
236.605	71.34
236.822	24.23
237.04	-8.53
237.257	16.04
237.475	67.24
237.692	-55.64
237.909	28.33
238.127	16.04
238.344	50.86
238.562	44.71
238.779	-61.78
238.996	18.09
239.214	50.86
239.431	50.86
239.648	24.23
239.865	61.1
240.083	-33.11
240.3	48.81
240.517	-12.63
240.735	24.23
240.952	16.04
241.169	44.71
241.386	16.04
241.603	30.38
241.821	-20.82
242.038	-29.01
242.255	13.99
242.472	22.19
242.689	79.53
242.907	20.14
243.124	-2.39
243.341	22.19
243.558	-45.4
243.775	-4.44
243.992	-76.12
244.209	67.24
244.426	81.58
244.643	-33.11
244.86	11.95
245.078	-37.2
245.295	32.43
245.512	3.75
245.729	32.43
245.946	-14.68
246.163	20.14
246.38	-10.58
246.597	124.58
246.814	81.58
247.031	-43.35
247.248	-14.68
247.464	5.8
247.681	61.1
247.898	30.38
248.115	3.75
248.332	30.38
248.549	75.43
248.766	16.04
248.983	67.24
249.2	-37.2
249.417	-41.3
249.633	93.87
249.85	57
250.067	-20.82
250.284	18.09
250.501	-31.06
250.717	-2.39
250.934	30.38
251.151	44.71
251.368	-74.07
251.585	7.85
251.801	-0.34
252.018	52.91
252.235	52.91
252.451	32.43
252.668	22.19
252.885	-39.25
253.102	28.33
253.318	9.9
253.535	-12.63
253.752	77.48
253.968	9.9
254.185	-53.59
254.401	57
254.618	11.95
254.835	38.57
255.051	11.95
255.268	-12.63
255.484	-14.68
255.701	24.23
255.917	63.15
256.134	32.43
256.351	34.47
256.567	11.95
256.784	63.15
257	63.15
257.217	-35.16
257.433	5.8
257.65	46.76
257.866	-0.34
258.082	-41.3
258.299	18.09
258.515	116.39
258.732	13.99
258.948	34.47
259.165	108.2
259.381	-12.63
259.597	54.95
259.814	-26.96
260.03	16.04
260.246	-10.58
260.463	65.19
260.679	-45.4
260.895	-22.87
261.112	-18.77
261.328	22.19
261.544	67.24
261.761	-22.87
261.977	3.75
262.193	-20.82
262.409	5.8
262.626	11.95
262.842	52.91
263.058	32.43
263.274	5.8
263.49	-45.4
263.707	3.75
263.923	9.9
264.139	-0.34
264.355	-20.82
264.571	32.43
264.787	65.19
265.004	13.99
265.22	-22.87
265.436	40.62
265.652	44.71
265.868	-22.87
266.084	-4.44
266.3	-47.44
266.516	-2.39
266.732	-39.25
266.948	-20.82
267.164	52.91
267.38	-6.49
267.596	97.96
267.812	42.67
268.028	54.95
268.244	-72.02
268.46	32.43
268.676	-29.01
268.892	-4.44
269.108	3.75
269.324	-22.87
269.54	52.91
269.756	38.57
269.972	1.71
270.188	79.53
270.403	-4.44
270.619	59.05
270.835	65.19
271.051	59.05
271.267	20.14
271.483	7.85
271.698	73.39
271.914	40.62
272.13	-0.34
272.346	20.14
272.562	5.8
272.777	-14.68
272.993	-43.35
273.209	65.19
273.425	71.34
273.64	97.96
273.856	116.39
274.072	-51.54
274.287	24.23
274.503	38.57
274.719	-20.82
274.934	108.2
275.15	22.19
275.366	44.71
275.581	-18.77
275.797	54.95
276.012	5.8
276.228	28.33
276.444	79.53
276.659	30.38
276.875	36.52
277.09	-4.44
277.306	-8.53
277.521	-22.87
277.737	-0.34
277.952	-8.53
278.168	-16.73
278.383	73.39
278.599	3.75
278.814	50.86
279.03	-33.11
279.245	61.1
279.461	1.71
279.676	24.23
279.892	59.05
280.107	-16.73
280.322	-8.53
280.538	18.09
280.753	52.91
280.969	71.34
281.184	13.99
281.399	40.62
281.615	3.75
281.83	1.71
282.045	-22.87
282.26	36.52
282.476	61.1
282.691	-35.16
282.906	34.47
283.122	108.2
283.337	57
283.552	28.33
283.767	-24.92
283.983	-22.87
284.198	24.23
284.413	34.47
284.628	-33.11
284.843	20.14
285.058	26.28
285.274	3.75
285.489	-12.63
285.704	-4.44
285.919	28.33
286.134	89.77
286.349	20.14
286.564	18.09
286.779	50.86
286.995	69.29
287.21	77.48
287.425	7.85
287.64	44.71
287.855	9.9
288.07	22.19
288.285	38.57
288.5	16.04
288.715	75.43
288.93	-12.63
289.145	16.04
289.36	-6.49
289.575	5.8
289.79	-10.58
290.004	69.29
290.219	42.67
290.434	16.04
290.649	77.48
290.864	40.62
291.079	-39.25
291.294	59.05
291.509	-6.49
291.724	-45.4
291.938	61.1
292.153	69.29
292.368	-31.06
292.583	32.43
292.798	59.05
293.012	46.76
293.227	5.8
293.442	57
293.657	-10.58
293.871	18.09
294.086	57
294.301	85.67
294.516	-4.44
294.73	48.81
294.945	38.57
295.16	13.99
295.374	54.95
295.589	65.19
295.804	-41.3
296.018	5.8
296.233	-41.3
296.447	13.99
296.662	-26.96
296.877	91.82
297.091	24.23
297.306	-26.96
297.52	22.19
297.735	32.43
297.949	40.62
298.164	16.04
298.378	9.9
298.593	34.47
298.807	24.23
299.022	26.28
299.236	7.85
299.451	-29.01
299.665	5.8
299.88	18.09
300.094	40.62
300.309	83.63
300.523	42.67
300.737	50.86
300.952	16.04
301.166	75.43
301.381	13.99
301.595	112.3
301.809	48.81
302.024	-6.49
302.238	46.76
302.452	18.09
302.667	44.71
302.881	46.76
303.095	38.57
303.309	22.19
303.524	22.19
303.738	3.75
303.952	13.99
304.166	48.81
304.381	22.19
304.595	61.1
304.809	5.8
305.023	38.57
305.237	28.33
305.452	16.04
305.666	-14.68
305.88	22.19
306.094	11.95
306.308	67.24
306.522	20.14
306.736	57
306.95	44.71
307.164	87.72
307.379	24.23
307.593	-72.02
307.807	38.57
308.021	28.33
308.235	-4.44
308.449	-14.68
308.663	-29.01
308.877	1.71
309.091	-16.73
309.305	44.71
309.519	30.38
309.733	57
309.947	71.34
310.161	57
310.374	13.99
310.588	20.14
310.802	77.48
311.016	-14.68
311.23	-24.92
311.444	-0.34
311.658	3.75
311.872	69.29
312.085	-20.82
312.299	-2.39
312.513	5.8
312.727	-0.34
312.941	9.9
313.154	114.34
313.368	22.19
313.582	7.85
313.796	18.09
314.009	-20.82
314.223	9.9
314.437	-10.58
314.651	-2.39
314.864	-43.35
315.078	100.01
315.292	73.39
315.505	-4.44
315.719	-4.44
315.933	30.38
316.146	30.38
316.36	5.8
316.573	61.1
316.787	3.75
317.001	77.48
317.214	36.52
317.428	52.91
317.641	-53.59
317.855	18.09
318.068	16.04
318.282	44.71
318.495	30.38
318.709	138.92
318.922	-26.96
319.136	91.82
319.349	20.14
319.563	67.24
319.776	-31.06
319.99	44.71
320.203	9.9
320.417	16.04
320.63	-16.73
320.843	11.95
321.057	89.77
321.27	-0.34
321.483	-4.44
321.697	-8.53
321.91	40.62
322.124	42.67
322.337	30.38
322.55	16.04
322.763	18.09
322.977	-18.77
323.19	-33.11
323.403	24.23
323.617	89.77
323.83	46.76
324.043	16.04
324.256	13.99
324.469	-0.34
324.683	46.76
324.896	-0.34
325.109	9.9
325.322	11.95
325.535	11.95
325.748	50.86
325.962	22.19
326.175	-37.2
326.388	30.38
326.601	69.29
326.814	38.57
327.027	32.43
327.24	18.09
327.453	-12.63
327.666	-24.92
327.879	5.8
328.092	67.24
328.305	-12.63
328.518	32.43
328.731	36.52
328.944	40.62
329.157	-0.34
329.37	40.62
329.583	65.19
329.796	44.71
330.009	11.95
330.222	44.71
330.435	50.86
330.648	28.33
330.861	42.67
331.073	-22.87
331.286	52.91
331.499	-49.49
331.712	18.09
331.925	20.14
332.138	32.43
332.35	69.29
332.563	87.72
332.776	-4.44
332.989	-16.73
333.202	36.52
333.414	34.47
333.627	75.43
333.84	-35.16
334.053	42.67
334.265	30.38
334.478	50.86
334.691	59.05
334.903	30.38
335.116	1.71
335.329	65.19
335.541	73.39
335.754	24.23
335.966	65.19
336.179	73.39
336.392	83.63
336.604	52.91
336.817	83.63
337.029	20.14
337.242	7.85
337.454	-29.01
337.667	-39.25
337.88	-29.01
338.092	13.99
338.305	-12.63
338.517	28.33
338.729	11.95
338.942	57
339.154	44.71
339.367	-0.34
339.579	5.8
339.792	54.95
340.004	143.02
340.217	-26.96
340.429	75.43
340.641	1.71
340.854	32.43
341.066	-10.58
341.278	1.71
341.491	97.96
341.703	-4.44
341.915	-0.34
342.128	-53.59
342.34	-12.63
342.552	59.05
342.764	40.62
342.977	38.57
343.189	-24.92
343.401	54.95
343.613	20.14
343.826	36.52
344.038	22.19
344.25	-31.06
344.462	13.99
344.674	1.71
344.886	65.19
345.099	-4.44
345.311	24.23
345.523	50.86
345.735	77.48
345.947	-22.87
346.159	28.33
346.371	7.85
346.583	18.09
346.795	63.15
347.007	71.34
347.219	-18.77
347.431	-18.77
347.643	-20.82
347.855	-2.39
348.067	32.43
348.279	-4.44
348.491	48.81
348.703	40.62
348.915	71.34
349.127	7.85
349.339	-4.44
349.551	1.71
349.763	57
349.975	-24.92
350.187	50.86
350.399	1.71
350.61	34.47
350.822	32.43
351.034	79.53
351.246	-16.73
351.458	26.28
351.669	30.38
351.881	9.9
352.093	-2.39
352.305	18.09
352.517	16.04
352.728	83.63
352.94	-24.92
353.152	71.34
353.363	-22.87
353.575	20.14
353.787	16.04
353.999	36.52
354.21	-26.96
354.422	59.05
354.633	52.91
354.845	-12.63
355.057	-8.53
355.268	46.76
355.48	110.25
355.692	20.14
355.903	32.43
356.115	44.71
356.326	48.81
356.538	61.1
356.749	-6.49
356.961	5.8
357.172	42.67
357.384	106.15
357.595	46.76
357.807	32.43
358.018	67.24
358.23	61.1
358.441	-4.44
358.653	28.33
358.864	13.99
359.075	26.28
359.287	-10.58
359.498	18.09
359.709	32.43
359.921	34.47
360.132	28.33
360.344	18.09
360.555	28.33
360.766	36.52
360.977	-0.34
361.189	77.48
361.4	-41.3
361.611	-4.44
361.823	26.28
362.034	52.91
362.245	-12.63
362.456	22.19
362.667	28.33
362.879	118.44
363.09	59.05
363.301	-10.58
363.512	61.1
363.723	34.47
363.935	3.75
364.146	11.95
364.357	22.19
364.568	97.96
364.779	-26.96
364.99	13.99
365.201	18.09
365.412	-14.68
365.623	73.39
365.834	-18.77
366.045	40.62
366.256	61.1
366.467	-20.82
366.678	44.71
366.889	18.09
367.1	85.67
367.311	28.33
367.522	87.72
367.733	54.95
367.944	77.48
368.155	-24.92
368.366	100.01
368.577	-22.87
368.788	42.67
368.999	48.81
369.209	13.99
369.42	22.19
369.631	73.39
369.842	91.82
370.053	-72.02
370.264	-24.92
370.474	-26.96
370.685	34.47
370.896	75.43
371.107	44.71
371.317	-16.73
371.528	-31.06
371.739	1.71
371.95	95.91
372.16	57
372.371	-20.82
372.582	-18.77
372.792	24.23
373.003	106.15
373.214	54.95
373.424	38.57
373.635	11.95
373.846	44.71
374.056	28.33
374.267	42.67
374.477	30.38
374.688	89.77
374.898	-8.53
375.109	11.95
375.319	7.85
375.53	108.2
375.74	79.53
375.951	34.47
376.161	26.28
376.372	50.86
376.582	30.38
376.793	-14.68
377.003	7.85
377.214	61.1
377.424	57
377.635	65.19
377.845	59.05
378.055	13.99
378.266	13.99
378.476	-26.96
378.686	26.28
378.897	65.19
379.107	24.23
379.317	-29.01
379.528	18.09
379.738	52.91
379.948	-12.63
380.158	3.75
380.369	5.8
380.579	44.71
380.789	22.19
380.999	89.77
381.21	42.67
381.42	13.99
381.63	-18.77
381.84	-4.44
382.05	22.19
382.261	1.71
382.471	81.58
382.681	50.86
382.891	46.76
383.101	48.81
383.311	-20.82
383.521	69.29
383.731	57
383.941	28.33
384.151	57
384.361	108.2
384.571	7.85
384.781	-16.73
384.991	9.9
385.201	46.76
385.411	61.1
385.621	61.1
385.831	22.19
386.041	40.62
386.251	91.82
386.461	61.1
386.671	-29.01
386.881	-0.34
387.091	22.19
387.301	-14.68
387.511	9.9
387.72	52.91
387.93	71.34
388.14	-37.2
388.35	67.24
388.56	20.14
388.769	1.71
388.979	50.86
389.189	69.29
389.399	38.57
389.609	-10.58
389.818	44.71
390.028	59.05
390.238	13.99
390.447	-22.87
390.657	65.19
390.867	50.86
391.076	-26.96
391.286	95.91
391.496	36.52
391.705	30.38
391.915	34.47
392.125	57
392.334	-24.92
392.544	38.57
392.753	28.33
392.963	54.95
393.172	-18.77
393.382	52.91
393.591	69.29
393.801	18.09
394.01	79.53
394.22	57
394.429	57
394.639	44.71
394.848	102.06
395.058	20.14
395.267	13.99
395.477	20.14
395.686	26.28
395.895	44.71
396.105	79.53
396.314	5.8
396.524	61.1
396.733	-8.53
396.942	63.15
397.152	83.63
397.361	89.77
397.57	69.29
397.78	102.06
397.989	28.33
398.198	112.3
398.407	116.39
398.617	136.87
398.826	67.24
399.035	32.43
399.244	89.77
399.453	-0.34
399.663	36.52
399.872	100.01
400.081	65.19
400.29	75.43
400.499	38.57
400.708	108.2
400.917	114.34
401.127	192.17
401.336	52.91
401.545	79.53
401.754	11.95
401.963	65.19
402.172	108.2
402.381	112.3
402.59	77.48
402.799	40.62
403.008	87.72
403.217	114.34
403.426	136.87
403.635	108.2
403.844	126.63
404.053	59.05
404.262	67.24
404.471	106.15
404.68	118.44
404.888	136.87
405.097	161.45
405.306	77.48
405.515	22.19
405.724	130.73
405.933	40.62
406.142	108.2
406.35	112.3
406.559	16.04
406.768	153.26
406.977	108.2
407.185	106.15
407.394	153.26
407.603	161.45
407.812	110.25
408.02	83.63
408.229	149.16
408.438	153.26
408.646	165.54
408.855	192.17
409.064	177.83
409.272	132.78
409.481	237.22
409.69	75.43
409.898	208.55
410.107	192.17
410.315	267.94
410.524	198.31
410.733	194.22
410.941	216.74
411.15	284.33
411.358	224.94
411.567	224.94
411.775	302.76
411.984	235.18
412.192	196.26
412.401	313
412.609	317.09
412.818	282.28
413.026	370.34
413.234	274.09
413.443	247.46
413.651	298.66
413.86	407.2
414.068	364.2
414.276	368.29
414.485	358.05
414.693	401.06
414.901	360.1
415.11	480.93
415.318	482.98
415.526	458.4
415.734	399.01
415.943	530.08
416.151	564.9
416.359	509.6
416.567	552.61
416.776	497.32
416.984	560.8
417.192	585.38
417.4	636.58
417.608	597.67
417.817	605.86
418.025	741.02
418.233	657.06
418.441	765.6
418.649	736.93
418.857	698.02
419.065	755.36
419.273	736.93
419.481	880.29
419.689	923.29
419.897	902.81
420.105	1001.12
420.313	1009.31
420.521	974.49
420.729	1042.07
420.937	1068.7
421.145	1162.9
421.353	1164.95
421.561	1156.76
421.769	1308.31
421.977	1277.59
422.185	1212.06
422.393	1298.07
422.601	1447.57
422.809	1486.48
423.017	1500.82
423.224	1506.96
423.432	1582.74
423.64	1519.25
423.848	1683.09
424.056	1609.36
424.263	1855.12
424.471	1783.44
424.679	1760.91
424.887	1896.08
425.094	1928.85
425.302	2014.86
425.51	1982.09
425.718	2172.55
425.925	2219.66
426.133	2213.51
426.341	2326.15
426.548	2406.02
426.756	2324.1
426.964	2565.76
427.171	2485.89
427.379	2827.9
427.586	2709.12
427.794	2772.61
428.001	2936.45
428.209	3032.7
428.417	3071.61
428.624	3085.95
428.832	3206.78
429.039	3204.73
429.247	3096.19
429.454	3591.8
429.662	3810.93
429.869	3503.73
430.076	3698.29
430.284	3501.69
430.491	3739.25
430.699	3966.57
430.906	4017.77
431.114	4040.3
431.321	4263.53
431.528	4279.91
431.736	4562.53
431.943	4851.3
432.15	4662.88
432.358	4771.43
432.565	4965.98
432.772	4974.17
432.979	5344.86
433.187	5291.61
433.394	5316.19
433.601	5662.29
433.808	5674.58
434.016	5731.92
434.223	5918.29
434.43	6213.2
434.637	6094.41
434.844	6532.68
435.052	6702.66
435.259	6604.36
435.466	6604.36
435.673	6575.69
435.88	6790.72
436.087	7351.87
436.294	7257.66
436.501	7183.93
436.708	7259.71
436.915	7544.38
437.122	7859.76
437.329	7769.65
437.537	8314.41
437.743	8089.14
437.95	8093.23
438.157	8672.81
438.364	8857.12
438.571	8724.01
438.778	9160.22
438.985	9754.13
439.192	9582.1
439.399	9825.81
439.606	9483.8
439.813	9995.79
440.02	10591.75
440.227	10487.31
440.433	10366.48
440.64	10759.69
440.847	10415.63
441.054	10913.28
441.261	11517.43
441.467	11441.66
441.674	11578.87
441.881	12344.81
442.088	12023.28
442.294	12115.44
442.501	12254.7
442.708	12660.2
442.914	13069.8
443.121	13706.71
443.328	13387.23
443.534	14106.07
443.741	13854.17
443.948	13626.84
444.154	14812.62
444.361	14554.57
444.568	14673.35
444.774	14378.45
444.981	14728.65
445.187	15326.66
445.394	15674.81
445.6	15560.13
445.807	17157.54
446.013	16426.42
446.22	16704.94
446.426	17360.29
446.633	17515.94
446.839	18095.51
447.046	17499.55
447.252	18199.96
447.459	18300.31
447.665	18234.77
447.871	19084.68
448.078	19762.56
448.284	19062.15
448.491	19289.48
448.697	20139.38
448.903	20354.42
449.11	20518.26
449.316	20206.97
449.522	20868.46
449.728	21171.56
449.935	21005.67
450.141	21314.92
450.347	21372.26
450.553	21149.03
450.76	21521.76
450.966	22271.32
451.172	21423.46
451.378	22082.91
451.584	21884.25
451.791	22183.26
451.997	22250.84
452.203	22707.54
452.409	22537.55
452.615	22517.08
452.821	21364.07
453.027	21276.01
453.233	22472.02
453.44	21441.89
453.646	22021.47
453.852	22017.37
454.058	22336.85
454.264	21552.48
454.47	22121.82
454.676	21409.12
454.882	22074.71
455.088	20417.91
455.294	20471.15
455.5	20702.57
455.705	21198.18
455.911	20225.4
456.117	19621.25
456.323	19449.22
456.529	18605.45
456.735	19400.07
456.941	18806.16
457.147	18488.72
457.352	17651.1
457.558	17728.92
457.764	17589.66
457.97	17335.71
458.176	16848.3
458.381	16946.6
458.587	16074.17
458.793	16297.39
458.999	15175.11
459.204	16272.82
459.41	15760.83
459.616	14573
459.821	14761.42
460.027	14636.49
460.233	14325.2
460.438	13882.84
460.644	14048.72
460.85	13180.39
461.055	13141.47
461.261	13020.64
461.466	12000.76
461.672	11984.37
461.878	12574.19
462.083	11693.56
462.289	11511.29
462.494	11380.22
462.7	10718.73
462.905	10618.38
463.111	11066.88
463.316	11144.7
463.522	10780.17
463.727	10810.89
463.932	10704.39
464.138	10855.94
464.343	10954.24
464.549	10479.11
464.754	10831.37
464.959	10792.45
465.165	10743.3
465.37	10208.78
465.575	9862.68
465.781	10446.35
465.986	10429.96
466.191	9907.73
466.397	9844.24
466.602	9510.43
466.807	9680.41
467.012	9758.23
467.218	9713.17
467.423	9412.12
467.628	9723.41
467.833	9938.45
468.038	9723.41
468.244	9436.7
468.449	9657.88
468.654	9563.67
468.859	9354.78
469.064	9274.91
