Data from USB4F104151__15__13-52-21-844.txt Node

Date: Thu Mar 13 13:52:21 EDT 2025
User: louis
Spectrometer: USB4F10415
Trigger mode: 4
Integration Time (sec): 1.000000E-2
Scans to average: 1
Electric dark correction enabled: true
Nonlinearity correction enabled: false
Boxcar width: 0
XAxis mode: Wavelengths
Number of Pixels in Spectrum: 3648
>>>>>Begin Spectral Data<<<<<
178.204	-34.64
178.424	-34.64
178.644	-34.64
178.864	-53.08
179.084	-71.51
179.304	-8.02
179.524	-5.97
179.744	0.17
179.964	82.09
180.184	-26.45
180.404	-5.97
180.624	84.14
180.844	-53.08
181.064	-22.36
181.283	10.41
181.503	-38.74
181.723	-16.21
181.943	-44.88
182.163	37.03
182.383	28.84
182.602	0.17
182.822	16.55
183.042	4.27
183.262	-3.93
183.482	73.9
183.701	75.95
183.921	43.18
184.141	12.46
184.361	75.95
184.58	-28.5
184.8	2.22
185.02	-8.02
185.239	-5.97
185.459	24.75
185.679	67.75
185.898	0.17
186.118	37.03
186.338	-34.64
186.557	26.79
186.777	-12.12
186.997	-22.36
187.216	24.75
187.436	47.27
187.655	-1.88
187.875	69.8
188.095	-20.31
188.314	43.18
188.534	6.31
188.753	20.65
188.973	37.03
189.192	12.46
189.412	6.31
189.631	22.7
189.851	-26.45
190.07	45.23
190.29	22.7
190.509	-55.12
190.729	8.36
190.948	-3.93
191.168	51.37
191.387	32.94
191.607	39.08
191.826	32.94
192.045	-34.64
192.265	18.6
192.484	39.08
192.704	26.79
192.923	32.94
193.142	41.13
193.362	45.23
193.581	71.85
193.8	-20.31
194.02	37.03
194.239	-14.17
194.458	71.85
194.678	-10.07
194.897	41.13
195.116	59.56
195.335	53.42
195.555	41.13
195.774	-18.26
195.993	-10.07
196.212	-8.02
196.432	-26.45
196.651	0.17
196.87	-32.6
197.089	71.85
197.308	49.32
197.528	30.89
197.747	-28.5
197.966	-26.45
198.185	12.46
198.404	12.46
198.623	28.84
198.842	-5.97
199.062	18.6
199.281	28.84
199.5	2.22
199.719	6.31
199.938	6.31
200.157	4.27
200.376	-20.31
200.595	37.03
200.814	45.23
201.033	30.89
201.252	41.13
201.471	-5.97
201.69	-91.99
201.909	12.46
202.128	-14.17
202.347	77.99
202.566	-14.17
202.785	-5.97
203.004	-20.31
203.223	8.36
203.442	18.6
203.661	32.94
203.879	24.75
204.098	-1.88
204.317	28.84
204.536	0.17
204.755	-10.07
204.974	73.9
205.193	61.61
205.411	-10.07
205.63	18.6
205.849	-14.17
206.068	47.27
206.287	-46.93
206.505	61.61
206.724	2.22
206.943	28.84
207.162	53.42
207.381	-1.88
207.599	32.94
207.818	-18.26
208.037	-1.88
208.255	129.19
208.474	-42.84
208.693	18.6
208.911	22.7
209.13	20.65
209.349	43.18
209.567	55.47
209.786	14.51
210.005	24.75
210.223	57.51
210.442	94.38
210.661	57.51
210.879	28.84
211.098	47.27
211.316	47.27
211.535	55.47
211.753	6.31
211.972	20.65
212.191	16.55
212.409	-28.5
212.628	20.65
212.846	-20.31
213.065	49.32
213.283	37.03
213.502	43.18
213.72	-32.6
213.938	-16.21
214.157	41.13
214.375	-5.97
214.594	-42.84
214.812	59.56
215.031	57.51
215.249	8.36
215.467	6.31
215.686	-8.02
215.904	71.85
216.122	-18.26
216.341	0.17
216.559	-40.79
216.778	12.46
216.996	39.08
217.214	4.27
217.432	10.41
217.651	43.18
217.869	84.14
218.087	20.65
218.306	24.75
218.524	8.36
218.742	-14.17
218.96	82.09
219.179	39.08
219.397	30.89
219.615	16.55
219.833	2.22
220.051	37.03
220.27	-12.12
220.488	30.89
220.706	-18.26
220.924	-12.12
221.142	77.99
221.36	22.7
221.578	43.18
221.796	-5.97
222.015	-3.93
222.233	24.75
222.451	116.9
222.669	24.75
222.887	-3.93
223.105	-10.07
223.323	8.36
223.541	-55.12
223.759	2.22
223.977	-59.22
224.195	37.03
224.413	88.23
224.631	-5.97
224.849	14.51
225.067	133.29
225.285	-10.07
225.503	39.08
225.721	8.36
225.939	-1.88
226.157	75.95
226.375	53.42
226.592	12.46
226.81	77.99
227.028	57.51
227.246	-8.02
227.464	47.27
227.682	71.85
227.9	-1.88
228.117	-12.12
228.335	49.32
228.553	-3.93
228.771	-32.6
228.989	41.13
229.206	-24.4
229.424	71.85
229.642	-53.08
229.86	28.84
230.077	22.7
230.295	-18.26
230.513	22.7
230.731	32.94
230.948	-22.36
231.166	84.14
231.384	-55.12
231.601	-46.93
231.819	30.89
232.037	84.14
232.254	-10.07
232.472	63.66
232.689	-61.27
232.907	45.23
233.125	-20.31
233.342	41.13
233.56	-34.64
233.777	24.75
233.995	57.51
234.213	28.84
234.43	4.27
234.648	61.61
234.865	-71.51
235.083	43.18
235.3	-3.93
235.518	10.41
235.735	-22.36
235.953	10.41
236.17	12.46
236.388	28.84
236.605	-24.4
236.822	26.79
237.04	51.37
237.257	-20.31
237.475	14.51
237.692	77.99
237.909	-10.07
238.127	20.65
238.344	96.43
238.562	-48.98
238.779	20.65
238.996	24.75
239.214	67.75
239.431	37.03
239.648	-30.55
239.865	12.46
240.083	47.27
240.3	12.46
240.517	73.9
240.735	18.6
240.952	20.65
241.169	0.17
241.386	26.79
241.603	39.08
241.821	-30.55
242.038	69.8
242.255	39.08
242.472	32.94
242.689	20.65
242.907	53.42
243.124	26.79
243.341	14.51
243.558	57.51
243.775	24.75
243.992	-55.12
244.209	-1.88
244.426	51.37
244.643	-16.21
244.86	57.51
245.078	2.22
245.295	-40.79
245.512	-10.07
245.729	14.51
245.946	94.38
246.163	39.08
246.38	20.65
246.597	49.32
246.814	-16.21
247.031	26.79
247.248	123.05
247.464	24.75
247.681	61.61
247.898	-48.98
248.115	69.8
248.332	-87.89
248.549	-38.74
248.766	2.22
248.983	12.46
249.2	-18.26
249.417	2.22
249.633	-26.45
249.85	71.85
250.067	26.79
250.284	37.03
250.501	-8.02
250.717	80.04
250.934	-3.93
251.151	4.27
251.368	96.43
251.585	80.04
251.801	4.27
252.018	-20.31
252.235	20.65
252.451	30.89
252.668	-36.69
252.885	77.99
253.102	-3.93
253.318	49.32
253.535	14.51
253.752	94.38
253.968	71.85
254.185	55.47
254.401	-3.93
254.618	34.99
254.835	-32.6
255.051	55.47
255.268	-61.27
255.484	53.42
255.701	6.31
255.917	86.19
256.134	12.46
256.351	18.6
256.567	39.08
256.784	32.94
257	16.55
257.217	51.37
257.433	4.27
257.65	24.75
257.866	32.94
258.082	69.8
258.299	-42.84
258.515	-30.55
258.732	26.79
258.948	67.75
259.165	41.13
259.381	26.79
259.597	55.47
259.814	63.66
260.03	41.13
260.246	10.41
260.463	90.28
260.679	18.6
260.895	84.14
261.112	32.94
261.328	49.32
261.544	75.95
261.761	43.18
261.977	24.75
262.193	2.22
262.409	49.32
262.626	43.18
262.842	20.65
263.058	-1.88
263.274	104.62
263.49	45.23
263.707	-30.55
263.923	37.03
264.139	-32.6
264.355	51.37
264.571	55.47
264.787	49.32
265.004	-8.02
265.22	88.23
265.436	59.56
265.652	-5.97
265.868	125.1
266.084	20.65
266.3	86.19
266.516	45.23
266.732	69.8
266.948	6.31
267.164	-8.02
267.38	34.99
267.596	41.13
267.812	12.46
268.028	18.6
268.244	26.79
268.46	96.43
268.676	51.37
268.892	53.42
269.108	-48.98
269.324	-1.88
269.54	-10.07
269.756	-16.21
269.972	43.18
270.188	43.18
270.403	4.27
270.619	-28.5
270.835	-20.31
271.051	-34.64
271.267	71.85
271.483	22.7
271.698	-3.93
271.914	12.46
272.13	28.84
272.346	2.22
272.562	-77.65
272.777	92.33
272.993	-24.4
273.209	43.18
273.425	-3.93
273.64	61.61
273.856	39.08
274.072	51.37
274.287	4.27
274.503	0.17
274.719	0.17
274.934	45.23
275.15	10.41
275.366	-16.21
275.581	24.75
275.797	30.89
276.012	53.42
276.228	18.6
276.444	-30.55
276.659	-67.41
276.875	32.94
277.09	61.61
277.306	63.66
277.521	80.04
277.737	-8.02
277.952	4.27
278.168	39.08
278.383	28.84
278.599	-55.12
278.814	90.28
279.03	6.31
279.245	-26.45
279.461	69.8
279.676	57.51
279.892	55.47
280.107	18.6
280.322	20.65
280.538	45.23
280.753	45.23
280.969	57.51
281.184	-24.4
281.399	88.23
281.615	-18.26
281.83	49.32
282.045	-16.21
282.26	-5.97
282.476	121
282.691	39.08
282.906	45.23
283.122	18.6
283.337	71.85
283.552	-26.45
283.767	12.46
283.983	39.08
284.198	92.33
284.413	-1.88
284.628	14.51
284.843	0.17
285.058	-3.93
285.274	-59.22
285.489	28.84
285.704	30.89
285.919	-12.12
286.134	80.04
286.349	6.31
286.564	-10.07
286.779	28.84
286.995	-8.02
287.21	-18.26
287.425	53.42
287.64	112.81
287.855	45.23
288.07	-22.36
288.285	28.84
288.5	-12.12
288.715	-28.5
288.93	82.09
289.145	84.14
289.36	12.46
289.575	10.41
289.79	63.66
290.004	-5.97
290.219	61.61
290.434	-28.5
290.649	22.7
290.864	20.65
291.079	59.56
291.294	22.7
291.509	0.17
291.724	37.03
291.938	77.99
292.153	67.75
292.368	63.66
292.583	45.23
292.798	-14.17
293.012	-3.93
293.227	18.6
293.442	39.08
293.657	47.27
293.871	16.55
294.086	32.94
294.301	37.03
294.516	10.41
294.73	34.99
294.945	12.46
295.16	88.23
295.374	-16.21
295.589	-34.64
295.804	80.04
296.018	55.47
296.233	61.61
296.447	-24.4
296.662	22.7
296.877	45.23
297.091	22.7
297.306	147.62
297.52	-22.36
297.735	75.95
297.949	-30.55
298.164	37.03
298.378	-14.17
298.593	32.94
298.807	22.7
299.022	34.99
299.236	6.31
299.451	-14.17
299.665	-14.17
299.88	28.84
300.094	-40.79
300.309	80.04
300.523	63.66
300.737	37.03
300.952	10.41
301.166	123.05
301.381	14.51
301.595	-3.93
301.809	94.38
302.024	49.32
302.238	39.08
302.452	75.95
302.667	43.18
302.881	82.09
303.095	2.22
303.309	63.66
303.524	45.23
303.738	39.08
303.952	-63.32
304.166	-8.02
304.381	-20.31
304.595	34.99
304.809	6.31
305.023	108.71
305.237	57.51
305.452	41.13
305.666	0.17
305.88	53.42
306.094	4.27
306.308	82.09
306.522	61.61
306.736	57.51
306.95	6.31
307.164	110.76
307.379	-10.07
307.593	30.89
307.807	20.65
308.021	32.94
308.235	10.41
308.449	-55.12
308.663	55.47
308.877	-3.93
309.091	10.41
309.305	71.85
309.519	-1.88
309.733	92.33
309.947	80.04
310.161	67.75
310.374	12.46
310.588	129.19
310.802	14.51
311.016	43.18
311.23	0.17
311.444	6.31
311.658	43.18
311.872	28.84
312.085	32.94
312.299	67.75
312.513	41.13
312.727	57.51
312.941	41.13
313.154	71.85
313.368	47.27
313.582	30.89
313.796	116.9
314.009	67.75
314.223	10.41
314.437	84.14
314.651	45.23
314.864	125.1
315.078	65.71
315.292	24.75
315.505	102.57
315.719	26.79
315.933	63.66
316.146	32.94
316.36	26.79
316.573	34.99
316.787	43.18
317.001	-1.88
317.214	49.32
317.428	24.75
317.641	12.46
317.855	41.13
318.068	57.51
318.282	-59.22
318.495	63.66
318.709	80.04
318.922	69.8
319.136	-16.21
319.349	8.36
319.563	30.89
319.776	67.75
319.99	45.23
320.203	59.56
320.417	2.22
320.63	2.22
320.843	6.31
321.057	8.36
321.27	20.65
321.483	63.66
321.697	61.61
321.91	104.62
322.124	45.23
322.337	90.28
322.55	8.36
322.763	26.79
322.977	96.43
323.19	22.7
323.403	8.36
323.617	2.22
323.83	49.32
324.043	-10.07
324.256	55.47
324.469	37.03
324.683	65.71
324.896	73.9
325.109	14.51
325.322	10.41
325.535	28.84
325.748	49.32
325.962	34.99
326.175	24.75
326.388	18.6
326.601	18.6
326.814	-8.02
327.027	-12.12
327.24	123.05
327.453	-34.64
327.666	10.41
327.879	14.51
328.092	108.71
328.305	65.71
328.518	-10.07
328.731	2.22
328.944	53.42
329.157	77.99
329.37	112.81
329.583	82.09
329.796	10.41
330.009	-61.27
330.222	41.13
330.435	-5.97
330.648	92.33
330.861	90.28
331.073	59.56
331.286	2.22
331.499	37.03
331.712	14.51
331.925	43.18
332.138	-18.26
332.35	16.55
332.563	96.43
332.776	-16.21
332.989	69.8
333.202	84.14
333.414	10.41
333.627	45.23
333.84	14.51
334.053	18.6
334.265	39.08
334.478	34.99
334.691	26.79
334.903	53.42
335.116	-40.79
335.329	80.04
335.541	47.27
335.754	69.8
335.966	12.46
336.179	20.65
336.392	22.7
336.604	16.55
336.817	22.7
337.029	-24.4
337.242	32.94
337.454	96.43
337.667	-3.93
337.88	69.8
338.092	6.31
338.305	47.27
338.517	-3.93
338.729	10.41
338.942	53.42
339.154	-16.21
339.367	43.18
339.579	43.18
339.792	18.6
340.004	59.56
340.217	69.8
340.429	67.75
340.641	71.85
340.854	39.08
341.066	-3.93
341.278	49.32
341.491	34.99
341.703	14.51
341.915	71.85
342.128	57.51
342.34	37.03
342.552	61.61
342.764	-18.26
342.977	94.38
343.189	37.03
343.401	43.18
343.613	37.03
343.826	-36.69
344.038	10.41
344.25	65.71
344.462	12.46
344.674	53.42
344.886	77.99
345.099	73.9
345.311	51.37
345.523	63.66
345.735	12.46
345.947	45.23
346.159	47.27
346.371	12.46
346.583	0.17
346.795	135.34
347.007	34.99
347.219	110.76
347.431	49.32
347.643	47.27
347.855	57.51
348.067	92.33
348.279	-10.07
348.491	24.75
348.703	24.75
348.915	98.47
349.127	96.43
349.339	39.08
349.551	59.56
349.763	32.94
349.975	39.08
350.187	123.05
350.399	18.6
350.61	49.32
350.822	-5.97
351.034	16.55
351.246	28.84
351.458	37.03
351.669	53.42
351.881	67.75
352.093	26.79
352.305	51.37
352.517	123.05
352.728	6.31
352.94	43.18
353.152	16.55
353.363	47.27
353.575	67.75
353.787	28.84
353.999	63.66
354.21	20.65
354.422	14.51
354.633	14.51
354.845	2.22
355.057	10.41
355.268	49.32
355.48	55.47
355.692	14.51
355.903	2.22
356.115	73.9
356.326	-44.88
356.538	47.27
356.749	18.6
356.961	57.51
357.172	45.23
357.384	57.51
357.595	20.65
357.807	28.84
358.018	80.04
358.23	67.75
358.441	63.66
358.653	51.37
358.864	14.51
359.075	24.75
359.287	18.6
359.498	59.56
359.709	22.7
359.921	57.51
360.132	57.51
360.344	61.61
360.555	28.84
360.766	14.51
360.977	30.89
361.189	30.89
361.4	41.13
361.611	57.51
361.823	20.65
362.034	16.55
362.245	12.46
362.456	20.65
362.667	108.71
362.879	96.43
363.09	-3.93
363.301	75.95
363.512	16.55
363.723	6.31
363.935	34.99
364.146	82.09
364.357	12.46
364.568	18.6
364.779	86.19
364.99	8.36
365.201	30.89
365.412	94.38
365.623	94.38
365.834	102.57
366.045	-10.07
366.256	45.23
366.467	6.31
366.678	69.8
366.889	41.13
367.1	34.99
367.311	75.95
367.522	71.85
367.733	75.95
367.944	24.75
368.155	71.85
368.366	96.43
368.577	41.13
368.788	43.18
368.999	53.42
369.209	98.47
369.42	92.33
369.631	77.99
369.842	92.33
370.053	118.95
370.264	77.99
370.474	-28.5
370.685	67.75
370.896	14.51
371.107	67.75
371.317	43.18
371.528	34.99
371.739	20.65
371.95	116.9
372.16	75.95
372.371	10.41
372.582	51.37
372.792	20.65
373.003	145.58
373.214	28.84
373.424	43.18
373.635	71.85
373.846	82.09
374.056	20.65
374.267	18.6
374.477	6.31
374.688	123.05
374.898	-1.88
375.109	18.6
375.319	2.22
375.53	94.38
375.74	47.27
375.951	28.84
376.161	-12.12
376.372	55.47
376.582	-3.93
376.793	34.99
377.003	30.89
377.214	43.18
377.424	20.65
377.635	84.14
377.845	-34.64
378.055	37.03
378.266	-1.88
378.476	77.99
378.686	53.42
378.897	75.95
379.107	77.99
379.317	96.43
379.528	10.41
379.738	22.7
379.948	51.37
380.158	106.67
380.369	34.99
380.579	34.99
380.789	41.13
380.999	73.9
381.21	135.34
381.42	4.27
381.63	106.67
381.84	82.09
382.05	49.32
382.261	98.47
382.471	55.47
382.681	20.65
382.891	100.52
383.101	24.75
383.311	22.7
383.521	16.55
383.731	20.65
383.941	108.71
384.151	24.75
384.361	43.18
384.571	63.66
384.781	125.1
384.991	61.61
385.201	88.23
385.411	-1.88
385.621	47.27
385.831	22.7
386.041	55.47
386.251	37.03
386.461	67.75
386.671	75.95
386.881	49.32
387.091	71.85
387.301	108.71
387.511	16.55
387.72	71.85
387.93	123.05
388.14	67.75
388.35	47.27
388.56	24.75
388.769	63.66
388.979	16.55
389.189	53.42
389.399	28.84
389.609	51.37
389.818	102.57
390.028	127.14
390.238	55.47
390.447	30.89
390.657	49.32
390.867	47.27
391.076	106.67
391.286	84.14
391.496	80.04
391.705	98.47
391.915	112.81
392.125	57.51
392.334	84.14
392.544	131.24
392.753	127.14
392.963	18.6
393.172	75.95
393.382	47.27
393.591	69.8
393.801	123.05
394.01	151.72
394.22	61.61
394.429	116.9
394.639	108.71
394.848	80.04
395.058	96.43
395.267	73.9
395.477	65.71
395.686	102.57
395.895	92.33
396.105	92.33
396.314	194.73
396.524	94.38
396.733	143.53
396.942	84.14
397.152	129.19
397.361	96.43
397.57	69.8
397.78	157.86
397.989	65.71
398.198	166.06
398.407	8.36
398.617	145.58
398.826	92.33
399.035	116.9
399.244	34.99
399.453	102.57
399.663	24.75
399.872	104.62
400.081	121
400.29	57.51
400.499	92.33
400.708	143.53
400.917	57.51
401.127	151.72
401.336	104.62
401.545	153.77
401.754	114.86
401.963	184.49
402.172	161.96
402.381	47.27
402.59	41.13
402.799	147.62
403.008	108.71
403.217	106.67
403.426	155.82
403.635	110.76
403.844	149.67
404.053	116.9
404.262	143.53
404.471	180.39
404.68	192.68
404.888	106.67
405.097	84.14
405.306	190.63
405.515	110.76
405.724	192.68
405.933	211.11
406.142	186.54
406.35	102.57
406.559	245.93
406.768	239.78
406.977	182.44
407.185	247.97
407.394	188.58
407.603	135.34
407.812	243.88
408.02	164.01
408.229	288.93
408.438	209.06
408.646	231.59
408.855	227.5
409.064	260.26
409.272	268.45
409.481	329.89
409.69	247.97
409.898	286.89
410.107	323.75
410.315	198.82
410.524	325.8
410.733	389.28
410.941	352.42
411.15	374.95
411.358	364.71
411.567	387.24
411.775	372.9
411.984	407.72
412.192	354.47
412.401	424.1
412.609	409.76
412.818	557.22
413.026	518.31
413.234	491.68
413.443	518.31
413.651	485.54
413.86	557.22
414.068	690.34
414.276	653.47
414.485	626.85
414.693	673.95
414.901	680.1
415.11	678.05
415.318	632.99
415.526	774.3
415.734	766.11
415.943	817.31
416.151	825.5
416.359	745.63
416.567	829.6
416.776	915.61
416.984	919.71
417.192	999.58
417.4	964.76
417.608	954.52
417.817	1067.16
418.025	1097.88
418.233	1153.18
418.441	1153.18
418.649	1265.82
418.857	1335.45
419.065	1253.53
419.273	1274.01
419.481	1245.34
419.689	1407.13
419.897	1454.23
420.105	1454.23
420.313	1542.29
420.521	1484.95
420.729	1626.26
420.937	1716.37
421.145	1734.8
421.353	1781.9
421.561	1847.44
421.769	1945.74
421.977	2017.42
422.185	1960.08
422.393	2181.26
422.601	2154.63
422.809	2265.22
423.017	2281.61
423.224	2439.3
423.432	2490.5
423.64	2498.69
423.848	2654.34
424.056	2672.77
424.263	2828.42
424.471	2893.95
424.679	2822.27
424.887	3106.94
425.094	3178.62
425.302	3111.04
425.51	3287.16
425.718	3424.37
425.925	3250.3
426.133	3596.4
426.341	3727.47
426.548	3817.58
426.756	3907.7
426.964	3930.22
427.171	4233.32
427.379	4237.42
427.586	4386.92
427.794	4483.17
428.001	4714.59
428.209	4835.42
428.417	4728.93
428.624	4890.72
428.832	5218.4
429.039	5107.8
429.247	5120.09
429.454	5705.81
429.662	5869.65
429.869	5566.55
430.076	6152.27
430.284	5611.61
430.491	6041.68
430.699	6373.45
430.906	6281.29
431.114	6498.38
431.321	6797.38
431.528	7012.42
431.736	7254.08
431.943	7505.98
432.15	7379
432.358	7567.42
432.565	8048.69
432.772	7802.93
432.979	8257.58
433.187	8364.08
433.394	8345.64
433.601	8990.75
433.808	9173.02
434.016	8929.31
434.223	9408.54
434.43	9969.68
434.637	9783.32
434.844	10274.83
435.052	10596.36
435.259	10330.13
435.466	10561.55
435.673	10485.77
435.88	11298.81
436.087	11829.24
436.294	11675.64
436.501	11595.77
436.708	11767.8
436.915	12161.01
437.122	12744.68
437.329	12591.08
437.537	13096.93
437.743	13271.01
437.95	13277.15
438.157	13785.05
438.364	14219.22
438.571	14098.39
438.778	14333.9
438.985	15439.81
439.192	15089.6
439.399	15384.51
439.606	15181.76
439.813	15994.81
440.02	17047.46
440.227	16861.1
440.433	16367.54
440.64	17227.68
440.847	16983.98
441.054	17557.41
441.261	18579.34
441.467	18220.95
441.674	18861.96
441.881	19380.1
442.088	19597.18
442.294	19136.39
442.501	19767.17
442.708	20141.94
442.914	20828.01
443.121	21555.04
443.328	21061.48
443.534	22820.69
443.741	22075.23
443.948	21899.1
444.154	23162.7
444.361	23209.8
444.568	23248.71
444.774	23408.45
444.981	23627.59
445.187	24399.67
445.394	25204.52
445.6	24936.24
445.807	27567.88
446.013	26244.89
446.22	26625.81
446.426	27772.67
446.633	28081.92
446.839	28608.25
447.046	27936.51
447.252	29181.68
447.459	29310.7
447.665	29093.61
447.871	30629.59
448.078	31520.46
448.284	30199.52
448.491	31000.27
448.697	31829.7
448.903	32306.88
449.11	33134.26
449.316	32227.01
449.522	32913.08
449.728	33840.81
449.935	34320.03
450.141	33879.72
450.347	34819.74
450.553	33488.56
450.76	33885.86
450.966	35020.44
451.172	34838.17
451.378	35085.97
451.584	34614.94
451.791	35696.27
451.997	35423.89
452.203	35860.1
452.409	35868.3
452.615	35929.73
452.821	34195.1
453.027	33961.64
453.233	35806.86
453.44	34225.82
453.646	34700.95
453.852	34633.37
454.058	35393.17
454.264	34037.41
454.47	34729.62
454.676	34125.47
454.882	35212.95
455.088	32454.33
455.294	32773.81
455.5	32929.46
455.705	33466.03
455.911	32233.15
456.117	31305.42
456.323	31055.57
456.529	29474.54
456.735	30631.64
456.941	29818.6
457.147	29169.39
457.352	28337.91
457.558	27969.28
457.764	28112.64
457.97	27655.94
458.176	26838.8
458.381	27045.65
458.587	25515.81
458.793	25880.35
458.999	24700.72
459.204	26001.18
459.41	25546.53
459.616	23619.39
459.821	23639.87
460.027	23621.44
460.233	22990.67
460.438	21958.49
460.644	22398.8
460.85	21032.81
461.055	20551.54
461.261	20907.88
461.466	19185.54
461.672	18810.76
461.878	20035.45
462.083	18700.17
462.289	18470.8
462.494	18288.53
462.7	17414.05
462.905	17137.57
463.111	17500.06
463.316	17618.85
463.522	17334.18
463.727	17063.85
463.932	17244.07
464.138	17129.38
464.343	17045.41
464.549	16813.99
464.754	17156
464.959	17129.38
465.165	17031.08
465.37	16396.21
465.575	15931.32
465.781	16381.87
465.986	16566.19
466.191	15845.3
466.397	15462.33
466.602	14852.04
466.807	15431.62
467.012	15458.24
467.218	15378.37
467.423	15030.21
467.628	15310.79
467.833	15796.15
