Data from USB4F104151__169__13-58-52-032.txt Node

Date: Thu Mar 13 13:58:52 EDT 2025
User: louis
Spectrometer: USB4F10415
Trigger mode: 4
Integration Time (sec): 1.000000E-2
Scans to average: 1
Electric dark correction enabled: true
Nonlinearity correction enabled: false
Boxcar width: 0
XAxis mode: Wavelengths
Number of Pixels in Spectrum: 3648
>>>>>Begin Spectral Data<<<<<
178.204	-71.17
178.424	-71.17
178.644	-71.17
178.864	20.99
179.084	-52.74
179.304	-56.83
179.524	-69.12
179.744	-83.45
179.964	35.33
180.184	41.47
180.404	18.94
180.624	-24.06
180.844	16.9
181.064	-5.63
181.283	45.57
181.503	23.04
181.723	57.86
181.943	70.14
182.163	18.94
182.383	8.7
182.602	-17.92
182.822	-17.92
183.042	43.52
183.262	16.9
183.482	-17.92
183.701	-75.26
183.921	53.76
184.141	-1.54
184.361	33.28
184.58	12.8
184.8	-9.73
185.02	-17.92
185.239	35.33
185.459	20.99
185.679	2.56
185.898	-85.5
186.118	-26.11
186.338	-3.58
186.557	37.38
186.777	-22.02
186.997	59.9
187.216	16.9
187.436	37.38
187.655	59.9
187.875	80.38
188.095	72.19
188.314	37.38
188.534	12.8
188.753	51.71
188.973	-13.82
189.192	27.14
189.412	35.33
189.631	43.52
189.851	10.75
190.07	18.94
190.29	-60.93
190.509	84.48
190.729	90.62
190.948	-11.78
191.168	129.53
191.387	16.9
191.607	14.85
191.826	59.9
192.045	31.23
192.265	-38.4
192.484	-56.83
192.704	14.85
192.923	23.04
193.142	-5.63
193.362	29.18
193.581	29.18
193.8	57.86
194.02	43.52
194.239	88.57
194.458	4.61
194.678	23.04
194.897	31.23
195.116	-9.73
195.335	84.48
195.555	12.8
195.774	29.18
195.993	-7.68
196.212	-77.31
196.432	49.66
196.651	43.52
196.87	35.33
197.089	2.56
197.308	37.38
197.528	31.23
197.747	2.56
197.966	-7.68
198.185	55.81
198.404	18.94
198.623	49.66
198.842	45.57
199.062	-13.82
199.281	-24.06
199.5	-11.78
199.719	14.85
199.938	-28.16
200.157	2.56
200.376	-1.54
200.595	41.47
200.814	88.57
201.033	-30.21
201.252	-3.58
201.471	35.33
201.69	33.28
201.909	-13.82
202.128	-3.58
202.347	10.75
202.566	20.99
202.785	6.66
203.004	-5.63
203.223	43.52
203.442	27.14
203.661	25.09
203.879	-19.97
204.098	61.95
204.317	33.28
204.536	70.14
204.755	6.66
204.974	10.75
205.193	8.7
205.411	129.53
205.63	4.61
205.849	88.57
206.068	-71.17
206.287	25.09
206.505	76.29
206.724	35.33
206.943	41.47
207.162	-38.4
207.381	43.52
207.599	4.61
207.818	-9.73
208.037	88.57
208.255	12.8
208.474	4.61
208.693	-22.02
208.911	51.71
209.13	8.7
209.349	14.85
209.567	29.18
209.786	27.14
210.005	-5.63
210.223	88.57
210.442	14.85
210.661	0.51
210.879	47.62
211.098	45.57
211.316	-40.45
211.535	59.9
211.753	37.38
211.972	-58.88
212.191	49.66
212.409	-15.87
212.628	84.48
212.846	-7.68
213.065	-9.73
213.283	55.81
213.502	-26.11
213.72	25.09
213.938	0.51
214.157	51.71
214.375	57.86
214.594	33.28
214.812	-42.5
215.031	18.94
215.249	29.18
215.467	-32.26
215.686	2.56
215.904	27.14
216.122	4.61
216.341	2.56
216.559	70.14
216.778	49.66
216.996	64
217.214	-7.68
217.432	31.23
217.651	4.61
217.869	127.49
218.087	-52.74
218.306	10.75
218.524	51.71
218.742	70.14
218.96	35.33
219.179	10.75
219.397	43.52
219.615	55.81
219.833	27.14
220.051	10.75
220.27	64
220.488	80.38
220.706	51.71
220.924	47.62
221.142	-9.73
221.36	-7.68
221.578	31.23
221.796	33.28
222.015	47.62
222.233	37.38
222.451	-5.63
222.669	43.52
222.887	43.52
223.105	43.52
223.323	16.9
223.541	27.14
223.759	6.66
223.977	31.23
224.195	59.9
224.413	-13.82
224.631	-30.21
224.849	20.99
225.067	33.28
225.285	-79.36
225.503	2.56
225.721	-5.63
225.939	23.04
226.157	47.62
226.375	66.05
226.592	-3.58
226.81	76.29
227.028	45.57
227.246	43.52
227.464	-26.11
227.682	8.7
227.9	92.67
228.117	31.23
228.335	-30.21
228.553	70.14
228.771	4.61
228.989	113.15
229.206	39.42
229.424	-28.16
229.642	74.24
229.86	-79.36
230.077	31.23
230.295	51.71
230.513	23.04
230.731	12.8
230.948	51.71
231.166	-13.82
231.384	-3.58
231.601	49.66
231.819	76.29
232.037	-5.63
232.254	10.75
232.472	6.66
232.689	-17.92
232.907	31.23
233.125	68.09
233.342	-1.54
233.56	51.71
233.777	-7.68
233.995	10.75
234.213	74.24
234.43	64
234.648	43.52
234.865	0.51
235.083	-3.58
235.3	-38.4
235.518	100.86
235.735	-11.78
235.953	51.71
236.17	33.28
236.388	49.66
236.605	-1.54
236.822	104.96
237.04	31.23
237.257	-24.06
237.475	-7.68
237.692	76.29
237.909	4.61
238.127	10.75
238.344	-22.02
238.562	68.09
238.779	72.19
238.996	-28.16
239.214	82.43
239.431	51.71
239.648	53.76
239.865	41.47
240.083	16.9
240.3	0.51
240.517	74.24
240.735	-7.68
240.952	35.33
241.169	14.85
241.386	102.91
241.603	-38.4
241.821	37.38
242.038	35.33
242.255	2.56
242.472	20.99
242.689	37.38
242.907	37.38
243.124	-3.58
243.341	-75.26
243.558	41.47
243.775	-17.92
243.992	-22.02
244.209	47.62
244.426	-13.82
244.643	113.15
244.86	68.09
245.078	66.05
245.295	-22.02
245.512	-30.21
245.729	-58.88
245.946	51.71
246.163	25.09
246.38	29.18
246.597	78.33
246.814	-7.68
247.031	35.33
247.248	35.33
247.464	10.75
247.681	-28.16
247.898	35.33
248.115	39.42
248.332	45.57
248.549	55.81
248.766	6.66
248.983	35.33
249.2	-1.54
249.417	37.38
249.633	53.76
249.85	2.56
250.067	47.62
250.284	10.75
250.501	10.75
250.717	12.8
250.934	12.8
251.151	12.8
251.368	0.51
251.585	47.62
251.801	45.57
252.018	45.57
252.235	25.09
252.451	-26.11
252.668	-5.63
252.885	51.71
253.102	-36.35
253.318	49.66
253.535	92.67
253.752	27.14
253.968	61.95
254.185	-5.63
254.401	8.7
254.618	-44.54
254.835	41.47
255.051	31.23
255.268	-5.63
255.484	76.29
255.701	-5.63
255.917	20.99
256.134	-1.54
256.351	-11.78
256.567	27.14
256.784	-7.68
257	-5.63
257.217	51.71
257.433	-17.92
257.65	8.7
257.866	84.48
258.082	14.85
258.299	-19.97
258.515	100.86
258.732	49.66
258.948	111.1
259.165	-3.58
259.381	55.81
259.597	-46.59
259.814	94.72
260.03	41.47
260.246	51.71
260.463	-5.63
260.679	64
260.895	109.05
261.112	66.05
261.328	10.75
261.544	45.57
261.761	39.42
261.977	39.42
262.193	20.99
262.409	39.42
262.626	-19.97
262.842	53.76
263.058	-22.02
263.274	96.77
263.49	-30.21
263.707	-3.58
263.923	25.09
264.139	14.85
264.355	31.23
264.571	72.19
264.787	-40.45
265.004	84.48
265.22	47.62
265.436	49.66
265.652	-9.73
265.868	53.76
266.084	-17.92
266.3	29.18
266.516	47.62
266.732	35.33
266.948	6.66
267.164	66.05
267.38	47.62
267.596	43.52
267.812	68.09
268.028	25.09
268.244	55.81
268.46	43.52
268.676	33.28
268.892	57.86
269.108	-1.54
269.324	88.57
269.54	-7.68
269.756	35.33
269.972	-13.82
270.188	47.62
270.403	-32.26
270.619	2.56
270.835	20.99
271.051	51.71
271.267	49.66
271.483	0.51
271.698	55.81
271.914	45.57
272.13	45.57
272.346	72.19
272.562	10.75
272.777	18.94
272.993	53.76
273.209	37.38
273.425	51.71
273.64	-91.65
273.856	25.09
274.072	23.04
274.287	-19.97
274.503	55.81
274.719	31.23
274.934	29.18
275.15	-13.82
275.366	68.09
275.581	57.86
275.797	47.62
276.012	4.61
276.228	18.94
276.444	-32.26
276.659	53.76
276.875	-28.16
277.09	-54.78
277.306	-28.16
277.521	18.94
277.737	-5.63
277.952	117.25
278.168	14.85
278.383	-9.73
278.599	61.95
278.814	-15.87
279.03	25.09
279.245	6.66
279.461	8.7
279.676	20.99
279.892	4.61
280.107	-9.73
280.322	10.75
280.538	70.14
280.753	49.66
280.969	68.09
281.184	8.7
281.399	-15.87
281.615	-40.45
281.83	31.23
282.045	27.14
282.26	-54.78
282.476	41.47
282.691	2.56
282.906	64
283.122	104.96
283.337	-3.58
283.552	18.94
283.767	68.09
283.983	10.75
284.198	78.33
284.413	41.47
284.628	-5.63
284.843	2.56
285.058	84.48
285.274	-54.78
285.489	4.61
285.704	107.01
285.919	61.95
286.134	-13.82
286.349	-34.3
286.564	4.61
286.779	18.94
286.995	20.99
287.21	-9.73
287.425	-34.3
287.64	68.09
287.855	72.19
288.07	14.85
288.285	59.9
288.5	-52.74
288.715	-46.59
288.93	33.28
289.145	88.57
289.36	80.38
289.575	29.18
289.79	-5.63
290.004	-11.78
290.219	-30.21
290.434	-28.16
290.649	-15.87
290.864	27.14
291.079	-3.58
291.294	0.51
291.509	-48.64
291.724	29.18
291.938	-67.07
292.153	92.67
292.368	-22.02
292.583	-54.78
292.798	68.09
293.012	18.94
293.227	25.09
293.442	119.29
293.657	86.53
293.871	20.99
294.086	64
294.301	23.04
294.516	88.57
294.73	-19.97
294.945	14.85
295.16	-11.78
295.374	55.81
295.589	29.18
295.804	-3.58
296.018	53.76
296.233	-99.84
296.447	43.52
296.662	31.23
296.877	14.85
297.091	-24.06
297.306	41.47
297.52	70.14
297.735	-28.16
297.949	37.38
298.164	27.14
298.378	35.33
298.593	14.85
298.807	37.38
299.022	37.38
299.236	35.33
299.451	27.14
299.665	-3.58
299.88	76.29
300.094	-34.3
300.309	18.94
300.523	-1.54
300.737	-50.69
300.952	35.33
301.166	86.53
301.381	12.8
301.595	2.56
301.809	64
302.024	59.9
302.238	10.75
302.452	45.57
302.667	0.51
302.881	72.19
303.095	2.56
303.309	43.52
303.524	31.23
303.738	92.67
303.952	-3.58
304.166	35.33
304.381	-30.21
304.595	39.42
304.809	25.09
305.023	-7.68
305.237	-28.16
305.452	-3.58
305.666	12.8
305.88	4.61
306.094	-5.63
306.308	6.66
306.522	-3.58
306.736	31.23
306.95	6.66
307.164	74.24
307.379	51.71
307.593	70.14
307.807	31.23
308.021	70.14
308.235	-5.63
308.449	61.95
308.663	0.51
308.877	49.66
309.091	-5.63
309.305	25.09
309.519	-5.63
309.733	29.18
309.947	-30.21
310.161	-28.16
310.374	80.38
310.588	61.95
310.802	70.14
311.016	51.71
311.23	31.23
311.444	16.9
311.658	12.8
311.872	66.05
312.085	4.61
312.299	-5.63
312.513	18.94
312.727	16.9
312.941	0.51
313.154	-26.11
313.368	25.09
313.582	-11.78
313.796	18.94
314.009	29.18
314.223	47.62
314.437	10.75
314.651	-3.58
314.864	-24.06
315.078	-38.4
315.292	-3.58
315.505	-9.73
315.719	57.86
315.933	51.71
316.146	8.7
316.36	-13.82
316.573	27.14
316.787	-7.68
317.001	-36.35
317.214	37.38
317.428	61.95
317.641	-34.3
317.855	45.57
318.068	109.05
318.282	45.57
318.495	57.86
318.709	55.81
318.922	66.05
319.136	39.42
319.349	59.9
319.563	0.51
319.776	47.62
319.99	33.28
320.203	12.8
320.417	10.75
320.63	-28.16
320.843	64
321.057	-46.59
321.27	66.05
321.483	-46.59
321.697	84.48
321.91	41.47
322.124	68.09
322.337	16.9
322.55	27.14
322.763	16.9
322.977	39.42
323.19	51.71
323.403	78.33
323.617	-3.58
323.83	-28.16
324.043	53.76
324.256	14.85
324.469	-42.5
324.683	4.61
324.896	4.61
325.109	37.38
325.322	-3.58
325.535	53.76
325.748	55.81
325.962	49.66
326.175	14.85
326.388	23.04
326.601	14.85
326.814	-7.68
327.027	-13.82
327.24	61.95
327.453	90.62
327.666	-48.64
327.879	57.86
328.092	27.14
328.305	29.18
328.518	-42.5
328.731	-32.26
328.944	68.09
329.157	27.14
329.37	66.05
329.583	35.33
329.796	2.56
330.009	45.57
330.222	47.62
330.435	76.29
330.648	66.05
330.861	78.33
331.073	29.18
331.286	-26.11
331.499	37.38
331.712	0.51
331.925	74.24
332.138	72.19
332.35	72.19
332.563	-1.54
332.776	-15.87
332.989	61.95
333.202	51.71
333.414	-11.78
333.627	86.53
333.84	47.62
334.053	109.05
334.265	-19.97
334.478	61.95
334.691	31.23
334.903	27.14
335.116	35.33
335.329	-3.58
335.541	8.7
335.754	115.2
335.966	-9.73
336.179	68.09
336.392	53.76
336.604	88.57
336.817	96.77
337.029	76.29
337.242	29.18
337.454	-58.88
337.667	-19.97
337.88	-11.78
338.092	82.43
338.305	70.14
338.517	27.14
338.729	-5.63
338.942	29.18
339.154	-13.82
339.367	35.33
339.579	18.94
339.792	98.81
340.004	41.47
340.217	-13.82
340.429	72.19
340.641	27.14
340.854	16.9
341.066	-28.16
341.278	12.8
341.491	12.8
341.703	45.57
341.915	59.9
342.128	51.71
342.34	-9.73
342.552	70.14
342.764	57.86
342.977	12.8
343.189	6.66
343.401	70.14
343.613	27.14
343.826	72.19
344.038	2.56
344.25	-3.58
344.462	33.28
344.674	64
344.886	31.23
345.099	35.33
345.311	-38.4
345.523	8.7
345.735	-9.73
345.947	18.94
346.159	29.18
346.371	90.62
346.583	37.38
346.795	61.95
347.007	10.75
347.219	82.43
347.431	33.28
347.643	49.66
347.855	74.24
348.067	-13.82
348.279	41.47
348.491	18.94
348.703	107.01
348.915	35.33
349.127	-36.35
349.339	68.09
349.551	-24.06
349.763	27.14
349.975	6.66
350.187	59.9
350.399	55.81
350.61	-3.58
350.822	2.56
351.034	20.99
351.246	12.8
351.458	68.09
351.669	45.57
351.881	117.25
352.093	31.23
352.305	4.61
352.517	14.85
352.728	39.42
352.94	51.71
353.152	55.81
353.363	64
353.575	107.01
353.787	51.71
353.999	100.86
354.21	35.33
354.422	8.7
354.633	43.52
354.845	4.61
355.057	113.15
355.268	33.28
355.48	-28.16
355.692	-5.63
355.903	18.94
356.115	41.47
356.326	6.66
356.538	64
356.749	-5.63
356.961	14.85
357.172	49.66
357.384	57.86
357.595	109.05
357.807	61.95
358.018	-19.97
358.23	86.53
358.441	43.52
358.653	18.94
358.864	45.57
359.075	6.66
359.287	43.52
359.498	45.57
359.709	107.01
359.921	2.56
360.132	-5.63
360.344	119.29
360.555	78.33
360.766	39.42
360.977	27.14
361.189	-1.54
361.4	76.29
361.611	100.86
361.823	18.94
362.034	35.33
362.245	80.38
362.456	33.28
362.667	-1.54
362.879	18.94
363.09	31.23
363.301	35.33
363.512	49.66
363.723	45.57
363.935	0.51
364.146	64
364.357	18.94
364.568	70.14
364.779	-9.73
364.99	-1.54
365.201	-1.54
365.412	23.04
365.623	23.04
365.834	51.71
366.045	66.05
366.256	-15.87
366.467	4.61
366.678	84.48
366.889	10.75
367.1	66.05
367.311	25.09
367.522	35.33
367.733	78.33
367.944	109.05
368.155	-3.58
368.366	86.53
368.577	29.18
368.788	18.94
368.999	64
369.209	53.76
369.42	0.51
369.631	113.15
369.842	55.81
370.053	10.75
370.264	14.85
370.474	4.61
370.685	-7.68
370.896	-9.73
371.107	35.33
371.317	53.76
371.528	64
371.739	-24.06
371.95	59.9
372.16	82.43
372.371	35.33
372.582	-30.21
372.792	47.62
373.003	43.52
373.214	-19.97
373.424	55.81
373.635	-46.59
373.846	80.38
374.056	-24.06
374.267	45.57
374.477	72.19
374.688	37.38
374.898	98.81
375.109	100.86
375.319	4.61
375.53	66.05
375.74	102.91
375.951	61.95
376.161	41.47
376.372	94.72
376.582	86.53
376.793	8.7
377.003	43.52
377.214	-5.63
377.424	29.18
377.635	53.76
377.845	4.61
378.055	98.81
378.266	10.75
378.476	92.67
378.686	55.81
378.897	-46.59
379.107	47.62
379.317	-30.21
379.528	117.25
379.738	78.33
379.948	72.19
380.158	55.81
380.369	61.95
380.579	64
380.789	57.86
380.999	-38.4
381.21	35.33
381.42	100.86
381.63	39.42
381.84	68.09
382.05	141.82
382.261	88.57
382.471	-9.73
382.681	55.81
382.891	27.14
383.101	51.71
383.311	-11.78
383.521	94.72
383.731	8.7
383.941	35.33
384.151	-13.82
384.361	14.85
384.571	-9.73
384.781	59.9
384.991	35.33
385.201	74.24
385.411	29.18
385.621	35.33
385.831	59.9
386.041	59.9
386.251	-22.02
386.461	-54.78
386.671	92.67
386.881	115.2
387.091	14.85
387.301	49.66
387.511	72.19
387.72	100.86
387.93	90.62
388.14	61.95
388.35	23.04
388.56	23.04
388.769	2.56
388.979	49.66
389.189	-11.78
389.399	53.76
389.609	113.15
389.818	111.1
390.028	33.28
390.238	61.95
390.447	27.14
390.657	104.96
390.867	16.9
391.076	20.99
391.286	45.57
391.496	4.61
391.705	70.14
391.915	-54.78
392.125	72.19
392.334	76.29
392.544	33.28
392.753	43.52
392.963	2.56
393.172	117.25
393.382	92.67
393.591	115.2
393.801	33.28
394.01	80.38
394.22	66.05
394.429	59.9
394.639	109.05
394.848	70.14
395.058	20.99
395.267	160.25
395.477	55.81
395.686	117.25
395.895	70.14
396.105	70.14
396.314	25.09
396.524	102.91
396.733	74.24
396.942	55.81
397.152	64
397.361	147.97
397.57	135.68
397.78	100.86
397.989	107.01
398.198	23.04
398.407	119.29
398.617	37.38
398.826	37.38
399.035	90.62
399.244	53.76
399.453	4.61
399.663	37.38
399.872	76.29
400.081	94.72
400.29	94.72
400.499	107.01
400.708	125.44
400.917	82.43
401.127	94.72
401.336	64
401.545	61.95
401.754	66.05
401.963	117.25
402.172	98.81
402.381	64
402.59	45.57
402.799	10.75
403.008	49.66
403.217	57.86
403.426	43.52
403.635	86.53
403.844	92.67
404.053	102.91
404.262	-22.02
404.471	141.82
404.68	141.82
404.888	100.86
405.097	39.42
405.306	139.77
405.515	92.67
405.724	113.15
405.933	66.05
406.142	127.49
406.35	129.53
406.559	158.21
406.768	107.01
406.977	131.58
407.185	117.25
407.394	152.06
407.603	98.81
407.812	145.92
408.02	141.82
408.229	55.81
408.438	145.92
408.646	125.44
408.855	109.05
409.064	176.64
409.272	141.82
409.481	193.02
409.69	158.21
409.898	133.63
410.107	236.03
410.315	186.88
410.524	272.89
410.733	240.12
410.941	182.78
411.15	248.32
411.358	246.27
411.567	217.6
411.775	270.84
411.984	295.42
412.192	320
412.401	287.23
412.609	297.47
412.818	377.34
413.026	272.89
413.234	342.52
413.443	297.47
413.651	377.34
413.86	354.81
414.068	344.57
414.276	512.5
414.485	406.01
414.693	442.87
414.901	518.65
415.11	397.82
415.318	524.79
415.526	469.5
415.734	414.2
415.943	463.35
416.151	502.26
416.359	561.66
416.567	539.13
416.776	557.56
416.984	575.99
417.192	625.14
417.4	664.05
417.608	676.34
417.817	666.1
418.025	735.73
418.233	760.31
418.441	705.01
418.649	737.78
418.857	739.83
419.065	766.45
419.273	877.04
419.481	727.54
419.689	887.28
419.897	944.63
420.105	973.3
420.313	981.49
420.521	1028.59
420.729	1028.59
420.937	1024.5
421.145	1188.33
421.353	1145.33
421.561	1204.72
421.769	1292.78
421.977	1323.5
422.185	1239.53
422.393	1440.23
422.601	1417.71
422.809	1411.56
423.017	1436.14
423.224	1489.39
423.432	1612.26
423.64	1608.17
423.848	1710.57
424.056	1591.78
424.263	1798.63
424.471	1784.29
424.679	1909.22
424.887	1864.16
425.094	2025.95
425.302	2005.47
425.51	2066.91
425.718	2150.88
425.925	2261.47
426.133	2220.51
426.341	2265.57
426.548	2406.88
426.756	2337.24
426.964	2468.31
427.171	2521.56
427.379	2701.78
427.586	2746.84
427.794	2879.96
428.001	2931.16
428.209	2984.4
428.417	3033.55
428.624	3160.53
428.832	3353.04
429.039	3211.73
429.247	3297.74
429.454	3545.55
429.662	3746.25
429.869	3539.4
430.076	3840.45
430.284	3633.61
430.491	3801.54
430.699	4100.55
430.906	3887.56
431.114	4094.4
431.321	4141.5
431.528	4303.29
431.736	4487.61
431.943	4915.64
432.15	4704.7
432.358	4739.51
432.565	4839.86
432.772	5011.89
432.979	5200.3
433.187	5138.87
433.394	5263.79
433.601	5654.95
433.808	5591.47
434.016	5714.34
434.223	6021.54
434.43	6252.96
434.637	6052.26
434.844	6457.76
435.052	6418.85
435.259	6334.88
435.466	6707.61
435.673	6816.15
435.88	6971.8
436.087	7297.42
436.294	7319.95
436.501	7330.19
436.708	7217.55
436.915	7467.41
437.122	7883.14
437.329	7979.4
437.537	8055.17
437.743	8251.78
437.95	8358.27
438.157	8726.91
438.364	8907.13
438.571	8855.93
438.778	8782.2
438.985	9640.3
439.192	9453.94
439.399	9558.38
439.606	9494.9
439.813	9996.65
440.02	10719.58
440.227	10469.73
440.433	10389.86
440.64	10660.19
440.847	10447.2
441.054	10715.48
441.261	11637.07
441.467	11434.32
441.674	11422.03
441.881	12075.34
442.088	12173.64
442.294	11833.68
442.501	12208.45
442.708	12493.12
442.914	13084.98
443.121	13603.12
443.328	13064.5
443.534	14127.4
443.741	13680.94
443.948	13513.01
444.154	14268.71
444.361	14252.33
444.568	14393.64
444.774	14534.95
444.981	14563.62
445.187	14993.69
445.394	15577.36
445.6	15464.72
445.807	16929.02
446.013	16290.06
446.22	16607.49
446.426	17258.74
446.633	17445.11
446.839	18034.92
447.046	17217.79
447.252	18241.77
447.459	18135.28
447.665	18086.12
447.871	19099.87
448.078	20000.97
448.284	18710.75
448.491	19316.95
448.697	20244.68
448.903	20392.14
449.11	20615.37
449.316	20046.03
449.522	20615.37
449.728	20949.18
449.935	21188.8
450.141	21371.07
450.347	21827.76
450.553	20912.32
450.76	20969.66
450.966	22116.53
451.172	21524.66
451.378	22407.34
451.584	21864.63
451.791	22261.93
451.997	22317.23
452.203	22401.19
452.409	22659.24
452.615	22640.81
452.821	21573.81
453.027	21612.73
453.233	22681.77
453.44	21639.35
453.646	21889.2
453.852	21895.35
454.058	22266.03
454.264	21747.89
454.47	22155.44
454.676	21450.94
454.882	22405.29
455.088	20238.54
455.294	20703.43
455.5	21143.74
455.705	21264.57
455.911	20222.16
456.117	19945.68
456.323	20019.41
456.529	18764
456.735	19362.01
456.941	18864.35
457.147	18573.54
457.352	18122.99
457.558	17897.71
457.764	17799.41
457.97	17553.65
458.176	16890.11
458.381	17385.72
458.587	16308.49
458.793	16480.52
458.999	15532.31
459.204	16656.64
459.41	16277.77
459.616	15139.1
459.821	15139.1
460.027	15235.35
460.233	14913.82
460.438	14000.43
460.644	14237.99
460.85	13463.86
461.055	13381.94
461.261	13199.67
461.466	12489.03
461.672	11911.5
461.878	12937.53
462.083	12108.1
462.289	11698.51
462.494	11680.08
462.7	11098.45
462.905	10905.95
463.111	11217.24
463.316	11225.43
463.522	10975.58
463.727	11254.1
463.932	11030.87
464.138	10778.97
464.343	11282.77
464.549	10832.22
464.754	10983.77
464.959	10834.27
465.165	10752.35
465.37	10459.49
465.575	10422.62
465.781	10619.23
465.986	10506.59
466.191	10187.11
466.397	10017.13
466.602	9621.87
466.807	9929.06
467.012	10010.98
467.218	9824.62
467.423	9617.77
467.628	9875.82
467.833	10312.03
468.038	9628.01
468.244	9671.02
468.449	9978.22
468.654	9595.25
468.859	9470.32
