Data from USB4F104151__86__13-54-27-170.txt Node

Date: Thu Mar 13 13:54:27 EDT 2025
User: louis
Spectrometer: USB4F10415
Trigger mode: 4
Integration Time (sec): 1.000000E-2
Scans to average: 1
Electric dark correction enabled: true
Nonlinearity correction enabled: false
Boxcar width: 0
XAxis mode: Wavelengths
Number of Pixels in Spectrum: 3648
>>>>>Begin Spectral Data<<<<<
178.204	35.67
178.424	35.67
178.644	35.67
178.864	-11.43
179.084	-11.43
179.304	-9.39
179.524	-15.53
179.744	11.09
179.964	37.72
180.184	-38.06
180.404	-27.82
180.624	-17.58
180.844	17.24
181.064	-31.91
181.283	70.48
181.503	-62.63
181.723	66.39
181.943	45.91
182.163	19.29
182.383	2.9
182.602	-21.67
182.822	2.9
183.042	43.86
183.262	-40.11
183.482	2.9
183.701	60.24
183.921	-1.19
184.141	-99.5
184.361	-5.29
184.58	-1.19
184.8	4.95
185.02	35.67
185.239	21.33
185.459	-25.77
185.679	29.52
185.898	-7.34
186.118	-79.02
186.338	4.95
186.557	7
186.777	31.57
186.997	7
187.216	33.62
187.436	15.19
187.655	58.2
187.875	4.95
188.095	-52.39
188.314	90.96
188.534	43.86
188.753	68.44
188.973	107.35
189.192	15.19
189.412	15.19
189.631	9.05
189.851	50
190.07	68.44
190.29	23.38
190.509	66.39
190.729	84.82
190.948	41.81
191.168	76.63
191.387	-17.58
191.607	-29.87
191.826	56.15
192.045	21.33
192.265	-29.87
192.484	-31.91
192.704	13.14
192.923	39.76
193.142	-36.01
193.362	29.52
193.581	35.67
193.8	0.85
194.02	33.62
194.239	19.29
194.458	19.29
194.678	-44.2
194.897	39.76
195.116	66.39
195.335	-56.49
195.555	35.67
195.774	0.85
195.993	66.39
196.212	-13.48
196.432	-1.19
196.651	66.39
196.87	-11.43
197.089	21.33
197.308	-36.01
197.528	-50.35
197.747	-17.58
197.966	74.58
198.185	37.72
198.404	7
198.623	90.96
198.842	-3.24
199.062	72.53
199.281	47.96
199.5	-5.29
199.719	13.14
199.938	-9.39
200.157	15.19
200.376	25.43
200.595	70.48
200.814	11.09
201.033	84.82
201.252	17.24
201.471	-38.06
201.69	-21.67
201.909	45.91
202.128	-13.48
202.347	-1.19
202.566	0.85
202.785	62.29
203.004	68.44
203.223	17.24
203.442	78.68
203.661	9.05
203.879	-13.48
204.098	62.29
204.317	31.57
204.536	-3.24
204.755	50
204.974	86.87
205.193	58.2
205.411	58.2
205.63	19.29
205.849	86.87
206.068	-13.48
206.287	-31.91
206.505	56.15
206.724	25.43
206.943	2.9
207.162	33.62
207.381	-7.34
207.599	-5.29
207.818	-15.53
208.037	29.52
208.255	17.24
208.474	23.38
208.693	7
208.911	-23.72
209.13	-5.29
209.349	68.44
209.567	39.76
209.786	17.24
210.005	41.81
210.223	39.76
210.442	31.57
210.661	-1.19
210.879	93.01
211.098	72.53
211.316	-21.67
211.535	70.48
211.753	2.9
211.972	68.44
212.191	60.24
212.409	37.72
212.628	43.86
212.846	19.29
213.065	-7.34
213.283	64.34
213.502	-11.43
213.72	27.48
213.938	54.1
214.157	41.81
214.375	9.05
214.594	-17.58
214.812	27.48
215.031	31.57
215.249	-17.58
215.467	-1.19
215.686	9.05
215.904	-21.67
216.122	7
216.341	64.34
216.559	72.53
216.778	62.29
216.996	21.33
217.214	-19.63
217.432	41.81
217.651	50
217.869	74.58
218.087	54.1
218.306	-54.44
218.524	15.19
218.742	-1.19
218.96	70.48
219.179	-9.39
219.397	-11.43
219.615	-7.34
219.833	17.24
220.051	-50.35
220.27	31.57
220.488	-27.82
220.706	27.48
220.924	62.29
221.142	-9.39
221.36	-40.11
221.578	19.29
221.796	25.43
222.015	21.33
222.233	58.2
222.451	43.86
222.669	15.19
222.887	7
223.105	54.1
223.323	21.33
223.541	0.85
223.759	33.62
223.977	62.29
224.195	-17.58
224.413	2.9
224.631	25.43
224.849	-46.25
225.067	64.34
225.285	-11.43
225.503	88.92
225.721	27.48
225.939	-5.29
226.157	33.62
226.375	29.52
226.592	13.14
226.81	23.38
227.028	78.68
227.246	39.76
227.464	19.29
227.682	78.68
227.9	7
228.117	-9.39
228.335	-1.19
228.553	107.35
228.771	76.63
228.989	47.96
229.206	-13.48
229.424	70.48
229.642	4.95
229.86	2.9
230.077	39.76
230.295	47.96
230.513	70.48
230.731	74.58
230.948	27.48
231.166	88.92
231.384	58.2
231.601	27.48
231.819	-27.82
232.037	-25.77
232.254	-7.34
232.472	-21.67
232.689	103.25
232.907	-19.63
233.125	95.06
233.342	37.72
233.56	-62.63
233.777	64.34
233.995	47.96
234.213	-9.39
234.43	19.29
234.648	60.24
234.865	93.01
235.083	-1.19
235.3	-23.72
235.518	-25.77
235.735	35.67
235.953	9.05
236.17	11.09
236.388	-44.2
236.605	-25.77
236.822	58.2
237.04	39.76
237.257	19.29
237.475	9.05
237.692	43.86
237.909	-3.24
238.127	54.1
238.344	19.29
238.562	11.09
238.779	27.48
238.996	-21.67
239.214	-3.24
239.431	39.76
239.648	-27.82
239.865	7
240.083	-46.25
240.3	52.05
240.517	21.33
240.735	-27.82
240.952	-5.29
241.169	19.29
241.386	-1.19
241.603	-48.3
241.821	43.86
242.038	-54.44
242.255	27.48
242.472	-7.34
242.689	64.34
242.907	23.38
243.124	29.52
243.341	99.16
243.558	54.1
243.775	4.95
243.992	-64.68
244.209	62.29
244.426	-33.96
244.643	50
244.86	-11.43
245.078	15.19
245.295	90.96
245.512	66.39
245.729	-36.01
245.946	0.85
246.163	15.19
246.38	25.43
246.597	41.81
246.814	13.14
247.031	31.57
247.248	-36.01
247.464	-62.63
247.681	11.09
247.898	68.44
248.115	21.33
248.332	54.1
248.549	-11.43
248.766	-5.29
248.983	23.38
249.2	54.1
249.417	17.24
249.633	39.76
249.85	2.9
250.067	93.01
250.284	43.86
250.501	-29.87
250.717	50
250.934	41.81
251.151	25.43
251.368	37.72
251.585	-27.82
251.801	-29.87
252.018	-91.31
252.235	-33.96
252.451	25.43
252.668	-5.29
252.885	-9.39
253.102	43.86
253.318	39.76
253.535	-3.24
253.752	66.39
253.968	2.9
254.185	-52.39
254.401	21.33
254.618	41.81
254.835	35.67
255.051	99.16
255.268	2.9
255.484	11.09
255.701	78.68
255.917	60.24
256.134	41.81
256.351	9.05
256.567	2.9
256.784	54.1
257	21.33
257.217	19.29
257.433	25.43
257.65	19.29
257.866	64.34
258.082	37.72
258.299	-38.06
258.515	-36.01
258.732	45.91
258.948	-23.72
259.165	-52.39
259.381	41.81
259.597	21.33
259.814	19.29
260.03	0.85
260.246	-1.19
260.463	-36.01
260.679	72.53
260.895	23.38
261.112	39.76
261.328	58.2
261.544	50
261.761	80.72
261.977	11.09
262.193	66.39
262.409	23.38
262.626	68.44
262.842	-17.58
263.058	-38.06
263.274	52.05
263.49	33.62
263.707	-3.24
263.923	-9.39
264.139	52.05
264.355	4.95
264.571	-1.19
264.787	47.96
265.004	21.33
265.22	-11.43
265.436	39.76
265.652	-13.48
265.868	15.19
266.084	7
266.3	23.38
266.516	68.44
266.732	31.57
266.948	-50.35
267.164	-7.34
267.38	41.81
267.596	17.24
267.812	66.39
268.028	41.81
268.244	121.68
268.46	37.72
268.676	29.52
268.892	41.81
269.108	21.33
269.324	39.76
269.54	-23.72
269.756	60.24
269.972	-46.25
270.188	41.81
270.403	37.72
270.619	-54.44
270.835	-15.53
271.051	19.29
271.267	-11.43
271.483	4.95
271.698	29.52
271.914	-3.24
272.13	64.34
272.346	54.1
272.562	23.38
272.777	54.1
272.993	45.91
273.209	11.09
273.425	-19.63
273.64	27.48
273.856	33.62
274.072	19.29
274.287	56.15
274.503	41.81
274.719	80.72
274.934	27.48
275.15	-9.39
275.366	2.9
275.581	37.72
275.797	68.44
276.012	29.52
276.228	0.85
276.444	70.48
276.659	7
276.875	17.24
277.09	72.53
277.306	88.92
277.521	60.24
277.737	-40.11
277.952	41.81
278.168	58.2
278.383	-1.19
278.599	-5.29
278.814	-72.87
279.03	33.62
279.245	29.52
279.461	25.43
279.676	9.05
279.892	-44.2
280.107	-31.91
280.322	-36.01
280.538	58.2
280.753	-13.48
280.969	103.25
281.184	-29.87
281.399	-5.29
281.615	47.96
281.83	31.57
282.045	41.81
282.26	58.2
282.476	-7.34
282.691	-17.58
282.906	64.34
283.122	-15.53
283.337	-21.67
283.552	37.72
283.767	2.9
283.983	64.34
284.198	62.29
284.413	74.58
284.628	25.43
284.843	54.1
285.058	37.72
285.274	33.62
285.489	95.06
285.704	80.72
285.919	72.53
286.134	95.06
286.349	7
286.564	25.43
286.779	-9.39
286.995	119.64
287.21	-48.3
287.425	62.29
287.64	-44.2
287.855	11.09
288.07	25.43
288.285	7
288.5	60.24
288.715	50
288.93	27.48
289.145	19.29
289.36	39.76
289.575	72.53
289.79	7
290.004	-27.82
290.219	27.48
290.434	17.24
290.649	11.09
290.864	-3.24
291.079	-17.58
291.294	-33.96
291.509	-50.35
291.724	-48.3
291.938	-13.48
292.153	9.05
292.368	-7.34
292.583	33.62
292.798	47.96
293.012	84.82
293.227	45.91
293.442	-13.48
293.657	117.59
293.871	64.34
294.086	11.09
294.301	76.63
294.516	15.19
294.73	9.05
294.945	9.05
295.16	47.96
295.374	-11.43
295.589	45.91
295.804	78.68
296.018	39.76
296.233	23.38
296.447	39.76
296.662	25.43
296.877	11.09
297.091	-48.3
297.306	84.82
297.52	-3.24
297.735	52.05
297.949	-5.29
298.164	-23.72
298.378	35.67
298.593	19.29
298.807	7
299.022	25.43
299.236	11.09
299.451	41.81
299.665	37.72
299.88	-27.82
300.094	-31.91
300.309	31.57
300.523	19.29
300.737	25.43
300.952	27.48
301.166	37.72
301.381	2.9
301.595	13.14
301.809	-62.63
302.024	2.9
302.238	-1.19
302.452	27.48
302.667	31.57
302.881	15.19
303.095	31.57
303.309	45.91
303.524	66.39
303.738	43.86
303.952	0.85
304.166	78.68
304.381	7
304.595	68.44
304.809	-42.15
305.023	29.52
305.237	17.24
305.452	11.09
305.666	54.1
305.88	90.96
306.094	56.15
306.308	64.34
306.522	-21.67
306.736	-7.34
306.95	88.92
307.164	29.52
307.379	64.34
307.593	47.96
307.807	41.81
308.021	41.81
308.235	47.96
308.449	52.05
308.663	43.86
308.877	31.57
309.091	-1.19
309.305	23.38
309.519	2.9
309.733	56.15
309.947	-1.19
310.161	7
310.374	23.38
310.588	4.95
310.802	33.62
311.016	50
311.23	27.48
311.444	13.14
311.658	80.72
311.872	56.15
312.085	13.14
312.299	33.62
312.513	7
312.727	62.29
312.941	52.05
313.154	31.57
313.368	66.39
313.582	74.58
313.796	25.43
314.009	27.48
314.223	0.85
314.437	80.72
314.651	39.76
314.864	43.86
315.078	25.43
315.292	15.19
315.505	54.1
315.719	33.62
315.933	-58.54
316.146	23.38
316.36	-23.72
316.573	-13.48
316.787	4.95
317.001	-29.87
317.214	19.29
317.428	68.44
317.641	43.86
317.855	-13.48
318.068	-50.35
318.282	43.86
318.495	50
318.709	72.53
318.922	58.2
319.136	47.96
319.349	7
319.563	78.68
319.776	54.1
319.99	52.05
320.203	-1.19
320.417	56.15
320.63	88.92
320.843	4.95
321.057	41.81
321.27	58.2
321.483	35.67
321.697	45.91
321.91	27.48
322.124	66.39
322.337	4.95
322.55	-33.96
322.763	74.58
322.977	37.72
323.19	43.86
323.403	45.91
323.617	13.14
323.83	15.19
324.043	-11.43
324.256	-50.35
324.469	37.72
324.683	2.9
324.896	37.72
325.109	31.57
325.322	9.05
325.535	47.96
325.748	60.24
325.962	50
326.175	88.92
326.388	-15.53
326.601	45.91
326.814	23.38
327.027	103.25
327.24	37.72
327.453	-5.29
327.666	37.72
327.879	72.53
328.092	-40.11
328.305	86.87
328.518	-23.72
328.731	21.33
328.944	62.29
329.157	23.38
329.37	-60.59
329.583	25.43
329.796	-23.72
330.009	7
330.222	107.35
330.435	27.48
330.648	47.96
330.861	-15.53
331.073	39.76
331.286	11.09
331.499	43.86
331.712	-38.06
331.925	35.67
332.138	103.25
332.35	-40.11
332.563	-9.39
332.776	2.9
332.989	-7.34
333.202	9.05
333.414	50
333.627	90.96
333.84	0.85
334.053	78.68
334.265	-1.19
334.478	80.72
334.691	72.53
334.903	50
335.116	27.48
335.329	43.86
335.541	64.34
335.754	50
335.966	4.95
336.179	43.86
336.392	31.57
336.604	47.96
336.817	88.92
337.029	115.54
337.242	58.2
337.454	45.91
337.667	-19.63
337.88	-7.34
338.092	-42.15
338.305	47.96
338.517	54.1
338.729	52.05
338.942	37.72
339.154	58.2
339.367	39.76
339.579	17.24
339.792	9.05
340.004	54.1
340.217	-3.24
340.429	82.77
340.641	13.14
340.854	56.15
341.066	56.15
341.278	-33.96
341.491	74.58
341.703	50
341.915	11.09
342.128	19.29
342.34	4.95
342.552	58.2
342.764	64.34
342.977	76.63
343.189	-48.3
343.401	25.43
343.613	-17.58
343.826	19.29
344.038	-58.54
344.25	-7.34
344.462	23.38
344.674	105.3
344.886	23.38
345.099	0.85
345.311	74.58
345.523	90.96
345.735	-11.43
345.947	54.1
346.159	-42.15
346.371	-29.87
346.583	117.59
346.795	117.59
347.007	31.57
347.219	47.96
347.431	68.44
347.643	68.44
347.855	47.96
348.067	7
348.279	56.15
348.491	29.52
348.703	58.2
348.915	52.05
349.127	23.38
349.339	11.09
349.551	66.39
349.763	15.19
349.975	-23.72
350.187	31.57
350.399	19.29
350.61	74.58
350.822	17.24
351.034	50
351.246	25.43
351.458	-11.43
351.669	17.24
351.881	23.38
352.093	41.81
352.305	37.72
352.517	37.72
352.728	52.05
352.94	52.05
353.152	15.19
353.363	41.81
353.575	41.81
353.787	13.14
353.999	33.62
354.21	29.52
354.422	82.77
354.633	23.38
354.845	64.34
355.057	-3.24
355.268	56.15
355.48	29.52
355.692	33.62
355.903	58.2
356.115	33.62
356.326	-40.11
356.538	41.81
356.749	-17.58
356.961	56.15
357.172	35.67
357.384	2.9
357.595	39.76
357.807	66.39
358.018	23.38
358.23	-46.25
358.441	15.19
358.653	-29.87
358.864	15.19
359.075	43.86
359.287	25.43
359.498	50
359.709	-5.29
359.921	52.05
360.132	-52.39
360.344	64.34
360.555	103.25
360.766	60.24
360.977	-11.43
361.189	37.72
361.4	60.24
361.611	72.53
361.823	72.53
362.034	47.96
362.245	68.44
362.456	-15.53
362.667	-23.72
362.879	25.43
363.09	39.76
363.301	54.1
363.512	45.91
363.723	93.01
363.935	64.34
364.146	-9.39
364.357	-11.43
364.568	45.91
364.779	41.81
364.99	4.95
365.201	25.43
365.412	127.83
365.623	-25.77
365.834	13.14
366.045	15.19
366.256	66.39
366.467	13.14
366.678	60.24
366.889	19.29
367.1	9.05
367.311	21.33
367.522	17.24
367.733	33.62
367.944	82.77
368.155	41.81
368.366	39.76
368.577	80.72
368.788	39.76
368.999	9.05
369.209	47.96
369.42	70.48
369.631	2.9
369.842	39.76
370.053	0.85
370.264	47.96
370.474	68.44
370.685	21.33
370.896	17.24
371.107	70.48
371.317	27.48
371.528	-23.72
371.739	78.68
371.95	9.05
372.16	66.39
372.371	7
372.582	99.16
372.792	-56.49
373.003	13.14
373.214	2.9
373.424	72.53
373.635	64.34
373.846	68.44
374.056	19.29
374.267	70.48
374.477	-5.29
374.688	-48.3
374.898	39.76
375.109	107.35
375.319	-46.25
375.53	58.2
375.74	58.2
375.951	-25.77
376.161	58.2
376.372	39.76
376.582	25.43
376.793	25.43
377.003	25.43
377.214	66.39
377.424	78.68
377.635	35.67
377.845	-29.87
378.055	62.29
378.266	-25.77
378.476	82.77
378.686	80.72
378.897	-13.48
379.107	60.24
379.317	58.2
379.528	56.15
379.738	76.63
379.948	58.2
380.158	66.39
380.369	37.72
380.579	47.96
380.789	15.19
380.999	41.81
381.21	-3.24
381.42	29.52
381.63	105.3
381.84	52.05
382.05	39.76
382.261	47.96
382.471	68.44
382.681	-25.77
382.891	80.72
383.101	29.52
383.311	86.87
383.521	56.15
383.731	33.62
383.941	74.58
384.151	-1.19
384.361	41.81
384.571	31.57
384.781	52.05
384.991	9.05
385.201	43.86
385.411	52.05
385.621	-11.43
385.831	52.05
386.041	9.05
386.251	21.33
386.461	-19.63
386.671	64.34
386.881	58.2
387.091	43.86
387.301	41.81
387.511	-3.24
387.72	50
387.93	78.68
388.14	4.95
388.35	25.43
388.56	15.19
388.769	60.24
388.979	58.2
389.189	-15.53
389.399	31.57
389.609	84.82
389.818	21.33
390.028	-3.24
390.238	0.85
390.447	47.96
390.657	35.67
390.867	62.29
391.076	47.96
391.286	-9.39
391.496	58.2
391.705	72.53
391.915	58.2
392.125	45.91
392.334	39.76
392.544	21.33
392.753	39.76
392.963	25.43
393.172	68.44
393.382	9.05
393.591	-11.43
393.801	82.77
394.01	70.48
394.22	47.96
394.429	82.77
394.639	-27.82
394.848	66.39
395.058	45.91
395.267	54.1
395.477	13.14
395.686	56.15
395.895	88.92
396.105	117.59
396.314	19.29
396.524	80.72
396.733	68.44
396.942	123.73
397.152	74.58
397.361	37.72
397.57	146.26
397.78	170.83
397.989	97.11
398.198	56.15
398.407	45.91
398.617	29.52
398.826	76.63
399.035	90.96
399.244	29.52
399.453	154.45
399.663	146.26
399.872	25.43
400.081	117.59
400.29	52.05
400.499	19.29
400.708	60.24
400.917	72.53
401.127	72.53
401.336	142.16
401.545	54.1
401.754	127.83
401.963	133.97
402.172	70.48
402.381	117.59
402.59	37.72
402.799	123.73
403.008	76.63
403.217	88.92
403.426	68.44
403.635	162.64
403.844	66.39
404.053	113.49
404.262	140.12
404.471	154.45
404.68	131.92
404.888	56.15
405.097	105.3
405.306	129.88
405.515	105.3
405.724	82.77
405.933	99.16
406.142	179.03
406.35	99.16
406.559	174.93
406.768	97.11
406.977	121.68
407.185	123.73
407.394	115.54
407.603	103.25
407.812	154.45
408.02	195.41
408.229	160.59
408.438	166.74
408.646	226.13
408.855	111.44
409.064	187.22
409.272	164.69
409.481	217.94
409.69	195.41
409.898	164.69
410.107	234.32
410.315	228.18
410.524	222.03
410.733	283.47
410.941	232.27
411.15	269.14
411.358	260.95
411.567	306
411.775	316.24
411.984	258.9
412.192	297.81
412.401	359.25
412.609	306
412.818	377.68
413.026	328.53
413.234	396.11
413.443	312.14
413.651	318.29
413.86	473.93
414.068	406.35
414.276	512.85
414.485	475.98
414.693	512.85
414.901	471.89
415.11	510.8
415.318	473.93
415.526	592.72
415.734	553.8
415.943	656.2
416.151	535.37
416.359	666.44
416.567	688.97
416.776	641.87
416.984	721.74
417.192	719.69
417.4	699.21
417.608	674.64
417.817	867.14
418.025	801.61
418.233	826.18
418.441	910.15
418.649	965.45
418.857	897.86
419.065	971.59
419.273	889.67
419.481	1069.89
419.689	1176.39
419.897	1200.96
420.105	1141.57
420.313	1131.33
420.521	1237.83
420.729	1174.34
420.937	1211.2
421.145	1340.22
421.353	1375.04
421.561	1506.11
421.769	1401.66
421.977	1493.82
422.185	1479.49
422.393	1602.36
422.601	1723.2
422.809	1639.23
423.017	1723.2
423.224	1706.81
423.432	1813.31
423.64	1825.59
423.848	1971
424.056	1962.81
424.263	2257.71
424.471	2032.44
424.679	2077.49
424.887	2282.29
425.094	2282.29
425.302	2280.24
425.51	2431.79
425.718	2464.56
425.925	2485.04
426.133	2626.35
426.341	2765.61
426.548	2951.98
426.756	2853.67
426.964	2863.91
427.171	3109.67
427.379	3265.32
427.586	3232.55
427.794	3277.6
428.001	3384.1
428.209	3660.57
428.417	3412.77
428.624	3668.77
428.832	3783.45
429.039	3771.16
429.247	3644.19
429.454	4258.58
429.662	4512.53
429.869	4098.84
430.076	4406.03
430.284	4203.29
430.491	4401.94
430.699	4723.47
430.906	4803.34
431.114	4803.34
431.321	4932.36
431.528	5110.54
431.736	5391.11
431.943	5571.33
432.15	5366.53
432.358	5444.35
432.565	5849.85
432.772	5729.02
432.979	6232.82
433.187	6306.55
433.394	6167.29
433.601	6808.3
433.808	6673.14
434.016	6693.62
434.223	7060.2
434.43	7506.66
434.637	7148.26
434.844	7674.59
435.052	7820
435.259	7963.36
435.466	7858.91
435.673	7535.33
435.88	8145.63
436.087	8796.88
436.294	8678.1
436.501	8436.44
436.708	8590.03
436.915	8923.85
437.122	9231.05
437.329	9413.32
437.537	9734.85
437.743	9956.03
437.95	9788.1
438.157	10191.55
438.364	10324.66
438.571	10511.03
438.778	10678.96
438.985	11563.68
439.192	10957.49
439.399	11332.26
439.606	11147.95
439.813	11920.03
440.02	12640.92
440.227	12280.47
440.433	12368.54
440.64	12720.79
440.847	12659.35
441.054	12827.28
441.261	13669
441.467	13585.03
441.674	13904.51
441.881	14414.46
442.088	14336.63
442.294	14506.62
442.501	14590.58
442.708	14867.06
442.914	15415.91
443.121	15975.01
443.328	15706.73
443.534	16634.46
443.741	16085.6
443.948	16104.03
444.154	17234.51
444.361	17099.34
444.568	17234.51
444.774	17171.02
444.981	17492.55
445.187	17926.72
445.394	18635.32
445.6	18414.14
445.807	20253.22
446.013	19442.22
446.22	19587.63
446.426	20572.7
446.633	20707.87
446.839	21443.09
447.046	20576.8
447.252	21555.72
447.459	21703.18
447.665	21651.98
447.871	22592
448.078	23429.62
448.284	22362.62
448.491	22639.1
448.697	23837.16
448.903	24304.1
449.11	24181.22
449.316	23822.83
449.522	24449.5
449.728	24850.91
449.935	25389.52
450.141	25039.32
450.347	25633.23
450.553	24668.64
450.76	25174.49
450.966	25952.71
451.172	25612.75
451.378	26368.45
451.584	25657.81
451.791	26567.1
451.997	26374.59
452.203	26960.31
452.409	26874.3
452.615	26419.65
452.821	25952.71
453.027	25262.55
453.233	26431.94
453.44	25524.69
453.646	25915.85
453.852	25934.28
454.058	26020.3
454.264	25504.21
454.47	25930.19
454.676	25199.06
454.882	26280.39
455.088	24091.11
455.294	24459.74
455.5	24629.73
455.705	24994.26
455.911	23847.4
456.117	23341.55
456.323	23200.24
456.529	22159.88
456.735	22778.36
456.941	22391.3
457.147	21664.27
457.352	20972.05
457.558	20826.65
457.764	21060.12
457.97	20374.05
458.176	20073
458.381	20095.52
458.587	19315.25
458.793	19202.61
458.999	18037.31
459.204	19536.43
459.41	19085.87
459.616	17654.34
459.821	17799.75
460.027	17607.24
460.233	17193.55
460.438	16642.65
460.644	16831.06
460.85	15854.18
461.055	15661.67
461.261	15278.7
461.466	14453.37
461.672	14023.3
461.878	15157.87
462.083	13941.38
462.289	13810.31
462.494	13644.42
462.7	13073.04
462.905	12765.84
463.111	13093.52
463.316	13255.31
463.522	12851.86
463.727	12866.19
463.932	12935.82
464.138	12929.68
464.343	12931.73
464.549	12524.18
464.754	12804.75
464.959	12827.28
465.165	12722.84
465.37	12221.08
465.575	11870.88
465.781	12393.11
465.986	12497.56
466.191	11944.61
466.397	11721.38
466.602	11190.95
466.807	11502.25
467.012	11459.24
467.218	11436.71
467.423	11172.52
467.628	11307.69
467.833	11905.7
468.038	11612.84
468.244	11131.56
468.449	11496.1
468.654	11010.73
468.859	11072.17
469.064	11063.98
469.269	10580.66
469.474	10642.1
469.679	10744.5
