Data from USB4F104151__103__13-54-44-168.txt Node

Date: Thu Mar 13 13:54:44 EDT 2025
User: louis
Spectrometer: USB4F10415
Trigger mode: 4
Integration Time (sec): 1.000000E-2
Scans to average: 1
Electric dark correction enabled: true
Nonlinearity correction enabled: false
Boxcar width: 0
XAxis mode: Wavelengths
Number of Pixels in Spectrum: 3648
>>>>>Begin Spectral Data<<<<<
178.204	-13.82
178.424	-13.82
178.644	-13.82
178.864	-15.87
179.084	-38.4
179.304	-19.97
179.524	51.71
179.744	14.85
179.964	-65.02
180.184	-48.64
180.404	33.28
180.624	43.52
180.844	-13.82
181.064	-19.97
181.283	33.28
181.503	16.9
181.723	-26.11
181.943	2.56
182.163	10.75
182.383	59.9
182.602	39.42
182.822	10.75
183.042	-7.68
183.262	-89.6
183.482	70.14
183.701	8.7
183.921	37.38
184.141	55.81
184.361	86.53
184.58	55.81
184.8	41.47
185.02	72.19
185.239	35.33
185.459	49.66
185.679	84.48
185.898	16.9
186.118	-42.5
186.338	45.57
186.557	82.43
186.777	37.38
186.997	14.85
187.216	39.42
187.436	31.23
187.655	92.67
187.875	10.75
188.095	33.28
188.314	72.19
188.534	66.05
188.753	70.14
188.973	-5.63
189.192	35.33
189.412	55.81
189.631	-17.92
189.851	53.76
190.07	96.77
190.29	-56.83
190.509	10.75
190.729	53.76
190.948	-54.78
191.168	72.19
191.387	70.14
191.607	70.14
191.826	-5.63
192.045	29.18
192.265	76.29
192.484	113.15
192.704	82.43
192.923	27.14
193.142	25.09
193.362	53.76
193.581	43.52
193.8	23.04
194.02	59.9
194.239	68.09
194.458	70.14
194.678	47.62
194.897	31.23
195.116	74.24
195.335	45.57
195.555	43.52
195.774	92.67
195.993	27.14
196.212	8.7
196.432	12.8
196.651	14.85
196.87	92.67
197.089	55.81
197.308	43.52
197.528	98.81
197.747	-32.26
197.966	66.05
198.185	8.7
198.404	88.57
198.623	72.19
198.842	-30.21
199.062	102.91
199.281	84.48
199.5	16.9
199.719	43.52
199.938	4.61
200.157	41.47
200.376	39.42
200.595	43.52
200.814	76.29
201.033	94.72
201.252	55.81
201.471	-24.06
201.69	70.14
201.909	53.76
202.128	29.18
202.347	49.66
202.566	49.66
202.785	2.56
203.004	8.7
203.223	78.33
203.442	23.04
203.661	18.94
203.879	49.66
204.098	16.9
204.317	68.09
204.536	121.34
204.755	14.85
204.974	113.15
205.193	25.09
205.411	12.8
205.63	41.47
205.849	57.86
206.068	43.52
206.287	68.09
206.505	33.28
206.724	53.76
206.943	61.95
207.162	14.85
207.381	53.76
207.599	8.7
207.818	14.85
208.037	98.81
208.255	16.9
208.474	-38.4
208.693	82.43
208.911	80.38
209.13	70.14
209.349	57.86
209.567	76.29
209.786	-3.58
210.005	43.52
210.223	27.14
210.442	-28.16
210.661	47.62
210.879	125.44
211.098	-9.73
211.316	43.52
211.535	35.33
211.753	74.24
211.972	16.9
212.191	45.57
212.409	25.09
212.628	31.23
212.846	0.51
213.065	-36.35
213.283	33.28
213.502	70.14
213.72	-13.82
213.938	45.57
214.157	29.18
214.375	47.62
214.594	-30.21
214.812	76.29
215.031	125.44
215.249	90.62
215.467	57.86
215.686	96.77
215.904	76.29
216.122	-44.54
216.341	59.9
216.559	18.94
216.778	6.66
216.996	127.49
217.214	41.47
217.432	84.48
217.651	66.05
217.869	-7.68
218.087	-9.73
218.306	-19.97
218.524	39.42
218.742	-11.78
218.96	43.52
219.179	100.86
219.397	90.62
219.615	64
219.833	29.18
220.051	16.9
220.27	121.34
220.488	-44.54
220.706	-15.87
220.924	31.23
221.142	88.57
221.36	45.57
221.578	45.57
221.796	45.57
222.015	70.14
222.233	8.7
222.451	6.66
222.669	76.29
222.887	113.15
223.105	4.61
223.323	-30.21
223.541	39.42
223.759	-17.92
223.977	6.66
224.195	35.33
224.413	61.95
224.631	25.09
224.849	-26.11
225.067	59.9
225.285	35.33
225.503	74.24
225.721	-32.26
225.939	86.53
226.157	39.42
226.375	47.62
226.592	66.05
226.81	16.9
227.028	-28.16
227.246	109.05
227.464	18.94
227.682	70.14
227.9	84.48
228.117	35.33
228.335	10.75
228.553	84.48
228.771	23.04
228.989	72.19
229.206	35.33
229.424	16.9
229.642	6.66
229.86	-24.06
230.077	70.14
230.295	16.9
230.513	41.47
230.731	47.62
230.948	47.62
231.166	127.49
231.384	57.86
231.601	35.33
231.819	92.67
232.037	12.8
232.254	78.33
232.472	31.23
232.689	104.96
232.907	18.94
233.125	53.76
233.342	2.56
233.56	27.14
233.777	16.9
233.995	4.61
234.213	78.33
234.43	39.42
234.648	10.75
234.865	61.95
235.083	35.33
235.3	64
235.518	33.28
235.735	82.43
235.953	84.48
236.17	25.09
236.388	29.18
236.605	49.66
236.822	-36.35
237.04	14.85
237.257	25.09
237.475	70.14
237.692	86.53
237.909	76.29
238.127	55.81
238.344	57.86
238.562	57.86
238.779	53.76
238.996	104.96
239.214	-48.64
239.431	43.52
239.648	16.9
239.865	92.67
240.083	4.61
240.3	35.33
240.517	6.66
240.735	20.99
240.952	66.05
241.169	45.57
241.386	-5.63
241.603	45.57
241.821	43.52
242.038	39.42
242.255	94.72
242.472	37.38
242.689	33.28
242.907	57.86
243.124	78.33
243.341	57.86
243.558	45.57
243.775	53.76
243.992	80.38
244.209	45.57
244.426	82.43
244.643	59.9
244.86	25.09
245.078	43.52
245.295	-3.58
245.512	133.63
245.729	68.09
245.946	-13.82
246.163	25.09
246.38	-48.64
246.597	14.85
246.814	43.52
247.031	59.9
247.248	23.04
247.464	-1.54
247.681	51.71
247.898	72.19
248.115	57.86
248.332	41.47
248.549	84.48
248.766	25.09
248.983	57.86
249.2	23.04
249.417	-5.63
249.633	90.62
249.85	39.42
250.067	31.23
250.284	74.24
250.501	35.33
250.717	-9.73
250.934	66.05
251.151	59.9
251.368	-46.59
251.585	113.15
251.801	70.14
252.018	49.66
252.235	57.86
252.451	25.09
252.668	72.19
252.885	-5.63
253.102	43.52
253.318	10.75
253.535	-28.16
253.752	61.95
253.968	72.19
254.185	41.47
254.401	27.14
254.618	37.38
254.835	53.76
255.051	70.14
255.268	59.9
255.484	82.43
255.701	53.76
255.917	98.81
256.134	39.42
256.351	80.38
256.567	74.24
256.784	51.71
257	78.33
257.217	37.38
257.433	-17.92
257.65	45.57
257.866	41.47
258.082	-26.11
258.299	92.67
258.515	49.66
258.732	72.19
258.948	109.05
259.165	-19.97
259.381	92.67
259.597	82.43
259.814	98.81
260.03	39.42
260.246	0.51
260.463	-15.87
260.679	98.81
260.895	37.38
261.112	55.81
261.328	-11.78
261.544	57.86
261.761	31.23
261.977	104.96
262.193	55.81
262.409	-50.69
262.626	25.09
262.842	27.14
263.058	39.42
263.274	76.29
263.49	20.99
263.707	55.81
263.923	-38.4
264.139	-38.4
264.355	51.71
264.571	78.33
264.787	41.47
265.004	41.47
265.22	100.86
265.436	25.09
265.652	100.86
265.868	92.67
266.084	-7.68
266.3	41.47
266.516	35.33
266.732	-24.06
266.948	35.33
267.164	33.28
267.38	-1.54
267.596	49.66
267.812	18.94
268.028	51.71
268.244	25.09
268.46	-22.02
268.676	51.71
268.892	-13.82
269.108	31.23
269.324	76.29
269.54	10.75
269.756	37.38
269.972	70.14
270.188	49.66
270.403	31.23
270.619	59.9
270.835	41.47
271.051	0.51
271.267	-5.63
271.483	8.7
271.698	94.72
271.914	-11.78
272.13	31.23
272.346	20.99
272.562	98.81
272.777	78.33
272.993	47.62
273.209	-13.82
273.425	66.05
273.64	66.05
273.856	55.81
274.072	66.05
274.287	41.47
274.503	37.38
274.719	-13.82
274.934	119.29
275.15	20.99
275.366	27.14
275.581	12.8
275.797	35.33
276.012	45.57
276.228	72.19
276.444	-1.54
276.659	0.51
276.875	-19.97
277.09	10.75
277.306	109.05
277.521	86.53
277.737	27.14
277.952	25.09
278.168	43.52
278.383	39.42
278.599	92.67
278.814	70.14
279.03	74.24
279.245	90.62
279.461	51.71
279.676	59.9
279.892	10.75
280.107	47.62
280.322	59.9
280.538	8.7
280.753	70.14
280.969	-7.68
281.184	53.76
281.399	145.92
281.615	23.04
281.83	45.57
282.045	66.05
282.26	4.61
282.476	23.04
282.691	64
282.906	4.61
283.122	6.66
283.337	29.18
283.552	45.57
283.767	90.62
283.983	49.66
284.198	59.9
284.413	43.52
284.628	72.19
284.843	23.04
285.058	-11.78
285.274	82.43
285.489	10.75
285.704	59.9
285.919	29.18
286.134	137.73
286.349	47.62
286.564	74.24
286.779	61.95
286.995	59.9
287.21	43.52
287.425	20.99
287.64	23.04
287.855	109.05
288.07	39.42
288.285	76.29
288.5	59.9
288.715	37.38
288.93	43.52
289.145	43.52
289.36	45.57
289.575	29.18
289.79	33.28
290.004	53.76
290.219	107.01
290.434	74.24
290.649	20.99
290.864	6.66
291.079	8.7
291.294	33.28
291.509	55.81
291.724	6.66
291.938	12.8
292.153	141.82
292.368	72.19
292.583	33.28
292.798	45.57
293.012	0.51
293.227	117.25
293.442	55.81
293.657	27.14
293.871	76.29
294.086	68.09
294.301	51.71
294.516	51.71
294.73	84.48
294.945	57.86
295.16	41.47
295.374	16.9
295.589	154.11
295.804	23.04
296.018	137.73
296.233	-1.54
296.447	59.9
296.662	8.7
296.877	35.33
297.091	51.71
297.306	115.2
297.52	25.09
297.735	74.24
297.949	41.47
298.164	111.1
298.378	51.71
298.593	70.14
298.807	33.28
299.022	6.66
299.236	35.33
299.451	92.67
299.665	-13.82
299.88	70.14
300.094	-17.92
300.309	74.24
300.523	49.66
300.737	41.47
300.952	51.71
301.166	14.85
301.381	-1.54
301.595	55.81
301.809	84.48
302.024	72.19
302.238	4.61
302.452	72.19
302.667	47.62
302.881	-7.68
303.095	74.24
303.309	45.57
303.524	47.62
303.738	-30.21
303.952	76.29
304.166	80.38
304.381	10.75
304.595	59.9
304.809	-15.87
305.023	12.8
305.237	37.38
305.452	41.47
305.666	4.61
305.88	100.86
306.094	143.87
306.308	-1.54
306.522	59.9
306.736	102.91
306.95	6.66
307.164	4.61
307.379	-3.58
307.593	92.67
307.807	-17.92
308.021	74.24
308.235	23.04
308.449	43.52
308.663	68.09
308.877	-17.92
309.091	51.71
309.305	43.52
309.519	12.8
309.733	74.24
309.947	-5.63
310.161	33.28
310.374	25.09
310.588	86.53
310.802	51.71
311.016	6.66
311.23	33.28
311.444	102.91
311.658	-1.54
311.872	117.25
312.085	35.33
312.299	33.28
312.513	-24.06
312.727	57.86
312.941	6.66
313.154	41.47
313.368	27.14
313.582	90.62
313.796	98.81
314.009	33.28
314.223	35.33
314.437	8.7
314.651	107.01
314.864	25.09
315.078	72.19
315.292	35.33
315.505	84.48
315.719	31.23
315.933	76.29
316.146	45.57
316.36	-32.26
316.573	-15.87
316.787	137.73
317.001	72.19
317.214	-44.54
317.428	61.95
317.641	72.19
317.855	57.86
318.068	90.62
318.282	100.86
318.495	98.81
318.709	14.85
318.922	39.42
319.136	51.71
319.349	53.76
319.563	72.19
319.776	33.28
319.99	123.39
320.203	57.86
320.417	29.18
320.63	53.76
320.843	41.47
321.057	18.94
321.27	98.81
321.483	-40.45
321.697	33.28
321.91	51.71
322.124	53.76
322.337	59.9
322.55	57.86
322.763	53.76
322.977	125.44
323.19	16.9
323.403	31.23
323.617	47.62
323.83	20.99
324.043	74.24
324.256	4.61
324.469	59.9
324.683	55.81
324.896	-26.11
325.109	-3.58
325.322	59.9
325.535	53.76
325.748	27.14
325.962	61.95
326.175	8.7
326.388	39.42
326.601	53.76
326.814	80.38
327.027	35.33
327.24	23.04
327.453	-3.58
327.666	115.2
327.879	6.66
328.092	72.19
328.305	39.42
328.518	43.52
328.731	49.66
328.944	29.18
329.157	82.43
329.37	90.62
329.583	4.61
329.796	74.24
330.009	4.61
330.222	-5.63
330.435	84.48
330.648	70.14
330.861	10.75
331.073	31.23
331.286	90.62
331.499	18.94
331.712	-19.97
331.925	102.91
332.138	82.43
332.35	156.16
332.563	-7.68
332.776	57.86
332.989	25.09
333.202	35.33
333.414	25.09
333.627	70.14
333.84	27.14
334.053	74.24
334.265	27.14
334.478	55.81
334.691	57.86
334.903	27.14
335.116	-3.58
335.329	66.05
335.541	86.53
335.754	39.42
335.966	-19.97
336.179	6.66
336.392	-5.63
336.604	-32.26
336.817	31.23
337.029	61.95
337.242	-3.58
337.454	35.33
337.667	113.15
337.88	78.33
338.092	61.95
338.305	27.14
338.517	6.66
338.729	96.77
338.942	59.9
339.154	102.91
339.367	8.7
339.579	45.57
339.792	94.72
340.004	59.9
340.217	86.53
340.429	100.86
340.641	6.66
340.854	49.66
341.066	43.52
341.278	29.18
341.491	51.71
341.703	33.28
341.915	61.95
342.128	121.34
342.34	76.29
342.552	86.53
342.764	53.76
342.977	37.38
343.189	37.38
343.401	14.85
343.613	18.94
343.826	4.61
344.038	51.71
344.25	-22.02
344.462	47.62
344.674	39.42
344.886	23.04
345.099	-9.73
345.311	64
345.523	-1.54
345.735	82.43
345.947	35.33
346.159	2.56
346.371	2.56
346.583	-17.92
346.795	72.19
347.007	86.53
347.219	33.28
347.431	72.19
347.643	51.71
347.855	-11.78
348.067	61.95
348.279	37.38
348.491	2.56
348.703	29.18
348.915	25.09
349.127	18.94
349.339	14.85
349.551	80.38
349.763	96.77
349.975	47.62
350.187	25.09
350.399	29.18
350.61	39.42
350.822	70.14
351.034	-22.02
351.246	68.09
351.458	61.95
351.669	18.94
351.881	53.76
352.093	80.38
352.305	68.09
352.517	59.9
352.728	55.81
352.94	84.48
353.152	68.09
353.363	23.04
353.575	49.66
353.787	94.72
353.999	125.44
354.21	57.86
354.422	64
354.633	-26.11
354.845	51.71
355.057	104.96
355.268	-30.21
355.48	74.24
355.692	59.9
355.903	39.42
356.115	16.9
356.326	35.33
356.538	6.66
356.749	0.51
356.961	59.9
357.172	27.14
357.384	45.57
357.595	98.81
357.807	51.71
358.018	82.43
358.23	61.95
358.441	76.29
358.653	49.66
358.864	33.28
359.075	98.81
359.287	-42.5
359.498	-24.06
359.709	55.81
359.921	102.91
360.132	74.24
360.344	-5.63
360.555	70.14
360.766	20.99
360.977	45.57
361.189	23.04
361.4	53.76
361.611	68.09
361.823	39.42
362.034	111.1
362.245	80.38
362.456	102.91
362.667	66.05
362.879	127.49
363.09	117.25
363.301	139.77
363.512	8.7
363.723	45.57
363.935	-17.92
364.146	-26.11
364.357	80.38
364.568	92.67
364.779	76.29
364.99	76.29
365.201	86.53
365.412	37.38
365.623	61.95
365.834	14.85
366.045	14.85
366.256	51.71
366.467	59.9
366.678	49.66
366.889	4.61
367.1	92.67
367.311	49.66
367.522	49.66
367.733	82.43
367.944	84.48
368.155	37.38
368.366	74.24
368.577	102.91
368.788	51.71
368.999	41.47
369.209	47.62
369.42	-19.97
369.631	147.97
369.842	76.29
370.053	-3.58
370.264	29.18
370.474	127.49
370.685	90.62
370.896	8.7
371.107	94.72
371.317	102.91
371.528	-15.87
371.739	43.52
371.95	37.38
372.16	111.1
372.371	64
372.582	72.19
372.792	25.09
373.003	82.43
373.214	41.47
373.424	90.62
373.635	102.91
373.846	66.05
374.056	12.8
374.267	61.95
374.477	64
374.688	-15.87
374.898	0.51
375.109	47.62
375.319	76.29
375.53	59.9
375.74	160.25
375.951	47.62
376.161	12.8
376.372	45.57
376.582	80.38
376.793	72.19
377.003	-5.63
377.214	20.99
377.424	41.47
377.635	64
377.845	27.14
378.055	31.23
378.266	14.85
378.476	27.14
378.686	76.29
378.897	-19.97
379.107	39.42
379.317	18.94
379.528	68.09
379.738	123.39
379.948	61.95
380.158	0.51
380.369	90.62
380.579	-42.5
380.789	16.9
380.999	61.95
381.21	66.05
381.42	123.39
381.63	84.48
381.84	51.71
382.05	64
382.261	96.77
382.471	74.24
382.681	-1.54
382.891	61.95
383.101	57.86
383.311	59.9
383.521	-32.26
383.731	59.9
383.941	88.57
384.151	82.43
384.361	35.33
384.571	102.91
384.781	27.14
384.991	-19.97
385.201	31.23
385.411	35.33
385.621	90.62
385.831	66.05
386.041	57.86
386.251	47.62
386.461	47.62
386.671	74.24
386.881	137.73
387.091	102.91
387.301	43.52
387.511	76.29
387.72	104.96
387.93	12.8
388.14	37.38
388.35	90.62
388.56	33.28
388.769	76.29
388.979	29.18
389.189	33.28
389.399	86.53
389.609	27.14
389.818	59.9
390.028	39.42
390.238	104.96
390.447	18.94
390.657	115.2
390.867	98.81
391.076	27.14
391.286	88.57
391.496	53.76
391.705	86.53
391.915	104.96
392.125	100.86
392.334	115.2
392.544	29.18
392.753	82.43
392.963	-11.78
393.172	98.81
393.382	53.76
393.591	43.52
393.801	57.86
394.01	66.05
394.22	33.28
394.429	70.14
394.639	-30.21
394.848	41.47
395.058	29.18
395.267	131.58
395.477	84.48
395.686	107.01
395.895	74.24
396.105	86.53
396.314	51.71
396.524	111.1
396.733	27.14
396.942	180.73
397.152	59.9
397.361	139.77
397.57	123.39
397.78	88.57
397.989	152.06
398.198	82.43
398.407	98.81
398.617	51.71
398.826	92.67
399.035	57.86
399.244	129.53
399.453	2.56
399.663	61.95
399.872	41.47
400.081	92.67
400.29	158.21
400.499	86.53
400.708	133.63
400.917	80.38
401.127	64
401.336	74.24
401.545	88.57
401.754	96.77
401.963	133.63
402.172	72.19
402.381	109.05
402.59	131.58
402.799	84.48
403.008	27.14
403.217	70.14
403.426	68.09
403.635	76.29
403.844	176.64
404.053	123.39
404.262	82.43
404.471	76.29
404.68	104.96
404.888	150.01
405.097	94.72
405.306	61.95
405.515	127.49
405.724	72.19
405.933	160.25
406.142	131.58
406.35	137.73
406.559	160.25
406.768	139.77
406.977	180.73
407.185	131.58
407.394	156.16
407.603	190.97
407.812	125.44
408.02	141.82
408.229	127.49
408.438	211.45
408.646	195.07
408.855	150.01
409.064	156.16
409.272	170.49
409.481	139.77
409.69	127.49
409.898	209.4
410.107	197.12
410.315	211.45
410.524	176.64
410.733	328.19
410.941	219.64
411.15	332.28
411.358	264.7
411.567	260.6
411.775	229.88
411.984	344.57
412.192	344.57
412.401	272.89
412.609	289.28
412.818	309.76
413.026	375.29
413.234	305.66
413.443	340.47
413.651	363
413.86	320
414.068	377.34
414.276	399.87
414.485	436.73
414.693	420.35
414.901	414.2
415.11	412.15
415.318	434.68
415.526	449.02
415.734	475.64
415.943	526.84
416.151	524.79
416.359	475.64
416.567	621.05
416.776	496.12
416.984	614.9
417.192	645.62
417.4	643.57
417.608	547.32
417.817	582.14
418.025	645.62
418.233	801.27
418.441	739.83
418.649	754.16
418.857	807.41
419.065	764.4
419.273	899.57
419.481	793.08
419.689	950.77
419.897	915.95
420.105	969.2
420.313	1006.06
420.521	999.92
420.729	973.3
420.937	1024.5
421.145	1178.09
421.353	1141.23
421.561	1100.27
421.769	1253.87
421.977	1264.11
422.185	1221.1
422.393	1327.6
422.601	1374.7
422.809	1446.38
423.017	1374.7
423.224	1429.99
423.432	1544.68
423.64	1614.31
423.848	1685.99
424.056	1630.7
424.263	1812.96
424.471	1827.3
424.679	1905.12
424.887	1860.07
425.094	1952.23
425.302	1964.51
425.51	2089.44
425.718	2130.4
425.925	2193.89
426.133	2281.95
426.341	2320.86
426.548	2435.55
426.756	2419.16
426.964	2451.93
427.171	2585.05
427.379	2681.3
427.586	2769.37
427.794	2814.42
428.001	2875.86
428.209	2959.83
428.417	2990.55
428.624	3121.62
428.832	3099.09
429.039	3166.67
429.247	3168.72
429.454	3424.72
429.662	3762.63
429.869	3434.96
430.076	3652.04
430.284	3598.79
430.491	3793.35
430.699	3975.62
430.906	3914.18
431.114	3996.1
431.321	4065.73
431.528	4264.38
431.736	4501.95
431.943	4831.67
432.15	4561.34
432.358	4710.84
432.565	4899.25
432.772	4946.36
432.979	5200.3
433.187	5226.93
433.394	5276.08
433.601	5769.64
433.808	5657
434.016	5597.61
434.223	5818.79
434.43	6058.4
434.637	6175.14
434.844	6343.07
435.052	6607.26
435.259	6465.95
435.466	6633.88
435.673	6386.08
435.88	7102.87
436.087	7201.17
436.294	7373.2
436.501	7199.12
436.708	7303.57
436.915	7561.61
437.122	7760.27
437.329	7725.45
437.537	8030.6
437.743	8253.83
437.95	8012.17
438.157	8685.95
438.364	8890.74
438.571	8794.49
438.778	8874.36
438.985	9853.29
439.192	9259.38
439.399	9621.87
439.606	9234.8
439.813	9800.04
440.02	10275.17
440.227	10316.13
440.433	10072.42
440.64	10762.59
440.847	10606.94
441.054	10682.72
441.261	11475.28
441.467	11229.52
441.674	11581.78
441.881	11884.87
442.088	11950.41
442.294	11762
442.501	12112.2
442.708	12540.22
442.914	12792.12
443.121	13353.27
443.328	13021.5
443.534	14037.29
443.741	13558.07
443.948	13355.32
444.154	14391.59
444.361	14387.49
444.568	14498.08
444.774	14375.2
444.981	14371.11
445.187	15001.88
445.394	15528.21
445.6	15261.98
445.807	16980.22
446.013	16107.79
446.22	16531.72
446.426	17234.17
446.633	17092.86
446.839	17760.5
447.046	17103.1
447.252	17903.85
447.459	17953.01
447.665	17879.28
447.871	18530.53
448.078	19458.26
448.284	18505.96
448.491	19249.37
448.697	19724.5
448.903	20173
449.11	20429
449.316	19912.91
449.522	20289.74
449.728	20676.8
449.935	21174.46
450.141	21018.82
450.347	21373.11
450.553	20857.03
450.76	21014.72
450.966	21629.11
451.172	21455.03
451.378	21905.59
451.584	21641.4
451.791	21858.48
451.997	21774.52
452.203	22403.24
452.409	22354.09
452.615	21952.69
452.821	21229.76
453.027	21371.07
453.233	22616.23
453.44	21059.77
453.646	21487.8
453.852	21500.09
454.058	21924.02
454.264	21440.7
454.47	21627.06
454.676	21227.71
454.882	21766.32
455.088	20154.57
455.294	20445.38
455.5	20805.83
455.705	21006.53
455.911	20113.61
456.117	19591.38
456.323	19232.99
456.529	18280.68
456.735	19079.39
456.941	18610.4
457.147	18286.82
457.352	17901.81
457.558	17606.9
457.764	17492.21
457.97	17160.44
458.176	17074.43
458.381	16722.18
458.587	16228.62
458.793	16263.43
458.999	15225.11
459.204	16066.83
459.41	15741.2
459.616	14688.54
459.821	14639.39
460.027	14754.08
460.233	14836
460.438	13920.56
460.644	13863.21
460.85	13408.56
461.055	13353.27
461.261	13066.55
461.466	12237.13
461.672	11766.09
461.878	12583.23
462.083	11721.04
462.289	11448.66
462.494	11352.4
462.7	10850.65
462.905	10666.33
463.111	11333.97
463.316	11088.21
463.522	10901.85
463.727	10877.27
463.932	10807.64
464.138	10652
464.343	10854.75
464.549	10492.26
464.754	10676.57
464.959	10733.92
465.165	10621.28
465.37	10309.99
465.575	9800.04
465.781	10197.35
465.986	10281.32
466.191	10176.87
466.397	9685.36
466.602	9404.78
466.807	9677.16
467.012	9867.63
467.218	9595.25
467.423	9453.94
467.628	9494.9
467.833	9859.43
468.038	9625.97
468.244	9458.03
468.449	9681.26
468.654	9410.93
468.859	9261.43
469.064	9402.74
469.269	9146.74
