Data from USB4F104151__230__14-00-23-802.txt Node

Date: Thu Mar 13 14:00:23 EDT 2025
User: louis
Spectrometer: USB4F10415
Trigger mode: 4
Integration Time (sec): 1.000000E-2
Scans to average: 1
Electric dark correction enabled: true
Nonlinearity correction enabled: false
Boxcar width: 0
XAxis mode: Wavelengths
Number of Pixels in Spectrum: 3648
>>>>>Begin Spectral Data<<<<<
178.204	-93.01
178.424	-93.01
178.644	-93.01
178.864	-45.91
179.084	-31.57
179.304	-7
179.524	-35.67
179.744	-60.24
179.964	36.01
180.184	23.72
180.404	54.44
180.624	-35.67
180.844	-4.95
181.064	-17.24
181.283	17.58
181.503	-11.09
181.723	40.11
181.943	7.34
182.163	40.11
182.383	-39.76
182.602	-78.68
182.822	76.97
183.042	5.29
183.262	27.82
183.482	25.77
183.701	36.01
183.921	1.19
184.141	1.19
184.361	15.53
184.58	-76.63
184.8	68.78
185.02	7.34
185.239	15.53
185.459	-7
185.679	40.11
185.898	-29.52
186.118	-25.43
186.338	-29.52
186.557	23.72
186.777	46.25
186.997	5.29
187.216	-41.81
187.436	-7
187.655	54.44
187.875	60.59
188.095	54.44
188.314	95.4
188.534	-23.38
188.753	-41.81
188.973	21.67
189.192	31.91
189.412	23.72
189.631	31.91
189.851	-23.38
190.07	23.72
190.29	-45.91
190.509	15.53
190.729	-13.14
190.948	-9.05
191.168	23.72
191.387	36.01
191.607	60.59
191.826	36.01
192.045	-39.76
192.265	17.58
192.484	11.43
192.704	-31.57
192.923	-2.9
193.142	11.43
193.362	-4.95
193.581	38.06
193.8	7.34
194.02	-37.72
194.239	-15.19
194.458	19.63
194.678	19.63
194.897	5.29
195.116	-13.14
195.335	38.06
195.555	27.82
195.774	-21.33
195.993	-37.72
196.212	1.19
196.432	-25.43
196.651	44.2
196.87	46.25
197.089	3.24
197.308	62.63
197.528	1.19
197.747	11.43
197.966	-13.14
198.185	31.91
198.404	15.53
198.623	-52.05
198.842	-45.91
199.062	44.2
199.281	29.87
199.5	13.48
199.719	44.2
199.938	19.63
200.157	19.63
200.376	-47.96
200.595	-4.95
200.814	19.63
201.033	-11.09
201.252	15.53
201.471	19.63
201.69	21.67
201.909	44.2
202.128	11.43
202.347	-0.85
202.566	56.49
202.785	29.87
203.004	1.19
203.223	5.29
203.442	52.39
203.661	-19.29
203.879	-54.1
204.098	-23.38
204.317	-31.57
204.536	42.15
204.755	-21.33
204.974	56.49
205.193	74.92
205.411	58.54
205.63	-62.29
205.849	50.35
206.068	11.43
206.287	-0.85
206.505	5.29
206.724	23.72
206.943	-37.72
207.162	-70.48
207.381	27.82
207.599	58.54
207.818	-29.52
208.037	-33.62
208.255	5.29
208.474	56.49
208.693	15.53
208.911	-56.15
209.13	3.24
209.349	42.15
209.567	46.25
209.786	-7
210.005	-23.38
210.223	11.43
210.442	31.91
210.661	19.63
210.879	-68.44
211.098	7.34
211.316	21.67
211.535	64.68
211.753	-21.33
211.972	1.19
212.191	-47.96
212.409	-17.24
212.628	-21.33
212.846	17.58
213.065	31.91
213.283	113.83
213.502	9.39
213.72	-35.67
213.938	5.29
214.157	17.58
214.375	11.43
214.594	-68.44
214.812	-70.48
215.031	-23.38
215.249	33.96
215.467	27.82
215.686	7.34
215.904	-2.9
216.122	42.15
216.341	52.39
216.559	17.58
216.778	-0.85
216.996	60.59
217.214	46.25
217.432	23.72
217.651	-27.48
217.869	21.67
218.087	72.87
218.306	-25.43
218.524	62.63
218.742	-25.43
218.96	-19.29
219.179	-45.91
219.397	-11.09
219.615	21.67
219.833	33.96
220.051	-29.52
220.27	56.49
220.488	76.97
220.706	-2.9
220.924	-2.9
221.142	42.15
221.36	38.06
221.578	27.82
221.796	46.25
222.015	3.24
222.233	11.43
222.451	27.82
222.669	-39.76
222.887	5.29
223.105	-25.43
223.323	9.39
223.541	9.39
223.759	5.29
223.977	-4.95
224.195	68.78
224.413	33.96
224.631	93.35
224.849	-7
225.067	56.49
225.285	-43.86
225.503	-21.33
225.721	-74.58
225.939	52.39
226.157	-25.43
226.375	36.01
226.592	3.24
226.81	48.3
227.028	17.58
227.246	42.15
227.464	42.15
227.682	48.3
227.9	29.87
228.117	-11.09
228.335	-0.85
228.553	-7
228.771	19.63
228.989	-21.33
229.206	23.72
229.424	25.77
229.642	44.2
229.86	9.39
230.077	-9.05
230.295	25.77
230.513	72.87
230.731	38.06
230.948	36.01
231.166	79.02
231.384	15.53
231.601	9.39
231.819	-0.85
232.037	52.39
232.254	-74.58
232.472	60.59
232.689	23.72
232.907	109.74
233.125	50.35
233.342	-41.81
233.56	5.29
233.777	21.67
233.995	-2.9
234.213	25.77
234.43	33.96
234.648	-4.95
234.865	11.43
235.083	-9.05
235.3	89.26
235.518	-29.52
235.735	7.34
235.953	31.91
236.17	-19.29
236.388	76.97
236.605	1.19
236.822	21.67
237.04	17.58
237.257	-33.62
237.475	46.25
237.692	42.15
237.909	31.91
238.127	11.43
238.344	-50
238.562	64.68
238.779	-39.76
238.996	-13.14
239.214	11.43
239.431	-2.9
239.648	-45.91
239.865	79.02
240.083	-2.9
240.3	-60.24
240.517	-2.9
240.735	-9.05
240.952	5.29
241.169	29.87
241.386	13.48
241.603	-17.24
241.821	44.2
242.038	31.91
242.255	29.87
242.472	25.77
242.689	19.63
242.907	21.67
243.124	60.59
243.341	21.67
243.558	-82.77
243.775	44.2
243.992	-17.24
244.209	54.44
244.426	27.82
244.643	48.3
244.86	79.02
245.078	-33.62
245.295	48.3
245.512	52.39
245.729	31.91
245.946	-21.33
246.163	-31.57
246.38	-21.33
246.597	70.83
246.814	-19.29
247.031	-2.9
247.248	13.48
247.464	-4.95
247.681	29.87
247.898	70.83
248.115	44.2
248.332	3.24
248.549	-4.95
248.766	40.11
248.983	27.82
249.2	-4.95
249.417	68.78
249.633	-62.29
249.85	76.97
250.067	1.19
250.284	29.87
250.501	-2.9
250.717	-9.05
250.934	54.44
251.151	-7
251.368	17.58
251.585	40.11
251.801	31.91
252.018	40.11
252.235	54.44
252.451	23.72
252.668	-23.38
252.885	40.11
253.102	40.11
253.318	-64.34
253.535	126.12
253.752	7.34
253.968	29.87
254.185	-50
254.401	-27.48
254.618	-0.85
254.835	60.59
255.051	107.69
255.268	33.96
255.484	62.63
255.701	76.97
255.917	-11.09
256.134	-4.95
256.351	79.02
256.567	-31.57
256.784	-0.85
257	-27.48
257.217	-4.95
257.433	-9.05
257.65	-27.48
257.866	-35.67
258.082	38.06
258.299	25.77
258.515	-9.05
258.732	17.58
258.948	62.63
259.165	56.49
259.381	19.63
259.597	52.39
259.814	3.24
260.03	-19.29
260.246	15.53
260.463	56.49
260.679	19.63
260.895	7.34
261.112	3.24
261.328	25.77
261.544	91.31
261.761	52.39
261.977	-15.19
262.193	40.11
262.409	21.67
262.626	5.29
262.842	-50
263.058	70.83
263.274	89.26
263.49	27.82
263.707	5.29
263.923	-0.85
264.139	11.43
264.355	31.91
264.571	60.59
264.787	-11.09
265.004	93.35
265.22	17.58
265.436	-11.09
265.652	46.25
265.868	-0.85
266.084	-21.33
266.3	5.29
266.516	44.2
266.732	-13.14
266.948	21.67
267.164	31.91
267.38	9.39
267.596	-7
267.812	95.4
268.028	-7
268.244	-76.63
268.46	21.67
268.676	15.53
268.892	50.35
269.108	5.29
269.324	23.72
269.54	-17.24
269.756	46.25
269.972	-4.95
270.188	25.77
270.403	7.34
270.619	27.82
270.835	54.44
271.051	3.24
271.267	3.24
271.483	27.82
271.698	27.82
271.914	-31.57
272.13	21.67
272.346	52.39
272.562	21.67
272.777	-41.81
272.993	15.53
273.209	19.63
273.425	46.25
273.64	17.58
273.856	-19.29
274.072	17.58
274.287	-72.53
274.503	58.54
274.719	33.96
274.934	13.48
275.15	-13.14
275.366	-9.05
275.581	-47.96
275.797	52.39
276.012	31.91
276.228	3.24
276.444	33.96
276.659	5.29
276.875	25.77
277.09	-11.09
277.306	-29.52
277.521	-0.85
277.737	60.59
277.952	33.96
278.168	3.24
278.383	15.53
278.599	-56.15
278.814	13.48
279.03	56.49
279.245	-2.9
279.461	-23.38
279.676	68.78
279.892	3.24
280.107	1.19
280.322	-2.9
280.538	27.82
280.753	-66.39
280.969	40.11
281.184	-72.53
281.399	-19.29
281.615	54.44
281.83	1.19
282.045	-23.38
282.26	-23.38
282.476	42.15
282.691	-2.9
282.906	48.3
283.122	-21.33
283.337	38.06
283.552	27.82
283.767	-35.67
283.983	36.01
284.198	-50
284.413	27.82
284.628	-125.78
284.843	60.59
285.058	52.39
285.274	23.72
285.489	44.2
285.704	44.2
285.919	-23.38
286.134	3.24
286.349	11.43
286.564	66.73
286.779	36.01
286.995	42.15
287.21	-21.33
287.425	44.2
287.64	-7
287.855	109.74
288.07	-13.14
288.285	-27.48
288.5	33.96
288.715	64.68
288.93	60.59
289.145	42.15
289.36	-66.39
289.575	-0.85
289.79	-9.05
290.004	29.87
290.219	-2.9
290.434	-52.05
290.649	-4.95
290.864	-4.95
291.079	-21.33
291.294	-78.68
291.509	-7
291.724	-4.95
291.938	36.01
292.153	-4.95
292.368	62.63
292.583	36.01
292.798	-25.43
293.012	11.43
293.227	9.39
293.442	23.72
293.657	48.3
293.871	21.67
294.086	48.3
294.301	68.78
294.516	54.44
294.73	111.78
294.945	23.72
295.16	72.87
295.374	52.39
295.589	-13.14
295.804	-29.52
296.018	36.01
296.233	31.91
296.447	13.48
296.662	-43.86
296.877	33.96
297.091	-11.09
297.306	-17.24
297.52	-50
297.735	21.67
297.949	-23.38
298.164	-29.52
298.378	-0.85
298.593	-7
298.807	-21.33
299.022	52.39
299.236	56.49
299.451	68.78
299.665	-0.85
299.88	79.02
300.094	-23.38
300.309	19.63
300.523	60.59
300.737	76.97
300.952	11.43
301.166	-2.9
301.381	-35.67
301.595	72.87
301.809	-13.14
302.024	44.2
302.238	-2.9
302.452	5.29
302.667	17.58
302.881	38.06
303.095	3.24
303.309	99.5
303.524	56.49
303.738	1.19
303.952	-13.14
304.166	21.67
304.381	-2.9
304.595	40.11
304.809	23.72
305.023	5.29
305.237	-29.52
305.452	19.63
305.666	-27.48
305.88	11.43
306.094	44.2
306.308	85.16
306.522	-0.85
306.736	81.07
306.95	-115.54
307.164	-7
307.379	60.59
307.593	103.59
307.807	50.35
308.021	-11.09
308.235	31.91
308.449	-58.2
308.663	21.67
308.877	11.43
309.091	17.58
309.305	54.44
309.519	-31.57
309.733	-41.81
309.947	58.54
310.161	-60.24
310.374	46.25
310.588	85.16
310.802	62.63
311.016	40.11
311.23	3.24
311.444	-0.85
311.658	-60.24
311.872	27.82
312.085	64.68
312.299	52.39
312.513	52.39
312.727	5.29
312.941	66.73
313.154	72.87
313.368	27.82
313.582	-62.29
313.796	23.72
314.009	9.39
314.223	40.11
314.437	19.63
314.651	-35.67
314.864	36.01
315.078	97.45
315.292	19.63
315.505	3.24
315.719	52.39
315.933	-35.67
316.146	-37.72
316.36	23.72
316.573	-4.95
316.787	23.72
317.001	29.87
317.214	21.67
317.428	7.34
317.641	-29.52
317.855	122.02
318.068	36.01
318.282	81.07
318.495	76.97
318.709	21.67
318.922	-47.96
319.136	36.01
319.349	-19.29
319.563	23.72
319.776	54.44
319.99	5.29
320.203	-9.05
320.417	-43.86
320.63	68.78
320.843	13.48
321.057	44.2
321.27	5.29
321.483	42.15
321.697	48.3
321.91	40.11
322.124	23.72
322.337	48.3
322.55	-9.05
322.763	-17.24
322.977	42.15
323.19	48.3
323.403	44.2
323.617	1.19
323.83	-95.06
324.043	15.53
324.256	25.77
324.469	13.48
324.683	101.55
324.896	11.43
325.109	58.54
325.322	-7
325.535	-29.52
325.748	48.3
325.962	-19.29
326.175	46.25
326.388	21.67
326.601	-66.39
326.814	-4.95
327.027	60.59
327.24	21.67
327.453	-2.9
327.666	23.72
327.879	23.72
328.092	-0.85
328.305	-25.43
328.518	79.02
328.731	19.63
328.944	60.59
329.157	7.34
329.37	-9.05
329.583	50.35
329.796	-2.9
330.009	50.35
330.222	91.31
330.435	60.59
330.648	-0.85
330.861	-0.85
331.073	-27.48
331.286	7.34
331.499	40.11
331.712	50.35
331.925	-54.1
332.138	85.16
332.35	46.25
332.563	11.43
332.776	36.01
332.989	-54.1
333.202	64.68
333.414	40.11
333.627	60.59
333.84	-21.33
334.053	-82.77
334.265	-9.05
334.478	-29.52
334.691	5.29
334.903	27.82
335.116	5.29
335.329	58.54
335.541	-21.33
335.754	11.43
335.966	-52.05
336.179	44.2
336.392	-62.29
336.604	-17.24
336.817	66.73
337.029	27.82
337.242	-0.85
337.454	38.06
337.667	52.39
337.88	44.2
338.092	29.87
338.305	-13.14
338.517	-15.19
338.729	21.67
338.942	15.53
339.154	44.2
339.367	-17.24
339.579	23.72
339.792	7.34
340.004	33.96
340.217	-13.14
340.429	85.16
340.641	-0.85
340.854	-19.29
341.066	27.82
341.278	3.24
341.491	25.77
341.703	36.01
341.915	15.53
342.128	7.34
342.34	-11.09
342.552	48.3
342.764	-21.33
342.977	-56.15
343.189	21.67
343.401	36.01
343.613	-37.72
343.826	-11.09
344.038	-19.29
344.25	-11.09
344.462	-15.19
344.674	29.87
344.886	15.53
345.099	79.02
345.311	-17.24
345.523	11.43
345.735	-21.33
345.947	74.92
346.159	68.78
346.371	56.49
346.583	60.59
346.795	44.2
347.007	-33.62
347.219	19.63
347.431	44.2
347.643	3.24
347.855	17.58
348.067	89.26
348.279	-25.43
348.491	27.82
348.703	31.91
348.915	68.78
349.127	17.58
349.339	7.34
349.551	-17.24
349.763	42.15
349.975	19.63
350.187	46.25
350.399	-21.33
350.61	97.45
350.822	48.3
351.034	1.19
351.246	3.24
351.458	-11.09
351.669	-13.14
351.881	17.58
352.093	38.06
352.305	38.06
352.517	33.96
352.728	91.31
352.94	42.15
353.152	-33.62
353.363	1.19
353.575	23.72
353.787	13.48
353.999	-2.9
354.21	21.67
354.422	5.29
354.633	3.24
354.845	95.4
355.057	-90.96
355.268	27.82
355.48	27.82
355.692	-25.43
355.903	81.07
356.115	54.44
356.326	23.72
356.538	46.25
356.749	72.87
356.961	68.78
357.172	13.48
357.384	-35.67
357.595	66.73
357.807	38.06
358.018	25.77
358.23	42.15
358.441	72.87
358.653	85.16
358.864	17.58
359.075	-9.05
359.287	54.44
359.498	-21.33
359.709	-0.85
359.921	87.21
360.132	42.15
360.344	68.78
360.555	11.43
360.766	79.02
360.977	21.67
361.189	64.68
361.4	38.06
361.611	52.39
361.823	46.25
362.034	11.43
362.245	-74.58
362.456	50.35
362.667	7.34
362.879	25.77
363.09	42.15
363.301	36.01
363.512	109.74
363.723	46.25
363.935	-13.14
364.146	-0.85
364.357	-15.19
364.568	95.4
364.779	36.01
364.99	70.83
365.201	-7
365.412	46.25
365.623	42.15
365.834	11.43
366.045	-70.48
366.256	38.06
366.467	-27.48
366.678	38.06
366.889	93.35
367.1	13.48
367.311	-2.9
367.522	54.44
367.733	29.87
367.944	52.39
368.155	44.2
368.366	-4.95
368.577	33.96
368.788	76.97
368.999	-39.76
369.209	-4.95
369.42	60.59
369.631	15.53
369.842	-21.33
370.053	-4.95
370.264	33.96
370.474	9.39
370.685	-0.85
370.896	-4.95
371.107	7.34
371.317	-4.95
371.528	48.3
371.739	11.43
371.95	81.07
372.16	64.68
372.371	85.16
372.582	15.53
372.792	-35.67
373.003	68.78
373.214	13.48
373.424	25.77
373.635	3.24
373.846	72.87
374.056	56.49
374.267	31.91
374.477	33.96
374.688	-27.48
374.898	-19.29
375.109	68.78
375.319	29.87
375.53	5.29
375.74	21.67
375.951	42.15
376.161	19.63
376.372	27.82
376.582	15.53
376.793	19.63
377.003	-33.62
377.214	25.77
377.424	-9.05
377.635	44.2
377.845	31.91
378.055	9.39
378.266	-15.19
378.476	58.54
378.686	68.78
378.897	17.58
379.107	-23.38
379.317	27.82
379.528	25.77
379.738	48.3
379.948	13.48
380.158	87.21
380.369	-29.52
380.579	66.73
380.789	60.59
380.999	-0.85
381.21	5.29
381.42	27.82
381.63	9.39
381.84	60.59
382.05	44.2
382.261	38.06
382.471	3.24
382.681	46.25
382.891	109.74
383.101	33.96
383.311	-2.9
383.521	15.53
383.731	105.64
383.941	-15.19
384.151	-43.86
384.361	-23.38
384.571	23.72
384.781	76.97
384.991	58.54
385.201	19.63
385.411	13.48
385.621	56.49
385.831	17.58
386.041	89.26
386.251	36.01
386.461	52.39
386.671	1.19
386.881	13.48
387.091	19.63
387.301	87.21
387.511	36.01
387.72	36.01
387.93	76.97
388.14	-33.62
388.35	95.4
388.56	85.16
388.769	15.53
388.979	52.39
389.189	38.06
389.399	27.82
389.609	62.63
389.818	87.21
390.028	21.67
390.238	76.97
390.447	48.3
390.657	64.68
390.867	89.26
391.076	48.3
391.286	54.44
391.496	72.87
391.705	19.63
391.915	79.02
392.125	-50
392.334	15.53
392.544	72.87
392.753	76.97
392.963	113.83
393.172	13.48
393.382	36.01
393.591	103.59
393.801	-11.09
394.01	-13.14
394.22	76.97
394.429	56.49
394.639	33.96
394.848	21.67
395.058	31.91
395.267	93.35
395.477	36.01
395.686	81.07
395.895	81.07
396.105	91.31
396.314	56.49
396.524	29.87
396.733	48.3
396.942	50.35
397.152	44.2
397.361	167.08
397.57	11.43
397.78	93.35
397.989	33.96
398.198	38.06
398.407	46.25
398.617	87.21
398.826	29.87
399.035	64.68
399.244	60.59
399.453	-7
399.663	52.39
399.872	36.01
400.081	64.68
400.29	68.78
400.499	19.63
400.708	72.87
400.917	72.87
401.127	68.78
401.336	44.2
401.545	117.93
401.754	23.72
401.963	42.15
402.172	56.49
402.381	13.48
402.59	64.68
402.799	101.55
403.008	99.5
403.217	93.35
403.426	64.68
403.635	76.97
403.844	136.36
404.053	105.64
404.262	52.39
404.471	134.31
404.68	62.63
404.888	13.48
405.097	17.58
405.306	95.4
405.515	117.93
405.724	144.55
405.933	117.93
406.142	103.59
406.35	167.08
406.559	87.21
406.768	87.21
406.977	44.2
407.185	128.17
407.394	150.7
407.603	117.93
407.812	160.94
408.02	169.13
408.229	189.61
408.438	58.54
408.646	148.65
408.855	136.36
409.064	109.74
409.272	232.62
409.481	177.32
409.69	167.08
409.898	165.03
410.107	158.89
410.315	193.7
410.524	226.47
410.733	214.18
410.941	130.22
411.15	212.14
411.358	203.94
411.567	189.61
411.775	167.08
411.984	201.9
412.192	216.23
412.401	259.24
412.609	238.76
412.818	267.43
413.026	279.72
413.234	296.1
413.443	425.12
413.651	388.26
413.86	322.73
414.068	371.88
414.276	285.86
414.485	380.07
414.693	390.31
414.901	470.18
415.11	380.07
415.318	390.31
415.526	441.51
415.734	453.8
415.943	502.95
416.151	480.42
416.359	535.71
416.567	459.94
416.776	543.91
416.984	591.01
417.192	599.2
417.4	638.11
417.608	599.2
417.817	548
418.025	609.44
418.233	791.71
418.441	648.35
418.649	732.32
418.857	791.71
419.065	834.72
419.273	789.66
419.481	814.24
419.689	814.24
419.897	920.73
420.105	851.1
420.313	955.55
420.521	947.36
420.729	978.08
420.937	1016.99
421.145	1092.76
421.353	1146.01
421.561	1160.34
421.769	1254.55
421.977	1264.79
422.185	1123.48
422.393	1268.89
422.601	1336.47
422.809	1232.02
423.017	1393.81
423.224	1526.93
423.432	1518.74
423.64	1477.78
423.848	1639.57
424.056	1580.18
424.263	1752.21
424.471	1713.3
424.679	1809.55
424.887	1909.9
425.094	1870.99
425.302	2104.46
425.51	2018.44
425.718	2034.83
425.925	2116.75
426.133	2051.21
426.341	2307.21
426.548	2440.33
426.756	2378.89
426.964	2342.02
427.171	2479.24
427.379	2583.68
427.586	2526.34
427.794	2624.64
428.001	2841.73
428.209	2866.3
428.417	2872.45
428.624	3204.22
428.832	3077.24
429.039	3069.05
429.247	3083.39
429.454	3476.6
429.662	3650.67
429.869	3323
430.076	3619.96
430.284	3525.75
430.491	3724.4
430.699	3845.23
430.906	3849.33
431.114	3855.47
431.321	3998.83
431.528	4174.95
431.736	4451.43
431.943	4664.42
432.15	4510.82
432.358	4615.27
432.565	4846.69
432.772	4686.95
432.979	4942.94
433.187	4961.37
433.394	5086.3
433.601	5440.6
433.808	5405.78
434.016	5446.74
434.223	5684.31
434.43	6071.37
434.637	5872.72
434.844	6329.42
435.052	6278.22
435.259	6233.16
435.466	6397
435.673	6409.29
435.88	6827.07
436.087	7027.78
436.294	7007.3
436.501	6921.28
436.708	7070.78
436.915	7455.8
437.122	7638.07
437.329	7488.57
437.537	7877.68
437.743	7803.96
437.95	7920.69
438.157	8385.58
438.364	8664.1
438.571	8645.67
438.778	8674.34
438.985	9542.68
439.192	8887.33
439.399	9249.82
439.606	9055.26
439.813	9552.92
440.02	10273.81
440.227	9925.65
440.433	9937.94
440.64	10179.6
440.847	10376.2
441.054	10613.77
441.261	11158.53
441.467	11009.03
441.674	11351.04
441.881	11668.47
442.088	11627.51
442.294	11396.09
442.501	11836.41
442.708	11994.1
442.914	12444.65
443.121	12973.03
443.328	12708.84
443.534	13556.7
443.741	13239.26
443.948	12997.6
444.154	13857.75
444.361	13755.35
444.568	14150.61
444.774	14074.84
444.981	14080.98
445.187	14484.43
445.394	15166.4
445.6	14971.85
445.807	16180.15
446.013	15715.26
446.22	15713.21
446.426	16686
446.633	16495.53
446.839	17392.55
447.046	16665.52
447.252	17478.56
447.459	17320.87
447.665	17333.15
447.871	18396.05
448.078	18846.6
448.284	17904.54
448.491	18594.7
448.697	19280.77
448.903	19776.38
449.11	19465.09
449.316	19190.66
449.522	19815.29
449.728	20349.81
449.935	20120.44
450.141	20376.44
450.347	20591.47
450.553	20097.91
450.76	20343.67
450.966	20972.39
451.172	20726.64
451.378	21695.33
451.584	21009.26
451.791	21537.63
451.997	21490.53
452.203	21717.86
452.409	21830.49
452.615	21666.66
452.821	20874.09
453.027	20560.75
453.233	21865.31
453.44	20829.04
453.646	20984.68
453.852	21312.36
454.058	21394.28
454.264	20798.32
454.47	21353.32
454.676	20880.24
454.882	21494.63
455.088	19606.4
455.294	19766.14
455.5	20179.83
455.705	19968.89
455.911	19651.45
456.117	19090.31
456.323	18877.32
456.529	17738.65
456.735	18803.6
456.941	18477.97
457.147	18023.32
457.352	17439.65
457.558	17152.93
457.764	17331.11
457.97	17019.81
458.176	16634.8
458.381	16763.82
458.587	15733.69
458.793	15702.97
458.999	14808.01
459.204	16346.03
459.41	15573.95
459.616	14437.33
459.821	14615.5
460.027	14533.58
460.233	14379.98
460.438	13618.14
460.644	13603.8
460.85	13081.57
461.055	12956.64
461.261	12786.66
461.466	11973.62
461.672	11584.51
461.878	12430.32
462.083	11643.9
462.289	11291.65
462.494	11387.9
462.7	10769.41
462.905	10564.62
463.111	11013.12
463.316	11011.07
463.522	10523.66
463.727	10734.6
463.932	10603.53
464.138	10634.25
464.343	10570.76
464.549	10390.54
464.754	10468.36
464.959	10310.67
465.165	10390.54
465.37	10026
465.575	9874.45
465.781	10132.5
465.986	10243.09
466.191	9798.68
466.397	9520.15
466.602	9335.84
466.807	9561.11
467.012	9550.87
467.218	9487.39
467.423	9485.34
467.628	9395.23
467.833	9868.31
468.038	9589.78
468.244	9202.72
468.449	9477.15
468.654	9268.25
468.859	9243.68
469.064	9301.02
