Data from USB4F104151__212__14-00-01-824.txt Node

Date: Thu Mar 13 14:00:01 EDT 2025
User: louis
Spectrometer: USB4F10415
Trigger mode: 4
Integration Time (sec): 1.000000E-2
Scans to average: 1
Electric dark correction enabled: true
Nonlinearity correction enabled: false
Boxcar width: 0
XAxis mode: Wavelengths
Number of Pixels in Spectrum: 3648
>>>>>Begin Spectral Data<<<<<
178.204	-1.37
178.424	-1.37
178.644	-1.37
178.864	-77.14
179.084	-40.28
179.304	-52.56
179.524	21.16
179.744	-50.52
179.964	21.16
180.184	55.98
180.404	58.03
180.624	-68.95
180.844	-5.46
181.064	-34.13
181.283	80.55
181.503	-42.32
181.723	17.07
181.943	-48.47
182.163	41.64
182.383	-15.7
182.602	-1.37
182.822	4.78
183.042	-5.46
183.262	4.78
183.482	25.26
183.701	39.59
183.921	8.87
184.141	64.17
184.361	35.5
184.58	31.4
184.8	58.03
185.02	0.68
185.239	17.07
185.459	-66.9
185.679	2.73
185.898	12.97
186.118	10.92
186.338	27.31
186.557	33.45
186.777	4.78
186.997	12.97
187.216	53.93
187.436	2.73
187.655	19.11
187.875	55.98
188.095	35.5
188.314	66.22
188.534	-1.37
188.753	31.4
188.973	137.9
189.192	60.07
189.412	66.22
189.631	80.55
189.851	33.45
190.07	76.46
190.29	21.16
190.509	43.69
190.729	-11.61
190.948	4.78
191.168	21.16
191.387	35.5
191.607	74.41
191.826	-30.04
192.045	64.17
192.265	8.87
192.484	31.4
192.704	19.11
192.923	55.98
193.142	10.92
193.362	19.11
193.581	82.6
193.8	60.07
194.02	21.16
194.239	31.4
194.458	-17.75
194.678	15.02
194.897	-13.65
195.116	-9.56
195.335	31.4
195.555	-13.65
195.774	29.35
195.993	33.45
196.212	47.79
196.432	17.07
196.651	55.98
196.87	23.21
197.089	58.03
197.308	60.07
197.528	-34.13
197.747	115.37
197.966	17.07
198.185	-17.75
198.404	103.08
198.623	-7.51
198.842	25.26
199.062	117.42
199.281	31.4
199.5	6.83
199.719	-5.46
199.938	70.31
200.157	111.27
200.376	23.21
200.595	43.69
200.814	53.93
201.033	6.83
201.252	31.4
201.471	60.07
201.69	-5.46
201.909	45.74
202.128	84.65
202.347	35.5
202.566	-5.46
202.785	-56.66
203.004	-27.99
203.223	29.35
203.442	15.02
203.661	62.12
203.879	10.92
204.098	80.55
204.317	64.17
204.536	6.83
204.755	23.21
204.974	33.45
205.193	33.45
205.411	53.93
205.63	2.73
205.849	33.45
206.068	39.59
206.287	-13.65
206.505	-5.46
206.724	39.59
206.943	51.88
207.162	-11.61
207.381	31.4
207.599	39.59
207.818	53.93
208.037	96.94
208.255	17.07
208.474	25.26
208.693	49.83
208.911	72.36
209.13	76.46
209.349	31.4
209.567	-1.37
209.786	27.31
210.005	12.97
210.223	4.78
210.442	-3.41
210.661	49.83
210.879	-30.04
211.098	-7.51
211.316	55.98
211.535	62.12
211.753	12.97
211.972	37.55
212.191	98.99
212.409	45.74
212.628	76.46
212.846	88.75
213.065	60.07
213.283	49.83
213.502	12.97
213.72	25.26
213.938	-71
214.157	68.27
214.375	55.98
214.594	10.92
214.812	-60.76
215.031	-15.7
215.249	-13.65
215.467	25.26
215.686	27.31
215.904	39.59
216.122	12.97
216.341	-13.65
216.559	-9.56
216.778	80.55
216.996	-48.47
217.214	4.78
217.432	72.36
217.651	21.16
217.869	19.11
218.087	41.64
218.306	47.79
218.524	23.21
218.742	-3.41
218.96	-5.46
219.179	-17.75
219.397	80.55
219.615	55.98
219.833	-7.51
220.051	0.68
220.27	-1.37
220.488	39.59
220.706	58.03
220.924	51.88
221.142	-7.51
221.36	72.36
221.578	33.45
221.796	88.75
222.015	88.75
222.233	47.79
222.451	96.94
222.669	80.55
222.887	0.68
223.105	45.74
223.323	-34.13
223.541	-23.89
223.759	10.92
223.977	35.5
224.195	-30.04
224.413	4.78
224.631	86.7
224.849	4.78
225.067	33.45
225.285	23.21
225.503	10.92
225.721	-30.04
225.939	10.92
226.157	-19.8
226.375	41.64
226.592	-25.94
226.81	47.79
227.028	-66.9
227.246	76.46
227.464	8.87
227.682	84.65
227.9	49.83
228.117	98.99
228.335	-7.51
228.553	146.09
228.771	33.45
228.989	33.45
229.206	-1.37
229.424	90.79
229.642	39.59
229.86	-32.08
230.077	-27.99
230.295	43.69
230.513	23.21
230.731	47.79
230.948	43.69
231.166	78.51
231.384	49.83
231.601	82.6
231.819	51.88
232.037	10.92
232.254	21.16
232.472	6.83
232.689	29.35
232.907	12.97
233.125	31.4
233.342	17.07
233.56	10.92
233.777	-27.99
233.995	37.55
234.213	55.98
234.43	47.79
234.648	-1.37
234.865	33.45
235.083	8.87
235.3	10.92
235.518	-21.85
235.735	76.46
235.953	27.31
236.17	-5.46
236.388	-1.37
236.605	25.26
236.822	4.78
237.04	19.11
237.257	49.83
237.475	27.31
237.692	25.26
237.909	96.94
238.127	0.68
238.344	17.07
238.562	2.73
238.779	43.69
238.996	-48.47
239.214	58.03
239.431	113.32
239.648	64.17
239.865	25.26
240.083	-48.47
240.3	29.35
240.517	23.21
240.735	39.59
240.952	55.98
241.169	-25.94
241.386	43.69
241.603	60.07
241.821	49.83
242.038	94.89
242.255	-3.41
242.472	133.8
242.689	-44.37
242.907	70.31
243.124	101.03
243.341	-25.94
243.558	47.79
243.775	64.17
243.992	12.97
244.209	12.97
244.426	27.31
244.643	-30.04
244.86	-1.37
245.078	84.65
245.295	-32.08
245.512	-17.75
245.729	-46.42
245.946	0.68
246.163	88.75
246.38	19.11
246.597	31.4
246.814	-9.56
247.031	-9.56
247.248	-13.65
247.464	-7.51
247.681	10.92
247.898	41.64
248.115	66.22
248.332	23.21
248.549	33.45
248.766	19.11
248.983	164.52
249.2	35.5
249.417	-21.85
249.633	23.21
249.85	39.59
250.067	6.83
250.284	76.46
250.501	25.26
250.717	88.75
250.934	12.97
251.151	39.59
251.368	47.79
251.585	-34.13
251.801	49.83
252.018	-19.8
252.235	8.87
252.451	-9.56
252.668	8.87
252.885	21.16
253.102	51.88
253.318	49.83
253.535	2.73
253.752	76.46
253.968	35.5
254.185	55.98
254.401	33.45
254.618	121.51
254.835	72.36
255.051	150.18
255.268	29.35
255.484	39.59
255.701	-36.18
255.917	80.55
256.134	39.59
256.351	74.41
256.567	0.68
256.784	74.41
257	64.17
257.217	137.9
257.433	98.99
257.65	76.46
257.866	39.59
258.082	-21.85
258.299	29.35
258.515	33.45
258.732	37.55
258.948	43.69
259.165	-9.56
259.381	17.07
259.597	41.64
259.814	88.75
260.03	-13.65
260.246	31.4
260.463	33.45
260.679	101.03
260.895	-7.51
261.112	76.46
261.328	2.73
261.544	-19.8
261.761	49.83
261.977	68.27
262.193	25.26
262.409	72.36
262.626	45.74
262.842	68.27
263.058	64.17
263.274	53.93
263.49	47.79
263.707	82.6
263.923	-48.47
264.139	35.5
264.355	15.02
264.571	64.17
264.787	45.74
265.004	105.13
265.22	-1.37
265.436	41.64
265.652	17.07
265.868	58.03
266.084	60.07
266.3	55.98
266.516	6.83
266.732	47.79
266.948	-56.66
267.164	27.31
267.38	2.73
267.596	47.79
267.812	64.17
268.028	103.08
268.244	47.79
268.46	80.55
268.676	17.07
268.892	-23.89
269.108	17.07
269.324	64.17
269.54	19.11
269.756	33.45
269.972	45.74
270.188	74.41
270.403	-21.85
270.619	-13.65
270.835	-56.66
271.051	19.11
271.267	19.11
271.483	15.02
271.698	8.87
271.914	-17.75
272.13	70.31
272.346	74.41
272.562	-1.37
272.777	35.5
272.993	39.59
273.209	31.4
273.425	35.5
273.64	-44.37
273.856	41.64
274.072	39.59
274.287	27.31
274.503	88.75
274.719	33.45
274.934	74.41
275.15	17.07
275.366	-23.89
275.581	19.11
275.797	23.21
276.012	19.11
276.228	27.31
276.444	17.07
276.659	-54.61
276.875	17.07
277.09	72.36
277.306	2.73
277.521	144.04
277.737	86.7
277.952	39.59
278.168	49.83
278.383	-7.51
278.599	129.7
278.814	37.55
279.03	33.45
279.245	19.11
279.461	17.07
279.676	-1.37
279.892	29.35
280.107	25.26
280.322	68.27
280.538	23.21
280.753	8.87
280.969	-32.08
281.184	62.12
281.399	92.84
281.615	17.07
281.83	27.31
282.045	37.55
282.26	146.09
282.476	-9.56
282.691	51.88
282.906	-11.61
283.122	-25.94
283.337	31.4
283.552	58.03
283.767	-9.56
283.983	49.83
284.198	25.26
284.413	90.79
284.628	39.59
284.843	25.26
285.058	25.26
285.274	27.31
285.489	66.22
285.704	62.12
285.919	58.03
286.134	-21.85
286.349	74.41
286.564	8.87
286.779	105.13
286.995	-7.51
287.21	74.41
287.425	70.31
287.64	-25.94
287.855	25.26
288.07	49.83
288.285	47.79
288.5	53.93
288.715	19.11
288.93	19.11
289.145	15.02
289.36	123.56
289.575	-17.75
289.79	31.4
290.004	88.75
290.219	62.12
290.434	31.4
290.649	82.6
290.864	98.99
291.079	6.83
291.294	105.13
291.509	-56.66
291.724	-23.89
291.938	-27.99
292.153	76.46
292.368	51.88
292.583	170.66
292.798	27.31
293.012	37.55
293.227	4.78
293.442	10.92
293.657	12.97
293.871	15.02
294.086	41.64
294.301	72.36
294.516	92.84
294.73	35.5
294.945	27.31
295.16	29.35
295.374	72.36
295.589	60.07
295.804	60.07
296.018	62.12
296.233	17.07
296.447	33.45
296.662	29.35
296.877	55.98
297.091	64.17
297.306	51.88
297.52	41.64
297.735	-75.09
297.949	-27.99
298.164	6.83
298.378	15.02
298.593	39.59
298.807	31.4
299.022	-3.41
299.236	62.12
299.451	25.26
299.665	80.55
299.88	39.59
300.094	45.74
300.309	47.79
300.523	74.41
300.737	64.17
300.952	41.64
301.166	86.7
301.381	4.78
301.595	-1.37
301.809	45.74
302.024	39.59
302.238	8.87
302.452	64.17
302.667	27.31
302.881	21.16
303.095	76.46
303.309	-30.04
303.524	15.02
303.738	98.99
303.952	-15.7
304.166	-1.37
304.381	55.98
304.595	6.83
304.809	-17.75
305.023	27.31
305.237	51.88
305.452	90.79
305.666	27.31
305.88	-17.75
306.094	43.69
306.308	51.88
306.522	58.03
306.736	10.92
306.95	-13.65
307.164	25.26
307.379	-7.51
307.593	76.46
307.807	23.21
308.021	-32.08
308.235	64.17
308.449	68.27
308.663	45.74
308.877	-13.65
309.091	76.46
309.305	51.88
309.519	-19.8
309.733	23.21
309.947	-32.08
310.161	45.74
310.374	62.12
310.588	27.31
310.802	21.16
311.016	19.11
311.23	10.92
311.444	68.27
311.658	51.88
311.872	41.64
312.085	51.88
312.299	58.03
312.513	49.83
312.727	10.92
312.941	45.74
313.154	68.27
313.368	58.03
313.582	55.98
313.796	15.02
314.009	2.73
314.223	58.03
314.437	82.6
314.651	-11.61
314.864	74.41
315.078	64.17
315.292	39.59
315.505	33.45
315.719	90.79
315.933	-17.75
316.146	8.87
316.36	62.12
316.573	96.94
316.787	-30.04
317.001	-5.46
317.214	19.11
317.428	96.94
317.641	2.73
317.855	82.6
318.068	101.03
318.282	96.94
318.495	23.21
318.709	80.55
318.922	27.31
319.136	58.03
319.349	31.4
319.563	74.41
319.776	49.83
319.99	-5.46
320.203	55.98
320.417	-3.41
320.63	35.5
320.843	86.7
321.057	82.6
321.27	94.89
321.483	88.75
321.697	92.84
321.91	-3.41
322.124	64.17
322.337	39.59
322.55	12.97
322.763	131.75
322.977	74.41
323.19	47.79
323.403	27.31
323.617	31.4
323.83	72.36
324.043	101.03
324.256	31.4
324.469	-27.99
324.683	55.98
324.896	15.02
325.109	64.17
325.322	37.55
325.535	125.61
325.748	53.93
325.962	0.68
326.175	0.68
326.388	12.97
326.601	-19.8
326.814	-13.65
327.027	33.45
327.24	8.87
327.453	49.83
327.666	55.98
327.879	15.02
328.092	64.17
328.305	35.5
328.518	49.83
328.731	4.78
328.944	55.98
329.157	-23.89
329.37	29.35
329.583	41.64
329.796	88.75
330.009	-17.75
330.222	76.46
330.435	4.78
330.648	6.83
330.861	45.74
331.073	33.45
331.286	58.03
331.499	41.64
331.712	68.27
331.925	60.07
332.138	45.74
332.35	90.79
332.563	2.73
332.776	82.6
332.989	6.83
333.202	47.79
333.414	21.16
333.627	41.64
333.84	41.64
334.053	98.99
334.265	64.17
334.478	47.79
334.691	17.07
334.903	92.84
335.116	25.26
335.329	39.59
335.541	121.51
335.754	2.73
335.966	4.78
336.179	4.78
336.392	66.22
336.604	10.92
336.817	47.79
337.029	66.22
337.242	-1.37
337.454	70.31
337.667	21.16
337.88	78.51
338.092	17.07
338.305	82.6
338.517	-3.41
338.729	47.79
338.942	55.98
339.154	47.79
339.367	29.35
339.579	-1.37
339.792	21.16
340.004	88.75
340.217	39.59
340.429	64.17
340.641	39.59
340.854	-40.28
341.066	47.79
341.278	105.13
341.491	88.75
341.703	150.18
341.915	43.69
342.128	43.69
342.34	8.87
342.552	21.16
342.764	27.31
342.977	47.79
343.189	90.79
343.401	80.55
343.613	55.98
343.826	-15.7
344.038	31.4
344.25	39.59
344.462	8.87
344.674	27.31
344.886	27.31
345.099	33.45
345.311	58.03
345.523	115.37
345.735	-1.37
345.947	80.55
346.159	107.18
346.371	66.22
346.583	-13.65
346.795	66.22
347.007	2.73
347.219	105.13
347.431	-64.85
347.643	8.87
347.855	-13.65
348.067	80.55
348.279	45.74
348.491	60.07
348.703	45.74
348.915	39.59
349.127	55.98
349.339	80.55
349.551	-3.41
349.763	2.73
349.975	66.22
350.187	80.55
350.399	113.32
350.61	72.36
350.822	51.88
351.034	23.21
351.246	35.5
351.458	47.79
351.669	47.79
351.881	31.4
352.093	80.55
352.305	55.98
352.517	15.02
352.728	68.27
352.94	15.02
353.152	88.75
353.363	47.79
353.575	82.6
353.787	107.18
353.999	53.93
354.21	101.03
354.422	43.69
354.633	0.68
354.845	6.83
355.057	92.84
355.268	66.22
355.48	4.78
355.692	25.26
355.903	-3.41
356.115	49.83
356.326	19.11
356.538	113.32
356.749	-25.94
356.961	43.69
357.172	17.07
357.384	39.59
357.595	88.75
357.807	10.92
358.018	49.83
358.23	98.99
358.441	88.75
358.653	45.74
358.864	15.02
359.075	96.94
359.287	58.03
359.498	90.79
359.709	47.79
359.921	15.02
360.132	49.83
360.344	39.59
360.555	23.21
360.766	76.46
360.977	-17.75
361.189	-7.51
361.4	98.99
361.611	111.27
361.823	41.64
362.034	92.84
362.245	12.97
362.456	88.75
362.667	25.26
362.879	80.55
363.09	23.21
363.301	43.69
363.512	19.11
363.723	84.65
363.935	43.69
364.146	-25.94
364.357	15.02
364.568	64.17
364.779	51.88
364.99	47.79
365.201	-19.8
365.412	17.07
365.623	82.6
365.834	27.31
366.045	107.18
366.256	23.21
366.467	33.45
366.678	86.7
366.889	76.46
367.1	49.83
367.311	64.17
367.522	31.4
367.733	64.17
367.944	35.5
368.155	2.73
368.366	90.79
368.577	70.31
368.788	53.93
368.999	125.61
369.209	64.17
369.42	58.03
369.631	88.75
369.842	64.17
370.053	82.6
370.264	-11.61
370.474	68.27
370.685	21.16
370.896	-21.85
371.107	47.79
371.317	96.94
371.528	35.5
371.739	41.64
371.95	45.74
372.16	19.11
372.371	78.51
372.582	133.8
372.792	80.55
373.003	84.65
373.214	45.74
373.424	119.46
373.635	82.6
373.846	58.03
374.056	25.26
374.267	6.83
374.477	68.27
374.688	47.79
374.898	-9.56
375.109	-34.13
375.319	88.75
375.53	74.41
375.74	72.36
375.951	58.03
376.161	47.79
376.372	70.31
376.582	47.79
376.793	96.94
377.003	101.03
377.214	51.88
377.424	70.31
377.635	41.64
377.845	51.88
378.055	29.35
378.266	45.74
378.476	17.07
378.686	109.22
378.897	33.45
379.107	49.83
379.317	66.22
379.528	111.27
379.738	76.46
379.948	29.35
380.158	82.6
380.369	53.93
380.579	0.68
380.789	43.69
380.999	80.55
381.21	86.7
381.42	203.43
381.63	60.07
381.84	64.17
382.05	84.65
382.261	15.02
382.471	92.84
382.681	80.55
382.891	74.41
383.101	45.74
383.311	31.4
383.521	33.45
383.731	92.84
383.941	107.18
384.151	88.75
384.361	41.64
384.571	80.55
384.781	121.51
384.991	113.32
385.201	103.08
385.411	76.46
385.621	88.75
385.831	25.26
386.041	68.27
386.251	0.68
386.461	72.36
386.671	115.37
386.881	74.41
387.091	41.64
387.301	12.97
387.511	37.55
387.72	41.64
387.93	35.5
388.14	76.46
388.35	103.08
388.56	60.07
388.769	117.42
388.979	105.13
389.189	84.65
389.399	70.31
389.609	80.55
389.818	92.84
390.028	125.61
390.238	72.36
390.447	101.03
390.657	94.89
390.867	111.27
391.076	31.4
391.286	58.03
391.496	10.92
391.705	121.51
391.915	125.61
392.125	78.51
392.334	129.7
392.544	154.28
392.753	51.88
392.963	96.94
393.172	86.7
393.382	76.46
393.591	72.36
393.801	27.31
394.01	92.84
394.22	72.36
394.429	90.79
394.639	21.16
394.848	96.94
395.058	98.99
395.267	78.51
395.477	62.12
395.686	45.74
395.895	115.37
396.105	88.75
396.314	111.27
396.524	96.94
396.733	117.42
396.942	80.55
397.152	113.32
397.361	62.12
397.57	74.41
397.78	105.13
397.989	33.45
398.198	137.9
398.407	74.41
398.617	88.75
398.826	107.18
399.035	62.12
399.244	82.6
399.453	141.99
399.663	70.31
399.872	115.37
400.081	80.55
400.29	109.22
400.499	109.22
400.708	137.9
400.917	168.62
401.127	55.98
401.336	82.6
401.545	137.9
401.754	125.61
401.963	66.22
402.172	150.18
402.381	94.89
402.59	88.75
402.799	131.75
403.008	154.28
403.217	84.65
403.426	127.66
403.635	129.7
403.844	105.13
404.053	115.37
404.262	119.46
404.471	107.18
404.68	162.47
404.888	141.99
405.097	150.18
405.306	123.56
405.515	98.99
405.724	84.65
405.933	103.08
406.142	182.95
406.35	201.38
406.559	148.14
406.768	178.86
406.977	185
407.185	174.76
407.394	174.76
407.603	185
407.812	197.29
408.02	187.05
408.229	217.77
408.438	178.86
408.646	240.29
408.855	172.71
409.064	232.1
409.272	244.39
409.481	307.88
409.69	234.15
409.898	322.21
410.107	281.25
410.315	301.73
410.524	371.37
410.733	334.5
410.941	338.6
411.15	322.21
411.358	418.47
411.567	357.03
411.775	309.93
411.984	309.93
412.192	373.41
412.401	328.36
412.609	455.33
412.818	361.13
413.026	395.94
413.234	369.32
413.443	504.48
413.651	527.01
413.86	408.23
414.068	514.72
414.276	408.23
414.485	492.2
414.693	555.68
414.901	610.98
415.11	533.15
415.318	578.21
415.526	668.32
415.734	723.62
415.943	664.22
416.151	756.38
416.359	707.23
416.567	772.77
416.776	653.98
416.984	760.48
417.192	832.16
417.4	866.97
417.608	860.83
417.817	920.22
418.025	860.83
418.233	928.41
418.441	961.18
418.649	1094.3
418.857	1075.87
419.065	1125.02
419.273	1112.73
419.481	1131.16
419.689	1120.92
419.897	1243.8
420.105	1243.8
420.313	1282.71
420.521	1389.21
420.729	1366.68
420.937	1378.97
421.145	1499.8
421.353	1587.86
421.561	1577.62
421.769	1710.74
421.977	1647.25
422.185	1639.06
422.393	1768.08
422.601	1847.95
422.809	1899.15
423.017	1886.86
423.224	1944.2
423.432	2024.08
423.64	2155.15
423.848	2284.17
424.056	2226.82
424.263	2390.66
424.471	2441.86
424.679	2472.58
424.887	2548.36
425.094	2589.32
425.302	2605.7
425.51	2726.53
425.718	2742.91
425.925	2804.35
426.133	2931.33
426.341	3074.68
426.548	3105.4
426.756	3193.47
426.964	3439.22
427.171	3603.06
427.379	3570.29
427.586	3510.9
427.794	3746.42
428.001	3891.82
428.209	4047.47
428.417	4037.23
428.624	4196.97
428.832	4287.08
429.039	4244.07
429.247	4164.2
429.454	4907.62
429.662	4829.79
429.869	4606.56
430.076	4989.53
430.284	4852.32
430.491	5032.54
430.699	5298.78
430.906	5446.23
431.114	5284.44
431.321	5597.78
431.528	5730.9
431.736	6072.91
431.943	6128.21
432.15	6183.5
432.358	6177.36
432.565	6535.75
432.772	6529.61
432.979	6883.91
433.187	7170.62
433.394	6879.81
433.601	7404.09
433.808	7406.14
434.016	7422.52
434.223	7649.85
434.43	8061.49
434.637	8241.71
434.844	8763.94
435.052	8591.91
435.259	8700.45
435.466	8776.23
435.673	8743.46
435.88	9202.21
436.087	9847.32
436.294	9712.15
436.501	9562.65
436.708	9656.86
436.915	10123.79
437.122	10451.47
437.329	10533.39
437.537	10830.34
437.743	11092.48
437.95	10752.52
438.157	11358.72
438.364	11926
438.571	11889.14
438.778	12073.46
438.985	13025.76
439.192	12564.97
439.399	12884.45
439.606	12587.5
439.813	13300.19
440.02	14051.8
440.227	13834.71
440.433	13672.92
440.64	14068.18
440.847	13935.06
441.054	14135.76
441.261	15188.42
441.467	14803.4
441.674	15632.83
441.881	16161.2
442.088	16021.94
442.294	15694.27
442.501	16165.3
442.708	16519.6
442.914	17152.42
443.121	18018.71
443.328	17572.25
443.534	18792.84
443.741	18188.69
443.948	17781.15
444.154	19237.25
444.361	19147.14
444.568	19390.85
444.774	19063.18
444.981	19538.3
445.187	19886.46
445.394	21068.14
445.6	20736.37
445.807	22548.82
446.013	21694.82
446.22	22135.13
446.426	23058.76
446.633	22960.46
446.839	23779.65
447.046	22923.6
447.252	24119.61
447.459	23941.44
447.665	23875.9
447.871	25237.8
448.078	26183.96
448.284	24938.8
448.491	25788.71
448.697	26482.97
448.903	27216.14
449.11	27031.82
449.316	26689.81
449.522	27289.87
449.728	27998.46
449.935	28035.33
450.141	28107.01
450.347	28655.86
450.553	27322.63
450.76	28225.79
450.966	29116.65
451.172	28682.49
451.378	29389.03
451.584	28958.96
451.791	29677.8
451.997	29343.98
452.203	29853.92
452.409	30091.49
452.615	29694.18
452.821	28737.78
453.027	28451.06
453.233	30120.16
453.44	28580.09
453.646	28776.69
453.852	28797.17
454.058	29530.34
454.264	28692.72
454.47	29237.48
454.676	28377.34
454.882	29614.31
455.088	27033.87
455.294	27314.44
455.5	28115.2
455.705	27973.89
455.911	26499.35
456.117	26351.9
456.323	25770.27
456.529	24607.03
456.735	25524.52
456.941	24914.22
457.147	24658.23
457.352	23929.15
457.558	23503.17
457.764	23513.41
457.97	23105.87
458.176	22882.64
458.381	22761.81
458.587	21713.25
458.793	21580.13
458.999	20703.6
459.204	21930.33
459.41	21584.23
459.616	20167.03
459.821	20300.15
460.027	19900.79
460.233	19775.87
460.438	18688.4
460.644	18989.45
460.85	18190.74
461.055	17729.95
461.261	17545.63
461.466	16402.86
461.672	15827.39
461.878	16955.82
462.083	16099.76
462.289	15516.09
462.494	15755.71
462.7	14873.03
462.905	14619.08
463.111	14870.98
463.316	15229.38
463.522	14834.12
463.727	14875.08
463.932	14592.46
464.138	14559.69
464.343	14664.14
464.549	14209.49
464.754	14590.41
464.959	14735.82
465.165	14694.86
465.37	13648.35
465.575	13470.17
465.781	14064.08
465.986	14313.94
466.191	13597.15
466.397	13421.02
466.602	12718.57
466.807	13308.38
467.012	12904.93
467.218	13033.96
467.423	12915.17
467.628	13001.19
467.833	13558.24
468.038	12970.47
