Data from USB4F104151__165__13-58-47-732.txt Node

Date: Thu Mar 13 13:58:47 EDT 2025
User: louis
Spectrometer: USB4F10415
Trigger mode: 4
Integration Time (sec): 1.000000E-2
Scans to average: 1
Electric dark correction enabled: true
Nonlinearity correction enabled: false
Boxcar width: 0
XAxis mode: Wavelengths
Number of Pixels in Spectrum: 3648
>>>>>Begin Spectral Data<<<<<
178.204	-28.33
178.424	-28.33
178.644	-28.33
178.864	-69.29
179.084	-22.19
179.304	37.2
179.524	-95.91
179.744	4.44
179.964	-28.33
180.184	-5.8
180.404	-13.99
180.624	-20.14
180.844	57.68
181.064	26.96
181.283	-22.19
181.503	26.96
181.723	33.11
181.943	65.88
182.163	-16.04
182.383	-20.14
182.602	0.34
182.822	-32.43
183.042	35.16
183.262	-18.09
183.482	-11.95
183.701	-1.71
183.921	-34.47
184.141	106.84
184.361	-42.67
184.58	-16.04
184.8	41.3
185.02	78.16
185.239	26.96
185.459	16.73
185.679	33.11
185.898	-20.14
186.118	57.68
186.338	0.34
186.557	-3.75
186.777	41.3
186.997	35.16
187.216	26.96
187.436	-11.95
187.655	57.68
187.875	29.01
188.095	-46.76
188.314	37.2
188.534	18.77
188.753	10.58
188.973	37.2
189.192	-24.23
189.412	-11.95
189.631	2.39
189.851	-52.91
190.07	43.35
190.29	22.87
190.509	39.25
190.729	4.44
190.948	49.49
191.168	76.12
191.387	16.73
191.607	-5.8
191.826	8.53
192.045	39.25
192.265	53.59
192.484	33.11
192.704	41.3
192.923	45.4
193.142	26.96
193.362	67.92
193.581	55.64
193.8	16.73
194.02	-5.8
194.239	26.96
194.458	-11.95
194.678	37.2
194.897	18.77
195.116	55.64
195.335	18.77
195.555	24.92
195.774	86.36
195.993	-93.87
196.212	76.12
196.432	-13.99
196.651	94.55
196.87	24.92
197.089	53.59
197.308	-30.38
197.528	82.26
197.747	8.53
197.966	-16.04
198.185	57.68
198.404	-28.33
198.623	-20.14
198.842	92.5
199.062	-5.8
199.281	35.16
199.5	-28.33
199.719	37.2
199.938	33.11
200.157	8.53
200.376	39.25
200.595	16.73
200.814	63.83
201.033	76.12
201.252	63.83
201.471	-11.95
201.69	8.53
201.909	20.82
202.128	-26.28
202.347	51.54
202.566	10.58
202.785	-7.85
203.004	-3.75
203.223	22.87
203.442	-52.91
203.661	2.39
203.879	24.92
204.098	39.25
204.317	-13.99
204.536	82.26
204.755	-40.62
204.974	0.34
205.193	16.73
205.411	45.4
205.63	2.39
205.849	35.16
206.068	-32.43
206.287	26.96
206.505	33.11
206.724	31.06
206.943	-16.04
207.162	4.44
207.381	-22.19
207.599	2.39
207.818	4.44
208.037	39.25
208.255	10.58
208.474	-1.71
208.693	22.87
208.911	49.49
209.13	24.92
209.349	76.12
209.567	26.96
209.786	51.54
210.005	67.92
210.223	-24.23
210.442	80.21
210.661	35.16
210.879	22.87
211.098	45.4
211.316	-26.28
211.535	-22.19
211.753	76.12
211.972	53.59
212.191	22.87
212.409	26.96
212.628	-5.8
212.846	57.68
213.065	-28.33
213.283	43.35
213.502	45.4
213.72	16.73
213.938	55.64
214.157	0.34
214.375	-9.9
214.594	-1.71
214.812	35.16
215.031	-32.43
215.249	10.58
215.467	18.77
215.686	-7.85
215.904	-20.14
216.122	16.73
216.341	-30.38
216.559	18.77
216.778	90.45
216.996	61.78
217.214	43.35
217.432	-13.99
217.651	14.68
217.869	16.73
218.087	76.12
218.306	-79.53
218.524	8.53
218.742	-24.23
218.96	98.64
219.179	80.21
219.397	41.3
219.615	-7.85
219.833	-11.95
220.051	-38.57
220.27	162.13
220.488	14.68
220.706	24.92
220.924	24.92
221.142	-16.04
221.36	-30.38
221.578	45.4
221.796	-3.75
222.015	-13.99
222.233	-3.75
222.451	96.6
222.669	16.73
222.887	-46.76
223.105	43.35
223.323	37.2
223.541	24.92
223.759	-20.14
223.977	10.58
224.195	-34.47
224.413	74.07
224.631	16.73
224.849	-1.71
225.067	2.39
225.285	-26.28
225.503	57.68
225.721	10.58
225.939	31.06
226.157	0.34
226.375	16.73
226.592	43.35
226.81	14.68
227.028	55.64
227.246	92.5
227.464	16.73
227.682	22.87
227.9	8.53
228.117	-5.8
228.335	59.73
228.553	2.39
228.771	37.2
228.989	-30.38
229.206	4.44
229.424	37.2
229.642	43.35
229.86	-5.8
230.077	74.07
230.295	10.58
230.513	49.49
230.731	14.68
230.948	-89.77
231.166	59.73
231.384	-5.8
231.601	39.25
231.819	12.63
232.037	-22.19
232.254	-54.95
232.472	49.49
232.689	22.87
232.907	47.44
233.125	8.53
233.342	16.73
233.56	8.53
233.777	26.96
233.995	37.2
234.213	69.97
234.43	39.25
234.648	2.39
234.865	35.16
235.083	33.11
235.3	26.96
235.518	24.92
235.735	0.34
235.953	24.92
236.17	-32.43
236.388	-22.19
236.605	24.92
236.822	-22.19
237.04	-77.48
237.257	-16.04
237.475	-22.19
237.692	45.4
237.909	4.44
238.127	0.34
238.344	43.35
238.562	119.12
238.779	2.39
238.996	4.44
239.214	33.11
239.431	49.49
239.648	33.11
239.865	6.49
240.083	65.88
240.3	4.44
240.517	47.44
240.735	78.16
240.952	37.2
241.169	10.58
241.386	20.82
241.603	29.01
241.821	16.73
242.038	-7.85
242.255	-7.85
242.472	57.68
242.689	20.82
242.907	90.45
243.124	33.11
243.341	-9.9
243.558	14.68
243.775	51.54
243.992	49.49
244.209	67.92
244.426	57.68
244.643	76.12
244.86	35.16
245.078	20.82
245.295	-7.85
245.512	-32.43
245.729	22.87
245.946	24.92
246.163	26.96
246.38	24.92
246.597	4.44
246.814	110.93
247.031	4.44
247.248	47.44
247.464	10.58
247.681	43.35
247.898	0.34
248.115	65.88
248.332	-7.85
248.549	24.92
248.766	22.87
248.983	47.44
249.2	-34.47
249.417	-1.71
249.633	-81.58
249.85	39.25
250.067	-22.19
250.284	-22.19
250.501	49.49
250.717	0.34
250.934	0.34
251.151	-34.47
251.368	4.44
251.585	33.11
251.801	-18.09
252.018	10.58
252.235	-1.71
252.451	24.92
252.668	78.16
252.885	67.92
253.102	31.06
253.318	37.2
253.535	16.73
253.752	-32.43
253.968	53.59
254.185	49.49
254.401	-93.87
254.618	29.01
254.835	61.78
255.051	45.4
255.268	53.59
255.484	33.11
255.701	-40.62
255.917	12.63
256.134	10.58
256.351	43.35
256.567	-26.28
256.784	-16.04
257	0.34
257.217	14.68
257.433	72.02
257.65	47.44
257.866	-26.28
258.082	22.87
258.299	-22.19
258.515	82.26
258.732	12.63
258.948	12.63
259.165	-5.8
259.381	29.01
259.597	67.92
259.814	-13.99
260.03	115.03
260.246	33.11
260.463	-26.28
260.679	18.77
260.895	94.55
261.112	24.92
261.328	37.2
261.544	-30.38
261.761	78.16
261.977	69.97
262.193	-36.52
262.409	84.31
262.626	90.45
262.842	-9.9
263.058	37.2
263.274	57.68
263.49	16.73
263.707	78.16
263.923	-9.9
264.139	-13.99
264.355	102.74
264.571	96.6
264.787	31.06
265.004	92.5
265.22	29.01
265.436	80.21
265.652	12.63
265.868	-13.99
266.084	22.87
266.3	4.44
266.516	18.77
266.732	72.02
266.948	61.78
267.164	22.87
267.38	35.16
267.596	-1.71
267.812	-5.8
268.028	-5.8
268.244	-36.52
268.46	-22.19
268.676	-13.99
268.892	-5.8
269.108	8.53
269.324	-40.62
269.54	55.64
269.756	82.26
269.972	43.35
270.188	-42.67
270.403	4.44
270.619	45.4
270.835	-22.19
271.051	41.3
271.267	51.54
271.483	39.25
271.698	20.82
271.914	10.58
272.13	-11.95
272.346	-18.09
272.562	12.63
272.777	37.2
272.993	10.58
273.209	39.25
273.425	39.25
273.64	37.2
273.856	10.58
274.072	0.34
274.287	86.36
274.503	92.5
274.719	41.3
274.934	-22.19
275.15	-30.38
275.366	-11.95
275.581	-11.95
275.797	39.25
276.012	-83.63
276.228	59.73
276.444	2.39
276.659	4.44
276.875	-7.85
277.09	8.53
277.306	18.77
277.521	0.34
277.737	-75.43
277.952	72.02
278.168	18.77
278.383	41.3
278.599	82.26
278.814	65.88
279.03	10.58
279.245	8.53
279.461	33.11
279.676	51.54
279.892	-114.34
280.107	47.44
280.322	45.4
280.538	10.58
280.753	43.35
280.969	-30.38
281.184	61.78
281.399	41.3
281.615	51.54
281.83	92.5
282.045	-32.43
282.26	74.07
282.476	4.44
282.691	112.98
282.906	-5.8
283.122	-9.9
283.337	67.92
283.552	102.74
283.767	53.59
283.983	43.35
284.198	67.92
284.413	98.64
284.628	-36.52
284.843	16.73
285.058	43.35
285.274	24.92
285.489	22.87
285.704	102.74
285.919	0.34
286.134	45.4
286.349	16.73
286.564	-28.33
286.779	6.49
286.995	20.82
287.21	-11.95
287.425	63.83
287.64	-20.14
287.855	-7.85
288.07	16.73
288.285	20.82
288.5	-7.85
288.715	26.96
288.93	-42.67
289.145	14.68
289.36	47.44
289.575	6.49
289.79	18.77
290.004	20.82
290.219	51.54
290.434	31.06
290.649	69.97
290.864	35.16
291.079	61.78
291.294	14.68
291.509	12.63
291.724	33.11
291.938	4.44
292.153	-13.99
292.368	4.44
292.583	43.35
292.798	-5.8
293.012	-13.99
293.227	49.49
293.442	74.07
293.657	67.92
293.871	76.12
294.086	33.11
294.301	67.92
294.516	63.83
294.73	16.73
294.945	-32.43
295.16	4.44
295.374	-3.75
295.589	35.16
295.804	16.73
296.018	-32.43
296.233	57.68
296.447	-48.81
296.662	33.11
296.877	14.68
297.091	16.73
297.306	67.92
297.52	51.54
297.735	0.34
297.949	-32.43
298.164	74.07
298.378	45.4
298.593	26.96
298.807	45.4
299.022	-1.71
299.236	16.73
299.451	53.59
299.665	20.82
299.88	55.64
300.094	63.83
300.309	33.11
300.523	59.73
300.737	57.68
300.952	20.82
301.166	35.16
301.381	10.58
301.595	74.07
301.809	-9.9
302.024	31.06
302.238	41.3
302.452	49.49
302.667	26.96
302.881	59.73
303.095	-5.8
303.309	22.87
303.524	12.63
303.738	-3.75
303.952	-1.71
304.166	35.16
304.381	-38.57
304.595	98.64
304.809	29.01
305.023	102.74
305.237	16.73
305.452	61.78
305.666	2.39
305.88	18.77
306.094	12.63
306.308	26.96
306.522	92.5
306.736	16.73
306.95	26.96
307.164	-11.95
307.379	67.92
307.593	162.13
307.807	55.64
308.021	24.92
308.235	41.3
308.449	82.26
308.663	53.59
308.877	61.78
309.091	33.11
309.305	41.3
309.519	-3.75
309.733	26.96
309.947	74.07
310.161	-28.33
310.374	29.01
310.588	49.49
310.802	-9.9
311.016	94.55
311.23	24.92
311.444	-32.43
311.658	90.45
311.872	55.64
312.085	-18.09
312.299	-9.9
312.513	76.12
312.727	0.34
312.941	4.44
313.154	-5.8
313.368	-71.34
313.582	49.49
313.796	6.49
314.009	37.2
314.223	67.92
314.437	96.6
314.651	-22.19
314.864	31.06
315.078	82.26
315.292	65.88
315.505	57.68
315.719	33.11
315.933	78.16
316.146	24.92
316.36	53.59
316.573	-11.95
316.787	78.16
317.001	31.06
317.214	4.44
317.428	14.68
317.641	8.53
317.855	41.3
318.068	-24.23
318.282	39.25
318.495	51.54
318.709	49.49
318.922	18.77
319.136	-52.91
319.349	41.3
319.563	59.73
319.776	65.88
319.99	35.16
320.203	74.07
320.417	37.2
320.63	37.2
320.843	117.08
321.057	55.64
321.27	14.68
321.483	-18.09
321.697	26.96
321.91	63.83
322.124	-16.04
322.337	45.4
322.55	33.11
322.763	-16.04
322.977	57.68
323.19	22.87
323.403	8.53
323.617	-20.14
323.83	69.97
324.043	-30.38
324.256	4.44
324.469	4.44
324.683	10.58
324.896	57.68
325.109	16.73
325.322	53.59
325.535	16.73
325.748	76.12
325.962	-11.95
326.175	47.44
326.388	65.88
326.601	51.54
326.814	35.16
327.027	-3.75
327.24	39.25
327.453	-59.05
327.666	-1.71
327.879	20.82
328.092	-1.71
328.305	76.12
328.518	39.25
328.731	22.87
328.944	53.59
329.157	41.3
329.37	127.32
329.583	-5.8
329.796	24.92
330.009	-28.33
330.222	-7.85
330.435	29.01
330.648	4.44
330.861	82.26
331.073	49.49
331.286	65.88
331.499	-30.38
331.712	-34.47
331.925	8.53
332.138	20.82
332.35	43.35
332.563	-13.99
332.776	-7.85
332.989	49.49
333.202	-16.04
333.414	-20.14
333.627	8.53
333.84	74.07
334.053	74.07
334.265	57.68
334.478	-24.23
334.691	24.92
334.903	4.44
335.116	-57
335.329	16.73
335.541	-22.19
335.754	26.96
335.966	-54.95
336.179	0.34
336.392	-18.09
336.604	16.73
336.817	67.92
337.029	53.59
337.242	-75.43
337.454	-5.8
337.667	10.58
337.88	80.21
338.092	-26.28
338.305	4.44
338.517	49.49
338.729	90.45
338.942	53.59
339.154	47.44
339.367	86.36
339.579	61.78
339.792	53.59
340.004	-3.75
340.217	35.16
340.429	72.02
340.641	37.2
340.854	-18.09
341.066	29.01
341.278	16.73
341.491	16.73
341.703	41.3
341.915	-36.52
342.128	-26.28
342.34	-63.15
342.552	67.92
342.764	41.3
342.977	74.07
343.189	-20.14
343.401	-11.95
343.613	76.12
343.826	59.73
344.038	-3.75
344.25	96.6
344.462	41.3
344.674	65.88
344.886	80.21
345.099	16.73
345.311	45.4
345.523	18.77
345.735	-24.23
345.947	33.11
346.159	33.11
346.371	29.01
346.583	-3.75
346.795	-7.85
347.007	-3.75
347.219	22.87
347.431	37.2
347.643	-13.99
347.855	14.68
348.067	59.73
348.279	20.82
348.491	49.49
348.703	47.44
348.915	-61.1
349.127	-46.76
349.339	94.55
349.551	26.96
349.763	53.59
349.975	-5.8
350.187	26.96
350.399	2.39
350.61	24.92
350.822	53.59
351.034	39.25
351.246	-54.95
351.458	59.73
351.669	45.4
351.881	67.92
352.093	43.35
352.305	43.35
352.517	43.35
352.728	82.26
352.94	20.82
353.152	63.83
353.363	51.54
353.575	57.68
353.787	-5.8
353.999	94.55
354.21	67.92
354.422	16.73
354.633	6.49
354.845	-18.09
355.057	-40.62
355.268	74.07
355.48	57.68
355.692	4.44
355.903	55.64
356.115	86.36
356.326	69.97
356.538	39.25
356.749	24.92
356.961	74.07
357.172	-38.57
357.384	10.58
357.595	6.49
357.807	0.34
358.018	37.2
358.23	2.39
358.441	22.87
358.653	-16.04
358.864	10.58
359.075	2.39
359.287	63.83
359.498	41.3
359.709	-22.19
359.921	18.77
360.132	41.3
360.344	72.02
360.555	51.54
360.766	-3.75
360.977	8.53
361.189	-32.43
361.4	20.82
361.611	29.01
361.823	0.34
362.034	4.44
362.245	14.68
362.456	-7.85
362.667	55.64
362.879	10.58
363.09	6.49
363.301	8.53
363.512	49.49
363.723	61.78
363.935	-18.09
364.146	98.64
364.357	12.63
364.568	80.21
364.779	-22.19
364.99	35.16
365.201	-28.33
365.412	61.78
365.623	51.54
365.834	29.01
366.045	0.34
366.256	45.4
366.467	37.2
366.678	90.45
366.889	104.79
367.1	-16.04
367.311	63.83
367.522	-16.04
367.733	82.26
367.944	47.44
368.155	2.39
368.366	41.3
368.577	31.06
368.788	8.53
368.999	-11.95
369.209	24.92
369.42	57.68
369.631	51.54
369.842	49.49
370.053	33.11
370.264	31.06
370.474	16.73
370.685	-16.04
370.896	72.02
371.107	47.44
371.317	-5.8
371.528	59.73
371.739	29.01
371.95	-3.75
372.16	4.44
372.371	-16.04
372.582	74.07
372.792	49.49
373.003	-26.28
373.214	0.34
373.424	-13.99
373.635	47.44
373.846	12.63
374.056	37.2
374.267	33.11
374.477	4.44
374.688	63.83
374.898	33.11
375.109	-20.14
375.319	-20.14
375.53	20.82
375.74	104.79
375.951	35.16
376.161	-36.52
376.372	0.34
376.582	37.2
376.793	12.63
377.003	8.53
377.214	12.63
377.424	35.16
377.635	18.77
377.845	-65.19
378.055	51.54
378.266	4.44
378.476	33.11
378.686	8.53
378.897	84.31
379.107	-11.95
379.317	33.11
379.528	-11.95
379.738	86.36
379.948	20.82
380.158	-36.52
380.369	14.68
380.579	55.64
380.789	26.96
380.999	59.73
381.21	12.63
381.42	100.69
381.63	12.63
381.84	35.16
382.05	-3.75
382.261	22.87
382.471	-30.38
382.681	84.31
382.891	-26.28
383.101	57.68
383.311	41.3
383.521	29.01
383.731	51.54
383.941	57.68
384.151	41.3
384.361	10.58
384.571	-1.71
384.781	57.68
384.991	59.73
385.201	39.25
385.411	41.3
385.621	55.64
385.831	33.11
386.041	67.92
386.251	63.83
386.461	37.2
386.671	-54.95
386.881	-18.09
387.091	6.49
387.301	90.45
387.511	0.34
387.72	37.2
387.93	-57
388.14	4.44
388.35	29.01
388.56	35.16
388.769	-13.99
388.979	29.01
389.189	-5.8
389.399	74.07
389.609	29.01
389.818	74.07
390.028	4.44
390.238	67.92
390.447	90.45
390.657	37.2
390.867	-59.05
391.076	57.68
391.286	59.73
391.496	24.92
391.705	41.3
391.915	16.73
392.125	14.68
392.334	49.49
392.544	24.92
392.753	82.26
392.963	24.92
393.172	0.34
393.382	26.96
393.591	55.64
393.801	8.53
394.01	59.73
394.22	-20.14
394.429	45.4
394.639	41.3
394.848	29.01
395.058	16.73
395.267	-3.75
395.477	100.69
395.686	43.35
395.895	61.78
396.105	29.01
396.314	72.02
396.524	-24.23
396.733	-20.14
396.942	84.31
397.152	80.21
397.361	-13.99
397.57	12.63
397.78	76.12
397.989	43.35
398.198	123.22
398.407	-38.57
398.617	55.64
398.826	35.16
399.035	35.16
399.244	117.08
399.453	-13.99
399.663	86.36
399.872	6.49
400.081	65.88
400.29	69.97
400.499	90.45
400.708	49.49
400.917	2.39
401.127	39.25
401.336	33.11
401.545	18.77
401.754	35.16
401.963	74.07
402.172	100.69
402.381	74.07
402.59	57.68
402.799	-5.8
403.008	141.65
403.217	45.4
403.426	102.74
403.635	69.97
403.844	55.64
404.053	43.35
404.262	53.59
404.471	24.92
404.68	31.06
404.888	65.88
405.097	94.55
405.306	6.49
405.515	92.5
405.724	86.36
405.933	55.64
406.142	98.64
406.35	18.77
406.559	26.96
406.768	57.68
406.977	88.4
407.185	8.53
407.394	35.16
407.603	90.45
407.812	147.8
408.02	98.64
408.229	76.12
408.438	-5.8
408.646	76.12
408.855	78.16
409.064	155.99
409.272	69.97
409.481	147.8
409.69	51.54
409.898	98.64
410.107	147.8
410.315	110.93
410.524	104.79
410.733	147.8
410.941	192.85
411.15	123.22
411.358	88.4
411.567	194.9
411.775	131.41
411.984	149.84
412.192	125.27
412.401	182.61
412.609	129.36
412.818	176.47
413.026	149.84
413.234	201.04
413.443	131.41
413.651	270.67
413.86	178.51
414.068	225.62
414.276	168.27
414.485	172.37
414.693	182.61
414.901	258.39
415.11	244.05
415.318	270.67
415.526	182.61
415.734	254.29
415.943	305.49
416.151	270.67
416.359	262.48
416.567	285.01
416.776	235.86
416.984	360.78
417.192	291.15
417.4	287.06
417.608	321.87
417.817	364.88
418.025	368.98
418.233	399.7
418.441	391.5
418.649	313.68
418.857	414.03
419.065	409.94
419.273	393.55
419.481	364.88
419.689	426.32
419.897	469.33
420.105	401.74
420.313	500.05
420.521	498
420.729	450.89
420.937	569.68
421.145	545.1
421.353	575.82
421.561	545.1
421.769	600.4
421.977	590.16
422.185	633.16
422.393	674.12
422.601	663.88
422.809	737.61
423.017	688.46
423.224	713.03
423.432	776.52
423.64	780.62
423.848	786.76
424.056	729.42
424.263	909.64
424.471	901.45
424.679	885.06
424.887	864.58
425.094	868.68
425.302	944.45
425.51	942.41
425.718	923.98
425.925	919.88
426.133	1048.9
426.341	1206.59
426.548	1165.64
426.756	1182.02
426.964	1294.66
427.171	1323.33
427.379	1294.66
427.586	1345.86
427.794	1372.48
428.001	1407.3
428.209	1356.1
428.417	1380.67
428.624	1517.89
428.832	1593.66
429.039	1577.28
429.247	1583.42
429.454	1614.14
429.662	1773.88
429.869	1569.09
430.076	1775.93
430.284	1665.34
430.491	1759.55
430.699	1892.66
430.906	2062.65
431.114	1952.06
431.321	2060.6
431.528	1982.78
431.736	2191.67
431.943	2339.12
432.15	2187.57
432.358	2193.72
432.565	2392.37
432.772	2322.74
432.979	2490.67
433.187	2502.96
433.394	2507.06
433.601	2728.24
433.808	2642.22
434.016	2629.93
434.223	2775.34
434.43	3014.95
434.637	2904.36
434.844	3066.15
435.052	3258.66
435.259	3105.06
435.466	3184.93
435.673	2971.94
435.88	3266.85
436.087	3473.7
436.294	3424.55
436.501	3295.52
436.708	3399.97
436.915	3510.56
437.122	3737.88
437.329	3741.98
437.537	3680.54
437.743	4016.41
437.95	3803.42
438.157	4159.77
438.364	4172.05
438.571	4204.82
438.778	4282.64
438.985	4581.65
439.192	4528.4
439.399	4641.04
439.606	4282.64
439.813	4671.76
440.02	5130.5
440.227	4872.46
440.433	4913.42
440.64	4985.1
440.847	4937.99
441.054	5110.02
441.261	5417.22
441.467	5499.14
441.674	5462.27
441.881	5697.79
442.088	5548.29
442.294	5531.9
442.501	5869.82
442.708	5918.97
442.914	5996.79
443.121	6367.48
443.328	6058.23
443.534	6596.85
443.741	6375.67
443.948	6416.63
444.154	6779.12
444.361	6916.33
444.568	6957.29
444.774	6883.56
444.981	6787.31
445.187	7256.29
445.394	7368.93
445.6	7454.95
445.807	8055
446.013	7751.9
446.22	7887.07
446.426	8184.02
446.633	8384.73
446.839	8573.14
447.046	8128.73
447.252	8712.4
447.459	8724.69
447.665	8636.63
447.871	8808.65
448.078	9382.09
448.284	8851.66
448.491	9027.79
448.697	9267.4
448.903	9951.42
449.11	9672.9
449.316	9492.68
449.522	9859.26
449.728	9955.52
449.935	10135.74
450.141	10272.95
450.347	10469.56
450.553	10174.65
450.76	10023.1
450.966	10459.32
451.172	10328.25
451.378	10715.31
451.584	10567.86
451.791	10854.58
451.997	10752.18
452.203	10952.88
452.409	10901.68
452.615	10993.84
452.821	10545.33
453.027	10383.54
453.233	10879.15
453.44	10393.78
453.646	10623.16
453.852	10531
454.058	10776.75
454.264	10588.34
454.47	11002.03
454.676	10496.18
454.882	10805.42
455.088	10115.26
455.294	10207.42
455.5	10389.69
455.705	10422.45
455.911	9908.41
456.117	9908.41
456.323	9488.58
456.529	8997.07
456.735	9767.1
456.941	9314.5
457.147	9195.72
457.352	8976.59
457.558	8757.46
457.764	8616.15
457.97	8755.41
458.176	8540.37
458.381	8519.89
458.587	8159.45
458.793	8227.03
458.999	7635.17
459.204	8251.61
459.41	7993.56
459.616	7536.87
459.821	7536.87
460.027	7483.62
460.233	7289.06
460.438	6940.91
460.644	7194.86
460.85	6633.71
461.055	6533.36
461.261	6686.96
461.466	6066.42
461.672	5931.26
461.878	6600.94
462.083	5964.03
462.289	5835
462.494	5859.58
462.7	5775.61
462.905	5429.51
463.111	5675.26
463.316	5632.26
463.522	5662.97
463.727	5497.09
463.932	5611.78
464.138	5419.27
464.343	5435.65
464.549	5257.48
464.754	5497.09
464.959	5431.55
465.165	5380.36
465.37	5198.09
465.575	5095.69
465.781	5263.62
465.986	5255.43
466.191	5153.03
466.397	4911.37
466.602	4753.68
466.807	4981
467.012	4849.93
467.218	4890.89
467.423	4831.5
467.628	4956.43
467.833	5058.82
468.038	4860.17
468.244	4675.85
468.449	4856.08
468.654	4735.25
468.859	4686.09
469.064	4749.58
469.269	4555.02
469.474	4591.89
469.679	4645.13
469.885	4577.55
470.09	4372.75
470.295	4401.43
470.5	4475.15
470.705	4419.86
470.91	4294.93
471.115	4401.43
