Data from USB4F104151__65__13-53-42-795.txt Node

Date: Thu Mar 13 13:53:42 EDT 2025
User: louis
Spectrometer: USB4F10415
Trigger mode: 4
Integration Time (sec): 1.000000E-2
Scans to average: 1
Electric dark correction enabled: true
Nonlinearity correction enabled: false
Boxcar width: 0
XAxis mode: Wavelengths
Number of Pixels in Spectrum: 3648
>>>>>Begin Spectral Data<<<<<
178.204	-30.04
178.424	-30.04
178.644	-30.04
178.864	-25.94
179.084	-5.46
179.304	-11.61
179.524	23.21
179.744	60.07
179.964	25.26
180.184	-62.8
180.404	23.21
180.624	-1.37
180.844	31.4
181.064	-42.32
181.283	-25.94
181.503	-27.99
181.723	8.87
181.943	19.11
182.163	27.31
182.383	39.59
182.602	-25.94
182.822	12.97
183.042	15.02
183.262	-46.42
183.482	-9.56
183.701	33.45
183.921	6.83
184.141	-23.89
184.361	-17.75
184.58	37.55
184.8	-25.94
185.02	-83.28
185.239	-1.37
185.459	51.88
185.679	84.65
185.898	2.73
186.118	33.45
186.338	49.83
186.557	0.68
186.777	27.31
186.997	17.07
187.216	72.36
187.436	-85.33
187.655	-34.13
187.875	15.02
188.095	31.4
188.314	39.59
188.534	-66.9
188.753	31.4
188.973	23.21
189.192	31.4
189.412	4.78
189.631	4.78
189.851	25.26
190.07	15.02
190.29	-13.65
190.509	6.83
190.729	0.68
190.948	10.92
191.168	19.11
191.387	27.31
191.607	43.69
191.826	-21.85
192.045	39.59
192.265	53.93
192.484	-1.37
192.704	74.41
192.923	29.35
193.142	-7.51
193.362	8.87
193.581	68.27
193.8	64.17
194.02	-19.8
194.239	72.36
194.458	-19.8
194.678	17.07
194.897	-13.65
195.116	53.93
195.335	88.75
195.555	-13.65
195.774	98.99
195.993	2.73
196.212	49.83
196.432	-1.37
196.651	-15.7
196.87	35.5
197.089	66.22
197.308	-7.51
197.528	-34.13
197.747	4.78
197.966	41.64
198.185	12.97
198.404	33.45
198.623	43.69
198.842	10.92
199.062	4.78
199.281	-3.41
199.5	27.31
199.719	-3.41
199.938	27.31
200.157	121.51
200.376	-25.94
200.595	6.83
200.814	72.36
201.033	-27.99
201.252	27.31
201.471	78.51
201.69	-5.46
201.909	-17.75
202.128	21.16
202.347	70.31
202.566	-60.76
202.785	31.4
203.004	12.97
203.223	47.79
203.442	-15.7
203.661	96.94
203.879	2.73
204.098	47.79
204.317	-25.94
204.536	98.99
204.755	33.45
204.974	4.78
205.193	53.93
205.411	31.4
205.63	62.12
205.849	39.59
206.068	21.16
206.287	-1.37
206.505	-19.8
206.724	-1.37
206.943	39.59
207.162	-3.41
207.381	0.68
207.599	8.87
207.818	-19.8
208.037	8.87
208.255	-34.13
208.474	12.97
208.693	15.02
208.911	47.79
209.13	-7.51
209.349	-7.51
209.567	-11.61
209.786	12.97
210.005	31.4
210.223	4.78
210.442	6.83
210.661	25.26
210.879	-3.41
211.098	-5.46
211.316	19.11
211.535	19.11
211.753	15.02
211.972	2.73
212.191	-21.85
212.409	72.36
212.628	-38.23
212.846	4.78
213.065	-34.13
213.283	45.74
213.502	27.31
213.72	10.92
213.938	15.02
214.157	27.31
214.375	0.68
214.594	-7.51
214.812	19.11
215.031	17.07
215.249	43.69
215.467	27.31
215.686	0.68
215.904	88.75
216.122	19.11
216.341	10.92
216.559	19.11
216.778	12.97
216.996	19.11
217.214	55.98
217.432	10.92
217.651	10.92
217.869	43.69
218.087	53.93
218.306	43.69
218.524	72.36
218.742	29.35
218.96	23.21
219.179	53.93
219.397	53.93
219.615	60.07
219.833	35.5
220.051	21.16
220.27	-17.75
220.488	6.83
220.706	68.27
220.924	62.12
221.142	15.02
221.36	19.11
221.578	15.02
221.796	55.98
222.015	49.83
222.233	-13.65
222.451	-1.37
222.669	12.97
222.887	6.83
223.105	-13.65
223.323	45.74
223.541	62.12
223.759	-23.89
223.977	37.55
224.195	33.45
224.413	31.4
224.631	15.02
224.849	0.68
225.067	-1.37
225.285	-85.33
225.503	-21.85
225.721	-42.32
225.939	-30.04
226.157	15.02
226.375	21.16
226.592	-50.52
226.81	35.5
227.028	-1.37
227.246	53.93
227.464	2.73
227.682	31.4
227.9	23.21
228.117	-1.37
228.335	19.11
228.553	39.59
228.771	-13.65
228.989	45.74
229.206	33.45
229.424	-52.56
229.642	17.07
229.86	8.87
230.077	33.45
230.295	-5.46
230.513	49.83
230.731	62.12
230.948	31.4
231.166	49.83
231.384	-25.94
231.601	-7.51
231.819	10.92
232.037	-5.46
232.254	-15.7
232.472	31.4
232.689	-52.56
232.907	-3.41
233.125	-13.65
233.342	-42.32
233.56	-52.56
233.777	35.5
233.995	-77.14
234.213	19.11
234.43	-9.56
234.648	15.02
234.865	-17.75
235.083	-30.04
235.3	45.74
235.518	-44.37
235.735	66.22
235.953	43.69
236.17	2.73
236.388	76.46
236.605	6.83
236.822	17.07
237.04	15.02
237.257	60.07
237.475	-27.99
237.692	17.07
237.909	6.83
238.127	-21.85
238.344	70.31
238.562	-56.66
238.779	-25.94
238.996	62.12
239.214	2.73
239.431	49.83
239.648	-15.7
239.865	-19.8
240.083	41.64
240.3	-3.41
240.517	8.87
240.735	-13.65
240.952	60.07
241.169	25.26
241.386	23.21
241.603	8.87
241.821	-21.85
242.038	101.03
242.255	39.59
242.472	2.73
242.689	146.09
242.907	35.5
243.124	43.69
243.341	29.35
243.558	-1.37
243.775	-15.7
243.992	12.97
244.209	90.79
244.426	4.78
244.643	-48.47
244.86	43.69
245.078	-25.94
245.295	-9.56
245.512	2.73
245.729	47.79
245.946	-36.18
246.163	33.45
246.38	0.68
246.597	-17.75
246.814	74.41
247.031	0.68
247.248	27.31
247.464	-15.7
247.681	70.31
247.898	2.73
248.115	51.88
248.332	-54.61
248.549	37.55
248.766	21.16
248.983	-27.99
249.2	-66.9
249.417	-7.51
249.633	64.17
249.85	17.07
250.067	-1.37
250.284	6.83
250.501	-23.89
250.717	51.88
250.934	47.79
251.151	29.35
251.368	19.11
251.585	66.22
251.801	37.55
252.018	-1.37
252.235	27.31
252.451	21.16
252.668	12.97
252.885	58.03
253.102	-21.85
253.318	70.31
253.535	-3.41
253.752	49.83
253.968	-5.46
254.185	37.55
254.401	19.11
254.618	12.97
254.835	-23.89
255.051	39.59
255.268	76.46
255.484	19.11
255.701	-15.7
255.917	-36.18
256.134	33.45
256.351	8.87
256.567	35.5
256.784	-7.51
257	23.21
257.217	19.11
257.433	-30.04
257.65	45.74
257.866	10.92
258.082	27.31
258.299	37.55
258.515	60.07
258.732	8.87
258.948	43.69
259.165	15.02
259.381	-54.61
259.597	53.93
259.814	6.83
260.03	21.16
260.246	29.35
260.463	49.83
260.679	68.27
260.895	4.78
261.112	66.22
261.328	-5.46
261.544	41.64
261.761	-9.56
261.977	-38.23
262.193	-19.8
262.409	-1.37
262.626	-58.71
262.842	-66.9
263.058	-5.46
263.274	33.45
263.49	86.7
263.707	98.99
263.923	-11.61
264.139	8.87
264.355	37.55
264.571	62.12
264.787	109.22
265.004	39.59
265.22	119.46
265.436	70.31
265.652	33.45
265.868	29.35
266.084	23.21
266.3	47.79
266.516	64.17
266.732	21.16
266.948	78.51
267.164	6.83
267.38	-9.56
267.596	17.07
267.812	19.11
268.028	39.59
268.244	53.93
268.46	45.74
268.676	25.26
268.892	31.4
269.108	58.03
269.324	58.03
269.54	47.79
269.756	-9.56
269.972	-19.8
270.188	4.78
270.403	58.03
270.619	27.31
270.835	60.07
271.051	53.93
271.267	-15.7
271.483	76.46
271.698	27.31
271.914	51.88
272.13	94.89
272.346	41.64
272.562	31.4
272.777	8.87
272.993	8.87
273.209	49.83
273.425	19.11
273.64	-32.08
273.856	-15.7
274.072	62.12
274.287	23.21
274.503	66.22
274.719	49.83
274.934	-27.99
275.15	-15.7
275.366	33.45
275.581	-32.08
275.797	70.31
276.012	-11.61
276.228	27.31
276.444	94.89
276.659	6.83
276.875	15.02
277.09	-54.61
277.306	31.4
277.521	41.64
277.737	62.12
277.952	41.64
278.168	55.98
278.383	31.4
278.599	-30.04
278.814	8.87
279.03	60.07
279.245	86.7
279.461	-19.8
279.676	84.65
279.892	-23.89
280.107	12.97
280.322	-1.37
280.538	27.31
280.753	60.07
280.969	19.11
281.184	21.16
281.399	39.59
281.615	2.73
281.83	35.5
282.045	6.83
282.26	23.21
282.476	10.92
282.691	55.98
282.906	21.16
283.122	-23.89
283.337	0.68
283.552	31.4
283.767	21.16
283.983	86.7
284.198	-40.28
284.413	-19.8
284.628	109.22
284.843	23.21
285.058	62.12
285.274	101.03
285.489	-60.76
285.704	23.21
285.919	-79.19
286.134	29.35
286.349	35.5
286.564	4.78
286.779	43.69
286.995	15.02
287.21	-60.76
287.425	10.92
287.64	62.12
287.855	19.11
288.07	-15.7
288.285	12.97
288.5	12.97
288.715	-25.94
288.93	27.31
289.145	0.68
289.36	45.74
289.575	39.59
289.79	17.07
290.004	55.98
290.219	41.64
290.434	45.74
290.649	27.31
290.864	8.87
291.079	80.55
291.294	45.74
291.509	-36.18
291.724	23.21
291.938	96.94
292.153	-30.04
292.368	2.73
292.583	17.07
292.798	88.75
293.012	51.88
293.227	35.5
293.442	-15.7
293.657	53.93
293.871	37.55
294.086	51.88
294.301	88.75
294.516	19.11
294.73	41.64
294.945	21.16
295.16	0.68
295.374	43.69
295.589	12.97
295.804	45.74
296.018	86.7
296.233	55.98
296.447	2.73
296.662	62.12
296.877	-1.37
297.091	23.21
297.306	62.12
297.52	-5.46
297.735	43.69
297.949	31.4
298.164	47.79
298.378	64.17
298.593	8.87
298.807	-19.8
299.022	39.59
299.236	68.27
299.451	19.11
299.665	51.88
299.88	23.21
300.094	35.5
300.309	12.97
300.523	-11.61
300.737	15.02
300.952	27.31
301.166	53.93
301.381	-19.8
301.595	62.12
301.809	53.93
302.024	8.87
302.238	23.21
302.452	4.78
302.667	51.88
302.881	45.74
303.095	12.97
303.309	-21.85
303.524	49.83
303.738	-3.41
303.952	27.31
304.166	-54.61
304.381	-36.18
304.595	39.59
304.809	35.5
305.023	15.02
305.237	37.55
305.452	-30.04
305.666	-11.61
305.88	4.78
306.094	-1.37
306.308	29.35
306.522	21.16
306.736	-21.85
306.95	62.12
307.164	-27.99
307.379	78.51
307.593	109.22
307.807	74.41
308.021	23.21
308.235	62.12
308.449	-25.94
308.663	-21.85
308.877	-1.37
309.091	51.88
309.305	55.98
309.519	23.21
309.733	51.88
309.947	-3.41
310.161	39.59
310.374	-1.37
310.588	2.73
310.802	25.26
311.016	6.83
311.23	60.07
311.444	41.64
311.658	-19.8
311.872	51.88
312.085	41.64
312.299	66.22
312.513	8.87
312.727	12.97
312.941	-36.18
313.154	41.64
313.368	0.68
313.582	31.4
313.796	-1.37
314.009	72.36
314.223	-66.9
314.437	-9.56
314.651	-17.75
314.864	17.07
315.078	70.31
315.292	-1.37
315.505	-83.28
315.719	15.02
315.933	-9.56
316.146	105.13
316.36	41.64
316.573	8.87
316.787	-5.46
317.001	-42.32
317.214	-3.41
317.428	39.59
317.641	-17.75
317.855	55.98
318.068	8.87
318.282	105.13
318.495	8.87
318.709	68.27
318.922	-23.89
319.136	68.27
319.349	66.22
319.563	41.64
319.776	10.92
319.99	51.88
320.203	49.83
320.417	64.17
320.63	49.83
320.843	31.4
321.057	35.5
321.27	33.45
321.483	66.22
321.697	31.4
321.91	58.03
322.124	-5.46
322.337	37.55
322.55	-15.7
322.763	33.45
322.977	49.83
323.19	60.07
323.403	35.5
323.617	47.79
323.83	37.55
324.043	6.83
324.256	0.68
324.469	53.93
324.683	43.69
324.896	-27.99
325.109	-32.08
325.322	4.78
325.535	-13.65
325.748	4.78
325.962	29.35
326.175	33.45
326.388	-5.46
326.601	62.12
326.814	-17.75
327.027	27.31
327.24	53.93
327.453	21.16
327.666	39.59
327.879	23.21
328.092	62.12
328.305	17.07
328.518	-1.37
328.731	8.87
328.944	41.64
329.157	45.74
329.37	45.74
329.583	0.68
329.796	58.03
330.009	-36.18
330.222	6.83
330.435	-19.8
330.648	78.51
330.861	19.11
331.073	31.4
331.286	58.03
331.499	21.16
331.712	21.16
331.925	88.75
332.138	0.68
332.35	25.26
332.563	31.4
332.776	62.12
332.989	-19.8
333.202	35.5
333.414	-1.37
333.627	49.83
333.84	19.11
334.053	76.46
334.265	47.79
334.478	55.98
334.691	-25.94
334.903	-15.7
335.116	-56.66
335.329	19.11
335.541	19.11
335.754	-9.56
335.966	101.03
336.179	70.31
336.392	-32.08
336.604	-15.7
336.817	82.6
337.029	58.03
337.242	17.07
337.454	101.03
337.667	35.5
337.88	45.74
338.092	37.55
338.305	31.4
338.517	35.5
338.729	58.03
338.942	94.89
339.154	4.78
339.367	37.55
339.579	96.94
339.792	27.31
340.004	2.73
340.217	-1.37
340.429	51.88
340.641	0.68
340.854	-46.42
341.066	15.02
341.278	23.21
341.491	29.35
341.703	6.83
341.915	0.68
342.128	53.93
342.34	21.16
342.552	8.87
342.764	68.27
342.977	74.41
343.189	4.78
343.401	43.69
343.613	68.27
343.826	86.7
344.038	-17.75
344.25	84.65
344.462	-7.51
344.674	43.69
344.886	47.79
345.099	101.03
345.311	53.93
345.523	2.73
345.735	-5.46
345.947	39.59
346.159	45.74
346.371	15.02
346.583	23.21
346.795	94.89
347.007	15.02
347.219	-30.04
347.431	45.74
347.643	33.45
347.855	-13.65
348.067	31.4
348.279	39.59
348.491	21.16
348.703	35.5
348.915	25.26
349.127	37.55
349.339	51.88
349.551	49.83
349.763	-1.37
349.975	33.45
350.187	15.02
350.399	37.55
350.61	-11.61
350.822	96.94
351.034	-9.56
351.246	8.87
351.458	107.18
351.669	51.88
351.881	10.92
352.093	51.88
352.305	41.64
352.517	35.5
352.728	-5.46
352.94	60.07
353.152	76.46
353.363	23.21
353.575	-13.65
353.787	-34.13
353.999	0.68
354.21	4.78
354.422	27.31
354.633	72.36
354.845	-15.7
355.057	76.46
355.268	-9.56
355.48	45.74
355.692	0.68
355.903	-15.7
356.115	39.59
356.326	66.22
356.538	31.4
356.749	90.79
356.961	80.55
357.172	66.22
357.384	21.16
357.595	74.41
357.807	4.78
358.018	33.45
358.23	-13.65
358.441	60.07
358.653	15.02
358.864	2.73
359.075	-7.51
359.287	45.74
359.498	92.84
359.709	49.83
359.921	-9.56
360.132	0.68
360.344	-46.42
360.555	41.64
360.766	62.12
360.977	12.97
361.189	37.55
361.4	39.59
361.611	53.93
361.823	10.92
362.034	47.79
362.245	0.68
362.456	64.17
362.667	35.5
362.879	-5.46
363.09	-32.08
363.301	15.02
363.512	25.26
363.723	47.79
363.935	-32.08
364.146	76.46
364.357	113.32
364.568	-21.85
364.779	-11.61
364.99	-11.61
365.201	8.87
365.412	53.93
365.623	33.45
365.834	-3.41
366.045	-56.66
366.256	76.46
366.467	53.93
366.678	70.31
366.889	17.07
367.1	31.4
367.311	8.87
367.522	90.79
367.733	17.07
367.944	27.31
368.155	60.07
368.366	31.4
368.577	2.73
368.788	43.69
368.999	76.46
369.209	0.68
369.42	76.46
369.631	103.08
369.842	-19.8
370.053	-27.99
370.264	58.03
370.474	-9.56
370.685	47.79
370.896	-11.61
371.107	29.35
371.317	37.55
371.528	8.87
371.739	4.78
371.95	-32.08
372.16	37.55
372.371	2.73
372.582	-3.41
372.792	10.92
373.003	51.88
373.214	10.92
373.424	72.36
373.635	-30.04
373.846	90.79
374.056	62.12
374.267	-48.47
374.477	62.12
374.688	43.69
374.898	31.4
375.109	17.07
375.319	17.07
375.53	47.79
375.74	21.16
375.951	27.31
376.161	27.31
376.372	47.79
376.582	35.5
376.793	29.35
377.003	70.31
377.214	23.21
377.424	64.17
377.635	92.84
377.845	8.87
378.055	-15.7
378.266	43.69
378.476	123.56
378.686	-7.51
378.897	23.21
379.107	78.51
379.317	62.12
379.528	98.99
379.738	64.17
379.948	21.16
380.158	131.75
380.369	101.03
380.579	60.07
380.789	-11.61
380.999	41.64
381.21	37.55
381.42	29.35
381.63	31.4
381.84	64.17
382.05	-36.18
382.261	31.4
382.471	-30.04
382.681	-11.61
382.891	60.07
383.101	-3.41
383.311	0.68
383.521	105.13
383.731	-9.56
383.941	45.74
384.151	37.55
384.361	76.46
384.571	60.07
384.781	19.11
384.991	33.45
385.201	45.74
385.411	25.26
385.621	90.79
385.831	51.88
386.041	0.68
386.251	6.83
386.461	47.79
386.671	17.07
386.881	66.22
387.091	6.83
387.301	45.74
387.511	39.59
387.72	33.45
387.93	21.16
388.14	51.88
388.35	-3.41
388.56	58.03
388.769	33.45
388.979	29.35
389.189	-11.61
389.399	49.83
389.609	45.74
389.818	25.26
390.028	10.92
390.238	47.79
390.447	41.64
390.657	43.69
390.867	90.79
391.076	25.26
391.286	-23.89
391.496	2.73
391.705	55.98
391.915	55.98
392.125	-9.56
392.334	2.73
392.544	29.35
392.753	94.89
392.963	25.26
393.172	-3.41
393.382	64.17
393.591	76.46
393.801	-9.56
394.01	84.65
394.22	82.6
394.429	37.55
394.639	45.74
394.848	64.17
395.058	-32.08
395.267	113.32
395.477	35.5
395.686	72.36
395.895	37.55
396.105	55.98
396.314	84.65
396.524	0.68
396.733	58.03
396.942	8.87
397.152	84.65
397.361	131.75
397.57	105.13
397.78	53.93
397.989	66.22
398.198	31.4
398.407	25.26
398.617	27.31
398.826	58.03
399.035	29.35
399.244	37.55
399.453	80.55
399.663	33.45
399.872	62.12
400.081	60.07
400.29	43.69
400.499	82.6
400.708	21.16
400.917	51.88
401.127	49.83
401.336	84.65
401.545	144.04
401.754	62.12
401.963	37.55
402.172	33.45
402.381	96.94
402.59	47.79
402.799	60.07
403.008	19.11
403.217	33.45
403.426	127.66
403.635	-5.46
403.844	55.98
404.053	23.21
404.262	35.5
404.471	123.56
404.68	45.74
404.888	70.31
405.097	58.03
405.306	111.27
405.515	88.75
405.724	111.27
405.933	127.66
406.142	109.22
406.35	101.03
406.559	162.47
406.768	146.09
406.977	60.07
407.185	115.37
407.394	144.04
407.603	135.85
407.812	133.8
408.02	101.03
408.229	150.18
408.438	156.33
408.646	197.29
408.855	64.17
409.064	137.9
409.272	144.04
409.481	160.42
409.69	156.33
409.898	117.42
410.107	133.8
410.315	197.29
410.524	148.14
410.733	201.38
410.941	160.42
411.15	187.05
411.358	127.66
411.567	252.58
411.775	207.53
411.984	152.23
412.192	203.43
412.401	203.43
412.609	209.58
412.818	234.15
413.026	219.82
413.234	217.77
413.443	203.43
413.651	299.69
413.86	291.49
414.068	397.99
414.276	314.02
414.485	328.36
414.693	299.69
414.901	375.46
415.11	326.31
415.318	389.8
415.526	346.79
415.734	395.94
415.943	389.8
416.151	412.32
416.359	426.66
416.567	438.95
416.776	502.43
416.984	547.49
417.192	418.47
417.4	494.24
417.608	492.2
417.817	471.72
418.025	570.02
418.233	592.55
418.441	594.59
418.649	623.27
418.857	578.21
419.065	707.23
419.273	680.61
419.481	672.42
419.689	748.19
419.897	783.01
420.105	746.14
420.313	778.91
420.521	836.25
420.729	840.35
420.937	795.29
421.145	1065.63
421.353	967.32
421.561	955.04
421.769	979.61
421.977	1079.96
422.185	1053.34
422.393	1086.11
422.601	1159.83
422.809	1196.7
423.017	1176.22
423.224	1198.74
423.432	1284.76
423.64	1325.72
423.848	1438.36
424.056	1323.67
424.263	1583.76
424.471	1456.79
424.679	1520.28
424.887	1563.28
425.094	1624.72
425.302	1677.97
425.51	1741.46
425.718	1720.98
425.925	1794.7
426.133	1731.22
426.341	1989.26
426.548	2028.17
426.756	2026.12
426.964	2093.71
427.171	2210.44
427.379	2251.4
427.586	2208.39
427.794	2257.54
428.001	2507.4
428.209	2556.55
428.417	2421.38
428.624	2632.32
428.832	2710.15
429.039	2611.84
429.247	2669.19
429.454	2970.24
429.662	3007.1
429.869	2882.17
430.076	3046.01
430.284	2972.29
430.491	3066.49
430.699	3310.2
430.906	3285.62
431.114	3330.68
431.321	3527.28
431.528	3590.77
431.736	3920.49
431.943	4022.89
432.15	3816.05
432.358	3916.4
432.565	4072.04
432.772	4049.52
432.979	4307.56
433.187	4336.23
433.394	4405.86
433.601	4909.66
433.808	4655.72
434.016	4600.42
434.223	4919.9
434.43	5061.21
434.637	5030.49
434.844	5395.03
435.052	5640.79
435.259	5438.04
435.466	5417.56
435.673	5497.43
435.88	5646.93
436.087	6068.81
436.294	6003.28
436.501	5884.5
436.708	6101.58
436.915	6206.03
437.122	6601.29
437.329	6509.13
437.537	6675.01
437.743	6812.23
437.95	6881.86
438.157	7264.83
438.364	7502.39
438.571	7324.22
438.778	7307.84
438.985	8018.48
439.192	7823.92
439.399	7952.95
439.606	7887.41
439.813	8323.63
440.02	8759.84
440.227	8718.89
440.433	8569.38
440.64	9101.86
440.847	8796.71
441.054	9024.03
441.261	9599.51
441.467	9615.9
441.674	9654.81
441.881	9957.91
442.088	9962
442.294	9953.81
442.501	10156.56
442.708	10426.89
442.914	10586.63
443.121	11217.41
443.328	10842.63
443.534	11606.52
443.741	11387.39
443.948	11319.81
444.154	12100.08
444.361	12114.42
444.568	12251.63
444.774	12016.12
444.981	12235.25
445.187	12337.65
445.394	13152.74
445.6	12974.56
445.807	14301.65
446.013	13636.06
446.22	13828.57
446.426	14223.83
446.633	14422.48
446.839	14870.98
447.046	13844.95
447.252	15016.39
447.459	15137.22
447.665	14776.78
447.871	15749.56
448.078	16404.91
448.284	15387.07
448.491	16056.76
448.697	16624.04
448.903	16689.58
449.11	16908.71
449.316	16880.04
449.522	17009.06
449.728	17467.81
449.935	17584.54
450.141	17621.41
450.347	17533.34
450.553	17236.39
450.76	17588.64
450.966	18006.42
451.172	17799.58
451.378	18102.68
451.584	17967.51
451.791	18178.45
451.997	18459.02
452.203	18551.18
452.409	18497.94
452.615	18373.01
452.821	17629.6
453.027	17402.27
453.233	18459.02
453.44	17809.82
453.646	17957.27
453.852	17744.28
454.058	17936.79
454.264	17848.73
454.47	18057.62
454.676	17645.98
454.882	18033.05
455.088	16650.67
455.294	16615.85
455.5	16824.75
455.705	17029.54
455.911	16355.76
456.117	16003.51
456.323	15735.23
456.529	15049.16
456.735	15376.83
456.941	15110.6
457.147	15014.34
457.352	14481.87
457.558	14078.42
457.764	14391.76
457.97	13976.02
458.176	13476.32
458.381	13629.91
458.587	12816.87
458.793	13226.46
458.999	12485.1
459.204	13337.06
459.41	12853.73
459.616	12048.88
459.821	11975.16
460.027	12204.53
460.233	11710.97
460.438	10975.75
460.644	11209.22
460.85	10809.86
461.055	10572.3
461.261	10371.6
461.466	9845.27
461.672	9622.04
461.878	10289.68
462.083	9685.53
462.289	9298.46
462.494	9243.17
462.7	8942.11
462.905	8669.73
463.111	8944.16
463.316	8833.57
463.522	8872.48
463.727	8917.54
463.932	8870.44
464.138	8753.7
464.343	8847.91
464.549	8559.14
464.754	8835.62
464.959	8854.05
465.165	8845.86
465.37	8284.72
465.575	8217.13
465.781	8528.42
465.986	8399.4
466.191	8229.42
466.397	7973.42
466.602	7596.6
466.807	7750.2
467.012	7967.28
467.218	8026.67
467.423	7742
467.628	7875.12
467.833	8004.14
468.038	7963.19
468.244	7680.57
468.449	7946.8
468.654	7574.07
468.859	7565.88
469.064	7402.04
469.269	7293.5
469.474	7301.69
469.679	7418.43
