Data from USB4F104151__270__14-02-07-721.txt Node

Date: Thu Mar 13 14:02:07 EDT 2025
User: louis
Spectrometer: USB4F10415
Trigger mode: 4
Integration Time (sec): 1.000000E-2
Scans to average: 1
Electric dark correction enabled: true
Nonlinearity correction enabled: false
Boxcar width: 0
XAxis mode: Wavelengths
Number of Pixels in Spectrum: 3648
>>>>>Begin Spectral Data<<<<<
178.204	-98.13
178.424	-98.13
178.644	-98.13
178.864	-10.07
179.084	4.27
179.304	-53.08
179.524	0.17
179.744	28.84
179.964	18.6
180.184	-24.4
180.404	61.61
180.624	28.84
180.844	-8.02
181.064	26.79
181.283	-77.65
181.503	-30.55
181.723	28.84
181.943	-3.93
182.163	16.55
182.383	14.51
182.602	14.51
182.822	14.51
183.042	20.65
183.262	4.27
183.482	8.36
183.701	-24.4
183.921	22.7
184.141	55.47
184.361	45.23
184.58	34.99
184.8	-44.88
185.02	-3.93
185.239	-36.69
185.459	84.14
185.679	20.65
185.898	10.41
186.118	-75.6
186.338	45.23
186.557	-1.88
186.777	-3.93
186.997	6.31
187.216	-63.32
187.436	34.99
187.655	20.65
187.875	8.36
188.095	49.32
188.314	45.23
188.534	-10.07
188.753	6.31
188.973	45.23
189.192	8.36
189.412	-42.84
189.631	69.8
189.851	2.22
190.07	-18.26
190.29	75.95
190.509	20.65
190.729	63.66
190.948	32.94
191.168	102.57
191.387	18.6
191.607	8.36
191.826	-18.26
192.045	-3.93
192.265	39.08
192.484	6.31
192.704	67.75
192.923	77.99
193.142	-14.17
193.362	-40.79
193.581	71.85
193.8	18.6
194.02	24.75
194.239	94.38
194.458	53.42
194.678	-14.17
194.897	22.7
195.116	-8.02
195.335	22.7
195.555	53.42
195.774	28.84
195.993	-26.45
196.212	45.23
196.432	0.17
196.651	10.41
196.87	67.75
197.089	39.08
197.308	-5.97
197.528	-1.88
197.747	20.65
197.966	-5.97
198.185	55.47
198.404	47.27
198.623	26.79
198.842	47.27
199.062	53.42
199.281	45.23
199.5	0.17
199.719	63.66
199.938	-3.93
200.157	53.42
200.376	16.55
200.595	53.42
200.814	-30.55
201.033	8.36
201.252	28.84
201.471	0.17
201.69	-26.45
201.909	32.94
202.128	-1.88
202.347	34.99
202.566	14.51
202.785	2.22
203.004	49.32
203.223	53.42
203.442	32.94
203.661	18.6
203.879	22.7
204.098	63.66
204.317	12.46
204.536	69.8
204.755	-20.31
204.974	53.42
205.193	59.56
205.411	20.65
205.63	96.43
205.849	39.08
206.068	-3.93
206.287	20.65
206.505	-61.27
206.724	30.89
206.943	26.79
207.162	61.61
207.381	51.37
207.599	14.51
207.818	-12.12
208.037	-28.5
208.255	-12.12
208.474	61.61
208.693	-5.97
208.911	69.8
209.13	12.46
209.349	-77.65
209.567	59.56
209.786	32.94
210.005	34.99
210.223	131.24
210.442	32.94
210.661	47.27
210.879	-36.69
211.098	8.36
211.316	22.7
211.535	30.89
211.753	-16.21
211.972	37.03
212.191	6.31
212.409	-18.26
212.628	0.17
212.846	0.17
213.065	32.94
213.283	-1.88
213.502	2.22
213.72	34.99
213.938	37.03
214.157	-1.88
214.375	-18.26
214.594	6.31
214.812	12.46
215.031	28.84
215.249	28.84
215.467	16.55
215.686	-32.6
215.904	53.42
216.122	-30.55
216.341	63.66
216.559	30.89
216.778	39.08
216.996	47.27
217.214	53.42
217.432	-28.5
217.651	49.32
217.869	39.08
218.087	65.71
218.306	63.66
218.524	39.08
218.742	-3.93
218.96	73.9
219.179	61.61
219.397	63.66
219.615	-44.88
219.833	45.23
220.051	16.55
220.27	16.55
220.488	77.99
220.706	98.47
220.924	-26.45
221.142	28.84
221.36	-3.93
221.578	100.52
221.796	71.85
222.015	-44.88
222.233	-1.88
222.451	65.71
222.669	-44.88
222.887	22.7
223.105	67.75
223.323	102.57
223.541	41.13
223.759	49.32
223.977	-48.98
224.195	12.46
224.413	43.18
224.631	-1.88
224.849	20.65
225.067	61.61
225.285	26.79
225.503	22.7
225.721	47.27
225.939	34.99
226.157	63.66
226.375	90.28
226.592	-1.88
226.81	94.38
227.028	49.32
227.246	47.27
227.464	-28.5
227.682	92.33
227.9	39.08
228.117	20.65
228.335	-32.6
228.553	-36.69
228.771	43.18
228.989	49.32
229.206	-14.17
229.424	-102.23
229.642	61.61
229.86	12.46
230.077	0.17
230.295	24.75
230.513	24.75
230.731	69.8
230.948	45.23
231.166	41.13
231.384	14.51
231.601	-32.6
231.819	30.89
232.037	69.8
232.254	55.47
232.472	-30.55
232.689	69.8
232.907	114.86
233.125	18.6
233.342	-12.12
233.56	-14.17
233.777	24.75
233.995	39.08
234.213	8.36
234.43	110.76
234.648	-32.6
234.865	26.79
235.083	10.41
235.3	-12.12
235.518	8.36
235.735	-5.97
235.953	112.81
236.17	10.41
236.388	39.08
236.605	4.27
236.822	14.51
237.04	55.47
237.257	-1.88
237.475	-38.74
237.692	69.8
237.909	47.27
238.127	2.22
238.344	88.23
238.562	37.03
238.779	61.61
238.996	6.31
239.214	-1.88
239.431	65.71
239.648	4.27
239.865	-3.93
240.083	0.17
240.3	47.27
240.517	55.47
240.735	-26.45
240.952	18.6
241.169	0.17
241.386	39.08
241.603	143.53
241.821	0.17
242.038	8.36
242.255	0.17
242.472	2.22
242.689	59.56
242.907	34.99
243.124	28.84
243.341	22.7
243.558	63.66
243.775	30.89
243.992	12.46
244.209	45.23
244.426	-1.88
244.643	37.03
244.86	2.22
245.078	-24.4
245.295	-40.79
245.512	34.99
245.729	57.51
245.946	4.27
246.163	65.71
246.38	22.7
246.597	84.14
246.814	-34.64
247.031	43.18
247.248	-16.21
247.464	-42.84
247.681	-1.88
247.898	-42.84
248.115	20.65
248.332	98.47
248.549	57.51
248.766	0.17
248.983	61.61
249.2	12.46
249.417	18.6
249.633	4.27
249.85	28.84
250.067	-10.07
250.284	39.08
250.501	-71.51
250.717	112.81
250.934	61.61
251.151	47.27
251.368	-5.97
251.585	37.03
251.801	0.17
252.018	6.31
252.235	94.38
252.451	-5.97
252.668	-3.93
252.885	-42.84
253.102	47.27
253.318	65.71
253.535	-40.79
253.752	6.31
253.968	-38.74
254.185	49.32
254.401	94.38
254.618	4.27
254.835	39.08
255.051	84.14
255.268	55.47
255.484	100.52
255.701	2.22
255.917	4.27
256.134	34.99
256.351	39.08
256.567	53.42
256.784	14.51
257	-28.5
257.217	2.22
257.433	-3.93
257.65	-3.93
257.866	6.31
258.082	8.36
258.299	71.85
258.515	49.32
258.732	32.94
258.948	61.61
259.165	24.75
259.381	28.84
259.597	45.23
259.814	65.71
260.03	-42.84
260.246	69.8
260.463	59.56
260.679	20.65
260.895	-34.64
261.112	45.23
261.328	-12.12
261.544	49.32
261.761	16.55
261.977	6.31
262.193	45.23
262.409	45.23
262.626	77.99
262.842	51.37
263.058	-32.6
263.274	39.08
263.49	55.47
263.707	47.27
263.923	47.27
264.139	-46.93
264.355	43.18
264.571	65.71
264.787	28.84
265.004	34.99
265.22	-20.31
265.436	45.23
265.652	-3.93
265.868	90.28
266.084	-5.97
266.3	20.65
266.516	20.65
266.732	47.27
266.948	14.51
267.164	53.42
267.38	41.13
267.596	16.55
267.812	94.38
268.028	18.6
268.244	45.23
268.46	28.84
268.676	63.66
268.892	53.42
269.108	2.22
269.324	14.51
269.54	-53.08
269.756	57.51
269.972	-10.07
270.188	88.23
270.403	2.22
270.619	-20.31
270.835	73.9
271.051	80.04
271.267	-20.31
271.483	16.55
271.698	30.89
271.914	65.71
272.13	24.75
272.346	47.27
272.562	14.51
272.777	-3.93
272.993	51.37
273.209	6.31
273.425	45.23
273.64	28.84
273.856	80.04
274.072	24.75
274.287	53.42
274.503	96.43
274.719	43.18
274.934	20.65
275.15	45.23
275.366	-26.45
275.581	22.7
275.797	-36.69
276.012	34.99
276.228	47.27
276.444	69.8
276.659	77.99
276.875	59.56
277.09	6.31
277.306	65.71
277.521	41.13
277.737	-22.36
277.952	-36.69
278.168	14.51
278.383	100.52
278.599	90.28
278.814	53.42
279.03	82.09
279.245	69.8
279.461	80.04
279.676	14.51
279.892	16.55
280.107	-16.21
280.322	-12.12
280.538	55.47
280.753	75.95
280.969	47.27
281.184	2.22
281.399	57.51
281.615	-8.02
281.83	45.23
282.045	34.99
282.26	28.84
282.476	6.31
282.691	-28.5
282.906	10.41
283.122	69.8
283.337	57.51
283.552	37.03
283.767	-12.12
283.983	73.9
284.198	-36.69
284.413	102.57
284.628	4.27
284.843	41.13
285.058	61.61
285.274	49.32
285.489	84.14
285.704	-18.26
285.919	57.51
286.134	77.99
286.349	4.27
286.564	37.03
286.779	41.13
286.995	55.47
287.21	71.85
287.425	4.27
287.64	30.89
287.855	82.09
288.07	32.94
288.285	37.03
288.5	20.65
288.715	43.18
288.93	22.7
289.145	45.23
289.36	77.99
289.575	4.27
289.79	37.03
290.004	45.23
290.219	16.55
290.434	-14.17
290.649	47.27
290.864	80.04
291.079	-30.55
291.294	12.46
291.509	30.89
291.724	43.18
291.938	-26.45
292.153	2.22
292.368	-32.6
292.583	65.71
292.798	45.23
293.012	-5.97
293.227	-3.93
293.442	45.23
293.657	-22.36
293.871	137.38
294.086	22.7
294.301	-34.64
294.516	41.13
294.73	73.9
294.945	77.99
295.16	69.8
295.374	-16.21
295.589	10.41
295.804	45.23
296.018	24.75
296.233	37.03
296.447	-20.31
296.662	104.62
296.877	77.99
297.091	59.56
297.306	6.31
297.52	86.19
297.735	59.56
297.949	-8.02
298.164	43.18
298.378	28.84
298.593	63.66
298.807	18.6
299.022	28.84
299.236	32.94
299.451	69.8
299.665	45.23
299.88	45.23
300.094	53.42
300.309	-10.07
300.523	28.84
300.737	45.23
300.952	30.89
301.166	37.03
301.381	12.46
301.595	18.6
301.809	4.27
302.024	51.37
302.238	24.75
302.452	55.47
302.667	12.46
302.881	90.28
303.095	14.51
303.309	37.03
303.524	-32.6
303.738	4.27
303.952	53.42
304.166	8.36
304.381	-14.17
304.595	26.79
304.809	80.04
305.023	80.04
305.237	39.08
305.452	30.89
305.666	-14.17
305.88	67.75
306.094	6.31
306.308	104.62
306.522	-8.02
306.736	37.03
306.95	4.27
307.164	-28.5
307.379	-34.64
307.593	47.27
307.807	-22.36
308.021	71.85
308.235	75.95
308.449	47.27
308.663	12.46
308.877	39.08
309.091	28.84
309.305	53.42
309.519	71.85
309.733	-8.02
309.947	63.66
310.161	80.04
310.374	-20.31
310.588	118.95
310.802	-22.36
311.016	30.89
311.23	110.76
311.444	65.71
311.658	43.18
311.872	69.8
312.085	94.38
312.299	96.43
312.513	49.32
312.727	47.27
312.941	-1.88
313.154	12.46
313.368	41.13
313.582	49.32
313.796	4.27
314.009	53.42
314.223	32.94
314.437	71.85
314.651	61.61
314.864	-10.07
315.078	18.6
315.292	108.71
315.505	77.99
315.719	8.36
315.933	-10.07
316.146	22.7
316.36	-8.02
316.573	63.66
316.787	-48.98
317.001	18.6
317.214	22.7
317.428	-10.07
317.641	69.8
317.855	14.51
318.068	49.32
318.282	75.95
318.495	12.46
318.709	32.94
318.922	94.38
319.136	71.85
319.349	49.32
319.563	-8.02
319.776	59.56
319.99	-10.07
320.203	86.19
320.417	47.27
320.63	-1.88
320.843	37.03
321.057	41.13
321.27	4.27
321.483	102.57
321.697	69.8
321.91	71.85
322.124	47.27
322.337	49.32
322.55	59.56
322.763	51.37
322.977	34.99
323.19	4.27
323.403	-34.64
323.617	47.27
323.83	90.28
324.043	41.13
324.256	73.9
324.469	26.79
324.683	45.23
324.896	28.84
325.109	6.31
325.322	12.46
325.535	63.66
325.748	77.99
325.962	-12.12
326.175	104.62
326.388	84.14
326.601	26.79
326.814	55.47
327.027	-14.17
327.24	102.57
327.453	-20.31
327.666	39.08
327.879	43.18
328.092	55.47
328.305	4.27
328.518	8.36
328.731	28.84
328.944	20.65
329.157	-12.12
329.37	86.19
329.583	41.13
329.796	75.95
330.009	-24.4
330.222	-12.12
330.435	49.32
330.648	12.46
330.861	34.99
331.073	112.81
331.286	32.94
331.499	18.6
331.712	0.17
331.925	39.08
332.138	-12.12
332.35	108.71
332.563	-3.93
332.776	-36.69
332.989	69.8
333.202	34.99
333.414	-22.36
333.627	61.61
333.84	28.84
334.053	61.61
334.265	0.17
334.478	82.09
334.691	14.51
334.903	43.18
335.116	30.89
335.329	16.55
335.541	28.84
335.754	77.99
335.966	-53.08
336.179	28.84
336.392	30.89
336.604	49.32
336.817	2.22
337.029	55.47
337.242	63.66
337.454	-18.26
337.667	45.23
337.88	51.37
338.092	30.89
338.305	114.86
338.517	37.03
338.729	39.08
338.942	-10.07
339.154	94.38
339.367	55.47
339.579	-34.64
339.792	32.94
340.004	75.95
340.217	22.7
340.429	73.9
340.641	37.03
340.854	39.08
341.066	6.31
341.278	41.13
341.491	10.41
341.703	73.9
341.915	-28.5
342.128	51.37
342.34	-36.69
342.552	-26.45
342.764	24.75
342.977	129.19
343.189	12.46
343.401	24.75
343.613	71.85
343.826	24.75
344.038	92.33
344.25	14.51
344.462	37.03
344.674	75.95
344.886	-30.55
345.099	39.08
345.311	98.47
345.523	71.85
345.735	69.8
345.947	75.95
346.159	4.27
346.371	71.85
346.583	16.55
346.795	28.84
347.007	90.28
347.219	20.65
347.431	30.89
347.643	110.76
347.855	4.27
348.067	49.32
348.279	34.99
348.491	41.13
348.703	-40.79
348.915	-71.51
349.127	71.85
349.339	118.95
349.551	53.42
349.763	20.65
349.975	12.46
350.187	37.03
350.399	63.66
350.61	-12.12
350.822	-8.02
351.034	104.62
351.246	49.32
351.458	-12.12
351.669	16.55
351.881	77.99
352.093	8.36
352.305	102.57
352.517	82.09
352.728	67.75
352.94	88.23
353.152	14.51
353.363	43.18
353.575	-26.45
353.787	94.38
353.999	102.57
354.21	-3.93
354.422	-1.88
354.633	20.65
354.845	34.99
355.057	59.56
355.268	41.13
355.48	-5.97
355.692	34.99
355.903	-12.12
356.115	63.66
356.326	49.32
356.538	127.14
356.749	61.61
356.961	75.95
357.172	24.75
357.384	14.51
357.595	51.37
357.807	55.47
358.018	45.23
358.23	18.6
358.441	88.23
358.653	-18.26
358.864	28.84
359.075	98.47
359.287	18.6
359.498	114.86
359.709	-22.36
359.921	67.75
360.132	82.09
360.344	37.03
360.555	49.32
360.766	18.6
360.977	71.85
361.189	63.66
361.4	47.27
361.611	47.27
361.823	32.94
362.034	4.27
362.245	34.99
362.456	37.03
362.667	6.31
362.879	26.79
363.09	59.56
363.301	24.75
363.512	28.84
363.723	32.94
363.935	-1.88
364.146	69.8
364.357	-32.6
364.568	41.13
364.779	20.65
364.99	86.19
365.201	28.84
365.412	73.9
365.623	-10.07
365.834	94.38
366.045	18.6
366.256	61.61
366.467	67.75
366.678	20.65
366.889	57.51
367.1	34.99
367.311	30.89
367.522	92.33
367.733	53.42
367.944	57.51
368.155	24.75
368.366	67.75
368.577	30.89
368.788	-8.02
368.999	-10.07
369.209	90.28
369.42	69.8
369.631	129.19
369.842	4.27
370.053	53.42
370.264	45.23
370.474	80.04
370.685	80.04
370.896	55.47
371.107	65.71
371.317	49.32
371.528	65.71
371.739	55.47
371.95	55.47
372.16	49.32
372.371	32.94
372.582	53.42
372.792	6.31
373.003	75.95
373.214	63.66
373.424	69.8
373.635	73.9
373.846	24.75
374.056	20.65
374.267	151.72
374.477	100.52
374.688	55.47
374.898	10.41
375.109	77.99
375.319	32.94
375.53	116.9
375.74	28.84
375.951	41.13
376.161	28.84
376.372	22.7
376.582	57.51
376.793	30.89
377.003	20.65
377.214	133.29
377.424	45.23
377.635	28.84
377.845	30.89
378.055	61.61
378.266	20.65
378.476	12.46
378.686	86.19
378.897	30.89
379.107	71.85
379.317	90.28
379.528	55.47
379.738	37.03
379.948	26.79
380.158	100.52
380.369	32.94
380.579	63.66
380.789	73.9
380.999	145.58
381.21	18.6
381.42	32.94
381.63	37.03
381.84	129.19
382.05	131.24
382.261	20.65
382.471	37.03
382.681	-3.93
382.891	86.19
383.101	77.99
383.311	20.65
383.521	57.51
383.731	75.95
383.941	41.13
384.151	77.99
384.361	71.85
384.571	86.19
384.781	37.03
384.991	69.8
385.201	102.57
385.411	20.65
385.621	14.51
385.831	41.13
386.041	71.85
386.251	61.61
386.461	112.81
386.671	59.56
386.881	71.85
387.091	41.13
387.301	55.47
387.511	22.7
387.72	53.42
387.93	28.84
388.14	20.65
388.35	45.23
388.56	80.04
388.769	32.94
388.979	71.85
389.189	123.05
389.399	24.75
389.609	10.41
389.818	108.71
390.028	39.08
390.238	88.23
390.447	39.08
390.657	61.61
390.867	14.51
391.076	77.99
391.286	18.6
391.496	73.9
391.705	71.85
391.915	67.75
392.125	86.19
392.334	57.51
392.544	-28.5
392.753	67.75
392.963	32.94
393.172	71.85
393.382	55.47
393.591	92.33
393.801	39.08
394.01	59.56
394.22	69.8
394.429	63.66
394.639	47.27
394.848	20.65
395.058	123.05
395.267	20.65
395.477	22.7
395.686	94.38
395.895	32.94
396.105	86.19
396.314	75.95
396.524	96.43
396.733	55.47
396.942	110.76
397.152	77.99
397.361	63.66
397.57	139.43
397.78	37.03
397.989	51.37
398.198	102.57
398.407	24.75
398.617	96.43
398.826	90.28
399.035	80.04
399.244	108.71
399.453	63.66
399.663	14.51
399.872	71.85
400.081	98.47
400.29	82.09
400.499	86.19
400.708	110.76
400.917	125.1
401.127	153.77
401.336	116.9
401.545	174.25
401.754	168.1
401.963	118.95
402.172	139.43
402.381	90.28
402.59	80.04
402.799	131.24
403.008	86.19
403.217	80.04
403.426	143.53
403.635	102.57
403.844	73.9
404.053	127.14
404.262	182.44
404.471	125.1
404.68	86.19
404.888	104.62
405.097	108.71
405.306	196.78
405.515	157.86
405.724	112.81
405.933	116.9
406.142	110.76
406.35	186.54
406.559	186.54
406.768	151.72
406.977	254.12
407.185	141.48
407.394	223.4
407.603	235.69
407.812	135.34
408.02	184.49
408.229	233.64
408.438	211.11
408.646	207.02
408.855	149.67
409.064	209.06
409.272	252.07
409.481	344.23
409.69	266.41
409.898	311.46
410.107	293.03
410.315	374.95
410.524	239.78
410.733	319.65
410.941	286.89
411.15	387.24
411.358	303.27
411.567	352.42
411.775	372.9
411.984	368.81
412.192	356.52
412.401	301.22
412.609	397.48
412.818	377
413.026	358.57
413.234	403.62
413.443	487.59
413.651	467.11
413.86	424.1
414.068	616.61
414.276	610.47
414.485	553.12
414.693	530.59
414.901	589.99
415.11	491.68
415.318	669.86
415.526	620.71
415.734	610.47
415.943	612.51
416.151	694.43
416.359	747.68
416.567	741.54
416.776	673.95
416.984	868.51
417.192	845.98
417.4	852.13
417.608	854.17
417.817	927.9
418.025	989.34
418.233	1034.39
418.441	1028.25
418.649	989.34
418.857	1030.3
419.065	1183.9
419.273	1122.46
419.481	1149.08
419.689	1253.53
419.897	1325.21
420.105	1374.36
420.313	1466.52
420.521	1474.71
420.729	1341.59
420.937	1450.13
421.145	1478.8
421.353	1620.11
421.561	1642.64
421.769	1667.22
421.977	1693.84
422.185	1804.43
422.393	2072.72
422.601	2025.61
422.809	1923.21
423.017	1970.32
423.224	2138.25
423.432	2132.11
423.64	2197.64
423.848	2267.27
424.056	2373.77
424.263	2455.69
424.471	2343.05
424.679	2494.6
424.887	2560.13
425.094	2695.3
425.302	2771.07
425.51	2805.89
425.718	2955.39
425.925	2996.35
426.133	2975.87
426.341	3217.53
426.548	3321.98
426.756	3387.51
426.964	3432.57
427.171	3500.15
427.379	3733.62
427.586	3784.82
427.794	3936.37
428.001	4118.64
428.209	4223.08
428.417	4028.53
428.624	4352.1
428.832	4429.93
429.039	4579.43
429.247	4642.92
429.454	4917.34
429.662	5152.86
429.869	4878.43
430.076	5156.96
430.284	5101.66
430.491	5359.7
430.699	5666.9
430.906	5451.86
431.114	5634.13
431.321	5945.42
431.528	5832.79
431.736	6434.89
431.943	6529.1
432.15	6377.55
432.358	6584.39
432.565	6903.87
432.772	6830.15
432.979	7188.54
433.187	7196.73
433.394	7295.04
433.601	8050.74
433.808	7850.03
434.016	7811.12
434.223	8308.78
434.43	8695.85
434.637	8310.83
434.844	9093.15
435.052	9160.73
435.259	9261.09
435.466	9279.52
435.673	9021.47
435.88	9633.82
436.087	10295.31
436.294	10145.81
436.501	10119.18
436.708	9981.97
436.915	10545.16
437.122	10915.84
437.329	10938.37
437.537	11114.5
437.743	11341.82
437.95	11319.29
438.157	12023.8
438.364	12470.25
438.571	12333.04
438.778	12496.88
438.985	13498.33
439.192	13062.12
439.399	13586.4
439.606	13113.31
439.813	14137.3
440.02	14614.48
440.227	14538.7
440.433	14129.11
440.64	15067.08
440.847	14815.18
441.054	15110.08
441.261	15790.01
441.467	15927.22
441.674	16277.43
441.881	16689.07
442.088	16850.86
442.294	16514.99
442.501	16945.06
442.708	17162.15
442.914	18007.96
443.121	18790.28
443.328	18124.69
443.534	19494.79
443.741	18884.49
443.948	18661.26
444.154	20268.92
444.361	20035.45
444.568	20232.05
444.774	20199.29
444.981	20328.31
445.187	20838.25
445.394	21858.14
445.6	21555.04
445.807	23396.17
446.013	22869.84
446.22	23172.94
446.426	23877.44
446.633	23902.01
446.839	24852.27
447.046	23744.32
447.252	25239.34
447.459	25138.99
447.665	24960.81
447.871	26326.81
448.078	27311.88
448.284	25990.94
448.491	26500.89
448.697	27494.15
448.903	28368.63
449.11	27983.62
449.316	27612.93
449.522	28100.35
449.728	29085.42
449.935	29220.59
450.141	29642.47
450.347	29456.11
450.553	28856.05
450.76	29314.8
450.966	30062.3
451.172	30142.17
451.378	30672.6
451.584	30029.54
451.791	30850.77
451.997	30742.23
452.203	31401.68
452.409	31035.09
452.615	30834.39
452.821	29939.43
453.027	29488.87
453.233	31123.15
453.44	30076.64
453.646	30232.29
453.852	30265.05
454.058	30836.44
454.264	29654.76
454.47	30453.47
454.676	29540.07
454.882	30650.07
455.088	27860.74
455.294	28432.12
455.5	28552.95
455.705	29054.7
455.911	27610.89
456.117	27168.52
456.323	26539.8
456.529	25415.46
456.735	26720.02
456.941	26177.31
457.147	25677.6
457.352	24923.95
457.558	24416.05
457.764	24710.96
457.97	24147.77
458.176	23586.63
458.381	23670.59
458.587	22560.59
458.793	22411.09
458.999	21350.24
459.204	22617.94
459.41	22359.89
459.616	20762.48
459.821	20969.32
460.027	20705.13
460.233	20123.51
460.438	19224.45
460.644	19472.26
460.85	18751.37
461.055	18372.5
461.261	18177.94
461.466	16934.82
461.672	16099.25
461.878	17592.22
462.083	16181.17
462.289	16013.24
462.494	16086.97
462.7	15161.28
462.905	14909.38
463.111	15144.9
463.316	15388.61
463.522	14872.52
463.727	15249.35
463.932	15067.08
464.138	15005.64
464.343	15030.21
464.549	14741.45
464.754	14919.62
464.959	14989.25
465.165	14903.24
465.37	14448.59
465.575	13983.7
465.781	14264.27
465.986	14309.33
466.191	13981.65
466.397	13537.24
466.602	13031.4
466.807	13377.5
467.012	13520.86
467.218	13471.71
467.423	13023.2
467.628	13391.84
467.833	13873.11
468.038	13305.82
