Data from USB4F104151__114__13-54-57-547.txt Node

Date: Thu Mar 13 13:54:57 EDT 2025
User: louis
Spectrometer: USB4F10415
Trigger mode: 4
Integration Time (sec): 1.000000E-2
Scans to average: 1
Electric dark correction enabled: true
Nonlinearity correction enabled: false
Boxcar width: 0
XAxis mode: Wavelengths
Number of Pixels in Spectrum: 3648
>>>>>Begin Spectral Data<<<<<
178.204	-39.42
178.424	-39.42
178.644	-39.42
178.864	-127.49
179.084	-64
179.304	-31.23
179.524	34.3
179.744	-2.56
179.964	44.54
180.184	-66.05
180.404	9.73
180.624	28.16
180.844	-37.38
181.064	22.02
181.283	-8.7
181.503	-43.52
181.723	50.69
181.943	-55.81
182.163	15.87
182.383	1.54
182.602	13.82
182.822	15.87
183.042	-16.9
183.262	-61.95
183.482	38.4
183.701	-33.28
183.921	60.93
184.141	13.82
184.361	75.26
184.58	19.97
184.8	26.11
185.02	-12.8
185.239	89.6
185.459	24.06
185.679	17.92
185.898	73.21
186.118	48.64
186.338	36.35
186.557	28.16
186.777	7.68
186.997	95.74
187.216	9.73
187.436	42.5
187.655	-16.9
187.875	-51.71
188.095	28.16
188.314	7.68
188.534	-12.8
188.753	7.68
188.973	56.83
189.192	13.82
189.412	69.12
189.631	24.06
189.851	77.31
190.07	-43.52
190.29	9.73
190.509	69.12
190.729	36.35
190.948	32.26
191.168	77.31
191.387	52.74
191.607	54.78
191.826	19.97
192.045	38.4
192.265	-16.9
192.484	15.87
192.704	126.46
192.923	-0.51
193.142	99.84
193.362	65.02
193.581	40.45
193.8	28.16
194.02	38.4
194.239	24.06
194.458	46.59
194.678	-12.8
194.897	-6.66
195.116	75.26
195.335	7.68
195.555	1.54
195.774	-16.9
195.993	-4.61
196.212	-43.52
196.432	22.02
196.651	48.64
196.87	-57.86
197.089	79.36
197.308	13.82
197.528	38.4
197.747	22.02
197.966	32.26
198.185	46.59
198.404	-4.61
198.623	58.88
198.842	62.98
199.062	52.74
199.281	13.82
199.5	13.82
199.719	118.27
199.938	1.54
200.157	-18.94
200.376	36.35
200.595	3.58
200.814	9.73
201.033	83.45
201.252	22.02
201.471	-29.18
201.69	15.87
201.909	40.45
202.128	26.11
202.347	-6.66
202.566	-4.61
202.785	-4.61
203.004	-6.66
203.223	19.97
203.442	-8.7
203.661	13.82
203.879	17.92
204.098	28.16
204.317	24.06
204.536	112.13
204.755	-6.66
204.974	69.12
205.193	36.35
205.411	44.54
205.63	19.97
205.849	89.6
206.068	-20.99
206.287	-2.56
206.505	-25.09
206.724	65.02
206.943	22.02
207.162	15.87
207.381	30.21
207.599	28.16
207.818	44.54
208.037	50.69
208.255	-4.61
208.474	28.16
208.693	24.06
208.911	-0.51
209.13	-0.51
209.349	148.99
209.567	-4.61
209.786	79.36
210.005	-4.61
210.223	44.54
210.442	50.69
210.661	44.54
210.879	-2.56
211.098	-33.28
211.316	-8.7
211.535	71.17
211.753	24.06
211.972	93.69
212.191	-23.04
212.409	-2.56
212.628	19.97
212.846	7.68
213.065	-16.9
213.283	-59.9
213.502	-20.99
213.72	58.88
213.938	9.73
214.157	32.26
214.375	28.16
214.594	28.16
214.812	-18.94
215.031	-41.47
215.249	32.26
215.467	52.74
215.686	9.73
215.904	71.17
216.122	-47.62
216.341	89.6
216.559	3.58
216.778	-16.9
216.996	44.54
217.214	28.16
217.432	15.87
217.651	15.87
217.869	-14.85
218.087	34.3
218.306	-37.38
218.524	-4.61
218.742	1.54
218.96	15.87
219.179	-53.76
219.397	3.58
219.615	62.98
219.833	-23.04
220.051	46.59
220.27	83.45
220.488	30.21
220.706	3.58
220.924	36.35
221.142	-12.8
221.36	-0.51
221.578	-43.52
221.796	3.58
222.015	48.64
222.233	19.97
222.451	-12.8
222.669	5.63
222.887	48.64
223.105	-49.66
223.323	5.63
223.541	11.78
223.759	75.26
223.977	60.93
224.195	46.59
224.413	-31.23
224.631	-14.85
224.849	-20.99
225.067	83.45
225.285	13.82
225.503	46.59
225.721	-35.33
225.939	-51.71
226.157	48.64
226.375	44.54
226.592	-35.33
226.81	50.69
227.028	1.54
227.246	24.06
227.464	-39.42
227.682	95.74
227.9	-6.66
228.117	26.11
228.335	3.58
228.553	-14.85
228.771	-6.66
228.989	50.69
229.206	-70.14
229.424	5.63
229.642	26.11
229.86	-2.56
230.077	42.5
230.295	73.21
230.513	5.63
230.731	60.93
230.948	-23.04
231.166	30.21
231.384	-27.14
231.601	65.02
231.819	50.69
232.037	58.88
232.254	-64
232.472	-8.7
232.689	50.69
232.907	11.78
233.125	-51.71
233.342	-14.85
233.56	-27.14
233.777	-20.99
233.995	7.68
234.213	15.87
234.43	-39.42
234.648	75.26
234.865	54.78
235.083	42.5
235.3	73.21
235.518	1.54
235.735	-12.8
235.953	32.26
236.17	-49.66
236.388	-0.51
236.605	-18.94
236.822	9.73
237.04	58.88
237.257	34.3
237.475	-8.7
237.692	48.64
237.909	54.78
238.127	22.02
238.344	11.78
238.562	-14.85
238.779	46.59
238.996	-14.85
239.214	28.16
239.431	15.87
239.648	3.58
239.865	56.83
240.083	-23.04
240.3	48.64
240.517	67.07
240.735	89.6
240.952	46.59
241.169	83.45
241.386	34.3
241.603	22.02
241.821	54.78
242.038	-29.18
242.255	46.59
242.472	-2.56
242.689	54.78
242.907	34.3
243.124	1.54
243.341	32.26
243.558	26.11
243.775	7.68
243.992	83.45
244.209	17.92
244.426	56.83
244.643	79.36
244.86	56.83
245.078	15.87
245.295	24.06
245.512	48.64
245.729	1.54
245.946	36.35
246.163	95.74
246.38	93.69
246.597	26.11
246.814	15.87
247.031	-29.18
247.248	28.16
247.464	28.16
247.681	-16.9
247.898	62.98
248.115	-49.66
248.332	-47.62
248.549	52.74
248.766	46.59
248.983	108.03
249.2	-23.04
249.417	36.35
249.633	-12.8
249.85	11.78
250.067	19.97
250.284	9.73
250.501	28.16
250.717	15.87
250.934	-45.57
251.151	34.3
251.368	28.16
251.585	3.58
251.801	-25.09
252.018	-25.09
252.235	22.02
252.451	13.82
252.668	79.36
252.885	13.82
253.102	32.26
253.318	67.07
253.535	13.82
253.752	26.11
253.968	15.87
254.185	60.93
254.401	22.02
254.618	42.5
254.835	13.82
255.051	-6.66
255.268	5.63
255.484	67.07
255.701	26.11
255.917	32.26
256.134	69.12
256.351	7.68
256.567	-14.85
256.784	50.69
257	-6.66
257.217	42.5
257.433	3.58
257.65	-20.99
257.866	62.98
258.082	-25.09
258.299	5.63
258.515	73.21
258.732	58.88
258.948	62.98
259.165	24.06
259.381	-0.51
259.597	75.26
259.814	24.06
260.03	-8.7
260.246	-55.81
260.463	73.21
260.679	71.17
260.895	32.26
261.112	28.16
261.328	36.35
261.544	38.4
261.761	58.88
261.977	91.65
262.193	1.54
262.409	7.68
262.626	54.78
262.842	-14.85
263.058	-12.8
263.274	54.78
263.49	3.58
263.707	9.73
263.923	46.59
264.139	122.37
264.355	38.4
264.571	9.73
264.787	38.4
265.004	67.07
265.22	-8.7
265.436	17.92
265.652	-8.7
265.868	24.06
266.084	60.93
266.3	50.69
266.516	77.31
266.732	17.92
266.948	124.41
267.164	58.88
267.38	38.4
267.596	9.73
267.812	40.45
268.028	-23.04
268.244	34.3
268.46	50.69
268.676	-31.23
268.892	62.98
269.108	-33.28
269.324	-14.85
269.54	15.87
269.756	-4.61
269.972	19.97
270.188	-4.61
270.403	38.4
270.619	69.12
270.835	11.78
271.051	34.3
271.267	13.82
271.483	30.21
271.698	65.02
271.914	50.69
272.13	48.64
272.346	19.97
272.562	17.92
272.777	13.82
272.993	11.78
273.209	87.55
273.425	69.12
273.64	34.3
273.856	34.3
274.072	7.68
274.287	9.73
274.503	77.31
274.719	5.63
274.934	1.54
275.15	50.69
275.366	17.92
275.581	62.98
275.797	13.82
276.012	-2.56
276.228	54.78
276.444	26.11
276.659	-6.66
276.875	17.92
277.09	17.92
277.306	108.03
277.521	24.06
277.737	1.54
277.952	7.68
278.168	103.93
278.383	9.73
278.599	44.54
278.814	13.82
279.03	89.6
279.245	56.83
279.461	50.69
279.676	89.6
279.892	30.21
280.107	-6.66
280.322	28.16
280.538	-10.75
280.753	81.41
280.969	-25.09
281.184	3.58
281.399	-8.7
281.615	52.74
281.83	-0.51
282.045	15.87
282.26	50.69
282.476	26.11
282.691	5.63
282.906	-39.42
283.122	15.87
283.337	44.54
283.552	75.26
283.767	-10.75
283.983	40.45
284.198	7.68
284.413	110.08
284.628	77.31
284.843	-0.51
285.058	56.83
285.274	42.5
285.489	-14.85
285.704	22.02
285.919	38.4
286.134	22.02
286.349	148.99
286.564	36.35
286.779	50.69
286.995	48.64
287.21	-25.09
287.425	71.17
287.64	15.87
287.855	-12.8
288.07	50.69
288.285	40.45
288.5	42.5
288.715	65.02
288.93	-10.75
289.145	-39.42
289.36	54.78
289.575	11.78
289.79	73.21
290.004	-37.38
290.219	48.64
290.434	-14.85
290.649	22.02
290.864	-6.66
291.079	50.69
291.294	48.64
291.509	28.16
291.724	42.5
291.938	-49.66
292.153	58.88
292.368	79.36
292.583	52.74
292.798	65.02
293.012	69.12
293.227	71.17
293.442	-18.94
293.657	99.84
293.871	-20.99
294.086	9.73
294.301	75.26
294.516	79.36
294.73	-35.33
294.945	15.87
295.16	24.06
295.374	38.4
295.589	67.07
295.804	-20.99
296.018	56.83
296.233	11.78
296.447	58.88
296.662	11.78
296.877	34.3
297.091	89.6
297.306	67.07
297.52	65.02
297.735	52.74
297.949	5.63
298.164	30.21
298.378	28.16
298.593	40.45
298.807	19.97
299.022	24.06
299.236	7.68
299.451	34.3
299.665	-33.28
299.88	11.78
300.094	40.45
300.309	46.59
300.523	79.36
300.737	105.98
300.952	7.68
301.166	54.78
301.381	-4.61
301.595	83.45
301.809	69.12
302.024	40.45
302.238	26.11
302.452	17.92
302.667	85.5
302.881	48.64
303.095	-12.8
303.309	52.74
303.524	75.26
303.738	-31.23
303.952	26.11
304.166	48.64
304.381	-0.51
304.595	56.83
304.809	7.68
305.023	46.59
305.237	46.59
305.452	42.5
305.666	77.31
305.88	44.54
306.094	26.11
306.308	17.92
306.522	30.21
306.736	15.87
306.95	52.74
307.164	17.92
307.379	-25.09
307.593	44.54
307.807	7.68
308.021	22.02
308.235	-68.09
308.449	52.74
308.663	-4.61
308.877	108.03
309.091	-12.8
309.305	71.17
309.519	5.63
309.733	67.07
309.947	44.54
310.161	1.54
310.374	34.3
310.588	95.74
310.802	-14.85
311.016	32.26
311.23	97.79
311.444	26.11
311.658	85.5
311.872	75.26
312.085	42.5
312.299	93.69
312.513	-35.33
312.727	11.78
312.941	85.5
313.154	50.69
313.368	46.59
313.582	-4.61
313.796	58.88
314.009	-39.42
314.223	93.69
314.437	-4.61
314.651	1.54
314.864	-18.94
315.078	-39.42
315.292	62.98
315.505	77.31
315.719	36.35
315.933	40.45
316.146	-0.51
316.36	38.4
316.573	89.6
316.787	36.35
317.001	44.54
317.214	1.54
317.428	73.21
317.641	-31.23
317.855	17.92
318.068	-0.51
318.282	79.36
318.495	93.69
318.709	56.83
318.922	26.11
319.136	-70.14
319.349	79.36
319.563	9.73
319.776	71.17
319.99	40.45
320.203	1.54
320.417	62.98
320.63	-35.33
320.843	85.5
321.057	-2.56
321.27	73.21
321.483	56.83
321.697	46.59
321.91	54.78
322.124	36.35
322.337	48.64
322.55	75.26
322.763	65.02
322.977	56.83
323.19	9.73
323.403	52.74
323.617	5.63
323.83	81.41
324.043	38.4
324.256	52.74
324.469	42.5
324.683	75.26
324.896	32.26
325.109	48.64
325.322	19.97
325.535	85.5
325.748	89.6
325.962	103.93
326.175	28.16
326.388	108.03
326.601	36.35
326.814	54.78
327.027	126.46
327.24	34.3
327.453	32.26
327.666	50.69
327.879	1.54
328.092	42.5
328.305	101.89
328.518	81.41
328.731	-59.9
328.944	42.5
329.157	1.54
329.37	122.37
329.583	105.98
329.796	34.3
330.009	54.78
330.222	85.5
330.435	38.4
330.648	56.83
330.861	87.55
331.073	28.16
331.286	60.93
331.499	22.02
331.712	69.12
331.925	34.3
332.138	32.26
332.35	50.69
332.563	81.41
332.776	42.5
332.989	48.64
333.202	56.83
333.414	-10.75
333.627	54.78
333.84	38.4
334.053	75.26
334.265	54.78
334.478	50.69
334.691	83.45
334.903	65.02
335.116	32.26
335.329	48.64
335.541	-20.99
335.754	40.45
335.966	5.63
336.179	81.41
336.392	60.93
336.604	26.11
336.817	28.16
337.029	28.16
337.242	7.68
337.454	15.87
337.667	48.64
337.88	42.5
338.092	5.63
338.305	13.82
338.517	95.74
338.729	97.79
338.942	128.51
339.154	-12.8
339.367	-23.04
339.579	3.58
339.792	17.92
340.004	62.98
340.217	132.61
340.429	60.93
340.641	-2.56
340.854	-16.9
341.066	3.58
341.278	22.02
341.491	75.26
341.703	73.21
341.915	69.12
342.128	5.63
342.34	56.83
342.552	-18.94
342.764	-27.14
342.977	69.12
343.189	50.69
343.401	24.06
343.613	46.59
343.826	81.41
344.038	69.12
344.25	30.21
344.462	9.73
344.674	56.83
344.886	75.26
345.099	-8.7
345.311	17.92
345.523	36.35
345.735	32.26
345.947	62.98
346.159	7.68
346.371	118.27
346.583	67.07
346.795	79.36
347.007	-6.66
347.219	48.64
347.431	46.59
347.643	1.54
347.855	5.63
348.067	26.11
348.279	67.07
348.491	120.32
348.703	1.54
348.915	58.88
349.127	93.69
349.339	28.16
349.551	48.64
349.763	62.98
349.975	69.12
350.187	19.97
350.399	91.65
350.61	65.02
350.822	17.92
351.034	24.06
351.246	48.64
351.458	93.69
351.669	-33.28
351.881	50.69
352.093	32.26
352.305	112.13
352.517	17.92
352.728	48.64
352.94	40.45
353.152	3.58
353.363	-0.51
353.575	7.68
353.787	69.12
353.999	15.87
354.21	19.97
354.422	85.5
354.633	48.64
354.845	44.54
355.057	50.69
355.268	54.78
355.48	28.16
355.692	44.54
355.903	99.84
356.115	17.92
356.326	22.02
356.538	58.88
356.749	3.58
356.961	36.35
357.172	62.98
357.384	38.4
357.595	15.87
357.807	3.58
358.018	128.51
358.23	38.4
358.441	48.64
358.653	46.59
358.864	13.82
359.075	81.41
359.287	65.02
359.498	56.83
359.709	-2.56
359.921	89.6
360.132	73.21
360.344	-41.47
360.555	93.69
360.766	42.5
360.977	79.36
361.189	30.21
361.4	85.5
361.611	75.26
361.823	85.5
362.034	44.54
362.245	-45.57
362.456	30.21
362.667	52.74
362.879	-18.94
363.09	24.06
363.301	69.12
363.512	-16.9
363.723	17.92
363.935	48.64
364.146	42.5
364.357	75.26
364.568	67.07
364.779	46.59
364.99	-4.61
365.201	46.59
365.412	87.55
365.623	13.82
365.834	48.64
366.045	-29.18
366.256	7.68
366.467	-25.09
366.678	36.35
366.889	101.89
367.1	56.83
367.311	95.74
367.522	24.06
367.733	91.65
367.944	67.07
368.155	32.26
368.366	42.5
368.577	62.98
368.788	89.6
368.999	40.45
369.209	19.97
369.42	48.64
369.631	67.07
369.842	26.11
370.053	30.21
370.264	56.83
370.474	48.64
370.685	81.41
370.896	30.21
371.107	24.06
371.317	42.5
371.528	62.98
371.739	-0.51
371.95	28.16
372.16	42.5
372.371	-31.23
372.582	36.35
372.792	40.45
373.003	-27.14
373.214	-10.75
373.424	69.12
373.635	34.3
373.846	11.78
374.056	93.69
374.267	28.16
374.477	77.31
374.688	-14.85
374.898	36.35
375.109	81.41
375.319	30.21
375.53	-16.9
375.74	44.54
375.951	75.26
376.161	67.07
376.372	48.64
376.582	34.3
376.793	52.74
377.003	-27.14
377.214	60.93
377.424	32.26
377.635	69.12
377.845	28.16
378.055	56.83
378.266	3.58
378.476	69.12
378.686	77.31
378.897	52.74
379.107	-55.81
379.317	65.02
379.528	67.07
379.738	99.84
379.948	60.93
380.158	71.17
380.369	-2.56
380.579	103.93
380.789	124.41
380.999	122.37
381.21	126.46
381.42	50.69
381.63	42.5
381.84	77.31
382.05	118.27
382.261	89.6
382.471	69.12
382.681	3.58
382.891	28.16
383.101	17.92
383.311	1.54
383.521	44.54
383.731	-0.51
383.941	75.26
384.151	42.5
384.361	46.59
384.571	62.98
384.781	40.45
384.991	69.12
385.201	58.88
385.411	89.6
385.621	73.21
385.831	77.31
386.041	69.12
386.251	22.02
386.461	83.45
386.671	103.93
386.881	46.59
387.091	77.31
387.301	65.02
387.511	-2.56
387.72	108.03
387.93	136.7
388.14	-57.86
388.35	42.5
388.56	56.83
388.769	52.74
388.979	73.21
389.189	71.17
389.399	52.74
389.609	108.03
389.818	9.73
390.028	89.6
390.238	69.12
390.447	30.21
390.657	3.58
390.867	67.07
391.076	34.3
391.286	67.07
391.496	60.93
391.705	83.45
391.915	52.74
392.125	52.74
392.334	30.21
392.544	48.64
392.753	87.55
392.963	81.41
393.172	42.5
393.382	3.58
393.591	83.45
393.801	69.12
394.01	-6.66
394.22	7.68
394.429	77.31
394.639	65.02
394.848	69.12
395.058	105.98
395.267	128.51
395.477	34.3
395.686	103.93
395.895	-49.66
396.105	103.93
396.314	69.12
396.524	32.26
396.733	71.17
396.942	114.17
397.152	89.6
397.361	136.7
397.57	138.75
397.78	30.21
397.989	62.98
398.198	146.94
398.407	126.46
398.617	112.13
398.826	60.93
399.035	114.17
399.244	-33.28
399.453	81.41
399.663	67.07
399.872	99.84
400.081	110.08
400.29	54.78
400.499	124.41
400.708	89.6
400.917	71.17
401.127	65.02
401.336	36.35
401.545	155.13
401.754	175.61
401.963	167.42
402.172	54.78
402.381	167.42
402.59	34.3
402.799	42.5
403.008	75.26
403.217	87.55
403.426	65.02
403.635	89.6
403.844	91.65
404.053	124.41
404.262	73.21
404.471	202.24
404.68	93.69
404.888	126.46
405.097	112.13
405.306	161.28
405.515	77.31
405.724	105.98
405.933	153.09
406.142	161.28
406.35	138.75
406.559	120.32
406.768	189.95
406.977	142.85
407.185	171.52
407.394	95.74
407.603	187.9
407.812	161.28
408.02	218.62
408.229	192
408.438	124.41
408.646	200.19
408.855	142.85
409.064	169.47
409.272	146.94
409.481	222.72
409.69	273.92
409.898	179.71
410.107	249.34
410.315	245.24
410.524	140.8
410.733	204.28
410.941	265.72
411.15	271.87
411.358	251.39
411.567	255.48
411.775	290.3
411.984	267.77
412.192	394.75
412.401	409.08
412.609	415.23
412.818	323.07
413.026	400.89
413.234	372.22
413.443	368.12
413.651	409.08
413.86	507.38
414.068	417.27
414.276	447.99
414.485	378.36
414.693	456.19
414.901	558.58
415.11	585.21
415.318	560.63
415.526	568.82
415.734	595.45
415.943	568.82
416.151	730.61
416.359	611.83
416.567	679.41
416.776	663.03
416.984	740.85
417.192	749.04
417.4	769.52
417.608	650.74
417.817	767.48
418.025	835.06
418.233	896.5
418.441	814.58
418.649	894.45
418.857	962.03
419.065	941.55
419.273	876.02
419.481	992.75
419.689	1048.05
419.897	1093.1
420.105	1127.92
420.313	1138.16
420.521	1183.21
420.729	1258.99
420.937	1205.74
421.145	1302
421.353	1381.87
421.561	1428.97
421.769	1428.97
421.977	1525.22
422.185	1469.93
422.393	1623.53
422.601	1648.1
422.809	1658.34
423.017	1707.49
423.224	1648.1
423.432	1859.04
423.64	1943.01
423.848	1953.25
424.056	2008.55
424.263	2170.33
424.471	2110.94
424.679	2090.46
424.887	2301.4
425.094	2295.26
425.302	2491.87
425.51	2475.48
425.718	2514.39
425.925	2530.78
426.133	2541.02
426.341	2702.81
426.548	3016.15
426.756	2821.59
426.964	2899.41
427.171	3167.7
427.379	3147.22
427.586	3145.17
427.794	3319.25
428.001	3507.66
428.209	3540.43
428.417	3548.62
428.624	3685.83
428.832	3894.72
429.039	3794.37
429.247	3759.56
429.454	4111.81
429.662	4324.8
429.869	4087.23
430.076	4380.09
430.284	4304.32
430.491	4459.96
430.699	4799.93
430.906	4822.45
431.114	4836.79
431.321	4955.57
431.528	5135.79
431.736	5483.95
431.943	5533.1
432.15	5539.24
432.358	5350.83
432.565	5744.04
432.772	5719.46
432.979	6106.53
433.187	6139.3
433.394	6303.14
433.601	6794.65
433.808	6643.1
434.016	6657.43
434.223	6921.62
434.43	7372.18
434.637	7171.47
434.844	7558.54
435.052	7923.08
435.259	7749
435.466	7785.87
435.673	7822.73
435.88	8050.05
436.087	8707.45
436.294	8719.74
436.501	8394.11
436.708	8623.48
436.915	8985.97
437.122	9291.12
437.329	9338.23
437.537	9563.5
437.743	9848.17
437.95	9756.01
438.157	10274.15
438.364	10425.7
438.571	10331.49
438.778	10583.39
438.985	11658.57
439.192	10896.73
439.399	11709.77
439.606	11128.15
439.813	11717.97
440.02	12715.33
440.227	12399.94
440.433	12076.36
440.64	12799.29
440.847	12385.6
441.054	12959.03
441.261	13618.48
441.467	13485.36
441.674	13704.49
441.881	14226.73
442.088	14159.14
442.294	14030.12
442.501	14531.87
442.708	14589.22
442.914	15357.21
443.121	16123.15
443.328	15371.54
443.534	16542.98
443.741	16192.78
443.948	16117
444.154	17329.4
444.361	17145.08
444.568	17052.92
444.774	16809.22
444.981	17251.58
445.187	17927.41
445.394	18513.13
445.6	18377.96
445.807	20053.2
446.013	19291.35
446.22	19553.49
446.426	20382.92
446.633	20464.84
446.839	21361.85
447.046	20231.37
447.252	21445.82
447.459	21324.99
447.665	21499.06
447.871	22228.14
448.078	23200.93
448.284	22156.46
448.491	22652.07
448.697	23573.66
448.903	23762.07
449.11	23995.54
449.316	23891.09
449.522	24317.07
449.728	24841.35
449.935	24863.88
450.141	24863.88
450.347	25361.53
450.553	24673.42
450.76	24667.27
450.966	25777.27
451.172	25537.66
451.378	26211.44
451.584	25738.36
451.791	26164.34
451.997	25883.77
452.203	26119.28
452.409	26561.64
452.615	26487.92
452.821	25308.29
453.027	25058.43
453.233	26477.68
453.44	25001.09
453.646	25595
453.852	25777.27
454.058	26086.51
454.264	25187.46
454.47	25834.61
454.676	25226.37
454.882	26066.03
455.088	23776.41
455.294	23950.48
455.5	24251.53
455.705	24753.29
455.911	23542.94
456.117	23338.14
456.323	23039.14
456.529	21726.39
456.735	22797.48
456.941	22170.8
457.147	21802.16
457.352	21019.84
457.558	20931.78
457.764	20790.47
457.97	20483.27
458.176	20212.94
458.381	20040.91
458.587	19246.3
458.793	19098.84
458.999	18113.77
459.204	19139.8
459.41	18932.96
459.616	17442.04
459.821	17669.36
460.027	17597.68
460.233	17145.08
460.438	16416.01
460.644	16770.3
460.85	15697.17
461.055	15506.71
461.261	15344.92
461.466	14513.44
461.672	13901.1
461.878	14935.32
462.083	14085.42
462.289	13520.18
462.494	13569.33
462.7	12993.85
462.905	12639.55
463.111	12922.17
463.316	13059.38
463.522	12709.18
463.727	12836.16
463.932	12801.34
464.138	12735.81
464.343	12508.48
464.549	12197.19
464.754	12657.98
464.959	12582.21
465.165	12574.02
465.37	11869.51
465.575	11832.65
465.781	12338.5
465.986	12289.35
466.191	11951.43
466.397	11566.42
466.602	10892.63
466.807	11298.13
467.012	11423.06
467.218	11291.99
467.423	11115.86
467.628	11355.47
467.833	11740.49
468.038	11193.69
468.244	11140.44
468.449	11447.63
468.654	11066.71
468.859	11048.28
469.064	10972.5
