Data from USB4F104151__252__14-01-34-544.txt Node

Date: Thu Mar 13 14:01:34 EDT 2025
User: louis
Spectrometer: USB4F10415
Trigger mode: 4
Integration Time (sec): 1.000000E-2
Scans to average: 1
Electric dark correction enabled: true
Nonlinearity correction enabled: false
Boxcar width: 0
XAxis mode: Wavelengths
Number of Pixels in Spectrum: 3648
>>>>>Begin Spectral Data<<<<<
178.204	-10.07
178.424	-10.07
178.644	-10.07
178.864	10.41
179.084	-83.8
179.304	-5.97
179.524	32.94
179.744	-40.79
179.964	-34.64
180.184	24.75
180.404	2.22
180.624	22.7
180.844	-55.12
181.064	-26.45
181.283	20.65
181.503	4.27
181.723	55.47
181.943	53.42
182.163	-12.12
182.383	57.51
182.602	-28.5
182.822	61.61
183.042	12.46
183.262	-26.45
183.482	-38.74
183.701	-16.21
183.921	41.13
184.141	-63.32
184.361	45.23
184.58	-36.69
184.8	49.32
185.02	-22.36
185.239	20.65
185.459	-87.89
185.679	45.23
185.898	-3.93
186.118	2.22
186.338	20.65
186.557	30.89
186.777	-10.07
186.997	-71.51
187.216	0.17
187.436	-20.31
187.655	-10.07
187.875	32.94
188.095	-16.21
188.314	-3.93
188.534	-3.93
188.753	-16.21
188.973	-73.56
189.192	-18.26
189.412	73.9
189.631	6.31
189.851	-40.79
190.07	10.41
190.29	10.41
190.509	49.32
190.729	22.7
190.948	86.19
191.168	77.99
191.387	10.41
191.607	-61.27
191.826	-1.88
192.045	6.31
192.265	-22.36
192.484	41.13
192.704	-28.5
192.923	-40.79
193.142	-8.02
193.362	4.27
193.581	-28.5
193.8	20.65
194.02	-1.88
194.239	43.18
194.458	37.03
194.678	-36.69
194.897	4.27
195.116	41.13
195.335	-57.17
195.555	-14.17
195.774	-1.88
195.993	69.8
196.212	16.55
196.432	2.22
196.651	12.46
196.87	37.03
197.089	28.84
197.308	104.62
197.528	6.31
197.747	-46.93
197.966	14.51
198.185	24.75
198.404	53.42
198.623	59.56
198.842	-10.07
199.062	55.47
199.281	-18.26
199.5	100.52
199.719	-12.12
199.938	-20.31
200.157	71.85
200.376	53.42
200.595	77.99
200.814	8.36
201.033	-18.26
201.252	61.61
201.471	-24.4
201.69	16.55
201.909	55.47
202.128	-8.02
202.347	61.61
202.566	6.31
202.785	28.84
203.004	32.94
203.223	63.66
203.442	47.27
203.661	-12.12
203.879	82.09
204.098	61.61
204.317	-24.4
204.536	4.27
204.755	-1.88
204.974	69.8
205.193	20.65
205.411	45.23
205.63	22.7
205.849	4.27
206.068	69.8
206.287	14.51
206.505	65.71
206.724	8.36
206.943	-42.84
207.162	32.94
207.381	16.55
207.599	49.32
207.818	24.75
208.037	12.46
208.255	-75.6
208.474	41.13
208.693	-3.93
208.911	39.08
209.13	49.32
209.349	51.37
209.567	4.27
209.786	28.84
210.005	16.55
210.223	0.17
210.442	6.31
210.661	-16.21
210.879	-63.32
211.098	63.66
211.316	18.6
211.535	0.17
211.753	-28.5
211.972	26.79
212.191	-12.12
212.409	39.08
212.628	-16.21
212.846	-36.69
213.065	28.84
213.283	39.08
213.502	18.6
213.72	-18.26
213.938	71.85
214.157	4.27
214.375	-73.56
214.594	-3.93
214.812	90.28
215.031	2.22
215.249	-3.93
215.467	30.89
215.686	4.27
215.904	-18.26
216.122	53.42
216.341	32.94
216.559	45.23
216.778	-44.88
216.996	-51.03
217.214	24.75
217.432	-69.46
217.651	-40.79
217.869	-67.41
218.087	-46.93
218.306	-8.02
218.524	-1.88
218.742	0.17
218.96	-26.45
219.179	-85.84
219.397	-42.84
219.615	-1.88
219.833	4.27
220.051	26.79
220.27	45.23
220.488	18.6
220.706	-26.45
220.924	-1.88
221.142	-36.69
221.36	63.66
221.578	28.84
221.796	-14.17
222.015	-44.88
222.233	-16.21
222.451	-24.4
222.669	-38.74
222.887	69.8
223.105	32.94
223.323	16.55
223.541	-26.45
223.759	-24.4
223.977	-61.27
224.195	69.8
224.413	-10.07
224.631	45.23
224.849	16.55
225.067	41.13
225.285	-63.32
225.503	-10.07
225.721	32.94
225.939	98.47
226.157	32.94
226.375	10.41
226.592	-3.93
226.81	-18.26
227.028	-3.93
227.246	55.47
227.464	-30.55
227.682	43.18
227.9	57.51
228.117	-32.6
228.335	16.55
228.553	-28.5
228.771	63.66
228.989	43.18
229.206	37.03
229.424	28.84
229.642	6.31
229.86	-1.88
230.077	-57.17
230.295	22.7
230.513	8.36
230.731	49.32
230.948	24.75
231.166	41.13
231.384	49.32
231.601	20.65
231.819	37.03
232.037	-87.89
232.254	45.23
232.472	-42.84
232.689	-1.88
232.907	-1.88
233.125	41.13
233.342	-53.08
233.56	14.51
233.777	-51.03
233.995	14.51
234.213	28.84
234.43	-12.12
234.648	26.79
234.865	-8.02
235.083	-30.55
235.3	-20.31
235.518	-3.93
235.735	71.85
235.953	18.6
236.17	-1.88
236.388	20.65
236.605	90.28
236.822	-18.26
237.04	61.61
237.257	30.89
237.475	49.32
237.692	-44.88
237.909	10.41
238.127	14.51
238.344	8.36
238.562	34.99
238.779	47.27
238.996	-18.26
239.214	2.22
239.431	53.42
239.648	-44.88
239.865	77.99
240.083	43.18
240.3	71.85
240.517	22.7
240.735	-22.36
240.952	28.84
241.169	43.18
241.386	-34.64
241.603	-40.79
241.821	47.27
242.038	-18.26
242.255	-24.4
242.472	49.32
242.689	30.89
242.907	77.99
243.124	82.09
243.341	-1.88
243.558	30.89
243.775	18.6
243.992	-5.97
244.209	43.18
244.426	-34.64
244.643	55.47
244.86	-14.17
245.078	-42.84
245.295	37.03
245.512	18.6
245.729	0.17
245.946	-1.88
246.163	80.04
246.38	51.37
246.597	32.94
246.814	43.18
247.031	32.94
247.248	75.95
247.464	12.46
247.681	12.46
247.898	34.99
248.115	-83.8
248.332	61.61
248.549	28.84
248.766	57.51
248.983	98.47
249.2	-48.98
249.417	45.23
249.633	6.31
249.85	41.13
250.067	-34.64
250.284	-18.26
250.501	34.99
250.717	22.7
250.934	-30.55
251.151	57.51
251.368	-53.08
251.585	-12.12
251.801	-24.4
252.018	8.36
252.235	8.36
252.451	39.08
252.668	-8.02
252.885	16.55
253.102	2.22
253.318	55.47
253.535	-3.93
253.752	49.32
253.968	32.94
254.185	4.27
254.401	-51.03
254.618	63.66
254.835	0.17
255.051	55.47
255.268	6.31
255.484	-1.88
255.701	2.22
255.917	-10.07
256.134	32.94
256.351	4.27
256.567	22.7
256.784	47.27
257	14.51
257.217	-1.88
257.433	59.56
257.65	39.08
257.866	41.13
258.082	55.47
258.299	-36.69
258.515	30.89
258.732	-20.31
258.948	22.7
259.165	34.99
259.381	32.94
259.597	-53.08
259.814	39.08
260.03	-14.17
260.246	43.18
260.463	-61.27
260.679	20.65
260.895	-51.03
261.112	4.27
261.328	-1.88
261.544	59.56
261.761	82.09
261.977	-24.4
262.193	28.84
262.409	4.27
262.626	-51.03
262.842	-26.45
263.058	-44.88
263.274	61.61
263.49	-14.17
263.707	14.51
263.923	-28.5
264.139	-10.07
264.355	41.13
264.571	22.7
264.787	-3.93
265.004	102.57
265.22	63.66
265.436	-10.07
265.652	-20.31
265.868	63.66
266.084	-18.26
266.3	71.85
266.516	6.31
266.732	-51.03
266.948	-28.5
267.164	53.42
267.38	16.55
267.596	-12.12
267.812	39.08
268.028	18.6
268.244	16.55
268.46	14.51
268.676	16.55
268.892	45.23
269.108	-16.21
269.324	14.51
269.54	12.46
269.756	43.18
269.972	0.17
270.188	-20.31
270.403	-1.88
270.619	67.75
270.835	-98.13
271.051	41.13
271.267	53.42
271.483	34.99
271.698	-10.07
271.914	-38.74
272.13	77.99
272.346	8.36
272.562	-8.02
272.777	-61.27
272.993	0.17
273.209	86.19
273.425	26.79
273.64	12.46
273.856	12.46
274.072	-24.4
274.287	20.65
274.503	-8.02
274.719	59.56
274.934	20.65
275.15	-34.64
275.366	45.23
275.581	55.47
275.797	6.31
276.012	18.6
276.228	14.51
276.444	-10.07
276.659	102.57
276.875	12.46
277.09	4.27
277.306	-10.07
277.521	28.84
277.737	49.32
277.952	-18.26
278.168	-10.07
278.383	39.08
278.599	22.7
278.814	14.51
279.03	-5.97
279.245	67.75
279.461	-46.93
279.676	22.7
279.892	26.79
280.107	-18.26
280.322	6.31
280.538	63.66
280.753	-20.31
280.969	24.75
281.184	-16.21
281.399	53.42
281.615	45.23
281.83	-22.36
282.045	-65.36
282.26	32.94
282.476	-106.32
282.691	45.23
282.906	-3.93
283.122	20.65
283.337	37.03
283.552	20.65
283.767	-24.4
283.983	71.85
284.198	49.32
284.413	24.75
284.628	-12.12
284.843	-44.88
285.058	-16.21
285.274	6.31
285.489	-5.97
285.704	-53.08
285.919	57.51
286.134	-28.5
286.349	65.71
286.564	-20.31
286.779	-63.32
286.995	6.31
287.21	20.65
287.425	32.94
287.64	-48.98
287.855	6.31
288.07	49.32
288.285	2.22
288.5	-44.88
288.715	-8.02
288.93	18.6
289.145	0.17
289.36	-5.97
289.575	4.27
289.79	-8.02
290.004	12.46
290.219	32.94
290.434	-28.5
290.649	-71.51
290.864	22.7
291.079	28.84
291.294	-8.02
291.509	10.41
291.724	20.65
291.938	-10.07
292.153	37.03
292.368	8.36
292.583	24.75
292.798	-44.88
293.012	94.38
293.227	39.08
293.442	-24.4
293.657	16.55
293.871	6.31
294.086	75.95
294.301	41.13
294.516	67.75
294.73	-12.12
294.945	20.65
295.16	63.66
295.374	-12.12
295.589	8.36
295.804	28.84
296.018	16.55
296.233	37.03
296.447	22.7
296.662	-1.88
296.877	37.03
297.091	12.46
297.306	-3.93
297.52	39.08
297.735	-77.65
297.949	24.75
298.164	-28.5
298.378	6.31
298.593	-8.02
298.807	-3.93
299.022	80.04
299.236	-16.21
299.451	4.27
299.665	57.51
299.88	-32.6
300.094	22.7
300.309	-34.64
300.523	14.51
300.737	47.27
300.952	32.94
301.166	-30.55
301.381	-42.84
301.595	-67.41
301.809	65.71
302.024	-26.45
302.238	-65.36
302.452	-8.02
302.667	61.61
302.881	16.55
303.095	34.99
303.309	-24.4
303.524	-1.88
303.738	24.75
303.952	-30.55
304.166	8.36
304.381	0.17
304.595	32.94
304.809	22.7
305.023	14.51
305.237	69.8
305.452	26.79
305.666	20.65
305.88	-3.93
306.094	-34.64
306.308	84.14
306.522	51.37
306.736	4.27
306.95	14.51
307.164	32.94
307.379	16.55
307.593	67.75
307.807	69.8
308.021	16.55
308.235	45.23
308.449	-14.17
308.663	12.46
308.877	26.79
309.091	90.28
309.305	92.33
309.519	-12.12
309.733	0.17
309.947	61.61
310.161	-3.93
310.374	41.13
310.588	53.42
310.802	47.27
311.016	-53.08
311.23	37.03
311.444	55.47
311.658	12.46
311.872	94.38
312.085	-12.12
312.299	96.43
312.513	10.41
312.727	22.7
312.941	-118.61
313.154	41.13
313.368	61.61
313.582	-10.07
313.796	43.18
314.009	43.18
314.223	37.03
314.437	-12.12
314.651	10.41
314.864	-22.36
315.078	-8.02
315.292	-8.02
315.505	73.9
315.719	-24.4
315.933	77.99
316.146	12.46
316.36	-3.93
316.573	6.31
316.787	12.46
317.001	51.37
317.214	-3.93
317.428	32.94
317.641	4.27
317.855	77.99
318.068	92.33
318.282	73.9
318.495	20.65
318.709	32.94
318.922	61.61
319.136	20.65
319.349	0.17
319.563	-1.88
319.776	4.27
319.99	-3.93
320.203	16.55
320.417	14.51
320.63	-14.17
320.843	71.85
321.057	32.94
321.27	-59.22
321.483	24.75
321.697	45.23
321.91	22.7
322.124	26.79
322.337	86.19
322.55	-22.36
322.763	4.27
322.977	55.47
323.19	37.03
323.403	-22.36
323.617	-1.88
323.83	49.32
324.043	90.28
324.256	14.51
324.469	-55.12
324.683	22.7
324.896	39.08
325.109	-10.07
325.322	0.17
325.535	59.56
325.748	14.51
325.962	-8.02
326.175	43.18
326.388	-57.17
326.601	-44.88
326.814	0.17
327.027	24.75
327.24	80.04
327.453	-26.45
327.666	-12.12
327.879	-32.6
328.092	53.42
328.305	-10.07
328.518	-18.26
328.731	26.79
328.944	-8.02
329.157	49.32
329.37	16.55
329.583	106.67
329.796	-10.07
330.009	-26.45
330.222	45.23
330.435	12.46
330.648	53.42
330.861	28.84
331.073	-12.12
331.286	-20.31
331.499	69.8
331.712	-18.26
331.925	14.51
332.138	63.66
332.35	-8.02
332.563	-89.94
332.776	106.67
332.989	14.51
333.202	-12.12
333.414	-8.02
333.627	53.42
333.84	14.51
334.053	47.27
334.265	-3.93
334.478	45.23
334.691	10.41
334.903	30.89
335.116	39.08
335.329	-59.22
335.541	-20.31
335.754	20.65
335.966	-26.45
336.179	-20.31
336.392	-34.64
336.604	-38.74
336.817	-12.12
337.029	69.8
337.242	10.41
337.454	-26.45
337.667	-67.41
337.88	-5.97
338.092	39.08
338.305	30.89
338.517	-44.88
338.729	12.46
338.942	-38.74
339.154	-8.02
339.367	-16.21
339.579	14.51
339.792	43.18
340.004	20.65
340.217	61.61
340.429	14.51
340.641	10.41
340.854	12.46
341.066	4.27
341.278	12.46
341.491	55.47
341.703	12.46
341.915	-22.36
342.128	10.41
342.34	14.51
342.552	-26.45
342.764	26.79
342.977	53.42
343.189	6.31
343.401	14.51
343.613	24.75
343.826	4.27
344.038	0.17
344.25	53.42
344.462	-3.93
344.674	12.46
344.886	-10.07
345.099	-18.26
345.311	39.08
345.523	-18.26
345.735	-3.93
345.947	71.85
346.159	4.27
346.371	102.57
346.583	53.42
346.795	71.85
347.007	61.61
347.219	121
347.431	-32.6
347.643	2.22
347.855	22.7
348.067	4.27
348.279	-40.79
348.491	-65.36
348.703	6.31
348.915	-3.93
349.127	30.89
349.339	63.66
349.551	8.36
349.763	73.9
349.975	-22.36
350.187	-3.93
350.399	-53.08
350.61	75.95
350.822	14.51
351.034	-3.93
351.246	86.19
351.458	47.27
351.669	16.55
351.881	-20.31
352.093	-14.17
352.305	59.56
352.517	-3.93
352.728	6.31
352.94	69.8
353.152	-53.08
353.363	-32.6
353.575	26.79
353.787	-3.93
353.999	37.03
354.21	67.75
354.422	18.6
354.633	-5.97
354.845	-18.26
355.057	14.51
355.268	47.27
355.48	-12.12
355.692	2.22
355.903	-22.36
356.115	26.79
356.326	43.18
356.538	-48.98
356.749	45.23
356.961	30.89
357.172	37.03
357.384	18.6
357.595	47.27
357.807	-30.55
358.018	45.23
358.23	6.31
358.441	-22.36
358.653	73.9
358.864	20.65
359.075	26.79
359.287	4.27
359.498	26.79
359.709	26.79
359.921	-12.12
360.132	12.46
360.344	0.17
360.555	-34.64
360.766	32.94
360.977	65.71
361.189	-12.12
361.4	16.55
361.611	112.81
361.823	49.32
362.034	14.51
362.245	-28.5
362.456	47.27
362.667	-18.26
362.879	20.65
363.09	4.27
363.301	-10.07
363.512	37.03
363.723	4.27
363.935	104.62
364.146	28.84
364.357	-30.55
364.568	94.38
364.779	12.46
364.99	75.95
365.201	47.27
365.412	6.31
365.623	28.84
365.834	67.75
366.045	-18.26
366.256	4.27
366.467	51.37
366.678	8.36
366.889	32.94
367.1	61.61
367.311	-26.45
367.522	0.17
367.733	-20.31
367.944	22.7
368.155	-14.17
368.366	32.94
368.577	-26.45
368.788	-73.56
368.999	49.32
369.209	71.85
369.42	73.9
369.631	77.99
369.842	4.27
370.053	32.94
370.264	47.27
370.474	39.08
370.685	-38.74
370.896	55.47
371.107	18.6
371.317	45.23
371.528	-34.64
371.739	149.67
371.95	63.66
372.16	34.99
372.371	53.42
372.582	12.46
372.792	18.6
373.003	63.66
373.214	49.32
373.424	26.79
373.635	47.27
373.846	49.32
374.056	-32.6
374.267	53.42
374.477	-8.02
374.688	77.99
374.898	-8.02
375.109	26.79
375.319	-3.93
375.53	28.84
375.74	26.79
375.951	43.18
376.161	-24.4
376.372	-44.88
376.582	69.8
376.793	14.51
377.003	-42.84
377.214	45.23
377.424	-3.93
377.635	22.7
377.845	39.08
378.055	43.18
378.266	12.46
378.476	28.84
378.686	12.46
378.897	34.99
379.107	61.61
379.317	51.37
379.528	26.79
379.738	10.41
379.948	-40.79
380.158	32.94
380.369	-8.02
380.579	20.65
380.789	20.65
380.999	69.8
381.21	-3.93
381.42	-42.84
381.63	24.75
381.84	-14.17
382.05	0.17
382.261	28.84
382.471	63.66
382.681	100.52
382.891	45.23
383.101	-1.88
383.311	32.94
383.521	-1.88
383.731	-32.6
383.941	45.23
384.151	-20.31
384.361	20.65
384.571	114.86
384.781	0.17
384.991	28.84
385.201	28.84
385.411	43.18
385.621	53.42
385.831	51.37
386.041	34.99
386.251	-34.64
386.461	43.18
386.671	-20.31
386.881	28.84
387.091	-34.64
387.301	4.27
387.511	26.79
387.72	71.85
387.93	61.61
388.14	2.22
388.35	69.8
388.56	-14.17
388.769	94.38
388.979	-22.36
389.189	22.7
389.399	37.03
389.609	30.89
389.818	16.55
390.028	26.79
390.238	28.84
390.447	-34.64
390.657	61.61
390.867	18.6
391.076	12.46
391.286	94.38
391.496	53.42
391.705	-3.93
391.915	2.22
392.125	20.65
392.334	16.55
392.544	16.55
392.753	73.9
392.963	-32.6
393.172	65.71
393.382	-10.07
393.591	73.9
393.801	24.75
394.01	16.55
394.22	67.75
394.429	73.9
394.639	-10.07
394.848	57.51
395.058	-8.02
395.267	14.51
395.477	49.32
395.686	71.85
395.895	71.85
396.105	49.32
396.314	53.42
396.524	-12.12
396.733	28.84
396.942	71.85
397.152	94.38
397.361	80.04
397.57	-3.93
397.78	71.85
397.989	14.51
398.198	90.28
398.407	4.27
398.617	32.94
398.826	20.65
399.035	-20.31
399.244	30.89
399.453	39.08
399.663	18.6
399.872	174.25
400.081	14.51
400.29	12.46
400.499	-28.5
400.708	10.41
400.917	88.23
401.127	22.7
401.336	47.27
401.545	39.08
401.754	26.79
401.963	86.19
402.172	80.04
402.381	59.56
402.59	0.17
402.799	4.27
403.008	28.84
403.217	51.37
403.426	37.03
403.635	80.04
403.844	84.14
404.053	37.03
404.262	45.23
404.471	61.61
404.68	63.66
404.888	28.84
405.097	75.95
405.306	53.42
405.515	30.89
405.724	47.27
405.933	94.38
406.142	24.75
406.35	28.84
406.559	102.57
406.768	-3.93
406.977	98.47
407.185	73.9
407.394	37.03
407.603	47.27
407.812	90.28
408.02	88.23
408.229	65.71
408.438	149.67
408.646	12.46
408.855	69.8
409.064	37.03
409.272	63.66
409.481	94.38
409.69	123.05
409.898	127.14
410.107	131.24
410.315	118.95
410.524	137.38
410.733	121
410.941	112.81
411.15	164.01
411.358	98.47
411.567	141.48
411.775	125.1
411.984	164.01
412.192	182.44
412.401	200.87
412.609	141.48
412.818	219.3
413.026	125.1
413.234	200.87
413.443	254.12
413.651	221.35
413.86	159.91
414.068	209.06
414.276	276.65
414.485	266.41
414.693	274.6
414.901	278.69
415.11	274.6
415.318	174.25
415.526	264.36
415.734	297.13
415.943	290.98
416.151	340.13
416.359	325.8
416.567	348.33
416.776	331.94
416.984	405.67
417.192	407.72
417.4	381.09
417.608	389.28
417.817	342.18
418.025	385.19
418.233	503.97
418.441	542.88
418.649	438.44
418.857	473.25
419.065	508.07
419.273	534.69
419.481	536.74
419.689	561.31
419.897	610.47
420.105	524.45
420.313	628.9
420.521	626.85
420.729	643.23
420.937	686.24
421.145	721.06
421.353	688.29
421.561	727.2
421.769	759.97
421.977	745.63
422.185	768.16
422.393	897.18
422.601	809.12
422.809	880.8
423.017	817.31
423.224	907.42
423.432	944.28
423.64	1015.96
423.848	1061.02
424.056	960.67
424.263	1079.45
424.471	1087.64
424.679	1022.11
424.887	1081.5
425.094	1153.18
425.302	1155.23
425.51	1257.62
425.718	1339.54
425.925	1323.16
426.133	1357.97
426.341	1372.31
426.548	1427.6
426.756	1439.89
426.964	1601.68
427.171	1620.11
427.379	1585.3
427.586	1652.88
427.794	1652.88
428.001	1790.1
428.209	1933.45
428.417	1759.38
428.624	1872.01
428.832	1929.36
429.039	1982.6
429.247	1900.69
429.454	2177.16
429.662	2259.08
429.869	2146.44
430.076	2254.98
430.284	2300.04
430.491	2349.19
430.699	2386.05
430.906	2459.78
431.114	2478.21
431.321	2543.75
431.528	2498.69
431.736	2828.42
431.943	2846.85
432.15	2846.85
432.358	2760.83
432.565	2900.09
432.772	3000.44
432.979	3072.12
433.187	3223.67
433.394	3182.71
433.601	3412.09
433.808	3479.67
434.016	3393.65
434.223	3477.62
434.43	3784.82
434.637	3629.17
434.844	3891.31
435.052	3915.89
435.259	3901.55
435.466	3938.41
435.673	3962.99
435.88	4264.04
436.087	4403.3
436.294	4382.82
436.501	4202.6
436.708	4495.46
436.915	4526.18
437.122	4644.96
437.329	4692.07
437.537	4968.54
437.743	5017.69
437.95	5036.13
438.157	5283.93
438.364	5455.96
438.571	5320.79
438.778	5361.75
438.985	5785.68
439.192	5564.5
439.399	5996.62
439.606	5814.35
439.813	6076.49
440.02	6348.87
440.227	6232.14
440.433	6246.48
440.64	6402.12
440.847	6326.35
441.054	6602.82
441.261	7135.29
441.467	6846.53
441.674	7002.18
441.881	7319.61
442.088	7186.49
442.294	7286.84
442.501	7262.27
442.708	7620.66
442.914	7913.52
443.121	8122.41
443.328	7919.67
443.534	8431.66
443.741	8192.05
443.948	7952.43
444.154	8665.13
444.361	8675.37
444.568	8863.78
444.774	8644.65
444.981	8740.9
445.187	8935.46
445.394	9488.41
445.6	9269.28
445.807	10235.92
446.013	9834.52
446.22	10039.31
446.426	10242.06
446.633	10457.1
446.839	10704.9
447.046	10516.49
447.252	11096.07
447.459	10852.36
447.665	10600.46
447.871	11532.28
448.078	11853.81
448.284	11200.51
448.491	11509.76
448.697	11968.5
448.903	12257.26
449.11	12148.72
449.316	11958.26
449.522	12257.26
449.728	12445.68
449.935	12617.71
450.141	12916.71
450.347	12951.53
450.553	12519.4
450.76	12787.69
450.966	13064.16
451.172	12857.32
451.378	13391.84
451.584	12898.28
451.791	13105.12
451.997	13457.37
452.203	13733.85
452.409	13447.13
452.615	13318.11
452.821	12998.63
453.027	12795.88
453.233	13301.73
453.44	12777.45
453.646	13117.41
453.852	13084.64
454.058	13324.26
454.264	13023.2
454.47	13207.52
454.676	12822.5
454.882	13406.17
455.088	12095.47
455.294	12386.29
455.5	12498.92
455.705	12650.47
455.911	12097.52
456.117	11857.91
456.323	11808.76
456.529	11128.83
456.735	11442.17
456.941	11319.29
457.147	10913.8
457.352	10702.86
457.558	10442.76
457.764	10434.57
457.97	10391.56
458.176	10244.11
458.381	10229.77
458.587	9642.01
458.793	9768.98
458.999	9252.89
459.204	9832.47
459.41	9379.87
459.616	9023.52
459.821	8978.47
460.027	8921.12
460.233	8648.74
460.438	8251.44
460.644	8599.59
460.85	8202.29
461.055	8120.37
461.261	8058.93
461.466	7307.32
461.672	7063.61
461.878	7551.03
462.083	7010.37
462.289	7034.94
462.494	6899.78
462.7	6604.87
462.905	6502.47
463.111	6733.89
463.316	6731.84
463.522	6553.67
463.727	6461.51
463.932	6520.9
464.138	6576.2
464.343	6525
464.549	6373.45
464.754	6443.08
464.959	6479.94
465.165	6426.7
465.37	6127.69
465.575	6068.3
465.781	6285.39
465.986	6234.19
466.191	6131.79
466.397	6021.2
466.602	5861.46
466.807	5847.12
467.012	5754.96
467.218	5847.12
467.423	5787.73
467.628	5818.45
467.833	6017.1
468.038	5830.74
468.244	5658.71
468.449	5863.51
468.654	5609.56
468.859	5611.61
469.064	5675.09
