Data from USB4F104151__276__14-02-22-159.txt Node

Date: Thu Mar 13 14:02:22 EDT 2025
User: louis
Spectrometer: USB4F10415
Trigger mode: 4
Integration Time (sec): 1.000000E-2
Scans to average: 1
Electric dark correction enabled: true
Nonlinearity correction enabled: false
Boxcar width: 0
XAxis mode: Wavelengths
Number of Pixels in Spectrum: 3648
>>>>>Begin Spectral Data<<<<<
178.204	-0.34
178.424	-0.34
178.644	-0.34
178.864	28.33
179.084	-26.96
179.304	-16.73
179.524	42.67
179.744	-39.25
179.964	-39.25
180.184	3.75
180.404	57
180.624	-31.06
180.844	5.8
181.064	-22.87
181.283	9.9
181.503	26.28
181.723	3.75
181.943	16.04
182.163	67.24
182.383	52.91
182.602	67.24
182.822	-18.77
183.042	13.99
183.262	79.53
183.482	-14.68
183.701	5.8
183.921	-47.44
184.141	-41.3
184.361	24.23
184.58	61.1
184.8	28.33
185.02	3.75
185.239	-4.44
185.459	26.28
185.679	36.52
185.898	-2.39
186.118	54.95
186.338	-22.87
186.557	83.63
186.777	9.9
186.997	59.05
187.216	-57.68
187.436	-4.44
187.655	16.04
187.875	-10.58
188.095	73.39
188.314	26.28
188.534	20.14
188.753	9.9
188.973	65.19
189.192	-10.58
189.412	11.95
189.631	69.29
189.851	73.39
190.07	9.9
190.29	9.9
190.509	22.19
190.729	-51.54
190.948	18.09
191.168	89.77
191.387	73.39
191.607	-10.58
191.826	87.72
192.045	40.62
192.265	16.04
192.484	-39.25
192.704	-4.44
192.923	-72.02
193.142	22.19
193.362	38.57
193.581	112.3
193.8	73.39
194.02	9.9
194.239	50.86
194.458	44.71
194.678	9.9
194.897	22.19
195.116	42.67
195.335	26.28
195.555	-12.63
195.774	-14.68
195.993	30.38
196.212	30.38
196.432	-24.92
196.651	52.91
196.87	26.28
197.089	83.63
197.308	16.04
197.528	75.43
197.747	-22.87
197.966	-37.2
198.185	59.05
198.404	40.62
198.623	61.1
198.842	65.19
199.062	11.95
199.281	-8.53
199.5	-18.77
199.719	20.14
199.938	59.05
200.157	26.28
200.376	34.47
200.595	40.62
200.814	36.52
201.033	71.34
201.252	9.9
201.471	44.71
201.69	-6.49
201.909	13.99
202.128	89.77
202.347	59.05
202.566	38.57
202.785	1.71
203.004	5.8
203.223	38.57
203.442	81.58
203.661	-10.58
203.879	-16.73
204.098	1.71
204.317	18.09
204.536	-31.06
204.755	50.86
204.974	-22.87
205.193	-20.82
205.411	-6.49
205.63	50.86
205.849	73.39
206.068	20.14
206.287	38.57
206.505	38.57
206.724	-6.49
206.943	34.47
207.162	38.57
207.381	-20.82
207.599	18.09
207.818	22.19
208.037	44.71
208.255	-51.54
208.474	-8.53
208.693	24.23
208.911	46.76
209.13	16.04
209.349	-6.49
209.567	1.71
209.786	20.14
210.005	5.8
210.223	-47.44
210.442	-39.25
210.661	1.71
210.879	42.67
211.098	-20.82
211.316	61.1
211.535	-6.49
211.753	22.19
211.972	20.14
212.191	97.96
212.409	38.57
212.628	-24.92
212.846	40.62
213.065	26.28
213.283	104.11
213.502	-39.25
213.72	36.52
213.938	52.91
214.157	-0.34
214.375	24.23
214.594	11.95
214.812	28.33
215.031	-35.16
215.249	-10.58
215.467	-31.06
215.686	50.86
215.904	18.09
216.122	26.28
216.341	52.91
216.559	69.29
216.778	77.48
216.996	-43.35
217.214	46.76
217.432	-14.68
217.651	18.09
217.869	24.23
218.087	-49.49
218.306	3.75
218.524	42.67
218.742	5.8
218.96	22.19
219.179	36.52
219.397	42.67
219.615	61.1
219.833	22.19
220.051	63.15
220.27	18.09
220.488	71.34
220.706	3.75
220.924	26.28
221.142	-4.44
221.36	-12.63
221.578	22.19
221.796	30.38
222.015	77.48
222.233	42.67
222.451	-47.44
222.669	36.52
222.887	26.28
223.105	13.99
223.323	38.57
223.541	-49.49
223.759	-8.53
223.977	38.57
224.195	108.2
224.413	-16.73
224.631	32.43
224.849	18.09
225.067	22.19
225.285	34.47
225.503	108.2
225.721	22.19
225.939	-4.44
226.157	-14.68
226.375	42.67
226.592	-35.16
226.81	61.1
227.028	9.9
227.246	50.86
227.464	-4.44
227.682	22.19
227.9	-51.54
228.117	11.95
228.335	38.57
228.553	18.09
228.771	-10.58
228.989	44.71
229.206	44.71
229.424	-12.63
229.642	-14.68
229.86	9.9
230.077	-12.63
230.295	46.76
230.513	20.14
230.731	-29.01
230.948	-4.44
231.166	79.53
231.384	77.48
231.601	-10.58
231.819	36.52
232.037	16.04
232.254	-55.64
232.472	32.43
232.689	-29.01
232.907	20.14
233.125	-18.77
233.342	16.04
233.56	-55.64
233.777	81.58
233.995	1.71
234.213	52.91
234.43	-8.53
234.648	34.47
234.865	-24.92
235.083	102.06
235.3	9.9
235.518	-22.87
235.735	-2.39
235.953	-20.82
236.17	-10.58
236.388	83.63
236.605	-31.06
236.822	22.19
237.04	46.76
237.257	67.24
237.475	-31.06
237.692	-12.63
237.909	3.75
238.127	-2.39
238.344	61.1
238.562	44.71
238.779	-78.16
238.996	11.95
239.214	22.19
239.431	18.09
239.648	46.76
239.865	9.9
240.083	16.04
240.3	65.19
240.517	77.48
240.735	57
240.952	-45.4
241.169	-29.01
241.386	63.15
241.603	-4.44
241.821	-35.16
242.038	-16.73
242.255	-31.06
242.472	52.91
242.689	28.33
242.907	71.34
243.124	18.09
243.341	9.9
243.558	-10.58
243.775	18.09
243.992	-18.77
244.209	-45.4
244.426	34.47
244.643	42.67
244.86	59.05
245.078	54.95
245.295	48.81
245.512	11.95
245.729	-2.39
245.946	-16.73
246.163	-14.68
246.38	59.05
246.597	-82.26
246.814	34.47
247.031	3.75
247.248	73.39
247.464	-18.77
247.681	22.19
247.898	118.44
248.115	30.38
248.332	61.1
248.549	16.04
248.766	-33.11
248.983	50.86
249.2	38.57
249.417	42.67
249.633	-29.01
249.85	26.28
250.067	7.85
250.284	42.67
250.501	22.19
250.717	38.57
250.934	-29.01
251.151	16.04
251.368	46.76
251.585	11.95
251.801	9.9
252.018	73.39
252.235	54.95
252.451	-31.06
252.668	-16.73
252.885	-6.49
253.102	16.04
253.318	28.33
253.535	-20.82
253.752	-39.25
253.968	24.23
254.185	-6.49
254.401	34.47
254.618	59.05
254.835	30.38
255.051	61.1
255.268	-20.82
255.484	59.05
255.701	-12.63
255.917	61.1
256.134	-12.63
256.351	50.86
256.567	1.71
256.784	22.19
257	20.14
257.217	106.15
257.433	67.24
257.65	18.09
257.866	30.38
258.082	-16.73
258.299	-8.53
258.515	44.71
258.732	3.75
258.948	5.8
259.165	-39.25
259.381	9.9
259.597	-10.58
259.814	59.05
260.03	26.28
260.246	59.05
260.463	28.33
260.679	28.33
260.895	42.67
261.112	-22.87
261.328	9.9
261.544	57
261.761	52.91
261.977	-6.49
262.193	65.19
262.409	34.47
262.626	11.95
262.842	50.86
263.058	1.71
263.274	42.67
263.49	34.47
263.707	28.33
263.923	-35.16
264.139	46.76
264.355	100.01
264.571	83.63
264.787	-41.3
265.004	30.38
265.22	20.14
265.436	124.58
265.652	-24.92
265.868	24.23
266.084	5.8
266.3	85.67
266.516	69.29
266.732	-18.77
266.948	-26.96
267.164	44.71
267.38	118.44
267.596	-14.68
267.812	71.34
268.028	24.23
268.244	26.28
268.46	65.19
268.676	-20.82
268.892	28.33
269.108	85.67
269.324	-31.06
269.54	7.85
269.756	18.09
269.972	26.28
270.188	3.75
270.403	-59.73
270.619	5.8
270.835	26.28
271.051	54.95
271.267	85.67
271.483	-22.87
271.698	46.76
271.914	34.47
272.13	40.62
272.346	61.1
272.562	52.91
272.777	71.34
272.993	44.71
273.209	28.33
273.425	18.09
273.64	-12.63
273.856	54.95
274.072	52.91
274.287	42.67
274.503	97.96
274.719	75.43
274.934	63.15
275.15	28.33
275.366	83.63
275.581	7.85
275.797	-22.87
276.012	-4.44
276.228	18.09
276.444	46.76
276.659	13.99
276.875	-80.21
277.09	-29.01
277.306	40.62
277.521	-10.58
277.737	85.67
277.952	67.24
278.168	83.63
278.383	-49.49
278.599	106.15
278.814	114.34
279.03	-37.2
279.245	-8.53
279.461	87.72
279.676	38.57
279.892	83.63
280.107	7.85
280.322	-14.68
280.538	85.67
280.753	81.58
280.969	36.52
281.184	-55.64
281.399	79.53
281.615	36.52
281.83	9.9
282.045	-29.01
282.26	46.76
282.476	-18.77
282.691	89.77
282.906	18.09
283.122	3.75
283.337	-26.96
283.552	46.76
283.767	-20.82
283.983	38.57
284.198	36.52
284.413	-29.01
284.628	11.95
284.843	-2.39
285.058	5.8
285.274	52.91
285.489	38.57
285.704	-31.06
285.919	3.75
286.134	20.14
286.349	67.24
286.564	50.86
286.779	34.47
286.995	77.48
287.21	42.67
287.425	18.09
287.64	18.09
287.855	36.52
288.07	-14.68
288.285	-51.54
288.5	69.29
288.715	36.52
288.93	-29.01
289.145	7.85
289.36	110.25
289.575	34.47
289.79	100.01
290.004	-20.82
290.219	-12.63
290.434	57
290.649	34.47
290.864	-20.82
291.079	44.71
291.294	9.9
291.509	18.09
291.724	65.19
291.938	7.85
292.153	36.52
292.368	61.1
292.583	1.71
292.798	18.09
293.012	75.43
293.227	91.82
293.442	-10.58
293.657	-55.64
293.871	95.91
294.086	65.19
294.301	-43.35
294.516	3.75
294.73	124.58
294.945	63.15
295.16	102.06
295.374	38.57
295.589	71.34
295.804	-10.58
296.018	67.24
296.233	57
296.447	-29.01
296.662	44.71
296.877	61.1
297.091	-43.35
297.306	13.99
297.52	36.52
297.735	30.38
297.949	77.48
298.164	3.75
298.378	18.09
298.593	-24.92
298.807	32.43
299.022	1.71
299.236	65.19
299.451	16.04
299.665	42.67
299.88	48.81
300.094	59.05
300.309	114.34
300.523	26.28
300.737	3.75
300.952	75.43
301.166	34.47
301.381	-35.16
301.595	120.49
301.809	36.52
302.024	-8.53
302.238	22.19
302.452	28.33
302.667	-18.77
302.881	102.06
303.095	1.71
303.309	77.48
303.524	42.67
303.738	20.14
303.952	61.1
304.166	-26.96
304.381	-14.68
304.595	79.53
304.809	16.04
305.023	-24.92
305.237	67.24
305.452	42.67
305.666	16.04
305.88	-47.44
306.094	-63.83
306.308	1.71
306.522	-16.73
306.736	116.39
306.95	-29.01
307.164	83.63
307.379	-10.58
307.593	3.75
307.807	52.91
308.021	36.52
308.235	69.29
308.449	108.2
308.663	-55.64
308.877	38.57
309.091	1.71
309.305	9.9
309.519	24.23
309.733	40.62
309.947	30.38
310.161	3.75
310.374	83.63
310.588	83.63
310.802	-29.01
311.016	11.95
311.23	-0.34
311.444	54.95
311.658	42.67
311.872	1.71
312.085	3.75
312.299	63.15
312.513	54.95
312.727	83.63
312.941	63.15
313.154	42.67
313.368	9.9
313.582	89.77
313.796	48.81
314.009	48.81
314.223	67.24
314.437	20.14
314.651	77.48
314.864	22.19
315.078	3.75
315.292	32.43
315.505	59.05
315.719	81.58
315.933	40.62
316.146	46.76
316.36	11.95
316.573	-2.39
316.787	32.43
317.001	30.38
317.214	-29.01
317.428	50.86
317.641	-2.39
317.855	13.99
318.068	11.95
318.282	85.67
318.495	42.67
318.709	-14.68
318.922	13.99
319.136	50.86
319.349	61.1
319.563	40.62
319.776	54.95
319.99	26.28
320.203	30.38
320.417	18.09
320.63	-6.49
320.843	44.71
321.057	34.47
321.27	30.38
321.483	57
321.697	42.67
321.91	-45.4
322.124	112.3
322.337	30.38
322.55	26.28
322.763	97.96
322.977	32.43
323.19	26.28
323.403	-14.68
323.617	-31.06
323.83	22.19
324.043	20.14
324.256	28.33
324.469	1.71
324.683	9.9
324.896	54.95
325.109	-10.58
325.322	30.38
325.535	100.01
325.748	5.8
325.962	-2.39
326.175	5.8
326.388	7.85
326.601	30.38
326.814	54.95
327.027	52.91
327.24	95.91
327.453	-45.4
327.666	40.62
327.879	61.1
328.092	24.23
328.305	7.85
328.518	-22.87
328.731	24.23
328.944	61.1
329.157	16.04
329.37	-53.59
329.583	11.95
329.796	81.58
330.009	40.62
330.222	-12.63
330.435	46.76
330.648	54.95
330.861	16.04
331.073	5.8
331.286	46.76
331.499	42.67
331.712	-53.59
331.925	32.43
332.138	18.09
332.35	46.76
332.563	42.67
332.776	-12.63
332.989	59.05
333.202	-41.3
333.414	9.9
333.627	20.14
333.84	38.57
334.053	-12.63
334.265	-53.59
334.478	52.91
334.691	91.82
334.903	-0.34
335.116	83.63
335.329	59.05
335.541	79.53
335.754	5.8
335.966	42.67
336.179	46.76
336.392	97.96
336.604	-35.16
336.817	42.67
337.029	9.9
337.242	-0.34
337.454	18.09
337.667	26.28
337.88	34.47
338.092	75.43
338.305	-0.34
338.517	54.95
338.729	104.11
338.942	89.77
339.154	52.91
339.367	36.52
339.579	3.75
339.792	-14.68
340.004	-35.16
340.217	32.43
340.429	110.25
340.641	83.63
340.854	100.01
341.066	-12.63
341.278	104.11
341.491	13.99
341.703	95.91
341.915	-10.58
342.128	-31.06
342.34	44.71
342.552	34.47
342.764	24.23
342.977	77.48
343.189	28.33
343.401	34.47
343.613	22.19
343.826	22.19
344.038	79.53
344.25	-14.68
344.462	63.15
344.674	69.29
344.886	-39.25
345.099	28.33
345.311	-2.39
345.523	16.04
345.735	42.67
345.947	18.09
346.159	-47.44
346.371	69.29
346.583	48.81
346.795	73.39
347.007	34.47
347.219	16.04
347.431	5.8
347.643	59.05
347.855	18.09
348.067	79.53
348.279	9.9
348.491	30.38
348.703	13.99
348.915	95.91
349.127	20.14
349.339	57
349.551	63.15
349.763	5.8
349.975	-8.53
350.187	48.81
350.399	52.91
350.61	93.87
350.822	46.76
351.034	81.58
351.246	42.67
351.458	54.95
351.669	61.1
351.881	79.53
352.093	38.57
352.305	67.24
352.517	28.33
352.728	59.05
352.94	73.39
353.152	36.52
353.363	79.53
353.575	26.28
353.787	97.96
353.999	46.76
354.21	48.81
354.422	57
354.633	-31.06
354.845	26.28
355.057	65.19
355.268	-8.53
355.48	87.72
355.692	7.85
355.903	34.47
356.115	34.47
356.326	85.67
356.538	71.34
356.749	3.75
356.961	52.91
357.172	-45.4
357.384	32.43
357.595	28.33
357.807	18.09
358.018	30.38
358.23	67.24
358.441	91.82
358.653	26.28
358.864	124.58
359.075	46.76
359.287	-24.92
359.498	28.33
359.709	34.47
359.921	108.2
360.132	-0.34
360.344	30.38
360.555	52.91
360.766	48.81
360.977	79.53
361.189	63.15
361.4	71.34
361.611	9.9
361.823	30.38
362.034	67.24
362.245	-18.77
362.456	30.38
362.667	18.09
362.879	73.39
363.09	26.28
363.301	-43.35
363.512	87.72
363.723	16.04
363.935	50.86
364.146	81.58
364.357	20.14
364.568	67.24
364.779	1.71
364.99	116.39
365.201	36.52
365.412	124.58
365.623	13.99
365.834	-6.49
366.045	42.67
366.256	87.72
366.467	120.49
366.678	36.52
366.889	16.04
367.1	22.19
367.311	59.05
367.522	18.09
367.733	20.14
367.944	9.9
368.155	59.05
368.366	50.86
368.577	-22.87
368.788	73.39
368.999	9.9
369.209	59.05
369.42	13.99
369.631	116.39
369.842	54.95
370.053	26.28
370.264	28.33
370.474	50.86
370.685	61.1
370.896	-6.49
371.107	-2.39
371.317	-20.82
371.528	22.19
371.739	1.71
371.95	-0.34
372.16	108.2
372.371	24.23
372.582	59.05
372.792	9.9
373.003	61.1
373.214	-8.53
373.424	50.86
373.635	50.86
373.846	100.01
374.056	-14.68
374.267	32.43
374.477	46.76
374.688	77.48
374.898	75.43
375.109	18.09
375.319	-26.96
375.53	69.29
375.74	-31.06
375.951	91.82
376.161	69.29
376.372	71.34
376.582	102.06
376.793	44.71
377.003	13.99
377.214	34.47
377.424	67.24
377.635	67.24
377.845	22.19
378.055	85.67
378.266	-59.73
378.476	52.91
378.686	24.23
378.897	-29.01
379.107	38.57
379.317	26.28
379.528	13.99
379.738	-0.34
379.948	42.67
380.158	75.43
380.369	-0.34
380.579	83.63
380.789	1.71
380.999	71.34
381.21	30.38
381.42	112.3
381.63	46.76
381.84	67.24
382.05	11.95
382.261	9.9
382.471	69.29
382.681	-0.34
382.891	24.23
383.101	67.24
383.311	30.38
383.521	30.38
383.731	3.75
383.941	13.99
384.151	67.24
384.361	67.24
384.571	34.47
384.781	5.8
384.991	120.49
385.201	9.9
385.411	-14.68
385.621	-16.73
385.831	-10.58
386.041	1.71
386.251	-2.39
386.461	38.57
386.671	7.85
386.881	118.44
387.091	22.19
387.301	52.91
387.511	42.67
387.72	73.39
387.93	67.24
388.14	26.28
388.35	-8.53
388.56	18.09
388.769	40.62
388.979	-39.25
389.189	26.28
389.399	-14.68
389.609	52.91
389.818	120.49
390.028	1.71
390.238	95.91
390.447	38.57
390.657	46.76
390.867	97.96
391.076	22.19
391.286	16.04
391.496	18.09
391.705	18.09
391.915	91.82
392.125	110.25
392.334	65.19
392.544	61.1
392.753	9.9
392.963	77.48
393.172	87.72
393.382	26.28
393.591	54.95
393.801	65.19
394.01	124.58
394.22	48.81
394.429	155.3
394.639	9.9
394.848	34.47
395.058	100.01
395.267	93.87
395.477	67.24
395.686	110.25
395.895	13.99
396.105	114.34
396.314	71.34
396.524	93.87
396.733	54.95
396.942	108.2
397.152	3.75
397.361	20.14
397.57	59.05
397.78	63.15
397.989	52.91
398.198	59.05
398.407	79.53
398.617	22.19
398.826	13.99
399.035	54.95
399.244	50.86
399.453	67.24
399.663	85.67
399.872	130.73
400.081	48.81
400.29	91.82
400.499	-16.73
400.708	85.67
400.917	73.39
401.127	44.71
401.336	93.87
401.545	106.15
401.754	100.01
401.963	85.67
402.172	52.91
402.381	116.39
402.59	85.67
402.799	93.87
403.008	147.11
403.217	112.3
403.426	50.86
403.635	20.14
403.844	11.95
404.053	102.06
404.262	108.2
404.471	79.53
404.68	89.77
404.888	95.91
405.097	46.76
405.306	145.06
405.515	100.01
405.724	65.19
405.933	87.72
406.142	134.82
406.35	140.97
406.559	87.72
406.768	75.43
406.977	169.64
407.185	130.73
407.394	226.98
407.603	69.29
407.812	91.82
408.02	165.54
408.229	122.54
408.438	140.97
408.646	151.21
408.855	132.78
409.064	173.74
409.272	149.16
409.481	136.87
409.69	177.83
409.898	200.36
410.107	212.65
410.315	206.5
410.524	163.5
410.733	214.7
410.941	214.7
411.15	190.12
411.358	235.18
411.567	263.85
411.775	208.55
411.984	269.99
412.192	274.09
412.401	345.77
412.609	269.99
412.818	280.23
413.026	331.43
413.234	364.2
413.443	294.57
413.651	313
413.86	345.77
414.068	460.45
414.276	339.62
414.485	368.29
414.693	386.72
414.901	489.12
415.11	374.44
415.318	407.2
415.526	403.11
415.734	452.26
415.943	509.6
416.151	452.26
416.359	552.61
416.567	446.12
416.776	452.26
416.984	507.55
417.192	577.19
417.4	544.42
417.608	618.15
417.817	624.29
418.025	704.16
418.233	622.24
418.441	636.58
418.649	681.63
418.857	802.46
419.065	702.11
419.273	775.84
419.481	857.76
419.689	796.32
419.897	827.04
420.105	824.99
420.313	908.96
420.521	974.49
420.729	972.44
420.937	951.96
421.145	1005.21
421.353	970.4
421.561	1205.91
421.769	1158.81
421.977	1189.53
422.185	1169.05
422.393	1207.96
422.601	1396.37
422.809	1353.37
423.017	1375.89
423.224	1392.28
423.432	1466
423.64	1390.23
423.848	1527.44
424.056	1502.87
424.263	1621.65
424.471	1715.86
424.679	1693.33
424.887	1709.71
425.094	1799.82
425.302	1838.73
425.51	1943.18
425.718	2031.24
425.925	1924.75
426.133	2061.96
426.341	2150.03
426.548	2229.9
426.756	2248.33
426.964	2240.14
427.171	2436.74
427.379	2465.41
427.586	2533
427.794	2614.91
428.001	2750.08
428.209	2854.53
428.417	2745.98
428.624	2975.36
428.832	2944.64
429.039	2778.75
429.247	2950.78
429.454	3190.39
429.662	3456.63
429.869	3249.79
430.076	3354.23
430.284	3413.62
430.491	3554.93
430.699	3679.86
430.906	3677.81
431.114	3751.54
431.321	3858.03
431.528	3987.05
431.736	4249.19
431.943	4402.79
432.15	4177.51
432.358	4408.94
432.565	4490.85
432.772	4488.81
432.979	4830.82
433.187	4802.15
433.394	4832.86
433.601	5156.44
433.808	5166.68
434.016	5146.2
434.223	5346.91
434.43	5701.2
434.637	5539.41
434.844	5916.24
435.052	5889.62
435.259	5901.9
435.466	6061.65
435.673	6014.54
435.88	6536.77
436.087	6747.72
436.294	6676.04
436.501	6661.7
436.708	6850.11
436.915	6975.04
437.122	7374.39
437.329	7353.91
437.537	7493.18
437.743	7450.17
437.95	7718.45
438.157	7917.11
438.364	8107.57
438.571	8031.79
438.778	8222.25
438.985	8955.43
439.192	8578.6
439.399	8820.26
439.606	8820.26
439.813	9322.01
440.02	9893.4
440.227	9555.48
440.433	9590.3
440.64	9811.48
440.847	9780.76
441.054	9922.07
441.261	10395.15
441.467	10393.1
441.674	10839.56
441.881	11013.63
442.088	11060.74
442.294	10929.67
442.501	11441.66
442.708	11703.8
442.914	11894.26
443.121	12439.02
443.328	12127.73
443.534	12881.38
443.741	12830.18
443.948	12420.59
444.154	13139.43
444.361	13391.33
444.568	13340.13
444.774	13239.78
444.981	13559.26
445.187	14028.24
445.394	14673.35
445.6	14165.46
445.807	15564.22
446.013	14904.78
446.22	15173.06
446.426	15715.77
446.633	15939
446.839	16494
447.046	15824.31
447.252	16606.64
447.459	16754.09
447.665	16537.01
447.871	17237.41
448.078	18185.62
448.284	17180.07
448.491	17587.61
448.697	18376.08
448.903	18544.02
449.11	18904.46
449.316	18677.13
449.522	18523.54
449.728	19148.17
449.935	19434.88
450.141	19459.46
450.347	19811.71
450.553	19139.97
450.76	19492.23
450.966	20354.42
451.172	19944.83
451.378	20563.31
451.584	19875.2
451.791	20407.67
451.997	20282.74
452.203	20788.59
452.409	20548.98
452.615	20604.27
452.821	19770.75
453.027	19803.52
453.233	20540.79
453.44	20135.29
453.646	20276.6
453.852	20036.98
454.058	20555.12
454.264	19991.93
454.47	20350.32
454.676	19647.87
454.882	20454.77
455.088	18521.49
455.294	18922.89
455.5	19082.63
455.705	19318.15
455.911	18752.91
456.117	18259.35
456.323	18007.45
456.529	16930.22
456.735	17651.1
456.941	17339.81
457.147	17141.16
457.352	16573.87
457.558	16278.96
457.764	16248.24
457.97	16074.17
458.176	15760.83
458.381	15875.51
458.587	14849.48
458.793	15140.29
458.999	13878.74
459.204	15324.61
459.41	14986.69
459.616	13893.08
459.821	13782.49
460.027	13852.12
460.233	13422.05
460.438	12799.46
460.644	12979.68
460.85	12586.47
461.055	12207.6
461.261	12170.74
461.466	11521.53
461.672	11077.12
461.878	11881.97
462.083	11009.54
462.289	10747.4
462.494	10657.29
462.7	10290.7
462.905	9920.02
463.111	10317.33
463.316	10128.91
463.522	10051.09
463.727	10221.07
463.932	10006.03
464.138	10001.94
464.343	10141.2
464.549	9653.78
464.754	10143.25
464.959	9799.19
465.165	9991.7
465.37	9520.67
465.575	9297.44
465.781	9586.2
465.986	9680.41
466.191	9233.95
466.397	9004.58
466.602	8744.49
466.807	8910.37
467.012	9135.65
467.218	8971.81
467.423	8707.62
467.628	8791.59
467.833	9291.29
468.038	8881.7
468.244	8789.54
468.449	9014.82
468.654	8554.02
468.859	8758.82
469.064	8664.61
