Data from USB4F104151__48__13-53-24-237.txt Node

Date: Thu Mar 13 13:53:24 EDT 2025
User: louis
Spectrometer: USB4F10415
Trigger mode: 4
Integration Time (sec): 1.000000E-2
Scans to average: 1
Electric dark correction enabled: true
Nonlinearity correction enabled: false
Boxcar width: 0
XAxis mode: Wavelengths
Number of Pixels in Spectrum: 3648
>>>>>Begin Spectral Data<<<<<
178.204	-74.24
178.424	-74.24
178.644	-74.24
178.864	-78.33
179.084	-66.05
179.304	-53.76
179.524	40.45
179.744	40.45
179.964	22.02
180.184	-37.38
180.404	-70.14
180.624	13.82
180.844	-2.56
181.064	3.58
181.283	24.06
181.503	48.64
181.723	-29.18
181.943	-55.81
182.163	24.06
182.383	-35.33
182.602	144.89
182.822	46.59
183.042	-27.14
183.262	15.87
183.482	24.06
183.701	3.58
183.921	62.98
184.141	-29.18
184.361	42.5
184.58	42.5
184.8	22.02
185.02	67.07
185.239	13.82
185.459	50.69
185.679	105.98
185.898	-14.85
186.118	32.26
186.338	36.35
186.557	83.45
186.777	15.87
186.997	-29.18
187.216	24.06
187.436	71.17
187.655	42.5
187.875	-25.09
188.095	-0.51
188.314	-45.57
188.534	5.63
188.753	-12.8
188.973	-4.61
189.192	5.63
189.412	-23.04
189.631	93.69
189.851	-59.9
190.07	65.02
190.29	-12.8
190.509	46.59
190.729	-39.42
190.948	67.07
191.168	30.21
191.387	17.92
191.607	24.06
191.826	-31.23
192.045	58.88
192.265	-35.33
192.484	-41.47
192.704	-10.75
192.923	38.4
193.142	24.06
193.362	15.87
193.581	-16.9
193.8	19.97
194.02	-10.75
194.239	1.54
194.458	79.36
194.678	-20.99
194.897	-39.42
195.116	7.68
195.335	-4.61
195.555	11.78
195.774	58.88
195.993	-51.71
196.212	56.83
196.432	-10.75
196.651	44.54
196.87	-12.8
197.089	24.06
197.308	13.82
197.528	75.26
197.747	-6.66
197.966	54.78
198.185	-6.66
198.404	28.16
198.623	-41.47
198.842	-6.66
199.062	7.68
199.281	-25.09
199.5	9.73
199.719	32.26
199.938	-2.56
200.157	-64
200.376	44.54
200.595	-29.18
200.814	71.17
201.033	36.35
201.252	5.63
201.471	-4.61
201.69	-102.91
201.909	24.06
202.128	85.5
202.347	30.21
202.566	9.73
202.785	-27.14
203.004	7.68
203.223	38.4
203.442	-31.23
203.661	9.73
203.879	32.26
204.098	75.26
204.317	-27.14
204.536	19.97
204.755	5.63
204.974	36.35
205.193	-35.33
205.411	11.78
205.63	50.69
205.849	-33.28
206.068	-0.51
206.287	56.83
206.505	-14.85
206.724	11.78
206.943	-4.61
207.162	67.07
207.381	40.45
207.599	7.68
207.818	-86.53
208.037	-49.66
208.255	1.54
208.474	60.93
208.693	24.06
208.911	19.97
209.13	-27.14
209.349	9.73
209.567	24.06
209.786	-57.86
210.005	65.02
210.223	-6.66
210.442	3.58
210.661	22.02
210.879	15.87
211.098	58.88
211.316	-18.94
211.535	-31.23
211.753	-16.9
211.972	9.73
212.191	-20.99
212.409	28.16
212.628	42.5
212.846	50.69
213.065	50.69
213.283	-16.9
213.502	81.41
213.72	42.5
213.938	1.54
214.157	17.92
214.375	-0.51
214.594	44.54
214.812	28.16
215.031	-18.94
215.249	22.02
215.467	54.78
215.686	52.74
215.904	13.82
216.122	65.02
216.341	11.78
216.559	83.45
216.778	17.92
216.996	30.21
217.214	-6.66
217.432	15.87
217.651	19.97
217.869	19.97
218.087	67.07
218.306	75.26
218.524	60.93
218.742	17.92
218.96	-16.9
219.179	-6.66
219.397	-47.62
219.615	30.21
219.833	7.68
220.051	65.02
220.27	58.88
220.488	11.78
220.706	56.83
220.924	52.74
221.142	69.12
221.36	-4.61
221.578	34.3
221.796	-20.99
222.015	-35.33
222.233	11.78
222.451	62.98
222.669	30.21
222.887	9.73
223.105	42.5
223.323	-25.09
223.541	-47.62
223.759	-49.66
223.977	-57.86
224.195	5.63
224.413	19.97
224.631	17.92
224.849	1.54
225.067	44.54
225.285	1.54
225.503	60.93
225.721	-49.66
225.939	1.54
226.157	58.88
226.375	1.54
226.592	-35.33
226.81	3.58
227.028	110.08
227.246	87.55
227.464	38.4
227.682	32.26
227.9	99.84
228.117	-23.04
228.335	11.78
228.553	-55.81
228.771	13.82
228.989	-61.95
229.206	-16.9
229.424	67.07
229.642	-6.66
229.86	-20.99
230.077	67.07
230.295	73.21
230.513	-33.28
230.731	11.78
230.948	11.78
231.166	28.16
231.384	97.79
231.601	36.35
231.819	-23.04
232.037	-20.99
232.254	7.68
232.472	11.78
232.689	28.16
232.907	-16.9
233.125	-29.18
233.342	30.21
233.56	17.92
233.777	1.54
233.995	15.87
234.213	28.16
234.43	-23.04
234.648	38.4
234.865	-27.14
235.083	48.64
235.3	46.59
235.518	42.5
235.735	50.69
235.953	50.69
236.17	-4.61
236.388	40.45
236.605	67.07
236.822	15.87
237.04	-12.8
237.257	46.59
237.475	7.68
237.692	52.74
237.909	-16.9
238.127	89.6
238.344	-53.76
238.562	-2.56
238.779	11.78
238.996	54.78
239.214	36.35
239.431	56.83
239.648	58.88
239.865	17.92
240.083	52.74
240.3	65.02
240.517	-39.42
240.735	-35.33
240.952	60.93
241.169	24.06
241.386	-43.52
241.603	-20.99
241.821	-0.51
242.038	7.68
242.255	30.21
242.472	-2.56
242.689	42.5
242.907	-6.66
243.124	-14.85
243.341	-14.85
243.558	15.87
243.775	26.11
243.992	54.78
244.209	-18.94
244.426	-39.42
244.643	38.4
244.86	-6.66
245.078	22.02
245.295	42.5
245.512	-10.75
245.729	-90.62
245.946	34.3
246.163	-14.85
246.38	60.93
246.597	-33.28
246.814	50.69
247.031	-31.23
247.248	-0.51
247.464	-2.56
247.681	40.45
247.898	-2.56
248.115	-27.14
248.332	-16.9
248.549	-57.86
248.766	-2.56
248.983	3.58
249.2	-23.04
249.417	28.16
249.633	11.78
249.85	-2.56
250.067	11.78
250.284	7.68
250.501	60.93
250.717	19.97
250.934	-29.18
251.151	101.89
251.368	5.63
251.585	44.54
251.801	15.87
252.018	-88.57
252.235	-4.61
252.451	13.82
252.668	22.02
252.885	34.3
253.102	50.69
253.318	26.11
253.535	24.06
253.752	3.58
253.968	-33.28
254.185	40.45
254.401	79.36
254.618	75.26
254.835	3.58
255.051	24.06
255.268	50.69
255.484	26.11
255.701	5.63
255.917	42.5
256.134	5.63
256.351	44.54
256.567	-2.56
256.784	-20.99
257	-53.76
257.217	32.26
257.433	40.45
257.65	-53.76
257.866	15.87
258.082	-6.66
258.299	9.73
258.515	5.63
258.732	-25.09
258.948	56.83
259.165	13.82
259.381	46.59
259.597	-18.94
259.814	48.64
260.03	-31.23
260.246	-29.18
260.463	-39.42
260.679	9.73
260.895	75.26
261.112	-6.66
261.328	13.82
261.544	22.02
261.761	28.16
261.977	38.4
262.193	9.73
262.409	69.12
262.626	-20.99
262.842	-33.28
263.058	-10.75
263.274	30.21
263.49	-10.75
263.707	77.31
263.923	13.82
264.139	22.02
264.355	108.03
264.571	-4.61
264.787	15.87
265.004	26.11
265.22	-59.9
265.436	-27.14
265.652	36.35
265.868	52.74
266.084	52.74
266.3	56.83
266.516	-10.75
266.732	65.02
266.948	42.5
267.164	73.21
267.38	1.54
267.596	67.07
267.812	54.78
268.028	-33.28
268.244	5.63
268.46	-20.99
268.676	-23.04
268.892	71.17
269.108	-23.04
269.324	52.74
269.54	-14.85
269.756	42.5
269.972	-8.7
270.188	-70.14
270.403	19.97
270.619	58.88
270.835	34.3
271.051	52.74
271.267	-31.23
271.483	48.64
271.698	38.4
271.914	32.26
272.13	-8.7
272.346	24.06
272.562	5.63
272.777	75.26
272.993	40.45
273.209	3.58
273.425	-20.99
273.64	9.73
273.856	136.7
274.072	-0.51
274.287	-14.85
274.503	65.02
274.719	30.21
274.934	-2.56
275.15	9.73
275.366	-31.23
275.581	34.3
275.797	-6.66
276.012	40.45
276.228	19.97
276.444	50.69
276.659	77.31
276.875	-10.75
277.09	26.11
277.306	-4.61
277.521	36.35
277.737	3.58
277.952	-0.51
278.168	-37.38
278.383	62.98
278.599	-0.51
278.814	22.02
279.03	50.69
279.245	-31.23
279.461	36.35
279.676	65.02
279.892	101.89
280.107	-39.42
280.322	26.11
280.538	-35.33
280.753	93.69
280.969	-4.61
281.184	26.11
281.399	30.21
281.615	24.06
281.83	40.45
282.045	22.02
282.26	73.21
282.476	42.5
282.691	77.31
282.906	13.82
283.122	5.63
283.337	48.64
283.552	85.5
283.767	44.54
283.983	58.88
284.198	40.45
284.413	22.02
284.628	17.92
284.843	48.64
285.058	42.5
285.274	-4.61
285.489	-29.18
285.704	52.74
285.919	48.64
286.134	28.16
286.349	38.4
286.564	-4.61
286.779	30.21
286.995	11.78
287.21	44.54
287.425	-20.99
287.64	-23.04
287.855	36.35
288.07	26.11
288.285	83.45
288.5	44.54
288.715	30.21
288.93	-16.9
289.145	26.11
289.36	-35.33
289.575	3.58
289.79	28.16
290.004	95.74
290.219	-16.9
290.434	22.02
290.649	-23.04
290.864	38.4
291.079	19.97
291.294	24.06
291.509	-2.56
291.724	15.87
291.938	73.21
292.153	77.31
292.368	-6.66
292.583	52.74
292.798	30.21
293.012	13.82
293.227	58.88
293.442	65.02
293.657	73.21
293.871	40.45
294.086	75.26
294.301	60.93
294.516	-10.75
294.73	-31.23
294.945	-4.61
295.16	42.5
295.374	52.74
295.589	19.97
295.804	-16.9
296.018	77.31
296.233	79.36
296.447	85.5
296.662	52.74
296.877	-6.66
297.091	77.31
297.306	-41.47
297.52	13.82
297.735	-6.66
297.949	34.3
298.164	-43.52
298.378	73.21
298.593	34.3
298.807	9.73
299.022	30.21
299.236	11.78
299.451	40.45
299.665	58.88
299.88	48.64
300.094	40.45
300.309	-4.61
300.523	56.83
300.737	-45.57
300.952	-0.51
301.166	17.92
301.381	-6.66
301.595	19.97
301.809	71.17
302.024	79.36
302.238	34.3
302.452	85.5
302.667	-47.62
302.881	54.78
303.095	32.26
303.309	81.41
303.524	-14.85
303.738	-16.9
303.952	-14.85
304.166	7.68
304.381	38.4
304.595	105.98
304.809	19.97
305.023	3.58
305.237	22.02
305.452	17.92
305.666	54.78
305.88	58.88
306.094	11.78
306.308	11.78
306.522	26.11
306.736	15.87
306.95	-43.52
307.164	71.17
307.379	32.26
307.593	46.59
307.807	-20.99
308.021	44.54
308.235	69.12
308.449	50.69
308.663	-10.75
308.877	48.64
309.091	-43.52
309.305	85.5
309.519	-33.28
309.733	58.88
309.947	83.45
310.161	-2.56
310.374	7.68
310.588	19.97
310.802	5.63
311.016	87.55
311.23	-14.85
311.444	-25.09
311.658	24.06
311.872	-20.99
312.085	52.74
312.299	36.35
312.513	28.16
312.727	3.58
312.941	56.83
313.154	28.16
313.368	-14.85
313.582	62.98
313.796	44.54
314.009	-4.61
314.223	26.11
314.437	-0.51
314.651	17.92
314.864	11.78
315.078	97.79
315.292	42.5
315.505	15.87
315.719	60.93
315.933	73.21
316.146	50.69
316.36	24.06
316.573	-33.28
316.787	40.45
317.001	-6.66
317.214	3.58
317.428	40.45
317.641	-8.7
317.855	-18.94
318.068	26.11
318.282	36.35
318.495	99.84
318.709	103.93
318.922	-18.94
319.136	151.04
319.349	-18.94
319.563	40.45
319.776	11.78
319.99	30.21
320.203	-20.99
320.417	19.97
320.63	3.58
320.843	50.69
321.057	24.06
321.27	17.92
321.483	36.35
321.697	26.11
321.91	13.82
322.124	52.74
322.337	40.45
322.55	-29.18
322.763	15.87
322.977	-6.66
323.19	-31.23
323.403	-6.66
323.617	-29.18
323.83	67.07
324.043	52.74
324.256	32.26
324.469	58.88
324.683	-51.71
324.896	77.31
325.109	69.12
325.322	40.45
325.535	44.54
325.748	30.21
325.962	32.26
326.175	17.92
326.388	-8.7
326.601	-27.14
326.814	-29.18
327.027	67.07
327.24	87.55
327.453	3.58
327.666	28.16
327.879	-4.61
328.092	38.4
328.305	-23.04
328.518	-14.85
328.731	54.78
328.944	17.92
329.157	-31.23
329.37	65.02
329.583	-0.51
329.796	71.17
330.009	71.17
330.222	24.06
330.435	17.92
330.648	75.26
330.861	15.87
331.073	42.5
331.286	-82.43
331.499	50.69
331.712	40.45
331.925	58.88
332.138	-16.9
332.35	-64
332.563	11.78
332.776	105.98
332.989	-16.9
333.202	1.54
333.414	22.02
333.627	75.26
333.84	50.69
334.053	19.97
334.265	38.4
334.478	67.07
334.691	22.02
334.903	38.4
335.116	42.5
335.329	7.68
335.541	58.88
335.754	93.69
335.966	44.54
336.179	46.59
336.392	42.5
336.604	54.78
336.817	17.92
337.029	30.21
337.242	9.73
337.454	34.3
337.667	7.68
337.88	19.97
338.092	58.88
338.305	15.87
338.517	1.54
338.729	17.92
338.942	15.87
339.154	38.4
339.367	34.3
339.579	-2.56
339.792	24.06
340.004	36.35
340.217	-20.99
340.429	48.64
340.641	15.87
340.854	120.32
341.066	-4.61
341.278	-6.66
341.491	5.63
341.703	26.11
341.915	83.45
342.128	7.68
342.34	52.74
342.552	87.55
342.764	5.63
342.977	62.98
343.189	32.26
343.401	5.63
343.613	3.58
343.826	52.74
344.038	54.78
344.25	1.54
344.462	13.82
344.674	32.26
344.886	19.97
345.099	60.93
345.311	7.68
345.523	22.02
345.735	19.97
345.947	9.73
346.159	-16.9
346.371	1.54
346.583	52.74
346.795	48.64
347.007	19.97
347.219	-51.71
347.431	7.68
347.643	32.26
347.855	40.45
348.067	3.58
348.279	-14.85
348.491	-12.8
348.703	19.97
348.915	19.97
349.127	-16.9
349.339	67.07
349.551	56.83
349.763	126.46
349.975	30.21
350.187	38.4
350.399	-10.75
350.61	9.73
350.822	62.98
351.034	71.17
351.246	-57.86
351.458	32.26
351.669	36.35
351.881	60.93
352.093	36.35
352.305	13.82
352.517	30.21
352.728	75.26
352.94	46.59
353.152	19.97
353.363	-12.8
353.575	118.27
353.787	-12.8
353.999	34.3
354.21	-8.7
354.422	-55.81
354.633	42.5
354.845	52.74
355.057	-14.85
355.268	38.4
355.48	-2.56
355.692	77.31
355.903	28.16
356.115	32.26
356.326	-25.09
356.538	5.63
356.749	30.21
356.961	77.31
357.172	-41.47
357.384	108.03
357.595	15.87
357.807	65.02
358.018	-4.61
358.23	19.97
358.441	-20.99
358.653	81.41
358.864	7.68
359.075	13.82
359.287	-41.47
359.498	28.16
359.709	-18.94
359.921	89.6
360.132	-20.99
360.344	34.3
360.555	-10.75
360.766	30.21
360.977	17.92
361.189	75.26
361.4	-29.18
361.611	28.16
361.823	60.93
362.034	42.5
362.245	7.68
362.456	-14.85
362.667	85.5
362.879	-20.99
363.09	-14.85
363.301	77.31
363.512	52.74
363.723	28.16
363.935	54.78
364.146	24.06
364.357	32.26
364.568	17.92
364.779	-4.61
364.99	50.69
365.201	24.06
365.412	69.12
365.623	-41.47
365.834	75.26
366.045	48.64
366.256	67.07
366.467	22.02
366.678	32.26
366.889	50.69
367.1	91.65
367.311	9.73
367.522	42.5
367.733	24.06
367.944	52.74
368.155	65.02
368.366	-6.66
368.577	48.64
368.788	1.54
368.999	36.35
369.209	62.98
369.42	77.31
369.631	60.93
369.842	48.64
370.053	-4.61
370.264	1.54
370.474	-0.51
370.685	32.26
370.896	60.93
371.107	26.11
371.317	93.69
371.528	95.74
371.739	71.17
371.95	34.3
372.16	60.93
372.371	-20.99
372.582	73.21
372.792	58.88
373.003	-4.61
373.214	75.26
373.424	-4.61
373.635	32.26
373.846	46.59
374.056	-25.09
374.267	67.07
374.477	-27.14
374.688	91.65
374.898	83.45
375.109	13.82
375.319	-12.8
375.53	19.97
375.74	97.79
375.951	153.09
376.161	28.16
376.372	36.35
376.582	11.78
376.793	-20.99
377.003	11.78
377.214	65.02
377.424	46.59
377.635	36.35
377.845	-49.66
378.055	48.64
378.266	30.21
378.476	118.27
378.686	-33.28
378.897	46.59
379.107	22.02
379.317	48.64
379.528	44.54
379.738	28.16
379.948	-59.9
380.158	-4.61
380.369	89.6
380.579	22.02
380.789	34.3
380.999	79.36
381.21	73.21
381.42	91.65
381.63	30.21
381.84	-16.9
382.05	15.87
382.261	17.92
382.471	58.88
382.681	36.35
382.891	22.02
383.101	87.55
383.311	28.16
383.521	-45.57
383.731	-23.04
383.941	75.26
384.151	54.78
384.361	11.78
384.571	32.26
384.781	99.84
384.991	17.92
385.201	-12.8
385.411	40.45
385.621	-6.66
385.831	48.64
386.041	36.35
386.251	-23.04
386.461	60.93
386.671	54.78
386.881	44.54
387.091	-4.61
387.301	120.32
387.511	46.59
387.72	7.68
387.93	13.82
388.14	54.78
388.35	44.54
388.56	71.17
388.769	83.45
388.979	-0.51
389.189	52.74
389.399	54.78
389.609	19.97
389.818	89.6
390.028	3.58
390.238	85.5
390.447	-29.18
390.657	89.6
390.867	50.69
391.076	48.64
391.286	48.64
391.496	-6.66
391.705	75.26
391.915	7.68
392.125	-2.56
392.334	73.21
392.544	46.59
392.753	48.64
392.963	22.02
393.172	95.74
393.382	42.5
393.591	132.61
393.801	42.5
394.01	91.65
394.22	85.5
394.429	77.31
394.639	85.5
394.848	22.02
395.058	32.26
395.267	19.97
395.477	54.78
395.686	44.54
395.895	81.41
396.105	151.04
396.314	62.98
396.524	52.74
396.733	93.69
396.942	-14.85
397.152	56.83
397.361	1.54
397.57	99.84
397.78	108.03
397.989	42.5
398.198	58.88
398.407	24.06
398.617	128.51
398.826	3.58
399.035	48.64
399.244	91.65
399.453	91.65
399.663	97.79
399.872	108.03
400.081	19.97
400.29	89.6
400.499	46.59
400.708	99.84
400.917	28.16
401.127	26.11
401.336	24.06
401.545	183.81
401.754	40.45
401.963	91.65
402.172	-2.56
402.381	9.73
402.59	65.02
402.799	108.03
403.008	42.5
403.217	56.83
403.426	73.21
403.635	101.89
403.844	65.02
404.053	120.32
404.262	40.45
404.471	99.84
404.68	124.41
404.888	62.98
405.097	118.27
405.306	89.6
405.515	77.31
405.724	69.12
405.933	95.74
406.142	177.66
406.35	128.51
406.559	87.55
406.768	52.74
406.977	124.41
407.185	54.78
407.394	120.32
407.603	126.46
407.812	134.65
408.02	83.45
408.229	87.55
408.438	202.24
408.646	99.84
408.855	91.65
409.064	155.13
409.272	144.89
409.481	177.66
409.69	163.33
409.898	167.42
410.107	189.95
410.315	114.17
410.524	179.71
410.733	194.05
410.941	171.52
411.15	230.91
411.358	171.52
411.567	255.48
411.775	251.39
411.984	259.58
412.192	247.29
412.401	230.91
412.609	278.01
412.818	271.87
413.026	271.87
413.234	343.55
413.443	241.15
413.651	355.83
413.86	333.31
414.068	290.3
414.276	374.27
414.485	402.94
414.693	359.93
414.901	409.08
415.11	355.83
415.318	376.31
415.526	419.32
415.734	411.13
415.943	443.9
416.151	462.33
416.359	445.95
416.567	413.18
416.776	534.01
416.984	540.15
417.192	503.29
417.4	540.15
417.608	579.06
417.817	534.01
418.025	538.1
418.233	644.6
418.441	650.74
418.649	703.99
418.857	671.22
419.065	699.89
419.273	716.28
419.481	790
419.689	859.63
419.897	910.83
420.105	892.4
420.313	841.2
420.521	867.83
420.729	912.88
420.937	974.32
421.145	980.47
421.353	1037.81
421.561	1027.57
421.769	1113.58
421.977	1160.69
422.185	1103.34
422.393	1209.84
422.601	1258.99
422.809	1304.04
423.017	1254.89
423.224	1291.76
423.432	1330.67
423.64	1514.98
423.848	1435.11
424.056	1463.79
424.263	1504.75
424.471	1543.66
424.679	1504.75
424.887	1762.79
425.094	1775.08
425.302	1691.11
425.51	1897.96
425.718	1902.05
425.925	1887.72
426.133	2002.4
426.341	1998.31
426.548	2227.68
426.756	2207.2
426.964	2209.25
427.171	2293.21
427.379	2297.31
427.586	2469.34
427.794	2485.72
428.001	2620.89
428.209	2749.91
428.417	2596.31
428.624	2825.68
428.832	2872.79
429.039	2899.41
429.247	2829.78
429.454	3126.74
429.662	3290.57
429.869	2985.43
430.076	3329.49
430.284	3286.48
430.491	3440.08
430.699	3724.74
430.906	3442.12
431.114	3599.82
431.321	3700.17
431.528	3890.63
431.736	3968.45
431.943	4318.65
432.15	4056.51
432.358	4120
432.565	4332.99
432.772	4345.28
432.979	4619.71
433.187	4640.19
433.394	4730.3
433.601	4933.04
433.808	5066.16
434.016	4998.58
434.223	5254.58
434.43	5590.44
434.637	5393.84
434.844	5756.33
435.052	5963.17
435.259	5780.9
435.466	5905.83
435.673	5729.7
435.88	6251.94
436.087	6598.04
436.294	6579.61
436.501	6530.46
436.708	6563.23
436.915	6682.01
437.122	7110.04
437.329	6886.81
437.537	7189.91
437.743	7368.08
437.95	7257.49
438.157	7687.56
438.364	7800.2
438.571	7949.7
438.778	8103.3
438.985	8846.71
439.192	8211.84
439.399	8617.34
439.606	8414.59
439.813	8783.23
440.02	9424.24
440.227	9307.51
440.433	9104.76
440.64	9436.53
440.847	9358.71
441.054	9665.9
441.261	10063.21
441.467	10067.3
441.674	10540.38
441.881	10569.05
442.088	10669.41
442.294	10560.86
442.501	10884.44
442.708	11089.24
442.914	11480.4
443.121	11928.91
443.328	11914.57
443.534	12557.63
443.741	12031.3
443.948	12195.14
444.154	13008.19
444.361	12946.75
444.568	13047.1
444.774	12840.25
444.981	12965.18
445.187	13360.44
445.394	13976.87
445.6	13921.58
445.807	15107.35
446.013	14482.72
446.22	14654.75
446.426	15308.05
446.633	15312.15
446.839	16092.43
447.046	15242.52
447.252	16100.62
447.459	16229.64
447.665	15891.73
447.871	16794.88
448.078	17782
448.284	16792.83
448.491	17050.88
448.697	17755.38
448.903	17968.37
449.11	18320.62
449.316	18199.79
449.522	18240.75
449.728	18867.42
449.935	18922.72
450.141	18765.03
450.347	19367.13
450.553	18593
450.76	18810.08
450.966	19485.91
451.172	19424.47
451.378	19856.59
451.584	19293.4
451.791	19819.73
451.997	19688.66
452.203	20098.25
452.409	20296.91
452.615	19758.29
452.821	19078.36
453.027	18855.14
453.233	19832.02
453.44	18986.21
453.646	19334.36
453.852	19381.46
454.058	19414.23
454.264	19121.37
454.47	19406.04
454.676	19006.69
454.882	19614.93
455.088	17818.86
455.294	18418.92
455.5	18144.49
455.705	18627.81
455.911	17808.62
456.117	17282.3
456.323	17169.66
456.529	16231.69
456.735	16991.48
456.941	16700.67
457.147	16340.23
457.352	15910.16
457.558	15408.4
457.764	15555.86
457.97	15224.09
458.176	14855.45
458.381	14839.07
458.587	14054.7
458.793	14140.71
458.999	13493.55
459.204	14228.77
459.41	13987.11
459.616	13020.47
459.821	13233.46
460.027	13059.38
460.233	12854.59
460.438	12168.52
460.644	12518.72
460.85	11502.93
461.055	11502.93
461.261	11511.12
461.466	10915.16
461.672	10358.11
461.878	11011.42
462.083	10235.24
462.289	10181.99
462.494	10089.83
462.7	9739.63
462.905	9229.68
463.111	9737.58
463.316	9866.6
463.522	9538.93
463.727	9590.13
463.932	9583.98
464.138	9547.12
464.343	9557.36
464.549	9358.71
464.754	9600.37
464.959	9309.55
465.165	9350.51
465.37	8834.43
465.575	8752.51
465.781	9076.09
465.986	8994.17
466.191	8801.66
466.397	8600.96
466.602	8250.75
466.807	8623.48
467.012	8727.93
467.218	8465.79
467.423	8531.33
467.628	8301.95
467.833	8711.55
468.038	8463.74
468.244	8306.05
468.449	8721.79
468.654	8240.51
468.859	8330.62
