Data from USB4F104151__26__13-52-42-822.txt Node

Date: Thu Mar 13 13:52:42 EDT 2025
User: louis
Spectrometer: USB4F10415
Trigger mode: 4
Integration Time (sec): 1.000000E-2
Scans to average: 1
Electric dark correction enabled: true
Nonlinearity correction enabled: false
Boxcar width: 0
XAxis mode: Wavelengths
Number of Pixels in Spectrum: 3648
>>>>>Begin Spectral Data<<<<<
178.204	36.69
178.424	36.69
178.644	36.69
178.864	-2.22
179.084	-20.65
179.304	3.93
179.524	1.88
179.744	8.02
179.964	-71.85
180.184	-10.41
180.404	-4.27
180.624	-6.31
180.844	30.55
181.064	22.36
181.283	26.45
181.503	1.88
181.723	-2.22
181.943	-4.27
182.163	-26.79
182.383	-2.22
182.602	1.88
182.822	-10.41
183.042	-2.22
183.262	75.6
183.482	-0.17
183.701	28.5
183.921	42.84
184.141	1.88
184.361	-32.94
184.58	-10.41
184.8	48.98
185.02	28.5
185.239	-28.84
185.459	-2.22
185.679	24.4
185.898	18.26
186.118	1.88
186.338	40.79
186.557	61.27
186.777	-0.17
186.997	96.08
187.216	24.4
187.436	40.79
187.655	94.04
187.875	63.32
188.095	34.64
188.314	18.26
188.534	46.93
188.753	40.79
188.973	-0.17
189.192	40.79
189.412	-2.22
189.631	-8.36
189.851	-30.89
190.07	-20.65
190.29	22.36
190.509	30.55
190.729	-20.65
190.948	-2.22
191.168	32.6
191.387	-20.65
191.607	-16.55
191.826	12.12
192.045	34.64
192.265	-32.94
192.484	46.93
192.704	24.4
192.923	46.93
193.142	-2.22
193.362	10.07
193.581	94.04
193.8	28.5
194.02	12.12
194.239	-26.79
194.458	81.75
194.678	16.21
194.897	22.36
195.116	26.45
195.335	-22.7
195.555	44.88
195.774	55.12
195.993	55.12
196.212	-43.18
196.432	-49.32
196.651	5.97
196.87	28.5
197.089	57.17
197.308	-8.36
197.528	91.99
197.747	1.88
197.966	-49.32
198.185	44.88
198.404	38.74
198.623	-28.84
198.842	55.12
199.062	5.97
199.281	40.79
199.5	14.17
199.719	28.5
199.938	61.27
200.157	30.55
200.376	30.55
200.595	71.51
200.814	-45.23
201.033	-45.23
201.252	51.03
201.471	14.17
201.69	32.6
201.909	42.84
202.128	-0.17
202.347	38.74
202.566	-18.6
202.785	-32.94
203.004	-16.55
203.223	-14.51
203.442	14.17
203.661	26.45
203.879	104.28
204.098	1.88
204.317	12.12
204.536	-2.22
204.755	40.79
204.974	-39.08
205.193	24.4
205.411	57.17
205.63	96.08
205.849	-80.04
206.068	75.6
206.287	24.4
206.505	87.89
206.724	59.22
206.943	77.65
207.162	-34.99
207.381	40.79
207.599	75.6
207.818	20.31
208.037	8.02
208.255	42.84
208.474	18.26
208.693	26.45
208.911	-8.36
209.13	-4.27
209.349	-18.6
209.567	-6.31
209.786	69.46
210.005	28.5
210.223	51.03
210.442	24.4
210.661	28.5
210.879	-12.46
211.098	-39.08
211.316	46.93
211.535	26.45
211.753	3.93
211.972	57.17
212.191	30.55
212.409	51.03
212.628	26.45
212.846	40.79
213.065	59.22
213.283	34.64
213.502	-22.7
213.72	85.84
213.938	-16.55
214.157	130.9
214.375	83.8
214.594	-26.79
214.812	75.6
215.031	40.79
215.249	20.31
215.467	16.21
215.686	-84.14
215.904	-4.27
216.122	18.26
216.341	18.26
216.559	67.41
216.778	42.84
216.996	44.88
217.214	61.27
217.432	32.6
217.651	46.93
217.869	-2.22
218.087	51.03
218.306	-26.79
218.524	18.26
218.742	-12.46
218.96	-4.27
219.179	10.07
219.397	36.69
219.615	26.45
219.833	32.6
220.051	-51.37
220.27	30.55
220.488	22.36
220.706	67.41
220.924	30.55
221.142	10.07
221.36	-49.32
221.578	73.56
221.796	40.79
222.015	104.28
222.233	5.97
222.451	46.93
222.669	-8.36
222.887	16.21
223.105	24.4
223.323	40.79
223.541	38.74
223.759	-6.31
223.977	-12.46
224.195	55.12
224.413	-18.6
224.631	20.31
224.849	26.45
225.067	5.97
225.285	34.64
225.503	36.69
225.721	-2.22
225.939	18.26
226.157	-16.55
226.375	-55.47
226.592	-8.36
226.81	32.6
227.028	-39.08
227.246	40.79
227.464	24.4
227.682	98.13
227.9	1.88
228.117	69.46
228.335	-22.7
228.553	-0.17
228.771	36.69
228.989	-47.27
229.206	53.08
229.424	28.5
229.642	63.32
229.86	42.84
230.077	-0.17
230.295	61.27
230.513	42.84
230.731	69.46
230.948	48.98
231.166	-4.27
231.384	57.17
231.601	18.26
231.819	71.51
232.037	61.27
232.254	-8.36
232.472	5.97
232.689	-67.75
232.907	40.79
233.125	67.41
233.342	-32.94
233.56	3.93
233.777	100.18
233.995	30.55
234.213	63.32
234.43	36.69
234.648	40.79
234.865	-16.55
235.083	-34.99
235.3	18.26
235.518	22.36
235.735	69.46
235.953	61.27
236.17	-92.33
236.388	10.07
236.605	63.32
236.822	38.74
237.04	67.41
237.257	67.41
237.475	22.36
237.692	22.36
237.909	53.08
238.127	20.31
238.344	-45.23
238.562	40.79
238.779	67.41
238.996	53.08
239.214	-28.84
239.431	22.36
239.648	73.56
239.865	42.84
240.083	94.04
240.3	24.4
240.517	38.74
240.735	22.36
240.952	-30.89
241.169	-2.22
241.386	1.88
241.603	22.36
241.821	-4.27
242.038	100.18
242.255	34.64
242.472	-24.75
242.689	67.41
242.907	5.97
243.124	-0.17
243.341	51.03
243.558	26.45
243.775	-16.55
243.992	24.4
244.209	53.08
244.426	3.93
244.643	71.51
244.86	-24.75
245.078	51.03
245.295	38.74
245.512	30.55
245.729	59.22
245.946	71.51
246.163	-6.31
246.38	48.98
246.597	48.98
246.814	51.03
247.031	12.12
247.248	81.75
247.464	44.88
247.681	22.36
247.898	87.89
248.115	1.88
248.332	67.41
248.549	77.65
248.766	38.74
248.983	16.21
249.2	20.31
249.417	102.23
249.633	16.21
249.85	26.45
250.067	-4.27
250.284	26.45
250.501	55.12
250.717	102.23
250.934	83.8
251.151	8.02
251.368	30.55
251.585	75.6
251.801	110.42
252.018	96.08
252.235	22.36
252.451	18.26
252.668	26.45
252.885	73.56
253.102	-53.42
253.318	36.69
253.535	5.97
253.752	79.7
253.968	26.45
254.185	63.32
254.401	26.45
254.618	-57.51
254.835	67.41
255.051	24.4
255.268	20.31
255.484	65.36
255.701	46.93
255.917	44.88
256.134	-18.6
256.351	-28.84
256.567	26.45
256.784	14.17
257	12.12
257.217	38.74
257.433	67.41
257.65	83.8
257.866	16.21
258.082	5.97
258.299	-12.46
258.515	-41.13
258.732	22.36
258.948	94.04
259.165	135
259.381	36.69
259.597	48.98
259.814	46.93
260.03	40.79
260.246	-18.6
260.463	-6.31
260.679	18.26
260.895	48.98
261.112	55.12
261.328	-6.31
261.544	10.07
261.761	26.45
261.977	24.4
262.193	57.17
262.409	5.97
262.626	91.99
262.842	57.17
263.058	-24.75
263.274	118.61
263.49	28.5
263.707	22.36
263.923	1.88
264.139	-18.6
264.355	57.17
264.571	53.08
264.787	12.12
265.004	55.12
265.22	-22.7
265.436	73.56
265.652	-22.7
265.868	75.6
266.084	-14.51
266.3	16.21
266.516	-14.51
266.732	22.36
266.948	81.75
267.164	12.12
267.38	79.7
267.596	61.27
267.812	81.75
268.028	-22.7
268.244	-22.7
268.46	46.93
268.676	40.79
268.892	12.12
269.108	-65.71
269.324	-0.17
269.54	61.27
269.756	100.18
269.972	8.02
270.188	59.22
270.403	57.17
270.619	34.64
270.835	-0.17
271.051	81.75
271.267	53.08
271.483	-10.41
271.698	18.26
271.914	38.74
272.13	61.27
272.346	96.08
272.562	-8.36
272.777	89.94
272.993	-6.31
273.209	-12.46
273.425	-22.7
273.64	-43.18
273.856	36.69
274.072	32.6
274.287	-14.51
274.503	44.88
274.719	5.97
274.934	36.69
275.15	5.97
275.366	65.36
275.581	67.41
275.797	40.79
276.012	-10.41
276.228	59.22
276.444	63.32
276.659	-16.55
276.875	55.12
277.09	-0.17
277.306	-37.03
277.521	30.55
277.737	67.41
277.952	-8.36
278.168	51.03
278.383	71.51
278.599	12.12
278.814	-41.13
279.03	-12.46
279.245	81.75
279.461	14.17
279.676	3.93
279.892	63.32
280.107	87.89
280.322	10.07
280.538	30.55
280.753	44.88
280.969	-0.17
281.184	8.02
281.399	98.13
281.615	8.02
281.83	100.18
282.045	63.32
282.26	30.55
282.476	3.93
282.691	42.84
282.906	16.21
283.122	-2.22
283.337	10.07
283.552	42.84
283.767	-65.71
283.983	53.08
284.198	81.75
284.413	-6.31
284.628	67.41
284.843	14.17
285.058	57.17
285.274	65.36
285.489	-2.22
285.704	28.5
285.919	22.36
286.134	94.04
286.349	71.51
286.564	38.74
286.779	10.07
286.995	42.84
287.21	-2.22
287.425	40.79
287.64	8.02
287.855	-18.6
288.07	1.88
288.285	24.4
288.5	5.97
288.715	38.74
288.93	28.5
289.145	30.55
289.36	-8.36
289.575	-12.46
289.79	53.08
290.004	51.03
290.219	42.84
290.434	-2.22
290.649	34.64
290.864	59.22
291.079	57.17
291.294	26.45
291.509	-2.22
291.724	30.55
291.938	24.4
292.153	57.17
292.368	28.5
292.583	24.4
292.798	1.88
293.012	87.89
293.227	8.02
293.442	57.17
293.657	44.88
293.871	51.03
294.086	1.88
294.301	83.8
294.516	46.93
294.73	98.13
294.945	-18.6
295.16	18.26
295.374	77.65
295.589	106.32
295.804	16.21
296.018	30.55
296.233	46.93
296.447	24.4
296.662	55.12
296.877	18.26
297.091	61.27
297.306	30.55
297.52	12.12
297.735	30.55
297.949	42.84
298.164	-14.51
298.378	22.36
298.593	1.88
298.807	59.22
299.022	48.98
299.236	53.08
299.451	24.4
299.665	5.97
299.88	81.75
300.094	-30.89
300.309	28.5
300.523	-14.51
300.737	46.93
300.952	-0.17
301.166	65.36
301.381	32.6
301.595	61.27
301.809	-16.55
302.024	55.12
302.238	-47.27
302.452	18.26
302.667	44.88
302.881	65.36
303.095	63.32
303.309	16.21
303.524	18.26
303.738	20.31
303.952	46.93
304.166	14.17
304.381	-24.75
304.595	36.69
304.809	38.74
305.023	20.31
305.237	-18.6
305.452	16.21
305.666	48.98
305.88	87.89
306.094	-18.6
306.308	-18.6
306.522	104.28
306.736	67.41
306.95	8.02
307.164	10.07
307.379	34.64
307.593	55.12
307.807	20.31
308.021	59.22
308.235	26.45
308.449	10.07
308.663	32.6
308.877	63.32
309.091	55.12
309.305	32.6
309.519	65.36
309.733	89.94
309.947	42.84
310.161	81.75
310.374	-14.51
310.588	73.56
310.802	8.02
311.016	24.4
311.23	-2.22
311.444	85.84
311.658	12.12
311.872	145.24
312.085	71.51
312.299	1.88
312.513	44.88
312.727	46.93
312.941	16.21
313.154	69.46
313.368	10.07
313.582	26.45
313.796	-12.46
314.009	65.36
314.223	5.97
314.437	18.26
314.651	-6.31
314.864	98.13
315.078	81.75
315.292	79.7
315.505	3.93
315.719	26.45
315.933	-14.51
316.146	14.17
316.36	69.46
316.573	-12.46
316.787	44.88
317.001	12.12
317.214	38.74
317.428	8.02
317.641	81.75
317.855	26.45
318.068	30.55
318.282	5.97
318.495	81.75
318.709	77.65
318.922	8.02
319.136	59.22
319.349	5.97
319.563	5.97
319.776	24.4
319.99	-16.55
320.203	42.84
320.417	65.36
320.63	10.07
320.843	114.52
321.057	22.36
321.27	26.45
321.483	79.7
321.697	38.74
321.91	53.08
322.124	-4.27
322.337	18.26
322.55	89.94
322.763	12.12
322.977	124.76
323.19	3.93
323.403	44.88
323.617	-6.31
323.83	71.51
324.043	3.93
324.256	32.6
324.469	34.64
324.683	53.08
324.896	14.17
325.109	28.5
325.322	48.98
325.535	51.03
325.748	-10.41
325.962	30.55
326.175	24.4
326.388	61.27
326.601	55.12
326.814	3.93
327.027	28.5
327.24	5.97
327.453	3.93
327.666	-8.36
327.879	40.79
328.092	130.9
328.305	79.7
328.518	-8.36
328.731	16.21
328.944	-45.23
329.157	20.31
329.37	53.08
329.583	61.27
329.796	3.93
330.009	-0.17
330.222	22.36
330.435	34.64
330.648	71.51
330.861	30.55
331.073	63.32
331.286	69.46
331.499	46.93
331.712	-6.31
331.925	10.07
332.138	69.46
332.35	-12.46
332.563	61.27
332.776	94.04
332.989	71.51
333.202	-4.27
333.414	-18.6
333.627	55.12
333.84	71.51
334.053	51.03
334.265	-12.46
334.478	-6.31
334.691	75.6
334.903	30.55
335.116	20.31
335.329	26.45
335.541	42.84
335.754	18.26
335.966	51.03
336.179	-16.55
336.392	59.22
336.604	-0.17
336.817	-12.46
337.029	18.26
337.242	-24.75
337.454	71.51
337.667	-30.89
337.88	59.22
338.092	30.55
338.305	89.94
338.517	46.93
338.729	57.17
338.942	67.41
339.154	57.17
339.367	-8.36
339.579	57.17
339.792	-63.66
340.004	67.41
340.217	36.69
340.429	53.08
340.641	36.69
340.854	46.93
341.066	34.64
341.278	22.36
341.491	53.08
341.703	69.46
341.915	18.26
342.128	5.97
342.34	5.97
342.552	63.32
342.764	59.22
342.977	10.07
343.189	18.26
343.401	14.17
343.613	61.27
343.826	96.08
344.038	24.4
344.25	10.07
344.462	16.21
344.674	-16.55
344.886	24.4
345.099	-30.89
345.311	5.97
345.523	59.22
345.735	-55.47
345.947	-26.79
346.159	38.74
346.371	77.65
346.583	34.64
346.795	81.75
347.007	5.97
347.219	26.45
347.431	-34.99
347.643	30.55
347.855	67.41
348.067	87.89
348.279	34.64
348.491	61.27
348.703	20.31
348.915	48.98
349.127	63.32
349.339	87.89
349.551	18.26
349.763	42.84
349.975	-47.27
350.187	57.17
350.399	-8.36
350.61	44.88
350.822	46.93
351.034	75.6
351.246	28.5
351.458	22.36
351.669	30.55
351.881	48.98
352.093	55.12
352.305	-12.46
352.517	-8.36
352.728	34.64
352.94	57.17
353.152	28.5
353.363	81.75
353.575	48.98
353.787	91.99
353.999	-6.31
354.21	22.36
354.422	55.12
354.633	71.51
354.845	53.08
355.057	87.89
355.268	1.88
355.48	57.17
355.692	63.32
355.903	51.03
356.115	-0.17
356.326	-24.75
356.538	14.17
356.749	-2.22
356.961	87.89
357.172	36.69
357.384	38.74
357.595	98.13
357.807	79.7
358.018	59.22
358.23	51.03
358.441	100.18
358.653	36.69
358.864	102.23
359.075	63.32
359.287	38.74
359.498	34.64
359.709	28.5
359.921	14.17
360.132	-2.22
360.344	46.93
360.555	48.98
360.766	3.93
360.977	89.94
361.189	36.69
361.4	28.5
361.611	51.03
361.823	-34.99
362.034	75.6
362.245	5.97
362.456	63.32
362.667	28.5
362.879	20.31
363.09	55.12
363.301	24.4
363.512	1.88
363.723	1.88
363.935	81.75
364.146	65.36
364.357	34.64
364.568	75.6
364.779	30.55
364.99	141.14
365.201	42.84
365.412	5.97
365.623	106.32
365.834	81.75
366.045	65.36
366.256	32.6
366.467	20.31
366.678	48.98
366.889	63.32
367.1	73.56
367.311	22.36
367.522	18.26
367.733	83.8
367.944	94.04
368.155	85.84
368.366	48.98
368.577	57.17
368.788	102.23
368.999	51.03
369.209	55.12
369.42	32.6
369.631	16.21
369.842	67.41
370.053	38.74
370.264	34.64
370.474	61.27
370.685	38.74
370.896	67.41
371.107	14.17
371.317	112.47
371.528	10.07
371.739	44.88
371.95	61.27
372.16	126.8
372.371	51.03
372.582	28.5
372.792	-12.46
373.003	44.88
373.214	14.17
373.424	14.17
373.635	73.56
373.846	79.7
374.056	61.27
374.267	61.27
374.477	18.26
374.688	5.97
374.898	71.51
375.109	67.41
375.319	42.84
375.53	65.36
375.74	28.5
375.951	141.14
376.161	65.36
376.372	42.84
376.582	102.23
376.793	38.74
377.003	-6.31
377.214	42.84
377.424	89.94
377.635	44.88
377.845	28.5
378.055	32.6
378.266	63.32
378.476	65.36
378.686	104.28
378.897	14.17
379.107	96.08
379.317	-0.17
379.528	46.93
379.738	20.31
379.948	-18.6
380.158	48.98
380.369	69.46
380.579	67.41
380.789	38.74
380.999	48.98
381.21	87.89
381.42	1.88
381.63	20.31
381.84	75.6
382.05	75.6
382.261	38.74
382.471	-4.27
382.681	53.08
382.891	32.6
383.101	57.17
383.311	30.55
383.521	77.65
383.731	-18.6
383.941	59.22
384.151	75.6
384.361	26.45
384.571	1.88
384.781	73.56
384.991	20.31
385.201	-20.65
385.411	59.22
385.621	81.75
385.831	53.08
386.041	44.88
386.251	42.84
386.461	12.12
386.671	30.55
386.881	16.21
387.091	18.26
387.301	-2.22
387.511	69.46
387.72	96.08
387.93	-30.89
388.14	-22.7
388.35	-10.41
388.56	94.04
388.769	81.75
388.979	67.41
389.189	36.69
389.399	-49.32
389.609	96.08
389.818	118.61
390.028	53.08
390.238	30.55
390.447	102.23
390.657	67.41
390.867	14.17
391.076	57.17
391.286	77.65
391.496	178
391.705	153.43
391.915	81.75
392.125	38.74
392.334	28.5
392.544	-22.7
392.753	106.32
392.963	87.89
393.172	63.32
393.382	46.93
393.591	157.52
393.801	102.23
394.01	-4.27
394.22	10.07
394.429	75.6
394.639	102.23
394.848	91.99
395.058	77.65
395.267	73.56
395.477	96.08
395.686	69.46
395.895	120.66
396.105	120.66
396.314	20.31
396.524	81.75
396.733	44.88
396.942	139.09
397.152	75.6
397.361	-0.17
397.57	75.6
397.78	124.76
397.989	91.99
398.198	122.71
398.407	26.45
398.617	96.08
398.826	57.17
399.035	57.17
399.244	94.04
399.453	108.37
399.663	89.94
399.872	114.52
400.081	85.84
400.29	116.56
400.499	38.74
400.708	128.85
400.917	38.74
401.127	26.45
401.336	94.04
401.545	94.04
401.754	26.45
401.963	118.61
402.172	55.12
402.381	98.13
402.59	149.33
402.799	67.41
403.008	87.89
403.217	77.65
403.426	51.03
403.635	53.08
403.844	55.12
404.053	110.42
404.262	118.61
404.471	73.56
404.68	112.47
404.888	112.47
405.097	135
405.306	153.43
405.515	132.95
405.724	122.71
405.933	71.51
406.142	130.9
406.35	190.29
406.559	135
406.768	184.15
406.977	196.43
407.185	126.8
407.394	69.46
407.603	161.62
407.812	253.78
408.02	196.43
408.229	210.77
408.438	175.95
408.646	229.2
408.855	198.48
409.064	231.25
409.272	143.19
409.481	194.39
409.69	208.72
409.898	223.06
410.107	171.86
410.315	266.07
410.524	268.11
410.733	255.83
410.941	233.3
411.15	241.49
411.358	395.09
411.567	237.39
411.775	255.83
411.984	317.26
412.192	292.69
412.401	337.74
412.609	311.12
412.818	317.26
413.026	278.35
413.234	313.17
413.443	427.85
413.651	403.28
413.86	444.24
414.068	427.85
414.276	384.85
414.485	468.81
414.693	524.11
414.901	454.48
415.11	454.48
415.318	493.39
415.526	583.5
415.734	464.72
415.943	581.45
416.151	534.35
416.359	540.49
416.567	628.56
416.776	640.84
416.984	649.04
417.192	702.28
417.4	696.14
417.608	773.96
417.817	767.82
418.025	728.91
418.233	769.87
418.441	716.62
418.649	831.3
418.857	939.85
419.065	984.9
419.273	921.42
419.481	1025.86
419.689	931.66
419.897	1038.15
420.105	1128.26
420.313	1103.68
420.521	1124.16
420.729	1122.12
420.937	1224.51
421.145	1212.23
421.353	1300.29
421.561	1394.5
421.769	1363.78
421.977	1443.65
422.185	1439.55
422.393	1519.42
422.601	1640.25
422.809	1640.25
423.017	1722.17
423.224	1707.84
423.432	1711.93
423.64	1771.32
423.848	1906.49
424.056	1957.69
424.263	2115.38
424.471	1951.54
424.679	2072.37
424.887	2191.16
425.094	2283.31
425.302	2297.65
425.51	2371.38
425.718	2324.27
425.925	2492.21
426.133	2471.73
426.341	2686.76
426.548	2815.79
426.756	2883.37
426.964	2891.56
427.171	3022.63
427.379	3168.04
427.586	3067.69
427.794	3235.62
428.001	3219.24
428.209	3438.37
428.417	3383.07
428.624	3600.16
428.832	3725.08
429.039	3610.4
429.247	3641.12
429.454	4024.09
429.662	4171.54
429.869	3890.97
430.076	4374.29
430.284	4146.97
430.491	4476.69
430.699	4513.55
430.906	4583.18
431.114	4769.55
431.321	4833.04
431.528	4931.34
431.736	5283.59
431.943	5459.71
432.15	5279.49
432.358	5154.57
432.565	5656.32
432.772	5584.64
432.979	5846.78
433.187	5967.61
433.394	5936.89
433.601	6530.8
433.808	6498.03
434.016	6307.57
434.223	6725.36
434.43	6981.35
434.637	6881
434.844	7370.47
435.052	7522.02
435.259	7466.72
435.466	7581.41
435.673	7562.98
435.88	7888.6
436.087	8339.16
436.294	8236.76
436.501	8103.64
436.708	8361.69
436.915	8632.02
437.122	9072.33
437.329	8881.87
437.537	9170.63
437.743	9420.49
437.95	9369.29
438.157	9971.39
438.364	9875.13
438.571	10047.16
438.778	10239.67
438.985	11069.1
439.192	10491.57
439.399	11071.15
439.606	10622.64
439.813	11609.76
440.02	11941.54
440.227	11769.51
440.433	11706.02
440.64	12095.13
440.847	12002.97
441.054	12193.44
441.261	13268.62
441.467	12994.19
441.674	13459.08
441.881	13923.97
442.088	13827.71
442.294	13557.38
442.501	14005.89
442.708	14345.85
442.914	14939.76
443.121	15410.79
443.328	15101.55
443.534	16064.1
443.741	15732.33
443.948	15443.56
444.154	16748.12
444.361	16645.72
444.568	16619.1
444.774	16623.19
444.981	16721.49
445.187	17194.57
445.394	18171.46
445.6	17575.5
445.807	19635.75
446.013	18808.37
446.22	19109.43
446.426	19617.32
446.633	19797.54
446.839	20479.52
447.046	19709.48
447.252	20647.45
447.459	20993.56
447.665	20805.14
447.871	21767.69
448.078	22357.5
448.284	21593.61
448.491	22281.73
448.697	22945.27
448.903	23227.89
449.11	23422.45
449.316	23051.77
449.522	23500.27
449.728	23985.64
449.935	24116.71
450.141	24227.3
450.347	24931.8
450.553	23967.21
450.76	24122.85
450.966	25034.2
451.172	24694.24
451.378	25177.56
451.584	24835.55
451.791	25562.58
451.997	25451.98
452.203	25986.5
452.409	25650.64
452.615	25316.82
452.821	24786.4
453.027	24301.03
453.233	25462.22
453.44	24477.15
453.646	24948.18
453.852	24784.35
454.058	25552.34
454.264	24563.17
454.47	25093.59
454.676	24358.37
454.882	25236.95
455.088	22871.54
455.294	23246.32
455.5	23346.67
455.705	23799.27
455.911	22930.94
456.117	22498.81
456.323	22300.16
456.529	21016.08
456.735	21847.56
456.941	21310.99
457.147	20934.17
457.352	20131.36
457.558	20018.72
457.764	20069.92
457.97	19463.72
458.176	19318.32
458.381	19453.48
458.587	18153.02
458.793	18204.22
458.999	17247.82
459.204	18529.85
459.41	18069.06
459.616	16791.13
459.821	17016.4
460.027	16772.69
460.233	16506.46
460.438	15752.8
460.644	16002.66
460.85	15038.06
461.055	14939.76
461.261	14929.52
461.466	13719.17
461.672	13315.72
461.878	14288.51
462.083	13252.24
462.289	13129.36
462.494	12930.7
462.7	12584.6
462.905	12218.01
463.111	12564.12
463.316	12713.62
463.522	12258.97
463.727	12363.42
463.932	12404.38
464.138	12304.03
464.343	12271.26
464.549	12107.42
464.754	12256.92
464.959	12263.07
465.165	11990.69
465.37	11656.87
465.575	11480.74
465.781	11650.72
465.986	11746.98
466.191	11533.99
466.397	11108.01
466.602	10761.91
466.807	11026.09
467.012	10985.13
467.218	10970.8
467.423	10995.37
467.628	10895.02
467.833	11417.26
468.038	10983.09
468.244	10673.84
468.449	10946.22
468.654	10684.08
468.859	10698.42
