Data from USB4F104151__234__14-00-50-738.txt Node

Date: Thu Mar 13 14:00:50 EDT 2025
User: louis
Spectrometer: USB4F10415
Trigger mode: 4
Integration Time (sec): 1.000000E-2
Scans to average: 1
Electric dark correction enabled: true
Nonlinearity correction enabled: false
Boxcar width: 0
XAxis mode: Wavelengths
Number of Pixels in Spectrum: 3648
>>>>>Begin Spectral Data<<<<<
178.204	-35.33
178.424	-35.33
178.644	-35.33
178.864	-74.24
179.084	-16.9
179.304	26.11
179.524	5.63
179.744	-72.19
179.964	26.11
180.184	-43.52
180.404	22.02
180.624	-37.38
180.844	26.11
181.064	36.35
181.283	-6.66
181.503	19.97
181.723	-2.56
181.943	-33.28
182.163	58.88
182.383	5.63
182.602	46.59
182.822	65.02
183.042	75.26
183.262	36.35
183.482	58.88
183.701	15.87
183.921	-25.09
184.141	30.21
184.361	-39.42
184.58	52.74
184.8	24.06
185.02	7.68
185.239	-10.75
185.459	46.59
185.679	19.97
185.898	42.5
186.118	15.87
186.338	46.59
186.557	97.79
186.777	-6.66
186.997	-41.47
187.216	83.45
187.436	77.31
187.655	17.92
187.875	-0.51
188.095	24.06
188.314	95.74
188.534	28.16
188.753	17.92
188.973	38.4
189.192	38.4
189.412	-23.04
189.631	-18.94
189.851	40.45
190.07	79.36
190.29	-0.51
190.509	34.3
190.729	-14.85
190.948	95.74
191.168	48.64
191.387	75.26
191.607	-14.85
191.826	114.17
192.045	38.4
192.265	24.06
192.484	-8.7
192.704	36.35
192.923	-18.94
193.142	-31.23
193.362	22.02
193.581	34.3
193.8	-29.18
194.02	-2.56
194.239	30.21
194.458	62.98
194.678	-98.81
194.897	-27.14
195.116	-68.09
195.335	48.64
195.555	9.73
195.774	-18.94
195.993	28.16
196.212	15.87
196.432	-39.42
196.651	36.35
196.87	32.26
197.089	22.02
197.308	9.73
197.528	46.59
197.747	-23.04
197.966	34.3
198.185	44.54
198.404	56.83
198.623	-51.71
198.842	54.78
199.062	13.82
199.281	54.78
199.5	-2.56
199.719	50.69
199.938	40.45
200.157	40.45
200.376	52.74
200.595	42.5
200.814	46.59
201.033	52.74
201.252	26.11
201.471	65.02
201.69	71.17
201.909	93.69
202.128	-8.7
202.347	30.21
202.566	46.59
202.785	26.11
203.004	24.06
203.223	-33.28
203.442	34.3
203.661	71.17
203.879	48.64
204.098	116.22
204.317	1.54
204.536	7.68
204.755	13.82
204.974	62.98
205.193	56.83
205.411	-16.9
205.63	46.59
205.849	22.02
206.068	83.45
206.287	56.83
206.505	36.35
206.724	-57.86
206.943	38.4
207.162	60.93
207.381	-14.85
207.599	-31.23
207.818	42.5
208.037	5.63
208.255	69.12
208.474	46.59
208.693	22.02
208.911	-25.09
209.13	30.21
209.349	38.4
209.567	54.78
209.786	54.78
210.005	50.69
210.223	46.59
210.442	3.58
210.661	42.5
210.879	32.26
211.098	42.5
211.316	19.97
211.535	34.3
211.753	-23.04
211.972	50.69
212.191	26.11
212.409	36.35
212.628	65.02
212.846	-31.23
213.065	42.5
213.283	103.93
213.502	56.83
213.72	-57.86
213.938	26.11
214.157	-14.85
214.375	-23.04
214.594	67.07
214.812	-10.75
215.031	13.82
215.249	22.02
215.467	-43.52
215.686	7.68
215.904	99.84
216.122	42.5
216.341	26.11
216.559	44.54
216.778	-35.33
216.996	11.78
217.214	-12.8
217.432	5.63
217.651	5.63
217.869	69.12
218.087	36.35
218.306	-41.47
218.524	-0.51
218.742	-4.61
218.96	85.5
219.179	13.82
219.397	58.88
219.615	11.78
219.833	17.92
220.051	60.93
220.27	44.54
220.488	71.17
220.706	22.02
220.924	-10.75
221.142	40.45
221.36	17.92
221.578	56.83
221.796	15.87
222.015	13.82
222.233	42.5
222.451	62.98
222.669	-18.94
222.887	19.97
223.105	11.78
223.323	71.17
223.541	7.68
223.759	24.06
223.977	42.5
224.195	36.35
224.413	-29.18
224.631	30.21
224.849	17.92
225.067	24.06
225.285	62.98
225.503	116.22
225.721	-8.7
225.939	56.83
226.157	-41.47
226.375	71.17
226.592	34.3
226.81	15.87
227.028	42.5
227.246	26.11
227.464	48.64
227.682	13.82
227.9	-35.33
228.117	81.41
228.335	-18.94
228.553	-33.28
228.771	-18.94
228.989	101.89
229.206	-68.09
229.424	17.92
229.642	85.5
229.86	103.93
230.077	3.58
230.295	105.98
230.513	62.98
230.731	89.6
230.948	81.41
231.166	1.54
231.384	38.4
231.601	95.74
231.819	19.97
232.037	44.54
232.254	1.54
232.472	7.68
232.689	9.73
232.907	7.68
233.125	13.82
233.342	32.26
233.56	30.21
233.777	-25.09
233.995	34.3
234.213	30.21
234.43	42.5
234.648	-37.38
234.865	48.64
235.083	19.97
235.3	22.02
235.518	46.59
235.735	22.02
235.953	17.92
236.17	9.73
236.388	22.02
236.605	11.78
236.822	58.88
237.04	15.87
237.257	-41.47
237.475	11.78
237.692	60.93
237.909	30.21
238.127	34.3
238.344	89.6
238.562	26.11
238.779	-10.75
238.996	-8.7
239.214	-10.75
239.431	5.63
239.648	17.92
239.865	110.08
240.083	22.02
240.3	93.69
240.517	-16.9
240.735	22.02
240.952	40.45
241.169	30.21
241.386	9.73
241.603	9.73
241.821	32.26
242.038	116.22
242.255	32.26
242.472	48.64
242.689	-25.09
242.907	-4.61
243.124	79.36
243.341	85.5
243.558	46.59
243.775	56.83
243.992	81.41
244.209	5.63
244.426	118.27
244.643	-8.7
244.86	3.58
245.078	40.45
245.295	71.17
245.512	97.79
245.729	-12.8
245.946	62.98
246.163	-57.86
246.38	34.3
246.597	-2.56
246.814	42.5
247.031	30.21
247.248	1.54
247.464	32.26
247.681	-31.23
247.898	71.17
248.115	38.4
248.332	11.78
248.549	7.68
248.766	40.45
248.983	54.78
249.2	54.78
249.417	9.73
249.633	-47.62
249.85	50.69
250.067	-4.61
250.284	67.07
250.501	7.68
250.717	73.21
250.934	30.21
251.151	3.58
251.368	50.69
251.585	15.87
251.801	56.83
252.018	-43.52
252.235	19.97
252.451	-51.71
252.668	-0.51
252.885	105.98
253.102	22.02
253.318	34.3
253.535	-8.7
253.752	-18.94
253.968	13.82
254.185	-53.76
254.401	30.21
254.618	34.3
254.835	-12.8
255.051	3.58
255.268	11.78
255.484	22.02
255.701	17.92
255.917	28.16
256.134	-57.86
256.351	50.69
256.567	-16.9
256.784	22.02
257	48.64
257.217	-10.75
257.433	38.4
257.65	56.83
257.866	69.12
258.082	24.06
258.299	-43.52
258.515	-6.66
258.732	-18.94
258.948	-61.95
259.165	-10.75
259.381	48.64
259.597	38.4
259.814	11.78
260.03	-25.09
260.246	58.88
260.463	-31.23
260.679	42.5
260.895	-4.61
261.112	34.3
261.328	-27.14
261.544	-16.9
261.761	50.69
261.977	3.58
262.193	46.59
262.409	-39.42
262.626	7.68
262.842	22.02
263.058	19.97
263.274	38.4
263.49	50.69
263.707	101.89
263.923	19.97
264.139	-6.66
264.355	-23.04
264.571	124.41
264.787	3.58
265.004	81.41
265.22	38.4
265.436	77.31
265.652	36.35
265.868	46.59
266.084	17.92
266.3	46.59
266.516	15.87
266.732	22.02
266.948	-0.51
267.164	34.3
267.38	-8.7
267.596	89.6
267.812	95.74
268.028	42.5
268.244	7.68
268.46	30.21
268.676	-25.09
268.892	-8.7
269.108	42.5
269.324	34.3
269.54	3.58
269.756	34.3
269.972	13.82
270.188	24.06
270.403	-4.61
270.619	75.26
270.835	46.59
271.051	34.3
271.267	22.02
271.483	32.26
271.698	-23.04
271.914	40.45
272.13	77.31
272.346	58.88
272.562	36.35
272.777	22.02
272.993	3.58
273.209	5.63
273.425	7.68
273.64	13.82
273.856	30.21
274.072	58.88
274.287	26.11
274.503	24.06
274.719	75.26
274.934	7.68
275.15	-0.51
275.366	46.59
275.581	40.45
275.797	7.68
276.012	79.36
276.228	38.4
276.444	130.56
276.659	79.36
276.875	-16.9
277.09	-18.94
277.306	24.06
277.521	54.78
277.737	54.78
277.952	24.06
278.168	-14.85
278.383	85.5
278.599	15.87
278.814	-10.75
279.03	-25.09
279.245	73.21
279.461	22.02
279.676	67.07
279.892	34.3
280.107	19.97
280.322	-27.14
280.538	-2.56
280.753	-16.9
280.969	38.4
281.184	-2.56
281.399	81.41
281.615	36.35
281.83	46.59
282.045	-41.47
282.26	46.59
282.476	13.82
282.691	19.97
282.906	-14.85
283.122	-2.56
283.337	54.78
283.552	50.69
283.767	-8.7
283.983	40.45
284.198	148.99
284.413	-8.7
284.628	24.06
284.843	-4.61
285.058	-55.81
285.274	-14.85
285.489	24.06
285.704	48.64
285.919	24.06
286.134	91.65
286.349	40.45
286.564	26.11
286.779	44.54
286.995	22.02
287.21	79.36
287.425	89.6
287.64	24.06
287.855	93.69
288.07	28.16
288.285	97.79
288.5	-6.66
288.715	116.22
288.93	-33.28
289.145	32.26
289.36	79.36
289.575	67.07
289.79	-2.56
290.004	-8.7
290.219	28.16
290.434	13.82
290.649	-12.8
290.864	-41.47
291.079	1.54
291.294	48.64
291.509	-12.8
291.724	26.11
291.938	-33.28
292.153	73.21
292.368	11.78
292.583	5.63
292.798	42.5
293.012	42.5
293.227	-29.18
293.442	9.73
293.657	87.55
293.871	7.68
294.086	30.21
294.301	9.73
294.516	-2.56
294.73	5.63
294.945	-41.47
295.16	22.02
295.374	48.64
295.589	62.98
295.804	-33.28
296.018	58.88
296.233	22.02
296.447	24.06
296.662	46.59
296.877	81.41
297.091	26.11
297.306	30.21
297.52	30.21
297.735	-2.56
297.949	13.82
298.164	52.74
298.378	17.92
298.593	85.5
298.807	58.88
299.022	38.4
299.236	124.41
299.451	71.17
299.665	69.12
299.88	91.65
300.094	58.88
300.309	5.63
300.523	-27.14
300.737	54.78
300.952	13.82
301.166	30.21
301.381	62.98
301.595	5.63
301.809	-2.56
302.024	38.4
302.238	46.59
302.452	22.02
302.667	19.97
302.881	34.3
303.095	-43.52
303.309	52.74
303.524	24.06
303.738	71.17
303.952	-107.01
304.166	48.64
304.381	17.92
304.595	62.98
304.809	62.98
305.023	-4.61
305.237	97.79
305.452	9.73
305.666	17.92
305.88	99.84
306.094	9.73
306.308	56.83
306.522	67.07
306.736	71.17
306.95	-16.9
307.164	19.97
307.379	60.93
307.593	48.64
307.807	89.6
308.021	58.88
308.235	-41.47
308.449	34.3
308.663	42.5
308.877	44.54
309.091	60.93
309.305	89.6
309.519	-20.99
309.733	79.36
309.947	22.02
310.161	22.02
310.374	-2.56
310.588	-43.52
310.802	40.45
311.016	-14.85
311.23	7.68
311.444	38.4
311.658	15.87
311.872	17.92
312.085	32.26
312.299	62.98
312.513	13.82
312.727	54.78
312.941	-23.04
313.154	71.17
313.368	65.02
313.582	-2.56
313.796	50.69
314.009	38.4
314.223	22.02
314.437	40.45
314.651	17.92
314.864	73.21
315.078	7.68
315.292	-16.9
315.505	-14.85
315.719	58.88
315.933	52.74
316.146	40.45
316.36	-4.61
316.573	9.73
316.787	73.21
317.001	7.68
317.214	42.5
317.428	34.3
317.641	38.4
317.855	67.07
318.068	65.02
318.282	32.26
318.495	22.02
318.709	-10.75
318.922	48.64
319.136	26.11
319.349	71.17
319.563	112.13
319.776	13.82
319.99	30.21
320.203	71.17
320.417	40.45
320.63	73.21
320.843	89.6
321.057	60.93
321.27	132.61
321.483	30.21
321.697	146.94
321.91	-2.56
322.124	-27.14
322.337	54.78
322.55	-33.28
322.763	105.98
322.977	26.11
323.19	24.06
323.403	-18.94
323.617	65.02
323.83	-6.66
324.043	58.88
324.256	1.54
324.469	22.02
324.683	75.26
324.896	87.55
325.109	110.08
325.322	97.79
325.535	40.45
325.748	34.3
325.962	87.55
326.175	5.63
326.388	50.69
326.601	11.78
326.814	19.97
327.027	1.54
327.24	22.02
327.453	34.3
327.666	-8.7
327.879	-18.94
328.092	146.94
328.305	75.26
328.518	136.7
328.731	22.02
328.944	30.21
329.157	-23.04
329.37	13.82
329.583	77.31
329.796	89.6
330.009	-4.61
330.222	26.11
330.435	-8.7
330.648	67.07
330.861	93.69
331.073	99.84
331.286	-18.94
331.499	50.69
331.712	-29.18
331.925	60.93
332.138	-6.66
332.35	103.93
332.563	24.06
332.776	71.17
332.989	-6.66
333.202	26.11
333.414	40.45
333.627	54.78
333.84	38.4
334.053	81.41
334.265	50.69
334.478	-10.75
334.691	112.13
334.903	26.11
335.116	13.82
335.329	46.59
335.541	54.78
335.754	-10.75
335.966	34.3
336.179	77.31
336.392	52.74
336.604	71.17
336.817	44.54
337.029	22.02
337.242	-0.51
337.454	65.02
337.667	56.83
337.88	69.12
338.092	79.36
338.305	11.78
338.517	-25.09
338.729	34.3
338.942	75.26
339.154	-31.23
339.367	30.21
339.579	32.26
339.792	46.59
340.004	71.17
340.217	50.69
340.429	22.02
340.641	34.3
340.854	81.41
341.066	28.16
341.278	134.65
341.491	34.3
341.703	97.79
341.915	58.88
342.128	105.98
342.34	48.64
342.552	89.6
342.764	81.41
342.977	-0.51
343.189	24.06
343.401	44.54
343.613	32.26
343.826	99.84
344.038	9.73
344.25	54.78
344.462	3.58
344.674	69.12
344.886	91.65
345.099	32.26
345.311	87.55
345.523	17.92
345.735	36.35
345.947	52.74
346.159	1.54
346.371	56.83
346.583	62.98
346.795	93.69
347.007	-16.9
347.219	15.87
347.431	52.74
347.643	85.5
347.855	34.3
348.067	77.31
348.279	62.98
348.491	3.58
348.703	5.63
348.915	26.11
349.127	22.02
349.339	79.36
349.551	-27.14
349.763	65.02
349.975	-29.18
350.187	87.55
350.399	-18.94
350.61	89.6
350.822	62.98
351.034	87.55
351.246	32.26
351.458	62.98
351.669	48.64
351.881	114.17
352.093	1.54
352.305	112.13
352.517	38.4
352.728	46.59
352.94	69.12
353.152	40.45
353.363	24.06
353.575	54.78
353.787	95.74
353.999	5.63
354.21	17.92
354.422	32.26
354.633	30.21
354.845	24.06
355.057	15.87
355.268	26.11
355.48	108.03
355.692	105.98
355.903	32.26
356.115	114.17
356.326	-12.8
356.538	65.02
356.749	112.13
356.961	5.63
357.172	13.82
357.384	77.31
357.595	50.69
357.807	26.11
358.018	48.64
358.23	7.68
358.441	67.07
358.653	28.16
358.864	-31.23
359.075	5.63
359.287	69.12
359.498	62.98
359.709	93.69
359.921	46.59
360.132	60.93
360.344	85.5
360.555	-2.56
360.766	-51.71
360.977	22.02
361.189	69.12
361.4	38.4
361.611	46.59
361.823	65.02
362.034	9.73
362.245	42.5
362.456	81.41
362.667	32.26
362.879	32.26
363.09	32.26
363.301	-2.56
363.512	17.92
363.723	22.02
363.935	-6.66
364.146	13.82
364.357	-10.75
364.568	-23.04
364.779	79.36
364.99	48.64
365.201	69.12
365.412	50.69
365.623	34.3
365.834	-0.51
366.045	75.26
366.256	30.21
366.467	-14.85
366.678	40.45
366.889	34.3
367.1	40.45
367.311	50.69
367.522	89.6
367.733	46.59
367.944	71.17
368.155	24.06
368.366	22.02
368.577	28.16
368.788	-57.86
368.999	79.36
369.209	36.35
369.42	40.45
369.631	52.74
369.842	-12.8
370.053	34.3
370.264	62.98
370.474	87.55
370.685	52.74
370.896	56.83
371.107	67.07
371.317	-14.85
371.528	13.82
371.739	-0.51
371.95	65.02
372.16	87.55
372.371	-2.56
372.582	-29.18
372.792	65.02
373.003	15.87
373.214	34.3
373.424	-0.51
373.635	17.92
373.846	-16.9
374.056	5.63
374.267	81.41
374.477	83.45
374.688	52.74
374.898	79.36
375.109	44.54
375.319	-35.33
375.53	73.21
375.74	65.02
375.951	108.03
376.161	30.21
376.372	148.99
376.582	110.08
376.793	65.02
377.003	69.12
377.214	-10.75
377.424	-80.38
377.635	56.83
377.845	73.21
378.055	1.54
378.266	38.4
378.476	44.54
378.686	52.74
378.897	46.59
379.107	-41.47
379.317	65.02
379.528	60.93
379.738	54.78
379.948	38.4
380.158	52.74
380.369	3.58
380.579	5.63
380.789	77.31
380.999	24.06
381.21	-35.33
381.42	71.17
381.63	-8.7
381.84	95.74
382.05	34.3
382.261	85.5
382.471	75.26
382.681	-12.8
382.891	62.98
383.101	101.89
383.311	38.4
383.521	9.73
383.731	44.54
383.941	34.3
384.151	7.68
384.361	75.26
384.571	83.45
384.781	30.21
384.991	1.54
385.201	120.32
385.411	99.84
385.621	87.55
385.831	11.78
386.041	79.36
386.251	34.3
386.461	38.4
386.671	89.6
386.881	73.21
387.091	-20.99
387.301	95.74
387.511	52.74
387.72	85.5
387.93	28.16
388.14	17.92
388.35	-8.7
388.56	52.74
388.769	46.59
388.979	99.84
389.189	26.11
389.399	87.55
389.609	30.21
389.818	95.74
390.028	69.12
390.238	7.68
390.447	-25.09
390.657	24.06
390.867	40.45
391.076	38.4
391.286	30.21
391.496	99.84
391.705	38.4
391.915	42.5
392.125	32.26
392.334	9.73
392.544	110.08
392.753	24.06
392.963	40.45
393.172	81.41
393.382	93.69
393.591	108.03
393.801	26.11
394.01	40.45
394.22	87.55
394.429	81.41
394.639	75.26
394.848	89.6
395.058	44.54
395.267	71.17
395.477	71.17
395.686	40.45
395.895	112.13
396.105	52.74
396.314	48.64
396.524	62.98
396.733	46.59
396.942	97.79
397.152	110.08
397.361	99.84
397.57	17.92
397.78	85.5
397.989	77.31
398.198	159.23
398.407	28.16
398.617	32.26
398.826	81.41
399.035	30.21
399.244	103.93
399.453	58.88
399.663	128.51
399.872	38.4
400.081	69.12
400.29	112.13
400.499	73.21
400.708	140.8
400.917	15.87
401.127	24.06
401.336	99.84
401.545	56.83
401.754	79.36
401.963	56.83
402.172	95.74
402.381	22.02
402.59	151.04
402.799	95.74
403.008	163.33
403.217	65.02
403.426	108.03
403.635	130.56
403.844	60.93
404.053	105.98
404.262	185.85
404.471	79.36
404.68	142.85
404.888	148.99
405.097	116.22
405.306	136.7
405.515	122.37
405.724	91.65
405.933	79.36
406.142	153.09
406.35	124.41
406.559	146.94
406.768	153.09
406.977	155.13
407.185	105.98
407.394	169.47
407.603	128.51
407.812	67.07
408.02	77.31
408.229	114.17
408.438	151.04
408.646	161.28
408.855	204.28
409.064	171.52
409.272	177.66
409.481	196.09
409.69	153.09
409.898	202.24
410.107	292.35
410.315	173.57
410.524	194.05
410.733	206.33
410.941	282.11
411.15	214.52
411.358	210.43
411.567	275.96
411.775	251.39
411.984	321.02
412.192	255.48
412.401	376.31
412.609	333.31
412.818	292.35
413.026	312.83
413.234	292.35
413.443	327.16
413.651	327.16
413.86	398.84
414.068	351.74
414.276	298.49
414.485	425.47
414.693	517.62
414.901	484.86
415.11	394.75
415.318	392.7
415.526	413.18
415.734	529.91
415.943	501.24
416.151	552.44
416.359	632.31
416.567	556.54
416.776	513.53
416.984	617.97
417.192	638.45
417.4	554.49
417.608	581.11
417.817	724.47
418.025	691.7
418.233	697.85
418.441	716.28
418.649	730.61
418.857	753.14
419.065	835.06
419.273	812.53
419.481	949.75
419.689	890.35
419.897	1000.94
420.105	923.12
420.313	1037.81
420.521	1017.33
420.729	1078.77
420.937	1021.42
421.145	1109.49
421.353	1115.63
421.561	1199.6
421.769	1275.37
421.977	1308.14
422.185	1275.37
422.393	1324.52
422.601	1490.41
422.809	1496.55
423.017	1414.63
423.224	1568.23
423.432	1580.52
423.64	1519.08
423.848	1709.54
424.056	1666.53
424.263	1803.75
424.471	1830.37
424.679	1805.8
424.887	1940.96
425.094	1824.23
425.302	1951.2
425.51	2069.98
425.718	2176.48
425.925	2162.14
426.133	2227.68
426.341	2231.77
426.548	2565.59
426.756	2436.57
426.964	2508.25
427.171	2616.79
427.379	2813.4
427.586	2825.68
427.794	2854.36
428.001	3005.91
428.209	3087.82
428.417	3024.34
428.624	3204.56
428.832	3243.47
429.039	3188.18
429.247	3233.23
429.454	3458.51
429.662	3728.84
429.869	3470.8
430.076	3702.22
430.284	3696.07
430.491	3855.81
430.699	4044.23
430.906	3974.6
431.114	4158.91
431.321	4300.22
431.528	4398.52
431.736	4605.37
431.943	4916.66
432.15	4658.62
432.358	4660.66
432.565	4984.24
432.772	4943.28
432.979	5297.58
433.187	5305.78
433.394	5348.78
433.601	5701.03
433.808	5539.24
434.016	5748.14
434.223	5918.12
434.43	6286.75
434.637	6253.98
434.844	6669.72
435.052	6614.43
435.259	6301.09
435.466	6610.33
435.673	6630.81
435.88	7038.36
436.087	7343.5
436.294	7251.35
436.501	7318.93
436.708	7259.54
436.915	7648.65
437.122	7992.71
437.329	7910.79
437.537	8144.26
437.743	8279.43
437.95	8265.09
438.157	8668.54
438.364	8895.86
438.571	8871.29
438.778	8861.05
438.985	9893.23
439.192	9481.58
439.399	9776.49
439.606	9430.38
439.813	9852.27
440.02	10706.27
440.227	10497.38
440.433	10161.51
440.64	10716.51
440.847	10573.15
441.054	10974.55
441.261	11416.91
441.467	11634
441.674	11742.54
441.881	12182.85
442.088	11969.87
442.294	11904.33
442.501	12260.68
442.708	12434.75
442.914	12959.03
443.121	13561.14
443.328	13102.39
443.534	13858.09
443.741	13763.89
443.948	13440.31
444.154	14337.32
444.361	14503.2
444.568	14431.52
444.774	14529.83
444.981	14605.6
445.187	15025.43
445.394	15955.21
445.6	15418.64
445.807	16907.52
446.013	16143.63
446.22	16715.01
446.426	17280.25
446.633	17530.1
446.839	17865.97
447.046	17157.37
447.252	18130.16
447.459	18191.59
447.665	18212.07
447.871	18844.9
448.078	19760.34
448.284	18830.56
448.491	19223.77
448.697	20014.29
448.903	20407.5
449.11	20559.05
449.316	20090.06
449.522	20257.99
449.728	20722.88
449.935	21128.38
450.141	21404.86
450.347	21521.59
450.553	20628.68
450.76	21208.25
450.966	22072.5
451.172	21566.65
451.378	22262.96
451.584	21497.02
451.791	22295.72
451.997	22115.5
452.203	22346.92
452.409	22863.01
452.615	22303.92
452.821	21447.86
453.027	21435.58
453.233	22336.68
453.44	21404.86
453.646	21785.78
453.852	21769.4
454.058	22236.33
454.264	21247.16
454.47	22043.82
454.676	21421.24
454.882	22076.59
455.088	20448.46
455.294	20620.49
455.5	21142.72
455.705	21126.33
455.911	20075.73
456.117	19784.91
456.323	19692.76
456.529	18707.68
456.735	19633.36
456.941	19041.5
457.147	18762.98
457.352	17782
457.558	17790.19
457.764	17923.31
457.97	17597.68
458.176	17345.78
458.381	17003.77
458.587	16557.32
458.793	16434.44
458.999	15353.11
459.204	16680.19
459.41	16309.51
459.616	15238.42
459.821	15031.58
460.027	14888.22
460.233	14757.15
460.438	14251.3
460.644	14335.27
460.85	13237.56
461.055	13382.96
461.261	13389.11
461.466	12492.1
461.672	11697.49
461.878	12692.8
462.083	11986.25
462.289	11652.43
462.494	11652.43
462.7	11011.42
462.905	10792.28
463.111	11302.23
463.316	11298.13
463.522	11013.46
463.727	11101.53
463.932	11027.8
464.138	11083.09
464.343	10802.52
464.549	10556.77
464.754	10894.68
464.959	10878.3
465.165	10579.29
465.37	10517.86
465.575	9905.51
465.781	10431.84
465.986	10659.17
466.191	10233.19
466.397	9846.12
466.602	9471.34
466.807	9686.38
467.012	9966.95
467.218	9827.69
467.423	9690.48
467.628	9776.49
467.833	10147.17
468.038	9753.96
468.244	9373.04
468.449	9809.26
468.654	9407.86
468.859	9438.58
469.064	9530.73
