Data from USB4F104151__138__13-58-10-236.txt Node

Date: Thu Mar 13 13:58:10 EDT 2025
User: louis
Spectrometer: USB4F10415
Trigger mode: 4
Integration Time (sec): 1.000000E-2
Scans to average: 1
Electric dark correction enabled: true
Nonlinearity correction enabled: false
Boxcar width: 0
XAxis mode: Wavelengths
Number of Pixels in Spectrum: 3648
>>>>>Begin Spectral Data<<<<<
178.204	-74.41
178.424	-74.41
178.644	-74.41
178.864	-47.79
179.084	-31.4
179.304	1.37
179.524	-2.73
179.744	-27.31
179.964	-25.26
180.184	-39.59
180.404	48.47
180.624	23.89
180.844	-0.68
181.064	-35.5
181.283	7.51
181.503	-8.87
181.723	58.71
181.943	-35.5
182.163	73.04
182.383	3.41
182.602	5.46
182.822	-23.21
183.042	1.37
183.262	56.66
183.482	-4.78
183.701	-45.74
183.921	3.41
184.141	-39.59
184.361	27.99
184.58	-0.68
184.8	34.13
185.02	40.28
185.239	23.89
185.459	-45.74
185.679	15.7
185.898	44.37
186.118	-6.83
186.338	-51.88
186.557	-4.78
186.777	7.51
186.997	-33.45
187.216	-53.93
187.436	116.05
187.655	1.37
187.875	34.13
188.095	54.61
188.314	36.18
188.534	17.75
188.753	-17.07
188.973	-2.73
189.192	7.51
189.412	-10.92
189.631	34.13
189.851	9.56
190.07	54.61
190.29	89.43
190.509	-17.07
190.729	91.48
190.948	19.8
191.168	11.61
191.387	56.66
191.607	-45.74
191.826	46.42
192.045	-23.21
192.265	66.9
192.484	34.13
192.704	11.61
192.923	23.89
193.142	-0.68
193.362	-27.31
193.581	-17.07
193.8	-10.92
194.02	11.61
194.239	-64.17
194.458	11.61
194.678	-23.21
194.897	34.13
195.116	46.42
195.335	42.32
195.555	30.04
195.774	64.85
195.993	-12.97
196.212	1.37
196.432	91.48
196.651	-31.4
196.87	11.61
197.089	89.43
197.308	-19.11
197.528	11.61
197.747	-8.87
197.966	-27.31
198.185	38.23
198.404	42.32
198.623	32.08
198.842	11.61
199.062	5.46
199.281	56.66
199.5	40.28
199.719	40.28
199.938	11.61
200.157	46.42
200.376	13.65
200.595	15.7
200.814	52.56
201.033	-6.83
201.252	38.23
201.471	52.56
201.69	7.51
201.909	68.95
202.128	19.8
202.347	13.65
202.566	17.75
202.785	-15.02
203.004	34.13
203.223	15.7
203.442	-92.84
203.661	-21.16
203.879	-10.92
204.098	58.71
204.317	-21.16
204.536	40.28
204.755	36.18
204.974	7.51
205.193	64.85
205.411	23.89
205.63	15.7
205.849	-23.21
206.068	-6.83
206.287	48.47
206.505	-23.21
206.724	-33.45
206.943	-21.16
207.162	1.37
207.381	-19.11
207.599	11.61
207.818	23.89
208.037	44.37
208.255	-10.92
208.474	11.61
208.693	-23.21
208.911	23.89
209.13	23.89
209.349	56.66
209.567	3.41
209.786	36.18
210.005	73.04
210.223	13.65
210.442	3.41
210.661	-4.78
210.879	23.89
211.098	34.13
211.316	75.09
211.535	118.1
211.753	5.46
211.972	34.13
212.191	-10.92
212.409	-25.26
212.628	64.85
212.846	56.66
213.065	-2.73
213.283	-62.12
213.502	-4.78
213.72	54.61
213.938	-8.87
214.157	15.7
214.375	11.61
214.594	48.47
214.812	-17.07
215.031	7.51
215.249	9.56
215.467	23.89
215.686	11.61
215.904	11.61
216.122	15.7
216.341	-33.45
216.559	-37.55
216.778	19.8
216.996	44.37
217.214	7.51
217.432	17.75
217.651	-25.26
217.869	1.37
218.087	1.37
218.306	23.89
218.524	44.37
218.742	-29.35
218.96	107.86
219.179	-2.73
219.397	-45.74
219.615	50.52
219.833	44.37
220.051	-12.97
220.27	25.94
220.488	3.41
220.706	-33.45
220.924	-6.83
221.142	19.8
221.36	-25.26
221.578	66.9
221.796	-10.92
222.015	-25.26
222.233	9.56
222.451	19.8
222.669	-4.78
222.887	32.08
223.105	5.46
223.323	36.18
223.541	50.52
223.759	7.51
223.977	-45.74
224.195	25.94
224.413	77.14
224.631	-19.11
224.849	-2.73
225.067	-17.07
225.285	-6.83
225.503	50.52
225.721	7.51
225.939	3.41
226.157	3.41
226.375	66.9
226.592	91.48
226.81	36.18
227.028	7.51
227.246	79.19
227.464	7.51
227.682	25.94
227.9	-8.87
228.117	-21.16
228.335	-10.92
228.553	17.75
228.771	40.28
228.989	-27.31
229.206	91.48
229.424	40.28
229.642	11.61
229.86	11.61
230.077	3.41
230.295	73.04
230.513	44.37
230.731	-12.97
230.948	27.99
231.166	32.08
231.384	40.28
231.601	3.41
231.819	79.19
232.037	15.7
232.254	-0.68
232.472	73.04
232.689	36.18
232.907	-41.64
233.125	-45.74
233.342	-53.93
233.56	23.89
233.777	38.23
233.995	-66.22
234.213	-21.16
234.43	42.32
234.648	-58.03
234.865	23.89
235.083	48.47
235.3	-17.07
235.518	25.94
235.735	21.85
235.953	-21.16
236.17	38.23
236.388	11.61
236.605	1.37
236.822	23.89
237.04	68.95
237.257	30.04
237.475	40.28
237.692	34.13
237.909	-6.83
238.127	11.61
238.344	54.61
238.562	21.85
238.779	-17.07
238.996	38.23
239.214	-6.83
239.431	7.51
239.648	15.7
239.865	-15.02
240.083	25.94
240.3	15.7
240.517	1.37
240.735	15.7
240.952	56.66
241.169	-6.83
241.386	105.81
241.603	23.89
241.821	-23.21
242.038	38.23
242.255	-35.5
242.472	85.33
242.689	-4.78
242.907	19.8
243.124	44.37
243.341	40.28
243.558	-2.73
243.775	19.8
243.992	17.75
244.209	85.33
244.426	50.52
244.643	77.14
244.86	44.37
245.078	-29.35
245.295	91.48
245.512	73.04
245.729	-33.45
245.946	58.71
246.163	-8.87
246.38	7.51
246.597	23.89
246.814	19.8
247.031	-33.45
247.248	40.28
247.464	-47.79
247.681	9.56
247.898	9.56
248.115	36.18
248.332	44.37
248.549	19.8
248.766	62.8
248.983	111.96
249.2	-2.73
249.417	58.71
249.633	-10.92
249.85	-58.03
250.067	25.94
250.284	15.7
250.501	46.42
250.717	52.56
250.934	5.46
251.151	-19.11
251.368	-27.31
251.585	11.61
251.801	-39.59
252.018	-19.11
252.235	68.95
252.451	27.99
252.668	-33.45
252.885	32.08
253.102	3.41
253.318	50.52
253.535	-84.65
253.752	-33.45
253.968	25.94
254.185	15.7
254.401	11.61
254.618	3.41
254.835	23.89
255.051	44.37
255.268	40.28
255.484	44.37
255.701	13.65
255.917	38.23
256.134	-25.26
256.351	-23.21
256.567	-45.74
256.784	19.8
257	-33.45
257.217	32.08
257.433	27.99
257.65	-0.68
257.866	-29.35
258.082	19.8
258.299	-0.68
258.515	56.66
258.732	1.37
258.948	32.08
259.165	27.99
259.381	19.8
259.597	42.32
259.814	-31.4
260.03	68.95
260.246	1.37
260.463	21.85
260.679	73.04
260.895	-10.92
261.112	-31.4
261.328	60.76
261.544	23.89
261.761	42.32
261.977	27.99
262.193	-51.88
262.409	58.71
262.626	3.41
262.842	27.99
263.058	-25.26
263.274	25.94
263.49	-25.26
263.707	19.8
263.923	56.66
264.139	7.51
264.355	-39.59
264.571	-49.83
264.787	-15.02
265.004	-23.21
265.22	-6.83
265.436	52.56
265.652	-21.16
265.868	3.41
266.084	-39.59
266.3	42.32
266.516	-53.93
266.732	-33.45
266.948	-49.83
267.164	48.47
267.38	79.19
267.596	36.18
267.812	48.47
268.028	11.61
268.244	56.66
268.46	75.09
268.676	3.41
268.892	44.37
269.108	-15.02
269.324	-12.97
269.54	46.42
269.756	9.56
269.972	9.56
270.188	56.66
270.403	-35.5
270.619	68.95
270.835	46.42
271.051	11.61
271.267	44.37
271.483	-8.87
271.698	-33.45
271.914	-0.68
272.13	50.52
272.346	-45.74
272.562	77.14
272.777	-15.02
272.993	-10.92
273.209	44.37
273.425	-25.26
273.64	-6.83
273.856	40.28
274.072	44.37
274.287	66.9
274.503	-17.07
274.719	21.85
274.934	27.99
275.15	21.85
275.366	32.08
275.581	-25.26
275.797	36.18
276.012	25.94
276.228	17.75
276.444	-25.26
276.659	56.66
276.875	5.46
277.09	62.8
277.306	-0.68
277.521	13.65
277.737	-0.68
277.952	-37.55
278.168	-43.69
278.383	27.99
278.599	9.56
278.814	-10.92
279.03	60.76
279.245	38.23
279.461	62.8
279.676	56.66
279.892	-12.97
280.107	32.08
280.322	-17.07
280.538	34.13
280.753	3.41
280.969	23.89
281.184	23.89
281.399	32.08
281.615	62.8
281.83	-31.4
282.045	-25.26
282.26	1.37
282.476	-0.68
282.691	44.37
282.906	-8.87
283.122	60.76
283.337	-17.07
283.552	46.42
283.767	-88.75
283.983	-27.31
284.198	-43.69
284.413	5.46
284.628	-25.26
284.843	7.51
285.058	1.37
285.274	-23.21
285.489	-66.22
285.704	23.89
285.919	50.52
286.134	17.75
286.349	23.89
286.564	36.18
286.779	21.85
286.995	-0.68
287.21	66.9
287.425	42.32
287.64	-29.35
287.855	-2.73
288.07	-2.73
288.285	56.66
288.5	-15.02
288.715	17.75
288.93	-23.21
289.145	-25.26
289.36	34.13
289.575	-10.92
289.79	42.32
290.004	32.08
290.219	52.56
290.434	-25.26
290.649	-23.21
290.864	-0.68
291.079	-33.45
291.294	-12.97
291.509	83.28
291.724	34.13
291.938	3.41
292.153	48.47
292.368	25.94
292.583	42.32
292.798	77.14
293.012	23.89
293.227	-6.83
293.442	-62.12
293.657	19.8
293.871	46.42
294.086	-33.45
294.301	34.13
294.516	21.85
294.73	21.85
294.945	5.46
295.16	7.51
295.374	9.56
295.589	9.56
295.804	-74.41
296.018	77.14
296.233	25.94
296.447	11.61
296.662	7.51
296.877	21.85
297.091	-4.78
297.306	-0.68
297.52	56.66
297.735	36.18
297.949	48.47
298.164	15.7
298.378	64.85
298.593	-10.92
298.807	77.14
299.022	-4.78
299.236	-25.26
299.451	5.46
299.665	-47.79
299.88	44.37
300.094	60.76
300.309	7.51
300.523	36.18
300.737	75.09
300.952	40.28
301.166	-41.64
301.381	7.51
301.595	89.43
301.809	34.13
302.024	-19.11
302.238	-17.07
302.452	1.37
302.667	17.75
302.881	11.61
303.095	-45.74
303.309	32.08
303.524	60.76
303.738	-6.83
303.952	21.85
304.166	75.09
304.381	-29.35
304.595	-64.17
304.809	34.13
305.023	1.37
305.237	40.28
305.452	38.23
305.666	11.61
305.88	30.04
306.094	11.61
306.308	5.46
306.522	21.85
306.736	124.24
306.95	-0.68
307.164	71
307.379	-27.31
307.593	25.94
307.807	32.08
308.021	-33.45
308.235	-25.26
308.449	48.47
308.663	25.94
308.877	103.76
309.091	5.46
309.305	34.13
309.519	-25.26
309.733	11.61
309.947	7.51
310.161	40.28
310.374	-8.87
310.588	30.04
310.802	-35.5
311.016	-41.64
311.23	36.18
311.444	-8.87
311.658	34.13
311.872	11.61
312.085	71
312.299	32.08
312.513	38.23
312.727	-39.59
312.941	66.9
313.154	-17.07
313.368	75.09
313.582	32.08
313.796	1.37
314.009	-15.02
314.223	40.28
314.437	68.95
314.651	-12.97
314.864	23.89
315.078	50.52
315.292	13.65
315.505	-4.78
315.719	62.8
315.933	-0.68
316.146	-17.07
316.36	62.8
316.573	17.75
316.787	-17.07
317.001	-2.73
317.214	-43.69
317.428	1.37
317.641	-4.78
317.855	27.99
318.068	-8.87
318.282	-39.59
318.495	60.76
318.709	52.56
318.922	42.32
319.136	42.32
319.349	62.8
319.563	25.94
319.776	83.28
319.99	56.66
320.203	60.76
320.417	-31.4
320.63	32.08
320.843	1.37
321.057	34.13
321.27	30.04
321.483	23.89
321.697	60.76
321.91	79.19
322.124	32.08
322.337	30.04
322.55	48.47
322.763	54.61
322.977	32.08
323.19	19.8
323.403	11.61
323.617	19.8
323.83	19.8
324.043	25.94
324.256	34.13
324.469	11.61
324.683	13.65
324.896	9.56
325.109	27.99
325.322	36.18
325.535	23.89
325.748	-19.11
325.962	42.32
326.175	89.43
326.388	30.04
326.601	-0.68
326.814	66.9
327.027	-4.78
327.24	54.61
327.453	1.37
327.666	56.66
327.879	15.7
328.092	75.09
328.305	30.04
328.518	36.18
328.731	-10.92
328.944	62.8
329.157	-15.02
329.37	-0.68
329.583	-15.02
329.796	73.04
330.009	-12.97
330.222	95.57
330.435	62.8
330.648	17.75
330.861	-2.73
331.073	-15.02
331.286	77.14
331.499	36.18
331.712	62.8
331.925	15.7
332.138	83.28
332.35	97.62
332.563	30.04
332.776	-0.68
332.989	13.65
333.202	32.08
333.414	-33.45
333.627	9.56
333.84	-49.83
334.053	50.52
334.265	-0.68
334.478	79.19
334.691	40.28
334.903	15.7
335.116	36.18
335.329	56.66
335.541	-17.07
335.754	9.56
335.966	68.95
336.179	66.9
336.392	-29.35
336.604	1.37
336.817	68.95
337.029	36.18
337.242	11.61
337.454	9.56
337.667	-60.07
337.88	11.61
338.092	40.28
338.305	79.19
338.517	-45.74
338.729	40.28
338.942	19.8
339.154	118.1
339.367	-25.26
339.579	-0.68
339.792	-10.92
340.004	77.14
340.217	-37.55
340.429	66.9
340.641	-51.88
340.854	25.94
341.066	7.51
341.278	23.89
341.491	48.47
341.703	1.37
341.915	-12.97
342.128	-37.55
342.34	9.56
342.552	9.56
342.764	-41.64
342.977	48.47
343.189	9.56
343.401	21.85
343.613	-37.55
343.826	-4.78
344.038	54.61
344.25	40.28
344.462	-29.35
344.674	-19.11
344.886	11.61
345.099	15.7
345.311	13.65
345.523	-74.41
345.735	27.99
345.947	-43.69
346.159	46.42
346.371	58.71
346.583	-37.55
346.795	-8.87
347.007	-58.03
347.219	58.71
347.431	1.37
347.643	46.42
347.855	97.62
348.067	48.47
348.279	-84.65
348.491	13.65
348.703	-31.4
348.915	48.47
349.127	-0.68
349.339	-6.83
349.551	58.71
349.763	-0.68
349.975	17.75
350.187	77.14
350.399	36.18
350.61	60.76
350.822	-17.07
351.034	27.99
351.246	46.42
351.458	58.71
351.669	40.28
351.881	-0.68
352.093	68.95
352.305	44.37
352.517	71
352.728	-8.87
352.94	7.51
353.152	66.9
353.363	-4.78
353.575	7.51
353.787	48.47
353.999	66.9
354.21	-6.83
354.422	130.39
354.633	-21.16
354.845	19.8
355.057	-88.75
355.268	25.94
355.48	19.8
355.692	-23.21
355.903	34.13
356.115	-2.73
356.326	3.41
356.538	-8.87
356.749	9.56
356.961	32.08
357.172	79.19
357.384	-4.78
357.595	44.37
357.807	11.61
358.018	-2.73
358.23	-0.68
358.441	42.32
358.653	107.86
358.864	-4.78
359.075	15.7
359.287	71
359.498	-17.07
359.709	-4.78
359.921	-33.45
360.132	17.75
360.344	3.41
360.555	38.23
360.766	68.95
360.977	21.85
361.189	-31.4
361.4	15.7
361.611	3.41
361.823	42.32
362.034	40.28
362.245	23.89
362.456	32.08
362.667	40.28
362.879	-39.59
363.09	-51.88
363.301	1.37
363.512	52.56
363.723	-6.83
363.935	27.99
364.146	93.52
364.357	17.75
364.568	64.85
364.779	-0.68
364.99	15.7
365.201	25.94
365.412	-21.16
365.623	-29.35
365.834	81.24
366.045	11.61
366.256	50.52
366.467	27.99
366.678	25.94
366.889	-0.68
367.1	-6.83
367.311	-25.26
367.522	-23.21
367.733	42.32
367.944	50.52
368.155	27.99
368.366	-66.22
368.577	-15.02
368.788	15.7
368.999	11.61
369.209	58.71
369.42	9.56
369.631	9.56
369.842	58.71
370.053	-37.55
370.264	27.99
370.474	-21.16
370.685	-8.87
370.896	-8.87
371.107	9.56
371.317	-12.97
371.528	9.56
371.739	50.52
371.95	-6.83
372.16	140.63
372.371	23.89
372.582	30.04
372.792	38.23
373.003	3.41
373.214	-8.87
373.424	73.04
373.635	64.85
373.846	13.65
374.056	-25.26
374.267	91.48
374.477	-27.31
374.688	85.33
374.898	19.8
375.109	40.28
375.319	56.66
375.53	-60.07
375.74	52.56
375.951	-37.55
376.161	64.85
376.372	64.85
376.582	-15.02
376.793	15.7
377.003	23.89
377.214	15.7
377.424	-8.87
377.635	36.18
377.845	52.56
378.055	-27.31
378.266	77.14
378.476	-33.45
378.686	23.89
378.897	81.24
379.107	44.37
379.317	19.8
379.528	-0.68
379.738	58.71
379.948	23.89
380.158	-12.97
380.369	-45.74
380.579	48.47
380.789	60.76
380.999	-12.97
381.21	56.66
381.42	11.61
381.63	13.65
381.84	32.08
382.05	-41.64
382.261	75.09
382.471	19.8
382.681	73.04
382.891	46.42
383.101	79.19
383.311	-12.97
383.521	11.61
383.731	15.7
383.941	68.95
384.151	-15.02
384.361	9.56
384.571	-45.74
384.781	81.24
384.991	17.75
385.201	68.95
385.411	36.18
385.621	9.56
385.831	-2.73
386.041	13.65
386.251	-35.5
386.461	21.85
386.671	9.56
386.881	-15.02
387.091	-15.02
387.301	-0.68
387.511	-2.73
387.72	64.85
387.93	87.38
388.14	15.7
388.35	-21.16
388.56	50.52
388.769	42.32
388.979	62.8
389.189	-68.27
389.399	-23.21
389.609	3.41
389.818	50.52
390.028	52.56
390.238	9.56
390.447	17.75
390.657	-15.02
390.867	11.61
391.076	-6.83
391.286	7.51
391.496	-25.26
391.705	13.65
391.915	60.76
392.125	38.23
392.334	40.28
392.544	30.04
392.753	89.43
392.963	81.24
393.172	71
393.382	60.76
393.591	-8.87
393.801	23.89
394.01	36.18
394.22	64.85
394.429	36.18
394.639	-0.68
394.848	5.46
395.058	62.8
395.267	79.19
395.477	-39.59
395.686	34.13
395.895	79.19
396.105	34.13
396.314	81.24
396.524	9.56
396.733	-0.68
396.942	48.47
397.152	62.8
397.361	77.14
397.57	15.7
397.78	62.8
397.989	9.56
398.198	38.23
398.407	-23.21
398.617	56.66
398.826	-29.35
399.035	23.89
399.244	9.56
399.453	42.32
399.663	-0.68
399.872	5.46
400.081	21.85
400.29	73.04
400.499	5.46
400.708	138.58
400.917	91.48
401.127	99.67
401.336	23.89
401.545	75.09
401.754	15.7
401.963	25.94
402.172	23.89
402.381	13.65
402.59	-15.02
402.799	40.28
403.008	64.85
403.217	75.09
403.426	30.04
403.635	50.52
403.844	83.28
404.053	73.04
404.262	44.37
404.471	95.57
404.68	13.65
404.888	52.56
405.097	7.51
405.306	77.14
405.515	21.85
405.724	68.95
405.933	9.56
406.142	48.47
406.35	148.82
406.559	124.24
406.768	93.52
406.977	97.62
407.185	103.76
407.394	93.52
407.603	40.28
407.812	107.86
408.02	89.43
408.229	27.99
408.438	85.33
408.646	81.24
408.855	87.38
409.064	83.28
409.272	81.24
409.481	122.2
409.69	105.81
409.898	111.96
410.107	64.85
410.315	122.2
410.524	134.48
410.733	79.19
410.941	93.52
411.15	212.31
411.358	189.78
411.567	138.58
411.775	138.58
411.984	91.48
412.192	150.87
412.401	214.35
412.609	167.25
412.818	140.63
413.026	103.76
413.234	214.35
413.443	214.35
413.651	220.5
413.86	200.02
414.068	267.6
414.276	279.89
414.485	296.27
414.693	320.85
414.901	273.75
415.11	294.22
415.318	202.07
415.526	261.46
415.734	238.93
415.943	345.42
416.151	292.18
416.359	310.61
416.567	269.65
416.776	341.33
416.984	302.42
417.192	326.99
417.4	394.58
417.608	365.9
417.817	378.19
418.025	400.72
418.233	453.97
418.441	427.34
418.649	480.59
418.857	355.66
419.065	382.29
419.273	458.06
419.481	468.3
419.689	515.41
419.897	527.69
420.105	496.97
420.313	576.84
420.521	580.94
420.729	615.76
420.937	623.95
421.145	558.41
421.353	687.43
421.561	703.82
421.769	675.15
421.977	769.35
422.185	734.54
422.393	726.35
422.601	789.83
422.809	853.32
423.017	828.74
423.224	861.51
423.432	933.19
423.64	886.09
423.848	990.53
424.056	910.66
424.263	1011.01
424.471	1011.01
424.679	900.42
424.887	1082.69
425.094	1076.55
425.302	1121.6
425.51	1092.93
425.718	1174.85
425.925	1219.91
426.133	1318.21
426.341	1273.15
426.548	1375.55
426.756	1445.18
426.964	1420.61
427.171	1473.85
427.379	1539.39
427.586	1529.15
427.794	1561.92
428.001	1654.08
428.209	1670.46
428.417	1744.19
428.624	1862.97
428.832	1844.54
429.039	1844.54
429.247	1889.59
429.454	1908.02
429.662	1996.09
429.869	1901.88
430.076	2106.68
430.284	2112.82
430.491	2186.55
430.699	2299.19
430.906	2272.56
431.114	2256.18
431.321	2442.54
431.528	2338.1
431.736	2532.65
431.943	2819.37
432.15	2618.67
432.358	2733.36
432.565	2784.55
432.772	2848.04
432.979	2866.47
433.187	2950.44
433.394	3018.02
433.601	3210.53
433.808	3308.83
434.016	3188
434.223	3259.68
434.43	3538.21
434.637	3331.36
434.844	3697.95
435.052	3751.2
435.259	3656.99
435.466	3714.33
435.673	3636.51
435.88	3847.45
436.087	4068.63
436.294	4218.13
436.501	3958.04
436.708	4185.37
436.915	4314.39
437.122	4463.89
437.329	4408.59
437.537	4609.3
437.743	4738.32
437.95	4775.18
438.157	4824.33
438.364	5061.9
438.571	4967.69
438.778	5068.04
438.985	5543.17
439.192	5149.96
439.399	5465.35
439.606	5195.01
439.813	5633.28
440.02	6089.98
440.227	5848.32
440.433	5958.91
440.64	6083.83
440.847	6040.83
441.054	5973.24
441.261	6601.97
441.467	6427.89
441.674	6612.21
441.881	6745.33
442.088	6657.26
442.294	6759.66
442.501	6966.51
442.708	6939.88
442.914	7351.53
443.121	7603.43
443.328	7347.43
443.534	7855.33
443.741	7789.79
443.948	7603.43
444.154	8129.75
444.361	7990.49
444.568	8125.66
444.774	8094.94
444.981	8088.79
445.187	8473.81
445.394	8916.17
445.6	8561.87
445.807	9454.79
446.013	9090.25
446.22	9198.79
446.426	9825.47
446.633	9594.05
446.839	9964.73
447.046	9624.77
447.252	10450.1
447.459	10310.84
447.665	10169.53
447.871	10507.44
448.078	10945.71
448.284	10788.02
448.491	10759.35
448.697	11328.68
448.903	11488.42
449.11	11478.18
449.316	11146.41
449.522	11472.04
449.728	12117.15
449.935	11809.95
450.141	11883.68
450.347	12338.33
450.553	11787.43
450.76	11863.2
450.966	12436.63
451.172	12229.79
451.378	12616.85
451.584	12315.8
451.791	12715.16
451.997	12608.66
452.203	12936.34
452.409	12676.24
452.615	12862.61
452.821	12246.17
453.027	12164.25
453.233	12735.64
453.44	12436.63
453.646	12467.35
453.852	12616.85
454.058	12778.64
454.264	12465.3
454.47	12745.87
454.676	12303.51
454.882	12657.81
455.088	11685.03
455.294	12063.9
455.5	12160.16
455.705	12242.07
455.911	11484.33
456.117	11568.29
456.323	11158.7
456.529	10615.99
456.735	11132.08
456.941	10906.8
457.147	10538.16
457.352	10433.72
457.558	10183.87
457.764	10218.68
457.97	10101.95
458.176	9987.26
458.381	9731.26
458.587	9448.65
458.793	9450.69
458.999	9108.68
459.204	9528.52
459.41	9252.04
459.616	8961.23
459.821	8611.03
460.027	8768.72
460.233	8545.49
460.438	7961.82
460.644	8139.99
460.85	7687.39
461.055	7460.07
461.261	7644.38
461.466	7206.12
461.672	6956.27
461.878	7152.87
462.083	7101.67
462.289	6841.58
462.494	6620.4
462.7	6423.8
462.905	6407.41
463.111	6417.65
463.316	6462.71
463.522	6323.44
463.727	6399.22
463.932	6161.66
464.138	6219
464.343	6341.88
464.549	5909.76
464.754	6382.84
464.959	6499.57
465.165	6143.22
465.37	6096.12
465.575	5756.16
465.781	6028.54
465.986	6016.25
466.191	5741.82
466.397	5592.32
466.602	5625.09
466.807	5598.46
467.012	5635.33
467.218	5563.65
467.423	5459.2
467.628	5666.05
467.833	5807.36
468.038	5666.05
468.244	5385.48
468.449	5694.72
468.654	5620.99
468.859	5342.47
469.064	5444.87
469.269	5127.43
469.474	5229.83
469.679	5315.84
469.885	5137.67
