Data from USB4F104151__83__13-54-23-751.txt Node

Date: Thu Mar 13 13:54:23 EDT 2025
User: louis
Spectrometer: USB4F10415
Trigger mode: 4
Integration Time (sec): 1.000000E-2
Scans to average: 1
Electric dark correction enabled: true
Nonlinearity correction enabled: false
Boxcar width: 0
XAxis mode: Wavelengths
Number of Pixels in Spectrum: 3648
>>>>>Begin Spectral Data<<<<<
178.204	-9.39
178.424	-9.39
178.644	-9.39
178.864	-13.48
179.084	-27.82
179.304	23.38
179.524	-33.96
179.744	15.19
179.964	82.77
180.184	-48.3
180.404	4.95
180.624	-17.58
180.844	39.76
181.064	-76.97
181.283	-38.06
181.503	23.38
181.723	25.43
181.943	-7.34
182.163	-17.58
182.383	13.14
182.602	72.53
182.822	74.58
183.042	72.53
183.262	13.14
183.482	76.63
183.701	-40.11
183.921	-3.24
184.141	2.9
184.361	45.91
184.58	54.1
184.8	-7.34
185.02	45.91
185.239	66.39
185.459	-1.19
185.679	33.62
185.898	58.2
186.118	27.48
186.338	-62.63
186.557	7
186.777	-9.39
186.997	19.29
187.216	-13.48
187.436	21.33
187.655	39.76
187.875	-9.39
188.095	-5.29
188.314	-15.53
188.534	58.2
188.753	47.96
188.973	21.33
189.192	93.01
189.412	76.63
189.631	56.15
189.851	23.38
190.07	23.38
190.29	29.52
190.509	60.24
190.729	-25.77
190.948	35.67
191.168	-19.63
191.387	60.24
191.607	64.34
191.826	21.33
192.045	-15.53
192.265	27.48
192.484	-25.77
192.704	39.76
192.923	25.43
193.142	88.92
193.362	4.95
193.581	27.48
193.8	72.53
194.02	50
194.239	-3.24
194.458	19.29
194.678	33.62
194.897	-42.15
195.116	0.85
195.335	23.38
195.555	33.62
195.774	43.86
195.993	66.39
196.212	13.14
196.432	15.19
196.651	-54.44
196.87	0.85
197.089	-31.91
197.308	-9.39
197.528	-11.43
197.747	-56.49
197.966	17.24
198.185	66.39
198.404	29.52
198.623	50
198.842	29.52
199.062	0.85
199.281	-11.43
199.5	45.91
199.719	-31.91
199.938	9.05
200.157	25.43
200.376	-17.58
200.595	19.29
200.814	62.29
201.033	2.9
201.252	90.96
201.471	47.96
201.69	11.09
201.909	66.39
202.128	19.29
202.347	97.11
202.566	-13.48
202.785	-15.53
203.004	11.09
203.223	58.2
203.442	-15.53
203.661	-40.11
203.879	86.87
204.098	64.34
204.317	15.19
204.536	-11.43
204.755	-21.67
204.974	19.29
205.193	-23.72
205.411	27.48
205.63	-5.29
205.849	45.91
206.068	11.09
206.287	39.76
206.505	50
206.724	7
206.943	33.62
207.162	62.29
207.381	31.57
207.599	-74.92
207.818	99.16
208.037	-15.53
208.255	9.05
208.474	54.1
208.693	-3.24
208.911	80.72
209.13	41.81
209.349	9.05
209.567	21.33
209.786	74.58
210.005	62.29
210.223	54.1
210.442	37.72
210.661	35.67
210.879	-46.25
211.098	68.44
211.316	29.52
211.535	15.19
211.753	9.05
211.972	90.96
212.191	4.95
212.409	35.67
212.628	-13.48
212.846	7
213.065	-15.53
213.283	41.81
213.502	17.24
213.72	86.87
213.938	58.2
214.157	-33.96
214.375	45.91
214.594	4.95
214.812	11.09
215.031	25.43
215.249	-56.49
215.467	47.96
215.686	29.52
215.904	115.54
216.122	43.86
216.341	21.33
216.559	17.24
216.778	54.1
216.996	35.67
217.214	35.67
217.432	25.43
217.651	80.72
217.869	15.19
218.087	13.14
218.306	9.05
218.524	-11.43
218.742	-1.19
218.96	37.72
219.179	37.72
219.397	23.38
219.615	39.76
219.833	50
220.051	50
220.27	76.63
220.488	60.24
220.706	-9.39
220.924	35.67
221.142	11.09
221.36	37.72
221.578	80.72
221.796	0.85
222.015	97.11
222.233	95.06
222.451	7
222.669	35.67
222.887	-5.29
223.105	-13.48
223.323	29.52
223.541	-13.48
223.759	35.67
223.977	54.1
224.195	0.85
224.413	23.38
224.631	35.67
224.849	-81.07
225.067	66.39
225.285	19.29
225.503	41.81
225.721	4.95
225.939	4.95
226.157	41.81
226.375	52.05
226.592	11.09
226.81	58.2
227.028	60.24
227.246	74.58
227.464	-15.53
227.682	31.57
227.9	-13.48
228.117	43.86
228.335	82.77
228.553	33.62
228.771	23.38
228.989	17.24
229.206	-7.34
229.424	7
229.642	17.24
229.86	21.33
230.077	4.95
230.295	-5.29
230.513	39.76
230.731	23.38
230.948	2.9
231.166	33.62
231.384	-3.24
231.601	31.57
231.819	33.62
232.037	47.96
232.254	11.09
232.472	29.52
232.689	-66.73
232.907	-19.63
233.125	-11.43
233.342	107.35
233.56	39.76
233.777	31.57
233.995	-50.35
234.213	13.14
234.43	54.1
234.648	97.11
234.865	7
235.083	31.57
235.3	62.29
235.518	43.86
235.735	-9.39
235.953	-27.82
236.17	21.33
236.388	56.15
236.605	-19.63
236.822	119.64
237.04	29.52
237.257	47.96
237.475	-7.34
237.692	41.81
237.909	39.76
238.127	47.96
238.344	86.87
238.562	72.53
238.779	-29.87
238.996	15.19
239.214	2.9
239.431	-19.63
239.648	-72.87
239.865	-50.35
240.083	-11.43
240.3	-40.11
240.517	-1.19
240.735	97.11
240.952	-25.77
241.169	15.19
241.386	70.48
241.603	58.2
241.821	27.48
242.038	25.43
242.255	4.95
242.472	35.67
242.689	0.85
242.907	56.15
243.124	72.53
243.341	-56.49
243.558	21.33
243.775	-23.72
243.992	7
244.209	-1.19
244.426	7
244.643	74.58
244.86	41.81
245.078	-13.48
245.295	119.64
245.512	13.14
245.729	60.24
245.946	13.14
246.163	35.67
246.38	45.91
246.597	50
246.814	50
247.031	29.52
247.248	52.05
247.464	27.48
247.681	13.14
247.898	-44.2
248.115	52.05
248.332	0.85
248.549	-31.91
248.766	15.19
248.983	27.48
249.2	52.05
249.417	-56.49
249.633	43.86
249.85	-3.24
250.067	39.76
250.284	-83.11
250.501	11.09
250.717	-15.53
250.934	11.09
251.151	-3.24
251.368	64.34
251.585	-19.63
251.801	-40.11
252.018	93.01
252.235	-21.67
252.451	4.95
252.668	23.38
252.885	35.67
253.102	11.09
253.318	9.05
253.535	76.63
253.752	17.24
253.968	64.34
254.185	13.14
254.401	41.81
254.618	-9.39
254.835	56.15
255.051	9.05
255.268	-46.25
255.484	68.44
255.701	15.19
255.917	-36.01
256.134	64.34
256.351	19.29
256.567	0.85
256.784	-38.06
257	-66.73
257.217	-1.19
257.433	-1.19
257.65	-44.2
257.866	9.05
258.082	56.15
258.299	21.33
258.515	35.67
258.732	45.91
258.948	-1.19
259.165	-21.67
259.381	50
259.597	-72.87
259.814	148.31
260.03	4.95
260.246	21.33
260.463	-19.63
260.679	68.44
260.895	4.95
261.112	21.33
261.328	4.95
261.544	-13.48
261.761	50
261.977	-1.19
262.193	4.95
262.409	47.96
262.626	72.53
262.842	39.76
263.058	33.62
263.274	54.1
263.49	60.24
263.707	52.05
263.923	25.43
264.139	27.48
264.355	25.43
264.571	25.43
264.787	-15.53
265.004	66.39
265.22	-5.29
265.436	27.48
265.652	21.33
265.868	33.62
266.084	-21.67
266.3	-68.78
266.516	41.81
266.732	19.29
266.948	37.72
267.164	52.05
267.38	-11.43
267.596	95.06
267.812	90.96
268.028	54.1
268.244	-9.39
268.46	-9.39
268.676	29.52
268.892	84.82
269.108	15.19
269.324	129.88
269.54	-27.82
269.756	25.43
269.972	11.09
270.188	4.95
270.403	-17.58
270.619	-17.58
270.835	-27.82
271.051	19.29
271.267	66.39
271.483	4.95
271.698	27.48
271.914	-3.24
272.13	52.05
272.346	90.96
272.562	-52.39
272.777	64.34
272.993	-7.34
273.209	-29.87
273.425	7
273.64	-46.25
273.856	56.15
274.072	23.38
274.287	13.14
274.503	43.86
274.719	-25.77
274.934	7
275.15	-38.06
275.366	-36.01
275.581	17.24
275.797	78.68
276.012	-3.24
276.228	17.24
276.444	23.38
276.659	56.15
276.875	15.19
277.09	29.52
277.306	-23.72
277.521	82.77
277.737	41.81
277.952	15.19
278.168	78.68
278.383	64.34
278.599	21.33
278.814	-5.29
279.03	62.29
279.245	17.24
279.461	-38.06
279.676	74.58
279.892	7
280.107	86.87
280.322	58.2
280.538	56.15
280.753	-7.34
280.969	29.52
281.184	66.39
281.399	56.15
281.615	101.2
281.83	45.91
282.045	-19.63
282.26	54.1
282.476	7
282.691	-5.29
282.906	11.09
283.122	7
283.337	39.76
283.552	11.09
283.767	52.05
283.983	11.09
284.198	39.76
284.413	0.85
284.628	-25.77
284.843	19.29
285.058	-29.87
285.274	39.76
285.489	-38.06
285.704	-1.19
285.919	2.9
286.134	11.09
286.349	37.72
286.564	25.43
286.779	80.72
286.995	39.76
287.21	50
287.425	52.05
287.64	129.88
287.855	-3.24
288.07	27.48
288.285	56.15
288.5	35.67
288.715	41.81
288.93	13.14
289.145	35.67
289.36	66.39
289.575	-1.19
289.79	95.06
290.004	7
290.219	-3.24
290.434	78.68
290.649	-36.01
290.864	27.48
291.079	74.58
291.294	-25.77
291.509	-15.53
291.724	-9.39
291.938	13.14
292.153	4.95
292.368	-17.58
292.583	62.29
292.798	60.24
293.012	80.72
293.227	13.14
293.442	25.43
293.657	99.16
293.871	7
294.086	80.72
294.301	-3.24
294.516	4.95
294.73	17.24
294.945	52.05
295.16	66.39
295.374	0.85
295.589	78.68
295.804	13.14
296.018	47.96
296.233	2.9
296.447	17.24
296.662	37.72
296.877	52.05
297.091	-33.96
297.306	21.33
297.52	11.09
297.735	-19.63
297.949	-17.58
298.164	25.43
298.378	56.15
298.593	54.1
298.807	31.57
299.022	-7.34
299.236	80.72
299.451	-46.25
299.665	17.24
299.88	-60.59
300.094	17.24
300.309	-29.87
300.523	37.72
300.737	52.05
300.952	-29.87
301.166	58.2
301.381	-56.49
301.595	107.35
301.809	33.62
302.024	7
302.238	56.15
302.452	19.29
302.667	-9.39
302.881	21.33
303.095	4.95
303.309	15.19
303.524	4.95
303.738	-25.77
303.952	-5.29
304.166	-17.58
304.381	-66.73
304.595	82.77
304.809	60.24
305.023	50
305.237	-36.01
305.452	27.48
305.666	17.24
305.88	56.15
306.094	11.09
306.308	2.9
306.522	35.67
306.736	23.38
306.95	2.9
307.164	52.05
307.379	39.76
307.593	37.72
307.807	-17.58
308.021	80.72
308.235	25.43
308.449	-3.24
308.663	47.96
308.877	33.62
309.091	31.57
309.305	-9.39
309.519	-48.3
309.733	27.48
309.947	13.14
310.161	29.52
310.374	15.19
310.588	56.15
310.802	-19.63
311.016	-9.39
311.23	-25.77
311.444	-19.63
311.658	13.14
311.872	29.52
312.085	31.57
312.299	0.85
312.513	31.57
312.727	78.68
312.941	27.48
313.154	13.14
313.368	43.86
313.582	31.57
313.796	47.96
314.009	9.05
314.223	-1.19
314.437	70.48
314.651	-31.91
314.864	4.95
315.078	41.81
315.292	19.29
315.505	0.85
315.719	86.87
315.933	52.05
316.146	0.85
316.36	66.39
316.573	-7.34
316.787	4.95
317.001	66.39
317.214	35.67
317.428	39.76
317.641	-29.87
317.855	105.3
318.068	56.15
318.282	39.76
318.495	-21.67
318.709	95.06
318.922	17.24
319.136	45.91
319.349	37.72
319.563	33.62
319.776	70.48
319.99	-9.39
320.203	-21.67
320.417	35.67
320.63	37.72
320.843	35.67
321.057	-3.24
321.27	17.24
321.483	23.38
321.697	21.33
321.91	33.62
322.124	35.67
322.337	-54.44
322.55	41.81
322.763	27.48
322.977	-17.58
323.19	23.38
323.403	-15.53
323.617	60.24
323.83	-3.24
324.043	13.14
324.256	-9.39
324.469	33.62
324.683	56.15
324.896	-27.82
325.109	-52.39
325.322	-13.48
325.535	17.24
325.748	93.01
325.962	-58.54
326.175	50
326.388	19.29
326.601	-13.48
326.814	50
327.027	15.19
327.24	-17.58
327.453	2.9
327.666	41.81
327.879	-9.39
328.092	41.81
328.305	13.14
328.518	37.72
328.731	33.62
328.944	45.91
329.157	45.91
329.37	9.05
329.583	21.33
329.796	-9.39
330.009	-44.2
330.222	33.62
330.435	25.43
330.648	29.52
330.861	0.85
331.073	33.62
331.286	-50.35
331.499	19.29
331.712	19.29
331.925	-1.19
332.138	95.06
332.35	80.72
332.563	60.24
332.776	101.2
332.989	43.86
333.202	21.33
333.414	76.63
333.627	68.44
333.84	-13.48
334.053	21.33
334.265	54.1
334.478	50
334.691	29.52
334.903	-15.53
335.116	56.15
335.329	-15.53
335.541	45.91
335.754	90.96
335.966	54.1
336.179	62.29
336.392	86.87
336.604	29.52
336.817	35.67
337.029	-50.35
337.242	-50.35
337.454	13.14
337.667	43.86
337.88	70.48
338.092	11.09
338.305	43.86
338.517	-23.72
338.729	68.44
338.942	9.05
339.154	62.29
339.367	41.81
339.579	13.14
339.792	-15.53
340.004	-23.72
340.217	27.48
340.429	29.52
340.641	17.24
340.854	-1.19
341.066	64.34
341.278	2.9
341.491	23.38
341.703	31.57
341.915	17.24
342.128	45.91
342.34	107.35
342.552	160.59
342.764	41.81
342.977	4.95
343.189	2.9
343.401	56.15
343.613	103.25
343.826	-1.19
344.038	-13.48
344.25	21.33
344.462	11.09
344.674	99.16
344.886	-23.72
345.099	11.09
345.311	-9.39
345.523	62.29
345.735	72.53
345.947	105.3
346.159	17.24
346.371	-31.91
346.583	58.2
346.795	64.34
347.007	-15.53
347.219	21.33
347.431	25.43
347.643	62.29
347.855	31.57
348.067	-11.43
348.279	29.52
348.491	19.29
348.703	39.76
348.915	35.67
349.127	43.86
349.339	62.29
349.551	41.81
349.763	74.58
349.975	-58.54
350.187	-5.29
350.399	50
350.61	95.06
350.822	25.43
351.034	11.09
351.246	19.29
351.458	52.05
351.669	29.52
351.881	13.14
352.093	-19.63
352.305	41.81
352.517	54.1
352.728	23.38
352.94	15.19
353.152	39.76
353.363	25.43
353.575	-25.77
353.787	62.29
353.999	60.24
354.21	-11.43
354.422	97.11
354.633	78.68
354.845	90.96
355.057	15.19
355.268	-17.58
355.48	-29.87
355.692	25.43
355.903	54.1
356.115	13.14
356.326	-46.25
356.538	93.01
356.749	27.48
356.961	68.44
357.172	-91.31
357.384	-7.34
357.595	58.2
357.807	-9.39
358.018	-54.44
358.23	90.96
358.441	70.48
358.653	-19.63
358.864	15.19
359.075	43.86
359.287	35.67
359.498	11.09
359.709	80.72
359.921	45.91
360.132	13.14
360.344	7
360.555	43.86
360.766	52.05
360.977	15.19
361.189	64.34
361.4	-3.24
361.611	47.96
361.823	64.34
362.034	50
362.245	50
362.456	17.24
362.667	54.1
362.879	56.15
363.09	43.86
363.301	64.34
363.512	-36.01
363.723	11.09
363.935	152.4
364.146	41.81
364.357	-40.11
364.568	13.14
364.779	41.81
364.99	39.76
365.201	33.62
365.412	82.77
365.623	-33.96
365.834	25.43
366.045	4.95
366.256	72.53
366.467	56.15
366.678	33.62
366.889	-11.43
367.1	19.29
367.311	-31.91
367.522	21.33
367.733	2.9
367.944	56.15
368.155	0.85
368.366	11.09
368.577	-40.11
368.788	76.63
368.999	33.62
369.209	13.14
369.42	25.43
369.631	47.96
369.842	35.67
370.053	-21.67
370.264	52.05
370.474	-19.63
370.685	-13.48
370.896	21.33
371.107	-1.19
371.317	35.67
371.528	39.76
371.739	76.63
371.95	11.09
372.16	23.38
372.371	74.58
372.582	90.96
372.792	47.96
373.003	50
373.214	-11.43
373.424	50
373.635	-25.77
373.846	-21.67
374.056	-27.82
374.267	41.81
374.477	97.11
374.688	-29.87
374.898	39.76
375.109	-19.63
375.319	78.68
375.53	-21.67
375.74	72.53
375.951	41.81
376.161	17.24
376.372	-1.19
376.582	39.76
376.793	37.72
377.003	64.34
377.214	19.29
377.424	2.9
377.635	97.11
377.845	-27.82
378.055	33.62
378.266	27.48
378.476	15.19
378.686	62.29
378.897	84.82
379.107	25.43
379.317	21.33
379.528	-17.58
379.738	56.15
379.948	66.39
380.158	66.39
380.369	2.9
380.579	88.92
380.789	68.44
380.999	-23.72
381.21	60.24
381.42	68.44
381.63	-1.19
381.84	15.19
382.05	17.24
382.261	70.48
382.471	31.57
382.681	35.67
382.891	50
383.101	80.72
383.311	-46.25
383.521	47.96
383.731	23.38
383.941	66.39
384.151	9.05
384.361	17.24
384.571	97.11
384.781	27.48
384.991	15.19
385.201	74.58
385.411	7
385.621	50
385.831	76.63
386.041	60.24
386.251	56.15
386.461	88.92
386.671	37.72
386.881	78.68
387.091	-33.96
387.301	70.48
387.511	15.19
387.72	-5.29
387.93	95.06
388.14	-7.34
388.35	107.35
388.56	113.49
388.769	-7.34
388.979	54.1
389.189	64.34
389.399	21.33
389.609	78.68
389.818	64.34
390.028	4.95
390.238	-13.48
390.447	-17.58
390.657	95.06
390.867	17.24
391.076	31.57
391.286	50
391.496	56.15
391.705	-64.68
391.915	115.54
392.125	9.05
392.334	39.76
392.544	97.11
392.753	0.85
392.963	-11.43
393.172	88.92
393.382	64.34
393.591	15.19
393.801	70.48
394.01	68.44
394.22	13.14
394.429	17.24
394.639	47.96
394.848	29.52
395.058	23.38
395.267	50
395.477	64.34
395.686	15.19
395.895	13.14
396.105	64.34
396.314	-1.19
396.524	103.25
396.733	43.86
396.942	56.15
397.152	80.72
397.361	70.48
397.57	39.76
397.78	90.96
397.989	29.52
398.198	82.77
398.407	105.3
398.617	11.09
398.826	39.76
399.035	66.39
399.244	74.58
399.453	76.63
399.663	4.95
399.872	84.82
400.081	-13.48
400.29	17.24
400.499	19.29
400.708	125.78
400.917	52.05
401.127	76.63
401.336	41.81
401.545	45.91
401.754	45.91
401.963	99.16
402.172	68.44
402.381	60.24
402.59	9.05
402.799	31.57
403.008	29.52
403.217	105.3
403.426	54.1
403.635	86.87
403.844	64.34
404.053	68.44
404.262	21.33
404.471	70.48
404.68	7
404.888	105.3
405.097	82.77
405.306	52.05
405.515	90.96
405.724	99.16
405.933	23.38
406.142	-9.39
406.35	162.64
406.559	70.48
406.768	107.35
406.977	97.11
407.185	86.87
407.394	113.49
407.603	68.44
407.812	82.77
408.02	58.2
408.229	82.77
408.438	78.68
408.646	138.07
408.855	86.87
409.064	172.88
409.272	142.16
409.481	152.4
409.69	168.79
409.898	33.62
410.107	160.59
410.315	176.98
410.524	121.68
410.733	131.92
410.941	142.16
411.15	172.88
411.358	199.51
411.567	162.64
411.775	162.64
411.984	187.22
412.192	191.31
412.401	195.41
412.609	181.07
412.818	176.98
413.026	226.13
413.234	183.12
413.443	205.65
413.651	166.74
413.86	228.18
414.068	301.9
414.276	273.23
414.485	283.47
414.693	258.9
414.901	293.71
415.11	291.66
415.318	275.28
415.526	271.19
415.734	291.66
415.943	365.39
416.151	398.16
416.359	293.71
416.567	369.49
416.776	336.72
416.984	424.78
417.192	432.97
417.4	398.16
417.608	414.54
417.817	406.35
418.025	414.54
418.233	467.79
418.441	451.41
418.649	443.21
418.857	498.51
419.065	451.41
419.273	500.56
419.481	557.9
419.689	521.04
419.897	615.24
420.105	600.91
420.313	596.81
420.521	740.17
420.729	783.18
420.937	695.11
421.145	695.11
421.353	777.03
421.561	805.71
421.769	822.09
421.977	842.57
422.185	754.51
422.393	910.15
422.601	922.44
422.809	944.97
423.017	873.29
423.224	930.63
423.432	1028.93
423.64	992.07
423.848	1020.74
424.056	1080.13
424.263	1213.25
424.471	1135.43
424.679	1110.85
424.887	1196.87
425.094	1270.59
425.302	1209.15
425.51	1344.32
425.718	1297.22
425.925	1350.46
426.133	1403.71
426.341	1483.58
426.548	1575.74
426.756	1553.21
426.964	1536.83
427.171	1667.9
427.379	1788.73
427.586	1817.4
427.794	1786.68
428.001	1762.11
428.209	1932.09
428.417	1895.22
428.624	1985.34
428.832	2087.73
429.039	2110.26
429.247	2014.01
429.454	2224.95
429.662	2253.62
429.869	2253.62
430.076	2388.78
430.284	2292.53
430.491	2427.7
430.699	2464.56
430.906	2562.86
431.114	2544.43
431.321	2677.55
431.528	2626.35
431.736	2837.29
431.943	3003.18
432.15	3025.7
432.358	2931.5
432.565	3058.47
432.772	3054.37
432.979	3158.82
433.187	3300.13
433.394	3363.62
433.601	3437.34
433.808	3502.88
434.016	3496.74
434.223	3713.82
434.43	4023.06
434.637	3922.71
434.844	4100.89
435.052	4072.22
435.259	4162.33
435.466	4168.47
435.673	4098.84
435.88	4471.57
436.087	4610.83
436.294	4637.45
436.501	4522.77
436.708	4563.73
436.915	4694.8
437.122	4907.79
437.329	4854.54
437.537	5102.34
437.743	5413.63
437.95	5337.86
438.157	5649.15
438.364	5565.18
438.571	5630.72
438.778	5651.2
438.985	6173.43
439.192	5827.32
439.399	6169.34
439.606	5923.58
439.813	6470.39
440.02	6634.22
440.227	6566.64
440.433	6554.35
440.64	6728.43
440.847	6726.38
441.054	6673.14
441.261	7355.11
441.467	6992.62
441.674	7172.84
441.881	7592.67
442.088	7516.9
442.294	7471.84
442.501	7598.82
442.708	7836.38
442.914	8065.75
443.121	8506.07
443.328	8409.81
443.534	8803.02
443.741	8616.66
443.948	8524.5
444.154	9149.13
444.361	8919.76
444.568	8930
444.774	9272.01
444.981	9257.67
445.187	9454.28
445.394	9921.21
445.6	9730.75
445.807	10758.83
446.013	10355.38
446.22	10326.71
446.426	10850.99
446.633	10799.79
446.839	11279.02
447.046	10865.33
447.252	11395.75
447.459	11412.14
447.665	11405.99
447.871	11594.4
448.078	12544.66
448.284	11770.53
448.491	12171.93
448.697	12733.08
448.903	12794.51
449.11	12831.38
449.316	12634.77
449.522	13023.89
449.728	13220.49
449.935	13214.35
450.141	13439.62
450.347	13757.06
450.553	13175.44
450.76	13277.83
450.966	14002.82
451.172	13677.19
451.378	14097.02
451.584	13619.85
451.791	13937.28
451.997	13812.35
452.203	14101.12
452.409	14174.85
452.615	14412.41
452.821	13490.82
453.027	13286.03
453.233	14002.82
453.44	13431.43
453.646	13683.33
453.852	13701.76
454.058	13900.42
454.264	13453.96
454.47	13826.69
454.676	13365.9
454.882	13750.92
455.088	12694.16
455.294	12851.86
455.5	12984.98
455.705	13255.31
455.911	12696.21
456.117	12341.91
456.323	12339.87
456.529	11762.34
456.735	11997.85
456.941	11621.03
457.147	11696.8
457.352	11281.07
457.558	11096.75
457.764	11080.36
457.97	10840.75
458.176	10705.59
458.381	10656.43
458.587	10123.96
458.793	10146.49
458.999	9743.04
459.204	10183.35
459.41	10031.8
459.616	9235.14
459.821	9257.67
460.027	9401.03
460.233	9237.19
460.438	8704.72
460.644	8819.41
460.85	8639.19
461.055	8309.46
461.261	8205.02
461.466	7539.43
461.672	7445.22
461.878	7953.12
462.083	7416.55
462.289	7338.73
462.494	7176.94
462.7	6939.37
462.905	6740.72
463.111	6974.19
463.316	7062.25
463.522	6898.41
463.727	6767.34
463.932	6896.36
464.138	6937.32
464.343	6750.96
464.549	6675.18
464.754	7023.34
464.959	6675.18
465.165	6605.55
465.37	6406.9
465.575	6365.94
465.781	6626.03
465.986	6572.79
466.191	6402.8
466.397	6099.7
466.602	5890.81
466.807	6109.94
467.012	6150.9
467.218	6177.53
467.423	6103.8
467.628	6195.96
467.833	6320.88
468.038	6079.22
468.244	6142.71
468.449	6193.91
468.654	5989.11
468.859	5868.28
469.064	5915.39
469.269	5624.58
469.474	5774.08
469.679	5909.24
469.885	5643.01
470.09	5718.78
470.295	5563.14
470.5	5538.56
470.705	5671.68
470.91	5458.69
