Data from USB4F104151__221__14-00-15-423.txt Node

Date: Thu Mar 13 14:00:15 EDT 2025
User: louis
Spectrometer: USB4F10415
Trigger mode: 4
Integration Time (sec): 1.000000E-2
Scans to average: 1
Electric dark correction enabled: true
Nonlinearity correction enabled: false
Boxcar width: 0
XAxis mode: Wavelengths
Number of Pixels in Spectrum: 3648
>>>>>Begin Spectral Data<<<<<
178.204	-49.66
178.424	-49.66
178.644	-49.66
178.864	-98.81
179.084	-47.62
179.304	32.26
179.524	3.58
179.744	15.87
179.964	15.87
180.184	24.06
180.404	50.69
180.624	-18.94
180.844	-18.94
181.064	-25.09
181.283	17.92
181.503	-90.62
181.723	-6.66
181.943	-20.99
182.163	34.3
182.383	22.02
182.602	-16.9
182.822	75.26
183.042	52.74
183.262	3.58
183.482	40.45
183.701	19.97
183.921	-25.09
184.141	-33.28
184.361	9.73
184.58	9.73
184.8	24.06
185.02	28.16
185.239	34.3
185.459	19.97
185.679	7.68
185.898	15.87
186.118	46.59
186.338	30.21
186.557	-41.47
186.777	-35.33
186.997	-4.61
187.216	-20.99
187.436	-49.66
187.655	-39.42
187.875	3.58
188.095	24.06
188.314	-23.04
188.534	13.82
188.753	-16.9
188.973	46.59
189.192	52.74
189.412	32.26
189.631	38.4
189.851	83.45
190.07	-49.66
190.29	32.26
190.509	-16.9
190.729	17.92
190.948	50.69
191.168	114.17
191.387	75.26
191.607	65.02
191.826	62.98
192.045	71.17
192.265	26.11
192.484	34.3
192.704	28.16
192.923	-8.7
193.142	13.82
193.362	44.54
193.581	3.58
193.8	-10.75
194.02	24.06
194.239	-57.86
194.458	-41.47
194.678	1.54
194.897	17.92
195.116	-31.23
195.335	-31.23
195.555	-29.18
195.774	126.46
195.993	38.4
196.212	7.68
196.432	26.11
196.651	93.69
196.87	-2.56
197.089	38.4
197.308	9.73
197.528	60.93
197.747	60.93
197.966	-35.33
198.185	54.78
198.404	9.73
198.623	-61.95
198.842	85.5
199.062	-39.42
199.281	13.82
199.5	48.64
199.719	3.58
199.938	36.35
200.157	67.07
200.376	13.82
200.595	-16.9
200.814	26.11
201.033	7.68
201.252	28.16
201.471	5.63
201.69	-49.66
201.909	118.27
202.128	19.97
202.347	46.59
202.566	-23.04
202.785	75.26
203.004	-25.09
203.223	34.3
203.442	26.11
203.661	71.17
203.879	-25.09
204.098	122.37
204.317	-20.99
204.536	15.87
204.755	-8.7
204.974	83.45
205.193	75.26
205.411	17.92
205.63	-6.66
205.849	-16.9
206.068	-27.14
206.287	75.26
206.505	9.73
206.724	42.5
206.943	118.27
207.162	9.73
207.381	32.26
207.599	-33.28
207.818	-25.09
208.037	-25.09
208.255	1.54
208.474	65.02
208.693	32.26
208.911	32.26
209.13	26.11
209.349	65.02
209.567	-39.42
209.786	40.45
210.005	44.54
210.223	26.11
210.442	-0.51
210.661	9.73
210.879	24.06
211.098	-4.61
211.316	24.06
211.535	-10.75
211.753	-12.8
211.972	5.63
212.191	30.21
212.409	28.16
212.628	15.87
212.846	9.73
213.065	28.16
213.283	-0.51
213.502	3.58
213.72	56.83
213.938	48.64
214.157	81.41
214.375	-39.42
214.594	32.26
214.812	42.5
215.031	69.12
215.249	1.54
215.467	17.92
215.686	24.06
215.904	67.07
216.122	-14.85
216.341	50.69
216.559	110.08
216.778	48.64
216.996	17.92
217.214	44.54
217.432	17.92
217.651	-0.51
217.869	-31.23
218.087	42.5
218.306	73.21
218.524	24.06
218.742	36.35
218.96	83.45
219.179	38.4
219.397	11.78
219.615	1.54
219.833	-0.51
220.051	-4.61
220.27	19.97
220.488	9.73
220.706	40.45
220.924	-25.09
221.142	28.16
221.36	-84.48
221.578	36.35
221.796	-55.81
222.015	42.5
222.233	-0.51
222.451	50.69
222.669	-61.95
222.887	50.69
223.105	34.3
223.323	67.07
223.541	3.58
223.759	34.3
223.977	24.06
224.195	60.93
224.413	-66.05
224.631	19.97
224.849	36.35
225.067	-4.61
225.285	-37.38
225.503	48.64
225.721	-6.66
225.939	40.45
226.157	-12.8
226.375	3.58
226.592	19.97
226.81	-31.23
227.028	62.98
227.246	-37.38
227.464	-10.75
227.682	48.64
227.9	11.78
228.117	48.64
228.335	5.63
228.553	-39.42
228.771	-23.04
228.989	-37.38
229.206	85.5
229.424	-2.56
229.642	-72.19
229.86	-16.9
230.077	32.26
230.295	-18.94
230.513	13.82
230.731	-6.66
230.948	77.31
231.166	-25.09
231.384	116.22
231.601	38.4
231.819	30.21
232.037	52.74
232.254	13.82
232.472	105.98
232.689	-8.7
232.907	56.83
233.125	19.97
233.342	28.16
233.56	-33.28
233.777	52.74
233.995	97.79
234.213	42.5
234.43	81.41
234.648	44.54
234.865	56.83
235.083	9.73
235.3	13.82
235.518	75.26
235.735	5.63
235.953	13.82
236.17	9.73
236.388	30.21
236.605	22.02
236.822	32.26
237.04	34.3
237.257	-12.8
237.475	-29.18
237.692	56.83
237.909	56.83
238.127	17.92
238.344	13.82
238.562	26.11
238.779	-31.23
238.996	13.82
239.214	-8.7
239.431	24.06
239.648	7.68
239.865	65.02
240.083	-20.99
240.3	-37.38
240.517	-20.99
240.735	-16.9
240.952	114.17
241.169	17.92
241.386	-61.95
241.603	44.54
241.821	-8.7
242.038	95.74
242.255	-8.7
242.472	24.06
242.689	40.45
242.907	19.97
243.124	48.64
243.341	-33.28
243.558	-35.33
243.775	42.5
243.992	-45.57
244.209	24.06
244.426	67.07
244.643	13.82
244.86	17.92
245.078	3.58
245.295	15.87
245.512	36.35
245.729	-4.61
245.946	28.16
246.163	54.78
246.38	54.78
246.597	32.26
246.814	-25.09
247.031	24.06
247.248	15.87
247.464	42.5
247.681	-25.09
247.898	34.3
248.115	105.98
248.332	17.92
248.549	-14.85
248.766	79.36
248.983	69.12
249.2	13.82
249.417	-4.61
249.633	1.54
249.85	65.02
250.067	42.5
250.284	-14.85
250.501	40.45
250.717	24.06
250.934	-8.7
251.151	19.97
251.368	34.3
251.585	13.82
251.801	89.6
252.018	-45.57
252.235	-10.75
252.451	3.58
252.668	-10.75
252.885	34.3
253.102	1.54
253.318	-53.76
253.535	5.63
253.752	40.45
253.968	-2.56
254.185	32.26
254.401	-33.28
254.618	19.97
254.835	52.74
255.051	24.06
255.268	34.3
255.484	48.64
255.701	26.11
255.917	91.65
256.134	79.36
256.351	71.17
256.567	52.74
256.784	-0.51
257	50.69
257.217	-12.8
257.433	34.3
257.65	108.03
257.866	-57.86
258.082	-76.29
258.299	-0.51
258.515	67.07
258.732	1.54
258.948	1.54
259.165	28.16
259.381	-33.28
259.597	24.06
259.814	56.83
260.03	26.11
260.246	71.17
260.463	77.31
260.679	60.93
260.895	-2.56
261.112	26.11
261.328	28.16
261.544	40.45
261.761	54.78
261.977	60.93
262.193	-29.18
262.409	-4.61
262.626	32.26
262.842	1.54
263.058	22.02
263.274	-16.9
263.49	58.88
263.707	7.68
263.923	77.31
264.139	-4.61
264.355	28.16
264.571	93.69
264.787	-2.56
265.004	7.68
265.22	9.73
265.436	5.63
265.652	17.92
265.868	-14.85
266.084	19.97
266.3	-23.04
266.516	77.31
266.732	-2.56
266.948	11.78
267.164	24.06
267.38	-25.09
267.596	-16.9
267.812	50.69
268.028	79.36
268.244	-14.85
268.46	65.02
268.676	87.55
268.892	132.61
269.108	-0.51
269.324	81.41
269.54	28.16
269.756	62.98
269.972	-49.66
270.188	81.41
270.403	-4.61
270.619	-27.14
270.835	36.35
271.051	24.06
271.267	-31.23
271.483	-4.61
271.698	11.78
271.914	120.32
272.13	-6.66
272.346	67.07
272.562	40.45
272.777	22.02
272.993	-16.9
273.209	62.98
273.425	24.06
273.64	44.54
273.856	52.74
274.072	26.11
274.287	7.68
274.503	75.26
274.719	56.83
274.934	34.3
275.15	-14.85
275.366	73.21
275.581	34.3
275.797	46.59
276.012	42.5
276.228	-33.28
276.444	62.98
276.659	17.92
276.875	15.87
277.09	-4.61
277.306	22.02
277.521	34.3
277.737	42.5
277.952	99.84
278.168	-6.66
278.383	-49.66
278.599	19.97
278.814	50.69
279.03	30.21
279.245	93.69
279.461	1.54
279.676	44.54
279.892	-20.99
280.107	42.5
280.322	-16.9
280.538	77.31
280.753	34.3
280.969	24.06
281.184	3.58
281.399	32.26
281.615	13.82
281.83	60.93
282.045	42.5
282.26	48.64
282.476	-33.28
282.691	56.83
282.906	-20.99
283.122	7.68
283.337	65.02
283.552	48.64
283.767	-10.75
283.983	30.21
284.198	7.68
284.413	36.35
284.628	24.06
284.843	40.45
285.058	58.88
285.274	17.92
285.489	32.26
285.704	26.11
285.919	32.26
286.134	-0.51
286.349	3.58
286.564	32.26
286.779	36.35
286.995	28.16
287.21	22.02
287.425	7.68
287.64	67.07
287.855	34.3
288.07	46.59
288.285	7.68
288.5	-31.23
288.715	28.16
288.93	50.69
289.145	9.73
289.36	65.02
289.575	1.54
289.79	19.97
290.004	-14.85
290.219	-45.57
290.434	24.06
290.649	-45.57
290.864	128.51
291.079	42.5
291.294	44.54
291.509	52.74
291.724	42.5
291.938	19.97
292.153	48.64
292.368	44.54
292.583	60.93
292.798	26.11
293.012	32.26
293.227	77.31
293.442	81.41
293.657	3.58
293.871	19.97
294.086	22.02
294.301	112.13
294.516	108.03
294.73	48.64
294.945	9.73
295.16	44.54
295.374	34.3
295.589	-16.9
295.804	50.69
296.018	65.02
296.233	38.4
296.447	26.11
296.662	19.97
296.877	48.64
297.091	26.11
297.306	15.87
297.52	30.21
297.735	89.6
297.949	15.87
298.164	81.41
298.378	-0.51
298.593	3.58
298.807	40.45
299.022	-14.85
299.236	34.3
299.451	42.5
299.665	52.74
299.88	48.64
300.094	36.35
300.309	97.79
300.523	19.97
300.737	52.74
300.952	83.45
301.166	50.69
301.381	-25.09
301.595	36.35
301.809	9.73
302.024	-41.47
302.238	34.3
302.452	-16.9
302.667	-8.7
302.881	103.93
303.095	56.83
303.309	32.26
303.524	15.87
303.738	9.73
303.952	34.3
304.166	5.63
304.381	24.06
304.595	42.5
304.809	-29.18
305.023	32.26
305.237	65.02
305.452	105.98
305.666	30.21
305.88	44.54
306.094	-4.61
306.308	42.5
306.522	44.54
306.736	-0.51
306.95	-16.9
307.164	24.06
307.379	-16.9
307.593	32.26
307.807	9.73
308.021	24.06
308.235	7.68
308.449	-18.94
308.663	42.5
308.877	17.92
309.091	67.07
309.305	52.74
309.519	40.45
309.733	85.5
309.947	-41.47
310.161	36.35
310.374	28.16
310.588	15.87
310.802	3.58
311.016	67.07
311.23	-10.75
311.444	-84.48
311.658	83.45
311.872	140.8
312.085	124.41
312.299	32.26
312.513	40.45
312.727	48.64
312.941	-37.38
313.154	60.93
313.368	7.68
313.582	62.98
313.796	-2.56
314.009	42.5
314.223	7.68
314.437	19.97
314.651	28.16
314.864	5.63
315.078	-20.99
315.292	1.54
315.505	-2.56
315.719	17.92
315.933	32.26
316.146	-2.56
316.36	34.3
316.573	-0.51
316.787	54.78
317.001	-4.61
317.214	99.84
317.428	62.98
317.641	-2.56
317.855	52.74
318.068	50.69
318.282	1.54
318.495	32.26
318.709	38.4
318.922	34.3
319.136	91.65
319.349	69.12
319.563	9.73
319.776	-18.94
319.99	15.87
320.203	118.27
320.417	-20.99
320.63	-2.56
320.843	34.3
321.057	-16.9
321.27	50.69
321.483	-12.8
321.697	42.5
321.91	9.73
322.124	50.69
322.337	11.78
322.55	28.16
322.763	-29.18
322.977	48.64
323.19	34.3
323.403	9.73
323.617	17.92
323.83	69.12
324.043	69.12
324.256	42.5
324.469	58.88
324.683	83.45
324.896	48.64
325.109	50.69
325.322	5.63
325.535	93.69
325.748	9.73
325.962	11.78
326.175	77.31
326.388	75.26
326.601	81.41
326.814	-4.61
327.027	79.36
327.24	95.74
327.453	1.54
327.666	19.97
327.879	42.5
328.092	24.06
328.305	24.06
328.518	19.97
328.731	-31.23
328.944	34.3
329.157	9.73
329.37	56.83
329.583	83.45
329.796	-25.09
330.009	28.16
330.222	24.06
330.435	58.88
330.648	34.3
330.861	91.65
331.073	62.98
331.286	52.74
331.499	95.74
331.712	-0.51
331.925	-25.09
332.138	40.45
332.35	103.93
332.563	-23.04
332.776	44.54
332.989	-59.9
333.202	11.78
333.414	95.74
333.627	73.21
333.84	87.55
334.053	50.69
334.265	28.16
334.478	81.41
334.691	5.63
334.903	44.54
335.116	9.73
335.329	67.07
335.541	83.45
335.754	34.3
335.966	132.61
336.179	65.02
336.392	44.54
336.604	24.06
336.817	85.5
337.029	17.92
337.242	-10.75
337.454	52.74
337.667	11.78
337.88	69.12
338.092	34.3
338.305	11.78
338.517	-51.71
338.729	54.78
338.942	9.73
339.154	81.41
339.367	38.4
339.579	13.82
339.792	71.17
340.004	26.11
340.217	-10.75
340.429	44.54
340.641	54.78
340.854	73.21
341.066	-8.7
341.278	19.97
341.491	-33.28
341.703	44.54
341.915	1.54
342.128	60.93
342.34	24.06
342.552	81.41
342.764	36.35
342.977	32.26
343.189	81.41
343.401	142.85
343.613	36.35
343.826	87.55
344.038	-6.66
344.25	101.89
344.462	11.78
344.674	11.78
344.886	22.02
345.099	34.3
345.311	32.26
345.523	11.78
345.735	-25.09
345.947	110.08
346.159	5.63
346.371	81.41
346.583	28.16
346.795	75.26
347.007	48.64
347.219	65.02
347.431	7.68
347.643	122.37
347.855	34.3
348.067	60.93
348.279	38.4
348.491	17.92
348.703	36.35
348.915	-4.61
349.127	54.78
349.339	65.02
349.551	9.73
349.763	26.11
349.975	54.78
350.187	65.02
350.399	77.31
350.61	44.54
350.822	24.06
351.034	38.4
351.246	110.08
351.458	108.03
351.669	5.63
351.881	95.74
352.093	110.08
352.305	105.98
352.517	110.08
352.728	105.98
352.94	11.78
353.152	60.93
353.363	34.3
353.575	-25.09
353.787	-16.9
353.999	24.06
354.21	52.74
354.422	79.36
354.633	42.5
354.845	60.93
355.057	32.26
355.268	73.21
355.48	73.21
355.692	101.89
355.903	75.26
356.115	-12.8
356.326	-16.9
356.538	73.21
356.749	60.93
356.961	50.69
357.172	38.4
357.384	28.16
357.595	38.4
357.807	-57.86
358.018	17.92
358.23	99.84
358.441	67.07
358.653	36.35
358.864	9.73
359.075	136.7
359.287	116.22
359.498	38.4
359.709	15.87
359.921	120.32
360.132	24.06
360.344	81.41
360.555	138.75
360.766	60.93
360.977	89.6
361.189	-70.14
361.4	5.63
361.611	40.45
361.823	65.02
362.034	24.06
362.245	54.78
362.456	30.21
362.667	67.07
362.879	44.54
363.09	-16.9
363.301	79.36
363.512	67.07
363.723	65.02
363.935	24.06
364.146	32.26
364.357	-0.51
364.568	46.59
364.779	-2.56
364.99	52.74
365.201	15.87
365.412	7.68
365.623	52.74
365.834	15.87
366.045	28.16
366.256	17.92
366.467	44.54
366.678	-8.7
366.889	-14.85
367.1	24.06
367.311	17.92
367.522	26.11
367.733	44.54
367.944	-8.7
368.155	97.79
368.366	62.98
368.577	-33.28
368.788	60.93
368.999	17.92
369.209	95.74
369.42	105.98
369.631	99.84
369.842	58.88
370.053	48.64
370.264	50.69
370.474	42.5
370.685	101.89
370.896	15.87
371.107	65.02
371.317	60.93
371.528	32.26
371.739	132.61
371.95	99.84
372.16	69.12
372.371	62.98
372.582	40.45
372.792	58.88
373.003	32.26
373.214	-43.52
373.424	87.55
373.635	73.21
373.846	1.54
374.056	28.16
374.267	52.74
374.477	-8.7
374.688	56.83
374.898	15.87
375.109	36.35
375.319	97.79
375.53	81.41
375.74	60.93
375.951	48.64
376.161	-0.51
376.372	17.92
376.582	40.45
376.793	77.31
377.003	65.02
377.214	60.93
377.424	62.98
377.635	60.93
377.845	26.11
378.055	69.12
378.266	-29.18
378.476	42.5
378.686	73.21
378.897	32.26
379.107	58.88
379.317	73.21
379.528	-23.04
379.738	32.26
379.948	67.07
380.158	75.26
380.369	50.69
380.579	136.7
380.789	73.21
380.999	77.31
381.21	99.84
381.42	101.89
381.63	83.45
381.84	-33.28
382.05	134.65
382.261	58.88
382.471	77.31
382.681	93.69
382.891	17.92
383.101	28.16
383.311	32.26
383.521	73.21
383.731	105.98
383.941	-8.7
384.151	89.6
384.361	-6.66
384.571	85.5
384.781	83.45
384.991	65.02
385.201	97.79
385.411	79.36
385.621	60.93
385.831	-2.56
386.041	36.35
386.251	30.21
386.461	91.65
386.671	-10.75
386.881	48.64
387.091	73.21
387.301	75.26
387.511	69.12
387.72	118.27
387.93	58.88
388.14	54.78
388.35	83.45
388.56	71.17
388.769	103.93
388.979	48.64
389.189	62.98
389.399	62.98
389.609	-18.94
389.818	105.98
390.028	30.21
390.238	97.79
390.447	114.17
390.657	114.17
390.867	50.69
391.076	42.5
391.286	58.88
391.496	83.45
391.705	67.07
391.915	11.78
392.125	118.27
392.334	81.41
392.544	1.54
392.753	124.41
392.963	89.6
393.172	81.41
393.382	5.63
393.591	69.12
393.801	95.74
394.01	42.5
394.22	81.41
394.429	24.06
394.639	5.63
394.848	34.3
395.058	22.02
395.267	58.88
395.477	114.17
395.686	77.31
395.895	91.65
396.105	54.78
396.314	46.59
396.524	81.41
396.733	97.79
396.942	132.61
397.152	173.57
397.361	91.65
397.57	89.6
397.78	134.65
397.989	148.99
398.198	105.98
398.407	99.84
398.617	130.56
398.826	116.22
399.035	118.27
399.244	71.17
399.453	77.31
399.663	42.5
399.872	114.17
400.081	110.08
400.29	132.61
400.499	118.27
400.708	81.41
400.917	81.41
401.127	58.88
401.336	148.99
401.545	118.27
401.754	71.17
401.963	65.02
402.172	140.8
402.381	108.03
402.59	163.33
402.799	77.31
403.008	60.93
403.217	103.93
403.426	112.13
403.635	112.13
403.844	146.94
404.053	73.21
404.262	130.56
404.471	97.79
404.68	91.65
404.888	148.99
405.097	89.6
405.306	118.27
405.515	118.27
405.724	216.57
405.933	185.85
406.142	126.46
406.35	163.33
406.559	173.57
406.768	220.67
406.977	163.33
407.185	171.52
407.394	124.41
407.603	204.28
407.812	245.24
408.02	222.72
408.229	224.76
408.438	245.24
408.646	210.43
408.855	275.96
409.064	251.39
409.272	286.2
409.481	275.96
409.69	280.06
409.898	339.45
410.107	355.83
410.315	384.51
410.524	345.59
410.733	347.64
410.941	331.26
411.15	423.42
411.358	409.08
411.567	411.13
411.775	419.32
411.984	390.65
412.192	411.13
412.401	351.74
412.609	450.04
412.818	513.53
413.026	441.85
413.234	458.23
413.443	486.9
413.651	540.15
413.86	529.91
414.068	677.37
414.276	617.97
414.485	560.63
414.693	673.27
414.901	681.46
415.11	691.7
415.318	636.41
415.526	777.72
415.734	714.23
415.943	798.2
416.151	765.43
416.359	873.97
416.567	890.35
416.776	763.38
416.984	884.21
417.192	849.4
417.4	986.61
417.608	978.42
417.817	1037.81
418.025	1062.38
418.233	1136.11
418.441	1148.4
418.649	1189.36
418.857	1279.47
419.065	1269.23
419.273	1175.02
419.481	1242.61
419.689	1388.01
419.897	1367.53
420.105	1482.22
420.313	1500.65
420.521	1601
420.729	1541.61
420.937	1506.79
421.145	1727.97
421.353	1701.35
421.561	1809.89
421.769	1883.62
421.977	2016.74
422.185	2022.88
422.393	2016.74
422.601	2147.81
422.809	2287.07
423.017	2315.74
423.224	2352.6
423.432	2407.9
423.64	2412
423.848	2721.24
424.056	2502.11
424.263	2678.23
424.471	2696.66
424.679	2788.82
424.887	2983.38
425.094	3036.63
425.302	2981.33
425.51	3018.19
425.718	3321.29
425.925	3298.77
426.133	3360.2
426.341	3636.68
426.548	3724.74
426.756	3747.27
426.964	3763.65
427.171	4095.43
427.379	4111.81
427.586	4228.54
427.794	4365.76
428.001	4464.06
428.209	4859.32
428.417	4537.79
428.624	5000.63
428.832	5021.11
429.039	4910.52
429.247	5103.03
429.454	5430.7
429.662	5727.66
429.869	5422.51
430.076	5780.9
430.284	5635.5
430.491	5875.11
430.699	6274.46
430.906	6161.83
431.114	6264.22
431.321	6507.93
431.528	6696.35
431.736	7071.12
431.943	7515.53
432.15	7142.8
432.358	7325.07
432.565	7634.32
432.772	7718.28
432.979	7863.69
433.187	8193.41
433.394	8408.45
433.601	8541.57
433.808	8588.67
434.016	8734.07
434.223	9033.08
434.43	9653.61
434.637	9342.32
434.844	10141.03
435.052	10065.25
435.259	9901.42
435.466	10128.74
435.673	10265.96
435.88	10939.74
436.087	11474.26
436.294	11412.82
436.501	11185.49
436.708	11236.69
436.915	11498.83
437.122	12289.35
437.329	12232.01
437.537	12625.22
437.743	12668.22
437.95	12744
438.157	13215.03
438.364	13761.84
438.571	13690.16
438.778	13735.21
438.985	15080.73
439.192	14499.11
439.399	15017.24
439.606	14720.29
439.813	15588.63
440.02	16368.9
440.227	15940.88
440.433	15936.78
440.64	16614.66
440.847	16452.87
441.054	16784.64
441.261	17710.32
441.467	17779.95
441.674	17730.8
441.881	18838.75
442.088	18734.31
442.294	18492.65
442.501	18803.94
442.708	19631.32
442.914	19905.74
443.121	20839.62
443.328	20565.19
443.534	21585.08
443.741	21298.36
443.948	20774.08
444.154	22170.8
444.361	22265
444.568	22318.25
444.774	22484.14
444.981	22793.38
445.187	23477.4
445.394	24292.49
445.6	23999.63
445.807	26254.45
446.013	25302.14
446.22	25644.15
446.426	26694.76
446.633	26647.66
446.839	27851.86
447.046	26537.07
447.252	28730.44
447.459	28079.19
447.665	28077.14
447.871	29373.5
448.078	30424.11
448.284	29199.43
448.491	29604.92
448.697	30989.35
448.903	31542.3
449.11	31667.23
449.316	31147.04
449.522	31796.25
449.728	32422.93
449.935	32443.41
450.141	32605.2
450.347	33180.68
450.553	31847.45
450.76	32693.26
450.966	33532.93
451.172	33657.85
451.378	34411.51
451.584	33442.82
451.791	34452.47
451.997	34245.62
452.203	34825.2
452.409	34997.23
452.615	35011.56
452.821	32920.59
453.027	32904.2
453.233	34612.21
453.44	33109
453.646	33885.18
453.852	33940.47
454.058	34278.39
454.264	33575.94
454.47	33965.05
454.676	33129.48
454.882	34180.09
455.088	31566.88
455.294	31863.83
455.5	32134.17
455.705	32367.63
455.911	31423.52
456.117	30997.54
456.323	30145.59
456.529	28677.19
456.735	30092.34
456.941	29254.72
457.147	29045.83
457.352	27872.34
457.558	27542.62
457.764	27497.56
457.97	27081.83
458.176	26608.75
458.381	26373.23
458.587	25134.21
458.793	25447.55
458.999	24095.89
459.204	25560.19
459.41	25142.4
459.616	23329.95
459.821	23338.14
460.027	23348.38
460.233	22746.28
460.438	21691.57
460.644	21755.06
460.85	20966.59
461.055	20540.61
461.261	20700.36
461.466	19084.51
461.672	18298.09
461.878	19696.85
462.083	18263.27
462.289	18027.76
462.494	17964.27
462.7	17405.17
462.905	16674.05
463.111	17485.05
463.316	17388.79
463.522	17016.06
463.727	16997.63
463.932	17011.96
464.138	17079.55
464.343	17003.77
464.549	16344.33
464.754	17149.18
464.959	17071.36
465.165	16743.68
465.37	16284.94
465.575	15555.86
465.781	15928.59
465.986	16327.94
466.191	15811.85
466.397	15461.65
466.602	14871.84
466.807	15271.19
467.012	15363.35
467.218	15011.1
467.423	15269.14
467.628	15093.02
467.833	15844.62
468.038	15217.94
468.244	14730.53
