Data from USB4F104151__277__14-02-24-519.txt Node

Date: Thu Mar 13 14:02:24 EDT 2025
User: louis
Spectrometer: USB4F10415
Trigger mode: 4
Integration Time (sec): 1.000000E-2
Scans to average: 1
Electric dark correction enabled: true
Nonlinearity correction enabled: false
Boxcar width: 0
XAxis mode: Wavelengths
Number of Pixels in Spectrum: 3648
>>>>>Begin Spectral Data<<<<<
178.204	-40.79
178.424	-40.79
178.644	-40.79
178.864	-8.02
179.084	59.56
179.304	-63.32
179.524	41.13
179.744	-20.31
179.964	61.61
180.184	-53.08
180.404	53.42
180.624	53.42
180.844	-5.97
181.064	-30.55
181.283	12.46
181.503	-32.6
181.723	-16.21
181.943	43.18
182.163	61.61
182.383	16.55
182.602	49.32
182.822	49.32
183.042	39.08
183.262	14.51
183.482	-18.26
183.701	26.79
183.921	0.17
184.141	59.56
184.361	-8.02
184.58	-24.4
184.8	34.99
185.02	-22.36
185.239	57.51
185.459	20.65
185.679	2.22
185.898	10.41
186.118	6.31
186.338	53.42
186.557	65.71
186.777	-53.08
186.997	20.65
187.216	10.41
187.436	71.85
187.655	14.51
187.875	30.89
188.095	2.22
188.314	34.99
188.534	8.36
188.753	59.56
188.973	20.65
189.192	16.55
189.412	34.99
189.631	16.55
189.851	20.65
190.07	112.81
190.29	-30.55
190.509	6.31
190.729	-8.02
190.948	6.31
191.168	125.1
191.387	59.56
191.607	53.42
191.826	26.79
192.045	77.99
192.265	32.94
192.484	-22.36
192.704	45.23
192.923	-24.4
193.142	80.04
193.362	-24.4
193.581	92.33
193.8	12.46
194.02	75.95
194.239	28.84
194.458	0.17
194.678	41.13
194.897	53.42
195.116	45.23
195.335	22.7
195.555	20.65
195.774	59.56
195.993	32.94
196.212	10.41
196.432	16.55
196.651	26.79
196.87	-32.6
197.089	92.33
197.308	-24.4
197.528	10.41
197.747	-16.21
197.966	-30.55
198.185	32.94
198.404	-28.5
198.623	24.75
198.842	-57.17
199.062	16.55
199.281	80.04
199.5	12.46
199.719	57.51
199.938	37.03
200.157	59.56
200.376	43.18
200.595	24.75
200.814	-34.64
201.033	-12.12
201.252	30.89
201.471	2.22
201.69	0.17
201.909	26.79
202.128	49.32
202.347	-16.21
202.566	125.1
202.785	-12.12
203.004	8.36
203.223	-3.93
203.442	-36.69
203.661	69.8
203.879	30.89
204.098	-32.6
204.317	28.84
204.536	30.89
204.755	28.84
204.974	-8.02
205.193	65.71
205.411	82.09
205.63	90.28
205.849	75.95
206.068	20.65
206.287	65.71
206.505	-20.31
206.724	4.27
206.943	65.71
207.162	6.31
207.381	71.85
207.599	16.55
207.818	-20.31
208.037	69.8
208.255	86.19
208.474	24.75
208.693	24.75
208.911	61.61
209.13	10.41
209.349	49.32
209.567	-24.4
209.786	49.32
210.005	49.32
210.223	8.36
210.442	26.79
210.661	26.79
210.879	32.94
211.098	43.18
211.316	63.66
211.535	-1.88
211.753	57.51
211.972	100.52
212.191	32.94
212.409	26.79
212.628	43.18
212.846	12.46
213.065	118.95
213.283	57.51
213.502	2.22
213.72	16.55
213.938	6.31
214.157	57.51
214.375	-14.17
214.594	106.67
214.812	12.46
215.031	-8.02
215.249	10.41
215.467	41.13
215.686	65.71
215.904	30.89
216.122	32.94
216.341	106.67
216.559	57.51
216.778	32.94
216.996	51.37
217.214	41.13
217.432	104.62
217.651	45.23
217.869	37.03
218.087	-48.98
218.306	73.9
218.524	51.37
218.742	-53.08
218.96	116.9
219.179	41.13
219.397	51.37
219.615	45.23
219.833	86.19
220.051	30.89
220.27	41.13
220.488	57.51
220.706	0.17
220.924	26.79
221.142	32.94
221.36	26.79
221.578	-36.69
221.796	41.13
222.015	37.03
222.233	49.32
222.451	16.55
222.669	63.66
222.887	90.28
223.105	65.71
223.323	28.84
223.541	-38.74
223.759	94.38
223.977	41.13
224.195	16.55
224.413	-91.99
224.631	51.37
224.849	-1.88
225.067	0.17
225.285	26.79
225.503	-28.5
225.721	30.89
225.939	-22.36
226.157	24.75
226.375	26.79
226.592	-63.32
226.81	22.7
227.028	-8.02
227.246	14.51
227.464	71.85
227.682	102.57
227.9	37.03
228.117	131.24
228.335	98.47
228.553	12.46
228.771	0.17
228.989	59.56
229.206	32.94
229.424	49.32
229.642	18.6
229.86	39.08
230.077	67.75
230.295	8.36
230.513	59.56
230.731	-22.36
230.948	53.42
231.166	49.32
231.384	-18.26
231.601	22.7
231.819	37.03
232.037	-32.6
232.254	24.75
232.472	96.43
232.689	24.75
232.907	65.71
233.125	41.13
233.342	0.17
233.56	-5.97
233.777	77.99
233.995	-14.17
234.213	67.75
234.43	16.55
234.648	-32.6
234.865	37.03
235.083	55.47
235.3	-26.45
235.518	34.99
235.735	37.03
235.953	22.7
236.17	28.84
236.388	6.31
236.605	41.13
236.822	55.47
237.04	82.09
237.257	92.33
237.475	-32.6
237.692	55.47
237.909	69.8
238.127	2.22
238.344	22.7
238.562	20.65
238.779	0.17
238.996	-30.55
239.214	-16.21
239.431	92.33
239.648	-16.21
239.865	125.1
240.083	0.17
240.3	16.55
240.517	30.89
240.735	10.41
240.952	32.94
241.169	28.84
241.386	61.61
241.603	24.75
241.821	-34.64
242.038	-20.31
242.255	2.22
242.472	-28.5
242.689	57.51
242.907	43.18
243.124	-67.41
243.341	-16.21
243.558	-32.6
243.775	34.99
243.992	53.42
244.209	24.75
244.426	77.99
244.643	92.33
244.86	59.56
245.078	71.85
245.295	30.89
245.512	30.89
245.729	10.41
245.946	16.55
246.163	-24.4
246.38	51.37
246.597	10.41
246.814	59.56
247.031	24.75
247.248	51.37
247.464	53.42
247.681	2.22
247.898	14.51
248.115	49.32
248.332	-10.07
248.549	67.75
248.766	24.75
248.983	30.89
249.2	-3.93
249.417	-18.26
249.633	18.6
249.85	80.04
250.067	24.75
250.284	45.23
250.501	-3.93
250.717	-3.93
250.934	-32.6
251.151	-18.26
251.368	16.55
251.585	12.46
251.801	37.03
252.018	53.42
252.235	37.03
252.451	2.22
252.668	49.32
252.885	37.03
253.102	16.55
253.318	-14.17
253.535	-28.5
253.752	-18.26
253.968	-36.69
254.185	28.84
254.401	57.51
254.618	34.99
254.835	123.05
255.051	47.27
255.268	43.18
255.484	4.27
255.701	59.56
255.917	16.55
256.134	47.27
256.351	-1.88
256.567	-48.98
256.784	-14.17
257	16.55
257.217	82.09
257.433	20.65
257.65	51.37
257.866	-53.08
258.082	75.95
258.299	65.71
258.515	12.46
258.732	-34.64
258.948	90.28
259.165	28.84
259.381	32.94
259.597	102.57
259.814	37.03
260.03	43.18
260.246	86.19
260.463	-42.84
260.679	80.04
260.895	-1.88
261.112	16.55
261.328	-16.21
261.544	10.41
261.761	32.94
261.977	32.94
262.193	-3.93
262.409	8.36
262.626	20.65
262.842	47.27
263.058	8.36
263.274	24.75
263.49	24.75
263.707	18.6
263.923	-10.07
264.139	84.14
264.355	0.17
264.571	75.95
264.787	41.13
265.004	-28.5
265.22	47.27
265.436	18.6
265.652	55.47
265.868	26.79
266.084	2.22
266.3	69.8
266.516	10.41
266.732	28.84
266.948	84.14
267.164	59.56
267.38	24.75
267.596	92.33
267.812	18.6
268.028	24.75
268.244	53.42
268.46	-20.31
268.676	4.27
268.892	100.52
269.108	86.19
269.324	0.17
269.54	-5.97
269.756	41.13
269.972	-24.4
270.188	98.47
270.403	2.22
270.619	90.28
270.835	57.51
271.051	59.56
271.267	-14.17
271.483	26.79
271.698	41.13
271.914	32.94
272.13	71.85
272.346	45.23
272.562	75.95
272.777	32.94
272.993	37.03
273.209	26.79
273.425	84.14
273.64	-63.32
273.856	69.8
274.072	57.51
274.287	-22.36
274.503	16.55
274.719	51.37
274.934	2.22
275.15	65.71
275.366	14.51
275.581	-36.69
275.797	43.18
276.012	37.03
276.228	12.46
276.444	49.32
276.659	82.09
276.875	0.17
277.09	-5.97
277.306	57.51
277.521	26.79
277.737	30.89
277.952	22.7
278.168	12.46
278.383	-30.55
278.599	8.36
278.814	67.75
279.03	28.84
279.245	-8.02
279.461	32.94
279.676	-10.07
279.892	65.71
280.107	37.03
280.322	45.23
280.538	84.14
280.753	41.13
280.969	77.99
281.184	14.51
281.399	49.32
281.615	69.8
281.83	34.99
282.045	-10.07
282.26	-22.36
282.476	49.32
282.691	4.27
282.906	28.84
283.122	51.37
283.337	8.36
283.552	125.1
283.767	-24.4
283.983	41.13
284.198	-22.36
284.413	26.79
284.628	57.51
284.843	77.99
285.058	131.24
285.274	0.17
285.489	53.42
285.704	53.42
285.919	8.36
286.134	10.41
286.349	-20.31
286.564	-26.45
286.779	75.95
286.995	102.57
287.21	98.47
287.425	32.94
287.64	84.14
287.855	-38.74
288.07	8.36
288.285	24.75
288.5	32.94
288.715	37.03
288.93	49.32
289.145	53.42
289.36	71.85
289.575	-16.21
289.79	73.9
290.004	-3.93
290.219	133.29
290.434	16.55
290.649	-5.97
290.864	49.32
291.079	-5.97
291.294	-5.97
291.509	45.23
291.724	-3.93
291.938	16.55
292.153	51.37
292.368	-28.5
292.583	100.52
292.798	47.27
293.012	24.75
293.227	94.38
293.442	37.03
293.657	102.57
293.871	47.27
294.086	37.03
294.301	49.32
294.516	90.28
294.73	82.09
294.945	-38.74
295.16	77.99
295.374	59.56
295.589	8.36
295.804	41.13
296.018	20.65
296.233	30.89
296.447	34.99
296.662	39.08
296.877	-5.97
297.091	65.71
297.306	41.13
297.52	24.75
297.735	69.8
297.949	41.13
298.164	0.17
298.378	18.6
298.593	-34.64
298.807	84.14
299.022	37.03
299.236	69.8
299.451	51.37
299.665	-12.12
299.88	32.94
300.094	73.9
300.309	43.18
300.523	8.36
300.737	37.03
300.952	92.33
301.166	90.28
301.381	-16.21
301.595	57.51
301.809	98.47
302.024	43.18
302.238	65.71
302.452	0.17
302.667	47.27
302.881	61.61
303.095	86.19
303.309	-22.36
303.524	37.03
303.738	12.46
303.952	16.55
304.166	34.99
304.381	-8.02
304.595	114.86
304.809	57.51
305.023	57.51
305.237	-3.93
305.452	2.22
305.666	43.18
305.88	53.42
306.094	12.46
306.308	12.46
306.522	41.13
306.736	67.75
306.95	16.55
307.164	12.46
307.379	65.71
307.593	73.9
307.807	51.37
308.021	125.1
308.235	-3.93
308.449	73.9
308.663	45.23
308.877	28.84
309.091	98.47
309.305	-42.84
309.519	20.65
309.733	16.55
309.947	61.61
310.161	94.38
310.374	16.55
310.588	4.27
310.802	-61.27
311.016	22.7
311.23	14.51
311.444	82.09
311.658	6.31
311.872	6.31
312.085	96.43
312.299	-1.88
312.513	61.61
312.727	63.66
312.941	12.46
313.154	32.94
313.368	43.18
313.582	65.71
313.796	92.33
314.009	-16.21
314.223	49.32
314.437	63.66
314.651	55.47
314.864	55.47
315.078	0.17
315.292	0.17
315.505	20.65
315.719	32.94
315.933	49.32
316.146	12.46
316.36	22.7
316.573	22.7
316.787	90.28
317.001	49.32
317.214	26.79
317.428	100.52
317.641	43.18
317.855	16.55
318.068	-10.07
318.282	73.9
318.495	-14.17
318.709	73.9
318.922	53.42
319.136	51.37
319.349	41.13
319.563	118.95
319.776	24.75
319.99	8.36
320.203	8.36
320.417	6.31
320.63	16.55
320.843	-8.02
321.057	-32.6
321.27	10.41
321.483	51.37
321.697	37.03
321.91	37.03
322.124	51.37
322.337	65.71
322.55	47.27
322.763	51.37
322.977	28.84
323.19	39.08
323.403	41.13
323.617	14.51
323.83	49.32
324.043	0.17
324.256	51.37
324.469	10.41
324.683	98.47
324.896	92.33
325.109	53.42
325.322	65.71
325.535	37.03
325.748	0.17
325.962	80.04
326.175	37.03
326.388	39.08
326.601	73.9
326.814	32.94
327.027	49.32
327.24	49.32
327.453	2.22
327.666	63.66
327.879	108.71
328.092	131.24
328.305	-5.97
328.518	65.71
328.731	49.32
328.944	65.71
329.157	65.71
329.37	65.71
329.583	98.47
329.796	65.71
330.009	6.31
330.222	39.08
330.435	61.61
330.648	24.75
330.861	-28.5
331.073	20.65
331.286	10.41
331.499	77.99
331.712	32.94
331.925	63.66
332.138	30.89
332.35	32.94
332.563	32.94
332.776	12.46
332.989	20.65
333.202	6.31
333.414	12.46
333.627	98.47
333.84	41.13
334.053	127.14
334.265	55.47
334.478	-24.4
334.691	82.09
334.903	61.61
335.116	45.23
335.329	18.6
335.541	39.08
335.754	108.71
335.966	-22.36
336.179	65.71
336.392	32.94
336.604	0.17
336.817	118.95
337.029	-16.21
337.242	39.08
337.454	26.79
337.667	-5.97
337.88	137.38
338.092	106.67
338.305	28.84
338.517	-5.97
338.729	34.99
338.942	61.61
339.154	94.38
339.367	16.55
339.579	65.71
339.792	22.7
340.004	61.61
340.217	34.99
340.429	69.8
340.641	59.56
340.854	98.47
341.066	114.86
341.278	96.43
341.491	30.89
341.703	57.51
341.915	12.46
342.128	41.13
342.34	-30.55
342.552	45.23
342.764	98.47
342.977	63.66
343.189	10.41
343.401	98.47
343.613	-3.93
343.826	73.9
344.038	-24.4
344.25	102.57
344.462	4.27
344.674	8.36
344.886	26.79
345.099	139.43
345.311	20.65
345.523	10.41
345.735	24.75
345.947	45.23
346.159	49.32
346.371	30.89
346.583	-16.21
346.795	106.67
347.007	57.51
347.219	57.51
347.431	30.89
347.643	102.57
347.855	12.46
348.067	30.89
348.279	-20.31
348.491	59.56
348.703	65.71
348.915	10.41
349.127	-10.07
349.339	0.17
349.551	69.8
349.763	20.65
349.975	-28.5
350.187	106.67
350.399	28.84
350.61	104.62
350.822	8.36
351.034	45.23
351.246	32.94
351.458	57.51
351.669	51.37
351.881	41.13
352.093	12.46
352.305	59.56
352.517	77.99
352.728	63.66
352.94	123.05
353.152	34.99
353.363	41.13
353.575	-8.02
353.787	39.08
353.999	82.09
354.21	-8.02
354.422	-22.36
354.633	125.1
354.845	53.42
355.057	53.42
355.268	34.99
355.48	16.55
355.692	41.13
355.903	30.89
356.115	45.23
356.326	2.22
356.538	114.86
356.749	20.65
356.961	67.75
357.172	43.18
357.384	90.28
357.595	86.19
357.807	59.56
358.018	69.8
358.23	49.32
358.441	4.27
358.653	49.32
358.864	53.42
359.075	49.32
359.287	100.52
359.498	20.65
359.709	2.22
359.921	98.47
360.132	16.55
360.344	-20.31
360.555	26.79
360.766	39.08
360.977	20.65
361.189	8.36
361.4	-1.88
361.611	8.36
361.823	43.18
362.034	123.05
362.245	45.23
362.456	24.75
362.667	24.75
362.879	125.1
363.09	12.46
363.301	57.51
363.512	10.41
363.723	16.55
363.935	77.99
364.146	96.43
364.357	49.32
364.568	104.62
364.779	14.51
364.99	32.94
365.201	39.08
365.412	108.71
365.623	14.51
365.834	4.27
366.045	69.8
366.256	80.04
366.467	98.47
366.678	53.42
366.889	57.51
367.1	49.32
367.311	82.09
367.522	41.13
367.733	34.99
367.944	57.51
368.155	71.85
368.366	30.89
368.577	10.41
368.788	43.18
368.999	-12.12
369.209	30.89
369.42	69.8
369.631	102.57
369.842	39.08
370.053	39.08
370.264	73.9
370.474	37.03
370.685	98.47
370.896	-3.93
371.107	98.47
371.317	98.47
371.528	2.22
371.739	73.9
371.95	118.95
372.16	100.52
372.371	-16.21
372.582	16.55
372.792	45.23
373.003	57.51
373.214	77.99
373.424	73.9
373.635	45.23
373.846	82.09
374.056	57.51
374.267	88.23
374.477	69.8
374.688	43.18
374.898	69.8
375.109	0.17
375.319	69.8
375.53	59.56
375.74	0.17
375.951	10.41
376.161	39.08
376.372	96.43
376.582	-24.4
376.793	49.32
377.003	14.51
377.214	34.99
377.424	67.75
377.635	20.65
377.845	32.94
378.055	73.9
378.266	24.75
378.476	10.41
378.686	82.09
378.897	80.04
379.107	86.19
379.317	20.65
379.528	26.79
379.738	73.9
379.948	69.8
380.158	82.09
380.369	-8.02
380.579	-38.74
380.789	55.47
380.999	49.32
381.21	112.81
381.42	-12.12
381.63	41.13
381.84	34.99
382.05	-42.84
382.261	88.23
382.471	49.32
382.681	65.71
382.891	16.55
383.101	131.24
383.311	-24.4
383.521	71.85
383.731	26.79
383.941	75.95
384.151	30.89
384.361	20.65
384.571	18.6
384.781	34.99
384.991	90.28
385.201	49.32
385.411	116.9
385.621	98.47
385.831	82.09
386.041	118.95
386.251	37.03
386.461	20.65
386.671	59.56
386.881	51.37
387.091	178.34
387.301	-22.36
387.511	57.51
387.72	39.08
387.93	8.36
388.14	24.75
388.35	20.65
388.56	100.52
388.769	127.14
388.979	51.37
389.189	57.51
389.399	57.51
389.609	92.33
389.818	131.24
390.028	65.71
390.238	92.33
390.447	-22.36
390.657	63.66
390.867	82.09
391.076	63.66
391.286	116.9
391.496	90.28
391.705	77.99
391.915	188.58
392.125	30.89
392.334	53.42
392.544	65.71
392.753	135.34
392.963	30.89
393.172	57.51
393.382	43.18
393.591	49.32
393.801	67.75
394.01	49.32
394.22	108.71
394.429	123.05
394.639	69.8
394.848	92.33
395.058	90.28
395.267	141.48
395.477	77.99
395.686	86.19
395.895	137.38
396.105	129.19
396.314	98.47
396.524	131.24
396.733	123.05
396.942	86.19
397.152	39.08
397.361	155.82
397.57	32.94
397.78	106.67
397.989	114.86
398.198	118.95
398.407	133.29
398.617	98.47
398.826	67.75
399.035	69.8
399.244	100.52
399.453	100.52
399.663	137.38
399.872	82.09
400.081	123.05
400.29	92.33
400.499	43.18
400.708	108.71
400.917	116.9
401.127	77.99
401.336	71.85
401.545	135.34
401.754	123.05
401.963	133.29
402.172	98.47
402.381	172.2
402.59	131.24
402.799	129.19
403.008	47.27
403.217	141.48
403.426	118.95
403.635	67.75
403.844	133.29
404.053	159.91
404.262	102.57
404.471	39.08
404.68	106.67
404.888	159.91
405.097	155.82
405.306	77.99
405.515	168.1
405.724	168.1
405.933	196.78
406.142	155.82
406.35	149.67
406.559	174.25
406.768	196.78
406.977	223.4
407.185	82.09
407.394	180.39
407.603	180.39
407.812	245.93
408.02	241.83
408.229	233.64
408.438	200.87
408.646	260.26
408.855	200.87
409.064	235.69
409.272	174.25
409.481	221.35
409.69	260.26
409.898	164.01
410.107	260.26
410.315	315.56
410.524	241.83
410.733	243.88
410.941	356.52
411.15	379.04
411.358	282.79
411.567	426.15
411.775	411.81
411.984	426.15
412.192	327.85
412.401	383.14
412.609	338.09
412.818	432.29
413.026	438.44
413.234	508.07
413.443	467.11
413.651	422.05
413.86	485.54
414.068	549.03
414.276	639.14
414.485	569.51
414.693	600.23
414.901	546.98
415.11	657.57
415.318	622.75
415.526	557.22
415.734	696.48
415.943	714.91
416.151	737.44
416.359	706.72
416.567	719.01
416.776	733.34
416.984	839.84
417.192	819.36
417.4	864.41
417.608	811.17
417.817	884.89
418.025	946.33
418.233	991.39
418.441	946.33
418.649	1030.3
418.857	1038.49
419.065	1056.92
419.273	1106.07
419.481	1149.08
419.689	1251.48
419.897	1249.43
420.105	1224.86
420.313	1308.82
420.521	1368.21
420.729	1333.4
420.937	1308.82
421.145	1476.76
421.353	1527.96
421.561	1577.11
421.769	1728.66
421.977	1695.89
422.185	1749.14
422.393	1728.66
422.601	1855.63
422.809	1968.27
423.017	1853.58
423.224	1978.51
423.432	2072.72
423.64	2138.25
423.848	2228.36
424.056	2353.29
424.263	2355.33
424.471	2435.21
424.679	2308.23
424.887	2613.38
425.094	2613.38
425.302	2695.3
425.51	2728.07
425.718	2932.86
425.925	2824.32
426.133	2924.67
426.341	3096.7
426.548	3389.56
426.756	3268.73
426.964	3272.82
427.171	3477.62
427.379	3668.08
427.586	3727.47
427.794	3727.47
428.001	3819.63
428.209	4188.27
428.417	3999.85
428.624	4460.65
428.832	4239.47
429.039	4292.71
429.247	4319.34
429.454	4651.11
429.662	4919.39
429.869	4474.98
430.076	5042.27
430.284	4825.19
430.491	5042.27
430.699	5365.85
430.906	5359.7
431.114	5419.1
431.321	5445.72
431.528	5722.2
431.736	6174.8
431.943	6193.23
432.15	6146.12
432.358	6137.93
432.565	6563.91
432.772	6572.1
432.979	6803.52
433.187	7006.27
433.394	7059.52
433.601	7514.17
433.808	7514.17
434.016	7395.39
434.223	7823.41
434.43	8333.36
434.637	8276.01
434.844	8599.59
435.052	8851.49
435.259	8765.48
435.466	8765.48
435.673	8712.23
435.88	9365.53
436.087	9656.34
436.294	9840.66
436.501	9551.9
436.708	9871.38
436.915	10104.85
437.122	10584.07
437.329	10453
437.537	10625.03
437.743	10817.54
437.95	10856.45
438.157	11479.04
438.364	11950.07
438.571	11628.54
438.778	11948.02
438.985	13092.83
439.192	12541.93
439.399	12779.5
439.606	12599.27
439.813	13307.87
440.02	14110.68
440.227	13832.15
440.433	13557.72
440.64	14129.11
440.847	14125.01
441.054	14262.23
441.261	15470.53
441.467	15286.21
441.674	15450.05
441.881	16105.4
442.088	16060.34
442.294	15916.98
442.501	16162.74
442.708	16689.07
442.914	17309.6
443.121	18229.14
443.328	17313.7
443.534	18802.57
443.741	18300.82
443.948	17649.57
444.154	19230.6
444.361	19120.01
444.568	19550.08
444.774	19269.51
444.981	19611.52
445.187	19765.12
445.394	21020.52
445.6	20739.95
445.807	22744.91
446.013	21552.99
446.22	22093.66
446.426	23111.5
446.633	23269.19
446.839	24039.23
447.046	23076.68
447.252	24323.9
447.459	24078.14
447.665	24074.04
447.871	25198.38
448.078	26337.05
448.284	25001.77
448.491	25726.75
448.697	26529.56
448.903	27148.04
449.11	27002.64
449.316	26642.2
449.522	27139.85
449.728	28276.48
449.935	28137.21
450.141	27987.71
450.347	28968.69
450.553	28184.32
450.76	28024.58
450.966	29099.76
451.172	28792.56
451.378	29378.28
451.584	28866.29
451.791	29765.35
451.997	29775.59
452.203	29812.45
452.409	30555.86
452.615	30113.5
452.821	28878.58
453.027	28569.33
453.233	29779.68
453.44	28960.5
453.646	29533.93
453.852	29400.81
454.058	29974.24
454.264	28851.95
454.47	29357.8
454.676	28720.88
454.882	29929.19
455.088	27088.65
455.294	27379.46
455.5	27997.95
455.705	28237.56
455.911	27033.36
456.117	26824.47
456.323	26511.13
456.529	25040.68
456.735	25829.15
456.941	25149.23
457.147	25114.41
457.352	24362.81
457.558	23822.14
457.764	23758.66
457.97	23150.41
458.176	22918.99
458.381	23000.91
458.587	21780.32
458.793	21831.52
458.999	20701.04
459.204	22234.97
459.41	21659.49
459.616	20178.81
459.821	20203.38
460.027	20047.74
460.233	19931
460.438	18587.54
460.644	19109.77
460.85	18061.21
461.055	17627.04
461.261	17876.89
461.466	16523.18
461.672	15982.52
461.878	17129.38
462.083	15945.66
462.289	15767.48
462.494	15452.09
462.7	14940.1
462.905	14524.37
463.111	14794.7
463.316	15151.04
463.522	14671.82
463.727	14704.59
463.932	14827.46
464.138	14421.97
464.343	14714.83
464.549	14147.54
464.754	14622.67
464.959	14335.95
465.165	14346.19
465.37	13688.79
465.575	13451.23
465.781	13783
465.986	14204.88
466.191	13469.66
466.397	13107.17
466.602	12591.08
466.807	13158.37
467.012	13084.64
467.218	13148.13
467.423	12724.2
467.628	12883.94
467.833	13412.32
