Data from USB4F104151__62__13-53-41-115.txt Node

Date: Thu Mar 13 13:53:41 EDT 2025
User: louis
Spectrometer: USB4F10415
Trigger mode: 4
Integration Time (sec): 1.000000E-2
Scans to average: 1
Electric dark correction enabled: true
Nonlinearity correction enabled: false
Boxcar width: 0
XAxis mode: Wavelengths
Number of Pixels in Spectrum: 3648
>>>>>Begin Spectral Data<<<<<
178.204	-44.03
178.424	-44.03
178.644	-44.03
178.864	-58.37
179.084	-66.56
179.304	5.12
179.524	37.89
179.744	3.07
179.964	50.18
180.184	-25.6
180.404	21.5
180.624	31.74
180.844	-27.65
181.064	-76.8
181.283	15.36
181.503	-72.7
181.723	37.89
181.943	-29.7
182.163	52.22
182.383	-15.36
182.602	31.74
182.822	-3.07
183.042	21.5
183.262	-39.94
183.482	-31.74
183.701	27.65
183.921	27.65
184.141	27.65
184.361	-27.65
184.58	50.18
184.8	-37.89
185.02	35.84
185.239	27.65
185.459	-7.17
185.679	37.89
185.898	15.36
186.118	27.65
186.338	29.7
186.557	93.18
186.777	29.7
186.997	23.55
187.216	3.07
187.436	31.74
187.655	46.08
187.875	74.75
188.095	-33.79
188.314	37.89
188.534	-35.84
188.753	50.18
188.973	44.03
189.192	101.37
189.412	7.17
189.631	-44.03
189.851	5.12
190.07	46.08
190.29	44.03
190.509	11.26
190.729	-46.08
190.948	-31.74
191.168	37.89
191.387	37.89
191.607	-44.03
191.826	27.65
192.045	-3.07
192.265	41.98
192.484	60.42
192.704	11.26
192.923	-56.32
193.142	7.17
193.362	-1.02
193.581	-23.55
193.8	-11.26
194.02	46.08
194.239	17.41
194.458	97.28
194.678	31.74
194.897	39.94
195.116	13.31
195.335	3.07
195.555	31.74
195.774	-5.12
195.993	50.18
196.212	11.26
196.432	27.65
196.651	9.22
196.87	89.09
197.089	1.02
197.308	54.27
197.528	1.02
197.747	97.28
197.966	76.8
198.185	58.37
198.404	17.41
198.623	21.5
198.842	44.03
199.062	70.65
199.281	9.22
199.5	60.42
199.719	41.98
199.938	37.89
200.157	46.08
200.376	107.52
200.595	66.56
200.814	39.94
201.033	27.65
201.252	5.12
201.471	-7.17
201.69	50.18
201.909	46.08
202.128	21.5
202.347	-62.46
202.566	-21.5
202.785	44.03
203.004	5.12
203.223	15.36
203.442	-3.07
203.661	-9.22
203.879	95.23
204.098	25.6
204.317	-48.13
204.536	52.22
204.755	15.36
204.974	64.51
205.193	9.22
205.411	13.31
205.63	48.13
205.849	7.17
206.068	39.94
206.287	-29.7
206.505	35.84
206.724	29.7
206.943	-31.74
207.162	-17.41
207.381	-25.6
207.599	27.65
207.818	48.13
208.037	-19.46
208.255	46.08
208.474	50.18
208.693	93.18
208.911	29.7
209.13	46.08
209.349	17.41
209.567	70.65
209.786	44.03
210.005	64.51
210.223	7.17
210.442	-15.36
210.661	27.65
210.879	3.07
211.098	-9.22
211.316	46.08
211.535	66.56
211.753	50.18
211.972	-7.17
212.191	52.22
212.409	9.22
212.628	1.02
212.846	-11.26
213.065	-7.17
213.283	13.31
213.502	-33.79
213.72	50.18
213.938	19.46
214.157	35.84
214.375	48.13
214.594	37.89
214.812	37.89
215.031	52.22
215.249	19.46
215.467	27.65
215.686	27.65
215.904	1.02
216.122	25.6
216.341	-13.31
216.559	11.26
216.778	-13.31
216.996	-9.22
217.214	7.17
217.432	-1.02
217.651	62.46
217.869	23.55
218.087	46.08
218.306	37.89
218.524	68.61
218.742	33.79
218.96	13.31
219.179	-17.41
219.397	74.75
219.615	-23.55
219.833	33.79
220.051	1.02
220.27	-17.41
220.488	-17.41
220.706	58.37
220.924	27.65
221.142	7.17
221.36	7.17
221.578	23.55
221.796	-9.22
222.015	-84.99
222.233	-13.31
222.451	-7.17
222.669	-1.02
222.887	46.08
223.105	87.04
223.323	23.55
223.541	-29.7
223.759	9.22
223.977	-27.65
224.195	17.41
224.413	17.41
224.631	17.41
224.849	-7.17
225.067	44.03
225.285	37.89
225.503	9.22
225.721	35.84
225.939	31.74
226.157	17.41
226.375	74.75
226.592	54.27
226.81	48.13
227.028	78.85
227.246	-39.94
227.464	9.22
227.682	56.32
227.9	44.03
228.117	41.98
228.335	21.5
228.553	48.13
228.771	27.65
228.989	48.13
229.206	56.32
229.424	15.36
229.642	-13.31
229.86	3.07
230.077	48.13
230.295	-1.02
230.513	113.66
230.731	80.89
230.948	58.37
231.166	66.56
231.384	39.94
231.601	3.07
231.819	9.22
232.037	13.31
232.254	19.46
232.472	1.02
232.689	-52.22
232.907	27.65
233.125	52.22
233.342	-44.03
233.56	-9.22
233.777	29.7
233.995	56.32
234.213	7.17
234.43	58.37
234.648	-31.74
234.865	-9.22
235.083	-15.36
235.3	97.28
235.518	31.74
235.735	52.22
235.953	-3.07
236.17	13.31
236.388	25.6
236.605	72.7
236.822	80.89
237.04	60.42
237.257	33.79
237.475	80.89
237.692	-44.03
237.909	-9.22
238.127	39.94
238.344	50.18
238.562	80.89
238.779	-7.17
238.996	29.7
239.214	-41.98
239.431	87.04
239.648	29.7
239.865	21.5
240.083	7.17
240.3	62.46
240.517	25.6
240.735	70.65
240.952	3.07
241.169	33.79
241.386	64.51
241.603	1.02
241.821	-23.55
242.038	7.17
242.255	23.55
242.472	62.46
242.689	1.02
242.907	91.13
243.124	62.46
243.341	-25.6
243.558	48.13
243.775	33.79
243.992	-1.02
244.209	52.22
244.426	-19.46
244.643	52.22
244.86	62.46
245.078	78.85
245.295	31.74
245.512	62.46
245.729	33.79
245.946	48.13
246.163	-15.36
246.38	9.22
246.597	-33.79
246.814	52.22
247.031	-11.26
247.248	-13.31
247.464	7.17
247.681	72.7
247.898	-33.79
248.115	-23.55
248.332	93.18
248.549	89.09
248.766	27.65
248.983	21.5
249.2	52.22
249.417	25.6
249.633	11.26
249.85	35.84
250.067	13.31
250.284	80.89
250.501	44.03
250.717	60.42
250.934	37.89
251.151	3.07
251.368	48.13
251.585	-50.18
251.801	17.41
252.018	29.7
252.235	5.12
252.451	35.84
252.668	70.65
252.885	7.17
253.102	5.12
253.318	17.41
253.535	64.51
253.752	72.7
253.968	68.61
254.185	-17.41
254.401	31.74
254.618	17.41
254.835	1.02
255.051	70.65
255.268	64.51
255.484	33.79
255.701	-27.65
255.917	25.6
256.134	3.07
256.351	31.74
256.567	-17.41
256.784	3.07
257	19.46
257.217	52.22
257.433	11.26
257.65	95.23
257.866	9.22
258.082	-27.65
258.299	-9.22
258.515	19.46
258.732	15.36
258.948	7.17
259.165	3.07
259.381	37.89
259.597	3.07
259.814	-13.31
260.03	27.65
260.246	23.55
260.463	48.13
260.679	44.03
260.895	-19.46
261.112	68.61
261.328	-33.79
261.544	-72.7
261.761	64.51
261.977	21.5
262.193	68.61
262.409	3.07
262.626	3.07
262.842	82.94
263.058	-29.7
263.274	44.03
263.49	76.8
263.707	35.84
263.923	-25.6
264.139	35.84
264.355	11.26
264.571	1.02
264.787	33.79
265.004	52.22
265.22	58.37
265.436	-5.12
265.652	35.84
265.868	31.74
266.084	39.94
266.3	27.65
266.516	-68.61
266.732	33.79
266.948	-7.17
267.164	48.13
267.38	70.65
267.596	23.55
267.812	115.71
268.028	35.84
268.244	56.32
268.46	21.5
268.676	82.94
268.892	39.94
269.108	48.13
269.324	-68.61
269.54	-35.84
269.756	-7.17
269.972	33.79
270.188	7.17
270.403	37.89
270.619	44.03
270.835	-33.79
271.051	3.07
271.267	19.46
271.483	29.7
271.698	21.5
271.914	58.37
272.13	-33.79
272.346	25.6
272.562	-44.03
272.777	-1.02
272.993	11.26
273.209	39.94
273.425	23.55
273.64	29.7
273.856	164.86
274.072	-35.84
274.287	11.26
274.503	17.41
274.719	-13.31
274.934	52.22
275.15	37.89
275.366	60.42
275.581	-25.6
275.797	-11.26
276.012	15.36
276.228	31.74
276.444	-54.27
276.659	97.28
276.875	17.41
277.09	3.07
277.306	-3.07
277.521	48.13
277.737	37.89
277.952	56.32
278.168	-19.46
278.383	48.13
278.599	103.42
278.814	35.84
279.03	68.61
279.245	41.98
279.461	41.98
279.676	80.89
279.892	15.36
280.107	52.22
280.322	-1.02
280.538	93.18
280.753	3.07
280.969	74.75
281.184	9.22
281.399	52.22
281.615	35.84
281.83	11.26
282.045	66.56
282.26	44.03
282.476	46.08
282.691	84.99
282.906	-3.07
283.122	80.89
283.337	5.12
283.552	25.6
283.767	11.26
283.983	46.08
284.198	52.22
284.413	-15.36
284.628	-64.51
284.843	-62.46
285.058	13.31
285.274	84.99
285.489	103.42
285.704	13.31
285.919	-21.5
286.134	-11.26
286.349	3.07
286.564	13.31
286.779	72.7
286.995	-15.36
287.21	41.98
287.425	41.98
287.64	-21.5
287.855	50.18
288.07	1.02
288.285	5.12
288.5	82.94
288.715	5.12
288.93	33.79
289.145	-23.55
289.36	33.79
289.575	19.46
289.79	29.7
290.004	37.89
290.219	-9.22
290.434	56.32
290.649	11.26
290.864	-1.02
291.079	56.32
291.294	44.03
291.509	29.7
291.724	-29.7
291.938	-25.6
292.153	31.74
292.368	21.5
292.583	37.89
292.798	82.94
293.012	7.17
293.227	-9.22
293.442	52.22
293.657	80.89
293.871	82.94
294.086	35.84
294.301	5.12
294.516	60.42
294.73	76.8
294.945	-9.22
295.16	29.7
295.374	23.55
295.589	-1.02
295.804	62.46
296.018	-21.5
296.233	56.32
296.447	5.12
296.662	64.51
296.877	74.75
297.091	9.22
297.306	-7.17
297.52	17.41
297.735	48.13
297.949	-13.31
298.164	37.89
298.378	17.41
298.593	23.55
298.807	46.08
299.022	70.65
299.236	-3.07
299.451	-41.98
299.665	46.08
299.88	44.03
300.094	-1.02
300.309	41.98
300.523	105.47
300.737	41.98
300.952	13.31
301.166	-7.17
301.381	-19.46
301.595	44.03
301.809	17.41
302.024	66.56
302.238	25.6
302.452	44.03
302.667	58.37
302.881	58.37
303.095	-68.61
303.309	-15.36
303.524	46.08
303.738	9.22
303.952	17.41
304.166	-21.5
304.381	11.26
304.595	54.27
304.809	-23.55
305.023	-33.79
305.237	64.51
305.452	3.07
305.666	41.98
305.88	-1.02
306.094	-3.07
306.308	64.51
306.522	50.18
306.736	-1.02
306.95	15.36
307.164	41.98
307.379	39.94
307.593	-15.36
307.807	5.12
308.021	-1.02
308.235	33.79
308.449	35.84
308.663	-70.65
308.877	52.22
309.091	39.94
309.305	44.03
309.519	-5.12
309.733	95.23
309.947	70.65
310.161	74.75
310.374	31.74
310.588	-7.17
310.802	33.79
311.016	41.98
311.23	58.37
311.444	46.08
311.658	15.36
311.872	27.65
312.085	-13.31
312.299	-1.02
312.513	-21.5
312.727	44.03
312.941	-35.84
313.154	5.12
313.368	19.46
313.582	-7.17
313.796	84.99
314.009	78.85
314.223	76.8
314.437	13.31
314.651	31.74
314.864	50.18
315.078	-66.56
315.292	-27.65
315.505	-1.02
315.719	93.18
315.933	-9.22
316.146	-87.04
316.36	64.51
316.573	48.13
316.787	-95.23
317.001	31.74
317.214	-17.41
317.428	-9.22
317.641	48.13
317.855	35.84
318.068	-11.26
318.282	33.79
318.495	35.84
318.709	-33.79
318.922	35.84
319.136	66.56
319.349	23.55
319.563	7.17
319.776	70.65
319.99	-9.22
320.203	70.65
320.417	91.13
320.63	17.41
320.843	31.74
321.057	13.31
321.27	-7.17
321.483	46.08
321.697	82.94
321.91	11.26
322.124	41.98
322.337	15.36
322.55	76.8
322.763	31.74
322.977	68.61
323.19	54.27
323.403	39.94
323.617	-27.65
323.83	33.79
324.043	25.6
324.256	25.6
324.469	41.98
324.683	68.61
324.896	-11.26
325.109	39.94
325.322	-21.5
325.535	35.84
325.748	13.31
325.962	39.94
326.175	39.94
326.388	64.51
326.601	-27.65
326.814	23.55
327.027	11.26
327.24	-1.02
327.453	-44.03
327.666	19.46
327.879	21.5
328.092	-13.31
328.305	-7.17
328.518	23.55
328.731	41.98
328.944	44.03
329.157	39.94
329.37	46.08
329.583	9.22
329.796	62.46
330.009	-17.41
330.222	25.6
330.435	31.74
330.648	31.74
330.861	107.52
331.073	-9.22
331.286	17.41
331.499	82.94
331.712	-3.07
331.925	19.46
332.138	33.79
332.35	62.46
332.563	25.6
332.776	33.79
332.989	-5.12
333.202	56.32
333.414	1.02
333.627	9.22
333.84	46.08
334.053	9.22
334.265	3.07
334.478	76.8
334.691	35.84
334.903	31.74
335.116	37.89
335.329	21.5
335.541	23.55
335.754	89.09
335.966	-13.31
336.179	50.18
336.392	121.85
336.604	-48.13
336.817	46.08
337.029	70.65
337.242	44.03
337.454	5.12
337.667	7.17
337.88	56.32
338.092	46.08
338.305	54.27
338.517	41.98
338.729	52.22
338.942	9.22
339.154	11.26
339.367	-62.46
339.579	-1.02
339.792	-31.74
340.004	37.89
340.217	19.46
340.429	9.22
340.641	27.65
340.854	-7.17
341.066	31.74
341.278	23.55
341.491	109.57
341.703	33.79
341.915	35.84
342.128	-7.17
342.34	-5.12
342.552	17.41
342.764	21.5
342.977	58.37
343.189	15.36
343.401	5.12
343.613	54.27
343.826	97.28
344.038	-35.84
344.25	-15.36
344.462	-19.46
344.674	-5.12
344.886	-29.7
345.099	84.99
345.311	70.65
345.523	41.98
345.735	7.17
345.947	60.42
346.159	33.79
346.371	17.41
346.583	21.5
346.795	82.94
347.007	21.5
347.219	27.65
347.431	-35.84
347.643	33.79
347.855	3.07
348.067	11.26
348.279	-27.65
348.491	25.6
348.703	-60.42
348.915	103.42
349.127	56.32
349.339	13.31
349.551	27.65
349.763	78.85
349.975	-13.31
350.187	13.31
350.399	25.6
350.61	5.12
350.822	33.79
351.034	82.94
351.246	44.03
351.458	44.03
351.669	76.8
351.881	91.13
352.093	-19.46
352.305	39.94
352.517	-9.22
352.728	-9.22
352.94	29.7
353.152	54.27
353.363	72.7
353.575	66.56
353.787	13.31
353.999	105.47
354.21	-23.55
354.422	50.18
354.633	-7.17
354.845	60.42
355.057	-7.17
355.268	11.26
355.48	-27.65
355.692	66.56
355.903	-54.27
356.115	3.07
356.326	60.42
356.538	25.6
356.749	44.03
356.961	68.61
357.172	37.89
357.384	56.32
357.595	13.31
357.807	3.07
358.018	48.13
358.23	84.99
358.441	13.31
358.653	25.6
358.864	50.18
359.075	44.03
359.287	64.51
359.498	3.07
359.709	1.02
359.921	72.7
360.132	7.17
360.344	72.7
360.555	56.32
360.766	-46.08
360.977	23.55
361.189	74.75
361.4	27.65
361.611	119.81
361.823	35.84
362.034	19.46
362.245	64.51
362.456	52.22
362.667	68.61
362.879	35.84
363.09	52.22
363.301	66.56
363.512	-52.22
363.723	66.56
363.935	27.65
364.146	27.65
364.357	62.46
364.568	54.27
364.779	23.55
364.99	44.03
365.201	66.56
365.412	11.26
365.623	33.79
365.834	105.47
366.045	-33.79
366.256	29.7
366.467	5.12
366.678	58.37
366.889	62.46
367.1	17.41
367.311	31.74
367.522	60.42
367.733	-37.89
367.944	93.18
368.155	9.22
368.366	84.99
368.577	-11.26
368.788	-17.41
368.999	50.18
369.209	46.08
369.42	-52.22
369.631	-3.07
369.842	-9.22
370.053	140.29
370.264	89.09
370.474	50.18
370.685	80.89
370.896	58.37
371.107	95.23
371.317	82.94
371.528	7.17
371.739	87.04
371.95	39.94
372.16	-3.07
372.371	-37.89
372.582	66.56
372.792	66.56
373.003	25.6
373.214	50.18
373.424	-1.02
373.635	50.18
373.846	84.99
374.056	56.32
374.267	134.14
374.477	44.03
374.688	58.37
374.898	52.22
375.109	99.33
375.319	-39.94
375.53	125.95
375.74	-7.17
375.951	-41.98
376.161	115.71
376.372	93.18
376.582	-95.23
376.793	93.18
377.003	52.22
377.214	62.46
377.424	7.17
377.635	1.02
377.845	-15.36
378.055	17.41
378.266	33.79
378.476	19.46
378.686	68.61
378.897	11.26
379.107	68.61
379.317	35.84
379.528	27.65
379.738	87.04
379.948	7.17
380.158	33.79
380.369	-25.6
380.579	78.85
380.789	-5.12
380.999	52.22
381.21	109.57
381.42	64.51
381.63	-44.03
381.84	117.76
382.05	52.22
382.261	117.76
382.471	7.17
382.681	27.65
382.891	-7.17
383.101	29.7
383.311	23.55
383.521	58.37
383.731	-11.26
383.941	121.85
384.151	25.6
384.361	41.98
384.571	66.56
384.781	11.26
384.991	52.22
385.201	13.31
385.411	113.66
385.621	-9.22
385.831	99.33
386.041	62.46
386.251	-7.17
386.461	68.61
386.671	72.7
386.881	13.31
387.091	130.05
387.301	58.37
387.511	66.56
387.72	48.13
387.93	48.13
388.14	15.36
388.35	72.7
388.56	52.22
388.769	7.17
388.979	15.36
389.189	-23.55
389.399	76.8
389.609	-19.46
389.818	37.89
390.028	123.9
390.238	33.79
390.447	44.03
390.657	62.46
390.867	3.07
391.076	76.8
391.286	15.36
391.496	29.7
391.705	11.26
391.915	64.51
392.125	-60.42
392.334	89.09
392.544	-3.07
392.753	50.18
392.963	50.18
393.172	66.56
393.382	46.08
393.591	87.04
393.801	31.74
394.01	95.23
394.22	9.22
394.429	54.27
394.639	-29.7
394.848	52.22
395.058	56.32
395.267	87.04
395.477	23.55
395.686	95.23
395.895	68.61
396.105	-31.74
396.314	113.66
396.524	101.37
396.733	72.7
396.942	93.18
397.152	48.13
397.361	103.42
397.57	58.37
397.78	56.32
397.989	125.95
398.198	60.42
398.407	-11.26
398.617	37.89
398.826	62.46
399.035	95.23
399.244	105.47
399.453	21.5
399.663	84.99
399.872	52.22
400.081	39.94
400.29	62.46
400.499	19.46
400.708	56.32
400.917	68.61
401.127	91.13
401.336	78.85
401.545	160.77
401.754	117.76
401.963	148.48
402.172	66.56
402.381	78.85
402.59	113.66
402.799	70.65
403.008	121.85
403.217	33.79
403.426	89.09
403.635	99.33
403.844	60.42
404.053	95.23
404.262	37.89
404.471	62.46
404.68	99.33
404.888	115.71
405.097	89.09
405.306	113.66
405.515	89.09
405.724	158.72
405.933	62.46
406.142	95.23
406.35	50.18
406.559	64.51
406.768	70.65
406.977	160.77
407.185	82.94
407.394	173.05
407.603	125.95
407.812	80.89
408.02	115.71
408.229	128
408.438	142.33
408.646	156.67
408.855	70.65
409.064	148.48
409.272	109.57
409.481	171.01
409.69	156.67
409.898	148.48
410.107	177.15
410.315	171.01
410.524	123.9
410.733	183.29
410.941	218.11
411.15	181.25
411.358	230.4
411.567	220.16
411.775	203.77
411.984	214.01
412.192	250.88
412.401	234.49
412.609	238.59
412.818	300.03
413.026	250.88
413.234	295.93
413.443	252.92
413.651	295.93
413.86	326.65
414.068	443.39
414.276	246.78
414.485	375.8
414.693	297.98
414.901	328.7
415.11	332.79
415.318	367.61
415.526	355.32
415.734	392.19
415.943	377.85
416.151	431.1
416.359	386.04
416.567	529.4
416.776	502.78
416.984	519.16
417.192	527.35
417.4	545.78
417.608	582.65
417.817	558.07
418.025	531.45
418.233	562.17
418.441	662.52
418.649	568.31
418.857	676.85
419.065	658.42
419.273	728.05
419.481	736.24
419.689	750.58
419.897	756.72
420.105	779.25
420.313	797.68
420.521	812.02
420.729	883.7
420.937	879.6
421.145	867.31
421.353	918.51
421.561	963.57
421.769	1035.25
421.977	990.19
422.185	1061.87
422.393	1094.64
422.601	1188.85
422.809	1250.28
423.017	1238
423.224	1184.75
423.432	1205.23
423.64	1303.53
423.848	1496.04
424.056	1418.22
424.263	1504.23
424.471	1477.61
424.679	1432.55
424.887	1631.21
425.094	1704.93
425.302	1600.49
425.51	1686.5
425.718	1815.52
425.925	1811.43
426.133	1825.76
426.341	1969.12
426.548	2053.09
426.756	2073.57
426.964	2067.42
427.171	2264.03
427.379	2253.79
427.586	2397.15
427.794	2360.28
428.001	2442.2
428.209	2653.14
428.417	2524.12
428.624	2730.97
428.832	2573.27
429.039	2630.62
429.247	2739.16
429.454	2937.81
429.662	3066.83
429.869	2937.81
430.076	3171.28
430.284	3058.64
430.491	3154.9
430.699	3290.06
430.906	3308.49
431.114	3388.36
431.321	3568.59
431.528	3509.19
431.736	3879.88
431.943	4006.85
432.15	3812.29
432.358	3912.64
432.565	4162.5
432.772	4058.05
432.979	4287.42
433.187	4524.99
433.394	4369.34
433.601	4625.34
433.808	4805.56
434.016	4836.28
434.223	4809.65
434.43	5151.67
434.637	5082.03
434.844	5479.34
435.052	5561.26
435.259	5501.87
435.466	5551.02
435.673	5442.48
435.88	5907.37
436.087	6302.62
436.294	6058.92
436.501	6046.63
436.708	6210.47
436.915	6542.24
437.122	6618.01
437.329	6562.72
437.537	6894.49
437.743	6765.46
437.95	6974.36
438.157	7207.83
438.364	7486.35
438.571	7586.7
438.778	7576.46
438.985	8287.11
439.192	7721.87
439.399	8166.28
439.606	8014.73
439.813	8364.93
440.02	8917.88
440.227	8762.23
440.433	8770.43
440.64	8850.3
440.847	8743.8
441.054	9159.54
441.261	9683.82
441.467	9528.17
441.674	9692.01
441.881	10021.74
442.088	10314.59
442.294	10126.18
442.501	10392.42
442.708	10431.33
442.914	11074.39
443.121	11418.45
443.328	11180.89
443.534	11852.62
443.741	11365.2
443.948	11219.8
444.154	11955.02
444.361	11961.16
444.568	12122.95
444.774	12411.71
444.981	12313.41
445.187	12538.69
445.394	13271.86
445.6	13114.17
445.807	14175.02
446.013	13722.41
446.22	14025.51
446.426	14560.03
446.633	14607.14
446.839	15350.55
447.046	14519.07
447.252	15149.85
447.459	15315.73
447.665	15397.65
447.871	15887.12
448.078	16569.09
448.284	15643.41
448.491	16206.6
448.697	16806.66
448.903	16909.05
449.11	17138.43
449.316	16929.53
449.522	17193.72
449.728	17746.67
449.935	17634.03
450.141	17500.92
450.347	18031.34
450.553	17412.85
450.76	17560.31
450.966	18223.85
451.172	17910.51
451.378	18635.49
451.584	18004.72
451.791	18537.19
451.997	18354.92
452.203	18592.48
452.409	18698.98
452.615	18721.51
452.821	17896.17
453.027	17613.56
453.233	18469.61
453.44	17951.47
453.646	18131.69
453.852	18090.73
454.058	18004.72
454.264	17787.63
454.47	18029.29
454.676	17883.89
454.882	18389.74
455.088	16657.15
455.294	16808.7
455.5	17140.47
455.705	17470.2
455.911	16515.84
456.117	16345.86
456.323	15901.45
456.529	15145.75
456.735	15815.44
456.941	15272.73
457.147	15194.9
457.352	14635.81
457.558	14291.75
457.764	14570.27
457.97	14179.11
458.176	13787.95
458.381	13720.37
458.587	13343.54
458.793	13302.58
458.999	12778.3
459.204	13378.36
459.41	13017.91
459.616	12067.66
459.821	12133.19
460.027	12086.09
460.233	11709.26
460.438	11271
460.644	11479.89
460.85	10879.83
461.055	10728.28
461.261	10867.55
461.466	10046.31
461.672	9505.65
461.878	10337.12
462.083	9433.97
462.289	9622.38
462.494	9399.15
462.7	8964.98
462.905	8747.9
463.111	9096.05
463.316	9018.23
463.522	8815.48
463.727	8805.24
463.932	8993.65
464.138	8795
464.343	8825.72
464.549	8459.13
464.754	9046.9
464.959	8733.56
465.165	8801.15
465.37	8295.3
465.575	8104.84
465.781	8348.54
465.986	8545.15
466.191	8313.73
466.397	8164.23
466.602	7857.03
466.807	7934.85
467.012	7975.81
467.218	7891.85
467.423	7826.31
467.628	7748.49
467.833	8305.54
468.038	8104.84
468.244	7768.97
468.449	7887.75
468.654	7875.46
468.859	7633.8
469.064	7756.68
469.269	7326.61
469.474	7400.34
