Data from USB4F104151__131__13-58-01-637.txt Node

Date: Thu Mar 13 13:58:01 EDT 2025
User: louis
Spectrometer: USB4F10415
Trigger mode: 4
Integration Time (sec): 1.000000E-2
Scans to average: 1
Electric dark correction enabled: true
Nonlinearity correction enabled: false
Boxcar width: 0
XAxis mode: Wavelengths
Number of Pixels in Spectrum: 3648
>>>>>Begin Spectral Data<<<<<
178.204	-71.85
178.424	-71.85
178.644	-71.85
178.864	-47.27
179.084	-20.65
179.304	-22.7
179.524	26.45
179.744	5.97
179.964	-4.27
180.184	-16.55
180.404	-4.27
180.624	-4.27
180.844	32.6
181.064	22.36
181.283	-2.22
181.503	1.88
181.723	-34.99
181.943	3.93
182.163	32.6
182.383	48.98
182.602	36.69
182.822	-28.84
183.042	24.4
183.262	22.36
183.482	26.45
183.701	-0.17
183.921	-53.42
184.141	-10.41
184.361	51.03
184.58	-69.8
184.8	-8.36
185.02	-14.51
185.239	69.46
185.459	-14.51
185.679	16.21
185.898	-10.41
186.118	-43.18
186.338	36.69
186.557	67.41
186.777	10.07
186.997	65.36
187.216	-2.22
187.436	36.69
187.655	65.36
187.875	69.46
188.095	16.21
188.314	48.98
188.534	22.36
188.753	40.79
188.973	-53.42
189.192	-0.17
189.412	-47.27
189.631	-4.27
189.851	-12.46
190.07	5.97
190.29	77.65
190.509	-14.51
190.729	71.51
190.948	-10.41
191.168	67.41
191.387	18.26
191.607	20.31
191.826	-43.18
192.045	-45.23
192.265	-12.46
192.484	65.36
192.704	1.88
192.923	-4.27
193.142	36.69
193.362	32.6
193.581	-34.99
193.8	14.17
194.02	-8.36
194.239	-4.27
194.458	34.64
194.678	-82.09
194.897	22.36
195.116	-6.31
195.335	100.18
195.555	-26.79
195.774	-51.37
195.993	40.79
196.212	36.69
196.432	-41.13
196.651	-18.6
196.87	-4.27
197.089	55.12
197.308	-26.79
197.528	-2.22
197.747	24.4
197.966	44.88
198.185	1.88
198.404	-16.55
198.623	42.84
198.842	55.12
199.062	-57.51
199.281	48.98
199.5	69.46
199.719	12.12
199.938	16.21
200.157	-18.6
200.376	38.74
200.595	44.88
200.814	38.74
201.033	18.26
201.252	-0.17
201.471	44.88
201.69	36.69
201.909	69.46
202.128	5.97
202.347	69.46
202.566	-24.75
202.785	-4.27
203.004	-28.84
203.223	18.26
203.442	-0.17
203.661	-20.65
203.879	-43.18
204.098	44.88
204.317	28.5
204.536	3.93
204.755	73.56
204.974	22.36
205.193	-18.6
205.411	69.46
205.63	-30.89
205.849	-12.46
206.068	53.08
206.287	12.12
206.505	-28.84
206.724	16.21
206.943	-18.6
207.162	-16.55
207.381	-45.23
207.599	-45.23
207.818	42.84
208.037	51.03
208.255	3.93
208.474	5.97
208.693	8.02
208.911	32.6
209.13	53.08
209.349	36.69
209.567	20.31
209.786	46.93
210.005	-0.17
210.223	-32.94
210.442	46.93
210.661	-2.22
210.879	1.88
211.098	-18.6
211.316	-10.41
211.535	59.22
211.753	12.12
211.972	-14.51
212.191	59.22
212.409	55.12
212.628	42.84
212.846	-10.41
213.065	-24.75
213.283	24.4
213.502	30.55
213.72	8.02
213.938	8.02
214.157	-14.51
214.375	26.45
214.594	38.74
214.812	16.21
215.031	-61.61
215.249	14.17
215.467	-18.6
215.686	-28.84
215.904	79.7
216.122	36.69
216.341	8.02
216.559	14.17
216.778	-51.37
216.996	16.21
217.214	-4.27
217.432	-26.79
217.651	-10.41
217.869	-10.41
218.087	-32.94
218.306	14.17
218.524	55.12
218.742	-39.08
218.96	59.22
219.179	14.17
219.397	79.7
219.615	12.12
219.833	77.65
220.051	32.6
220.27	16.21
220.488	-4.27
220.706	-43.18
220.924	-32.94
221.142	-26.79
221.36	-34.99
221.578	12.12
221.796	22.36
222.015	-26.79
222.233	-43.18
222.451	83.8
222.669	-53.42
222.887	36.69
223.105	61.27
223.323	40.79
223.541	-26.79
223.759	1.88
223.977	40.79
224.195	55.12
224.413	22.36
224.631	-14.51
224.849	-10.41
225.067	-18.6
225.285	-20.65
225.503	85.84
225.721	-37.03
225.939	3.93
226.157	5.97
226.375	3.93
226.592	1.88
226.81	-28.84
227.028	40.79
227.246	12.12
227.464	14.17
227.682	55.12
227.9	-63.66
228.117	73.56
228.335	85.84
228.553	30.55
228.771	30.55
228.989	98.13
229.206	1.88
229.424	-2.22
229.642	18.26
229.86	12.12
230.077	40.79
230.295	-26.79
230.513	34.64
230.731	-47.27
230.948	40.79
231.166	59.22
231.384	53.08
231.601	12.12
231.819	30.55
232.037	-16.55
232.254	-28.84
232.472	3.93
232.689	16.21
232.907	-59.56
233.125	14.17
233.342	3.93
233.56	-18.6
233.777	1.88
233.995	-53.42
234.213	-67.75
234.43	36.69
234.648	10.07
234.865	1.88
235.083	42.84
235.3	-12.46
235.518	-8.36
235.735	59.22
235.953	22.36
236.17	-0.17
236.388	36.69
236.605	5.97
236.822	24.4
237.04	26.45
237.257	65.36
237.475	8.02
237.692	73.56
237.909	48.98
238.127	48.98
238.344	-51.37
238.562	-61.61
238.779	-12.46
238.996	-4.27
239.214	1.88
239.431	59.22
239.648	36.69
239.865	-4.27
240.083	12.12
240.3	-55.47
240.517	-8.36
240.735	36.69
240.952	12.12
241.169	36.69
241.386	5.97
241.603	71.51
241.821	-10.41
242.038	-4.27
242.255	-16.55
242.472	36.69
242.689	-57.51
242.907	-32.94
243.124	65.36
243.341	38.74
243.558	-41.13
243.775	-34.99
243.992	10.07
244.209	5.97
244.426	-30.89
244.643	-16.55
244.86	-47.27
245.078	120.66
245.295	-14.51
245.512	22.36
245.729	-37.03
245.946	20.31
246.163	59.22
246.38	139.09
246.597	79.7
246.814	48.98
247.031	-28.84
247.248	-10.41
247.464	63.32
247.681	16.21
247.898	-14.51
248.115	-2.22
248.332	55.12
248.549	-0.17
248.766	40.79
248.983	-10.41
249.2	28.5
249.417	20.31
249.633	-18.6
249.85	16.21
250.067	-26.79
250.284	16.21
250.501	79.7
250.717	71.51
250.934	-49.32
251.151	5.97
251.368	-4.27
251.585	-10.41
251.801	77.65
252.018	-26.79
252.235	24.4
252.451	-32.94
252.668	-24.75
252.885	46.93
253.102	20.31
253.318	-73.9
253.535	40.79
253.752	-34.99
253.968	-20.65
254.185	-8.36
254.401	-2.22
254.618	-26.79
254.835	3.93
255.051	65.36
255.268	-6.31
255.484	12.12
255.701	8.02
255.917	-16.55
256.134	48.98
256.351	20.31
256.567	12.12
256.784	94.04
257	32.6
257.217	38.74
257.433	-8.36
257.65	14.17
257.866	26.45
258.082	-28.84
258.299	32.6
258.515	100.18
258.732	-24.75
258.948	-51.37
259.165	57.17
259.381	-12.46
259.597	-4.27
259.814	5.97
260.03	55.12
260.246	-28.84
260.463	-18.6
260.679	36.69
260.895	-34.99
261.112	32.6
261.328	-4.27
261.544	-84.14
261.761	34.64
261.977	34.64
262.193	-8.36
262.409	-16.55
262.626	22.36
262.842	-0.17
263.058	20.31
263.274	-26.79
263.49	-18.6
263.707	30.55
263.923	8.02
264.139	51.03
264.355	-47.27
264.571	55.12
264.787	30.55
265.004	-63.66
265.22	26.45
265.436	22.36
265.652	8.02
265.868	12.12
266.084	-4.27
266.3	3.93
266.516	28.5
266.732	83.8
266.948	-8.36
267.164	-41.13
267.38	22.36
267.596	-2.22
267.812	-8.36
268.028	53.08
268.244	-0.17
268.46	-4.27
268.676	32.6
268.892	-0.17
269.108	-69.8
269.324	-28.84
269.54	44.88
269.756	30.55
269.972	-39.08
270.188	-4.27
270.403	-18.6
270.619	30.55
270.835	57.17
271.051	85.84
271.267	-41.13
271.483	57.17
271.698	-12.46
271.914	38.74
272.13	36.69
272.346	24.4
272.562	30.55
272.777	-10.41
272.993	51.03
273.209	24.4
273.425	-10.41
273.64	-8.36
273.856	18.26
274.072	12.12
274.287	48.98
274.503	44.88
274.719	1.88
274.934	12.12
275.15	8.02
275.366	57.17
275.581	65.36
275.797	77.65
276.012	24.4
276.228	-41.13
276.444	18.26
276.659	-10.41
276.875	-55.47
277.09	-12.46
277.306	-26.79
277.521	10.07
277.737	48.98
277.952	-39.08
278.168	20.31
278.383	55.12
278.599	8.02
278.814	32.6
279.03	-61.61
279.245	3.93
279.461	-41.13
279.676	65.36
279.892	-14.51
280.107	-0.17
280.322	-10.41
280.538	38.74
280.753	-12.46
280.969	51.03
281.184	40.79
281.399	-26.79
281.615	10.07
281.83	1.88
282.045	-16.55
282.26	16.21
282.476	16.21
282.691	96.08
282.906	28.5
283.122	48.98
283.337	3.93
283.552	-20.65
283.767	-32.94
283.983	12.12
284.198	24.4
284.413	24.4
284.628	22.36
284.843	-41.13
285.058	59.22
285.274	57.17
285.489	36.69
285.704	32.6
285.919	30.55
286.134	79.7
286.349	-57.51
286.564	67.41
286.779	36.69
286.995	26.45
287.21	-63.66
287.425	22.36
287.64	-18.6
287.855	-4.27
288.07	-43.18
288.285	20.31
288.5	22.36
288.715	44.88
288.93	36.69
289.145	-20.65
289.36	-4.27
289.575	-61.61
289.79	28.5
290.004	79.7
290.219	87.89
290.434	79.7
290.649	-12.46
290.864	-0.17
291.079	42.84
291.294	53.08
291.509	85.84
291.724	28.5
291.938	12.12
292.153	32.6
292.368	-22.7
292.583	-49.32
292.798	61.27
293.012	-10.41
293.227	28.5
293.442	-37.03
293.657	69.46
293.871	-53.42
294.086	48.98
294.301	51.03
294.516	-12.46
294.73	40.79
294.945	8.02
295.16	57.17
295.374	20.31
295.589	24.4
295.804	77.65
296.018	24.4
296.233	26.45
296.447	18.26
296.662	79.7
296.877	10.07
297.091	63.32
297.306	67.41
297.52	-18.6
297.735	20.31
297.949	20.31
298.164	48.98
298.378	16.21
298.593	12.12
298.807	55.12
299.022	28.5
299.236	-39.08
299.451	46.93
299.665	42.84
299.88	-4.27
300.094	22.36
300.309	46.93
300.523	3.93
300.737	-2.22
300.952	-14.51
301.166	16.21
301.381	-100.52
301.595	26.45
301.809	38.74
302.024	-12.46
302.238	48.98
302.452	61.27
302.667	-14.51
302.881	28.5
303.095	36.69
303.309	65.36
303.524	3.93
303.738	-37.03
303.952	-16.55
304.166	-10.41
304.381	-39.08
304.595	44.88
304.809	-16.55
305.023	44.88
305.237	32.6
305.452	-20.65
305.666	14.17
305.88	-39.08
306.094	44.88
306.308	24.4
306.522	22.36
306.736	71.51
306.95	-37.03
307.164	-10.41
307.379	-6.31
307.593	-24.75
307.807	-4.27
308.021	16.21
308.235	85.84
308.449	-2.22
308.663	34.64
308.877	94.04
309.091	34.64
309.305	44.88
309.519	-20.65
309.733	-45.23
309.947	-45.23
310.161	81.75
310.374	-61.61
310.588	57.17
310.802	5.97
311.016	-12.46
311.23	18.26
311.444	14.17
311.658	20.31
311.872	83.8
312.085	-0.17
312.299	87.89
312.513	51.03
312.727	55.12
312.941	-6.31
313.154	-20.65
313.368	-12.46
313.582	28.5
313.796	-8.36
314.009	8.02
314.223	-41.13
314.437	22.36
314.651	-10.41
314.864	-8.36
315.078	24.4
315.292	26.45
315.505	20.31
315.719	91.99
315.933	-18.6
316.146	-34.99
316.36	75.6
316.573	-0.17
316.787	71.51
317.001	48.98
317.214	-88.23
317.428	8.02
317.641	53.08
317.855	53.08
318.068	89.94
318.282	20.31
318.495	51.03
318.709	61.27
318.922	-20.65
319.136	77.65
319.349	51.03
319.563	65.36
319.776	-6.31
319.99	3.93
320.203	34.64
320.417	-6.31
320.63	8.02
320.843	63.32
321.057	20.31
321.27	26.45
321.483	8.02
321.697	10.07
321.91	73.56
322.124	71.51
322.337	73.56
322.55	12.12
322.763	30.55
322.977	59.22
323.19	75.6
323.403	42.84
323.617	18.26
323.83	44.88
324.043	94.04
324.256	26.45
324.469	-45.23
324.683	94.04
324.896	-12.46
325.109	44.88
325.322	-32.94
325.535	8.02
325.748	-51.37
325.962	-2.22
326.175	-14.51
326.388	61.27
326.601	-0.17
326.814	-59.56
327.027	-28.84
327.24	106.32
327.453	-41.13
327.666	3.93
327.879	-34.99
328.092	-30.89
328.305	30.55
328.518	57.17
328.731	3.93
328.944	-12.46
329.157	55.12
329.37	3.93
329.583	100.18
329.796	51.03
330.009	28.5
330.222	44.88
330.435	1.88
330.648	20.31
330.861	-22.7
331.073	61.27
331.286	-14.51
331.499	-28.84
331.712	-22.7
331.925	63.32
332.138	-71.85
332.35	-8.36
332.563	-24.75
332.776	61.27
332.989	-57.51
333.202	-37.03
333.414	-24.75
333.627	1.88
333.84	5.97
334.053	91.99
334.265	-65.71
334.478	5.97
334.691	10.07
334.903	-16.55
335.116	5.97
335.329	42.84
335.541	-18.6
335.754	32.6
335.966	75.6
336.179	-18.6
336.392	55.12
336.604	24.4
336.817	65.36
337.029	53.08
337.242	3.93
337.454	32.6
337.667	-4.27
337.88	12.12
338.092	3.93
338.305	71.51
338.517	8.02
338.729	51.03
338.942	85.84
339.154	-63.66
339.367	8.02
339.579	28.5
339.792	-4.27
340.004	20.31
340.217	24.4
340.429	22.36
340.641	5.97
340.854	3.93
341.066	51.03
341.278	-20.65
341.491	48.98
341.703	36.69
341.915	-0.17
342.128	44.88
342.34	-34.99
342.552	-10.41
342.764	28.5
342.977	-4.27
343.189	22.36
343.401	42.84
343.613	-61.61
343.826	22.36
344.038	-30.89
344.25	18.26
344.462	44.88
344.674	81.75
344.886	-4.27
345.099	-26.79
345.311	40.79
345.523	-4.27
345.735	44.88
345.947	40.79
346.159	-39.08
346.371	26.45
346.583	22.36
346.795	-32.94
347.007	-12.46
347.219	-12.46
347.431	8.02
347.643	14.17
347.855	53.08
348.067	20.31
348.279	10.07
348.491	30.55
348.703	-28.84
348.915	-18.6
349.127	85.84
349.339	102.23
349.551	40.79
349.763	71.51
349.975	-55.47
350.187	135
350.399	67.41
350.61	-16.55
350.822	10.07
351.034	48.98
351.246	63.32
351.458	124.76
351.669	12.12
351.881	61.27
352.093	-4.27
352.305	40.79
352.517	34.64
352.728	-6.31
352.94	48.98
353.152	69.46
353.363	14.17
353.575	18.26
353.787	53.08
353.999	-12.46
354.21	-2.22
354.422	-0.17
354.633	-2.22
354.845	104.28
355.057	14.17
355.268	59.22
355.48	-8.36
355.692	28.5
355.903	-51.37
356.115	30.55
356.326	-69.8
356.538	61.27
356.749	18.26
356.961	42.84
357.172	22.36
357.384	85.84
357.595	116.56
357.807	53.08
358.018	-0.17
358.23	44.88
358.441	18.26
358.653	108.37
358.864	46.93
359.075	-4.27
359.287	18.26
359.498	42.84
359.709	8.02
359.921	81.75
360.132	-4.27
360.344	46.93
360.555	53.08
360.766	71.51
360.977	22.36
361.189	48.98
361.4	3.93
361.611	3.93
361.823	61.27
362.034	79.7
362.245	26.45
362.456	42.84
362.667	22.36
362.879	73.56
363.09	34.64
363.301	44.88
363.512	-28.84
363.723	51.03
363.935	18.26
364.146	-14.51
364.357	5.97
364.568	20.31
364.779	122.71
364.99	65.36
365.201	16.21
365.412	1.88
365.623	5.97
365.834	122.71
366.045	59.22
366.256	126.8
366.467	38.74
366.678	59.22
366.889	14.17
367.1	53.08
367.311	26.45
367.522	26.45
367.733	14.17
367.944	79.7
368.155	12.12
368.366	22.36
368.577	71.51
368.788	61.27
368.999	-12.46
369.209	-20.65
369.42	12.12
369.631	55.12
369.842	40.79
370.053	24.4
370.264	18.26
370.474	55.12
370.685	34.64
370.896	38.74
371.107	5.97
371.317	71.51
371.528	65.36
371.739	24.4
371.95	-45.23
372.16	110.42
372.371	-10.41
372.582	-26.79
372.792	14.17
373.003	-45.23
373.214	-94.38
373.424	38.74
373.635	-2.22
373.846	-20.65
374.056	36.69
374.267	116.56
374.477	48.98
374.688	30.55
374.898	38.74
375.109	22.36
375.319	28.5
375.53	20.31
375.74	-26.79
375.951	32.6
376.161	30.55
376.372	55.12
376.582	38.74
376.793	-4.27
377.003	22.36
377.214	10.07
377.424	96.08
377.635	44.88
377.845	-6.31
378.055	104.28
378.266	-0.17
378.476	42.84
378.686	67.41
378.897	94.04
379.107	28.5
379.317	28.5
379.528	104.28
379.738	34.64
379.948	-8.36
380.158	51.03
380.369	55.12
380.579	-18.6
380.789	34.64
380.999	28.5
381.21	42.84
381.42	46.93
381.63	1.88
381.84	3.93
382.05	20.31
382.261	94.04
382.471	69.46
382.681	48.98
382.891	85.84
383.101	61.27
383.311	5.97
383.521	38.74
383.731	34.64
383.941	30.55
384.151	57.17
384.361	-0.17
384.571	87.89
384.781	55.12
384.991	-14.51
385.201	63.32
385.411	63.32
385.621	28.5
385.831	10.07
386.041	36.69
386.251	55.12
386.461	40.79
386.671	38.74
386.881	85.84
387.091	14.17
387.301	83.8
387.511	-16.55
387.72	-26.79
387.93	55.12
388.14	40.79
388.35	71.51
388.56	32.6
388.769	48.98
388.979	-32.94
389.189	24.4
389.399	38.74
389.609	120.66
389.818	38.74
390.028	65.36
390.238	3.93
390.447	-22.7
390.657	48.98
390.867	-0.17
391.076	24.4
391.286	26.45
391.496	53.08
391.705	18.26
391.915	73.56
392.125	36.69
392.334	28.5
392.544	-32.94
392.753	57.17
392.963	-28.84
393.172	32.6
393.382	85.84
393.591	79.7
393.801	57.17
394.01	85.84
394.22	44.88
394.429	85.84
394.639	-2.22
394.848	32.6
395.058	71.51
395.267	40.79
395.477	26.45
395.686	71.51
395.895	-8.36
396.105	77.65
396.314	36.69
396.524	65.36
396.733	5.97
396.942	147.28
397.152	81.75
397.361	-12.46
397.57	48.98
397.78	83.8
397.989	30.55
398.198	30.55
398.407	110.42
398.617	85.84
398.826	79.7
399.035	16.21
399.244	51.03
399.453	104.28
399.663	46.93
399.872	28.5
400.081	46.93
400.29	63.32
400.499	61.27
400.708	104.28
400.917	8.02
401.127	57.17
401.336	14.17
401.545	42.84
401.754	71.51
401.963	69.46
402.172	44.88
402.381	104.28
402.59	71.51
402.799	22.36
403.008	71.51
403.217	91.99
403.426	85.84
403.635	98.13
403.844	-0.17
404.053	77.65
404.262	85.84
404.471	124.76
404.68	24.4
404.888	61.27
405.097	24.4
405.306	69.46
405.515	85.84
405.724	75.6
405.933	46.93
406.142	132.95
406.35	139.09
406.559	128.85
406.768	118.61
406.977	118.61
407.185	141.14
407.394	130.9
407.603	188.24
407.812	120.66
408.02	169.81
408.229	116.56
408.438	241.49
408.646	182.1
408.855	212.82
409.064	186.19
409.272	206.67
409.481	249.68
409.69	153.43
409.898	257.87
410.107	249.68
410.315	143.19
410.524	159.57
410.733	208.72
410.941	204.63
411.15	284.5
411.358	169.81
411.567	319.31
411.775	247.63
411.984	243.54
412.192	343.89
412.401	280.4
412.609	276.31
412.818	274.26
413.026	302.93
413.234	319.31
413.443	427.85
413.651	425.81
413.86	370.51
414.068	429.9
414.276	319.31
414.485	337.74
414.693	397.14
414.901	442.19
415.11	421.71
415.318	464.72
415.526	448.33
415.734	526.16
415.943	528.21
416.151	597.84
416.359	556.88
416.567	538.45
416.776	593.74
416.984	581.45
417.192	657.23
417.4	620.36
417.608	675.66
417.817	634.7
418.025	692.04
418.233	759.63
418.441	718.67
418.649	741.19
418.857	806.73
419.065	849.74
419.273	798.54
419.481	816.97
419.689	982.85
419.897	962.37
420.105	933.7
420.313	954.18
420.521	1130.31
420.729	1023.81
420.937	1150.79
421.145	1095.49
421.353	1171.27
421.561	1222.47
421.769	1269.57
421.977	1273.67
422.185	1333.06
422.393	1425.22
422.601	1425.22
422.809	1449.79
423.017	1419.07
423.224	1527.61
423.432	1591.1
423.64	1533.76
423.848	1775.42
424.056	1703.74
424.263	1849.15
424.471	1799.99
424.679	1802.04
424.887	1879.86
425.094	2008.89
425.302	2035.51
425.51	2080.57
425.718	2148.15
425.925	2117.43
426.133	2244.4
426.341	2275.12
426.548	2467.63
426.756	2498.35
426.964	2512.69
427.171	2658.09
427.379	2707.24
427.586	2748.2
427.794	2852.65
428.001	3059.49
428.209	3075.88
428.417	3077.93
428.624	3196.71
428.832	3284.77
429.039	3211.04
429.247	3297.06
429.454	3612.45
429.662	3823.39
429.869	3551.01
430.076	3880.73
430.284	3741.47
430.491	3833.63
430.699	4120.34
430.906	3942.17
431.114	4058.9
431.321	4192.02
431.528	4275.99
431.736	4704.01
431.943	4816.65
432.15	4685.58
432.358	4665.1
432.565	4925.19
432.772	4990.73
432.979	5320.45
433.187	5271.3
433.394	5383.94
433.601	5754.62
433.808	5746.43
434.016	5533.44
434.223	5873.4
434.43	6102.78
434.637	6199.03
434.844	6682.35
435.052	6612.72
435.259	6743.79
435.466	6674.16
435.673	6567.67
435.88	7175.91
436.087	7499.49
436.294	7491.3
436.501	7294.69
436.708	7503.59
436.915	7833.31
437.122	8056.54
437.329	8060.63
437.537	8226.52
437.743	8435.41
437.95	8304.34
438.157	8758.99
438.364	9187.02
438.571	8974.03
438.778	9205.45
438.985	10018.49
439.192	9410.25
439.399	9877.18
439.606	9524.93
439.813	10204.86
440.02	10899.12
440.227	10649.27
440.433	10608.31
440.64	10997.42
440.847	11030.19
441.054	11112.11
441.261	11810.47
441.467	11673.25
441.674	11908.77
441.881	12179.1
442.088	12383.9
442.294	12177.05
442.501	12510.87
442.708	12535.45
442.914	13354.63
443.121	13678.21
443.328	13393.54
443.534	14481.02
443.741	13840
443.948	13665.92
444.154	14767.73
444.361	14614.13
444.568	14853.75
444.774	14931.57
444.981	15101.55
445.187	15404.65
445.394	16041.57
445.6	15949.41
445.807	17612.36
446.013	16727.64
446.22	16868.95
446.426	17628.74
446.633	17735.24
446.839	18140.74
447.046	17632.84
447.252	18460.22
447.459	18841.14
447.665	18579
447.871	19566.12
448.078	20004.39
448.284	18988.6
448.491	19834.41
448.697	20704.79
448.903	20704.79
449.11	20942.36
449.316	20739.61
449.522	21132.82
449.728	21677.58
449.935	21562.89
450.141	21898.76
450.347	22148.61
450.553	21755.4
450.76	22113.8
450.966	22730.23
451.172	22277.63
451.378	22877.69
451.584	22367.74
451.791	22889.98
451.997	22926.84
452.203	23578.09
452.409	23318
452.615	22955.51
452.821	22326.78
453.027	22130.18
453.233	23107.06
453.44	22271.49
453.646	22695.42
453.852	22691.32
454.058	23158.26
454.264	22394.37
454.47	22980.09
454.676	22334.98
454.882	23178.74
455.088	20999.7
455.294	21478.93
455.5	22027.78
455.705	21992.97
455.911	21061.14
456.117	20852.25
456.323	20344.35
456.529	19430.96
456.735	20348.45
456.941	19680.81
457.147	19617.32
457.352	18875.96
457.558	18581.05
457.764	18632.25
457.97	18107.97
458.176	17765.96
458.381	18001.47
458.587	17301.07
458.793	16879.19
458.999	16264.8
459.204	17620.55
459.41	16871
459.616	15795.81
459.821	15976.03
460.027	15715.94
460.233	15482.47
460.438	14528.12
460.644	14739.06
460.85	14182.01
461.055	14110.33
461.261	13977.22
461.466	13037.2
461.672	12664.47
461.878	13301.39
462.083	12615.32
462.289	12312.22
462.494	12267.16
462.7	11701.92
462.905	11511.46
463.111	11687.59
463.316	11695.78
463.522	11517.61
463.727	11427.49
463.932	11642.53
464.138	11312.81
464.343	11441.83
464.549	11290.28
464.754	11574.95
464.959	11548.33
465.165	11351.72
465.37	11013.81
465.575	10645.17
465.781	11179.69
465.986	11124.4
466.191	10669.75
466.397	10393.27
466.602	9889.47
466.807	10215.1
467.012	10516.15
467.218	10276.54
467.423	10036.92
467.628	10192.57
