Data from USB4F104151__122__13-57-52-844.txt Node

Date: Thu Mar 13 13:57:52 EDT 2025
User: louis
Spectrometer: USB4F10415
Trigger mode: 4
Integration Time (sec): 1.000000E-2
Scans to average: 1
Electric dark correction enabled: true
Nonlinearity correction enabled: false
Boxcar width: 0
XAxis mode: Wavelengths
Number of Pixels in Spectrum: 3648
>>>>>Begin Spectral Data<<<<<
178.204	-83.11
178.424	-83.11
178.644	-83.11
178.864	-74.92
179.084	-79.02
179.304	-5.29
179.524	-13.48
179.744	-17.58
179.964	84.82
180.184	7
180.404	-15.53
180.624	-25.77
180.844	-9.39
181.064	-66.73
181.283	-1.19
181.503	74.58
181.723	-11.43
181.943	-13.48
182.163	43.86
182.383	-29.87
182.602	66.39
182.822	35.67
183.042	47.96
183.262	64.34
183.482	-1.19
183.701	39.76
183.921	54.1
184.141	19.29
184.361	-19.63
184.58	21.33
184.8	9.05
185.02	-7.34
185.239	21.33
185.459	41.81
185.679	33.62
185.898	-31.91
186.118	-33.96
186.338	39.76
186.557	-1.19
186.777	35.67
186.997	21.33
187.216	-13.48
187.436	47.96
187.655	17.24
187.875	86.87
188.095	-46.25
188.314	4.95
188.534	-15.53
188.753	50
188.973	-23.72
189.192	-56.49
189.412	-54.44
189.631	23.38
189.851	21.33
190.07	80.72
190.29	47.96
190.509	31.57
190.729	66.39
190.948	-5.29
191.168	0.85
191.387	-13.48
191.607	17.24
191.826	37.72
192.045	33.62
192.265	-64.68
192.484	33.62
192.704	52.05
192.923	45.91
193.142	70.48
193.362	29.52
193.581	31.57
193.8	27.48
194.02	41.81
194.239	23.38
194.458	9.05
194.678	50
194.897	41.81
195.116	4.95
195.335	54.1
195.555	29.52
195.774	2.9
195.993	-23.72
196.212	-13.48
196.432	52.05
196.651	-7.34
196.87	41.81
197.089	66.39
197.308	43.86
197.528	-7.34
197.747	-21.67
197.966	11.09
198.185	54.1
198.404	-9.39
198.623	-3.24
198.842	56.15
199.062	50
199.281	47.96
199.5	-3.24
199.719	-1.19
199.938	80.72
200.157	-50.35
200.376	17.24
200.595	27.48
200.814	7
201.033	-11.43
201.252	4.95
201.471	29.52
201.69	23.38
201.909	88.92
202.128	2.9
202.347	-9.39
202.566	17.24
202.785	25.43
203.004	-11.43
203.223	52.05
203.442	33.62
203.661	17.24
203.879	39.76
204.098	50
204.317	-21.67
204.536	60.24
204.755	17.24
204.974	-9.39
205.193	-15.53
205.411	31.57
205.63	9.05
205.849	-1.19
206.068	-40.11
206.287	52.05
206.505	43.86
206.724	15.19
206.943	-48.3
207.162	17.24
207.381	11.09
207.599	27.48
207.818	-89.26
208.037	58.2
208.255	39.76
208.474	21.33
208.693	56.15
208.911	35.67
209.13	39.76
209.349	72.53
209.567	43.86
209.786	9.05
210.005	-15.53
210.223	-9.39
210.442	9.05
210.661	115.54
210.879	35.67
211.098	39.76
211.316	35.67
211.535	-3.24
211.753	-5.29
211.972	25.43
212.191	-3.24
212.409	27.48
212.628	86.87
212.846	7
213.065	37.72
213.283	58.2
213.502	33.62
213.72	11.09
213.938	25.43
214.157	117.59
214.375	37.72
214.594	-33.96
214.812	-5.29
215.031	27.48
215.249	-9.39
215.467	-33.96
215.686	52.05
215.904	15.19
216.122	43.86
216.341	-7.34
216.559	13.14
216.778	39.76
216.996	15.19
217.214	54.1
217.432	60.24
217.651	-9.39
217.869	31.57
218.087	19.29
218.306	15.19
218.524	29.52
218.742	13.14
218.96	60.24
219.179	19.29
219.397	-1.19
219.615	74.58
219.833	78.68
220.051	47.96
220.27	23.38
220.488	50
220.706	47.96
220.924	4.95
221.142	33.62
221.36	66.39
221.578	47.96
221.796	23.38
222.015	-36.01
222.233	-56.49
222.451	109.4
222.669	21.33
222.887	41.81
223.105	-66.73
223.323	25.43
223.541	43.86
223.759	39.76
223.977	9.05
224.195	11.09
224.413	97.11
224.631	23.38
224.849	99.16
225.067	23.38
225.285	17.24
225.503	9.05
225.721	-1.19
225.939	41.81
226.157	-13.48
226.375	99.16
226.592	-5.29
226.81	33.62
227.028	64.34
227.246	90.96
227.464	23.38
227.682	23.38
227.9	-21.67
228.117	-56.49
228.335	23.38
228.553	58.2
228.771	23.38
228.989	50
229.206	54.1
229.424	11.09
229.642	7
229.86	27.48
230.077	35.67
230.295	23.38
230.513	56.15
230.731	27.48
230.948	19.29
231.166	31.57
231.384	17.24
231.601	113.49
231.819	-5.29
232.037	-1.19
232.254	4.95
232.472	52.05
232.689	29.52
232.907	-27.82
233.125	15.19
233.342	58.2
233.56	7
233.777	39.76
233.995	23.38
234.213	54.1
234.43	7
234.648	39.76
234.865	39.76
235.083	45.91
235.3	-23.72
235.518	-9.39
235.735	27.48
235.953	19.29
236.17	-21.67
236.388	-56.49
236.605	29.52
236.822	11.09
237.04	52.05
237.257	-15.53
237.475	-15.53
237.692	64.34
237.909	-5.29
238.127	31.57
238.344	58.2
238.562	21.33
238.779	-50.35
238.996	19.29
239.214	31.57
239.431	4.95
239.648	54.1
239.865	56.15
240.083	-11.43
240.3	70.48
240.517	25.43
240.735	13.14
240.952	-23.72
241.169	19.29
241.386	-21.67
241.603	47.96
241.821	39.76
242.038	60.24
242.255	-15.53
242.472	9.05
242.689	15.19
242.907	-15.53
243.124	82.77
243.341	33.62
243.558	-23.72
243.775	-9.39
243.992	0.85
244.209	62.29
244.426	58.2
244.643	-7.34
244.86	-50.35
245.078	25.43
245.295	-21.67
245.512	15.19
245.729	4.95
245.946	25.43
246.163	-46.25
246.38	52.05
246.597	-5.29
246.814	43.86
247.031	88.92
247.248	11.09
247.464	-109.74
247.681	80.72
247.898	29.52
248.115	17.24
248.332	-42.15
248.549	41.81
248.766	19.29
248.983	0.85
249.2	50
249.417	4.95
249.633	-3.24
249.85	-7.34
250.067	39.76
250.284	72.53
250.501	-9.39
250.717	41.81
250.934	39.76
251.151	56.15
251.368	70.48
251.585	21.33
251.801	-17.58
252.018	17.24
252.235	11.09
252.451	25.43
252.668	-15.53
252.885	41.81
253.102	54.1
253.318	47.96
253.535	-9.39
253.752	64.34
253.968	-27.82
254.185	-9.39
254.401	-52.39
254.618	50
254.835	-38.06
255.051	105.3
255.268	21.33
255.484	50
255.701	-1.19
255.917	31.57
256.134	27.48
256.351	0.85
256.567	-27.82
256.784	50
257	-21.67
257.217	27.48
257.433	27.48
257.65	35.67
257.866	11.09
258.082	-31.91
258.299	17.24
258.515	88.92
258.732	17.24
258.948	-44.2
259.165	80.72
259.381	2.9
259.597	50
259.814	45.91
260.03	39.76
260.246	29.52
260.463	-13.48
260.679	-13.48
260.895	-23.72
261.112	64.34
261.328	39.76
261.544	-27.82
261.761	31.57
261.977	13.14
262.193	-15.53
262.409	29.52
262.626	17.24
262.842	56.15
263.058	78.68
263.274	41.81
263.49	25.43
263.707	50
263.923	9.05
264.139	50
264.355	11.09
264.571	60.24
264.787	21.33
265.004	50
265.22	15.19
265.436	-7.34
265.652	64.34
265.868	-17.58
266.084	17.24
266.3	54.1
266.516	4.95
266.732	21.33
266.948	-1.19
267.164	-9.39
267.38	-64.68
267.596	-17.58
267.812	-25.77
268.028	-7.34
268.244	-1.19
268.46	52.05
268.676	-46.25
268.892	37.72
269.108	-7.34
269.324	60.24
269.54	13.14
269.756	-1.19
269.972	62.29
270.188	181.07
270.403	-44.2
270.619	58.2
270.835	33.62
271.051	0.85
271.267	-17.58
271.483	21.33
271.698	-36.01
271.914	7
272.13	-17.58
272.346	64.34
272.562	72.53
272.777	72.53
272.993	-1.19
273.209	-42.15
273.425	37.72
273.64	-7.34
273.856	39.76
274.072	60.24
274.287	-29.87
274.503	21.33
274.719	9.05
274.934	54.1
275.15	-19.63
275.366	54.1
275.581	15.19
275.797	52.05
276.012	37.72
276.228	45.91
276.444	-19.63
276.659	-19.63
276.875	15.19
277.09	2.9
277.306	-3.24
277.521	25.43
277.737	-3.24
277.952	33.62
278.168	19.29
278.383	17.24
278.599	-66.73
278.814	0.85
279.03	43.86
279.245	97.11
279.461	25.43
279.676	11.09
279.892	-54.44
280.107	7
280.322	41.81
280.538	-21.67
280.753	-36.01
280.969	41.81
281.184	37.72
281.399	56.15
281.615	19.29
281.83	13.14
282.045	19.29
282.26	93.01
282.476	17.24
282.691	25.43
282.906	41.81
283.122	23.38
283.337	25.43
283.552	7
283.767	-7.34
283.983	21.33
284.198	-42.15
284.413	50
284.628	-7.34
284.843	-27.82
285.058	-56.49
285.274	-38.06
285.489	-3.24
285.704	52.05
285.919	35.67
286.134	7
286.349	-13.48
286.564	64.34
286.779	-23.72
286.995	43.86
287.21	-3.24
287.425	-15.53
287.64	25.43
287.855	-19.63
288.07	15.19
288.285	25.43
288.5	64.34
288.715	60.24
288.93	-9.39
289.145	-25.77
289.36	7
289.575	70.48
289.79	7
290.004	-29.87
290.219	45.91
290.434	54.1
290.649	-42.15
290.864	39.76
291.079	-1.19
291.294	86.87
291.509	-68.78
291.724	4.95
291.938	9.05
292.153	50
292.368	11.09
292.583	52.05
292.798	56.15
293.012	23.38
293.227	21.33
293.442	-9.39
293.657	11.09
293.871	29.52
294.086	82.77
294.301	90.96
294.516	7
294.73	25.43
294.945	27.48
295.16	0.85
295.374	2.9
295.589	72.53
295.804	47.96
296.018	27.48
296.233	25.43
296.447	33.62
296.662	-27.82
296.877	31.57
297.091	43.86
297.306	-9.39
297.52	-64.68
297.735	-7.34
297.949	64.34
298.164	-13.48
298.378	7
298.593	31.57
298.807	23.38
299.022	50
299.236	35.67
299.451	-1.19
299.665	2.9
299.88	-11.43
300.094	-7.34
300.309	45.91
300.523	62.29
300.737	-7.34
300.952	0.85
301.166	-64.68
301.381	-9.39
301.595	43.86
301.809	43.86
302.024	-64.68
302.238	-48.3
302.452	58.2
302.667	29.52
302.881	50
303.095	66.39
303.309	-19.63
303.524	-21.67
303.738	72.53
303.952	21.33
304.166	-48.3
304.381	31.57
304.595	45.91
304.809	140.12
305.023	0.85
305.237	70.48
305.452	13.14
305.666	-17.58
305.88	-13.48
306.094	2.9
306.308	-19.63
306.522	-13.48
306.736	66.39
306.95	15.19
307.164	-52.39
307.379	-21.67
307.593	0.85
307.807	66.39
308.021	-25.77
308.235	-9.39
308.449	-60.59
308.663	-7.34
308.877	80.72
309.091	-17.58
309.305	27.48
309.519	37.72
309.733	43.86
309.947	-13.48
310.161	66.39
310.374	0.85
310.588	2.9
310.802	19.29
311.016	2.9
311.23	50
311.444	4.95
311.658	-3.24
311.872	66.39
312.085	93.01
312.299	37.72
312.513	66.39
312.727	64.34
312.941	-1.19
313.154	68.44
313.368	0.85
313.582	7
313.796	-36.01
314.009	0.85
314.223	13.14
314.437	-21.67
314.651	-25.77
314.864	25.43
315.078	43.86
315.292	31.57
315.505	-76.97
315.719	82.77
315.933	66.39
316.146	37.72
316.36	11.09
316.573	-5.29
316.787	39.76
317.001	-17.58
317.214	-5.29
317.428	35.67
317.641	21.33
317.855	43.86
318.068	43.86
318.282	41.81
318.495	70.48
318.709	-17.58
318.922	-23.72
319.136	9.05
319.349	23.38
319.563	54.1
319.776	19.29
319.99	25.43
320.203	-5.29
320.417	-9.39
320.63	37.72
320.843	70.48
321.057	-40.11
321.27	35.67
321.483	31.57
321.697	25.43
321.91	25.43
322.124	31.57
322.337	-48.3
322.55	-13.48
322.763	-46.25
322.977	47.96
323.19	60.24
323.403	-21.67
323.617	-38.06
323.83	66.39
324.043	4.95
324.256	50
324.469	23.38
324.683	23.38
324.896	-5.29
325.109	-27.82
325.322	82.77
325.535	47.96
325.748	43.86
325.962	68.44
326.175	15.19
326.388	52.05
326.601	7
326.814	-25.77
327.027	-68.78
327.24	105.3
327.453	-17.58
327.666	66.39
327.879	23.38
328.092	101.2
328.305	43.86
328.518	90.96
328.731	-25.77
328.944	64.34
329.157	27.48
329.37	64.34
329.583	88.92
329.796	-36.01
330.009	31.57
330.222	7
330.435	31.57
330.648	72.53
330.861	58.2
331.073	-46.25
331.286	27.48
331.499	-7.34
331.712	39.76
331.925	82.77
332.138	0.85
332.35	-5.29
332.563	-3.24
332.776	2.9
332.989	13.14
333.202	19.29
333.414	25.43
333.627	50
333.84	58.2
334.053	17.24
334.265	27.48
334.478	88.92
334.691	78.68
334.903	-40.11
335.116	60.24
335.329	-33.96
335.541	-46.25
335.754	9.05
335.966	23.38
336.179	9.05
336.392	62.29
336.604	7
336.817	19.29
337.029	82.77
337.242	-9.39
337.454	113.49
337.667	0.85
337.88	31.57
338.092	31.57
338.305	78.68
338.517	31.57
338.729	-25.77
338.942	64.34
339.154	29.52
339.367	-21.67
339.579	35.67
339.792	101.2
340.004	39.76
340.217	19.29
340.429	35.67
340.641	-50.35
340.854	41.81
341.066	37.72
341.278	64.34
341.491	-9.39
341.703	86.87
341.915	0.85
342.128	68.44
342.34	35.67
342.552	56.15
342.764	-1.19
342.977	-9.39
343.189	43.86
343.401	86.87
343.613	45.91
343.826	9.05
344.038	15.19
344.25	33.62
344.462	9.05
344.674	-13.48
344.886	-15.53
345.099	29.52
345.311	-25.77
345.523	-7.34
345.735	15.19
345.947	31.57
346.159	29.52
346.371	68.44
346.583	-60.59
346.795	74.58
347.007	9.05
347.219	-7.34
347.431	21.33
347.643	54.1
347.855	11.09
348.067	-11.43
348.279	41.81
348.491	4.95
348.703	-17.58
348.915	19.29
349.127	-15.53
349.339	19.29
349.551	27.48
349.763	25.43
349.975	4.95
350.187	37.72
350.399	-38.06
350.61	31.57
350.822	0.85
351.034	33.62
351.246	-23.72
351.458	93.01
351.669	-15.53
351.881	-17.58
352.093	-46.25
352.305	25.43
352.517	-21.67
352.728	74.58
352.94	70.48
353.152	31.57
353.363	21.33
353.575	47.96
353.787	54.1
353.999	33.62
354.21	39.76
354.422	78.68
354.633	62.29
354.845	21.33
355.057	117.59
355.268	33.62
355.48	35.67
355.692	33.62
355.903	19.29
356.115	54.1
356.326	39.76
356.538	31.57
356.749	21.33
356.961	-19.63
357.172	-5.29
357.384	37.72
357.595	25.43
357.807	-46.25
358.018	29.52
358.23	-9.39
358.441	56.15
358.653	4.95
358.864	72.53
359.075	58.2
359.287	0.85
359.498	74.58
359.709	-1.19
359.921	29.52
360.132	4.95
360.344	97.11
360.555	23.38
360.766	-33.96
360.977	39.76
361.189	60.24
361.4	23.38
361.611	52.05
361.823	37.72
362.034	25.43
362.245	93.01
362.456	-5.29
362.667	43.86
362.879	41.81
363.09	68.44
363.301	33.62
363.512	70.48
363.723	64.34
363.935	15.19
364.146	95.06
364.357	62.29
364.568	4.95
364.779	0.85
364.99	-3.24
365.201	47.96
365.412	47.96
365.623	-7.34
365.834	47.96
366.045	-25.77
366.256	23.38
366.467	-36.01
366.678	27.48
366.889	54.1
367.1	68.44
367.311	0.85
367.522	58.2
367.733	54.1
367.944	133.97
368.155	58.2
368.366	0.85
368.577	52.05
368.788	50
368.999	58.2
369.209	156.5
369.42	41.81
369.631	138.07
369.842	39.76
370.053	50
370.264	41.81
370.474	148.31
370.685	-33.96
370.896	31.57
371.107	17.24
371.317	54.1
371.528	-15.53
371.739	-38.06
371.95	56.15
372.16	101.2
372.371	9.05
372.582	43.86
372.792	99.16
373.003	56.15
373.214	52.05
373.424	82.77
373.635	-15.53
373.846	23.38
374.056	7
374.267	-17.58
374.477	60.24
374.688	50
374.898	-15.53
375.109	-27.82
375.319	115.54
375.53	27.48
375.74	60.24
375.951	13.14
376.161	56.15
376.372	11.09
376.582	56.15
376.793	62.29
377.003	35.67
377.214	23.38
377.424	105.3
377.635	72.53
377.845	25.43
378.055	-9.39
378.266	-23.72
378.476	19.29
378.686	37.72
378.897	13.14
379.107	17.24
379.317	50
379.528	41.81
379.738	-7.34
379.948	0.85
380.158	60.24
380.369	58.2
380.579	9.05
380.789	13.14
380.999	52.05
381.21	50
381.42	-1.19
381.63	50
381.84	84.82
382.05	15.19
382.261	74.58
382.471	27.48
382.681	35.67
382.891	35.67
383.101	7
383.311	2.9
383.521	90.96
383.731	-5.29
383.941	-1.19
384.151	-17.58
384.361	84.82
384.571	47.96
384.781	31.57
384.991	37.72
385.201	88.92
385.411	41.81
385.621	58.2
385.831	41.81
386.041	35.67
386.251	93.01
386.461	23.38
386.671	13.14
386.881	-23.72
387.091	35.67
387.301	45.91
387.511	-3.24
387.72	-1.19
387.93	31.57
388.14	35.67
388.35	-1.19
388.56	-17.58
388.769	19.29
388.979	-7.34
389.189	-48.3
389.399	45.91
389.609	2.9
389.818	52.05
390.028	19.29
390.238	58.2
390.447	-33.96
390.657	-54.44
390.867	15.19
391.076	29.52
391.286	4.95
391.496	25.43
391.705	47.96
391.915	41.81
392.125	78.68
392.334	25.43
392.544	54.1
392.753	64.34
392.963	-13.48
393.172	-19.63
393.382	86.87
393.591	31.57
393.801	56.15
394.01	25.43
394.22	62.29
394.429	47.96
394.639	107.35
394.848	23.38
395.058	76.63
395.267	45.91
395.477	35.67
395.686	146.26
395.895	29.52
396.105	113.49
396.314	60.24
396.524	43.86
396.733	80.72
396.942	86.87
397.152	70.48
397.361	144.21
397.57	54.1
397.78	82.77
397.989	86.87
398.198	41.81
398.407	76.63
398.617	45.91
398.826	-17.58
399.035	109.4
399.244	78.68
399.453	150.36
399.663	23.38
399.872	80.72
400.081	144.21
400.29	103.25
400.499	58.2
400.708	105.3
400.917	90.96
401.127	174.93
401.336	68.44
401.545	164.69
401.754	179.03
401.963	54.1
402.172	7
402.381	95.06
402.59	82.77
402.799	90.96
403.008	90.96
403.217	76.63
403.426	111.44
403.635	142.16
403.844	88.92
404.053	68.44
404.262	80.72
404.471	123.73
404.68	105.3
404.888	142.16
405.097	76.63
405.306	150.36
405.515	97.11
405.724	140.12
405.933	117.59
406.142	125.78
406.35	117.59
406.559	129.88
406.768	142.16
406.977	172.88
407.185	129.88
407.394	123.73
407.603	142.16
407.812	197.46
408.02	256.85
408.229	203.6
408.438	105.3
408.646	131.92
408.855	158.55
409.064	195.41
409.272	144.21
409.481	187.22
409.69	181.07
409.898	252.75
410.107	312.14
410.315	211.79
410.524	265.04
410.733	248.66
410.941	189.27
411.15	324.43
411.358	265.04
411.567	355.15
411.775	363.34
411.984	367.44
412.192	355.15
412.401	385.87
412.609	357.2
412.818	412.5
413.026	410.45
413.234	320.34
413.443	344.91
413.651	449.36
413.86	506.7
414.068	541.52
414.276	498.51
414.485	471.89
414.693	482.13
414.901	500.56
415.11	547.66
415.318	516.94
415.526	609.1
415.734	648.01
415.943	637.77
416.151	566.09
416.359	619.34
416.567	734.03
416.776	721.74
416.984	705.35
417.192	699.21
417.4	756.55
417.608	795.47
417.817	801.61
418.025	836.42
418.233	951.11
418.441	922.44
418.649	944.97
418.857	1018.69
419.065	985.93
419.273	983.88
419.481	1063.75
419.689	1071.94
419.897	1207.11
420.105	1162.05
420.313	1203.01
420.521	1274.69
420.729	1268.55
420.937	1375.04
421.145	1411.9
421.353	1536.83
421.561	1526.59
421.769	1557.31
421.977	1588.03
422.185	1600.32
422.393	1721.15
422.601	1821.5
422.809	1815.35
423.017	1788.73
423.224	1817.4
423.432	2011.96
423.64	2114.36
423.848	2149.17
424.056	2286.39
424.263	2267.95
424.471	2239.28
424.679	2489.14
424.887	2505.52
425.094	2462.51
425.302	2591.53
425.51	2630.45
425.718	2745.13
425.925	2708.27
426.133	2810.67
426.341	3013.42
426.548	3081
426.756	3130.15
426.964	3048.23
427.171	3308.32
427.379	3443.49
427.586	3549.98
427.794	3636
428.001	3799.84
428.209	3881.75
428.417	3832.6
428.624	4016.92
428.832	4035.35
429.039	4135.7
429.247	4111.13
429.454	4418.32
429.662	4705.04
429.869	4557.58
430.076	4909.83
430.284	4565.78
430.491	4899.59
430.699	5135.11
430.906	5045
431.114	5257.99
431.321	5382.92
431.528	5481.22
431.736	5939.96
431.943	6187.77
432.15	5837.56
432.358	6034.17
432.565	6171.38
432.772	6253.3
432.979	6626.03
433.187	6757.1
433.394	6703.86
433.601	7254.76
433.808	7277.29
434.016	7080.68
434.223	7484.13
434.43	8002.27
434.637	7619.3
434.844	8155.86
435.052	8305.37
435.259	8413.91
435.466	8329.94
435.673	8387.29
435.88	8917.71
436.087	9325.26
436.294	9398.98
436.501	9272.01
436.708	9415.37
436.915	9734.85
437.122	10003.13
437.329	10003.13
437.537	10281.66
437.743	10652.34
437.95	10658.48
438.157	11008.69
438.364	11252.39
438.571	11215.53
438.778	11518.63
438.985	12597.91
439.192	11997.85
439.399	12405.4
439.606	12243.61
439.813	12696.21
440.02	13441.67
440.227	13281.93
440.433	13144.72
440.64	13660.8
440.847	13468.3
441.054	14051.97
441.261	14606.97
441.467	14563.96
441.674	14830.2
441.881	15342.19
442.088	15684.2
442.294	15393.39
442.501	15639.14
442.708	15694.44
442.914	16837.2
443.121	17115.73
443.328	16624.22
443.534	18053.7
443.741	17580.62
443.948	17252.94
444.154	18418.24
444.361	18430.52
444.568	18643.51
444.774	18623.03
444.981	18758.2
445.187	19262
445.394	19976.74
445.6	19827.24
445.807	21641.74
446.013	20785.69
446.22	21344.78
446.426	22004.23
446.633	21797.38
446.839	22829.56
447.046	21897.74
447.252	23087.61
447.459	23161.33
447.665	22882.81
447.871	24179.17
448.078	25178.58
448.284	23794.15
448.491	24601.05
448.697	25453.01
448.903	25803.21
449.11	26143.17
449.316	25680.33
449.522	26038.73
449.728	26835.39
449.935	26657.21
450.141	26870.2
450.347	27812.27
450.553	26675.65
450.76	26917.31
450.966	27842.99
451.172	27419.06
451.378	28156.33
451.584	27537.84
451.791	28043.69
451.997	28391.84
452.203	28455.33
452.409	28787.1
452.615	28731.81
452.821	27414.96
453.027	27044.28
453.233	28805.53
453.44	27414.96
453.646	27562.42
453.852	27916.72
454.058	28207.53
454.264	27484.59
454.47	28197.29
454.676	27396.53
454.882	28127.66
455.088	25921.99
455.294	26350.02
455.5	26618.3
455.705	26872.25
455.911	25752.01
456.117	25149.91
456.323	24867.29
456.529	23650.8
456.735	24850.91
456.941	24013.29
457.147	23712.24
457.352	23103.99
457.558	22696.44
457.764	22448.64
457.97	22307.33
458.176	21862.92
458.381	21740.04
458.587	20906.52
458.793	20881.94
458.999	19917.35
459.204	21021.2
459.41	20455.97
459.616	19081.78
459.821	18975.28
460.027	19300.91
460.233	18688.57
460.438	17674.82
460.644	17953.35
460.85	17152.59
461.055	16644.7
461.261	16927.32
461.466	15792.74
461.672	15264.36
461.878	16339.55
462.083	15174.25
462.289	14834.29
462.494	14684.79
462.7	14086.78
462.905	13746.82
463.111	14154.37
463.316	14367.35
463.522	13914.75
463.727	13691.52
463.932	14033.54
464.138	14019.2
464.343	13757.06
464.549	13744.77
464.754	14031.49
464.959	13810.31
465.165	13836.93
465.37	13200.01
465.575	12683.92
465.781	13179.53
465.986	13435.53
466.191	12917.39
466.397	12749.46
466.602	12149.4
466.807	12522.13
467.012	12468.89
467.218	12403.35
467.423	12335.77
467.628	12221.08
467.833	12901.01
468.038	12536.47
468.244	12090.01
468.449	12470.94
468.654	12147.36
468.859	11973.28
469.064	11991.71
469.269	11651.75
469.474	11385.51
469.679	11758.24
