Data from USB4F104151__211__14-00-01-304.txt Node

Date: Thu Mar 13 14:00:01 EDT 2025
User: louis
Spectrometer: USB4F10415
Trigger mode: 4
Integration Time (sec): 1.000000E-2
Scans to average: 1
Electric dark correction enabled: true
Nonlinearity correction enabled: false
Boxcar width: 0
XAxis mode: Wavelengths
Number of Pixels in Spectrum: 3648
>>>>>Begin Spectral Data<<<<<
178.204	-40.45
178.424	-40.45
178.644	-40.45
178.864	-69.12
179.084	-56.83
179.304	4.61
179.524	-83.45
179.744	10.75
179.964	66.05
180.184	-24.06
180.404	16.9
180.624	20.99
180.844	29.18
181.064	-11.78
181.283	18.94
181.503	-1.54
181.723	-46.59
181.943	39.42
182.163	-7.68
182.383	-24.06
182.602	-13.82
182.822	33.28
183.042	-15.87
183.262	-15.87
183.482	-1.54
183.701	70.14
183.921	55.81
184.141	-65.02
184.361	90.62
184.58	-22.02
184.8	-32.26
185.02	-11.78
185.239	-40.45
185.459	49.66
185.679	35.33
185.898	-28.16
186.118	66.05
186.338	-7.68
186.557	49.66
186.777	16.9
186.997	35.33
187.216	-11.78
187.436	0.51
187.655	10.75
187.875	41.47
188.095	-71.17
188.314	37.38
188.534	10.75
188.753	2.56
188.973	-42.5
189.192	78.33
189.412	27.14
189.631	51.71
189.851	55.81
190.07	33.28
190.29	49.66
190.509	25.09
190.729	-3.58
190.948	29.18
191.168	76.29
191.387	27.14
191.607	61.95
191.826	2.56
192.045	47.62
192.265	23.04
192.484	14.85
192.704	78.33
192.923	-9.73
193.142	35.33
193.362	43.52
193.581	-38.4
193.8	8.7
194.02	16.9
194.239	47.62
194.458	16.9
194.678	64
194.897	72.19
195.116	86.53
195.335	0.51
195.555	49.66
195.774	8.7
195.993	-34.3
196.212	6.66
196.432	0.51
196.651	14.85
196.87	-7.68
197.089	33.28
197.308	45.57
197.528	33.28
197.747	35.33
197.966	45.57
198.185	33.28
198.404	-58.88
198.623	23.04
198.842	33.28
199.062	0.51
199.281	35.33
199.5	-60.93
199.719	74.24
199.938	-13.82
200.157	6.66
200.376	47.62
200.595	29.18
200.814	-3.58
201.033	70.14
201.252	25.09
201.471	66.05
201.69	43.52
201.909	59.9
202.128	-11.78
202.347	2.56
202.566	-28.16
202.785	12.8
203.004	-7.68
203.223	100.86
203.442	55.81
203.661	37.38
203.879	12.8
204.098	74.24
204.317	18.94
204.536	-15.87
204.755	-40.45
204.974	76.29
205.193	8.7
205.411	10.75
205.63	59.9
205.849	10.75
206.068	-32.26
206.287	-9.73
206.505	-15.87
206.724	33.28
206.943	29.18
207.162	12.8
207.381	4.61
207.599	57.86
207.818	61.95
208.037	2.56
208.255	12.8
208.474	-40.45
208.693	31.23
208.911	16.9
209.13	37.38
209.349	0.51
209.567	18.94
209.786	27.14
210.005	29.18
210.223	12.8
210.442	6.66
210.661	-3.58
210.879	25.09
211.098	-38.4
211.316	-13.82
211.535	82.43
211.753	2.56
211.972	45.57
212.191	37.38
212.409	2.56
212.628	-34.3
212.846	-60.93
213.065	-50.69
213.283	68.09
213.502	20.99
213.72	-42.5
213.938	39.42
214.157	-9.73
214.375	-30.21
214.594	35.33
214.812	-32.26
215.031	-9.73
215.249	66.05
215.467	8.7
215.686	-5.63
215.904	-7.68
216.122	-9.73
216.341	25.09
216.559	78.33
216.778	14.85
216.996	33.28
217.214	25.09
217.432	12.8
217.651	98.81
217.869	-30.21
218.087	8.7
218.306	8.7
218.524	41.47
218.742	-7.68
218.96	-38.4
219.179	-34.3
219.397	41.47
219.615	16.9
219.833	-13.82
220.051	82.43
220.27	-52.74
220.488	51.71
220.706	-7.68
220.924	8.7
221.142	-7.68
221.36	-56.83
221.578	-40.45
221.796	4.61
222.015	53.76
222.233	25.09
222.451	51.71
222.669	-62.98
222.887	35.33
223.105	-83.45
223.323	43.52
223.541	-13.82
223.759	-11.78
223.977	16.9
224.195	84.48
224.413	-9.73
224.631	18.94
224.849	0.51
225.067	104.96
225.285	2.56
225.503	-5.63
225.721	61.95
225.939	16.9
226.157	0.51
226.375	51.71
226.592	-24.06
226.81	23.04
227.028	37.38
227.246	25.09
227.464	20.99
227.682	51.71
227.9	43.52
228.117	33.28
228.335	-9.73
228.553	82.43
228.771	8.7
228.989	-7.68
229.206	8.7
229.424	39.42
229.642	53.76
229.86	-13.82
230.077	2.56
230.295	41.47
230.513	41.47
230.731	-7.68
230.948	-13.82
231.166	-15.87
231.384	-24.06
231.601	25.09
231.819	39.42
232.037	-36.35
232.254	33.28
232.472	47.62
232.689	16.9
232.907	10.75
233.125	-34.3
233.342	57.86
233.56	-36.35
233.777	29.18
233.995	18.94
234.213	57.86
234.43	-1.54
234.648	37.38
234.865	-42.5
235.083	29.18
235.3	-1.54
235.518	6.66
235.735	-5.63
235.953	10.75
236.17	25.09
236.388	70.14
236.605	-7.68
236.822	74.24
237.04	14.85
237.257	29.18
237.475	66.05
237.692	4.61
237.909	2.56
238.127	45.57
238.344	-19.97
238.562	18.94
238.779	18.94
238.996	35.33
239.214	-32.26
239.431	-24.06
239.648	-48.64
239.865	135.68
240.083	-17.92
240.3	33.28
240.517	-17.92
240.735	-30.21
240.952	2.56
241.169	41.47
241.386	14.85
241.603	43.52
241.821	2.56
242.038	55.81
242.255	-5.63
242.472	-30.21
242.689	41.47
242.907	-19.97
243.124	0.51
243.341	25.09
243.558	-1.54
243.775	-116.22
243.992	10.75
244.209	55.81
244.426	10.75
244.643	84.48
244.86	33.28
245.078	2.56
245.295	41.47
245.512	16.9
245.729	82.43
245.946	-11.78
246.163	61.95
246.38	41.47
246.597	31.23
246.814	35.33
247.031	31.23
247.248	55.81
247.464	33.28
247.681	-9.73
247.898	-54.78
248.115	86.53
248.332	-42.5
248.549	45.57
248.766	-1.54
248.983	76.29
249.2	27.14
249.417	88.57
249.633	-73.21
249.85	27.14
250.067	23.04
250.284	25.09
250.501	2.56
250.717	23.04
250.934	-40.45
251.151	-5.63
251.368	-22.02
251.585	14.85
251.801	35.33
252.018	70.14
252.235	74.24
252.451	-19.97
252.668	-17.92
252.885	18.94
253.102	76.29
253.318	-17.92
253.535	-46.59
253.752	37.38
253.968	-3.58
254.185	29.18
254.401	51.71
254.618	25.09
254.835	14.85
255.051	-11.78
255.268	-15.87
255.484	-30.21
255.701	-24.06
255.917	74.24
256.134	-3.58
256.351	8.7
256.567	8.7
256.784	33.28
257	96.77
257.217	41.47
257.433	2.56
257.65	14.85
257.866	-42.5
258.082	-13.82
258.299	31.23
258.515	45.57
258.732	-62.98
258.948	41.47
259.165	37.38
259.381	72.19
259.597	78.33
259.814	92.67
260.03	0.51
260.246	6.66
260.463	12.8
260.679	53.76
260.895	53.76
261.112	61.95
261.328	115.2
261.544	27.14
261.761	43.52
261.977	23.04
262.193	29.18
262.409	-24.06
262.626	-22.02
262.842	-7.68
263.058	23.04
263.274	55.81
263.49	-7.68
263.707	25.09
263.923	-3.58
264.139	51.71
264.355	-24.06
264.571	2.56
264.787	-15.87
265.004	35.33
265.22	74.24
265.436	25.09
265.652	45.57
265.868	70.14
266.084	-19.97
266.3	45.57
266.516	29.18
266.732	76.29
266.948	27.14
267.164	2.56
267.38	-54.78
267.596	-3.58
267.812	-28.16
268.028	-32.26
268.244	-32.26
268.46	33.28
268.676	74.24
268.892	-28.16
269.108	66.05
269.324	8.7
269.54	16.9
269.756	57.86
269.972	-28.16
270.188	35.33
270.403	0.51
270.619	-56.83
270.835	76.29
271.051	35.33
271.267	-50.69
271.483	64
271.698	10.75
271.914	29.18
272.13	-5.63
272.346	53.76
272.562	72.19
272.777	37.38
272.993	-44.54
273.209	49.66
273.425	53.76
273.64	-15.87
273.856	43.52
274.072	100.86
274.287	14.85
274.503	12.8
274.719	18.94
274.934	10.75
275.15	-79.36
275.366	27.14
275.581	-48.64
275.797	31.23
276.012	47.62
276.228	-32.26
276.444	53.76
276.659	90.62
276.875	29.18
277.09	16.9
277.306	-19.97
277.521	25.09
277.737	131.58
277.952	59.9
278.168	-11.78
278.383	27.14
278.599	16.9
278.814	76.29
279.03	-3.58
279.245	27.14
279.461	45.57
279.676	68.09
279.892	-17.92
280.107	61.95
280.322	0.51
280.538	59.9
280.753	49.66
280.969	66.05
281.184	14.85
281.399	57.86
281.615	74.24
281.83	-19.97
282.045	14.85
282.26	49.66
282.476	-3.58
282.691	-24.06
282.906	59.9
283.122	31.23
283.337	-30.21
283.552	66.05
283.767	123.39
283.983	41.47
284.198	-11.78
284.413	43.52
284.628	10.75
284.843	45.57
285.058	82.43
285.274	45.57
285.489	16.9
285.704	43.52
285.919	53.76
286.134	39.42
286.349	33.28
286.564	31.23
286.779	-19.97
286.995	0.51
287.21	39.42
287.425	53.76
287.64	61.95
287.855	61.95
288.07	59.9
288.285	-40.45
288.5	16.9
288.715	37.38
288.93	-15.87
289.145	-15.87
289.36	-13.82
289.575	-15.87
289.79	-19.97
290.004	-30.21
290.219	-22.02
290.434	43.52
290.649	16.9
290.864	59.9
291.079	16.9
291.294	12.8
291.509	-65.02
291.724	84.48
291.938	-73.21
292.153	4.61
292.368	2.56
292.583	74.24
292.798	45.57
293.012	0.51
293.227	-58.88
293.442	49.66
293.657	4.61
293.871	88.57
294.086	-24.06
294.301	72.19
294.516	-38.4
294.73	59.9
294.945	57.86
295.16	72.19
295.374	57.86
295.589	35.33
295.804	8.7
296.018	-9.73
296.233	37.38
296.447	70.14
296.662	78.33
296.877	78.33
297.091	80.38
297.306	115.2
297.52	66.05
297.735	107.01
297.949	2.56
298.164	43.52
298.378	16.9
298.593	-30.21
298.807	-24.06
299.022	8.7
299.236	12.8
299.451	72.19
299.665	-5.63
299.88	-22.02
300.094	37.38
300.309	12.8
300.523	-38.4
300.737	-34.3
300.952	-71.17
301.166	45.57
301.381	43.52
301.595	-32.26
301.809	45.57
302.024	-5.63
302.238	14.85
302.452	16.9
302.667	4.61
302.881	47.62
303.095	-13.82
303.309	53.76
303.524	66.05
303.738	14.85
303.952	-28.16
304.166	31.23
304.381	-11.78
304.595	72.19
304.809	-3.58
305.023	96.77
305.237	-38.4
305.452	4.61
305.666	14.85
305.88	39.42
306.094	16.9
306.308	31.23
306.522	43.52
306.736	2.56
306.95	45.57
307.164	33.28
307.379	-7.68
307.593	70.14
307.807	80.38
308.021	49.66
308.235	-44.54
308.449	16.9
308.663	37.38
308.877	16.9
309.091	78.33
309.305	4.61
309.519	18.94
309.733	41.47
309.947	2.56
310.161	-13.82
310.374	41.47
310.588	-13.82
310.802	25.09
311.016	10.75
311.23	31.23
311.444	-15.87
311.658	78.33
311.872	66.05
312.085	70.14
312.299	-17.92
312.513	53.76
312.727	29.18
312.941	-13.82
313.154	16.9
313.368	12.8
313.582	-11.78
313.796	43.52
314.009	70.14
314.223	43.52
314.437	-42.5
314.651	37.38
314.864	39.42
315.078	41.47
315.292	20.99
315.505	45.57
315.719	-11.78
315.933	2.56
316.146	16.9
316.36	33.28
316.573	6.66
316.787	70.14
317.001	29.18
317.214	10.75
317.428	18.94
317.641	6.66
317.855	92.67
318.068	68.09
318.282	90.62
318.495	49.66
318.709	-50.69
318.922	27.14
319.136	59.9
319.349	57.86
319.563	31.23
319.776	47.62
319.99	16.9
320.203	27.14
320.417	-22.02
320.63	57.86
320.843	55.81
321.057	-5.63
321.27	20.99
321.483	12.8
321.697	100.86
321.91	100.86
322.124	14.85
322.337	-5.63
322.55	49.66
322.763	78.33
322.977	-13.82
323.19	0.51
323.403	104.96
323.617	78.33
323.83	51.71
324.043	35.33
324.256	-40.45
324.469	-34.3
324.683	43.52
324.896	51.71
325.109	29.18
325.322	2.56
325.535	41.47
325.748	-1.54
325.962	0.51
326.175	0.51
326.388	90.62
326.601	-17.92
326.814	98.81
327.027	84.48
327.24	59.9
327.453	-34.3
327.666	33.28
327.879	100.86
328.092	20.99
328.305	47.62
328.518	37.38
328.731	43.52
328.944	35.33
329.157	-15.87
329.37	107.01
329.583	70.14
329.796	90.62
330.009	25.09
330.222	10.75
330.435	12.8
330.648	70.14
330.861	27.14
331.073	41.47
331.286	-24.06
331.499	14.85
331.712	27.14
331.925	72.19
332.138	45.57
332.35	94.72
332.563	57.86
332.776	45.57
332.989	12.8
333.202	70.14
333.414	18.94
333.627	37.38
333.84	25.09
334.053	-1.54
334.265	76.29
334.478	-13.82
334.691	49.66
334.903	29.18
335.116	45.57
335.329	-3.58
335.541	31.23
335.754	31.23
335.966	-9.73
336.179	90.62
336.392	78.33
336.604	8.7
336.817	53.76
337.029	12.8
337.242	25.09
337.454	41.47
337.667	-17.92
337.88	133.63
338.092	74.24
338.305	100.86
338.517	14.85
338.729	47.62
338.942	107.01
339.154	20.99
339.367	2.56
339.579	-1.54
339.792	-1.54
340.004	74.24
340.217	-13.82
340.429	76.29
340.641	41.47
340.854	117.25
341.066	0.51
341.278	59.9
341.491	90.62
341.703	90.62
341.915	66.05
342.128	123.39
342.34	47.62
342.552	-5.63
342.764	107.01
342.977	29.18
343.189	2.56
343.401	35.33
343.613	61.95
343.826	-52.74
344.038	2.56
344.25	82.43
344.462	68.09
344.674	-48.64
344.886	-1.54
345.099	25.09
345.311	102.91
345.523	33.28
345.735	8.7
345.947	-9.73
346.159	29.18
346.371	-36.35
346.583	29.18
346.795	86.53
347.007	39.42
347.219	33.28
347.431	47.62
347.643	70.14
347.855	0.51
348.067	12.8
348.279	-71.17
348.491	-1.54
348.703	20.99
348.915	-5.63
349.127	31.23
349.339	123.39
349.551	0.51
349.763	45.57
349.975	57.86
350.187	59.9
350.399	74.24
350.61	41.47
350.822	8.7
351.034	84.48
351.246	74.24
351.458	90.62
351.669	39.42
351.881	47.62
352.093	55.81
352.305	33.28
352.517	41.47
352.728	57.86
352.94	57.86
353.152	61.95
353.363	-17.92
353.575	37.38
353.787	-48.64
353.999	39.42
354.21	33.28
354.422	-30.21
354.633	76.29
354.845	39.42
355.057	43.52
355.268	43.52
355.48	90.62
355.692	37.38
355.903	18.94
356.115	-1.54
356.326	10.75
356.538	41.47
356.749	-26.11
356.961	70.14
357.172	-1.54
357.384	90.62
357.595	33.28
357.807	74.24
358.018	35.33
358.23	-40.45
358.441	-11.78
358.653	-19.97
358.864	0.51
359.075	-13.82
359.287	4.61
359.498	76.29
359.709	8.7
359.921	8.7
360.132	-36.35
360.344	27.14
360.555	23.04
360.766	61.95
360.977	16.9
361.189	18.94
361.4	6.66
361.611	104.96
361.823	33.28
362.034	59.9
362.245	-1.54
362.456	6.66
362.667	8.7
362.879	49.66
363.09	66.05
363.301	61.95
363.512	-1.54
363.723	90.62
363.935	2.56
364.146	18.94
364.357	66.05
364.568	57.86
364.779	45.57
364.99	84.48
365.201	29.18
365.412	84.48
365.623	-19.97
365.834	51.71
366.045	0.51
366.256	57.86
366.467	31.23
366.678	-30.21
366.889	29.18
367.1	37.38
367.311	-5.63
367.522	-3.58
367.733	47.62
367.944	27.14
368.155	55.81
368.366	20.99
368.577	55.81
368.788	88.57
368.999	47.62
369.209	92.67
369.42	33.28
369.631	80.38
369.842	51.71
370.053	33.28
370.264	82.43
370.474	80.38
370.685	39.42
370.896	18.94
371.107	90.62
371.317	31.23
371.528	57.86
371.739	96.77
371.95	0.51
372.16	55.81
372.371	41.47
372.582	86.53
372.792	18.94
373.003	27.14
373.214	0.51
373.424	64
373.635	27.14
373.846	104.96
374.056	-15.87
374.267	33.28
374.477	8.7
374.688	59.9
374.898	66.05
375.109	74.24
375.319	66.05
375.53	96.77
375.74	4.61
375.951	61.95
376.161	12.8
376.372	59.9
376.582	-36.35
376.793	84.48
377.003	-9.73
377.214	25.09
377.424	47.62
377.635	59.9
377.845	4.61
378.055	-22.02
378.266	-13.82
378.476	57.86
378.686	18.94
378.897	41.47
379.107	-9.73
379.317	18.94
379.528	8.7
379.738	35.33
379.948	-9.73
380.158	78.33
380.369	61.95
380.579	100.86
380.789	47.62
380.999	117.25
381.21	57.86
381.42	100.86
381.63	61.95
381.84	74.24
382.05	16.9
382.261	31.23
382.471	80.38
382.681	43.52
382.891	88.57
383.101	-7.68
383.311	47.62
383.521	25.09
383.731	72.19
383.941	82.43
384.151	80.38
384.361	94.72
384.571	-11.78
384.781	57.86
384.991	70.14
385.201	33.28
385.411	-44.54
385.621	115.2
385.831	61.95
386.041	-28.16
386.251	18.94
386.461	27.14
386.671	31.23
386.881	35.33
387.091	92.67
387.301	125.44
387.511	53.76
387.72	145.92
387.93	-19.97
388.14	53.76
388.35	-3.58
388.56	49.66
388.769	74.24
388.979	123.39
389.189	29.18
389.399	98.81
389.609	109.05
389.818	57.86
390.028	25.09
390.238	41.47
390.447	29.18
390.657	-32.26
390.867	27.14
391.076	86.53
391.286	14.85
391.496	49.66
391.705	41.47
391.915	94.72
392.125	74.24
392.334	68.09
392.544	-32.26
392.753	43.52
392.963	45.57
393.172	100.86
393.382	51.71
393.591	98.81
393.801	20.99
394.01	18.94
394.22	82.43
394.429	61.95
394.639	45.57
394.848	82.43
395.058	35.33
395.267	16.9
395.477	39.42
395.686	100.86
395.895	100.86
396.105	123.39
396.314	82.43
396.524	-5.63
396.733	0.51
396.942	51.71
397.152	59.9
397.361	88.57
397.57	102.91
397.78	61.95
397.989	66.05
398.198	53.76
398.407	199.16
398.617	96.77
398.826	117.25
399.035	90.62
399.244	74.24
399.453	88.57
399.663	80.38
399.872	33.28
400.081	45.57
400.29	96.77
400.499	92.67
400.708	147.97
400.917	53.76
401.127	59.9
401.336	37.38
401.545	131.58
401.754	160.25
401.963	174.59
402.172	43.52
402.381	172.54
402.59	104.96
402.799	82.43
403.008	119.29
403.217	107.01
403.426	92.67
403.635	51.71
403.844	115.2
404.053	143.87
404.262	96.77
404.471	98.81
404.68	176.64
404.888	68.09
405.097	92.67
405.306	131.58
405.515	156.16
405.724	186.88
405.933	209.4
406.142	115.2
406.35	133.63
406.559	109.05
406.768	154.11
406.977	186.88
407.185	104.96
407.394	121.34
407.603	147.97
407.812	217.6
408.02	250.36
408.229	229.88
408.438	201.21
408.646	152.06
408.855	145.92
409.064	186.88
409.272	242.17
409.481	289.28
409.69	236.03
409.898	178.69
410.107	289.28
410.315	270.84
410.524	272.89
410.733	283.13
410.941	246.27
411.15	279.04
411.358	248.32
411.567	379.39
411.775	279.04
411.984	340.47
412.192	410.11
412.401	418.3
412.609	350.71
412.818	449.02
413.026	389.63
413.234	401.91
413.443	408.06
413.651	389.63
413.86	483.83
414.068	578.04
414.276	522.74
414.485	578.04
414.693	504.31
414.901	594.42
415.11	586.23
415.318	631.29
415.526	563.7
415.734	643.57
415.943	686.58
416.151	690.68
416.359	725.49
416.567	688.63
416.776	752.12
416.984	825.84
417.192	836.08
417.4	872.95
417.608	844.28
417.817	920.05
418.025	823.8
418.233	971.25
418.441	948.72
418.649	973.3
418.857	1118.7
419.065	1075.7
419.273	1128.94
419.481	1182.19
419.689	1200.62
419.897	1352.17
420.105	1253.87
420.313	1317.36
420.521	1358.32
420.729	1382.89
420.937	1442.28
421.145	1380.84
421.353	1604.07
421.561	1698.28
421.769	1681.89
421.977	1800.68
422.185	1714.66
422.393	1802.72
422.601	1946.08
422.809	1896.93
423.017	1829.35
423.224	2003.43
423.432	2060.77
423.64	2140.64
423.848	2255.33
424.056	2210.27
424.263	2347.48
424.471	2288.09
424.679	2466.27
424.887	2613.72
425.094	2609.62
425.302	2583
425.51	2783.7
425.718	2818.52
425.925	2863.57
426.133	3051.99
426.341	2992.59
426.548	3178.96
426.756	3264.97
426.964	3250.64
427.171	3500.49
427.379	3609.03
427.586	3582.41
427.794	3789.25
428.001	3940.8
428.209	4032.96
428.417	4123.07
428.624	4215.23
428.832	4299.2
429.039	4180.42
429.247	4301.25
429.454	4723.13
429.662	4882.87
429.869	4792.76
430.076	5034.42
430.284	4829.62
430.491	5056.95
430.699	5349.81
430.906	5333.42
431.114	5294.51
431.321	5613.99
431.528	5675.43
431.736	6187.43
431.943	6396.32
432.15	6119.84
432.358	6185.38
432.565	6549.92
432.772	6441.37
432.979	6814.1
433.187	6951.32
433.394	7068.05
433.601	7584.14
433.808	7604.62
434.016	7588.24
434.223	7928.2
434.43	8329.6
434.637	8008.07
434.844	8610.17
435.052	8821.11
435.259	8872.31
435.466	8907.13
435.673	8626.56
435.88	9363.83
436.087	9916.78
436.294	9660.78
436.501	9458.03
436.708	9689.45
436.915	10090.85
437.122	10490.21
437.329	10381.67
437.537	10791.26
437.743	10942.81
437.95	10875.23
438.157	11419.99
438.364	11823.44
438.571	11698.51
438.778	12009.8
438.985	12945.72
439.192	12552.51
439.399	12855.61
439.606	12501.31
439.813	13246.77
440.02	14025
440.227	14068.01
440.433	13812.01
440.64	14125.35
440.847	13932.84
441.054	14588.19
441.261	15347.99
441.467	15188.25
441.674	15563.03
441.881	16097.55
442.088	15925.52
442.294	15876.37
442.501	16378.12
442.708	16617.73
442.914	17295.61
443.121	18012.4
443.328	17471.73
443.534	18608.36
443.741	18252.01
443.948	17975.53
444.154	19390.68
444.361	19339.48
444.568	19359.96
444.774	19220.7
444.981	19587.29
445.187	19960.02
445.394	21137.6
445.6	20613.32
445.807	22653.09
446.013	21551.29
446.22	22151.34
446.426	23007.39
446.633	23222.43
446.839	23732.37
447.046	22872.23
447.252	24017.04
447.459	24395.92
447.665	24139.92
447.871	25378.94
448.078	26247.28
448.284	24871.04
448.491	25632.89
448.697	26802.28
448.903	27084.9
449.11	27218.02
449.316	26769.51
449.522	27062.37
449.728	28084.31
449.935	28287.06
450.141	28409.93
450.347	28893.26
450.553	27744.34
450.76	28233.81
450.966	29296.7
451.172	28721.23
451.378	29401.15
451.584	29175.87
451.791	29863.99
451.997	29550.65
452.203	30212.15
452.409	30152.76
452.615	29872.18
452.821	28596.3
453.027	28362.83
453.233	29704.25
453.44	28874.82
453.646	29038.66
453.852	29474.88
454.058	29880.38
454.264	28762.19
454.47	29433.92
454.676	28713.03
454.882	29734.97
455.088	27107.43
455.294	27451.49
455.5	28049.49
455.705	28299.34
455.911	26933.35
456.117	26409.07
456.323	26382.45
456.529	24842.37
456.735	25925.75
456.941	25071.75
457.147	24705.16
457.352	23724.18
457.558	23990.42
457.764	24144.02
457.97	23269.53
458.176	22941.86
458.381	23019.68
458.587	21766.32
458.793	21557.43
458.999	20545.73
459.204	22286.51
459.41	21541.05
459.616	20000.97
459.821	20097.23
460.027	20009.17
460.233	19681.49
460.438	18761.95
460.644	19054.81
460.85	18122.99
461.055	17633.52
461.261	18106.6
461.466	16685.31
461.672	15917.33
461.878	17187.07
462.083	15950.09
462.289	15773.97
462.494	15757.58
462.7	14903.58
462.905	14508.32
463.111	14825.76
463.316	15124.76
463.522	14829.85
463.727	14872.86
463.932	14747.93
464.138	14563.62
464.343	14807.33
464.549	14237.99
464.754	14995.74
464.959	14635.3
465.165	14471.46
465.37	14008.62
465.575	13711.66
465.781	14231.85
465.986	14410.02
466.191	13672.75
466.397	13627.7
466.602	12900.67
466.807	13635.89
467.012	13302.07
467.218	13326.64
467.423	12923.19
467.628	13056.31
467.833	13881.64
468.038	13025.59
