Data from USB4F104151__297__14-02-53-435.txt Node

Date: Thu Mar 13 14:02:53 EDT 2025
User: louis
Spectrometer: USB4F10415
Trigger mode: 4
Integration Time (sec): 1.000000E-2
Scans to average: 1
Electric dark correction enabled: true
Nonlinearity correction enabled: false
Boxcar width: 0
XAxis mode: Wavelengths
Number of Pixels in Spectrum: 3648
>>>>>Begin Spectral Data<<<<<
178.204	-88.92
178.424	-88.92
178.644	-88.92
178.864	-60.24
179.084	-15.19
179.304	13.48
179.524	-15.19
179.744	-70.48
179.964	-11.09
180.184	74.92
180.404	-50
180.624	52.39
180.844	5.29
181.064	-35.67
181.283	-17.24
181.503	21.67
181.723	31.91
181.943	-4.95
182.163	74.92
182.383	1.19
182.602	-7
182.822	52.39
183.042	36.01
183.262	19.63
183.482	-2.9
183.701	74.92
183.921	-7
184.141	5.29
184.361	97.45
184.58	3.24
184.8	-23.38
185.02	-56.15
185.239	13.48
185.459	15.53
185.679	-66.39
185.898	-2.9
186.118	31.91
186.338	-17.24
186.557	46.25
186.777	-97.11
186.997	-17.24
187.216	19.63
187.436	-13.14
187.655	9.39
187.875	27.82
188.095	-15.19
188.314	38.06
188.534	-23.38
188.753	9.39
188.973	-2.9
189.192	17.58
189.412	-4.95
189.631	9.39
189.851	-29.52
190.07	-25.43
190.29	42.15
190.509	-41.81
190.729	25.77
190.948	46.25
191.168	50.35
191.387	50.35
191.607	13.48
191.826	23.72
192.045	25.77
192.265	25.77
192.484	-43.86
192.704	25.77
192.923	3.24
193.142	89.26
193.362	33.96
193.581	50.35
193.8	23.72
194.02	-47.96
194.239	46.25
194.458	-0.85
194.678	50.35
194.897	1.19
195.116	5.29
195.335	66.73
195.555	54.44
195.774	38.06
195.993	56.49
196.212	38.06
196.432	-25.43
196.651	19.63
196.87	5.29
197.089	17.58
197.308	-29.52
197.528	-11.09
197.747	42.15
197.966	66.73
198.185	9.39
198.404	74.92
198.623	5.29
198.842	33.96
199.062	40.11
199.281	91.31
199.5	-2.9
199.719	60.59
199.938	-64.34
200.157	17.58
200.376	42.15
200.595	-27.48
200.814	-0.85
201.033	36.01
201.252	19.63
201.471	-0.85
201.69	50.35
201.909	-56.15
202.128	38.06
202.347	-19.29
202.566	74.92
202.785	17.58
203.004	-15.19
203.223	-19.29
203.442	-17.24
203.661	44.2
203.879	1.19
204.098	44.2
204.317	-31.57
204.536	-4.95
204.755	40.11
204.974	-0.85
205.193	66.73
205.411	1.19
205.63	-70.48
205.849	54.44
206.068	29.87
206.287	76.97
206.505	5.29
206.724	-2.9
206.943	-33.62
207.162	-9.05
207.381	50.35
207.599	3.24
207.818	38.06
208.037	-19.29
208.255	3.24
208.474	15.53
208.693	27.82
208.911	33.96
209.13	-15.19
209.349	-23.38
209.567	52.39
209.786	-37.72
210.005	3.24
210.223	52.39
210.442	-4.95
210.661	3.24
210.879	3.24
211.098	40.11
211.316	-64.34
211.535	76.97
211.753	-47.96
211.972	93.35
212.191	9.39
212.409	-9.05
212.628	-9.05
212.846	25.77
213.065	36.01
213.283	-41.81
213.502	-15.19
213.72	70.83
213.938	-43.86
214.157	-0.85
214.375	42.15
214.594	-2.9
214.812	-31.57
215.031	33.96
215.249	25.77
215.467	25.77
215.686	27.82
215.904	54.44
216.122	33.96
216.341	-64.34
216.559	60.59
216.778	52.39
216.996	-7
217.214	11.43
217.432	27.82
217.651	42.15
217.869	60.59
218.087	60.59
218.306	33.96
218.524	74.92
218.742	13.48
218.96	-27.48
219.179	13.48
219.397	19.63
219.615	50.35
219.833	62.63
220.051	-23.38
220.27	7.34
220.488	15.53
220.706	9.39
220.924	21.67
221.142	101.55
221.36	1.19
221.578	58.54
221.796	33.96
222.015	44.2
222.233	25.77
222.451	31.91
222.669	-37.72
222.887	23.72
223.105	-31.57
223.323	-39.76
223.541	50.35
223.759	74.92
223.977	76.97
224.195	50.35
224.413	31.91
224.631	19.63
224.849	-70.48
225.067	25.77
225.285	66.73
225.503	58.54
225.721	-35.67
225.939	-54.1
226.157	74.92
226.375	21.67
226.592	3.24
226.81	-4.95
227.028	52.39
227.246	33.96
227.464	-29.52
227.682	-4.95
227.9	13.48
228.117	33.96
228.335	42.15
228.553	33.96
228.771	50.35
228.989	42.15
229.206	33.96
229.424	21.67
229.642	-21.33
229.86	1.19
230.077	85.16
230.295	48.3
230.513	13.48
230.731	50.35
230.948	19.63
231.166	5.29
231.384	-4.95
231.601	5.29
231.819	19.63
232.037	-37.72
232.254	33.96
232.472	58.54
232.689	-2.9
232.907	-15.19
233.125	-43.86
233.342	27.82
233.56	-21.33
233.777	1.19
233.995	50.35
234.213	44.2
234.43	5.29
234.648	42.15
234.865	36.01
235.083	44.2
235.3	62.63
235.518	46.25
235.735	95.4
235.953	101.55
236.17	-41.81
236.388	48.3
236.605	-33.62
236.822	42.15
237.04	17.58
237.257	-52.05
237.475	-64.34
237.692	44.2
237.909	25.77
238.127	-58.2
238.344	17.58
238.562	64.68
238.779	-23.38
238.996	9.39
239.214	-7
239.431	25.77
239.648	17.58
239.865	-2.9
240.083	5.29
240.3	-23.38
240.517	-50
240.735	-35.67
240.952	50.35
241.169	38.06
241.386	1.19
241.603	46.25
241.821	54.44
242.038	7.34
242.255	9.39
242.472	58.54
242.689	13.48
242.907	42.15
243.124	-25.43
243.341	33.96
243.558	25.77
243.775	-27.48
243.992	31.91
244.209	111.78
244.426	52.39
244.643	23.72
244.86	3.24
245.078	-39.76
245.295	17.58
245.512	29.87
245.729	11.43
245.946	17.58
246.163	15.53
246.38	-13.14
246.597	27.82
246.814	44.2
247.031	23.72
247.248	42.15
247.464	36.01
247.681	38.06
247.898	48.3
248.115	-39.76
248.332	-2.9
248.549	66.73
248.766	9.39
248.983	58.54
249.2	-23.38
249.417	29.87
249.633	76.97
249.85	-27.48
250.067	-0.85
250.284	19.63
250.501	23.72
250.717	85.16
250.934	17.58
251.151	-11.09
251.368	3.24
251.585	17.58
251.801	-11.09
252.018	25.77
252.235	31.91
252.451	70.83
252.668	1.19
252.885	58.54
253.102	9.39
253.318	17.58
253.535	81.07
253.752	66.73
253.968	36.01
254.185	-9.05
254.401	-19.29
254.618	13.48
254.835	-19.29
255.051	42.15
255.268	-29.52
255.484	15.53
255.701	40.11
255.917	40.11
256.134	60.59
256.351	3.24
256.567	1.19
256.784	113.83
257	-66.39
257.217	-15.19
257.433	13.48
257.65	64.68
257.866	13.48
258.082	19.63
258.299	50.35
258.515	72.87
258.732	29.87
258.948	54.44
259.165	64.68
259.381	11.43
259.597	99.5
259.814	56.49
260.03	-0.85
260.246	70.83
260.463	54.44
260.679	9.39
260.895	9.39
261.112	-11.09
261.328	36.01
261.544	95.4
261.761	64.68
261.977	54.44
262.193	19.63
262.409	101.55
262.626	1.19
262.842	-47.96
263.058	-80.72
263.274	-35.67
263.49	23.72
263.707	-2.9
263.923	40.11
264.139	-17.24
264.355	99.5
264.571	23.72
264.787	25.77
265.004	36.01
265.22	66.73
265.436	48.3
265.652	29.87
265.868	-9.05
266.084	1.19
266.3	33.96
266.516	-13.14
266.732	-2.9
266.948	-17.24
267.164	5.29
267.38	70.83
267.596	17.58
267.812	68.78
268.028	17.58
268.244	74.92
268.46	9.39
268.676	50.35
268.892	13.48
269.108	11.43
269.324	-33.62
269.54	3.24
269.756	33.96
269.972	7.34
270.188	-37.72
270.403	-25.43
270.619	50.35
270.835	62.63
271.051	27.82
271.267	42.15
271.483	17.58
271.698	44.2
271.914	62.63
272.13	-29.52
272.346	-27.48
272.562	56.49
272.777	19.63
272.993	-9.05
273.209	29.87
273.425	17.58
273.64	-39.76
273.856	40.11
274.072	-41.81
274.287	-4.95
274.503	3.24
274.719	31.91
274.934	62.63
275.15	-50
275.366	21.67
275.581	-13.14
275.797	-9.05
276.012	42.15
276.228	-35.67
276.444	58.54
276.659	48.3
276.875	-52.05
277.09	79.02
277.306	21.67
277.521	44.2
277.737	13.48
277.952	58.54
278.168	29.87
278.383	7.34
278.599	42.15
278.814	-13.14
279.03	29.87
279.245	19.63
279.461	-11.09
279.676	113.83
279.892	60.59
280.107	-13.14
280.322	44.2
280.538	46.25
280.753	54.44
280.969	70.83
281.184	40.11
281.399	50.35
281.615	64.68
281.83	58.54
282.045	60.59
282.26	27.82
282.476	-2.9
282.691	72.87
282.906	-9.05
283.122	5.29
283.337	44.2
283.552	60.59
283.767	33.96
283.983	95.4
284.198	68.78
284.413	-31.57
284.628	-50
284.843	17.58
285.058	-9.05
285.274	1.19
285.489	54.44
285.704	-56.15
285.919	25.77
286.134	9.39
286.349	58.54
286.564	-4.95
286.779	-19.29
286.995	-23.38
287.21	-9.05
287.425	42.15
287.64	31.91
287.855	-0.85
288.07	42.15
288.285	21.67
288.5	-60.24
288.715	68.78
288.93	-4.95
289.145	64.68
289.36	-56.15
289.575	42.15
289.79	1.19
290.004	-25.43
290.219	15.53
290.434	25.77
290.649	-58.2
290.864	11.43
291.079	38.06
291.294	-47.96
291.509	9.39
291.724	81.07
291.938	27.82
292.153	-39.76
292.368	21.67
292.583	7.34
292.798	-13.14
293.012	9.39
293.227	-13.14
293.442	13.48
293.657	46.25
293.871	-19.29
294.086	48.3
294.301	25.77
294.516	-23.38
294.73	-11.09
294.945	58.54
295.16	72.87
295.374	50.35
295.589	48.3
295.804	23.72
296.018	-13.14
296.233	70.83
296.447	-15.19
296.662	11.43
296.877	1.19
297.091	-11.09
297.306	46.25
297.52	-47.96
297.735	19.63
297.949	36.01
298.164	66.73
298.378	40.11
298.593	109.74
298.807	40.11
299.022	33.96
299.236	9.39
299.451	-15.19
299.665	29.87
299.88	33.96
300.094	50.35
300.309	-52.05
300.523	-9.05
300.737	60.59
300.952	-60.24
301.166	66.73
301.381	29.87
301.595	76.97
301.809	-15.19
302.024	62.63
302.238	25.77
302.452	50.35
302.667	54.44
302.881	40.11
303.095	3.24
303.309	52.39
303.524	29.87
303.738	29.87
303.952	27.82
304.166	50.35
304.381	21.67
304.595	54.44
304.809	-21.33
305.023	56.49
305.237	38.06
305.452	-35.67
305.666	-31.57
305.88	54.44
306.094	11.43
306.308	5.29
306.522	36.01
306.736	5.29
306.95	25.77
307.164	-2.9
307.379	31.91
307.593	52.39
307.807	27.82
308.021	17.58
308.235	-13.14
308.449	105.64
308.663	7.34
308.877	56.49
309.091	-19.29
309.305	11.43
309.519	-0.85
309.733	42.15
309.947	-43.86
310.161	62.63
310.374	-39.76
310.588	83.11
310.802	3.24
311.016	91.31
311.23	79.02
311.444	60.59
311.658	19.63
311.872	-33.62
312.085	29.87
312.299	9.39
312.513	23.72
312.727	46.25
312.941	19.63
313.154	62.63
313.368	-2.9
313.582	-4.95
313.796	19.63
314.009	64.68
314.223	76.97
314.437	-72.53
314.651	-11.09
314.864	31.91
315.078	-66.39
315.292	13.48
315.505	3.24
315.719	52.39
315.933	31.91
316.146	-7
316.36	38.06
316.573	-39.76
316.787	23.72
317.001	64.68
317.214	-0.85
317.428	19.63
317.641	3.24
317.855	17.58
318.068	31.91
318.282	52.39
318.495	72.87
318.709	74.92
318.922	-25.43
319.136	76.97
319.349	5.29
319.563	33.96
319.776	25.77
319.99	9.39
320.203	54.44
320.417	-43.86
320.63	17.58
320.843	31.91
321.057	70.83
321.27	-19.29
321.483	50.35
321.697	33.96
321.91	58.54
322.124	-23.38
322.337	29.87
322.55	122.02
322.763	-7
322.977	5.29
323.19	-2.9
323.403	64.68
323.617	13.48
323.83	38.06
324.043	38.06
324.256	36.01
324.469	56.49
324.683	15.53
324.896	38.06
325.109	40.11
325.322	13.48
325.535	21.67
325.748	9.39
325.962	76.97
326.175	36.01
326.388	42.15
326.601	3.24
326.814	40.11
327.027	-4.95
327.24	58.54
327.453	-82.77
327.666	-7
327.879	66.73
328.092	-27.48
328.305	19.63
328.518	21.67
328.731	-41.81
328.944	-41.81
329.157	74.92
329.37	66.73
329.583	54.44
329.796	9.39
330.009	17.58
330.222	52.39
330.435	25.77
330.648	74.92
330.861	3.24
331.073	81.07
331.286	66.73
331.499	42.15
331.712	9.39
331.925	17.58
332.138	74.92
332.35	21.67
332.563	50.35
332.776	134.31
332.989	1.19
333.202	25.77
333.414	33.96
333.627	36.01
333.84	21.67
334.053	-15.19
334.265	7.34
334.478	74.92
334.691	27.82
334.903	97.45
335.116	-62.29
335.329	44.2
335.541	40.11
335.754	81.07
335.966	5.29
336.179	40.11
336.392	9.39
336.604	99.5
336.817	29.87
337.029	79.02
337.242	-7
337.454	50.35
337.667	27.82
337.88	126.12
338.092	29.87
338.305	-2.9
338.517	66.73
338.729	9.39
338.942	122.02
339.154	-15.19
339.367	21.67
339.579	95.4
339.792	-13.14
340.004	-21.33
340.217	54.44
340.429	-7
340.641	52.39
340.854	-27.48
341.066	52.39
341.278	29.87
341.491	58.54
341.703	29.87
341.915	23.72
342.128	11.43
342.34	50.35
342.552	91.31
342.764	52.39
342.977	83.11
343.189	9.39
343.401	42.15
343.613	36.01
343.826	21.67
344.038	-2.9
344.25	19.63
344.462	54.44
344.674	3.24
344.886	-7
345.099	58.54
345.311	-11.09
345.523	70.83
345.735	56.49
345.947	-23.38
346.159	15.53
346.371	-19.29
346.583	36.01
346.795	19.63
347.007	-2.9
347.219	52.39
347.431	17.58
347.643	27.82
347.855	-4.95
348.067	117.93
348.279	31.91
348.491	62.63
348.703	19.63
348.915	-33.62
349.127	27.82
349.339	9.39
349.551	-13.14
349.763	31.91
349.975	-4.95
350.187	23.72
350.399	83.11
350.61	42.15
350.822	1.19
351.034	17.58
351.246	3.24
351.458	38.06
351.669	33.96
351.881	-13.14
352.093	-31.57
352.305	-27.48
352.517	-4.95
352.728	-31.57
352.94	89.26
353.152	-52.05
353.363	25.77
353.575	-9.05
353.787	66.73
353.999	40.11
354.21	11.43
354.422	44.2
354.633	54.44
354.845	-31.57
355.057	25.77
355.268	27.82
355.48	105.64
355.692	25.77
355.903	11.43
356.115	1.19
356.326	-7
356.538	79.02
356.749	1.19
356.961	44.2
357.172	44.2
357.384	117.93
357.595	-11.09
357.807	33.96
358.018	29.87
358.23	93.35
358.441	66.73
358.653	60.59
358.864	9.39
359.075	-13.14
359.287	-47.96
359.498	44.2
359.709	25.77
359.921	-13.14
360.132	31.91
360.344	11.43
360.555	17.58
360.766	99.5
360.977	21.67
361.189	38.06
361.4	44.2
361.611	64.68
361.823	-33.62
362.034	72.87
362.245	46.25
362.456	52.39
362.667	83.11
362.879	38.06
363.09	-0.85
363.301	76.97
363.512	33.96
363.723	-0.85
363.935	70.83
364.146	81.07
364.357	13.48
364.568	74.92
364.779	17.58
364.99	48.3
365.201	68.78
365.412	72.87
365.623	38.06
365.834	-37.72
366.045	33.96
366.256	50.35
366.467	50.35
366.678	33.96
366.889	15.53
367.1	50.35
367.311	46.25
367.522	-0.85
367.733	-0.85
367.944	103.59
368.155	76.97
368.366	62.63
368.577	56.49
368.788	52.39
368.999	21.67
369.209	31.91
369.42	9.39
369.631	85.16
369.842	56.49
370.053	3.24
370.264	38.06
370.474	50.35
370.685	42.15
370.896	27.82
371.107	29.87
371.317	56.49
371.528	-13.14
371.739	44.2
371.95	27.82
372.16	58.54
372.371	42.15
372.582	56.49
372.792	50.35
373.003	31.91
373.214	19.63
373.424	38.06
373.635	-0.85
373.846	23.72
374.056	42.15
374.267	36.01
374.477	15.53
374.688	27.82
374.898	1.19
375.109	42.15
375.319	17.58
375.53	-2.9
375.74	1.19
375.951	52.39
376.161	-23.38
376.372	15.53
376.582	21.67
376.793	36.01
377.003	-35.67
377.214	9.39
377.424	31.91
377.635	5.29
377.845	11.43
378.055	70.83
378.266	-21.33
378.476	-11.09
378.686	7.34
378.897	25.77
379.107	58.54
379.317	40.11
379.528	48.3
379.738	54.44
379.948	42.15
380.158	27.82
380.369	-13.14
380.579	54.44
380.789	74.92
380.999	87.21
381.21	95.4
381.42	15.53
381.63	13.48
381.84	89.26
382.05	5.29
382.261	101.55
382.471	9.39
382.681	70.83
382.891	58.54
383.101	33.96
383.311	89.26
383.521	11.43
383.731	58.54
383.941	33.96
384.151	42.15
384.361	29.87
384.571	64.68
384.781	7.34
384.991	17.58
385.201	-11.09
385.411	17.58
385.621	-2.9
385.831	13.48
386.041	21.67
386.251	85.16
386.461	48.3
386.671	17.58
386.881	17.58
387.091	17.58
387.301	62.63
387.511	72.87
387.72	52.39
387.93	58.54
388.14	-7
388.35	64.68
388.56	117.93
388.769	-9.05
388.979	-2.9
389.189	-11.09
389.399	60.59
389.609	-47.96
389.818	23.72
390.028	-0.85
390.238	7.34
390.447	-15.19
390.657	66.73
390.867	52.39
391.076	91.31
391.286	-7
391.496	-7
391.705	33.96
391.915	29.87
392.125	31.91
392.334	83.11
392.544	93.35
392.753	36.01
392.963	38.06
393.172	74.92
393.382	29.87
393.591	109.74
393.801	23.72
394.01	29.87
394.22	33.96
394.429	76.97
394.639	56.49
394.848	83.11
395.058	-9.05
395.267	99.5
395.477	44.2
395.686	68.78
395.895	91.31
396.105	66.73
396.314	91.31
396.524	3.24
396.733	46.25
396.942	76.97
397.152	72.87
397.361	93.35
397.57	-11.09
397.78	25.77
397.989	38.06
398.198	44.2
398.407	62.63
398.617	36.01
398.826	60.59
399.035	83.11
399.244	-37.72
399.453	33.96
399.663	46.25
399.872	66.73
400.081	52.39
400.29	29.87
400.499	81.07
400.708	83.11
400.917	111.78
401.127	91.31
401.336	23.72
401.545	117.93
401.754	122.02
401.963	76.97
402.172	85.16
402.381	97.45
402.59	50.35
402.799	105.64
403.008	70.83
403.217	93.35
403.426	99.5
403.635	66.73
403.844	52.39
404.053	89.26
404.262	21.67
404.471	62.63
404.68	72.87
404.888	138.41
405.097	29.87
405.306	103.59
405.515	91.31
405.724	165.03
405.933	152.74
406.142	76.97
406.35	83.11
406.559	134.31
406.768	66.73
406.977	167.08
407.185	154.79
407.394	130.22
407.603	66.73
407.812	160.94
408.02	181.42
408.229	199.85
408.438	165.03
408.646	128.17
408.855	144.55
409.064	189.61
409.272	111.78
409.481	158.89
409.69	271.53
409.898	249
410.107	267.43
410.315	183.46
410.524	218.28
410.733	234.66
410.941	298.15
411.15	240.81
411.358	201.9
411.567	195.75
411.775	271.53
411.984	265.38
412.192	353.45
412.401	289.96
412.609	281.77
412.818	382.12
413.026	386.21
413.234	314.53
413.443	378.02
413.651	355.49
413.86	437.41
414.068	347.3
414.276	490.66
414.485	451.75
414.693	429.22
414.901	478.37
415.11	378.02
415.318	433.32
415.526	519.33
415.734	476.32
415.943	470.18
416.151	486.56
416.359	521.38
416.567	582.82
416.776	550.05
416.984	640.16
417.192	601.25
417.4	568.48
417.608	545.95
417.817	693.41
418.025	728.22
418.233	836.77
418.441	705.7
418.649	814.24
418.857	859.29
419.065	890.01
419.273	877.73
419.481	957.6
419.689	949.4
419.897	984.22
420.105	1053.85
420.313	1000.6
420.521	1027.23
420.729	1059.99
420.937	1168.54
421.145	1174.68
421.353	1152.15
421.561	1301.65
421.769	1361.05
421.977	1225.88
422.185	1387.67
422.393	1395.86
422.601	1533.08
422.809	1467.54
423.017	1397.91
423.224	1539.22
423.432	1627.28
423.64	1680.53
423.848	1754.26
424.056	1776.78
424.263	1942.67
424.471	1905.81
424.679	1969.29
424.887	1989.77
425.094	1987.72
425.302	2118.79
425.51	2079.88
425.718	2268.3
425.925	2358.41
426.133	2370.69
426.341	2493.57
426.548	2520.2
426.756	2598.02
426.964	2528.39
427.171	2788.48
427.379	2905.21
427.586	2886.78
427.794	3058.81
428.001	3087.48
428.209	3107.96
428.417	3282.04
428.624	3327.1
428.832	3331.19
429.039	3398.77
429.247	3417.21
429.454	3730.55
429.662	3966.06
429.869	3832.94
430.076	3970.16
430.284	3865.71
430.491	3933.29
430.699	4205.67
430.906	4187.24
431.114	4277.35
431.321	4381.8
431.528	4400.23
431.736	4828.26
431.943	4990.05
432.15	4858.98
432.358	5039.2
432.565	5184.6
432.772	5153.88
432.979	5383.26
433.187	5465.18
433.394	5483.61
433.601	6120.53
433.808	6050.89
434.016	5991.5
434.223	6231.12
434.43	6562.89
434.637	6413.38
434.844	6773.83
435.052	6986.82
435.259	7031.87
435.466	6997.06
435.673	6925.38
435.88	7210.04
436.087	7570.49
436.294	7791.67
436.501	7525.43
436.708	7722.04
436.915	7986.22
437.122	8211.5
437.329	8236.08
437.537	8653.86
437.743	8811.56
437.95	8592.42
438.157	8942.63
438.364	9411.61
438.571	9417.75
438.778	9346.08
438.985	10505.23
439.192	9610.26
439.399	10216.46
439.606	10011.67
439.813	10392.59
440.02	11176.96
440.227	11101.19
440.433	10943.49
440.64	11072.51
440.847	11224.06
441.054	11305.98
441.261	12159.99
441.467	11987.96
441.674	12297.2
441.881	12622.83
442.088	12772.33
442.294	12383.21
442.501	13020.13
442.708	13296.61
442.914	13648.86
443.121	13939.67
443.328	13794.26
443.534	14599.12
443.741	14336.98
443.948	14123.99
444.154	15291.33
444.361	15264.71
444.568	15180.74
444.774	15297.47
444.981	15666.11
445.187	15842.23
445.394	16427.95
445.6	16442.29
445.807	18062.23
446.013	17261.48
446.22	17447.84
446.426	18211.73
446.633	18140.05
446.839	18862.99
447.046	18140.05
447.252	19129.22
447.459	19188.61
447.665	19026.82
447.871	19839.87
448.078	20796.27
448.284	19764.09
448.491	20521.84
448.697	21117.8
448.903	21191.53
449.11	21779.29
449.316	21197.67
449.522	21560.16
449.728	22135.64
449.935	22303.57
450.141	22121.31
450.347	22860.62
450.553	22102.87
450.76	22371.16
450.966	22991.69
451.172	22717.26
451.378	23659.33
451.584	22815.57
451.791	23446.34
451.997	23601.99
452.203	23857.98
452.409	23900.99
452.615	23542.6
452.821	23038.8
453.027	22403.92
453.233	23831.36
453.44	23051.08
453.646	23059.27
453.852	23157.58
454.058	23546.69
454.264	22762.32
454.47	23257.93
454.676	22760.27
454.882	23644.99
455.088	21490.53
455.294	21721.95
455.5	21850.97
455.705	22260.57
455.911	21125.99
456.117	21103.46
456.323	20620.14
456.529	19618.69
456.735	20382.58
456.941	19876.73
457.147	19436.42
457.352	19227.53
457.558	18881.42
457.764	19073.93
457.97	18545.55
458.176	18209.68
458.381	18242.45
458.587	17011.62
458.793	17308.58
458.999	16149.43
459.204	17513.38
459.41	16976.81
459.616	15809.47
459.821	16192.44
460.027	15752.12
460.233	15303.62
460.438	14934.98
460.644	14908.36
460.85	14218.19
461.055	14148.56
461.261	13976.53
461.466	12975.08
461.672	12592.11
461.878	13591.52
462.083	12538.86
462.289	12346.35
462.494	12274.67
462.7	11680.76
462.905	11418.62
463.111	11848.69
463.316	11901.94
463.522	11561.98
463.727	11715.58
463.932	11600.89
464.138	11580.41
464.343	11656.18
464.549	11060.23
464.754	11533.31
464.959	11604.99
465.165	11285.5
465.37	10896.39
465.575	10542.09
465.781	11080.71
465.986	11183.1
466.191	10607.62
466.397	10515.47
466.602	10017.81
466.807	10339.34
467.012	10615.82
467.218	10505.23
467.423	10329.1
467.628	10232.85
467.833	10851.33
468.038	10269.71
468.244	10064.91
468.449	10423.31
468.654	10046.48
