Data from USB4F104151__116__13-55-01-307.txt Node

Date: Thu Mar 13 13:55:01 EDT 2025
User: louis
Spectrometer: USB4F10415
Trigger mode: 4
Integration Time (sec): 1.000000E-2
Scans to average: 1
Electric dark correction enabled: true
Nonlinearity correction enabled: false
Boxcar width: 0
XAxis mode: Wavelengths
Number of Pixels in Spectrum: 3648
>>>>>Begin Spectral Data<<<<<
178.204	-100.52
178.424	-100.52
178.644	-100.52
178.864	30.55
179.084	-8.36
179.304	12.12
179.524	38.74
179.744	36.69
179.964	5.97
180.184	22.36
180.404	-61.61
180.624	5.97
180.844	38.74
181.064	-53.42
181.283	-32.94
181.503	8.02
181.723	-20.65
181.943	32.6
182.163	36.69
182.383	8.02
182.602	14.17
182.822	18.26
183.042	8.02
183.262	-4.27
183.482	-69.8
183.701	-6.31
183.921	26.45
184.141	48.98
184.361	-8.36
184.58	38.74
184.8	38.74
185.02	-28.84
185.239	77.65
185.459	-0.17
185.679	-4.27
185.898	-12.46
186.118	75.6
186.338	63.32
186.557	-8.36
186.777	59.22
186.997	28.5
187.216	-34.99
187.436	18.26
187.655	-45.23
187.875	20.31
188.095	-37.03
188.314	-2.22
188.534	14.17
188.753	38.74
188.973	-22.7
189.192	-12.46
189.412	18.26
189.631	-20.65
189.851	53.08
190.07	10.07
190.29	-30.89
190.509	40.79
190.729	-24.75
190.948	-0.17
191.168	12.12
191.387	18.26
191.607	-43.18
191.826	-61.61
192.045	-53.42
192.265	-8.36
192.484	3.93
192.704	3.93
192.923	18.26
193.142	1.88
193.362	-32.94
193.581	8.02
193.8	-14.51
194.02	-0.17
194.239	34.64
194.458	-8.36
194.678	-16.55
194.897	8.02
195.116	-10.41
195.335	-16.55
195.555	-30.89
195.774	-16.55
195.993	38.74
196.212	32.6
196.432	-59.56
196.651	5.97
196.87	-10.41
197.089	48.98
197.308	24.4
197.528	73.56
197.747	-8.36
197.966	51.03
198.185	53.08
198.404	-12.46
198.623	30.55
198.842	24.4
199.062	42.84
199.281	-18.6
199.5	36.69
199.719	-6.31
199.938	-6.31
200.157	12.12
200.376	28.5
200.595	-16.55
200.814	36.69
201.033	20.31
201.252	44.88
201.471	38.74
201.69	36.69
201.909	-20.65
202.128	3.93
202.347	73.56
202.566	-24.75
202.785	-0.17
203.004	36.69
203.223	81.75
203.442	-6.31
203.661	26.45
203.879	14.17
204.098	14.17
204.317	61.27
204.536	48.98
204.755	-16.55
204.974	91.99
205.193	-10.41
205.411	51.03
205.63	-20.65
205.849	14.17
206.068	61.27
206.287	-2.22
206.505	-2.22
206.724	65.36
206.943	-24.75
207.162	-10.41
207.381	-30.89
207.599	1.88
207.818	-28.84
208.037	-41.13
208.255	-32.94
208.474	3.93
208.693	3.93
208.911	-4.27
209.13	65.36
209.349	-22.7
209.567	-0.17
209.786	-63.66
210.005	-0.17
210.223	-26.79
210.442	-43.18
210.661	-18.6
210.879	102.23
211.098	-61.61
211.316	-10.41
211.535	-2.22
211.753	-6.31
211.972	71.51
212.191	51.03
212.409	-49.32
212.628	-67.75
212.846	-34.99
213.065	38.74
213.283	32.6
213.502	-0.17
213.72	63.32
213.938	-45.23
214.157	-51.37
214.375	42.84
214.594	61.27
214.812	34.64
215.031	14.17
215.249	30.55
215.467	-30.89
215.686	36.69
215.904	44.88
216.122	3.93
216.341	-20.65
216.559	42.84
216.778	42.84
216.996	36.69
217.214	28.5
217.432	-22.7
217.651	-55.47
217.869	20.31
218.087	22.36
218.306	-32.94
218.524	59.22
218.742	-20.65
218.96	-22.7
219.179	-32.94
219.397	32.6
219.615	59.22
219.833	-51.37
220.051	-32.94
220.27	-12.46
220.488	-22.7
220.706	73.56
220.924	-8.36
221.142	14.17
221.36	-24.75
221.578	-18.6
221.796	8.02
222.015	98.13
222.233	-41.13
222.451	-8.36
222.669	-18.6
222.887	28.5
223.105	44.88
223.323	-43.18
223.541	-8.36
223.759	-32.94
223.977	14.17
224.195	57.17
224.413	40.79
224.631	-2.22
224.849	51.03
225.067	-0.17
225.285	12.12
225.503	46.93
225.721	14.17
225.939	10.07
226.157	59.22
226.375	75.6
226.592	1.88
226.81	-34.99
227.028	57.17
227.246	83.8
227.464	5.97
227.682	-8.36
227.9	59.22
228.117	30.55
228.335	87.89
228.553	-2.22
228.771	22.36
228.989	-39.08
229.206	16.21
229.424	-2.22
229.642	32.6
229.86	65.36
230.077	-45.23
230.295	57.17
230.513	34.64
230.731	34.64
230.948	46.93
231.166	57.17
231.384	-28.84
231.601	73.56
231.819	-4.27
232.037	71.51
232.254	-37.03
232.472	57.17
232.689	-2.22
232.907	-6.31
233.125	32.6
233.342	91.99
233.56	32.6
233.777	85.84
233.995	16.21
234.213	14.17
234.43	16.21
234.648	57.17
234.865	1.88
235.083	28.5
235.3	44.88
235.518	34.64
235.735	16.21
235.953	26.45
236.17	53.08
236.388	-0.17
236.605	-10.41
236.822	-6.31
237.04	24.4
237.257	73.56
237.475	3.93
237.692	-8.36
237.909	28.5
238.127	-10.41
238.344	-10.41
238.562	34.64
238.779	-41.13
238.996	-6.31
239.214	32.6
239.431	61.27
239.648	10.07
239.865	-2.22
240.083	-18.6
240.3	100.18
240.517	57.17
240.735	-28.84
240.952	-30.89
241.169	-24.75
241.386	18.26
241.603	12.12
241.821	73.56
242.038	18.26
242.255	-0.17
242.472	-32.94
242.689	22.36
242.907	3.93
243.124	89.94
243.341	32.6
243.558	81.75
243.775	-4.27
243.992	40.79
244.209	10.07
244.426	14.17
244.643	85.84
244.86	-39.08
245.078	34.64
245.295	12.12
245.512	10.07
245.729	-26.79
245.946	36.69
246.163	34.64
246.38	87.89
246.597	40.79
246.814	22.36
247.031	65.36
247.248	-8.36
247.464	28.5
247.681	22.36
247.898	71.51
248.115	-16.55
248.332	-63.66
248.549	34.64
248.766	32.6
248.983	1.88
249.2	40.79
249.417	-0.17
249.633	3.93
249.85	77.65
250.067	-2.22
250.284	24.4
250.501	20.31
250.717	-94.38
250.934	-0.17
251.151	32.6
251.368	24.4
251.585	16.21
251.801	10.07
252.018	-43.18
252.235	59.22
252.451	28.5
252.668	8.02
252.885	73.56
253.102	26.45
253.318	57.17
253.535	65.36
253.752	8.02
253.968	-16.55
254.185	73.56
254.401	-24.75
254.618	-2.22
254.835	44.88
255.051	71.51
255.268	8.02
255.484	30.55
255.701	-34.99
255.917	34.64
256.134	-12.46
256.351	40.79
256.567	-14.51
256.784	38.74
257	-18.6
257.217	36.69
257.433	40.79
257.65	24.4
257.866	53.08
258.082	-2.22
258.299	40.79
258.515	-16.55
258.732	26.45
258.948	5.97
259.165	-30.89
259.381	-8.36
259.597	-32.94
259.814	-4.27
260.03	24.4
260.246	42.84
260.463	16.21
260.679	12.12
260.895	83.8
261.112	61.27
261.328	51.03
261.544	14.17
261.761	30.55
261.977	-18.6
262.193	-14.51
262.409	124.76
262.626	12.12
262.842	-18.6
263.058	-37.03
263.274	38.74
263.49	-63.66
263.707	10.07
263.923	1.88
264.139	38.74
264.355	34.64
264.571	22.36
264.787	-47.27
265.004	48.98
265.22	-16.55
265.436	55.12
265.652	38.74
265.868	40.79
266.084	-2.22
266.3	22.36
266.516	8.02
266.732	-41.13
266.948	10.07
267.164	51.03
267.38	-0.17
267.596	61.27
267.812	53.08
268.028	36.69
268.244	55.12
268.46	-24.75
268.676	-43.18
268.892	1.88
269.108	30.55
269.324	75.6
269.54	-2.22
269.756	-8.36
269.972	-10.41
270.188	61.27
270.403	34.64
270.619	67.41
270.835	73.56
271.051	-16.55
271.267	-6.31
271.483	22.36
271.698	-18.6
271.914	-24.75
272.13	87.89
272.346	38.74
272.562	-2.22
272.777	44.88
272.993	61.27
273.209	-2.22
273.425	-59.56
273.64	151.38
273.856	48.98
274.072	51.03
274.287	30.55
274.503	30.55
274.719	22.36
274.934	28.5
275.15	8.02
275.366	85.84
275.581	18.26
275.797	34.64
276.012	75.6
276.228	-6.31
276.444	26.45
276.659	67.41
276.875	-14.51
277.09	46.93
277.306	22.36
277.521	-18.6
277.737	38.74
277.952	22.36
278.168	-20.65
278.383	-14.51
278.599	-24.75
278.814	20.31
279.03	-10.41
279.245	18.26
279.461	44.88
279.676	-0.17
279.892	61.27
280.107	-18.6
280.322	-22.7
280.538	-26.79
280.753	36.69
280.969	73.56
281.184	-14.51
281.399	100.18
281.615	-28.84
281.83	22.36
282.045	53.08
282.26	-49.32
282.476	-8.36
282.691	77.65
282.906	14.17
283.122	73.56
283.337	-24.75
283.552	-22.7
283.767	-39.08
283.983	30.55
284.198	24.4
284.413	-22.7
284.628	104.28
284.843	22.36
285.058	63.32
285.274	-39.08
285.489	-61.61
285.704	38.74
285.919	-65.71
286.134	-2.22
286.349	42.84
286.564	55.12
286.779	12.12
286.995	85.84
287.21	26.45
287.425	20.31
287.64	-14.51
287.855	34.64
288.07	42.84
288.285	10.07
288.5	34.64
288.715	55.12
288.93	34.64
289.145	8.02
289.36	16.21
289.575	51.03
289.79	-14.51
290.004	-0.17
290.219	-8.36
290.434	-30.89
290.649	28.5
290.864	48.98
291.079	-24.75
291.294	-4.27
291.509	36.69
291.724	1.88
291.938	26.45
292.153	-10.41
292.368	53.08
292.583	67.41
292.798	-32.94
293.012	5.97
293.227	-18.6
293.442	44.88
293.657	28.5
293.871	32.6
294.086	-22.7
294.301	22.36
294.516	-14.51
294.73	18.26
294.945	-41.13
295.16	8.02
295.374	-28.84
295.589	-30.89
295.804	91.99
296.018	61.27
296.233	55.12
296.447	5.97
296.662	-12.46
296.877	48.98
297.091	24.4
297.306	51.03
297.52	-47.27
297.735	24.4
297.949	20.31
298.164	24.4
298.378	53.08
298.593	-26.79
298.807	-24.75
299.022	55.12
299.236	18.26
299.451	42.84
299.665	30.55
299.88	65.36
300.094	12.12
300.309	40.79
300.523	-10.41
300.737	22.36
300.952	106.32
301.166	-69.8
301.381	53.08
301.595	59.22
301.809	26.45
302.024	53.08
302.238	32.6
302.452	-10.41
302.667	-6.31
302.881	65.36
303.095	34.64
303.309	48.98
303.524	-28.84
303.738	53.08
303.952	-63.66
304.166	57.17
304.381	-57.51
304.595	71.51
304.809	-10.41
305.023	-0.17
305.237	71.51
305.452	30.55
305.666	12.12
305.88	96.08
306.094	-0.17
306.308	-8.36
306.522	42.84
306.736	14.17
306.95	-20.65
307.164	79.7
307.379	-28.84
307.593	36.69
307.807	40.79
308.021	18.26
308.235	44.88
308.449	30.55
308.663	14.17
308.877	32.6
309.091	5.97
309.305	34.64
309.519	-32.94
309.733	-6.31
309.947	24.4
310.161	32.6
310.374	44.88
310.588	42.84
310.802	-71.85
311.016	-14.51
311.23	69.46
311.444	8.02
311.658	42.84
311.872	28.5
312.085	30.55
312.299	1.88
312.513	-39.08
312.727	79.7
312.941	10.07
313.154	1.88
313.368	-12.46
313.582	42.84
313.796	-26.79
314.009	-8.36
314.223	1.88
314.437	-12.46
314.651	-10.41
314.864	14.17
315.078	12.12
315.292	32.6
315.505	14.17
315.719	89.94
315.933	26.45
316.146	-0.17
316.36	-30.89
316.573	63.32
316.787	34.64
317.001	40.79
317.214	-10.41
317.428	-16.55
317.641	-30.89
317.855	85.84
318.068	30.55
318.282	44.88
318.495	18.26
318.709	57.17
318.922	-32.94
319.136	67.41
319.349	73.56
319.563	73.56
319.776	8.02
319.99	48.98
320.203	-63.66
320.417	30.55
320.63	-20.65
320.843	36.69
321.057	42.84
321.27	8.02
321.483	-22.7
321.697	63.32
321.91	65.36
322.124	-18.6
322.337	38.74
322.55	71.51
322.763	-32.94
322.977	22.36
323.19	38.74
323.403	46.93
323.617	36.69
323.83	-12.46
324.043	65.36
324.256	38.74
324.469	18.26
324.683	-20.65
324.896	34.64
325.109	63.32
325.322	-24.75
325.535	20.31
325.748	-0.17
325.962	71.51
326.175	10.07
326.388	63.32
326.601	36.69
326.814	8.02
327.027	-0.17
327.24	46.93
327.453	-45.23
327.666	69.46
327.879	34.64
328.092	55.12
328.305	26.45
328.518	55.12
328.731	-57.51
328.944	57.17
329.157	-24.75
329.37	-14.51
329.583	59.22
329.796	61.27
330.009	1.88
330.222	28.5
330.435	3.93
330.648	32.6
330.861	-12.46
331.073	55.12
331.286	32.6
331.499	-34.99
331.712	30.55
331.925	55.12
332.138	-34.99
332.35	83.8
332.563	-30.89
332.776	57.17
332.989	26.45
333.202	8.02
333.414	42.84
333.627	24.4
333.84	34.64
334.053	87.89
334.265	1.88
334.478	44.88
334.691	32.6
334.903	-8.36
335.116	34.64
335.329	55.12
335.541	59.22
335.754	40.79
335.966	73.56
336.179	-18.6
336.392	-2.22
336.604	73.56
336.817	16.21
337.029	81.75
337.242	34.64
337.454	69.46
337.667	26.45
337.88	16.21
338.092	24.4
338.305	22.36
338.517	24.4
338.729	44.88
338.942	5.97
339.154	16.21
339.367	61.27
339.579	-10.41
339.792	28.5
340.004	51.03
340.217	26.45
340.429	5.97
340.641	48.98
340.854	40.79
341.066	-10.41
341.278	-8.36
341.491	30.55
341.703	34.64
341.915	34.64
342.128	3.93
342.34	-80.04
342.552	30.55
342.764	8.02
342.977	-2.22
343.189	14.17
343.401	12.12
343.613	40.79
343.826	-2.22
344.038	26.45
344.25	1.88
344.462	28.5
344.674	18.26
344.886	22.36
345.099	55.12
345.311	24.4
345.523	30.55
345.735	-2.22
345.947	-28.84
346.159	57.17
346.371	71.51
346.583	51.03
346.795	-41.13
347.007	36.69
347.219	-34.99
347.431	12.12
347.643	79.7
347.855	98.13
348.067	8.02
348.279	36.69
348.491	16.21
348.703	91.99
348.915	77.65
349.127	-6.31
349.339	73.56
349.551	5.97
349.763	-34.99
349.975	114.52
350.187	53.08
350.399	32.6
350.61	81.75
350.822	-18.6
351.034	-24.75
351.246	53.08
351.458	12.12
351.669	-22.7
351.881	-14.51
352.093	18.26
352.305	14.17
352.517	-30.89
352.728	57.17
352.94	36.69
353.152	-12.46
353.363	16.21
353.575	44.88
353.787	-18.6
353.999	87.89
354.21	53.08
354.422	71.51
354.633	81.75
354.845	71.51
355.057	-53.42
355.268	32.6
355.48	42.84
355.692	1.88
355.903	24.4
356.115	53.08
356.326	44.88
356.538	130.9
356.749	-10.41
356.961	5.97
357.172	24.4
357.384	5.97
357.595	81.75
357.807	67.41
358.018	100.18
358.23	85.84
358.441	53.08
358.653	10.07
358.864	61.27
359.075	-22.7
359.287	-28.84
359.498	-12.46
359.709	10.07
359.921	42.84
360.132	81.75
360.344	51.03
360.555	32.6
360.766	69.46
360.977	-39.08
361.189	57.17
361.4	14.17
361.611	46.93
361.823	24.4
362.034	18.26
362.245	32.6
362.456	-30.89
362.667	-8.36
362.879	65.36
363.09	3.93
363.301	46.93
363.512	71.51
363.723	-0.17
363.935	44.88
364.146	79.7
364.357	36.69
364.568	104.28
364.779	57.17
364.99	77.65
365.201	120.66
365.412	20.31
365.623	-18.6
365.834	30.55
366.045	-16.55
366.256	46.93
366.467	116.56
366.678	16.21
366.889	-57.51
367.1	28.5
367.311	1.88
367.522	63.32
367.733	40.79
367.944	-22.7
368.155	-37.03
368.366	-2.22
368.577	5.97
368.788	73.56
368.999	-12.46
369.209	26.45
369.42	100.18
369.631	-22.7
369.842	-0.17
370.053	67.41
370.264	34.64
370.474	89.94
370.685	18.26
370.896	34.64
371.107	26.45
371.317	3.93
371.528	-4.27
371.739	69.46
371.95	3.93
372.16	57.17
372.371	-32.94
372.582	114.52
372.792	40.79
373.003	-10.41
373.214	79.7
373.424	32.6
373.635	48.98
373.846	89.94
374.056	89.94
374.267	-24.75
374.477	69.46
374.688	26.45
374.898	87.89
375.109	55.12
375.319	51.03
375.53	63.32
375.74	36.69
375.951	85.84
376.161	-34.99
376.372	42.84
376.582	32.6
376.793	48.98
377.003	1.88
377.214	71.51
377.424	40.79
377.635	24.4
377.845	-18.6
378.055	69.46
378.266	10.07
378.476	59.22
378.686	5.97
378.897	48.98
379.107	18.26
379.317	32.6
379.528	48.98
379.738	46.93
379.948	22.36
380.158	10.07
380.369	5.97
380.579	26.45
380.789	71.51
380.999	-16.55
381.21	34.64
381.42	20.31
381.63	48.98
381.84	94.04
382.05	32.6
382.261	106.32
382.471	145.24
382.681	59.22
382.891	77.65
383.101	151.38
383.311	26.45
383.521	53.08
383.731	12.12
383.941	63.32
384.151	-67.75
384.361	48.98
384.571	-39.08
384.781	30.55
384.991	53.08
385.201	1.88
385.411	75.6
385.621	89.94
385.831	22.36
386.041	71.51
386.251	40.79
386.461	-26.79
386.671	44.88
386.881	-10.41
387.091	-0.17
387.301	-10.41
387.511	55.12
387.72	44.88
387.93	83.8
388.14	42.84
388.35	48.98
388.56	10.07
388.769	83.8
388.979	-41.13
389.189	53.08
389.399	65.36
389.609	28.5
389.818	57.17
390.028	63.32
390.238	63.32
390.447	91.99
390.657	48.98
390.867	63.32
391.076	65.36
391.286	51.03
391.496	59.22
391.705	61.27
391.915	104.28
392.125	44.88
392.334	149.33
392.544	94.04
392.753	69.46
392.963	36.69
393.172	112.47
393.382	-37.03
393.591	83.8
393.801	89.94
394.01	22.36
394.22	124.76
394.429	110.42
394.639	40.79
394.848	91.99
395.058	89.94
395.267	128.85
395.477	65.36
395.686	10.07
395.895	124.76
396.105	46.93
396.314	34.64
396.524	130.9
396.733	73.56
396.942	65.36
397.152	141.14
397.361	110.42
397.57	94.04
397.78	51.03
397.989	63.32
398.198	94.04
398.407	112.47
398.617	147.28
398.826	51.03
399.035	81.75
399.244	94.04
399.453	87.89
399.663	194.39
399.872	145.24
400.081	85.84
400.29	94.04
400.499	106.32
400.708	120.66
400.917	110.42
401.127	100.18
401.336	40.79
401.545	57.17
401.754	14.17
401.963	48.98
402.172	114.52
402.381	128.85
402.59	155.47
402.799	130.9
403.008	94.04
403.217	145.24
403.426	141.14
403.635	114.52
403.844	137.04
404.053	161.62
404.262	112.47
404.471	87.89
404.68	192.34
404.888	171.86
405.097	71.51
405.306	169.81
405.515	141.14
405.724	178
405.933	175.95
406.142	153.43
406.35	233.3
406.559	169.81
406.768	128.85
406.977	175.95
407.185	151.38
407.394	139.09
407.603	182.1
407.812	223.06
408.02	202.58
408.229	298.83
408.438	247.63
408.646	237.39
408.855	270.16
409.064	251.73
409.272	307.02
409.481	245.59
409.69	257.87
409.898	300.88
410.107	307.02
410.315	321.36
410.524	382.8
410.733	409.42
410.941	292.69
411.15	288.59
411.358	309.07
411.567	444.24
411.775	403.28
411.984	298.83
412.192	411.47
412.401	386.9
412.609	415.57
412.818	470.86
413.026	481.1
413.234	552.78
413.443	444.24
413.651	474.96
413.86	530.25
414.068	597.84
414.276	581.45
414.485	661.32
414.693	700.23
414.901	644.94
415.11	726.86
415.318	716.62
415.526	692.04
415.734	735.05
415.943	763.72
416.151	786.25
416.359	798.54
416.567	814.92
416.776	974.66
416.984	968.52
417.192	868.17
417.4	993.09
417.608	884.55
417.817	1001.29
418.025	1126.21
418.233	1081.16
418.441	1052.49
418.649	1105.73
418.857	1279.81
419.065	1271.62
419.273	1314.63
419.481	1328.96
419.689	1386.3
419.897	1572.67
420.105	1554.24
420.313	1603.39
420.521	1507.13
420.729	1648.44
420.937	1693.5
421.145	1652.54
421.353	1799.99
421.561	2023.22
421.769	1988.41
421.977	1947.45
422.185	1955.64
422.393	2125.62
422.601	2256.69
422.809	2203.44
423.017	2279.22
423.224	2273.07
423.432	2395.95
423.64	2459.44
423.848	2604.85
424.056	2545.45
424.263	2934.57
424.471	2746.16
424.679	2832.17
424.887	3098.41
425.094	3096.36
425.302	3020.58
425.51	3338.02
425.718	3120.93
425.925	3389.22
426.133	3462.94
426.341	3696.41
426.548	3884.83
426.756	3852.06
426.964	3931.93
427.171	4103.96
427.379	4194.07
427.586	4448.02
427.794	4355.86
428.001	4488.98
428.209	4992.78
428.417	4763.4
428.624	5119.75
428.832	4960.01
429.039	5048.07
429.247	5152.52
429.454	5494.53
429.662	5885.69
429.869	5453.57
430.076	5965.56
430.284	5543.68
430.491	5979.9
430.699	6211.32
430.906	6424.31
431.114	6407.92
431.321	6653.68
431.528	6788.85
431.736	7200.49
431.943	7515.87
432.15	7376.61
432.358	7560.93
432.565	7775.97
432.772	7694.05
432.979	8185.56
433.187	8548.05
433.394	8357.59
433.601	8992.46
433.808	9135.82
434.016	8900.3
434.223	9391.81
434.43	9881.28
434.637	9647.81
434.844	10149.56
435.052	10598.07
435.259	10319.54
435.466	10225.34
435.673	10256.06
435.88	11179.69
436.087	11804.32
436.294	11622.05
436.501	11404.97
436.708	11708.07
436.915	11892.38
437.122	12750.48
437.329	12560.02
437.537	12918.42
437.743	13137.55
437.95	13151.88
438.157	13756.04
438.364	14151.29
438.571	14173.82
438.778	14188.16
438.985	15476.33
439.192	14653.05
439.399	15314.54
439.606	15011.44
439.813	15971.94
440.02	16791.13
440.227	16672.34
440.433	16531.03
440.64	17065.55
440.847	16596.57
441.054	17407.56
441.261	18366.01
441.467	18255.42
441.674	18603.58
441.881	19412.53
442.088	19156.53
442.294	18802.23
442.501	19594.79
442.708	19721.77
442.914	20502.04
443.121	21556.75
443.328	21200.4
443.534	22400.51
443.741	21771.79
443.948	21130.77
444.154	22982.13
444.361	22771.19
444.568	23207.41
444.774	23045.62
444.981	23326.19
445.187	23907.82
445.394	25103.83
445.6	24810.97
445.807	26932.67
446.013	25660.88
446.22	26213.83
446.426	27256.25
446.633	27893.16
446.839	28714.4
447.046	27502
447.252	29173.14
447.459	28710.3
447.665	28515.75
447.871	29992.33
448.078	31315.32
448.284	29781.39
448.491	30354.82
448.697	31729.01
448.903	32232.81
449.11	32109.93
449.316	32093.55
449.522	32542.05
449.728	33121.63
449.935	33611.09
450.141	33625.43
450.347	34639.17
450.553	32941.41
450.76	33449.3
450.966	34813.25
451.172	34112.84
451.378	34884.93
451.584	34415.94
451.791	35075.39
451.997	35280.19
452.203	35675.44
452.409	35585.33
452.615	35360.06
452.821	34383.18
453.027	33936.72
453.233	35380.54
453.44	33975.63
453.646	34657.6
453.852	34780.48
454.058	34915.65
454.264	34039.12
454.47	35022.14
454.676	34010.45
454.882	35415.35
455.088	32085.36
455.294	32320.87
455.5	32763.23
455.705	33535.32
455.911	32204.14
456.117	31399.29
456.323	31219.06
456.529	29099.42
456.735	30582.15
456.941	29869.45
457.147	29371.8
457.352	28573.09
457.558	28593.57
457.764	27874.73
457.97	27833.77
458.176	27067.83
458.381	27053.5
458.587	25572.82
458.793	25865.67
458.999	24464.86
459.204	26328.52
459.41	25462.22
459.616	23844.33
459.821	23877.1
460.027	23473.65
460.233	23387.63
460.438	21894.66
460.644	22304.26
460.85	21683.72
461.055	20977.17
461.261	20842.01
461.466	19473.96
461.672	19125.81
461.878	20239.9
462.083	18640.44
462.289	18476.6
462.494	18560.57
462.7	17397.32
462.905	17079.89
463.111	17776.2
463.316	17788.49
463.522	17296.97
463.727	17325.64
463.932	17346.12
464.138	17147.47
464.343	17397.32
464.549	16535.13
464.754	17215.05
464.959	17096.27
465.165	16729.69
465.37	16215.65
465.575	16068.19
465.781	16311.9
465.986	16637.53
466.191	15914.59
466.397	15683.17
466.602	14716.53
466.807	15570.54
467.012	15552.1
