Data from USB4F104151__51__13-53-28-857.txt Node

Date: Thu Mar 13 13:53:28 EDT 2025
User: louis
Spectrometer: USB4F10415
Trigger mode: 4
Integration Time (sec): 1.000000E-2
Scans to average: 1
Electric dark correction enabled: true
Nonlinearity correction enabled: false
Boxcar width: 0
XAxis mode: Wavelengths
Number of Pixels in Spectrum: 3648
>>>>>Begin Spectral Data<<<<<
178.204	-34.99
178.424	-34.99
178.644	-34.99
178.864	-26.79
179.084	-45.23
179.304	-20.65
179.524	18.26
179.744	48.98
179.964	-22.7
180.184	81.75
180.404	-10.41
180.624	-10.41
180.844	-4.27
181.064	-53.42
181.283	-26.79
181.503	8.02
181.723	-8.36
181.943	-61.61
182.163	-47.27
182.383	3.93
182.602	-4.27
182.822	-2.22
183.042	-22.7
183.262	12.12
183.482	24.4
183.701	-37.03
183.921	-24.75
184.141	-6.31
184.361	12.12
184.58	-26.79
184.8	53.08
185.02	38.74
185.239	8.02
185.459	-12.46
185.679	98.13
185.898	1.88
186.118	55.12
186.338	-4.27
186.557	-43.18
186.777	18.26
186.997	-45.23
187.216	63.32
187.436	-0.17
187.655	20.31
187.875	3.93
188.095	12.12
188.314	-63.66
188.534	30.55
188.753	32.6
188.973	-4.27
189.192	-6.31
189.412	-2.22
189.631	16.21
189.851	102.23
190.07	-16.55
190.29	-4.27
190.509	26.45
190.729	40.79
190.948	-22.7
191.168	67.41
191.387	75.6
191.607	-32.94
191.826	38.74
192.045	-0.17
192.265	14.17
192.484	73.56
192.704	-4.27
192.923	14.17
193.142	59.22
193.362	-45.23
193.581	63.32
193.8	30.55
194.02	-20.65
194.239	36.69
194.458	-18.6
194.678	46.93
194.897	46.93
195.116	8.02
195.335	65.36
195.555	69.46
195.774	20.31
195.993	20.31
196.212	-24.75
196.432	3.93
196.651	75.6
196.87	12.12
197.089	18.26
197.308	10.07
197.528	48.98
197.747	12.12
197.966	5.97
198.185	-24.75
198.404	12.12
198.623	-22.7
198.842	26.45
199.062	34.64
199.281	16.21
199.5	-34.99
199.719	34.64
199.938	1.88
200.157	71.51
200.376	-4.27
200.595	67.41
200.814	-22.7
201.033	8.02
201.252	-41.13
201.471	-4.27
201.69	44.88
201.909	8.02
202.128	42.84
202.347	38.74
202.566	63.32
202.785	-26.79
203.004	-41.13
203.223	24.4
203.442	46.93
203.661	87.89
203.879	-45.23
204.098	18.26
204.317	-18.6
204.536	-43.18
204.755	1.88
204.974	53.08
205.193	77.65
205.411	26.45
205.63	16.21
205.849	12.12
206.068	-86.19
206.287	5.97
206.505	-45.23
206.724	12.12
206.943	77.65
207.162	26.45
207.381	-30.89
207.599	10.07
207.818	63.32
208.037	-8.36
208.255	8.02
208.474	71.51
208.693	48.98
208.911	22.36
209.13	24.4
209.349	10.07
209.567	-73.9
209.786	-0.17
210.005	-12.46
210.223	-0.17
210.442	77.65
210.661	24.4
210.879	3.93
211.098	22.36
211.316	-26.79
211.535	94.04
211.753	20.31
211.972	51.03
212.191	-28.84
212.409	-8.36
212.628	-22.7
212.846	18.26
213.065	-20.65
213.283	57.17
213.502	-14.51
213.72	1.88
213.938	16.21
214.157	16.21
214.375	73.56
214.594	-12.46
214.812	-4.27
215.031	44.88
215.249	-14.51
215.467	36.69
215.686	67.41
215.904	30.55
216.122	12.12
216.341	73.56
216.559	-20.65
216.778	69.46
216.996	59.22
217.214	32.6
217.432	-10.41
217.651	-12.46
217.869	-37.03
218.087	16.21
218.306	5.97
218.524	5.97
218.742	-20.65
218.96	-8.36
219.179	65.36
219.397	75.6
219.615	32.6
219.833	8.02
220.051	-39.08
220.27	26.45
220.488	69.46
220.706	26.45
220.924	-24.75
221.142	-22.7
221.36	18.26
221.578	38.74
221.796	3.93
222.015	14.17
222.233	14.17
222.451	-22.7
222.669	14.17
222.887	63.32
223.105	32.6
223.323	38.74
223.541	18.26
223.759	67.41
223.977	-71.85
224.195	-14.51
224.413	61.27
224.631	-61.61
224.849	18.26
225.067	3.93
225.285	-16.55
225.503	5.97
225.721	-14.51
225.939	10.07
226.157	32.6
226.375	34.64
226.592	-69.8
226.81	104.28
227.028	34.64
227.246	79.7
227.464	-26.79
227.682	69.46
227.9	-6.31
228.117	-8.36
228.335	-59.56
228.553	65.36
228.771	-12.46
228.989	48.98
229.206	71.51
229.424	38.74
229.642	-2.22
229.86	71.51
230.077	63.32
230.295	51.03
230.513	26.45
230.731	61.27
230.948	57.17
231.166	38.74
231.384	30.55
231.601	51.03
231.819	61.27
232.037	69.46
232.254	20.31
232.472	8.02
232.689	24.4
232.907	51.03
233.125	42.84
233.342	18.26
233.56	-12.46
233.777	18.26
233.995	10.07
234.213	63.32
234.43	40.79
234.648	-28.84
234.865	24.4
235.083	40.79
235.3	26.45
235.518	-2.22
235.735	-51.37
235.953	24.4
236.17	36.69
236.388	-6.31
236.605	-0.17
236.822	57.17
237.04	28.5
237.257	12.12
237.475	-8.36
237.692	34.64
237.909	34.64
238.127	18.26
238.344	-37.03
238.562	-10.41
238.779	-6.31
238.996	10.07
239.214	-20.65
239.431	53.08
239.648	-10.41
239.865	18.26
240.083	-20.65
240.3	100.18
240.517	-10.41
240.735	69.46
240.952	65.36
241.169	18.26
241.386	12.12
241.603	12.12
241.821	94.04
242.038	34.64
242.255	8.02
242.472	18.26
242.689	57.17
242.907	89.94
243.124	53.08
243.341	69.46
243.558	14.17
243.775	-4.27
243.992	32.6
244.209	51.03
244.426	55.12
244.643	18.26
244.86	-16.55
245.078	44.88
245.295	-18.6
245.512	-39.08
245.729	10.07
245.946	46.93
246.163	10.07
246.38	-18.6
246.597	59.22
246.814	30.55
247.031	48.98
247.248	-22.7
247.464	-8.36
247.681	26.45
247.898	8.02
248.115	51.03
248.332	51.03
248.549	16.21
248.766	18.26
248.983	81.75
249.2	53.08
249.417	-20.65
249.633	28.5
249.85	44.88
250.067	12.12
250.284	-0.17
250.501	10.07
250.717	46.93
250.934	63.32
251.151	-51.37
251.368	51.03
251.585	28.5
251.801	16.21
252.018	83.8
252.235	40.79
252.451	48.98
252.668	-43.18
252.885	-28.84
253.102	-8.36
253.318	-16.55
253.535	-53.42
253.752	-6.31
253.968	14.17
254.185	-20.65
254.401	46.93
254.618	3.93
254.835	40.79
255.051	-4.27
255.268	53.08
255.484	59.22
255.701	38.74
255.917	53.08
256.134	22.36
256.351	44.88
256.567	53.08
256.784	28.5
257	-28.84
257.217	71.51
257.433	5.97
257.65	8.02
257.866	81.75
258.082	-26.79
258.299	44.88
258.515	24.4
258.732	-12.46
258.948	1.88
259.165	116.56
259.381	-14.51
259.597	57.17
259.814	94.04
260.03	-10.41
260.246	3.93
260.463	44.88
260.679	59.22
260.895	18.26
261.112	40.79
261.328	-32.94
261.544	-10.41
261.761	89.94
261.977	12.12
262.193	51.03
262.409	-37.03
262.626	42.84
262.842	53.08
263.058	14.17
263.274	5.97
263.49	22.36
263.707	61.27
263.923	-30.89
264.139	-8.36
264.355	40.79
264.571	81.75
264.787	40.79
265.004	-2.22
265.22	73.56
265.436	24.4
265.652	22.36
265.868	22.36
266.084	71.51
266.3	32.6
266.516	81.75
266.732	-20.65
266.948	14.17
267.164	8.02
267.38	12.12
267.596	8.02
267.812	-71.85
268.028	-0.17
268.244	38.74
268.46	34.64
268.676	57.17
268.892	26.45
269.108	-24.75
269.324	14.17
269.54	-24.75
269.756	30.55
269.972	-12.46
270.188	-37.03
270.403	-47.27
270.619	75.6
270.835	-55.47
271.051	118.61
271.267	69.46
271.483	-4.27
271.698	48.98
271.914	-30.89
272.13	73.56
272.346	24.4
272.562	46.93
272.777	32.6
272.993	44.88
273.209	24.4
273.425	77.65
273.64	48.98
273.856	48.98
274.072	59.22
274.287	34.64
274.503	48.98
274.719	28.5
274.934	75.6
275.15	16.21
275.366	20.31
275.581	53.08
275.797	-49.32
276.012	71.51
276.228	-4.27
276.444	-0.17
276.659	87.89
276.875	-32.94
277.09	53.08
277.306	38.74
277.521	-61.61
277.737	34.64
277.952	69.46
278.168	34.64
278.383	73.56
278.599	-20.65
278.814	42.84
279.03	53.08
279.245	34.64
279.461	53.08
279.676	30.55
279.892	10.07
280.107	5.97
280.322	51.03
280.538	32.6
280.753	-57.51
280.969	46.93
281.184	-14.51
281.399	79.7
281.615	30.55
281.83	8.02
282.045	14.17
282.26	-4.27
282.476	75.6
282.691	-39.08
282.906	5.97
283.122	61.27
283.337	1.88
283.552	12.12
283.767	81.75
283.983	75.6
284.198	122.71
284.413	116.56
284.628	-8.36
284.843	81.75
285.058	5.97
285.274	46.93
285.489	53.08
285.704	-28.84
285.919	-32.94
286.134	14.17
286.349	5.97
286.564	-53.42
286.779	-8.36
286.995	-32.94
287.21	38.74
287.425	-0.17
287.64	-30.89
287.855	-0.17
288.07	12.12
288.285	46.93
288.5	-34.99
288.715	-10.41
288.93	87.89
289.145	61.27
289.36	8.02
289.575	40.79
289.79	81.75
290.004	28.5
290.219	61.27
290.434	12.12
290.649	30.55
290.864	8.02
291.079	-4.27
291.294	108.37
291.509	-30.89
291.724	71.51
291.938	-0.17
292.153	10.07
292.368	87.89
292.583	26.45
292.798	38.74
293.012	32.6
293.227	71.51
293.442	36.69
293.657	38.74
293.871	91.99
294.086	67.41
294.301	12.12
294.516	8.02
294.73	108.37
294.945	-0.17
295.16	-55.47
295.374	36.69
295.589	16.21
295.804	-2.22
296.018	-10.41
296.233	-10.41
296.447	28.5
296.662	-39.08
296.877	36.69
297.091	-18.6
297.306	10.07
297.52	30.55
297.735	12.12
297.949	34.64
298.164	36.69
298.378	22.36
298.593	-20.65
298.807	-32.94
299.022	-30.89
299.236	55.12
299.451	-43.18
299.665	-51.37
299.88	-8.36
300.094	51.03
300.309	1.88
300.523	102.23
300.737	-20.65
300.952	-16.55
301.166	36.69
301.381	-16.55
301.595	-10.41
301.809	85.84
302.024	26.45
302.238	71.51
302.452	-20.65
302.667	-0.17
302.881	57.17
303.095	12.12
303.309	-34.99
303.524	46.93
303.738	104.28
303.952	-41.13
304.166	42.84
304.381	36.69
304.595	40.79
304.809	14.17
305.023	91.99
305.237	-28.84
305.452	18.26
305.666	48.98
305.88	28.5
306.094	104.28
306.308	-12.46
306.522	-34.99
306.736	75.6
306.95	46.93
307.164	-0.17
307.379	38.74
307.593	77.65
307.807	38.74
308.021	-2.22
308.235	16.21
308.449	42.84
308.663	16.21
308.877	1.88
309.091	61.27
309.305	18.26
309.519	59.22
309.733	36.69
309.947	18.26
310.161	-18.6
310.374	-30.89
310.588	91.99
310.802	44.88
311.016	44.88
311.23	14.17
311.444	20.31
311.658	55.12
311.872	42.84
312.085	48.98
312.299	8.02
312.513	-4.27
312.727	46.93
312.941	14.17
313.154	40.79
313.368	20.31
313.582	71.51
313.796	-18.6
314.009	-8.36
314.223	-53.42
314.437	53.08
314.651	53.08
314.864	-43.18
315.078	77.65
315.292	26.45
315.505	-4.27
315.719	16.21
315.933	16.21
316.146	44.88
316.36	91.99
316.573	46.93
316.787	22.36
317.001	5.97
317.214	12.12
317.428	-6.31
317.641	-43.18
317.855	44.88
318.068	59.22
318.282	18.26
318.495	65.36
318.709	14.17
318.922	14.17
319.136	14.17
319.349	77.65
319.563	-2.22
319.776	110.42
319.99	-2.22
320.203	28.5
320.417	69.46
320.63	38.74
320.843	65.36
321.057	28.5
321.27	61.27
321.483	-26.79
321.697	55.12
321.91	10.07
322.124	18.26
322.337	57.17
322.55	1.88
322.763	16.21
322.977	65.36
323.19	-10.41
323.403	44.88
323.617	-8.36
323.83	77.65
324.043	32.6
324.256	63.32
324.469	10.07
324.683	-8.36
324.896	3.93
325.109	44.88
325.322	-18.6
325.535	87.89
325.748	67.41
325.962	12.12
326.175	-30.89
326.388	122.71
326.601	-4.27
326.814	8.02
327.027	-18.6
327.24	8.02
327.453	1.88
327.666	12.12
327.879	-24.75
328.092	20.31
328.305	-32.94
328.518	14.17
328.731	3.93
328.944	-39.08
329.157	5.97
329.37	-43.18
329.583	30.55
329.796	59.22
330.009	69.46
330.222	77.65
330.435	83.8
330.648	18.26
330.861	77.65
331.073	67.41
331.286	30.55
331.499	87.89
331.712	-22.7
331.925	28.5
332.138	42.84
332.35	114.52
332.563	-20.65
332.776	59.22
332.989	40.79
333.202	-55.47
333.414	22.36
333.627	44.88
333.84	83.8
334.053	5.97
334.265	12.12
334.478	53.08
334.691	-0.17
334.903	8.02
335.116	-16.55
335.329	-2.22
335.541	26.45
335.754	116.56
335.966	-10.41
336.179	67.41
336.392	-43.18
336.604	69.46
336.817	94.04
337.029	22.36
337.242	-41.13
337.454	61.27
337.667	71.51
337.88	87.89
338.092	65.36
338.305	53.08
338.517	-55.47
338.729	57.17
338.942	73.56
339.154	40.79
339.367	46.93
339.579	8.02
339.792	40.79
340.004	65.36
340.217	24.4
340.429	14.17
340.641	-14.51
340.854	44.88
341.066	-24.75
341.278	26.45
341.491	-10.41
341.703	-4.27
341.915	5.97
342.128	34.64
342.34	65.36
342.552	75.6
342.764	110.42
342.977	-4.27
343.189	34.64
343.401	44.88
343.613	5.97
343.826	26.45
344.038	42.84
344.25	-22.7
344.462	-14.51
344.674	36.69
344.886	-12.46
345.099	42.84
345.311	51.03
345.523	108.37
345.735	59.22
345.947	87.89
346.159	63.32
346.371	-69.8
346.583	-2.22
346.795	48.98
347.007	34.64
347.219	-8.36
347.431	46.93
347.643	73.56
347.855	48.98
348.067	44.88
348.279	12.12
348.491	26.45
348.703	20.31
348.915	-10.41
349.127	-22.7
349.339	-8.36
349.551	32.6
349.763	38.74
349.975	42.84
350.187	-28.84
350.399	34.64
350.61	18.26
350.822	-18.6
351.034	73.56
351.246	87.89
351.458	59.22
351.669	69.46
351.881	-24.75
352.093	46.93
352.305	77.65
352.517	34.64
352.728	28.5
352.94	79.7
353.152	73.56
353.363	-30.89
353.575	-8.36
353.787	-18.6
353.999	22.36
354.21	20.31
354.422	44.88
354.633	16.21
354.845	-20.65
355.057	-8.36
355.268	141.14
355.48	40.79
355.692	65.36
355.903	61.27
356.115	65.36
356.326	46.93
356.538	34.64
356.749	5.97
356.961	46.93
357.172	-12.46
357.384	-20.65
357.595	51.03
357.807	34.64
358.018	85.84
358.23	61.27
358.441	-10.41
358.653	12.12
358.864	-20.65
359.075	57.17
359.287	89.94
359.498	51.03
359.709	12.12
359.921	40.79
360.132	55.12
360.344	22.36
360.555	48.98
360.766	34.64
360.977	-8.36
361.189	40.79
361.4	102.23
361.611	137.04
361.823	34.64
362.034	26.45
362.245	40.79
362.456	67.41
362.667	46.93
362.879	44.88
363.09	10.07
363.301	81.75
363.512	-34.99
363.723	44.88
363.935	-47.27
364.146	55.12
364.357	-14.51
364.568	-18.6
364.779	79.7
364.99	104.28
365.201	51.03
365.412	83.8
365.623	12.12
365.834	51.03
366.045	77.65
366.256	20.31
366.467	14.17
366.678	-61.61
366.889	-47.27
367.1	57.17
367.311	46.93
367.522	61.27
367.733	1.88
367.944	59.22
368.155	-2.22
368.366	26.45
368.577	63.32
368.788	59.22
368.999	83.8
369.209	-18.6
369.42	10.07
369.631	28.5
369.842	40.79
370.053	36.69
370.264	16.21
370.474	-10.41
370.685	-51.37
370.896	75.6
371.107	36.69
371.317	48.98
371.528	55.12
371.739	24.4
371.95	20.31
372.16	77.65
372.371	51.03
372.582	5.97
372.792	89.94
373.003	77.65
373.214	-0.17
373.424	-8.36
373.635	14.17
373.846	67.41
374.056	53.08
374.267	36.69
374.477	24.4
374.688	40.79
374.898	28.5
375.109	55.12
375.319	38.74
375.53	48.98
375.74	-8.36
375.951	42.84
376.161	28.5
376.372	75.6
376.582	20.31
376.793	40.79
377.003	-26.79
377.214	20.31
377.424	28.5
377.635	3.93
377.845	85.84
378.055	110.42
378.266	57.17
378.476	77.65
378.686	42.84
378.897	53.08
379.107	118.61
379.317	36.69
379.528	51.03
379.738	18.26
379.948	69.46
380.158	55.12
380.369	38.74
380.579	71.51
380.789	8.02
380.999	48.98
381.21	55.12
381.42	124.76
381.63	32.6
381.84	20.31
382.05	16.21
382.261	44.88
382.471	65.36
382.681	65.36
382.891	20.31
383.101	63.32
383.311	20.31
383.521	24.4
383.731	87.89
383.941	-26.79
384.151	46.93
384.361	-22.7
384.571	32.6
384.781	32.6
384.991	87.89
385.201	85.84
385.411	-6.31
385.621	104.28
385.831	57.17
386.041	22.36
386.251	12.12
386.461	26.45
386.671	55.12
386.881	67.41
387.091	96.08
387.301	81.75
387.511	73.56
387.72	118.61
387.93	46.93
388.14	53.08
388.35	42.84
388.56	-0.17
388.769	48.98
388.979	34.64
389.189	-0.17
389.399	96.08
389.609	77.65
389.818	110.42
390.028	75.6
390.238	34.64
390.447	53.08
390.657	28.5
390.867	18.26
391.076	65.36
391.286	28.5
391.496	100.18
391.705	18.26
391.915	124.76
392.125	77.65
392.334	-18.6
392.544	-14.51
392.753	85.84
392.963	12.12
393.172	98.13
393.382	75.6
393.591	32.6
393.801	73.56
394.01	67.41
394.22	67.41
394.429	65.36
394.639	20.31
394.848	40.79
395.058	83.8
395.267	61.27
395.477	38.74
395.686	91.99
395.895	1.88
396.105	46.93
396.314	85.84
396.524	59.22
396.733	77.65
396.942	48.98
397.152	98.13
397.361	34.64
397.57	34.64
397.78	61.27
397.989	106.32
398.198	100.18
398.407	51.03
398.617	89.94
398.826	63.32
399.035	85.84
399.244	139.09
399.453	67.41
399.663	108.37
399.872	81.75
400.081	122.71
400.29	51.03
400.499	110.42
400.708	110.42
400.917	87.89
401.127	116.56
401.336	77.65
401.545	120.66
401.754	96.08
401.963	87.89
402.172	36.69
402.381	89.94
402.59	87.89
402.799	16.21
403.008	163.67
403.217	77.65
403.426	100.18
403.635	89.94
403.844	73.56
404.053	145.24
404.262	57.17
404.471	53.08
404.68	59.22
404.888	149.33
405.097	10.07
405.306	100.18
405.515	75.6
405.724	108.37
405.933	73.56
406.142	79.7
406.35	184.15
406.559	85.84
406.768	141.14
406.977	163.67
407.185	141.14
407.394	65.36
407.603	77.65
407.812	89.94
408.02	120.66
408.229	190.29
408.438	169.81
408.646	182.1
408.855	132.95
409.064	106.32
409.272	182.1
409.481	165.71
409.69	141.14
409.898	126.8
410.107	194.39
410.315	182.1
410.524	266.07
410.733	202.58
410.941	304.98
411.15	165.71
411.358	223.06
411.567	257.87
411.775	243.54
411.984	253.78
412.192	212.82
412.401	307.02
412.609	339.79
412.818	286.54
413.026	358.22
413.234	327.5
413.443	280.4
413.651	376.66
413.86	298.83
414.068	393.04
414.276	401.23
414.485	401.23
414.693	446.29
414.901	520.01
415.11	444.24
415.318	481.1
415.526	528.21
415.734	472.91
415.943	538.45
416.151	487.25
416.359	503.63
416.567	585.55
416.776	511.82
416.984	546.64
417.192	669.52
417.4	642.89
417.608	526.16
417.817	646.99
418.025	636.75
418.233	663.37
418.441	671.56
418.649	722.76
418.857	862.02
419.065	833.35
419.273	843.59
419.481	851.78
419.689	913.22
419.897	956.23
420.105	866.12
420.313	923.46
420.521	980.81
420.729	1048.39
420.937	1019.72
421.145	1099.59
421.353	1146.69
421.561	1173.32
421.769	1158.98
421.977	1191.75
422.185	1236.8
422.393	1304.39
422.601	1498.94
422.809	1343.3
423.017	1382.21
423.224	1478.46
423.432	1523.52
423.64	1511.23
423.848	1646.4
424.056	1593.15
424.263	1824.57
424.471	1750.84
424.679	1875.77
424.887	1881.91
425.094	1965.88
425.302	1916.73
425.51	1933.11
425.718	2142
425.925	2088.76
426.133	2174.77
426.341	2381.62
426.548	2383.66
426.756	2531.12
426.964	2563.89
427.171	2629.42
427.379	2637.61
427.586	2764.59
427.794	2750.25
428.001	2789.16
428.209	2934.57
428.417	2850.6
428.624	3196.71
428.832	3153.7
429.039	3186.47
429.247	3217.19
429.454	3473.18
429.662	3704.6
429.869	3432.22
430.076	3690.27
430.284	3653.41
430.491	3747.61
430.699	3983.13
430.906	3981.08
431.114	3995.42
431.321	4210.45
431.528	4220.69
431.736	4566.8
431.943	4759.31
432.15	4523.79
432.358	4642.57
432.565	4923.15
432.772	4998.92
432.979	4988.68
433.187	5306.12
433.394	5342.98
433.601	5547.78
433.808	5676.8
434.016	5564.16
434.223	5809.92
434.43	6162.17
434.637	6123.26
434.844	6383.35
435.052	6387.44
435.259	6504.18
435.466	6551.28
435.673	6358.77
435.88	6915.82
436.087	7196.39
436.294	7356.13
436.501	7128.81
436.708	7349.99
436.915	7382.76
437.122	7810.78
437.329	7798.49
437.537	7991
437.743	8265.43
437.95	8144.6
438.157	8445.65
438.364	8715.98
438.571	8771.28
438.778	8687.31
438.985	9559.75
439.192	9207.5
439.399	9475.78
439.606	9330.37
439.813	9987.77
440.02	10352.31
440.227	10497.72
440.433	10051.26
440.64	10534.58
440.847	10669.75
441.054	10780.34
441.261	11556.52
441.467	11263.66
441.674	11556.52
441.881	11896.48
442.088	11746.98
442.294	11951.77
442.501	12283.55
442.708	12480.15
442.914	12754.58
443.121	13315.72
443.328	13221.52
443.534	14102.14
443.741	13569.67
443.948	13569.67
444.154	14495.35
444.361	14411.39
444.568	14564.98
444.774	14505.59
444.981	14605.94
445.187	14921.33
445.394	15482.47
445.6	15330.92
445.807	16993.87
446.013	15937.12
446.22	16549.46
446.426	17071.7
446.633	17141.33
446.839	17946.18
447.046	17098.32
447.252	17843.78
447.459	18007.62
447.665	18187.84
447.871	18720.31
448.078	19705.38
448.284	18439.74
448.491	18890.29
448.697	19787.3
448.903	19828.26
449.11	20268.58
449.316	20094.5
449.522	19955.24
449.728	20624.92
449.935	20727.32
450.141	20749.85
450.347	21161.49
450.553	20366.88
450.76	20827.67
450.966	21657.1
451.172	21177.87
451.378	21671.43
451.584	21421.58
451.791	21796.36
451.997	21548.56
452.203	21986.82
452.409	22119.94
452.615	21820.94
452.821	21095.96
453.027	20932.12
453.233	21921.29
453.44	21028.37
453.646	21347.86
453.852	21315.09
454.058	21306.9
454.264	20966.93
454.47	21413.39
454.676	20770.33
454.882	21483.02
455.088	19637.8
455.294	20057.64
455.5	20002.34
455.705	20176.42
455.911	19504.68
456.117	19136.05
456.323	18986.55
456.529	17835.59
456.735	18658.87
456.941	17989.19
457.147	17866.31
457.352	17147.47
457.558	17143.38
457.764	17122.9
457.97	16664.15
458.176	16238.17
458.381	16547.42
458.587	15427.18
458.793	15738.47
458.999	14687.86
459.204	15646.31
459.41	15230.57
459.616	14556.79
459.821	14485.11
460.027	14245.5
460.233	13950.59
460.438	13315.72
460.644	13389.45
460.85	12967.57
461.055	12842.64
461.261	12676.76
461.466	11783.84
461.672	11255.47
461.878	12160.67
462.083	11175.59
462.289	11202.22
462.494	11062.96
462.7	10514.1
462.905	10256.06
463.111	10497.72
463.316	10616.5
463.522	10520.24
463.727	10563.25
463.932	10395.32
464.138	10448.57
464.343	10380.98
464.549	9981.63
464.754	10475.19
464.959	10403.51
465.165	10256.06
465.37	9619.14
465.575	9565.89
465.781	9973.44
465.986	10055.36
466.191	9637.57
466.397	9461.44
466.602	8840.91
466.807	9445.06
467.012	9524.93
467.218	9531.08
467.423	9236.17
467.628	9256.65
467.833	9750.21
468.038	9240.26
