Data from USB4F104151__119__13-55-02-986.txt Node

Date: Thu Mar 13 13:55:02 EDT 2025
User: louis
Spectrometer: USB4F10415
Trigger mode: 4
Integration Time (sec): 1.000000E-2
Scans to average: 1
Electric dark correction enabled: true
Nonlinearity correction enabled: false
Boxcar width: 0
XAxis mode: Wavelengths
Number of Pixels in Spectrum: 3648
>>>>>Begin Spectral Data<<<<<
178.204	-9.9
178.424	-9.9
178.644	-9.9
178.864	-77.48
179.084	-18.09
179.304	-46.76
179.524	-11.95
179.744	47.44
179.964	2.39
180.184	-9.9
180.404	26.96
180.624	14.68
180.844	24.92
181.064	-59.05
181.283	-40.62
181.503	20.82
181.723	31.06
181.943	6.49
182.163	49.49
182.383	-18.09
182.602	94.55
182.822	16.73
183.042	14.68
183.262	61.78
183.482	37.2
183.701	18.77
183.921	45.4
184.141	20.82
184.361	43.35
184.58	-54.95
184.8	65.88
185.02	24.92
185.239	-3.75
185.459	29.01
185.679	24.92
185.898	10.58
186.118	12.63
186.338	53.59
186.557	78.16
186.777	106.84
186.997	74.07
187.216	57.68
187.436	63.83
187.655	43.35
187.875	67.92
188.095	-16.04
188.314	59.73
188.534	69.97
188.753	6.49
188.973	84.31
189.192	65.88
189.412	98.64
189.631	74.07
189.851	4.44
190.07	100.69
190.29	12.63
190.509	16.73
190.729	31.06
190.948	2.39
191.168	67.92
191.387	55.64
191.607	6.49
191.826	39.25
192.045	74.07
192.265	33.11
192.484	35.16
192.704	24.92
192.923	-50.86
193.142	82.26
193.362	51.54
193.581	39.25
193.8	92.5
194.02	59.73
194.239	35.16
194.458	-1.71
194.678	37.2
194.897	49.49
195.116	35.16
195.335	63.83
195.555	51.54
195.774	72.02
195.993	41.3
196.212	74.07
196.432	106.84
196.651	24.92
196.87	69.97
197.089	80.21
197.308	53.59
197.528	72.02
197.747	55.64
197.966	2.39
198.185	55.64
198.404	78.16
198.623	69.97
198.842	39.25
199.062	43.35
199.281	43.35
199.5	22.87
199.719	127.32
199.938	2.39
200.157	-3.75
200.376	6.49
200.595	47.44
200.814	18.77
201.033	80.21
201.252	92.5
201.471	37.2
201.69	55.64
201.909	43.35
202.128	-7.85
202.347	0.34
202.566	14.68
202.785	33.11
203.004	51.54
203.223	78.16
203.442	35.16
203.661	63.83
203.879	69.97
204.098	104.79
204.317	-28.33
204.536	98.64
204.755	37.2
204.974	49.49
205.193	12.63
205.411	74.07
205.63	49.49
205.849	-1.71
206.068	47.44
206.287	67.92
206.505	51.54
206.724	82.26
206.943	-3.75
207.162	43.35
207.381	31.06
207.599	2.39
207.818	-32.43
208.037	69.97
208.255	10.58
208.474	-3.75
208.693	57.68
208.911	26.96
209.13	41.3
209.349	22.87
209.567	35.16
209.786	41.3
210.005	72.02
210.223	-13.99
210.442	51.54
210.661	63.83
210.879	96.6
211.098	31.06
211.316	-9.9
211.535	76.12
211.753	55.64
211.972	90.45
212.191	53.59
212.409	6.49
212.628	-5.8
212.846	-30.38
213.065	67.92
213.283	82.26
213.502	72.02
213.72	33.11
213.938	-36.52
214.157	39.25
214.375	47.44
214.594	4.44
214.812	67.92
215.031	86.36
215.249	-9.9
215.467	24.92
215.686	-1.71
215.904	76.12
216.122	63.83
216.341	92.5
216.559	-1.71
216.778	69.97
216.996	18.77
217.214	102.74
217.432	41.3
217.651	55.64
217.869	51.54
218.087	49.49
218.306	82.26
218.524	78.16
218.742	8.53
218.96	53.59
219.179	110.93
219.397	35.16
219.615	53.59
219.833	29.01
220.051	69.97
220.27	92.5
220.488	100.69
220.706	41.3
220.924	10.58
221.142	22.87
221.36	59.73
221.578	90.45
221.796	84.31
222.015	86.36
222.233	0.34
222.451	-30.38
222.669	26.96
222.887	10.58
223.105	12.63
223.323	72.02
223.541	45.4
223.759	100.69
223.977	45.4
224.195	35.16
224.413	6.49
224.631	96.6
224.849	6.49
225.067	59.73
225.285	80.21
225.503	0.34
225.721	10.58
225.939	63.83
226.157	98.64
226.375	47.44
226.592	49.49
226.81	49.49
227.028	-24.23
227.246	26.96
227.464	57.68
227.682	86.36
227.9	45.4
228.117	35.16
228.335	-61.1
228.553	61.78
228.771	57.68
228.989	39.25
229.206	8.53
229.424	78.16
229.642	-30.38
229.86	-24.23
230.077	88.4
230.295	129.36
230.513	16.73
230.731	43.35
230.948	55.64
231.166	24.92
231.384	108.88
231.601	4.44
231.819	98.64
232.037	41.3
232.254	67.92
232.472	80.21
232.689	45.4
232.907	12.63
233.125	-5.8
233.342	22.87
233.56	6.49
233.777	26.96
233.995	26.96
234.213	-18.09
234.43	39.25
234.648	67.92
234.865	47.44
235.083	90.45
235.3	-34.47
235.518	69.97
235.735	86.36
235.953	86.36
236.17	-26.28
236.388	53.59
236.605	69.97
236.822	67.92
237.04	63.83
237.257	74.07
237.475	100.69
237.692	-7.85
237.909	84.31
238.127	84.31
238.344	12.63
238.562	108.88
238.779	33.11
238.996	74.07
239.214	59.73
239.431	0.34
239.648	39.25
239.865	51.54
240.083	61.78
240.3	69.97
240.517	86.36
240.735	49.49
240.952	106.84
241.169	26.96
241.386	147.8
241.603	133.46
241.821	43.35
242.038	33.11
242.255	98.64
242.472	67.92
242.689	65.88
242.907	51.54
243.124	86.36
243.341	41.3
243.558	92.5
243.775	37.2
243.992	8.53
244.209	102.74
244.426	37.2
244.643	67.92
244.86	18.77
245.078	104.79
245.295	123.22
245.512	55.64
245.729	0.34
245.946	63.83
246.163	-5.8
246.38	31.06
246.597	106.84
246.814	24.92
247.031	92.5
247.248	151.89
247.464	61.78
247.681	63.83
247.898	-5.8
248.115	69.97
248.332	-28.33
248.549	61.78
248.766	22.87
248.983	24.92
249.2	47.44
249.417	49.49
249.633	39.25
249.85	65.88
250.067	43.35
250.284	35.16
250.501	43.35
250.717	22.87
250.934	61.78
251.151	110.93
251.368	49.49
251.585	6.49
251.801	98.64
252.018	-63.15
252.235	112.98
252.451	47.44
252.668	29.01
252.885	10.58
253.102	45.4
253.318	43.35
253.535	18.77
253.752	106.84
253.968	0.34
254.185	33.11
254.401	78.16
254.618	29.01
254.835	41.3
255.051	53.59
255.268	86.36
255.484	67.92
255.701	51.54
255.917	88.4
256.134	112.98
256.351	-5.8
256.567	53.59
256.784	45.4
257	53.59
257.217	-13.99
257.433	153.94
257.65	74.07
257.866	41.3
258.082	61.78
258.299	102.74
258.515	24.92
258.732	20.82
258.948	45.4
259.165	26.96
259.381	33.11
259.597	78.16
259.814	47.44
260.03	2.39
260.246	18.77
260.463	86.36
260.679	45.4
260.895	10.58
261.112	10.58
261.328	49.49
261.544	80.21
261.761	45.4
261.977	43.35
262.193	59.73
262.409	106.84
262.626	33.11
262.842	57.68
263.058	16.73
263.274	96.6
263.49	4.44
263.707	57.68
263.923	29.01
264.139	6.49
264.355	104.79
264.571	110.93
264.787	88.4
265.004	31.06
265.22	31.06
265.436	26.96
265.652	51.54
265.868	55.64
266.084	57.68
266.3	37.2
266.516	31.06
266.732	45.4
266.948	55.64
267.164	57.68
267.38	82.26
267.596	45.4
267.812	-9.9
268.028	57.68
268.244	0.34
268.46	149.84
268.676	2.39
268.892	115.03
269.108	29.01
269.324	78.16
269.54	39.25
269.756	84.31
269.972	57.68
270.188	20.82
270.403	22.87
270.619	18.77
270.835	35.16
271.051	125.27
271.267	22.87
271.483	-11.95
271.698	29.01
271.914	100.69
272.13	20.82
272.346	37.2
272.562	10.58
272.777	-3.75
272.993	-26.28
273.209	49.49
273.425	72.02
273.64	47.44
273.856	24.92
274.072	33.11
274.287	53.59
274.503	6.49
274.719	84.31
274.934	26.96
275.15	26.96
275.366	115.03
275.581	43.35
275.797	55.64
276.012	33.11
276.228	39.25
276.444	78.16
276.659	16.73
276.875	49.49
277.09	8.53
277.306	-22.19
277.521	106.84
277.737	88.4
277.952	94.55
278.168	104.79
278.383	65.88
278.599	16.73
278.814	35.16
279.03	31.06
279.245	108.88
279.461	76.12
279.676	115.03
279.892	57.68
280.107	65.88
280.322	6.49
280.538	24.92
280.753	104.79
280.969	53.59
281.184	53.59
281.399	-5.8
281.615	53.59
281.83	10.58
282.045	43.35
282.26	31.06
282.476	49.49
282.691	139.6
282.906	-3.75
283.122	37.2
283.337	-1.71
283.552	18.77
283.767	72.02
283.983	94.55
284.198	37.2
284.413	47.44
284.628	88.4
284.843	-7.85
285.058	61.78
285.274	35.16
285.489	61.78
285.704	14.68
285.919	100.69
286.134	20.82
286.349	119.12
286.564	4.44
286.779	41.3
286.995	14.68
287.21	72.02
287.425	102.74
287.64	37.2
287.855	53.59
288.07	45.4
288.285	33.11
288.5	0.34
288.715	94.55
288.93	24.92
289.145	59.73
289.36	61.78
289.575	47.44
289.79	-3.75
290.004	-13.99
290.219	82.26
290.434	-13.99
290.649	-34.47
290.864	8.53
291.079	41.3
291.294	20.82
291.509	84.31
291.724	26.96
291.938	14.68
292.153	90.45
292.368	31.06
292.583	67.92
292.798	100.69
293.012	-5.8
293.227	10.58
293.442	121.17
293.657	18.77
293.871	72.02
294.086	43.35
294.301	59.73
294.516	51.54
294.73	31.06
294.945	-7.85
295.16	33.11
295.374	45.4
295.589	121.17
295.804	112.98
296.018	35.16
296.233	82.26
296.447	-9.9
296.662	86.36
296.877	106.84
297.091	37.2
297.306	57.68
297.52	55.64
297.735	72.02
297.949	8.53
298.164	20.82
298.378	14.68
298.593	10.58
298.807	86.36
299.022	-28.33
299.236	61.78
299.451	39.25
299.665	92.5
299.88	12.63
300.094	110.93
300.309	8.53
300.523	24.92
300.737	102.74
300.952	72.02
301.166	2.39
301.381	47.44
301.595	35.16
301.809	-16.04
302.024	43.35
302.238	35.16
302.452	80.21
302.667	82.26
302.881	129.36
303.095	0.34
303.309	22.87
303.524	115.03
303.738	65.88
303.952	8.53
304.166	41.3
304.381	51.54
304.595	45.4
304.809	33.11
305.023	57.68
305.237	74.07
305.452	115.03
305.666	53.59
305.88	-1.71
306.094	69.97
306.308	47.44
306.522	20.82
306.736	96.6
306.95	41.3
307.164	26.96
307.379	37.2
307.593	10.58
307.807	55.64
308.021	92.5
308.235	78.16
308.449	63.83
308.663	26.96
308.877	129.36
309.091	78.16
309.305	125.27
309.519	-63.15
309.733	49.49
309.947	29.01
310.161	41.3
310.374	-26.28
310.588	86.36
310.802	139.6
311.016	65.88
311.23	-1.71
311.444	4.44
311.658	-26.28
311.872	74.07
312.085	90.45
312.299	102.74
312.513	43.35
312.727	115.03
312.941	65.88
313.154	106.84
313.368	131.41
313.582	24.92
313.796	20.82
314.009	47.44
314.223	90.45
314.437	35.16
314.651	74.07
314.864	26.96
315.078	65.88
315.292	61.78
315.505	33.11
315.719	74.07
315.933	29.01
316.146	121.17
316.36	22.87
316.573	86.36
316.787	39.25
317.001	37.2
317.214	69.97
317.428	20.82
317.641	39.25
317.855	129.36
318.068	2.39
318.282	137.56
318.495	55.64
318.709	22.87
318.922	90.45
319.136	80.21
319.349	69.97
319.563	80.21
319.776	33.11
319.99	80.21
320.203	22.87
320.417	12.63
320.63	115.03
320.843	53.59
321.057	53.59
321.27	35.16
321.483	65.88
321.697	78.16
321.91	65.88
322.124	82.26
322.337	24.92
322.55	39.25
322.763	112.98
322.977	49.49
323.19	-18.09
323.403	65.88
323.617	96.6
323.83	82.26
324.043	-48.81
324.256	123.22
324.469	55.64
324.683	65.88
324.896	59.73
325.109	29.01
325.322	57.68
325.535	-1.71
325.748	84.31
325.962	96.6
326.175	76.12
326.388	39.25
326.601	88.4
326.814	90.45
327.027	86.36
327.24	53.59
327.453	43.35
327.666	61.78
327.879	43.35
328.092	119.12
328.305	65.88
328.518	51.54
328.731	63.83
328.944	90.45
329.157	78.16
329.37	22.87
329.583	0.34
329.796	78.16
330.009	63.83
330.222	51.54
330.435	49.49
330.648	78.16
330.861	80.21
331.073	47.44
331.286	121.17
331.499	37.2
331.712	24.92
331.925	96.6
332.138	108.88
332.35	63.83
332.563	47.44
332.776	39.25
332.989	61.78
333.202	123.22
333.414	39.25
333.627	110.93
333.84	67.92
334.053	119.12
334.265	0.34
334.478	61.78
334.691	26.96
334.903	164.18
335.116	35.16
335.329	90.45
335.541	65.88
335.754	90.45
335.966	22.87
336.179	121.17
336.392	82.26
336.604	43.35
336.817	98.64
337.029	-7.85
337.242	35.16
337.454	76.12
337.667	100.69
337.88	47.44
338.092	65.88
338.305	6.49
338.517	110.93
338.729	49.49
338.942	74.07
339.154	88.4
339.367	47.44
339.579	67.92
339.792	82.26
340.004	-11.95
340.217	65.88
340.429	51.54
340.641	84.31
340.854	82.26
341.066	88.4
341.278	24.92
341.491	14.68
341.703	94.55
341.915	-7.85
342.128	61.78
342.34	18.77
342.552	65.88
342.764	74.07
342.977	82.26
343.189	108.88
343.401	112.98
343.613	63.83
343.826	92.5
344.038	51.54
344.25	90.45
344.462	65.88
344.674	53.59
344.886	112.98
345.099	125.27
345.311	-22.19
345.523	72.02
345.735	43.35
345.947	74.07
346.159	94.55
346.371	43.35
346.583	112.98
346.795	51.54
347.007	102.74
347.219	82.26
347.431	29.01
347.643	90.45
347.855	78.16
348.067	-7.85
348.279	121.17
348.491	86.36
348.703	53.59
348.915	108.88
349.127	24.92
349.339	82.26
349.551	41.3
349.763	33.11
349.975	29.01
350.187	31.06
350.399	90.45
350.61	84.31
350.822	51.54
351.034	18.77
351.246	67.92
351.458	14.68
351.669	29.01
351.881	188.75
352.093	84.31
352.305	18.77
352.517	12.63
352.728	55.64
352.94	69.97
353.152	84.31
353.363	86.36
353.575	98.64
353.787	104.79
353.999	31.06
354.21	43.35
354.422	63.83
354.633	100.69
354.845	63.83
355.057	47.44
355.268	22.87
355.48	119.12
355.692	63.83
355.903	63.83
356.115	59.73
356.326	35.16
356.538	106.84
356.749	63.83
356.961	117.08
357.172	112.98
357.384	47.44
357.595	84.31
357.807	24.92
358.018	72.02
358.23	6.49
358.441	112.98
358.653	108.88
358.864	129.36
359.075	29.01
359.287	135.51
359.498	65.88
359.709	51.54
359.921	112.98
360.132	65.88
360.344	106.84
360.555	100.69
360.766	-42.67
360.977	72.02
361.189	84.31
361.4	49.49
361.611	45.4
361.823	106.84
362.034	41.3
362.245	47.44
362.456	65.88
362.667	43.35
362.879	100.69
363.09	74.07
363.301	67.92
363.512	-18.09
363.723	18.77
363.935	26.96
364.146	86.36
364.357	49.49
364.568	90.45
364.779	26.96
364.99	55.64
365.201	69.97
365.412	96.6
365.623	35.16
365.834	65.88
366.045	-16.04
366.256	39.25
366.467	90.45
366.678	74.07
366.889	41.3
367.1	137.56
367.311	86.36
367.522	53.59
367.733	98.64
367.944	53.59
368.155	90.45
368.366	74.07
368.577	117.08
368.788	63.83
368.999	45.4
369.209	8.53
369.42	125.27
369.631	90.45
369.842	100.69
370.053	139.6
370.264	108.88
370.474	65.88
370.685	92.5
370.896	51.54
371.107	96.6
371.317	12.63
371.528	82.26
371.739	65.88
371.95	61.78
372.16	119.12
372.371	67.92
372.582	96.6
372.792	82.26
373.003	6.49
373.214	80.21
373.424	74.07
373.635	86.36
373.846	80.21
374.056	115.03
374.267	84.31
374.477	43.35
374.688	112.98
374.898	-1.71
375.109	41.3
375.319	143.7
375.53	96.6
375.74	24.92
375.951	69.97
376.161	55.64
376.372	76.12
376.582	16.73
376.793	84.31
377.003	106.84
377.214	72.02
377.424	6.49
377.635	43.35
377.845	14.68
378.055	55.64
378.266	61.78
378.476	119.12
378.686	137.56
378.897	115.03
379.107	16.73
379.317	33.11
379.528	90.45
379.738	123.22
379.948	67.92
380.158	74.07
380.369	35.16
380.579	67.92
380.789	8.53
380.999	41.3
381.21	69.97
381.42	14.68
381.63	162.13
381.84	57.68
382.05	55.64
382.261	131.41
382.471	2.39
382.681	43.35
382.891	92.5
383.101	53.59
383.311	110.93
383.521	67.92
383.731	112.98
383.941	59.73
384.151	57.68
384.361	119.12
384.571	90.45
384.781	96.6
384.991	131.41
385.201	78.16
385.411	119.12
385.621	117.08
385.831	100.69
386.041	80.21
386.251	37.2
386.461	145.75
386.671	37.2
386.881	4.44
387.091	39.25
387.301	49.49
387.511	90.45
387.72	63.83
387.93	135.51
388.14	57.68
388.35	88.4
388.56	49.49
388.769	123.22
388.979	96.6
389.189	41.3
389.399	186.71
389.609	119.12
389.818	100.69
390.028	59.73
390.238	98.64
390.447	90.45
390.657	117.08
390.867	74.07
391.076	72.02
391.286	92.5
391.496	170.32
391.705	102.74
391.915	98.64
392.125	100.69
392.334	149.84
392.544	98.64
392.753	102.74
392.963	131.41
393.172	119.12
393.382	151.89
393.591	137.56
393.801	47.44
394.01	141.65
394.22	110.93
394.429	110.93
394.639	76.12
394.848	139.6
395.058	84.31
395.267	112.98
395.477	112.98
395.686	143.7
395.895	117.08
396.105	80.21
396.314	31.06
396.524	90.45
396.733	110.93
396.942	112.98
397.152	158.03
397.361	133.46
397.57	102.74
397.78	84.31
397.989	100.69
398.198	151.89
398.407	121.17
398.617	147.8
398.826	88.4
399.035	78.16
399.244	104.79
399.453	151.89
399.663	47.44
399.872	131.41
400.081	125.27
400.29	80.21
400.499	123.22
400.708	59.73
400.917	198.99
401.127	141.65
401.336	92.5
401.545	160.08
401.754	147.8
401.963	86.36
402.172	188.75
402.381	63.83
402.59	162.13
402.799	117.08
403.008	88.4
403.217	131.41
403.426	160.08
403.635	133.46
403.844	147.8
404.053	162.13
404.262	151.89
404.471	231.76
404.68	190.8
404.888	168.27
405.097	184.66
405.306	184.66
405.515	225.62
405.724	213.33
405.933	147.8
406.142	219.47
406.35	176.47
406.559	297.3
406.768	184.66
406.977	194.9
407.185	196.95
407.394	258.39
407.603	196.95
407.812	186.71
408.02	338.26
408.229	254.29
408.438	194.9
408.646	313.68
408.855	266.58
409.064	325.97
409.272	231.76
409.481	307.54
409.69	287.06
409.898	268.63
410.107	323.92
410.315	354.64
410.524	309.58
410.733	409.94
410.941	373.07
411.15	334.16
411.358	399.7
411.567	448.85
411.775	397.65
411.984	420.17
412.192	446.8
412.401	516.43
412.609	485.71
412.818	512.33
413.026	528.72
413.234	491.85
413.443	522.57
413.651	557.39
413.86	600.4
414.068	635.21
414.276	657.74
414.485	614.73
414.693	700.75
414.901	725.32
415.11	704.84
415.318	680.27
415.526	792.91
415.734	811.34
415.943	844.1
416.151	923.98
416.359	797
416.567	928.07
416.776	901.45
416.984	913.74
417.192	1018.18
417.4	1005.89
417.608	1081.67
417.817	1081.67
418.025	1050.95
418.233	1151.3
418.441	1157.44
418.649	1306.95
418.857	1323.33
419.065	1370.43
419.273	1354.05
419.481	1427.78
419.689	1487.17
419.897	1470.78
420.105	1505.6
420.313	1581.37
420.521	1630.52
420.729	1577.28
420.937	1849.66
421.145	1796.41
421.353	1882.42
421.561	1970.49
421.769	2187.57
421.977	2083.13
422.185	2036.02
422.393	2259.25
422.601	2296.11
422.809	2279.73
423.017	2228.53
423.224	2380.08
423.432	2414.9
423.64	2447.66
423.848	2836.78
424.056	2734.38
424.263	2957.61
424.471	2877.74
424.679	3094.82
424.887	3172.64
425.094	3217.7
425.302	3119.4
425.51	3281.19
425.718	3430.69
425.925	3404.07
426.133	3563.81
426.341	3782.94
426.548	4081.94
426.756	3995.93
426.964	4014.36
427.171	4178.2
427.379	4413.71
427.586	4438.29
427.794	4618.51
428.001	4696.33
428.209	5118.22
428.417	4931.85
428.624	5351.68
428.832	5427.46
429.039	5177.61
429.247	5255.43
429.454	5703.93
429.662	6154.49
429.869	5718.27
430.076	6004.99
430.284	5898.49
430.491	6258.93
430.699	6459.63
430.906	6310.13
431.114	6797.55
431.321	6641.9
431.528	6973.67
431.736	7387.36
431.943	7657.7
432.15	7430.37
432.358	7633.12
432.565	8071.39
432.772	8198.36
432.979	8446.16
433.187	8614.1
433.394	8573.14
433.601	9167.05
433.808	9191.63
434.016	9146.57
434.223	9621.7
434.43	10121.4
434.637	9840.83
434.844	10475.7
435.052	10811.57
435.259	10660.02
435.466	10795.18
435.673	10762.42
435.88	11432.1
436.087	12107.93
436.294	11901.09
436.501	11671.72
436.708	12083.36
436.915	12316.83
437.122	13072.53
437.329	13041.81
437.537	13269.13
437.743	13746.31
437.95	13430.92
438.157	14129.28
438.364	14497.91
438.571	14596.21
438.778	14657.65
438.985	15908.96
439.192	15161.45
439.399	15835.24
439.606	15562.86
439.813	16361.56
440.02	17537.1
440.227	16978
440.433	16584.79
440.64	17369.16
440.847	17297.49
441.054	17625.16
441.261	18806.84
441.467	18870.33
441.674	19177.52
441.881	19734.57
442.088	19769.38
442.294	19441.71
442.501	19841.06
442.708	20195.36
442.914	21063.7
443.121	21915.65
443.328	21401.61
443.534	22970.36
443.741	22388.74
443.948	21823.5
444.154	23558.13
444.361	23246.83
444.568	23724.01
444.774	23726.06
444.981	23982.06
445.187	24704.99
445.394	25978.82
445.6	25333.71
445.807	27776.94
446.013	26558.4
446.22	26957.75
446.426	28190.63
446.633	28370.85
446.839	29530
447.046	27881.39
447.252	29853.58
447.459	29781.9
447.665	29538.19
447.871	30828.41
448.078	31860.59
448.284	30246.79
448.491	31299.45
448.697	32382.82
448.903	33052.51
449.11	33478.49
449.316	32741.22
449.522	33271.64
449.728	33961.81
449.935	34293.58
450.141	34537.29
450.347	35067.71
450.553	33990.48
450.76	34572.1
450.966	35909.43
451.172	35309.37
451.378	35917.62
451.584	35495.74
451.791	35895.09
451.997	36218.67
452.203	36831.01
452.409	36394.79
452.615	36650.79
452.821	35325.75
453.027	34785.09
453.233	36368.17
453.44	35084.09
453.646	35491.64
453.852	35411.77
454.058	35936.05
454.264	34897.73
454.47	35782.45
454.676	34537.29
454.882	36003.63
455.088	33304.41
455.294	33687.38
455.5	33824.59
455.705	34441.03
455.911	32972.64
456.117	32286.57
456.323	31797.1
456.529	30154.63
456.735	31397.75
456.941	30717.82
457.147	30089.1
457.352	29161.37
457.558	29044.63
457.764	29144.98
457.97	28604.32
458.176	27942.83
458.381	27830.19
458.587	26451.91
458.793	26752.96
458.999	25309.14
459.204	27068.34
459.41	26081.22
459.616	24285.15
459.821	24426.46
460.027	24369.12
460.233	23930.86
460.438	22677.5
460.644	23060.47
460.85	21903.37
461.055	21655.56
461.261	21491.73
461.466	19961.89
461.672	19318.83
461.878	20789.27
462.083	19398.7
462.289	19066.93
462.494	18841.65
462.7	18038.85
462.905	17870.92
463.111	18094.15
463.316	18225.22
463.522	17881.16
463.727	17739.85
463.932	17610.82
464.138	17516.62
464.343	17612.87
464.549	17236.05
464.754	17817.67
464.959	17625.16
465.165	17223.76
465.37	16898.13
465.575	16132.19
465.781	16980.05
465.986	17049.68
466.191	16308.32
466.397	16199.77
466.602	15650.92
466.807	15921.25
467.012	15839.33
467.218	15790.18
467.423	15657.06
467.628	15695.97
