Data from USB4F104151__46__13-53-23-038.txt Node

Date: Thu Mar 13 13:53:23 EDT 2025
User: louis
Spectrometer: USB4F10415
Trigger mode: 4
Integration Time (sec): 1.000000E-2
Scans to average: 1
Electric dark correction enabled: true
Nonlinearity correction enabled: false
Boxcar width: 0
XAxis mode: Wavelengths
Number of Pixels in Spectrum: 3648
>>>>>Begin Spectral Data<<<<<
178.204	-49.83
178.424	-49.83
178.644	-49.83
178.864	21.85
179.084	-4.78
179.304	87.38
179.524	-2.73
179.744	11.61
179.964	36.18
180.184	-19.11
180.404	-21.16
180.624	-35.5
180.844	11.61
181.064	-2.73
181.283	5.46
181.503	-21.16
181.723	-49.83
181.943	13.65
182.163	5.46
182.383	-29.35
182.602	40.28
182.822	25.94
183.042	34.13
183.262	42.32
183.482	-55.98
183.701	15.7
183.921	19.8
184.141	-45.74
184.361	52.56
184.58	118.1
184.8	25.94
185.02	30.04
185.239	3.41
185.459	-2.73
185.679	32.08
185.898	-41.64
186.118	-17.07
186.338	-4.78
186.557	79.19
186.777	50.52
186.997	34.13
187.216	-15.02
187.436	27.99
187.655	5.46
187.875	27.99
188.095	42.32
188.314	-2.73
188.534	58.71
188.753	3.41
188.973	-12.97
189.192	66.9
189.412	9.56
189.631	-64.17
189.851	-25.26
190.07	38.23
190.29	-8.87
190.509	44.37
190.729	-41.64
190.948	-35.5
191.168	27.99
191.387	52.56
191.607	42.32
191.826	-10.92
192.045	-21.16
192.265	-15.02
192.484	-12.97
192.704	34.13
192.923	25.94
193.142	79.19
193.362	11.61
193.581	15.7
193.8	-17.07
194.02	34.13
194.239	32.08
194.458	27.99
194.678	58.71
194.897	34.13
195.116	-43.69
195.335	71
195.555	34.13
195.774	34.13
195.993	-53.93
196.212	27.99
196.432	7.51
196.651	5.46
196.87	75.09
197.089	44.37
197.308	9.56
197.528	50.52
197.747	54.61
197.966	73.04
198.185	68.95
198.404	17.75
198.623	-51.88
198.842	11.61
199.062	13.65
199.281	23.89
199.5	30.04
199.719	54.61
199.938	27.99
200.157	-39.59
200.376	93.52
200.595	38.23
200.814	56.66
201.033	-4.78
201.252	11.61
201.471	1.37
201.69	34.13
201.909	-27.31
202.128	46.42
202.347	-4.78
202.566	-43.69
202.785	79.19
203.004	7.51
203.223	19.8
203.442	32.08
203.661	44.37
203.879	75.09
204.098	5.46
204.317	25.94
204.536	48.47
204.755	48.47
204.974	44.37
205.193	-15.02
205.411	101.72
205.63	46.42
205.849	58.71
206.068	44.37
206.287	46.42
206.505	46.42
206.724	19.8
206.943	89.43
207.162	44.37
207.381	75.09
207.599	19.8
207.818	-64.17
208.037	44.37
208.255	36.18
208.474	21.85
208.693	-33.45
208.911	-15.02
209.13	46.42
209.349	58.71
209.567	66.9
209.786	42.32
210.005	7.51
210.223	-29.35
210.442	11.61
210.661	15.7
210.879	-4.78
211.098	19.8
211.316	81.24
211.535	-2.73
211.753	-21.16
211.972	32.08
212.191	7.51
212.409	-15.02
212.628	-27.31
212.846	50.52
213.065	-25.26
213.283	52.56
213.502	36.18
213.72	19.8
213.938	-0.68
214.157	-2.73
214.375	42.32
214.594	114
214.812	7.51
215.031	-10.92
215.249	1.37
215.467	17.75
215.686	-15.02
215.904	75.09
216.122	-31.4
216.341	36.18
216.559	-51.88
216.778	38.23
216.996	17.75
217.214	42.32
217.432	5.46
217.651	73.04
217.869	34.13
218.087	109.91
218.306	7.51
218.524	-23.21
218.742	-0.68
218.96	66.9
219.179	52.56
219.397	19.8
219.615	15.7
219.833	40.28
220.051	-39.59
220.27	38.23
220.488	27.99
220.706	36.18
220.924	-15.02
221.142	11.61
221.36	-19.11
221.578	9.56
221.796	25.94
222.015	-23.21
222.233	-19.11
222.451	27.99
222.669	-0.68
222.887	23.89
223.105	-19.11
223.323	-19.11
223.541	-43.69
223.759	23.89
223.977	60.76
224.195	87.38
224.413	-25.26
224.631	58.71
224.849	40.28
225.067	21.85
225.285	-12.97
225.503	21.85
225.721	34.13
225.939	-8.87
226.157	-84.65
226.375	60.76
226.592	-10.92
226.81	-15.02
227.028	50.52
227.246	68.95
227.464	1.37
227.682	38.23
227.9	19.8
228.117	36.18
228.335	73.04
228.553	-88.75
228.771	75.09
228.989	13.65
229.206	54.61
229.424	3.41
229.642	21.85
229.86	-12.97
230.077	25.94
230.295	93.52
230.513	105.81
230.731	17.75
230.948	64.85
231.166	-35.5
231.384	-33.45
231.601	-55.98
231.819	-19.11
232.037	71
232.254	25.94
232.472	17.75
232.689	-29.35
232.907	-45.74
233.125	-8.87
233.342	83.28
233.56	60.76
233.777	-72.36
233.995	27.99
234.213	62.8
234.43	7.51
234.648	11.61
234.865	66.9
235.083	36.18
235.3	34.13
235.518	38.23
235.735	9.56
235.953	-4.78
236.17	58.71
236.388	-0.68
236.605	-10.92
236.822	-8.87
237.04	75.09
237.257	-4.78
237.475	50.52
237.692	-15.02
237.909	1.37
238.127	48.47
238.344	-21.16
238.562	17.75
238.779	11.61
238.996	50.52
239.214	13.65
239.431	38.23
239.648	-6.83
239.865	44.37
240.083	34.13
240.3	25.94
240.517	-72.36
240.735	36.18
240.952	68.95
241.169	21.85
241.386	7.51
241.603	40.28
241.821	-45.74
242.038	-19.11
242.255	32.08
242.472	13.65
242.689	19.8
242.907	-0.68
243.124	77.14
243.341	58.71
243.558	-62.12
243.775	62.8
243.992	-23.21
244.209	7.51
244.426	-23.21
244.643	85.33
244.86	40.28
245.078	19.8
245.295	30.04
245.512	71
245.729	40.28
245.946	-53.93
246.163	66.9
246.38	-17.07
246.597	1.37
246.814	25.94
247.031	9.56
247.248	56.66
247.464	1.37
247.681	32.08
247.898	30.04
248.115	23.89
248.332	50.52
248.549	13.65
248.766	42.32
248.983	30.04
249.2	38.23
249.417	-19.11
249.633	77.14
249.85	-17.07
250.067	-19.11
250.284	19.8
250.501	-17.07
250.717	-17.07
250.934	-2.73
251.151	-0.68
251.368	-21.16
251.585	36.18
251.801	30.04
252.018	34.13
252.235	71
252.451	21.85
252.668	62.8
252.885	-4.78
253.102	3.41
253.318	17.75
253.535	-35.5
253.752	56.66
253.968	9.56
254.185	50.52
254.401	36.18
254.618	5.46
254.835	34.13
255.051	34.13
255.268	38.23
255.484	23.89
255.701	-76.46
255.917	46.42
256.134	38.23
256.351	-25.26
256.567	-31.4
256.784	-27.31
257	-33.45
257.217	48.47
257.433	46.42
257.65	116.05
257.866	-6.83
258.082	40.28
258.299	-37.55
258.515	44.37
258.732	81.24
258.948	48.47
259.165	42.32
259.381	38.23
259.597	15.7
259.814	50.52
260.03	-8.87
260.246	-27.31
260.463	34.13
260.679	1.37
260.895	7.51
261.112	1.37
261.328	-33.45
261.544	25.94
261.761	58.71
261.977	21.85
262.193	42.32
262.409	91.48
262.626	-2.73
262.842	-60.07
263.058	1.37
263.274	68.95
263.49	-10.92
263.707	66.9
263.923	-10.92
264.139	25.94
264.355	-31.4
264.571	71
264.787	44.37
265.004	114
265.22	19.8
265.436	15.7
265.652	25.94
265.868	52.56
266.084	48.47
266.3	-4.78
266.516	-37.55
266.732	15.7
266.948	7.51
267.164	66.9
267.38	3.41
267.596	46.42
267.812	9.56
268.028	-8.87
268.244	64.85
268.46	38.23
268.676	21.85
268.892	-2.73
269.108	58.71
269.324	85.33
269.54	-4.78
269.756	48.47
269.972	27.99
270.188	44.37
270.403	40.28
270.619	-10.92
270.835	56.66
271.051	-0.68
271.267	23.89
271.483	25.94
271.698	62.8
271.914	7.51
272.13	42.32
272.346	85.33
272.562	25.94
272.777	52.56
272.993	-21.16
273.209	21.85
273.425	-17.07
273.64	-90.79
273.856	34.13
274.072	46.42
274.287	-27.31
274.503	42.32
274.719	-2.73
274.934	97.62
275.15	-2.73
275.366	60.76
275.581	-12.97
275.797	68.95
276.012	68.95
276.228	36.18
276.444	32.08
276.659	-37.55
276.875	-2.73
277.09	42.32
277.306	-10.92
277.521	-27.31
277.737	23.89
277.952	-21.16
278.168	5.46
278.383	44.37
278.599	89.43
278.814	56.66
279.03	-2.73
279.245	44.37
279.461	-23.21
279.676	23.89
279.892	23.89
280.107	77.14
280.322	-17.07
280.538	54.61
280.753	36.18
280.969	-4.78
281.184	75.09
281.399	-31.4
281.615	21.85
281.83	-47.79
282.045	-64.17
282.26	64.85
282.476	9.56
282.691	60.76
282.906	46.42
283.122	62.8
283.337	1.37
283.552	54.61
283.767	40.28
283.983	91.48
284.198	-33.45
284.413	79.19
284.628	36.18
284.843	27.99
285.058	17.75
285.274	3.41
285.489	-15.02
285.704	-39.59
285.919	15.7
286.134	42.32
286.349	-19.11
286.564	-84.65
286.779	52.56
286.995	48.47
287.21	-6.83
287.425	40.28
287.64	7.51
287.855	54.61
288.07	38.23
288.285	3.41
288.5	-66.22
288.715	89.43
288.93	-2.73
289.145	38.23
289.36	-8.87
289.575	46.42
289.79	54.61
290.004	-12.97
290.219	23.89
290.434	32.08
290.649	21.85
290.864	-12.97
291.079	-72.36
291.294	17.75
291.509	-35.5
291.724	66.9
291.938	34.13
292.153	-12.97
292.368	-29.35
292.583	9.56
292.798	42.32
293.012	21.85
293.227	-4.78
293.442	87.38
293.657	34.13
293.871	-29.35
294.086	-6.83
294.301	9.56
294.516	25.94
294.73	44.37
294.945	64.85
295.16	-0.68
295.374	30.04
295.589	44.37
295.804	48.47
296.018	-12.97
296.233	38.23
296.447	38.23
296.662	64.85
296.877	79.19
297.091	50.52
297.306	-6.83
297.52	-27.31
297.735	40.28
297.949	-12.97
298.164	34.13
298.378	-10.92
298.593	34.13
298.807	11.61
299.022	30.04
299.236	66.9
299.451	13.65
299.665	23.89
299.88	40.28
300.094	81.24
300.309	27.99
300.523	7.51
300.737	-4.78
300.952	27.99
301.166	30.04
301.381	-29.35
301.595	-21.16
301.809	93.52
302.024	42.32
302.238	-33.45
302.452	27.99
302.667	66.9
302.881	17.75
303.095	38.23
303.309	179.54
303.524	34.13
303.738	40.28
303.952	-0.68
304.166	25.94
304.381	-45.74
304.595	30.04
304.809	-35.5
305.023	46.42
305.237	7.51
305.452	-4.78
305.666	75.09
305.88	19.8
306.094	25.94
306.308	44.37
306.522	32.08
306.736	-49.83
306.95	19.8
307.164	44.37
307.379	25.94
307.593	-31.4
307.807	38.23
308.021	99.67
308.235	9.56
308.449	40.28
308.663	54.61
308.877	-12.97
309.091	89.43
309.305	79.19
309.519	64.85
309.733	36.18
309.947	44.37
310.161	25.94
310.374	50.52
310.588	44.37
310.802	34.13
311.016	-0.68
311.23	-64.17
311.444	36.18
311.658	42.32
311.872	71
312.085	21.85
312.299	83.28
312.513	32.08
312.727	62.8
312.941	-23.21
313.154	42.32
313.368	-4.78
313.582	21.85
313.796	-37.55
314.009	62.8
314.223	-12.97
314.437	23.89
314.651	5.46
314.864	36.18
315.078	23.89
315.292	19.8
315.505	19.8
315.719	36.18
315.933	-76.46
316.146	56.66
316.36	-33.45
316.573	95.57
316.787	75.09
317.001	58.71
317.214	30.04
317.428	-2.73
317.641	1.37
317.855	-25.26
318.068	101.72
318.282	19.8
318.495	38.23
318.709	95.57
318.922	46.42
319.136	46.42
319.349	64.85
319.563	58.71
319.776	62.8
319.99	87.38
320.203	11.61
320.417	21.85
320.63	-12.97
320.843	-23.21
321.057	7.51
321.27	42.32
321.483	64.85
321.697	23.89
321.91	85.33
322.124	15.7
322.337	13.65
322.55	-43.69
322.763	-4.78
322.977	30.04
323.19	50.52
323.403	-29.35
323.617	-17.07
323.83	103.76
324.043	-21.16
324.256	-2.73
324.469	56.66
324.683	48.47
324.896	-31.4
325.109	44.37
325.322	-49.83
325.535	15.7
325.748	66.9
325.962	97.62
326.175	48.47
326.388	25.94
326.601	-35.5
326.814	73.04
327.027	36.18
327.24	132.44
327.453	-43.69
327.666	27.99
327.879	54.61
328.092	13.65
328.305	-31.4
328.518	32.08
328.731	-15.02
328.944	93.52
329.157	52.56
329.37	30.04
329.583	19.8
329.796	17.75
330.009	11.61
330.222	-21.16
330.435	-19.11
330.648	-2.73
330.861	48.47
331.073	27.99
331.286	-2.73
331.499	27.99
331.712	38.23
331.925	38.23
332.138	-0.68
332.35	83.28
332.563	58.71
332.776	17.75
332.989	46.42
333.202	79.19
333.414	7.51
333.627	30.04
333.84	13.65
334.053	17.75
334.265	48.47
334.478	19.8
334.691	52.56
334.903	19.8
335.116	36.18
335.329	36.18
335.541	79.19
335.754	32.08
335.966	19.8
336.179	32.08
336.392	-19.11
336.604	46.42
336.817	87.38
337.029	7.51
337.242	56.66
337.454	68.95
337.667	-19.11
337.88	46.42
338.092	-4.78
338.305	-27.31
338.517	1.37
338.729	38.23
338.942	-8.87
339.154	7.51
339.367	-15.02
339.579	-31.4
339.792	-23.21
340.004	-19.11
340.217	19.8
340.429	95.57
340.641	21.85
340.854	75.09
341.066	27.99
341.278	44.37
341.491	25.94
341.703	3.41
341.915	64.85
342.128	38.23
342.34	-23.21
342.552	1.37
342.764	11.61
342.977	-33.45
343.189	-8.87
343.401	44.37
343.613	-2.73
343.826	25.94
344.038	9.56
344.25	79.19
344.462	11.61
344.674	64.85
344.886	19.8
345.099	11.61
345.311	30.04
345.523	79.19
345.735	66.9
345.947	25.94
346.159	40.28
346.371	126.29
346.583	-15.02
346.795	38.23
347.007	-12.97
347.219	27.99
347.431	42.32
347.643	83.28
347.855	13.65
348.067	19.8
348.279	68.95
348.491	46.42
348.703	73.04
348.915	-0.68
349.127	48.47
349.339	30.04
349.551	30.04
349.763	25.94
349.975	-15.02
350.187	-10.92
350.399	25.94
350.61	60.76
350.822	-0.68
351.034	23.89
351.246	60.76
351.458	-27.31
351.669	68.95
351.881	87.38
352.093	54.61
352.305	44.37
352.517	136.53
352.728	32.08
352.94	-31.4
353.152	27.99
353.363	36.18
353.575	64.85
353.787	85.33
353.999	23.89
354.21	19.8
354.422	5.46
354.633	54.61
354.845	13.65
355.057	83.28
355.268	73.04
355.48	44.37
355.692	60.76
355.903	-10.92
356.115	-27.31
356.326	-2.73
356.538	107.86
356.749	-23.21
356.961	58.71
357.172	-4.78
357.384	-12.97
357.595	52.56
357.807	34.13
358.018	-41.64
358.23	62.8
358.441	116.05
358.653	79.19
358.864	-25.26
359.075	-4.78
359.287	52.56
359.498	85.33
359.709	46.42
359.921	40.28
360.132	32.08
360.344	34.13
360.555	-39.59
360.766	62.8
360.977	52.56
361.189	42.32
361.4	38.23
361.611	42.32
361.823	103.76
362.034	7.51
362.245	17.75
362.456	48.47
362.667	25.94
362.879	13.65
363.09	87.38
363.301	99.67
363.512	111.96
363.723	89.43
363.935	79.19
364.146	42.32
364.357	-8.87
364.568	40.28
364.779	38.23
364.99	11.61
365.201	1.37
365.412	58.71
365.623	27.99
365.834	130.39
366.045	-25.26
366.256	3.41
366.467	-15.02
366.678	40.28
366.889	85.33
367.1	68.95
367.311	83.28
367.522	68.95
367.733	-21.16
367.944	-76.46
368.155	19.8
368.366	62.8
368.577	5.46
368.788	5.46
368.999	58.71
369.209	77.14
369.42	27.99
369.631	58.71
369.842	17.75
370.053	85.33
370.264	11.61
370.474	1.37
370.685	-35.5
370.896	11.61
371.107	95.57
371.317	75.09
371.528	13.65
371.739	27.99
371.95	5.46
372.16	30.04
372.371	-6.83
372.582	-0.68
372.792	-17.07
373.003	30.04
373.214	30.04
373.424	21.85
373.635	44.37
373.846	87.38
374.056	-2.73
374.267	32.08
374.477	46.42
374.688	-15.02
374.898	-29.35
375.109	25.94
375.319	38.23
375.53	3.41
375.74	68.95
375.951	64.85
376.161	75.09
376.372	19.8
376.582	50.52
376.793	40.28
377.003	-10.92
377.214	30.04
377.424	46.42
377.635	62.8
377.845	15.7
378.055	46.42
378.266	-10.92
378.476	42.32
378.686	11.61
378.897	34.13
379.107	87.38
379.317	40.28
379.528	7.51
379.738	71
379.948	15.7
380.158	42.32
380.369	71
380.579	89.43
380.789	3.41
380.999	75.09
381.21	-0.68
381.42	13.65
381.63	23.89
381.84	-37.55
382.05	52.56
382.261	-2.73
382.471	89.43
382.681	62.8
382.891	116.05
383.101	42.32
383.311	7.51
383.521	15.7
383.731	56.66
383.941	-21.16
384.151	44.37
384.361	13.65
384.571	23.89
384.781	50.52
384.991	62.8
385.201	68.95
385.411	40.28
385.621	-12.97
385.831	23.89
386.041	13.65
386.251	-17.07
386.461	-21.16
386.671	56.66
386.881	-17.07
387.091	44.37
387.301	52.56
387.511	25.94
387.72	42.32
387.93	42.32
388.14	54.61
388.35	38.23
388.56	75.09
388.769	25.94
388.979	50.52
389.189	91.48
389.399	25.94
389.609	9.56
389.818	3.41
390.028	109.91
390.238	62.8
390.447	120.15
390.657	44.37
390.867	52.56
391.076	34.13
391.286	81.24
391.496	64.85
391.705	52.56
391.915	64.85
392.125	23.89
392.334	99.67
392.544	11.61
392.753	38.23
392.963	7.51
393.172	44.37
393.382	-19.11
393.591	54.61
393.801	56.66
394.01	77.14
394.22	21.85
394.429	-10.92
394.639	32.08
394.848	60.76
395.058	56.66
395.267	54.61
395.477	-6.83
395.686	99.67
395.895	89.43
396.105	91.48
396.314	81.24
396.524	46.42
396.733	34.13
396.942	36.18
397.152	68.95
397.361	38.23
397.57	13.65
397.78	27.99
397.989	60.76
398.198	17.75
398.407	25.94
398.617	21.85
398.826	1.37
399.035	13.65
399.244	83.28
399.453	91.48
399.663	73.04
399.872	103.76
400.081	62.8
400.29	64.85
400.499	75.09
400.708	148.82
400.917	62.8
401.127	97.62
401.336	-19.11
401.545	109.91
401.754	87.38
401.963	46.42
402.172	120.15
402.381	46.42
402.59	54.61
402.799	109.91
403.008	48.47
403.217	124.24
403.426	91.48
403.635	89.43
403.844	75.09
404.053	101.72
404.262	42.32
404.471	134.48
404.68	71
404.888	136.53
405.097	73.04
405.306	38.23
405.515	105.81
405.724	105.81
405.933	95.57
406.142	111.96
406.35	130.39
406.559	173.39
406.768	93.52
406.977	79.19
407.185	191.83
407.394	77.14
407.603	60.76
407.812	105.81
408.02	118.1
408.229	144.72
408.438	169.3
408.646	130.39
408.855	195.92
409.064	128.34
409.272	148.82
409.481	128.34
409.69	177.49
409.898	130.39
410.107	154.96
410.315	175.44
410.524	189.78
410.733	234.83
410.941	197.97
411.15	257.36
411.358	238.93
411.567	134.48
411.775	218.45
411.984	236.88
412.192	195.92
412.401	269.65
412.609	269.65
412.818	236.88
413.026	222.55
413.234	380.24
413.443	238.93
413.651	240.98
413.86	326.99
414.068	283.99
414.276	298.32
414.485	320.85
414.693	386.38
414.901	413.01
415.11	374.1
415.318	402.77
415.526	453.97
415.734	474.45
415.943	429.39
416.151	421.2
416.359	527.69
416.567	460.11
416.776	458.06
416.984	582.99
417.192	597.32
417.4	630.09
417.608	570.7
417.817	548.17
418.025	644.43
418.233	611.66
418.441	658.76
418.649	681.29
418.857	683.34
419.065	728.39
419.273	738.63
419.481	820.55
419.689	800.07
419.897	869.7
420.105	867.66
420.313	873.8
420.521	900.42
420.729	908.62
420.937	857.42
421.145	986.44
421.353	943.43
421.561	1045.83
421.769	1066.31
421.977	1197.38
422.185	1086.79
422.393	1252.67
422.601	1318.21
422.809	1197.38
423.017	1244.48
423.224	1412.42
423.432	1449.28
423.64	1353.02
423.848	1566.01
424.056	1494.33
424.263	1735.99
424.471	1701.18
424.679	1670.46
424.887	1733.95
425.094	1666.36
425.302	1815.87
425.51	1901.88
425.718	1854.78
425.925	1912.12
426.133	2022.71
426.341	2063.67
426.548	2026.81
426.756	2063.67
426.964	2204.98
427.171	2321.71
427.379	2395.44
427.586	2475.31
427.794	2413.87
428.001	2598.19
428.209	2661.68
428.417	2807.08
428.624	2845.99
428.832	2970.92
429.039	2843.95
429.247	2827.56
429.454	2952.49
429.662	3288.36
429.869	3122.47
430.076	3257.64
430.284	3163.43
430.491	3415.33
430.699	3579.17
430.906	3611.93
431.114	3478.82
431.321	3810.59
431.528	3853.59
431.736	4070.68
431.943	4298
432.15	4089.11
432.358	4252.95
432.565	4465.94
432.772	4424.98
432.979	4656.4
433.187	4687.12
433.394	4822.28
433.601	5154.05
433.808	5068.04
434.016	4951.31
434.223	5109
434.43	5567.74
434.637	5453.06
434.844	5604.61
435.052	5799.16
435.259	5854.46
435.466	5844.22
435.673	5696.77
435.88	5942.52
436.087	6460.66
436.294	6534.39
436.501	6395.12
436.708	6503.67
436.915	6819.05
437.122	7046.38
437.329	7032.04
437.537	7173.35
437.743	7406.82
437.95	7245.03
438.157	7726.3
438.364	7890.14
438.571	7894.24
438.778	7988.44
438.985	8697.04
439.192	8430.8
439.399	8836.3
439.606	8455.38
439.813	9069.77
440.02	9434.31
440.227	9272.52
440.433	8944.84
440.64	9399.49
440.847	9413.83
441.054	9505.99
441.261	10179.77
441.467	10130.62
441.674	10235.07
441.881	10859.7
442.088	10675.38
442.294	10777.78
442.501	10865.84
442.708	11248.81
442.914	11371.69
443.121	12035.23
443.328	11719.84
443.534	12592.28
443.741	12186.78
443.948	12244.12
444.154	12741.78
444.361	12835.99
444.568	12790.93
444.774	12928.14
444.981	13124.75
445.187	13460.62
445.394	14115.97
445.6	13743.24
445.807	15285.36
446.013	14474.36
446.22	14980.21
446.426	15498.34
446.633	15477.87
446.839	16055.39
447.046	15481.96
447.252	16202.85
447.459	15926.37
447.665	16036.96
447.871	17138.77
448.078	17697.86
448.284	16739.41
448.491	17007.7
448.697	17857.6
448.903	18062.4
449.11	18084.93
449.316	17990.72
449.522	18447.42
449.728	18697.27
449.935	18996.28
450.141	18852.92
450.347	19360.81
450.553	18328.64
450.76	18756.66
450.966	19549.23
451.172	19328.05
451.378	19692.58
451.584	19387.44
451.791	19874.85
451.997	19956.77
452.203	20155.43
452.409	20110.37
452.615	20005.92
452.821	19153.97
453.027	18844.73
453.233	19729.45
453.44	19231.79
453.646	19373.1
453.852	19362.86
454.058	19610.67
454.264	18744.38
454.47	19565.61
454.676	18881.59
454.882	19563.56
455.088	18046.02
455.294	18150.46
455.5	18256.96
455.705	18472
455.911	17736.77
456.117	17425.48
456.323	17296.46
456.529	16372.83
456.735	17124.43
456.941	16503.9
457.147	16258.14
457.352	15797.35
457.558	15694.95
457.764	15445.1
457.97	15397.99
458.176	14935.15
458.381	14978.16
458.587	14017.66
458.793	14185.6
458.999	13509.77
459.204	14443.64
459.41	13909.12
459.616	13167.76
459.821	13245.58
460.027	13223.05
460.233	12647.57
460.438	12430.49
460.644	12291.23
460.85	11682.98
461.055	11687.07
461.261	11564.2
461.466	10765.49
461.672	10202.3
461.878	11201.71
462.083	10339.51
462.289	10110.14
462.494	10253.5
462.7	9446.6
462.905	9628.87
463.111	9583.81
463.316	9655.49
463.522	9387.21
463.727	9694.4
463.932	9714.88
464.138	9532.61
464.343	9491.65
464.549	9051.34
464.754	9606.34
464.959	9577.67
465.165	9360.58
465.37	9088.2
465.575	8887.5
465.781	9127.11
465.986	9219.27
466.191	8883.41
466.397	8668.37
466.602	8361.17
466.807	8602.83
467.012	8510.68
467.218	8613.07
467.423	8561.87
467.628	8504.53
467.833	8830.16
468.038	8377.56
468.244	8275.16
468.449	8574.16
468.654	8324.31
468.859	8246.49
469.064	8203.48
