Data from USB4F104151__201__13-59-49-145.txt Node

Date: Thu Mar 13 13:59:49 EDT 2025
User: louis
Spectrometer: USB4F10415
Trigger mode: 4
Integration Time (sec): 1.000000E-2
Scans to average: 1
Electric dark correction enabled: true
Nonlinearity correction enabled: false
Boxcar width: 0
XAxis mode: Wavelengths
Number of Pixels in Spectrum: 3648
>>>>>Begin Spectral Data<<<<<
178.204	-102.91
178.424	-102.91
178.644	-102.91
178.864	-39.42
179.084	-37.38
179.304	-64
179.524	-31.23
179.744	32.26
179.964	-64
180.184	-14.85
180.404	73.21
180.624	75.26
180.844	-16.9
181.064	-18.94
181.283	44.54
181.503	-25.09
181.723	9.73
181.943	11.78
182.163	19.97
182.383	42.5
182.602	9.73
182.822	126.46
183.042	-6.66
183.262	65.02
183.482	91.65
183.701	-6.66
183.921	97.79
184.141	1.54
184.361	50.69
184.58	-0.51
184.8	-20.99
185.02	-33.28
185.239	34.3
185.459	-23.04
185.679	77.31
185.898	3.58
186.118	52.74
186.338	9.73
186.557	-14.85
186.777	-12.8
186.997	1.54
187.216	7.68
187.436	7.68
187.655	-37.38
187.875	-29.18
188.095	81.41
188.314	5.63
188.534	75.26
188.753	26.11
188.973	50.69
189.192	26.11
189.412	91.65
189.631	48.64
189.851	36.35
190.07	-23.04
190.29	58.88
190.509	24.06
190.729	-72.19
190.948	65.02
191.168	75.26
191.387	73.21
191.607	54.78
191.826	32.26
192.045	-0.51
192.265	69.12
192.484	7.68
192.704	15.87
192.923	34.3
193.142	26.11
193.362	15.87
193.581	24.06
193.8	-4.61
194.02	60.93
194.239	56.83
194.458	97.79
194.678	-2.56
194.897	110.08
195.116	-2.56
195.335	67.07
195.555	73.21
195.774	-78.33
195.993	28.16
196.212	3.58
196.432	-12.8
196.651	32.26
196.87	19.97
197.089	58.88
197.308	60.93
197.528	24.06
197.747	36.35
197.966	7.68
198.185	58.88
198.404	54.78
198.623	75.26
198.842	1.54
199.062	9.73
199.281	30.21
199.5	42.5
199.719	24.06
199.938	-35.33
200.157	105.98
200.376	40.45
200.595	71.17
200.814	40.45
201.033	38.4
201.252	-0.51
201.471	44.54
201.69	11.78
201.909	5.63
202.128	75.26
202.347	36.35
202.566	79.36
202.785	48.64
203.004	9.73
203.223	54.78
203.442	9.73
203.661	-25.09
203.879	30.21
204.098	-0.51
204.317	83.45
204.536	7.68
204.755	-37.38
204.974	50.69
205.193	1.54
205.411	97.79
205.63	52.74
205.849	32.26
206.068	38.4
206.287	-55.81
206.505	-0.51
206.724	103.93
206.943	48.64
207.162	67.07
207.381	32.26
207.599	-41.47
207.818	17.92
208.037	32.26
208.255	87.55
208.474	28.16
208.693	71.17
208.911	58.88
209.13	56.83
209.349	36.35
209.567	-2.56
209.786	44.54
210.005	83.45
210.223	105.98
210.442	-18.94
210.661	24.06
210.879	-35.33
211.098	-12.8
211.316	-8.7
211.535	58.88
211.753	24.06
211.972	65.02
212.191	-16.9
212.409	81.41
212.628	62.98
212.846	65.02
213.065	40.45
213.283	26.11
213.502	42.5
213.72	-27.14
213.938	22.02
214.157	-20.99
214.375	17.92
214.594	-14.85
214.812	26.11
215.031	15.87
215.249	-76.29
215.467	73.21
215.686	30.21
215.904	79.36
216.122	-6.66
216.341	28.16
216.559	40.45
216.778	32.26
216.996	-43.52
217.214	42.5
217.432	-10.75
217.651	17.92
217.869	-39.42
218.087	1.54
218.306	17.92
218.524	-2.56
218.742	48.64
218.96	15.87
219.179	65.02
219.397	65.02
219.615	52.74
219.833	38.4
220.051	34.3
220.27	30.21
220.488	97.79
220.706	-66.05
220.924	40.45
221.142	36.35
221.36	44.54
221.578	71.17
221.796	-45.57
222.015	67.07
222.233	-39.42
222.451	81.41
222.669	-14.85
222.887	58.88
223.105	-64
223.323	62.98
223.541	-6.66
223.759	40.45
223.977	9.73
224.195	-31.23
224.413	-4.61
224.631	136.7
224.849	24.06
225.067	54.78
225.285	52.74
225.503	-8.7
225.721	-0.51
225.939	67.07
226.157	26.11
226.375	28.16
226.592	-23.04
226.81	1.54
227.028	52.74
227.246	97.79
227.464	17.92
227.682	24.06
227.9	24.06
228.117	62.98
228.335	-10.75
228.553	44.54
228.771	52.74
228.989	71.17
229.206	5.63
229.424	44.54
229.642	-20.99
229.86	56.83
230.077	22.02
230.295	79.36
230.513	62.98
230.731	56.83
230.948	65.02
231.166	24.06
231.384	-39.42
231.601	-6.66
231.819	65.02
232.037	-25.09
232.254	11.78
232.472	36.35
232.689	26.11
232.907	11.78
233.125	-8.7
233.342	-66.05
233.56	58.88
233.777	9.73
233.995	11.78
234.213	69.12
234.43	-61.95
234.648	46.59
234.865	13.82
235.083	-51.71
235.3	-8.7
235.518	32.26
235.735	3.58
235.953	-47.62
236.17	30.21
236.388	26.11
236.605	26.11
236.822	-2.56
237.04	85.5
237.257	38.4
237.475	17.92
237.692	77.31
237.909	7.68
238.127	73.21
238.344	85.5
238.562	34.3
238.779	60.93
238.996	36.35
239.214	19.97
239.431	17.92
239.648	-20.99
239.865	75.26
240.083	-4.61
240.3	19.97
240.517	75.26
240.735	81.41
240.952	40.45
241.169	138.75
241.386	40.45
241.603	34.3
241.821	24.06
242.038	48.64
242.255	75.26
242.472	56.83
242.689	-25.09
242.907	56.83
243.124	22.02
243.341	19.97
243.558	36.35
243.775	89.6
243.992	-2.56
244.209	32.26
244.426	15.87
244.643	81.41
244.86	-27.14
245.078	105.98
245.295	-14.85
245.512	30.21
245.729	34.3
245.946	75.26
246.163	24.06
246.38	-20.99
246.597	13.82
246.814	65.02
247.031	-6.66
247.248	120.32
247.464	28.16
247.681	89.6
247.898	52.74
248.115	62.98
248.332	48.64
248.549	48.64
248.766	11.78
248.983	3.58
249.2	-33.28
249.417	40.45
249.633	67.07
249.85	5.63
250.067	15.87
250.284	38.4
250.501	-31.23
250.717	83.45
250.934	-90.62
251.151	89.6
251.368	-23.04
251.585	-12.8
251.801	7.68
252.018	89.6
252.235	79.36
252.451	28.16
252.668	-10.75
252.885	19.97
253.102	65.02
253.318	-16.9
253.535	22.02
253.752	7.68
253.968	24.06
254.185	-25.09
254.401	67.07
254.618	3.58
254.835	7.68
255.051	69.12
255.268	9.73
255.484	75.26
255.701	28.16
255.917	54.78
256.134	58.88
256.351	40.45
256.567	40.45
256.784	-4.61
257	-18.94
257.217	-14.85
257.433	13.82
257.65	65.02
257.866	11.78
258.082	46.59
258.299	-16.9
258.515	116.22
258.732	32.26
258.948	52.74
259.165	19.97
259.381	28.16
259.597	7.68
259.814	-20.99
260.03	52.74
260.246	-35.33
260.463	17.92
260.679	-27.14
260.895	46.59
261.112	56.83
261.328	32.26
261.544	30.21
261.761	67.07
261.977	26.11
262.193	-16.9
262.409	-45.57
262.626	24.06
262.842	-23.04
263.058	28.16
263.274	15.87
263.49	7.68
263.707	110.08
263.923	42.5
264.139	11.78
264.355	32.26
264.571	15.87
264.787	44.54
265.004	34.3
265.22	-16.9
265.436	48.64
265.652	-31.23
265.868	65.02
266.084	-14.85
266.3	42.5
266.516	-20.99
266.732	42.5
266.948	42.5
267.164	-16.9
267.38	46.59
267.596	9.73
267.812	54.78
268.028	73.21
268.244	1.54
268.46	32.26
268.676	32.26
268.892	15.87
269.108	-0.51
269.324	28.16
269.54	17.92
269.756	58.88
269.972	-2.56
270.188	48.64
270.403	22.02
270.619	56.83
270.835	-6.66
271.051	-6.66
271.267	11.78
271.483	89.6
271.698	83.45
271.914	52.74
272.13	22.02
272.346	40.45
272.562	62.98
272.777	7.68
272.993	52.74
273.209	73.21
273.425	65.02
273.64	19.97
273.856	-27.14
274.072	-25.09
274.287	-39.42
274.503	24.06
274.719	-20.99
274.934	-8.7
275.15	46.59
275.366	81.41
275.581	-59.9
275.797	69.12
276.012	-0.51
276.228	32.26
276.444	-12.8
276.659	62.98
276.875	-20.99
277.09	124.41
277.306	67.07
277.521	24.06
277.737	-0.51
277.952	124.41
278.168	-33.28
278.383	3.58
278.599	26.11
278.814	65.02
279.03	38.4
279.245	3.58
279.461	34.3
279.676	40.45
279.892	-8.7
280.107	11.78
280.322	40.45
280.538	36.35
280.753	52.74
280.969	17.92
281.184	-27.14
281.399	32.26
281.615	-6.66
281.83	58.88
282.045	24.06
282.26	7.68
282.476	3.58
282.691	155.13
282.906	83.45
283.122	81.41
283.337	19.97
283.552	81.41
283.767	-37.38
283.983	17.92
284.198	-0.51
284.413	44.54
284.628	-27.14
284.843	26.11
285.058	-4.61
285.274	26.11
285.489	67.07
285.704	118.27
285.919	34.3
286.134	-25.09
286.349	32.26
286.564	44.54
286.779	-8.7
286.995	19.97
287.21	91.65
287.425	79.36
287.64	24.06
287.855	52.74
288.07	17.92
288.285	-57.86
288.5	32.26
288.715	46.59
288.93	11.78
289.145	56.83
289.36	97.79
289.575	81.41
289.79	126.46
290.004	93.69
290.219	54.78
290.434	-6.66
290.649	34.3
290.864	83.45
291.079	15.87
291.294	71.17
291.509	36.35
291.724	48.64
291.938	7.68
292.153	13.82
292.368	11.78
292.583	67.07
292.798	-2.56
293.012	52.74
293.227	7.68
293.442	36.35
293.657	75.26
293.871	40.45
294.086	-25.09
294.301	46.59
294.516	42.5
294.73	83.45
294.945	52.74
295.16	36.35
295.374	44.54
295.589	105.98
295.804	40.45
296.018	32.26
296.233	54.78
296.447	9.73
296.662	24.06
296.877	26.11
297.091	89.6
297.306	-4.61
297.52	48.64
297.735	77.31
297.949	22.02
298.164	-14.85
298.378	52.74
298.593	81.41
298.807	-8.7
299.022	42.5
299.236	42.5
299.451	77.31
299.665	-6.66
299.88	83.45
300.094	-31.23
300.309	-12.8
300.523	3.58
300.737	89.6
300.952	81.41
301.166	34.3
301.381	65.02
301.595	65.02
301.809	44.54
302.024	69.12
302.238	52.74
302.452	58.88
302.667	83.45
302.881	50.69
303.095	71.17
303.309	9.73
303.524	5.63
303.738	62.98
303.952	30.21
304.166	69.12
304.381	22.02
304.595	58.88
304.809	-27.14
305.023	40.45
305.237	73.21
305.452	73.21
305.666	58.88
305.88	34.3
306.094	67.07
306.308	101.89
306.522	15.87
306.736	73.21
306.95	15.87
307.164	108.03
307.379	58.88
307.593	15.87
307.807	42.5
308.021	-10.75
308.235	77.31
308.449	40.45
308.663	32.26
308.877	122.37
309.091	13.82
309.305	67.07
309.519	54.78
309.733	19.97
309.947	40.45
310.161	40.45
310.374	3.58
310.588	85.5
310.802	81.41
311.016	7.68
311.23	79.36
311.444	44.54
311.658	-20.99
311.872	-8.7
312.085	75.26
312.299	62.98
312.513	58.88
312.727	105.98
312.941	11.78
313.154	122.37
313.368	13.82
313.582	120.32
313.796	36.35
314.009	52.74
314.223	24.06
314.437	60.93
314.651	-2.56
314.864	17.92
315.078	11.78
315.292	48.64
315.505	54.78
315.719	15.87
315.933	15.87
316.146	1.54
316.36	48.64
316.573	56.83
316.787	-25.09
317.001	60.93
317.214	52.74
317.428	52.74
317.641	75.26
317.855	56.83
318.068	34.3
318.282	-8.7
318.495	40.45
318.709	73.21
318.922	40.45
319.136	108.03
319.349	34.3
319.563	7.68
319.776	48.64
319.99	69.12
320.203	60.93
320.417	130.56
320.63	75.26
320.843	30.21
321.057	5.63
321.27	81.41
321.483	75.26
321.697	85.5
321.91	69.12
322.124	15.87
322.337	105.98
322.55	5.63
322.763	19.97
322.977	50.69
323.19	62.98
323.403	-33.28
323.617	52.74
323.83	-4.61
324.043	97.79
324.256	65.02
324.469	42.5
324.683	15.87
324.896	93.69
325.109	52.74
325.322	-68.09
325.535	77.31
325.748	32.26
325.962	81.41
326.175	83.45
326.388	52.74
326.601	-29.18
326.814	48.64
327.027	50.69
327.24	69.12
327.453	7.68
327.666	56.83
327.879	26.11
328.092	26.11
328.305	-25.09
328.518	48.64
328.731	50.69
328.944	7.68
329.157	81.41
329.37	9.73
329.583	44.54
329.796	40.45
330.009	69.12
330.222	56.83
330.435	52.74
330.648	56.83
330.861	69.12
331.073	3.58
331.286	-0.51
331.499	65.02
331.712	-10.75
331.925	79.36
332.138	15.87
332.35	26.11
332.563	60.93
332.776	73.21
332.989	9.73
333.202	36.35
333.414	-20.99
333.627	85.5
333.84	-29.18
334.053	77.31
334.265	-25.09
334.478	126.46
334.691	30.21
334.903	52.74
335.116	-12.8
335.329	-16.9
335.541	-23.04
335.754	50.69
335.966	22.02
336.179	-6.66
336.392	56.83
336.604	42.5
336.817	19.97
337.029	22.02
337.242	42.5
337.454	101.89
337.667	-33.28
337.88	62.98
338.092	9.73
338.305	54.78
338.517	91.65
338.729	40.45
338.942	79.36
339.154	89.6
339.367	26.11
339.579	28.16
339.792	65.02
340.004	48.64
340.217	58.88
340.429	28.16
340.641	28.16
340.854	13.82
341.066	38.4
341.278	19.97
341.491	69.12
341.703	65.02
341.915	7.68
342.128	69.12
342.34	75.26
342.552	50.69
342.764	81.41
342.977	122.37
343.189	50.69
343.401	81.41
343.613	60.93
343.826	87.55
344.038	-35.33
344.25	77.31
344.462	38.4
344.674	58.88
344.886	65.02
345.099	73.21
345.311	-39.42
345.523	22.02
345.735	58.88
345.947	73.21
346.159	114.17
346.371	97.79
346.583	46.59
346.795	24.06
347.007	-23.04
347.219	79.36
347.431	-23.04
347.643	24.06
347.855	67.07
348.067	65.02
348.279	91.65
348.491	81.41
348.703	52.74
348.915	108.03
349.127	13.82
349.339	50.69
349.551	58.88
349.763	11.78
349.975	-12.8
350.187	99.84
350.399	-16.9
350.61	65.02
350.822	7.68
351.034	36.35
351.246	95.74
351.458	77.31
351.669	58.88
351.881	9.73
352.093	73.21
352.305	-74.24
352.517	36.35
352.728	38.4
352.94	-0.51
353.152	32.26
353.363	24.06
353.575	-10.75
353.787	60.93
353.999	44.54
354.21	7.68
354.422	97.79
354.633	48.64
354.845	56.83
355.057	122.37
355.268	28.16
355.48	89.6
355.692	-74.24
355.903	67.07
356.115	60.93
356.326	36.35
356.538	79.36
356.749	58.88
356.961	15.87
357.172	34.3
357.384	58.88
357.595	56.83
357.807	65.02
358.018	83.45
358.23	89.6
358.441	65.02
358.653	-8.7
358.864	36.35
359.075	44.54
359.287	91.65
359.498	28.16
359.709	83.45
359.921	99.84
360.132	26.11
360.344	40.45
360.555	36.35
360.766	114.17
360.977	48.64
361.189	38.4
361.4	46.59
361.611	56.83
361.823	19.97
362.034	85.5
362.245	-12.8
362.456	83.45
362.667	58.88
362.879	99.84
363.09	73.21
363.301	9.73
363.512	56.83
363.723	36.35
363.935	134.65
364.146	24.06
364.357	67.07
364.568	34.3
364.779	15.87
364.99	97.79
365.201	-20.99
365.412	48.64
365.623	48.64
365.834	110.08
366.045	79.36
366.256	40.45
366.467	48.64
366.678	32.26
366.889	81.41
367.1	17.92
367.311	138.75
367.522	99.84
367.733	60.93
367.944	65.02
368.155	13.82
368.366	60.93
368.577	42.5
368.788	105.98
368.999	32.26
369.209	7.68
369.42	116.22
369.631	93.69
369.842	75.26
370.053	50.69
370.264	50.69
370.474	3.58
370.685	58.88
370.896	69.12
371.107	81.41
371.317	32.26
371.528	19.97
371.739	-14.85
371.95	40.45
372.16	40.45
372.371	93.69
372.582	28.16
372.792	17.92
373.003	24.06
373.214	81.41
373.424	54.78
373.635	148.99
373.846	48.64
374.056	36.35
374.267	9.73
374.477	36.35
374.688	120.32
374.898	11.78
375.109	30.21
375.319	40.45
375.53	112.13
375.74	116.22
375.951	56.83
376.161	40.45
376.372	5.63
376.582	36.35
376.793	99.84
377.003	46.59
377.214	79.36
377.424	75.26
377.635	42.5
377.845	38.4
378.055	93.69
378.266	11.78
378.476	17.92
378.686	77.31
378.897	54.78
379.107	114.17
379.317	97.79
379.528	56.83
379.738	52.74
379.948	75.26
380.158	114.17
380.369	13.82
380.579	116.22
380.789	26.11
380.999	105.98
381.21	91.65
381.42	40.45
381.63	42.5
381.84	48.64
382.05	116.22
382.261	17.92
382.471	105.98
382.681	52.74
382.891	54.78
383.101	81.41
383.311	36.35
383.521	56.83
383.731	85.5
383.941	73.21
384.151	65.02
384.361	140.8
384.571	40.45
384.781	67.07
384.991	40.45
385.201	101.89
385.411	-27.14
385.621	-0.51
385.831	105.98
386.041	73.21
386.251	42.5
386.461	151.04
386.671	65.02
386.881	30.21
387.091	108.03
387.301	77.31
387.511	97.79
387.72	38.4
387.93	71.17
388.14	114.17
388.35	97.79
388.56	69.12
388.769	136.7
388.979	56.83
389.189	65.02
389.399	42.5
389.609	79.36
389.818	87.55
390.028	91.65
390.238	54.78
390.447	28.16
390.657	118.27
390.867	58.88
391.076	99.84
391.286	67.07
391.496	42.5
391.705	32.26
391.915	56.83
392.125	146.94
392.334	105.98
392.544	97.79
392.753	91.65
392.963	85.5
393.172	52.74
393.382	118.27
393.591	130.56
393.801	116.22
394.01	124.41
394.22	83.45
394.429	73.21
394.639	136.7
394.848	163.33
395.058	56.83
395.267	110.08
395.477	103.93
395.686	85.5
395.895	11.78
396.105	116.22
396.314	32.26
396.524	13.82
396.733	65.02
396.942	148.99
397.152	136.7
397.361	112.13
397.57	81.41
397.78	128.51
397.989	87.55
398.198	163.33
398.407	114.17
398.617	108.03
398.826	85.5
399.035	136.7
399.244	95.74
399.453	179.71
399.663	83.45
399.872	114.17
400.081	108.03
400.29	140.8
400.499	167.42
400.708	179.71
400.917	87.55
401.127	130.56
401.336	140.8
401.545	155.13
401.754	110.08
401.963	206.33
402.172	7.68
402.381	58.88
402.59	122.37
402.799	146.94
403.008	124.41
403.217	148.99
403.426	116.22
403.635	138.75
403.844	159.23
404.053	110.08
404.262	67.07
404.471	118.27
404.68	142.85
404.888	155.13
405.097	163.33
405.306	159.23
405.515	101.89
405.724	165.37
405.933	181.76
406.142	206.33
406.35	230.91
406.559	235
406.768	153.09
406.977	196.09
407.185	138.75
407.394	237.05
407.603	200.19
407.812	251.39
408.02	189.95
408.229	267.77
408.438	263.68
408.646	202.24
408.855	247.29
409.064	259.58
409.272	278.01
409.481	396.79
409.69	263.68
409.898	296.44
410.107	359.93
410.315	384.51
410.524	329.21
410.733	329.21
410.941	327.16
411.15	382.46
411.358	343.55
411.567	335.35
411.775	474.62
411.984	458.23
412.192	472.57
412.401	404.99
412.609	404.99
412.818	486.9
413.026	554.49
413.234	519.67
413.443	491
413.651	546.3
413.86	540.15
414.068	540.15
414.276	626.17
414.485	607.73
414.693	605.69
414.901	640.5
415.11	738.8
415.318	681.46
415.526	712.18
415.734	826.87
415.943	849.4
416.151	828.92
416.359	753.14
416.567	843.25
416.776	781.81
416.984	935.41
417.192	916.98
417.4	957.94
417.608	953.84
417.817	1009.14
418.025	953.84
418.233	1103.34
418.441	1103.34
418.649	1148.4
418.857	1299.95
419.065	1250.8
419.273	1222.13
419.481	1328.62
419.689	1406.44
419.897	1451.5
420.105	1404.39
420.313	1570.28
420.521	1557.99
420.729	1629.67
420.937	1656.29
421.145	1754.6
421.353	1840.61
421.561	1887.72
421.769	1891.81
421.977	1918.43
422.185	2049.5
422.393	2158.05
422.601	2282.97
422.809	2223.58
423.017	2264.54
423.224	2459.1
423.432	2383.32
423.64	2530.78
423.848	2602.46
424.056	2616.79
424.263	2729.43
424.471	2696.66
424.679	2801.11
424.887	2899.41
425.094	3091.92
425.302	3104.21
425.51	3126.74
425.718	3251.66
425.925	3237.33
426.133	3343.82
426.341	3526.09
426.548	3773.89
426.756	3808.71
426.964	3894.72
427.171	4138.43
427.379	4089.28
427.586	4249.02
427.794	4283.84
428.001	4584.89
428.209	4810.17
428.417	4515.26
428.624	5082.55
428.832	5014.96
429.039	4945.33
429.247	5064.11
429.454	5455.28
429.662	5746.09
429.869	5492.14
430.076	5871.01
430.284	5684.65
430.491	5909.93
430.699	6100.39
430.906	6051.24
431.114	6307.23
431.321	6493.6
431.528	6606.24
431.736	7042.45
431.943	7462.29
432.15	7003.54
432.358	7275.92
432.565	7669.13
432.772	7540.11
432.979	7968.13
433.187	8148.36
433.394	8248.71
433.601	8729.98
433.808	8826.23
434.016	8795.51
434.223	9203.06
434.43	9641.32
434.637	9538.93
434.844	9973.1
435.052	9958.76
435.259	10216.8
435.466	10190.18
435.673	10143.08
435.88	11103.57
436.087	11361.62
436.294	11316.56
436.501	11083.09
436.708	11300.18
436.915	11765.07
437.122	12465.47
437.329	12260.68
437.537	12651.84
437.743	12657.98
437.95	12862.78
438.157	13331.76
438.364	13759.79
438.571	13634.86
438.778	13733.17
438.985	15000.86
439.192	14597.41
439.399	14935.32
439.606	14644.51
439.813	15273.24
440.02	16190.73
440.227	16272.65
440.433	15936.78
440.64	16475.4
440.847	16350.47
441.054	16565.51
441.261	17892.59
441.467	17612.02
441.674	18097.39
441.881	18799.84
442.088	18599.14
442.294	18232.55
442.501	19084.51
442.708	19459.29
442.914	19997.9
443.121	20909.25
443.328	20524.23
443.534	21970.1
443.741	21112
443.948	20991.17
444.154	22557.86
444.361	22035.63
444.568	22535.34
444.774	22379.69
444.981	23028.9
445.187	23340.19
445.394	24695.94
445.6	24122.51
445.807	26350.7
446.013	25171.07
446.22	25801.85
446.426	26442.86
446.633	26932.33
446.839	27853.91
447.046	26854.5
447.252	28460.11
447.459	28058.71
447.665	28040.28
447.871	29285.44
448.078	30598.19
448.284	28996.68
448.491	29889.59
448.697	30946.34
448.903	31374.37
449.11	31628.32
449.316	31194.15
449.522	31628.32
449.728	32773.13
449.935	33078.28
450.141	32736.27
450.347	33469.44
450.553	32480.27
450.76	33231.88
450.966	34053.11
451.172	33682.43
451.378	34368.5
451.584	33864.7
451.791	34843.63
451.997	34638.83
452.203	35073
452.409	35070.95
452.615	34675.69
452.821	33637.37
453.027	33481.73
453.233	34982.89
453.44	33752.06
453.646	33879.04
453.852	34429.94
454.058	34917.36
454.264	33930.23
454.47	34700.27
454.676	33283.08
454.882	35124.2
455.088	31816.73
455.294	32554
455.5	32302.1
455.705	33192.97
455.911	31663.13
456.117	31288.35
456.323	30938.15
456.529	29045.83
456.735	30309.43
456.941	29615.16
457.147	29346.88
457.352	28384.33
457.558	28052.56
457.764	28083.28
457.97	27415.65
458.176	27069.54
458.381	26965.09
458.587	25902.2
458.793	25691.26
458.999	24341.64
459.204	26014.84
459.41	25541.75
459.616	23960.72
459.821	24009.87
460.027	23698.58
460.233	23364.76
460.438	22293.68
460.644	22584.49
460.85	21408.95
461.055	21030.08
461.261	21130.43
461.466	19789.01
461.672	18775.27
461.878	20358.35
462.083	18875.62
462.289	18590.95
462.494	18517.22
462.7	17812.72
462.905	17179.9
463.111	17620.21
463.316	17923.31
463.522	17376.5
463.727	17536.24
463.932	17569.01
464.138	17509.62
464.343	17599.73
464.549	17036.54
464.754	17325.3
464.959	17073.4
465.165	17243.38
465.37	16383.24
465.575	15965.45
465.781	16508.16
465.986	16817.41
466.191	16039.18
466.397	15697.17
466.602	15011.1
466.807	15762.7
467.012	15797.52
467.218	15465.75
467.423	15592.72
467.628	15437.08
467.833	16221.45
468.038	15299.86
