Data from USB4F104151__200__13-59-41-767.txt Node

Date: Thu Mar 13 13:59:41 EDT 2025
User: louis
Spectrometer: USB4F10415
Trigger mode: 4
Integration Time (sec): 1.000000E-2
Scans to average: 1
Electric dark correction enabled: true
Nonlinearity correction enabled: false
Boxcar width: 0
XAxis mode: Wavelengths
Number of Pixels in Spectrum: 3648
>>>>>Begin Spectral Data<<<<<
178.204	-107.52
178.424	-107.52
178.644	-107.52
178.864	-41.98
179.084	-105.47
179.304	1.02
179.524	21.5
179.744	-15.36
179.964	58.37
180.184	-35.84
180.404	-33.79
180.624	-68.61
180.844	-9.22
181.064	27.65
181.283	72.7
181.503	3.07
181.723	-21.5
181.943	-54.27
182.163	31.74
182.383	1.02
182.602	89.09
182.822	95.23
183.042	54.27
183.262	70.65
183.482	-21.5
183.701	15.36
183.921	3.07
184.141	-19.46
184.361	19.46
184.58	-11.26
184.8	62.46
185.02	23.55
185.239	97.28
185.459	17.41
185.679	9.22
185.898	-9.22
186.118	37.89
186.338	9.22
186.557	31.74
186.777	1.02
186.997	29.7
187.216	35.84
187.436	21.5
187.655	-17.41
187.875	-3.07
188.095	27.65
188.314	80.89
188.534	41.98
188.753	-25.6
188.973	52.22
189.192	23.55
189.412	37.89
189.631	125.95
189.851	-3.07
190.07	44.03
190.29	3.07
190.509	-11.26
190.729	74.75
190.948	3.07
191.168	-7.17
191.387	-35.84
191.607	27.65
191.826	-33.79
192.045	44.03
192.265	39.94
192.484	15.36
192.704	-19.46
192.923	70.65
193.142	37.89
193.362	62.46
193.581	-27.65
193.8	46.08
194.02	-66.56
194.239	33.79
194.458	27.65
194.678	-1.02
194.897	13.31
195.116	-1.02
195.335	19.46
195.555	-33.79
195.774	46.08
195.993	5.12
196.212	29.7
196.432	15.36
196.651	41.98
196.87	-11.26
197.089	33.79
197.308	39.94
197.528	56.32
197.747	-3.07
197.966	29.7
198.185	74.75
198.404	-60.42
198.623	-3.07
198.842	13.31
199.062	56.32
199.281	-21.5
199.5	50.18
199.719	89.09
199.938	54.27
200.157	7.17
200.376	-7.17
200.595	105.47
200.814	21.5
201.033	25.6
201.252	-44.03
201.471	33.79
201.69	7.17
201.909	23.55
202.128	7.17
202.347	-23.55
202.566	66.56
202.785	-27.65
203.004	-44.03
203.223	13.31
203.442	9.22
203.661	-56.32
203.879	109.57
204.098	70.65
204.317	-11.26
204.536	54.27
204.755	-19.46
204.974	60.42
205.193	-17.41
205.411	91.13
205.63	125.95
205.849	9.22
206.068	23.55
206.287	74.75
206.505	1.02
206.724	87.04
206.943	44.03
207.162	146.43
207.381	13.31
207.599	-1.02
207.818	35.84
208.037	74.75
208.255	50.18
208.474	-13.31
208.693	17.41
208.911	31.74
209.13	56.32
209.349	-9.22
209.567	1.02
209.786	17.41
210.005	7.17
210.223	78.85
210.442	-11.26
210.661	-27.65
210.879	80.89
211.098	31.74
211.316	58.37
211.535	74.75
211.753	19.46
211.972	5.12
212.191	46.08
212.409	21.5
212.628	-7.17
212.846	23.55
213.065	-9.22
213.283	21.5
213.502	66.56
213.72	64.51
213.938	21.5
214.157	37.89
214.375	84.99
214.594	-33.79
214.812	48.13
215.031	-48.13
215.249	31.74
215.467	62.46
215.686	52.22
215.904	52.22
216.122	-11.26
216.341	52.22
216.559	31.74
216.778	15.36
216.996	7.17
217.214	48.13
217.432	-13.31
217.651	87.04
217.869	7.17
218.087	-3.07
218.306	-21.5
218.524	113.66
218.742	39.94
218.96	23.55
219.179	-60.42
219.397	33.79
219.615	-11.26
219.833	-9.22
220.051	82.94
220.27	-23.55
220.488	-33.79
220.706	66.56
220.924	5.12
221.142	-27.65
221.36	56.32
221.578	37.89
221.796	29.7
222.015	19.46
222.233	3.07
222.451	11.26
222.669	-1.02
222.887	19.46
223.105	-11.26
223.323	29.7
223.541	68.61
223.759	11.26
223.977	-7.17
224.195	46.08
224.413	80.89
224.631	52.22
224.849	-52.22
225.067	113.66
225.285	41.98
225.503	-35.84
225.721	3.07
225.939	78.85
226.157	58.37
226.375	-39.94
226.592	21.5
226.81	-35.84
227.028	27.65
227.246	48.13
227.464	9.22
227.682	46.08
227.9	29.7
228.117	46.08
228.335	58.37
228.553	56.32
228.771	-33.79
228.989	39.94
229.206	7.17
229.424	-11.26
229.642	46.08
229.86	-33.79
230.077	17.41
230.295	-1.02
230.513	46.08
230.731	70.65
230.948	23.55
231.166	-3.07
231.384	-33.79
231.601	87.04
231.819	46.08
232.037	-35.84
232.254	33.79
232.472	-7.17
232.689	-1.02
232.907	111.61
233.125	46.08
233.342	7.17
233.56	52.22
233.777	29.7
233.995	72.7
234.213	27.65
234.43	31.74
234.648	-19.46
234.865	21.5
235.083	48.13
235.3	25.6
235.518	70.65
235.735	46.08
235.953	31.74
236.17	-11.26
236.388	80.89
236.605	-5.12
236.822	-27.65
237.04	25.6
237.257	5.12
237.475	7.17
237.692	52.22
237.909	56.32
238.127	62.46
238.344	25.6
238.562	15.36
238.779	31.74
238.996	62.46
239.214	78.85
239.431	33.79
239.648	60.42
239.865	37.89
240.083	33.79
240.3	39.94
240.517	9.22
240.735	41.98
240.952	9.22
241.169	148.48
241.386	91.13
241.603	1.02
241.821	27.65
242.038	56.32
242.255	33.79
242.472	78.85
242.689	82.94
242.907	128
243.124	5.12
243.341	17.41
243.558	25.6
243.775	-21.5
243.992	15.36
244.209	101.37
244.426	50.18
244.643	105.47
244.86	29.7
245.078	33.79
245.295	35.84
245.512	60.42
245.729	13.31
245.946	39.94
246.163	3.07
246.38	21.5
246.597	82.94
246.814	31.74
247.031	-19.46
247.248	21.5
247.464	54.27
247.681	107.52
247.898	5.12
248.115	5.12
248.332	-41.98
248.549	64.51
248.766	15.36
248.983	54.27
249.2	37.89
249.417	70.65
249.633	27.65
249.85	29.7
250.067	9.22
250.284	60.42
250.501	17.41
250.717	23.55
250.934	-39.94
251.151	3.07
251.368	62.46
251.585	31.74
251.801	21.5
252.018	21.5
252.235	15.36
252.451	21.5
252.668	62.46
252.885	101.37
253.102	-9.22
253.318	87.04
253.535	72.7
253.752	15.36
253.968	1.02
254.185	31.74
254.401	-54.27
254.618	-3.07
254.835	41.98
255.051	9.22
255.268	60.42
255.484	41.98
255.701	44.03
255.917	44.03
256.134	23.55
256.351	95.23
256.567	99.33
256.784	9.22
257	41.98
257.217	132.09
257.433	-13.31
257.65	31.74
257.866	91.13
258.082	27.65
258.299	68.61
258.515	33.79
258.732	58.37
258.948	48.13
259.165	31.74
259.381	37.89
259.597	31.74
259.814	7.17
260.03	-7.17
260.246	13.31
260.463	15.36
260.679	64.51
260.895	52.22
261.112	101.37
261.328	91.13
261.544	-19.46
261.761	35.84
261.977	115.71
262.193	-1.02
262.409	33.79
262.626	15.36
262.842	56.32
263.058	54.27
263.274	70.65
263.49	56.32
263.707	101.37
263.923	3.07
264.139	97.28
264.355	-1.02
264.571	84.99
264.787	17.41
265.004	37.89
265.22	1.02
265.436	21.5
265.652	62.46
265.868	21.5
266.084	-29.7
266.3	130.05
266.516	80.89
266.732	46.08
266.948	-27.65
267.164	70.65
267.38	23.55
267.596	29.7
267.812	39.94
268.028	52.22
268.244	66.56
268.46	66.56
268.676	39.94
268.892	62.46
269.108	70.65
269.324	35.84
269.54	44.03
269.756	74.75
269.972	11.26
270.188	78.85
270.403	41.98
270.619	80.89
270.835	121.85
271.051	29.7
271.267	23.55
271.483	-21.5
271.698	72.7
271.914	19.46
272.13	33.79
272.346	37.89
272.562	41.98
272.777	68.61
272.993	17.41
273.209	13.31
273.425	29.7
273.64	39.94
273.856	111.61
274.072	17.41
274.287	72.7
274.503	107.52
274.719	76.8
274.934	-11.26
275.15	9.22
275.366	41.98
275.581	46.08
275.797	62.46
276.012	29.7
276.228	29.7
276.444	11.26
276.659	54.27
276.875	19.46
277.09	27.65
277.306	74.75
277.521	54.27
277.737	46.08
277.952	31.74
278.168	23.55
278.383	121.85
278.599	-39.94
278.814	52.22
279.03	-1.02
279.245	56.32
279.461	-25.6
279.676	78.85
279.892	44.03
280.107	1.02
280.322	31.74
280.538	37.89
280.753	-11.26
280.969	44.03
281.184	27.65
281.399	91.13
281.615	41.98
281.83	113.66
282.045	-11.26
282.26	87.04
282.476	3.07
282.691	111.61
282.906	41.98
283.122	25.6
283.337	33.79
283.552	99.33
283.767	95.23
283.983	87.04
284.198	64.51
284.413	17.41
284.628	-39.94
284.843	115.71
285.058	35.84
285.274	-1.02
285.489	74.75
285.704	97.28
285.919	7.17
286.134	39.94
286.349	41.98
286.564	58.37
286.779	70.65
286.995	23.55
287.21	48.13
287.425	37.89
287.64	27.65
287.855	25.6
288.07	-50.18
288.285	48.13
288.5	29.7
288.715	3.07
288.93	39.94
289.145	9.22
289.36	37.89
289.575	39.94
289.79	89.09
290.004	54.27
290.219	33.79
290.434	13.31
290.649	60.42
290.864	-5.12
291.079	-5.12
291.294	66.56
291.509	37.89
291.724	-17.41
291.938	33.79
292.153	17.41
292.368	48.13
292.583	87.04
292.798	15.36
293.012	97.28
293.227	-1.02
293.442	99.33
293.657	48.13
293.871	37.89
294.086	72.7
294.301	87.04
294.516	31.74
294.73	-7.17
294.945	33.79
295.16	46.08
295.374	25.6
295.589	111.61
295.804	37.89
296.018	29.7
296.233	31.74
296.447	11.26
296.662	17.41
296.877	91.13
297.091	44.03
297.306	58.37
297.52	7.17
297.735	-1.02
297.949	82.94
298.164	78.85
298.378	-9.22
298.593	9.22
298.807	-1.02
299.022	91.13
299.236	62.46
299.451	21.5
299.665	46.08
299.88	25.6
300.094	103.42
300.309	64.51
300.523	23.55
300.737	-39.94
300.952	41.98
301.166	93.18
301.381	46.08
301.595	62.46
301.809	-25.6
302.024	7.17
302.238	39.94
302.452	-7.17
302.667	87.04
302.881	111.61
303.095	105.47
303.309	56.32
303.524	78.85
303.738	62.46
303.952	37.89
304.166	17.41
304.381	-1.02
304.595	33.79
304.809	-1.02
305.023	62.46
305.237	99.33
305.452	80.89
305.666	48.13
305.88	78.85
306.094	33.79
306.308	66.56
306.522	37.89
306.736	29.7
306.95	52.22
307.164	46.08
307.379	60.42
307.593	35.84
307.807	46.08
308.021	35.84
308.235	54.27
308.449	-25.6
308.663	89.09
308.877	82.94
309.091	54.27
309.305	41.98
309.519	5.12
309.733	27.65
309.947	39.94
310.161	105.47
310.374	27.65
310.588	56.32
310.802	48.13
311.016	3.07
311.23	15.36
311.444	62.46
311.658	15.36
311.872	-15.36
312.085	27.65
312.299	101.37
312.513	78.85
312.727	64.51
312.941	115.71
313.154	64.51
313.368	37.89
313.582	31.74
313.796	62.46
314.009	19.46
314.223	72.7
314.437	48.13
314.651	62.46
314.864	27.65
315.078	37.89
315.292	58.37
315.505	74.75
315.719	23.55
315.933	62.46
316.146	21.5
316.36	66.56
316.573	54.27
316.787	23.55
317.001	58.37
317.214	58.37
317.428	115.71
317.641	48.13
317.855	74.75
318.068	76.8
318.282	7.17
318.495	-11.26
318.709	15.36
318.922	80.89
319.136	128
319.349	15.36
319.563	107.52
319.776	1.02
319.99	60.42
320.203	99.33
320.417	25.6
320.63	76.8
320.843	70.65
321.057	5.12
321.27	70.65
321.483	46.08
321.697	39.94
321.91	15.36
322.124	17.41
322.337	72.7
322.55	11.26
322.763	1.02
322.977	33.79
323.19	37.89
323.403	52.22
323.617	101.37
323.83	99.33
324.043	23.55
324.256	107.52
324.469	7.17
324.683	146.43
324.896	19.46
325.109	21.5
325.322	44.03
325.535	3.07
325.748	1.02
325.962	119.81
326.175	54.27
326.388	-3.07
326.601	21.5
326.814	48.13
327.027	52.22
327.24	101.37
327.453	58.37
327.666	54.27
327.879	13.31
328.092	87.04
328.305	-11.26
328.518	72.7
328.731	60.42
328.944	97.28
329.157	56.32
329.37	64.51
329.583	31.74
329.796	62.46
330.009	60.42
330.222	54.27
330.435	136.19
330.648	3.07
330.861	37.89
331.073	19.46
331.286	74.75
331.499	-3.07
331.712	80.89
331.925	46.08
332.138	33.79
332.35	35.84
332.563	76.8
332.776	95.23
332.989	68.61
333.202	41.98
333.414	3.07
333.627	95.23
333.84	56.32
334.053	87.04
334.265	37.89
334.478	-21.5
334.691	23.55
334.903	119.81
335.116	3.07
335.329	60.42
335.541	70.65
335.754	46.08
335.966	60.42
336.179	33.79
336.392	1.02
336.604	68.61
336.817	-41.98
337.029	101.37
337.242	41.98
337.454	62.46
337.667	103.42
337.88	82.94
338.092	9.22
338.305	101.37
338.517	5.12
338.729	130.05
338.942	66.56
339.154	52.22
339.367	17.41
339.579	29.7
339.792	93.18
340.004	99.33
340.217	37.89
340.429	84.99
340.641	52.22
340.854	44.03
341.066	-15.36
341.278	-3.07
341.491	113.66
341.703	101.37
341.915	39.94
342.128	89.09
342.34	-39.94
342.552	56.32
342.764	25.6
342.977	78.85
343.189	54.27
343.401	23.55
343.613	9.22
343.826	48.13
344.038	25.6
344.25	33.79
344.462	60.42
344.674	56.32
344.886	60.42
345.099	31.74
345.311	76.8
345.523	37.89
345.735	-15.36
345.947	80.89
346.159	-3.07
346.371	21.5
346.583	27.65
346.795	105.47
347.007	115.71
347.219	52.22
347.431	60.42
347.643	128
347.855	-17.41
348.067	95.23
348.279	9.22
348.491	46.08
348.703	41.98
348.915	82.94
349.127	99.33
349.339	21.5
349.551	-7.17
349.763	37.89
349.975	35.84
350.187	64.51
350.399	125.95
350.61	-35.84
350.822	89.09
351.034	103.42
351.246	101.37
351.458	41.98
351.669	58.37
351.881	78.85
352.093	7.17
352.305	50.18
352.517	41.98
352.728	93.18
352.94	84.99
353.152	50.18
353.363	46.08
353.575	72.7
353.787	50.18
353.999	21.5
354.21	44.03
354.422	-35.84
354.633	91.13
354.845	52.22
355.057	70.65
355.268	72.7
355.48	54.27
355.692	76.8
355.903	-37.89
356.115	78.85
356.326	70.65
356.538	78.85
356.749	46.08
356.961	44.03
357.172	-1.02
357.384	76.8
357.595	60.42
357.807	111.61
358.018	121.85
358.23	64.51
358.441	33.79
358.653	37.89
358.864	91.13
359.075	46.08
359.287	91.13
359.498	9.22
359.709	27.65
359.921	7.17
360.132	68.61
360.344	52.22
360.555	39.94
360.766	50.18
360.977	74.75
361.189	74.75
361.4	52.22
361.611	80.89
361.823	109.57
362.034	7.17
362.245	70.65
362.456	21.5
362.667	58.37
362.879	62.46
363.09	97.28
363.301	-50.18
363.512	89.09
363.723	17.41
363.935	3.07
364.146	72.7
364.357	-7.17
364.568	107.52
364.779	-9.22
364.99	74.75
365.201	31.74
365.412	103.42
365.623	29.7
365.834	9.22
366.045	66.56
366.256	62.46
366.467	50.18
366.678	31.74
366.889	76.8
367.1	62.46
367.311	91.13
367.522	95.23
367.733	46.08
367.944	91.13
368.155	80.89
368.366	64.51
368.577	29.7
368.788	13.31
368.999	97.28
369.209	41.98
369.42	44.03
369.631	29.7
369.842	44.03
370.053	64.51
370.264	54.27
370.474	37.89
370.685	78.85
370.896	72.7
371.107	76.8
371.317	99.33
371.528	84.99
371.739	99.33
371.95	74.75
372.16	87.04
372.371	66.56
372.582	17.41
372.792	74.75
373.003	23.55
373.214	39.94
373.424	113.66
373.635	74.75
373.846	21.5
374.056	48.13
374.267	136.19
374.477	35.84
374.688	80.89
374.898	23.55
375.109	78.85
375.319	-33.79
375.53	76.8
375.74	74.75
375.951	54.27
376.161	95.23
376.372	41.98
376.582	33.79
376.793	68.61
377.003	52.22
377.214	13.31
377.424	54.27
377.635	-37.89
377.845	84.99
378.055	89.09
378.266	35.84
378.476	82.94
378.686	62.46
378.897	25.6
379.107	99.33
379.317	70.65
379.528	80.89
379.738	103.42
379.948	13.31
380.158	62.46
380.369	21.5
380.579	52.22
380.789	123.9
380.999	52.22
381.21	46.08
381.42	87.04
381.63	150.53
381.84	66.56
382.05	82.94
382.261	60.42
382.471	95.23
382.681	13.31
382.891	76.8
383.101	123.9
383.311	48.13
383.521	91.13
383.731	74.75
383.941	107.52
384.151	76.8
384.361	25.6
384.571	46.08
384.781	56.32
384.991	111.61
385.201	115.71
385.411	35.84
385.621	68.61
385.831	39.94
386.041	101.37
386.251	99.33
386.461	52.22
386.671	95.23
386.881	111.61
387.091	97.28
387.301	95.23
387.511	107.52
387.72	105.47
387.93	56.32
388.14	52.22
388.35	115.71
388.56	144.38
388.769	91.13
388.979	58.37
389.189	128
389.399	54.27
389.609	78.85
389.818	115.71
390.028	58.37
390.238	62.46
390.447	37.89
390.657	48.13
390.867	62.46
391.076	103.42
391.286	66.56
391.496	31.74
391.705	134.14
391.915	64.51
392.125	111.61
392.334	64.51
392.544	117.76
392.753	80.89
392.963	91.13
393.172	162.81
393.382	9.22
393.591	62.46
393.801	72.7
394.01	78.85
394.22	52.22
394.429	89.09
394.639	80.89
394.848	62.46
395.058	68.61
395.267	101.37
395.477	158.72
395.686	173.05
395.895	97.28
396.105	111.61
396.314	111.61
396.524	125.95
396.733	166.91
396.942	113.66
397.152	130.05
397.361	76.8
397.57	146.43
397.78	216.06
397.989	103.42
398.198	140.29
398.407	41.98
398.617	130.05
398.826	111.61
399.035	82.94
399.244	121.85
399.453	142.33
399.663	142.33
399.872	111.61
400.081	78.85
400.29	195.58
400.499	97.28
400.708	201.72
400.917	99.33
401.127	109.57
401.336	87.04
401.545	179.2
401.754	203.77
401.963	136.19
402.172	97.28
402.381	175.1
402.59	181.25
402.799	111.61
403.008	201.72
403.217	146.43
403.426	105.47
403.635	148.48
403.844	173.05
404.053	179.2
404.262	218.11
404.471	234.49
404.68	130.05
404.888	168.96
405.097	189.44
405.306	195.58
405.515	185.34
405.724	209.92
405.933	234.49
406.142	193.53
406.35	218.11
406.559	234.49
406.768	193.53
406.977	228.35
407.185	242.68
407.394	252.92
407.603	234.49
407.812	322.56
408.02	197.63
408.229	216.06
408.438	211.96
408.646	244.73
408.855	302.08
409.064	353.27
409.272	365.56
409.481	332.79
409.69	295.93
409.898	338.94
410.107	297.98
410.315	357.37
410.524	377.85
410.733	424.95
410.941	390.14
411.15	490.49
411.358	476.15
411.567	537.59
411.775	478.2
411.984	443.39
412.192	478.2
412.401	525.3
412.609	498.68
412.818	617.46
413.026	617.46
413.234	523.26
413.443	668.66
413.651	556.02
413.86	664.57
414.068	723.96
414.276	709.62
414.485	738.29
414.693	736.24
414.901	738.29
415.11	838.64
415.318	834.55
415.526	908.27
415.734	922.61
415.943	902.13
416.151	955.38
416.359	986.1
416.567	906.23
416.776	928.75
416.984	1022.96
417.192	1086.45
417.4	1108.98
417.608	1111.02
417.817	1186.8
418.025	1258.48
418.233	1301.48
418.441	1313.77
418.649	1326.06
418.857	1432.55
419.065	1446.89
419.273	1405.93
419.481	1547.24
419.689	1702.89
419.897	1725.41
420.105	1745.89
420.313	1799.14
420.521	1813.48
420.729	1858.53
420.937	1850.34
421.145	1987.55
421.353	2114.53
421.561	2151.39
421.769	2120.67
421.977	2288.61
422.185	2331.61
422.393	2462.68
422.601	2585.56
422.809	2603.99
423.017	2536.41
423.224	2790.36
423.432	2694.1
423.64	2864.08
423.848	3011.54
424.056	2954.19
424.263	3154.9
424.471	3333.07
424.679	3150.8
424.887	3541.96
425.094	3589.07
425.302	3466.19
425.51	3613.64
425.718	3754.95
425.925	3926.98
426.133	4086.72
426.341	4115.39
426.548	4379.58
426.756	4344.77
426.964	4430.78
427.171	4707.26
427.379	4821.94
427.586	4787.13
427.794	5088.18
428.001	5325.74
428.209	5376.94
428.417	5518.25
428.624	5647.27
428.832	5987.24
429.039	5727.14
429.247	5741.48
429.454	6398.88
429.662	6607.77
429.869	6323.1
430.076	6767.51
430.284	6534.04
430.491	6820.76
430.699	7177.11
430.906	7320.46
431.114	7594.89
431.321	7715.72
431.528	7711.63
431.736	8360.83
431.943	8706.94
432.15	8272.77
432.358	8377.22
432.565	9003.89
432.772	8915.83
432.979	9390.96
433.187	9298.8
433.394	9569.13
433.601	10304.35
433.808	10287.97
434.016	10120.04
434.223	10687.32
434.43	11260.76
434.637	10892.12
434.844	11746.12
435.052	11936.59
435.259	11637.58
435.466	12116.81
435.673	11688.78
435.88	12477.25
436.087	13540.15
436.294	13208.37
436.501	12938.04
436.708	13124.41
436.915	13855.53
437.122	14127.91
437.329	14236.45
437.537	14545.7
437.743	14842.65
437.95	14971.68
438.157	15514.39
438.364	16182.03
438.571	15999.76
438.778	16120.59
438.985	17748.72
439.192	16829.18
439.399	17439.48
439.606	17255.16
439.813	17896.17
440.02	19145.44
440.227	18625.25
440.433	18590.44
440.64	19354.33
440.847	19321.56
441.054	19735.25
441.261	20755.14
441.467	20554.44
441.674	20871.87
441.881	21768.88
442.088	21981.87
442.294	21455.54
442.501	22000.3
442.708	22422.19
442.914	23521.95
443.121	24388.24
443.328	23745.17
443.534	25217.66
443.741	25025.15
443.948	24347.28
444.154	26372.72
444.361	26217.07
444.568	26049.14
444.774	26546.79
444.981	26419.82
445.187	26884.71
445.394	28224.08
445.6	28336.72
445.807	30779.95
446.013	29370.94
446.22	29751.87
446.426	30915.11
446.633	31011.37
446.839	32627.21
447.046	31498.78
447.252	32995.85
447.459	33116.68
447.665	32555.54
447.871	33954.3
448.078	35475.94
448.284	33919.48
448.491	35006.95
448.697	36207.06
448.903	36825.55
449.11	36880.85
449.316	36399.57
449.522	36880.85
449.728	38087.1
449.935	38265.27
450.141	38406.58
450.347	38990.25
450.553	37972.41
450.76	38302.14
450.966	39799.2
451.172	39131.56
451.378	40004
451.584	39444.9
451.791	40524.18
451.997	40432.02
452.203	40960.4
452.409	41150.86
452.615	40814.99
452.821	38683.06
453.027	38807.98
453.233	40892.82
453.44	39379.37
453.646	39596.45
453.852	39506.34
454.058	40884.62
454.264	39395.75
454.47	40450.45
454.676	39039.4
454.882	40444.31
455.088	37179.85
455.294	37745.09
455.5	38357.43
455.705	38445.49
455.911	36966.86
456.117	36229.59
456.323	35787.23
456.529	33796.6
456.735	35418.6
456.941	34546.16
457.147	33810.94
457.352	32909.83
457.558	32336.4
457.764	32596.49
457.97	32342.55
458.176	31060.52
458.381	31285.79
458.587	30048.82
458.793	29954.61
458.999	28572.24
459.204	30687.79
459.41	29745.72
459.616	27744.86
459.821	27687.51
460.027	27642.46
460.233	27105.89
460.438	25801.33
460.644	26157.68
460.85	24818.31
461.055	24445.58
461.261	24472.2
461.466	22629.03
461.672	22119.09
461.878	23612.06
462.083	21826.23
462.289	21547.7
462.494	21402.3
462.7	20386.5
462.905	20069.07
463.111	20861.63
463.316	20789.95
463.522	20376.27
463.727	20230.86
463.932	20220.62
464.138	19952.34
464.343	20122.32
464.549	19610.32
464.754	20298.44
464.959	20296.39
465.165	19813.07
465.37	19305.18
465.575	18735.84
465.781	19290.84
465.986	19571.41
466.191	18889.44
466.397	18340.58
466.602	17464.05
466.807	18313.96
467.012	18471.65
467.218	18318.06
467.423	17930.99
467.628	18100.97
467.833	18871.01
