Data from USB4F104151__6__13-52-08-085.txt Node

Date: Thu Mar 13 13:52:08 EDT 2025
User: louis
Spectrometer: USB4F10415
Trigger mode: 4
Integration Time (sec): 1.000000E-2
Scans to average: 1
Electric dark correction enabled: true
Nonlinearity correction enabled: false
Boxcar width: 0
XAxis mode: Wavelengths
Number of Pixels in Spectrum: 3648
>>>>>Begin Spectral Data<<<<<
178.204	-26.79
178.424	-26.79
178.644	-26.79
178.864	-30.89
179.084	-18.6
179.304	-24.75
179.524	5.97
179.744	1.88
179.964	10.07
180.184	5.97
180.404	18.26
180.624	-20.65
180.844	28.5
181.064	5.97
181.283	-4.27
181.503	-65.71
181.723	38.74
181.943	22.36
182.163	126.8
182.383	10.07
182.602	34.64
182.822	14.17
183.042	18.26
183.262	59.22
183.482	44.88
183.701	26.45
183.921	61.27
184.141	22.36
184.361	87.89
184.58	22.36
184.8	44.88
185.02	-0.17
185.239	28.5
185.459	65.36
185.679	61.27
185.898	-26.79
186.118	75.6
186.338	3.93
186.557	20.31
186.777	28.5
186.997	42.84
187.216	-26.79
187.436	-22.7
187.655	38.74
187.875	-24.75
188.095	48.98
188.314	-4.27
188.534	16.21
188.753	40.79
188.973	18.26
189.192	38.74
189.412	59.22
189.631	46.93
189.851	42.84
190.07	-28.84
190.29	-22.7
190.509	44.88
190.729	12.12
190.948	10.07
191.168	5.97
191.387	16.21
191.607	24.4
191.826	-0.17
192.045	71.51
192.265	61.27
192.484	-6.31
192.704	34.64
192.923	55.12
193.142	5.97
193.362	28.5
193.581	-10.41
193.8	-10.41
194.02	30.55
194.239	32.6
194.458	-22.7
194.678	34.64
194.897	8.02
195.116	32.6
195.335	-12.46
195.555	10.07
195.774	22.36
195.993	28.5
196.212	53.08
196.432	3.93
196.651	28.5
196.87	36.69
197.089	32.6
197.308	-4.27
197.528	51.03
197.747	30.55
197.966	24.4
198.185	81.75
198.404	18.26
198.623	67.41
198.842	30.55
199.062	12.12
199.281	89.94
199.5	32.6
199.719	20.31
199.938	79.7
200.157	46.93
200.376	24.4
200.595	30.55
200.814	-4.27
201.033	14.17
201.252	-2.22
201.471	-8.36
201.69	28.5
201.909	5.97
202.128	69.46
202.347	22.36
202.566	28.5
202.785	-34.99
203.004	30.55
203.223	12.12
203.442	79.7
203.661	-22.7
203.879	-30.89
204.098	-22.7
204.317	53.08
204.536	-2.22
204.755	75.6
204.974	-8.36
205.193	-6.31
205.411	106.32
205.63	20.31
205.849	-30.89
206.068	81.75
206.287	-4.27
206.505	24.4
206.724	79.7
206.943	-63.66
207.162	10.07
207.381	-49.32
207.599	34.64
207.818	-0.17
208.037	-16.55
208.255	51.03
208.474	1.88
208.693	18.26
208.911	8.02
209.13	22.36
209.349	-34.99
209.567	122.71
209.786	122.71
210.005	20.31
210.223	-2.22
210.442	-8.36
210.661	10.07
210.879	30.55
211.098	18.26
211.316	34.64
211.535	-67.75
211.753	59.22
211.972	83.8
212.191	1.88
212.409	14.17
212.628	71.51
212.846	20.31
213.065	71.51
213.283	-14.51
213.502	69.46
213.72	-10.41
213.938	-10.41
214.157	3.93
214.375	75.6
214.594	55.12
214.812	-10.41
215.031	30.55
215.249	26.45
215.467	32.6
215.686	48.98
215.904	32.6
216.122	26.45
216.341	-20.65
216.559	1.88
216.778	44.88
216.996	-8.36
217.214	73.56
217.432	-45.23
217.651	10.07
217.869	-53.42
218.087	16.21
218.306	5.97
218.524	32.6
218.742	5.97
218.96	3.93
219.179	96.08
219.397	-45.23
219.615	73.56
219.833	67.41
220.051	10.07
220.27	14.17
220.488	-18.6
220.706	8.02
220.924	44.88
221.142	18.26
221.36	-41.13
221.578	-8.36
221.796	59.22
222.015	28.5
222.233	-18.6
222.451	34.64
222.669	-18.6
222.887	10.07
223.105	100.18
223.323	57.17
223.541	20.31
223.759	87.89
223.977	-0.17
224.195	32.6
224.413	-16.55
224.631	-10.41
224.849	53.08
225.067	44.88
225.285	-12.46
225.503	-6.31
225.721	-34.99
225.939	57.17
226.157	53.08
226.375	87.89
226.592	32.6
226.81	36.69
227.028	-8.36
227.246	65.36
227.464	-18.6
227.682	22.36
227.9	51.03
228.117	55.12
228.335	-28.84
228.553	32.6
228.771	-88.23
228.989	28.5
229.206	26.45
229.424	36.69
229.642	71.51
229.86	20.31
230.077	48.98
230.295	85.84
230.513	77.65
230.731	26.45
230.948	36.69
231.166	24.4
231.384	53.08
231.601	67.41
231.819	114.52
232.037	38.74
232.254	59.22
232.472	38.74
232.689	10.07
232.907	5.97
233.125	-22.7
233.342	-14.51
233.56	46.93
233.777	-10.41
233.995	-37.03
234.213	44.88
234.43	16.21
234.648	16.21
234.865	55.12
235.083	51.03
235.3	-10.41
235.518	100.18
235.735	16.21
235.953	69.46
236.17	-14.51
236.388	22.36
236.605	61.27
236.822	77.65
237.04	-2.22
237.257	8.02
237.475	26.45
237.692	-4.27
237.909	104.28
238.127	14.17
238.344	65.36
238.562	59.22
238.779	40.79
238.996	-61.61
239.214	-32.94
239.431	22.36
239.648	1.88
239.865	73.56
240.083	-0.17
240.3	34.64
240.517	69.46
240.735	38.74
240.952	42.84
241.169	-32.94
241.386	-20.65
241.603	34.64
241.821	26.45
242.038	20.31
242.255	28.5
242.472	79.7
242.689	10.07
242.907	69.46
243.124	42.84
243.341	59.22
243.558	8.02
243.775	46.93
243.992	-20.65
244.209	94.04
244.426	51.03
244.643	20.31
244.86	67.41
245.078	71.51
245.295	122.71
245.512	87.89
245.729	40.79
245.946	53.08
246.163	28.5
246.38	69.46
246.597	51.03
246.814	-12.46
247.031	-10.41
247.248	34.64
247.464	57.17
247.681	8.02
247.898	14.17
248.115	-2.22
248.332	48.98
248.549	46.93
248.766	53.08
248.983	108.37
249.2	-24.75
249.417	16.21
249.633	5.97
249.85	69.46
250.067	-2.22
250.284	14.17
250.501	73.56
250.717	85.84
250.934	-12.46
251.151	5.97
251.368	-10.41
251.585	120.66
251.801	-10.41
252.018	63.32
252.235	-22.7
252.451	30.55
252.668	83.8
252.885	75.6
253.102	51.03
253.318	112.47
253.535	-16.55
253.752	8.02
253.968	3.93
254.185	59.22
254.401	5.97
254.618	65.36
254.835	32.6
255.051	16.21
255.268	36.69
255.484	10.07
255.701	34.64
255.917	32.6
256.134	-61.61
256.351	63.32
256.567	24.4
256.784	114.52
257	-0.17
257.217	87.89
257.433	34.64
257.65	79.7
257.866	12.12
258.082	63.32
258.299	-14.51
258.515	77.65
258.732	12.12
258.948	-8.36
259.165	71.51
259.381	5.97
259.597	71.51
259.814	83.8
260.03	79.7
260.246	55.12
260.463	79.7
260.679	85.84
260.895	5.97
261.112	-8.36
261.328	32.6
261.544	48.98
261.761	-2.22
261.977	42.84
262.193	22.36
262.409	104.28
262.626	55.12
262.842	26.45
263.058	24.4
263.274	77.65
263.49	-0.17
263.707	48.98
263.923	167.76
264.139	3.93
264.355	-43.18
264.571	65.36
264.787	-4.27
265.004	57.17
265.22	69.46
265.436	28.5
265.652	28.5
265.868	1.88
266.084	38.74
266.3	36.69
266.516	-47.27
266.732	28.5
266.948	73.56
267.164	40.79
267.38	-14.51
267.596	51.03
267.812	16.21
268.028	100.18
268.244	-45.23
268.46	130.9
268.676	-4.27
268.892	51.03
269.108	18.26
269.324	42.84
269.54	26.45
269.756	42.84
269.972	108.37
270.188	46.93
270.403	10.07
270.619	40.79
270.835	-20.65
271.051	24.4
271.267	3.93
271.483	57.17
271.698	-0.17
271.914	42.84
272.13	3.93
272.346	59.22
272.562	-10.41
272.777	79.7
272.993	-43.18
273.209	-10.41
273.425	26.45
273.64	91.99
273.856	42.84
274.072	34.64
274.287	22.36
274.503	85.84
274.719	38.74
274.934	44.88
275.15	-18.6
275.366	77.65
275.581	137.04
275.797	51.03
276.012	32.6
276.228	-6.31
276.444	18.26
276.659	69.46
276.875	22.36
277.09	16.21
277.306	53.08
277.521	3.93
277.737	-57.51
277.952	36.69
278.168	30.55
278.383	-34.99
278.599	46.93
278.814	91.99
279.03	46.93
279.245	18.26
279.461	42.84
279.676	42.84
279.892	42.84
280.107	42.84
280.322	67.41
280.538	5.97
280.753	53.08
280.969	53.08
281.184	-10.41
281.399	38.74
281.615	12.12
281.83	79.7
282.045	42.84
282.26	110.42
282.476	75.6
282.691	36.69
282.906	30.55
283.122	44.88
283.337	28.5
283.552	91.99
283.767	18.26
283.983	30.55
284.198	-4.27
284.413	42.84
284.628	-43.18
284.843	98.13
285.058	14.17
285.274	-10.41
285.489	-2.22
285.704	114.52
285.919	24.4
286.134	132.95
286.349	51.03
286.564	40.79
286.779	57.17
286.995	40.79
287.21	3.93
287.425	20.31
287.64	-28.84
287.855	1.88
288.07	57.17
288.285	75.6
288.5	20.31
288.715	32.6
288.93	24.4
289.145	42.84
289.36	-12.46
289.575	24.4
289.79	77.65
290.004	135
290.219	87.89
290.434	48.98
290.649	-30.89
290.864	83.8
291.079	46.93
291.294	75.6
291.509	36.69
291.724	87.89
291.938	8.02
292.153	1.88
292.368	-30.89
292.583	65.36
292.798	24.4
293.012	30.55
293.227	-16.55
293.442	48.98
293.657	-0.17
293.871	53.08
294.086	71.51
294.301	98.13
294.516	3.93
294.73	12.12
294.945	38.74
295.16	51.03
295.374	40.79
295.589	3.93
295.804	-8.36
296.018	51.03
296.233	10.07
296.447	53.08
296.662	18.26
296.877	20.31
297.091	-51.37
297.306	-34.99
297.52	-49.32
297.735	38.74
297.949	5.97
298.164	98.13
298.378	81.75
298.593	34.64
298.807	14.17
299.022	79.7
299.236	65.36
299.451	-12.46
299.665	10.07
299.88	14.17
300.094	-16.55
300.309	55.12
300.523	30.55
300.737	67.41
300.952	-30.89
301.166	34.64
301.381	18.26
301.595	-34.99
301.809	-14.51
302.024	81.75
302.238	85.84
302.452	30.55
302.667	51.03
302.881	44.88
303.095	85.84
303.309	36.69
303.524	28.5
303.738	26.45
303.952	20.31
304.166	75.6
304.381	-12.46
304.595	83.8
304.809	126.8
305.023	77.65
305.237	24.4
305.452	102.23
305.666	-71.85
305.88	42.84
306.094	14.17
306.308	44.88
306.522	-6.31
306.736	61.27
306.95	-4.27
307.164	81.75
307.379	14.17
307.593	63.32
307.807	20.31
308.021	53.08
308.235	26.45
308.449	48.98
308.663	14.17
308.877	75.6
309.091	-0.17
309.305	59.22
309.519	14.17
309.733	73.56
309.947	12.12
310.161	112.47
310.374	36.69
310.588	104.28
310.802	-0.17
311.016	77.65
311.23	-59.56
311.444	59.22
311.658	-14.51
311.872	59.22
312.085	30.55
312.299	65.36
312.513	83.8
312.727	98.13
312.941	87.89
313.154	38.74
313.368	26.45
313.582	22.36
313.796	71.51
314.009	3.93
314.223	59.22
314.437	36.69
314.651	-8.36
314.864	59.22
315.078	89.94
315.292	3.93
315.505	12.12
315.719	36.69
315.933	71.51
316.146	8.02
316.36	-55.47
316.573	32.6
316.787	-0.17
317.001	48.98
317.214	48.98
317.428	3.93
317.641	59.22
317.855	-6.31
318.068	10.07
318.282	46.93
318.495	53.08
318.709	-2.22
318.922	38.74
319.136	73.56
319.349	28.5
319.563	110.42
319.776	40.79
319.99	57.17
320.203	40.79
320.417	75.6
320.63	44.88
320.843	51.03
321.057	79.7
321.27	26.45
321.483	59.22
321.697	34.64
321.91	61.27
322.124	22.36
322.337	36.69
322.55	89.94
322.763	73.56
322.977	5.97
323.19	104.28
323.403	26.45
323.617	32.6
323.83	102.23
324.043	32.6
324.256	26.45
324.469	75.6
324.683	59.22
324.896	-22.7
325.109	44.88
325.322	3.93
325.535	98.13
325.748	26.45
325.962	55.12
326.175	67.41
326.388	100.18
326.601	46.93
326.814	1.88
327.027	14.17
327.24	94.04
327.453	30.55
327.666	42.84
327.879	40.79
328.092	46.93
328.305	79.7
328.518	42.84
328.731	14.17
328.944	59.22
329.157	-6.31
329.37	75.6
329.583	-0.17
329.796	57.17
330.009	14.17
330.222	53.08
330.435	87.89
330.648	26.45
330.861	42.84
331.073	46.93
331.286	75.6
331.499	38.74
331.712	44.88
331.925	30.55
332.138	73.56
332.35	-8.36
332.563	69.46
332.776	87.89
332.989	-12.46
333.202	38.74
333.414	-16.55
333.627	8.02
333.84	32.6
334.053	104.28
334.265	24.4
334.478	57.17
334.691	1.88
334.903	120.66
335.116	94.04
335.329	-24.75
335.541	65.36
335.754	22.36
335.966	-14.51
336.179	3.93
336.392	61.27
336.604	51.03
336.817	22.36
337.029	83.8
337.242	67.41
337.454	83.8
337.667	-32.94
337.88	12.12
338.092	46.93
338.305	114.52
338.517	16.21
338.729	53.08
338.942	-20.65
339.154	59.22
339.367	89.94
339.579	65.36
339.792	16.21
340.004	44.88
340.217	22.36
340.429	42.84
340.641	-55.47
340.854	10.07
341.066	71.51
341.278	94.04
341.491	98.13
341.703	51.03
341.915	8.02
342.128	36.69
342.34	91.99
342.552	-0.17
342.764	20.31
342.977	30.55
343.189	61.27
343.401	20.31
343.613	12.12
343.826	42.84
344.038	71.51
344.25	3.93
344.462	-0.17
344.674	55.12
344.886	-8.36
345.099	-4.27
345.311	32.6
345.523	65.36
345.735	-20.65
345.947	20.31
346.159	-45.23
346.371	44.88
346.583	65.36
346.795	22.36
347.007	34.64
347.219	63.32
347.431	10.07
347.643	36.69
347.855	48.98
348.067	53.08
348.279	63.32
348.491	48.98
348.703	-14.51
348.915	118.61
349.127	73.56
349.339	87.89
349.551	-30.89
349.763	38.74
349.975	67.41
350.187	83.8
350.399	55.12
350.61	30.55
350.822	71.51
351.034	42.84
351.246	100.18
351.458	20.31
351.669	51.03
351.881	16.21
352.093	96.08
352.305	10.07
352.517	108.37
352.728	108.37
352.94	-10.41
353.152	42.84
353.363	28.5
353.575	108.37
353.787	38.74
353.999	77.65
354.21	8.02
354.422	36.69
354.633	14.17
354.845	102.23
355.057	63.32
355.268	38.74
355.48	30.55
355.692	44.88
355.903	104.28
356.115	18.26
356.326	40.79
356.538	65.36
356.749	-59.56
356.961	98.13
357.172	28.5
357.384	65.36
357.595	79.7
357.807	22.36
358.018	79.7
358.23	83.8
358.441	79.7
358.653	32.6
358.864	34.64
359.075	57.17
359.287	71.51
359.498	118.61
359.709	-37.03
359.921	-0.17
360.132	38.74
360.344	20.31
360.555	63.32
360.766	26.45
360.977	89.94
361.189	24.4
361.4	75.6
361.611	44.88
361.823	81.75
362.034	20.31
362.245	81.75
362.456	69.46
362.667	46.93
362.879	48.98
363.09	77.65
363.301	53.08
363.512	40.79
363.723	57.17
363.935	20.31
364.146	36.69
364.357	24.4
364.568	32.6
364.779	53.08
364.99	110.42
365.201	28.5
365.412	10.07
365.623	-26.79
365.834	46.93
366.045	53.08
366.256	-22.7
366.467	57.17
366.678	32.6
366.889	77.65
367.1	89.94
367.311	81.75
367.522	36.69
367.733	67.41
367.944	106.32
368.155	61.27
368.366	87.89
368.577	73.56
368.788	-10.41
368.999	81.75
369.209	57.17
369.42	71.51
369.631	5.97
369.842	108.37
370.053	14.17
370.264	-14.51
370.474	26.45
370.685	28.5
370.896	-6.31
371.107	81.75
371.317	32.6
371.528	34.64
371.739	28.5
371.95	51.03
372.16	118.61
372.371	69.46
372.582	51.03
372.792	18.26
373.003	98.13
373.214	85.84
373.424	91.99
373.635	67.41
373.846	46.93
374.056	30.55
374.267	32.6
374.477	87.89
374.688	71.51
374.898	59.22
375.109	63.32
375.319	51.03
375.53	59.22
375.74	67.41
375.951	61.27
376.161	114.52
376.372	-14.51
376.582	10.07
376.793	65.36
377.003	42.84
377.214	85.84
377.424	16.21
377.635	38.74
377.845	42.84
378.055	-4.27
378.266	20.31
378.476	44.88
378.686	83.8
378.897	30.55
379.107	75.6
379.317	12.12
379.528	59.22
379.738	16.21
379.948	79.7
380.158	128.85
380.369	63.32
380.579	102.23
380.789	36.69
380.999	83.8
381.21	55.12
381.42	61.27
381.63	-8.36
381.84	16.21
382.05	12.12
382.261	73.56
382.471	8.02
382.681	20.31
382.891	61.27
383.101	71.51
383.311	71.51
383.521	69.46
383.731	59.22
383.941	53.08
384.151	85.84
384.361	57.17
384.571	85.84
384.781	135
384.991	57.17
385.201	32.6
385.411	71.51
385.621	112.47
385.831	42.84
386.041	100.18
386.251	16.21
386.461	51.03
386.671	42.84
386.881	77.65
387.091	55.12
387.301	55.12
387.511	89.94
387.72	71.51
387.93	81.75
388.14	32.6
388.35	151.38
388.56	96.08
388.769	42.84
388.979	36.69
389.189	3.93
389.399	77.65
389.609	46.93
389.818	149.33
390.028	71.51
390.238	42.84
390.447	26.45
390.657	32.6
390.867	98.13
391.076	8.02
391.286	44.88
391.496	89.94
391.705	112.47
391.915	126.8
392.125	40.79
392.334	85.84
392.544	30.55
392.753	16.21
392.963	46.93
393.172	22.36
393.382	32.6
393.591	77.65
393.801	65.36
394.01	98.13
394.22	28.5
394.429	96.08
394.639	42.84
394.848	63.32
395.058	51.03
395.267	46.93
395.477	94.04
395.686	96.08
395.895	73.56
396.105	155.47
396.314	46.93
396.524	137.04
396.733	40.79
396.942	98.13
397.152	104.28
397.361	102.23
397.57	46.93
397.78	77.65
397.989	104.28
398.198	75.6
398.407	75.6
398.617	73.56
398.826	126.8
399.035	36.69
399.244	110.42
399.453	-16.55
399.663	143.19
399.872	96.08
400.081	55.12
400.29	120.66
400.499	81.75
400.708	147.28
400.917	77.65
401.127	106.32
401.336	147.28
401.545	122.71
401.754	106.32
401.963	108.37
402.172	61.27
402.381	110.42
402.59	53.08
402.799	55.12
403.008	102.23
403.217	151.38
403.426	73.56
403.635	120.66
403.844	40.79
404.053	110.42
404.262	120.66
404.471	118.61
404.68	73.56
404.888	147.28
405.097	132.95
405.306	165.71
405.515	132.95
405.724	210.77
405.933	130.9
406.142	81.75
406.35	157.52
406.559	190.29
406.768	143.19
406.977	163.67
407.185	194.39
407.394	167.76
407.603	141.14
407.812	229.2
408.02	171.86
408.229	216.91
408.438	229.2
408.646	153.43
408.855	233.3
409.064	214.87
409.272	241.49
409.481	225.11
409.69	257.87
409.898	251.73
410.107	239.44
410.315	272.21
410.524	241.49
410.733	309.07
410.941	341.84
411.15	290.64
411.358	274.26
411.567	415.57
411.775	350.03
411.984	345.94
412.192	345.94
412.401	395.09
412.609	362.32
412.818	423.76
413.026	374.61
413.234	466.77
413.443	454.48
413.651	417.61
413.86	462.67
414.068	515.92
414.276	472.91
414.485	501.58
414.693	571.21
414.901	599.88
415.11	546.64
415.318	612.17
415.526	622.41
415.734	567.12
415.943	714.57
416.151	704.33
416.359	687.95
416.567	704.33
416.776	733
416.984	831.3
417.192	763.72
417.4	821.06
417.608	870.22
417.817	761.67
418.025	859.98
418.233	882.5
418.441	941.89
418.649	1013.57
418.857	1124.16
419.065	1075.01
419.273	1017.67
419.481	1099.59
419.689	1150.79
419.897	1259.33
420.105	1265.47
420.313	1259.33
420.521	1236.8
420.729	1283.91
420.937	1310.53
421.145	1365.82
421.353	1527.61
421.561	1654.59
421.769	1556.29
421.977	1660.73
422.185	1722.17
422.393	1836.86
422.601	1775.42
422.809	1744.7
423.017	1947.45
423.224	1914.68
423.432	2000.69
423.64	2051.89
423.848	2170.68
424.056	2111.29
424.263	2350.9
424.471	2334.51
424.679	2213.68
424.887	2541.36
425.094	2467.63
425.302	2488.11
425.51	2793.26
425.718	2770.73
425.925	2764.59
426.133	2901.8
426.341	2991.91
426.548	3147.56
426.756	3182.37
426.964	3235.62
427.171	3260.2
427.379	3518.24
427.586	3647.26
427.794	3671.84
428.001	3792.67
428.209	4026.14
428.417	3809.05
428.624	4228.88
428.832	4200.21
429.039	4130.58
429.247	4200.21
429.454	4624.14
429.662	4992.78
429.869	4654.86
430.076	4849.42
430.284	4753.16
430.491	4861.71
430.699	5295.88
430.906	5304.07
431.114	5414.66
431.321	5385.99
431.528	5680.89
431.736	5926.65
431.943	6117.11
432.15	5799.68
432.358	6244.09
432.565	6469.36
432.772	6366.96
432.979	6854.38
433.187	6825.71
433.394	6967.02
433.601	7470.82
433.808	7327.46
434.016	7218.92
434.223	7644.9
434.43	8216.28
434.637	7980.76
434.844	8443.6
435.052	8660.69
435.259	8449.75
435.466	8589.01
435.673	8625.87
435.88	9103.05
436.087	9506.5
436.294	9782.98
436.501	9332.42
436.708	9608.9
436.915	9813.7
437.122	10405.56
437.329	10473.14
437.537	10399.41
437.743	10925.74
437.95	10622.64
438.157	11310.76
438.364	11701.92
438.571	11624.1
438.778	11599.52
438.985	12619.41
439.192	12205.72
439.399	12592.79
439.606	12400.28
439.813	12871.31
440.02	13964.93
440.227	13581.96
440.433	13637.25
440.64	14046.85
440.847	13958.78
441.054	14136.96
441.261	15038.06
441.467	15044.21
441.674	15259.24
441.881	15910.5
442.088	15677.03
442.294	15724.13
442.501	16146.01
442.708	16369.24
442.914	16922.2
443.121	17663.56
443.328	17081.94
443.534	18591.29
443.741	18005.57
443.948	17559.11
444.154	19047.99
444.361	18806.33
444.568	18884.15
444.774	19054.13
444.981	19258.93
445.187	19748.39
445.394	20712.99
445.6	20282.91
445.807	22093.32
446.013	21343.76
446.22	21894.66
446.426	22713.85
446.633	22824.44
446.839	23506.41
447.046	22257.15
447.252	23862.76
447.459	23475.7
447.665	23881.19
447.871	24798.68
448.078	25908.68
448.284	24679.9
448.491	25075.16
448.697	26000.84
448.903	26516.93
449.11	26756.54
449.316	26062.28
449.522	26383.81
449.728	27680.17
449.935	27717.04
450.141	27796.91
450.347	28286.37
450.553	27264.44
450.76	27458.99
450.966	28204.45
451.172	28009.9
451.378	28865.95
451.584	27909.55
451.791	29068.7
451.997	28734.88
452.203	29369.75
452.409	28849.57
452.615	28925.34
452.821	27645.36
453.027	27637.17
453.233	29152.66
453.44	28046.76
453.646	28085.67
453.852	28194.22
454.058	28693.92
454.264	28132.78
454.47	28446.12
454.676	27721.13
454.882	28241.32
455.088	25906.63
455.294	26318.28
455.5	26555.84
455.705	27225.53
455.911	25820.62
456.117	25359.83
456.323	25021.91
456.529	23672.3
456.735	24585.69
456.941	23852.52
457.147	23401.97
457.352	22828.54
457.558	22672.89
457.764	22627.84
457.97	22193.67
458.176	21534.22
458.381	21954.05
458.587	20612.63
458.793	20737.56
458.999	19516.97
459.204	21163.54
459.41	20076.07
459.616	19207.73
459.821	19111.47
460.027	19131.95
460.233	18568.76
460.438	17790.53
460.644	17665.61
460.85	16883.28
461.055	17032.79
461.261	16827.99
461.466	15601.26
461.672	14866.03
461.878	16270.94
462.083	15060.59
462.289	14866.03
462.494	14757.49
462.7	13837.95
462.905	13708.93
463.111	14290.56
463.316	14081.66
463.522	13819.52
463.727	13829.76
463.932	13989.5
464.138	13825.67
464.343	13936.26
464.549	13381.26
464.754	13907.59
464.959	13852.29
465.165	13723.27
465.37	13225.61
465.575	12836.5
465.781	13397.64
465.986	13186.7
466.191	12746.39
466.397	12517.01
466.602	11925.15
466.807	12299.93
467.012	12408.47
467.218	12508.82
467.423	12236.44
467.628	12312.22
467.833	12887.7
468.038	12320.41
468.244	12101.28
468.449	12162.72
