Data from USB4F104151__72__13-54-05-953.txt Node

Date: Thu Mar 13 13:54:05 EDT 2025
User: louis
Spectrometer: USB4F10415
Trigger mode: 4
Integration Time (sec): 1.000000E-2
Scans to average: 1
Electric dark correction enabled: true
Nonlinearity correction enabled: false
Boxcar width: 0
XAxis mode: Wavelengths
Number of Pixels in Spectrum: 3648
>>>>>Begin Spectral Data<<<<<
178.204	-59.22
178.424	-59.22
178.644	-59.22
178.864	-89.94
179.084	-46.93
179.304	63.66
179.524	-3.93
179.744	-10.07
179.964	-28.5
180.184	80.04
180.404	-1.88
180.624	-1.88
180.844	-32.6
181.064	0.17
181.283	-63.32
181.503	30.89
181.723	-32.6
181.943	-1.88
182.163	32.94
182.383	51.37
182.602	-12.12
182.822	28.84
183.042	8.36
183.262	-30.55
183.482	16.55
183.701	55.47
183.921	-40.79
184.141	53.42
184.361	16.55
184.58	14.51
184.8	-22.36
185.02	24.75
185.239	20.65
185.459	59.56
185.679	-20.31
185.898	14.51
186.118	4.27
186.338	-32.6
186.557	10.41
186.777	-34.64
186.997	-38.74
187.216	41.13
187.436	26.79
187.655	61.61
187.875	30.89
188.095	-48.98
188.314	53.42
188.534	32.94
188.753	22.7
188.973	65.71
189.192	43.18
189.412	-22.36
189.631	-8.02
189.851	28.84
190.07	30.89
190.29	43.18
190.509	18.6
190.729	16.55
190.948	-20.31
191.168	43.18
191.387	84.14
191.607	59.56
191.826	24.75
192.045	-24.4
192.265	41.13
192.484	10.41
192.704	39.08
192.923	26.79
193.142	37.03
193.362	32.94
193.581	-10.07
193.8	8.36
194.02	65.71
194.239	6.31
194.458	90.28
194.678	28.84
194.897	10.41
195.116	10.41
195.335	-44.88
195.555	-59.22
195.774	6.31
195.993	-24.4
196.212	53.42
196.432	4.27
196.651	6.31
196.87	18.6
197.089	28.84
197.308	2.22
197.528	22.7
197.747	45.23
197.966	57.51
198.185	63.66
198.404	6.31
198.623	-10.07
198.842	-8.02
199.062	69.8
199.281	49.32
199.5	32.94
199.719	0.17
199.938	4.27
200.157	65.71
200.376	6.31
200.595	71.85
200.814	16.55
201.033	53.42
201.252	39.08
201.471	37.03
201.69	-5.97
201.909	67.75
202.128	28.84
202.347	90.28
202.566	53.42
202.785	71.85
203.004	-10.07
203.223	57.51
203.442	-3.93
203.661	-46.93
203.879	39.08
204.098	-20.31
204.317	8.36
204.536	22.7
204.755	100.52
204.974	-67.41
205.193	12.46
205.411	-42.84
205.63	-5.97
205.849	47.27
206.068	18.6
206.287	55.47
206.505	63.66
206.724	-8.02
206.943	49.32
207.162	-3.93
207.381	-42.84
207.599	43.18
207.818	55.47
208.037	53.42
208.255	2.22
208.474	51.37
208.693	4.27
208.911	12.46
209.13	14.51
209.349	39.08
209.567	47.27
209.786	-26.45
210.005	-51.03
210.223	24.75
210.442	-5.97
210.661	73.9
210.879	4.27
211.098	37.03
211.316	16.55
211.535	41.13
211.753	14.51
211.972	22.7
212.191	45.23
212.409	57.51
212.628	-12.12
212.846	69.8
213.065	-28.5
213.283	53.42
213.502	-34.64
213.72	84.14
213.938	39.08
214.157	28.84
214.375	28.84
214.594	18.6
214.812	77.99
215.031	-26.45
215.249	-5.97
215.467	-8.02
215.686	-51.03
215.904	16.55
216.122	47.27
216.341	0.17
216.559	-5.97
216.778	6.31
216.996	0.17
217.214	20.65
217.432	10.41
217.651	34.99
217.869	4.27
218.087	51.37
218.306	-12.12
218.524	16.55
218.742	75.95
218.96	-5.97
219.179	59.56
219.397	10.41
219.615	2.22
219.833	71.85
220.051	20.65
220.27	92.33
220.488	16.55
220.706	16.55
220.924	-16.21
221.142	32.94
221.36	37.03
221.578	-46.93
221.796	-22.36
222.015	-8.02
222.233	49.32
222.451	102.57
222.669	18.6
222.887	16.55
223.105	-48.98
223.323	2.22
223.541	57.51
223.759	34.99
223.977	26.79
224.195	24.75
224.413	73.9
224.631	67.75
224.849	65.71
225.067	12.46
225.285	12.46
225.503	32.94
225.721	57.51
225.939	8.36
226.157	0.17
226.375	55.47
226.592	28.84
226.81	45.23
227.028	8.36
227.246	67.75
227.464	16.55
227.682	-32.6
227.9	24.75
228.117	14.51
228.335	-46.93
228.553	-42.84
228.771	59.56
228.989	45.23
229.206	43.18
229.424	-28.5
229.642	0.17
229.86	-12.12
230.077	22.7
230.295	65.71
230.513	4.27
230.731	98.47
230.948	53.42
231.166	-59.22
231.384	26.79
231.601	2.22
231.819	18.6
232.037	-44.88
232.254	39.08
232.472	73.9
232.689	4.27
232.907	-24.4
233.125	24.75
233.342	-51.03
233.56	49.32
233.777	37.03
233.995	32.94
234.213	32.94
234.43	39.08
234.648	-20.31
234.865	53.42
235.083	45.23
235.3	24.75
235.518	-14.17
235.735	24.75
235.953	53.42
236.17	-61.27
236.388	39.08
236.605	16.55
236.822	0.17
237.04	96.43
237.257	37.03
237.475	24.75
237.692	71.85
237.909	41.13
238.127	55.47
238.344	43.18
238.562	22.7
238.779	39.08
238.996	20.65
239.214	26.79
239.431	24.75
239.648	6.31
239.865	2.22
240.083	-32.6
240.3	41.13
240.517	-8.02
240.735	30.89
240.952	12.46
241.169	12.46
241.386	98.47
241.603	82.09
241.821	112.81
242.038	57.51
242.255	75.95
242.472	22.7
242.689	55.47
242.907	90.28
243.124	59.56
243.341	26.79
243.558	84.14
243.775	32.94
243.992	-10.07
244.209	-32.6
244.426	67.75
244.643	49.32
244.86	-5.97
245.078	6.31
245.295	24.75
245.512	10.41
245.729	-22.36
245.946	-32.6
246.163	71.85
246.38	2.22
246.597	26.79
246.814	-32.6
247.031	4.27
247.248	6.31
247.464	-28.5
247.681	-3.93
247.898	10.41
248.115	-26.45
248.332	4.27
248.549	-1.88
248.766	2.22
248.983	10.41
249.2	32.94
249.417	14.51
249.633	-22.36
249.85	-18.26
250.067	-59.22
250.284	34.99
250.501	-10.07
250.717	-65.36
250.934	-53.08
251.151	45.23
251.368	39.08
251.585	34.99
251.801	73.9
252.018	8.36
252.235	14.51
252.451	57.51
252.668	-16.21
252.885	80.04
253.102	16.55
253.318	28.84
253.535	-38.74
253.752	14.51
253.968	-16.21
254.185	10.41
254.401	22.7
254.618	8.36
254.835	-26.45
255.051	55.47
255.268	10.41
255.484	57.51
255.701	34.99
255.917	4.27
256.134	39.08
256.351	6.31
256.567	-44.88
256.784	-28.5
257	28.84
257.217	14.51
257.433	-38.74
257.65	-24.4
257.866	-12.12
258.082	43.18
258.299	18.6
258.515	49.32
258.732	49.32
258.948	45.23
259.165	-40.79
259.381	-40.79
259.597	59.56
259.814	39.08
260.03	20.65
260.246	43.18
260.463	53.42
260.679	-18.26
260.895	18.6
261.112	71.85
261.328	10.41
261.544	0.17
261.761	37.03
261.977	71.85
262.193	32.94
262.409	24.75
262.626	26.79
262.842	63.66
263.058	22.7
263.274	12.46
263.49	32.94
263.707	2.22
263.923	41.13
264.139	55.47
264.355	4.27
264.571	104.62
264.787	24.75
265.004	-5.97
265.22	14.51
265.436	8.36
265.652	8.36
265.868	77.99
266.084	-36.69
266.3	49.32
266.516	-16.21
266.732	0.17
266.948	-20.31
267.164	-5.97
267.38	4.27
267.596	80.04
267.812	32.94
268.028	34.99
268.244	24.75
268.46	18.6
268.676	0.17
268.892	16.55
269.108	-5.97
269.324	8.36
269.54	22.7
269.756	37.03
269.972	37.03
270.188	69.8
270.403	67.75
270.619	-3.93
270.835	34.99
271.051	84.14
271.267	6.31
271.483	-38.74
271.698	96.43
271.914	84.14
272.13	12.46
272.346	-20.31
272.562	80.04
272.777	2.22
272.993	73.9
273.209	20.65
273.425	10.41
273.64	45.23
273.856	30.89
274.072	49.32
274.287	41.13
274.503	22.7
274.719	112.81
274.934	-34.64
275.15	-1.88
275.366	20.65
275.581	10.41
275.797	0.17
276.012	-8.02
276.228	92.33
276.444	-3.93
276.659	-18.26
276.875	-100.18
277.09	18.6
277.306	-14.17
277.521	57.51
277.737	-40.79
277.952	24.75
278.168	-12.12
278.383	90.28
278.599	20.65
278.814	67.75
279.03	-18.26
279.245	59.56
279.461	12.46
279.676	26.79
279.892	2.22
280.107	34.99
280.322	-1.88
280.538	45.23
280.753	-3.93
280.969	65.71
281.184	10.41
281.399	8.36
281.615	63.66
281.83	20.65
282.045	51.37
282.26	30.89
282.476	4.27
282.691	18.6
282.906	10.41
283.122	-1.88
283.337	28.84
283.552	-26.45
283.767	34.99
283.983	-32.6
284.198	61.61
284.413	12.46
284.628	30.89
284.843	53.42
285.058	73.9
285.274	18.6
285.489	-14.17
285.704	10.41
285.919	49.32
286.134	61.61
286.349	-79.7
286.564	34.99
286.779	18.6
286.995	47.27
287.21	-1.88
287.425	-40.79
287.64	-69.46
287.855	26.79
288.07	-5.97
288.285	39.08
288.5	96.43
288.715	96.43
288.93	-16.21
289.145	12.46
289.36	2.22
289.575	47.27
289.79	-1.88
290.004	4.27
290.219	-24.4
290.434	45.23
290.649	20.65
290.864	45.23
291.079	-55.12
291.294	-8.02
291.509	-24.4
291.724	-20.31
291.938	30.89
292.153	-42.84
292.368	69.8
292.583	-40.79
292.798	-42.84
293.012	34.99
293.227	4.27
293.442	28.84
293.657	6.31
293.871	-3.93
294.086	32.94
294.301	67.75
294.516	22.7
294.73	75.95
294.945	-20.31
295.16	12.46
295.374	34.99
295.589	104.62
295.804	-24.4
296.018	10.41
296.233	80.04
296.447	6.31
296.662	43.18
296.877	43.18
297.091	14.51
297.306	-1.88
297.52	73.9
297.735	49.32
297.949	24.75
298.164	49.32
298.378	10.41
298.593	71.85
298.807	-26.45
299.022	32.94
299.236	28.84
299.451	20.65
299.665	84.14
299.88	4.27
300.094	69.8
300.309	4.27
300.523	-30.55
300.737	47.27
300.952	82.09
301.166	-18.26
301.381	57.51
301.595	-34.64
301.809	-10.07
302.024	0.17
302.238	37.03
302.452	39.08
302.667	43.18
302.881	-16.21
303.095	32.94
303.309	75.95
303.524	92.33
303.738	51.37
303.952	2.22
304.166	-18.26
304.381	-18.26
304.595	106.67
304.809	-28.5
305.023	-8.02
305.237	-16.21
305.452	-16.21
305.666	26.79
305.88	43.18
306.094	37.03
306.308	6.31
306.522	84.14
306.736	55.47
306.95	96.43
307.164	-22.36
307.379	53.42
307.593	63.66
307.807	-16.21
308.021	49.32
308.235	2.22
308.449	-5.97
308.663	26.79
308.877	65.71
309.091	37.03
309.305	26.79
309.519	30.89
309.733	55.47
309.947	-63.32
310.161	20.65
310.374	10.41
310.588	55.47
310.802	49.32
311.016	49.32
311.23	82.09
311.444	45.23
311.658	28.84
311.872	84.14
312.085	-24.4
312.299	22.7
312.513	-3.93
312.727	-1.88
312.941	8.36
313.154	12.46
313.368	45.23
313.582	28.84
313.796	41.13
314.009	65.71
314.223	82.09
314.437	39.08
314.651	12.46
314.864	61.61
315.078	-20.31
315.292	63.66
315.505	-10.07
315.719	30.89
315.933	61.61
316.146	-22.36
316.36	-3.93
316.573	-12.12
316.787	45.23
317.001	88.23
317.214	16.55
317.428	30.89
317.641	-30.55
317.855	22.7
318.068	-57.17
318.282	55.47
318.495	41.13
318.709	65.71
318.922	39.08
319.136	-18.26
319.349	-24.4
319.563	10.41
319.776	45.23
319.99	49.32
320.203	59.56
320.417	53.42
320.63	86.19
320.843	28.84
321.057	57.51
321.27	28.84
321.483	45.23
321.697	80.04
321.91	-34.64
322.124	-18.26
322.337	-1.88
322.55	47.27
322.763	26.79
322.977	-18.26
323.19	26.79
323.403	-3.93
323.617	49.32
323.83	-30.55
324.043	61.61
324.256	86.19
324.469	-46.93
324.683	61.61
324.896	14.51
325.109	-16.21
325.322	-36.69
325.535	24.75
325.748	-18.26
325.962	86.19
326.175	28.84
326.388	4.27
326.601	61.61
326.814	61.61
327.027	-14.17
327.24	2.22
327.453	39.08
327.666	24.75
327.879	57.51
328.092	8.36
328.305	4.27
328.518	41.13
328.731	-46.93
328.944	98.47
329.157	-5.97
329.37	63.66
329.583	61.61
329.796	47.27
330.009	-38.74
330.222	102.57
330.435	-12.12
330.648	10.41
330.861	-36.69
331.073	2.22
331.286	6.31
331.499	88.23
331.712	63.66
331.925	30.89
332.138	0.17
332.35	55.47
332.563	-40.79
332.776	-30.55
332.989	-24.4
333.202	28.84
333.414	49.32
333.627	47.27
333.84	12.46
334.053	32.94
334.265	71.85
334.478	41.13
334.691	12.46
334.903	84.14
335.116	10.41
335.329	22.7
335.541	28.84
335.754	24.75
335.966	4.27
336.179	49.32
336.392	51.37
336.604	73.9
336.817	32.94
337.029	49.32
337.242	34.99
337.454	37.03
337.667	-24.4
337.88	73.9
338.092	71.85
338.305	34.99
338.517	6.31
338.729	49.32
338.942	8.36
339.154	16.55
339.367	20.65
339.579	12.46
339.792	34.99
340.004	41.13
340.217	110.76
340.429	24.75
340.641	24.75
340.854	14.51
341.066	-42.84
341.278	82.09
341.491	24.75
341.703	8.36
341.915	6.31
342.128	28.84
342.34	34.99
342.552	-12.12
342.764	80.04
342.977	-14.17
343.189	49.32
343.401	8.36
343.613	32.94
343.826	67.75
344.038	6.31
344.25	12.46
344.462	55.47
344.674	26.79
344.886	24.75
345.099	59.56
345.311	61.61
345.523	-12.12
345.735	61.61
345.947	43.18
346.159	59.56
346.371	71.85
346.583	114.86
346.795	49.32
347.007	49.32
347.219	53.42
347.431	16.55
347.643	30.89
347.855	45.23
348.067	82.09
348.279	37.03
348.491	71.85
348.703	61.61
348.915	22.7
349.127	71.85
349.339	90.28
349.551	-5.97
349.763	59.56
349.975	24.75
350.187	18.6
350.399	84.14
350.61	2.22
350.822	-3.93
351.034	71.85
351.246	-34.64
351.458	2.22
351.669	16.55
351.881	49.32
352.093	80.04
352.305	73.9
352.517	53.42
352.728	16.55
352.94	28.84
353.152	24.75
353.363	8.36
353.575	-12.12
353.787	49.32
353.999	47.27
354.21	32.94
354.422	63.66
354.633	-18.26
354.845	28.84
355.057	32.94
355.268	104.62
355.48	-26.45
355.692	8.36
355.903	77.99
356.115	49.32
356.326	-16.21
356.538	-12.12
356.749	61.61
356.961	14.51
357.172	51.37
357.384	30.89
357.595	43.18
357.807	-12.12
358.018	2.22
358.23	61.61
358.441	18.6
358.653	65.71
358.864	-55.12
359.075	-59.22
359.287	12.46
359.498	18.6
359.709	143.53
359.921	20.65
360.132	32.94
360.344	77.99
360.555	28.84
360.766	86.19
360.977	59.56
361.189	-12.12
361.4	-69.46
361.611	65.71
361.823	18.6
362.034	30.89
362.245	-3.93
362.456	26.79
362.667	12.46
362.879	71.85
363.09	67.75
363.301	90.28
363.512	51.37
363.723	71.85
363.935	94.38
364.146	65.71
364.357	-18.26
364.568	24.75
364.779	-10.07
364.99	102.57
365.201	-20.31
365.412	-36.69
365.623	10.41
365.834	69.8
366.045	47.27
366.256	106.67
366.467	32.94
366.678	39.08
366.889	2.22
367.1	69.8
367.311	12.46
367.522	71.85
367.733	26.79
367.944	26.79
368.155	24.75
368.366	88.23
368.577	34.99
368.788	30.89
368.999	-5.97
369.209	88.23
369.42	30.89
369.631	69.8
369.842	-12.12
370.053	28.84
370.264	30.89
370.474	22.7
370.685	57.51
370.896	26.79
371.107	12.46
371.317	80.04
371.528	-42.84
371.739	94.38
371.95	10.41
372.16	4.27
372.371	-40.79
372.582	47.27
372.792	39.08
373.003	6.31
373.214	-51.03
373.424	73.9
373.635	63.66
373.846	37.03
374.056	-12.12
374.267	-42.84
374.477	28.84
374.688	96.43
374.898	28.84
375.109	-44.88
375.319	2.22
375.53	98.47
375.74	67.75
375.951	30.89
376.161	-26.45
376.372	26.79
376.582	20.65
376.793	14.51
377.003	24.75
377.214	65.71
377.424	6.31
377.635	63.66
377.845	57.51
378.055	75.95
378.266	51.37
378.476	82.09
378.686	96.43
378.897	67.75
379.107	14.51
379.317	114.86
379.528	26.79
379.738	61.61
379.948	-36.69
380.158	125.1
380.369	-71.51
380.579	39.08
380.789	-12.12
380.999	80.04
381.21	90.28
381.42	-20.31
381.63	22.7
381.84	-24.4
382.05	4.27
382.261	94.38
382.471	8.36
382.681	20.65
382.891	10.41
383.101	18.6
383.311	-3.93
383.521	24.75
383.731	16.55
383.941	65.71
384.151	12.46
384.361	82.09
384.571	41.13
384.781	-40.79
384.991	22.7
385.201	39.08
385.411	-10.07
385.621	30.89
385.831	-20.31
386.041	10.41
386.251	14.51
386.461	32.94
386.671	49.32
386.881	34.99
387.091	-18.26
387.301	16.55
387.511	10.41
387.72	30.89
387.93	16.55
388.14	92.33
388.35	86.19
388.56	88.23
388.769	24.75
388.979	118.95
389.189	43.18
389.399	55.47
389.609	24.75
389.818	47.27
390.028	-34.64
390.238	80.04
390.447	77.99
390.657	63.66
390.867	45.23
391.076	47.27
391.286	-20.31
391.496	61.61
391.705	67.75
391.915	65.71
392.125	80.04
392.334	55.47
392.544	22.7
392.753	20.65
392.963	-3.93
393.172	41.13
393.382	14.51
393.591	86.19
393.801	-1.88
394.01	102.57
394.22	57.51
394.429	24.75
394.639	43.18
394.848	80.04
395.058	-48.98
395.267	47.27
395.477	34.99
395.686	80.04
395.895	28.84
396.105	133.29
396.314	0.17
396.524	84.14
396.733	2.22
396.942	49.32
397.152	47.27
397.361	82.09
397.57	80.04
397.78	14.51
397.989	77.99
398.198	39.08
398.407	-26.45
398.617	61.61
398.826	82.09
399.035	67.75
399.244	94.38
399.453	90.28
399.663	71.85
399.872	71.85
400.081	45.23
400.29	82.09
400.499	51.37
400.708	77.99
400.917	96.43
401.127	65.71
401.336	77.99
401.545	88.23
401.754	67.75
401.963	106.67
402.172	61.61
402.381	63.66
402.59	24.75
402.799	121
403.008	53.42
403.217	71.85
403.426	65.71
403.635	94.38
403.844	61.61
404.053	63.66
404.262	164.01
404.471	106.67
404.68	20.65
404.888	73.9
405.097	75.95
405.306	96.43
405.515	77.99
405.724	106.67
405.933	55.47
406.142	82.09
406.35	151.72
406.559	143.53
406.768	90.28
406.977	192.68
407.185	108.71
407.394	96.43
407.603	116.9
407.812	178.34
408.02	110.76
408.229	147.62
408.438	139.43
408.646	164.01
408.855	118.95
409.064	153.77
409.272	143.53
409.481	159.91
409.69	127.14
409.898	190.63
410.107	164.01
410.315	207.02
410.524	209.06
410.733	227.5
410.941	219.3
411.15	245.93
411.358	211.11
411.567	227.5
411.775	198.82
411.984	313.51
412.192	243.88
412.401	235.69
412.609	280.74
412.818	348.33
413.026	237.74
413.234	346.28
413.443	282.79
413.651	260.26
413.86	254.12
414.068	370.85
414.276	403.62
414.485	450.72
414.693	370.85
414.901	420
415.11	362.66
415.318	460.96
415.526	424.1
415.734	448.68
415.943	522.4
416.151	551.07
416.359	506.02
416.567	514.21
416.776	489.64
416.984	571.55
417.192	632.99
417.4	585.89
417.608	585.89
417.817	684.19
418.025	702.62
418.233	714.91
418.441	696.48
418.649	745.63
418.857	716.96
419.065	858.27
419.273	776.35
419.481	784.54
419.689	897.18
419.897	950.43
420.105	833.69
420.313	927.9
420.521	1003.68
420.729	1161.37
420.937	1063.07
421.145	1091.74
421.353	1136.79
421.561	1114.27
421.769	1210.52
421.977	1263.77
422.185	1245.34
422.393	1202.33
422.601	1364.12
422.809	1349.78
423.017	1470.61
423.224	1503.38
423.432	1480.85
423.64	1472.66
423.848	1652.88
424.056	1616.02
424.263	1712.27
424.471	1779.86
424.679	1755.28
424.887	1824.91
425.094	1970.32
425.302	2019.47
425.51	1902.73
425.718	2115.72
425.925	2173.07
426.133	2128.01
426.341	2300.04
426.548	2447.49
426.756	2424.97
426.964	2545.8
427.171	2545.8
427.379	2646.15
427.586	2523.27
427.794	2736.26
428.001	3047.55
428.209	3039.36
428.417	2979.97
428.624	3145.85
428.832	3268.73
429.039	3168.38
429.247	3129.47
429.454	3381.37
429.662	3657.84
429.869	3387.51
430.076	3745.91
430.284	3553.4
430.491	3766.39
430.699	3993.71
430.906	3909.74
431.114	3958.89
431.321	4237.42
431.528	4229.23
431.736	4550.76
431.943	4755.55
432.15	4454.5
432.358	4669.54
432.565	4769.89
432.772	4749.41
432.979	4999.26
433.187	5128.28
433.394	5095.52
433.601	5611.61
433.808	5513.3
434.016	5503.06
434.223	5869.65
434.43	6115.41
434.637	6060.11
434.844	6320.2
435.052	6481.99
435.259	6445.13
435.466	6449.22
435.673	6578.25
435.88	6864.96
436.087	7145.53
436.294	7272.51
436.501	7233.6
436.708	7192.64
436.915	7411.77
437.122	7901.23
437.329	7712.82
437.537	8032.3
437.743	8065.07
437.95	8171.57
438.157	8529.96
438.364	8804.39
438.571	8902.69
438.778	9054.24
438.985	9586.71
439.192	9383.96
439.399	9435.16
439.606	9437.21
439.813	9852.95
440.02	10405.9
440.227	10137.62
440.433	10149.9
440.64	10670.09
440.847	10588.17
441.054	10717.19
441.261	11192.32
441.467	11438.08
441.674	11462.65
441.881	11888.63
442.088	11898.87
442.294	11675.64
442.501	12138.48
442.708	12322.8
442.914	12744.68
443.121	13430.75
443.328	12845.03
443.534	13809.62
443.741	13397.98
443.948	13400.03
444.154	14194.64
444.361	14338
444.568	14280.66
444.774	14368.72
444.981	14464.97
445.187	15052.74
445.394	15513.53
445.6	15411.14
445.807	16971.69
446.013	15880.12
446.22	16535.47
446.426	16912.3
446.633	17317.79
446.839	17702.81
447.046	17090.47
447.252	18034.58
447.459	18030.49
447.665	18022.3
447.871	18567.06
448.078	19517.31
448.284	18679.69
448.491	19046.28
448.697	19695.49
448.903	19955.58
449.11	20107.13
449.316	19943.29
449.522	20137.85
449.728	20883.31
449.935	20746.09
450.141	20942.7
450.347	21282.66
450.553	20627.31
450.76	21120.87
450.966	21489.51
451.172	21135.21
451.378	21925.72
451.584	21520.23
451.791	22005.59
451.997	21886.81
452.203	21948.25
452.409	22218.58
452.615	21981.02
452.821	21225.32
453.027	21106.54
453.233	22194.01
453.44	21217.13
453.646	21602.15
453.852	21466.98
454.058	21964.64
454.264	21407.59
454.47	21688.16
454.676	21161.83
454.882	21653.34
455.088	19849.08
455.294	20035.45
455.5	20279.16
455.705	20731.76
455.911	19773.31
456.117	19445.63
456.323	19085.19
456.529	18147.22
456.735	18722.7
456.941	18519.95
457.147	17842.07
457.352	17395.62
457.558	17373.09
457.764	17205.16
457.97	17035.17
458.176	16613.29
458.381	16824.23
458.587	15912.89
458.793	15939.51
458.999	15054.79
459.204	16105.4
459.41	15732.67
459.616	14516.17
459.821	14720.97
460.027	14264.27
460.233	14325.71
460.438	13420.51
460.644	13750.23
460.85	13000.68
461.055	12982.24
461.261	12898.28
461.466	12031.99
461.672	11464.7
461.878	12429.29
462.083	11593.72
462.289	11290.62
462.494	11194.37
462.7	10797.06
462.905	10457.1
463.111	10866.69
463.316	10950.66
463.522	10577.93
463.727	10700.81
463.932	10475.53
464.138	10268.69
464.343	10545.16
464.549	10012.69
464.754	10547.21
464.959	10692.62
465.165	10455.05
465.37	10000.4
465.575	9725.97
465.781	10102.8
465.986	10262.54
466.191	9760.79
466.397	9762.84
466.602	9273.37
466.807	9500.7
467.012	9451.55
467.218	9383.96
467.423	9635.86
467.628	9412.64
467.833	9738.26
468.038	9457.69
468.244	9267.23
468.449	9570.33
468.654	9175.07
