Data from USB4F104151__135__13-58-03-517.txt Node

Date: Thu Mar 13 13:58:03 EDT 2025
User: louis
Spectrometer: USB4F10415
Trigger mode: 4
Integration Time (sec): 1.000000E-2
Scans to average: 1
Electric dark correction enabled: true
Nonlinearity correction enabled: false
Boxcar width: 0
XAxis mode: Wavelengths
Number of Pixels in Spectrum: 3648
>>>>>Begin Spectral Data<<<<<
178.204	-44.2
178.424	-44.2
178.644	-44.2
178.864	-27.82
179.084	-48.3
179.304	-36.01
179.524	27.48
179.744	-89.26
179.964	2.9
180.184	19.29
180.404	74.58
180.624	52.05
180.844	27.48
181.064	-83.11
181.283	-21.67
181.503	15.19
181.723	11.09
181.943	21.33
182.163	117.59
182.383	-46.25
182.602	66.39
182.822	9.05
183.042	39.76
183.262	43.86
183.482	13.14
183.701	11.09
183.921	-11.43
184.141	19.29
184.361	29.52
184.58	15.19
184.8	19.29
185.02	25.43
185.239	90.96
185.459	19.29
185.679	13.14
185.898	9.05
186.118	43.86
186.338	29.52
186.557	41.81
186.777	19.29
186.997	37.72
187.216	45.91
187.436	11.09
187.655	76.63
187.875	43.86
188.095	33.62
188.314	64.34
188.534	-13.48
188.753	31.57
188.973	78.68
189.192	45.91
189.412	58.2
189.631	-7.34
189.851	9.05
190.07	-7.34
190.29	29.52
190.509	15.19
190.729	27.48
190.948	62.29
191.168	41.81
191.387	9.05
191.607	4.95
191.826	-27.82
192.045	-29.87
192.265	27.48
192.484	17.24
192.704	-9.39
192.923	29.52
193.142	2.9
193.362	35.67
193.581	45.91
193.8	-27.82
194.02	-42.15
194.239	-46.25
194.458	0.85
194.678	9.05
194.897	25.43
195.116	70.48
195.335	0.85
195.555	37.72
195.774	86.87
195.993	47.96
196.212	27.48
196.432	-54.44
196.651	82.77
196.87	-48.3
197.089	105.3
197.308	33.62
197.528	99.16
197.747	-15.53
197.966	23.38
198.185	41.81
198.404	52.05
198.623	13.14
198.842	27.48
199.062	-25.77
199.281	74.58
199.5	-38.06
199.719	84.82
199.938	54.1
200.157	17.24
200.376	0.85
200.595	52.05
200.814	-5.29
201.033	-103.59
201.252	13.14
201.471	-7.34
201.69	-33.96
201.909	117.59
202.128	-17.58
202.347	-7.34
202.566	29.52
202.785	23.38
203.004	37.72
203.223	74.58
203.442	0.85
203.661	60.24
203.879	-29.87
204.098	56.15
204.317	15.19
204.536	0.85
204.755	-19.63
204.974	-76.97
205.193	23.38
205.411	107.35
205.63	-23.72
205.849	15.19
206.068	52.05
206.287	-3.24
206.505	33.62
206.724	45.91
206.943	15.19
207.162	-58.54
207.381	-27.82
207.599	9.05
207.818	58.2
208.037	-21.67
208.255	9.05
208.474	74.58
208.693	54.1
208.911	56.15
209.13	35.67
209.349	19.29
209.567	86.87
209.786	74.58
210.005	33.62
210.223	31.57
210.442	23.38
210.661	17.24
210.879	-38.06
211.098	25.43
211.316	72.53
211.535	11.09
211.753	41.81
211.972	-31.91
212.191	-17.58
212.409	39.76
212.628	90.96
212.846	29.52
213.065	21.33
213.283	11.09
213.502	-27.82
213.72	33.62
213.938	9.05
214.157	0.85
214.375	-42.15
214.594	13.14
214.812	76.63
215.031	-11.43
215.249	31.57
215.467	60.24
215.686	54.1
215.904	60.24
216.122	70.48
216.341	58.2
216.559	74.58
216.778	-3.24
216.996	13.14
217.214	-5.29
217.432	25.43
217.651	41.81
217.869	39.76
218.087	74.58
218.306	-19.63
218.524	-19.63
218.742	17.24
218.96	17.24
219.179	33.62
219.397	35.67
219.615	-9.39
219.833	11.09
220.051	37.72
220.27	72.53
220.488	52.05
220.706	29.52
220.924	-68.78
221.142	-5.29
221.36	-1.19
221.578	17.24
221.796	13.14
222.015	56.15
222.233	11.09
222.451	31.57
222.669	-60.59
222.887	33.62
223.105	-3.24
223.323	13.14
223.541	-5.29
223.759	27.48
223.977	43.86
224.195	54.1
224.413	41.81
224.631	21.33
224.849	54.1
225.067	50
225.285	-15.53
225.503	11.09
225.721	-64.68
225.939	29.52
226.157	-42.15
226.375	29.52
226.592	23.38
226.81	7
227.028	2.9
227.246	50
227.464	15.19
227.682	50
227.9	29.52
228.117	35.67
228.335	-23.72
228.553	-40.11
228.771	37.72
228.989	-7.34
229.206	19.29
229.424	64.34
229.642	37.72
229.86	21.33
230.077	-68.78
230.295	99.16
230.513	47.96
230.731	41.81
230.948	-11.43
231.166	17.24
231.384	2.9
231.601	13.14
231.819	95.06
232.037	-9.39
232.254	41.81
232.472	37.72
232.689	60.24
232.907	111.44
233.125	-48.3
233.342	-7.34
233.56	0.85
233.777	37.72
233.995	0.85
234.213	-7.34
234.43	21.33
234.648	7
234.865	-5.29
235.083	35.67
235.3	-48.3
235.518	68.44
235.735	64.34
235.953	19.29
236.17	37.72
236.388	11.09
236.605	54.1
236.822	-13.48
237.04	9.05
237.257	-48.3
237.475	-1.19
237.692	35.67
237.909	52.05
238.127	-29.87
238.344	115.54
238.562	31.57
238.779	-13.48
238.996	62.29
239.214	27.48
239.431	41.81
239.648	0.85
239.865	-21.67
240.083	2.9
240.3	15.19
240.517	13.14
240.735	45.91
240.952	25.43
241.169	54.1
241.386	37.72
241.603	35.67
241.821	50
242.038	70.48
242.255	43.86
242.472	-7.34
242.689	4.95
242.907	68.44
243.124	-1.19
243.341	-3.24
243.558	41.81
243.775	-15.53
243.992	4.95
244.209	9.05
244.426	33.62
244.643	-9.39
244.86	29.52
245.078	17.24
245.295	23.38
245.512	-5.29
245.729	101.2
245.946	72.53
246.163	-13.48
246.38	21.33
246.597	4.95
246.814	33.62
247.031	15.19
247.248	-15.53
247.464	31.57
247.681	58.2
247.898	64.34
248.115	7
248.332	25.43
248.549	50
248.766	13.14
248.983	35.67
249.2	9.05
249.417	9.05
249.633	-31.91
249.85	58.2
250.067	-9.39
250.284	41.81
250.501	15.19
250.717	19.29
250.934	21.33
251.151	0.85
251.368	58.2
251.585	123.73
251.801	25.43
252.018	-11.43
252.235	58.2
252.451	-5.29
252.668	4.95
252.885	2.9
253.102	0.85
253.318	9.05
253.535	-33.96
253.752	27.48
253.968	21.33
254.185	-31.91
254.401	7
254.618	39.76
254.835	-27.82
255.051	39.76
255.268	58.2
255.484	15.19
255.701	21.33
255.917	-5.29
256.134	-5.29
256.351	-3.24
256.567	-27.82
256.784	109.4
257	9.05
257.217	13.14
257.433	52.05
257.65	19.29
257.866	2.9
258.082	-11.43
258.299	60.24
258.515	50
258.732	19.29
258.948	35.67
259.165	2.9
259.381	43.86
259.597	13.14
259.814	13.14
260.03	37.72
260.246	-19.63
260.463	2.9
260.679	43.86
260.895	17.24
261.112	68.44
261.328	33.62
261.544	82.77
261.761	35.67
261.977	25.43
262.193	-40.11
262.409	43.86
262.626	-27.82
262.842	27.48
263.058	11.09
263.274	21.33
263.49	-23.72
263.707	27.48
263.923	-21.67
264.139	-46.25
264.355	-62.63
264.571	17.24
264.787	43.86
265.004	50
265.22	70.48
265.436	11.09
265.652	-95.4
265.868	25.43
266.084	27.48
266.3	125.78
266.516	76.63
266.732	19.29
266.948	11.09
267.164	66.39
267.38	-3.24
267.596	-52.39
267.812	47.96
268.028	27.48
268.244	-17.58
268.46	-15.53
268.676	11.09
268.892	86.87
269.108	21.33
269.324	9.05
269.54	27.48
269.756	-64.68
269.972	-44.2
270.188	50
270.403	-23.72
270.619	74.58
270.835	64.34
271.051	4.95
271.267	-48.3
271.483	-31.91
271.698	74.58
271.914	50
272.13	19.29
272.346	54.1
272.562	23.38
272.777	-46.25
272.993	39.76
273.209	50
273.425	54.1
273.64	2.9
273.856	9.05
274.072	31.57
274.287	-7.34
274.503	-15.53
274.719	13.14
274.934	7
275.15	64.34
275.366	105.3
275.581	13.14
275.797	35.67
276.012	-11.43
276.228	37.72
276.444	19.29
276.659	93.01
276.875	9.05
277.09	33.62
277.306	39.76
277.521	60.24
277.737	-23.72
277.952	9.05
278.168	-54.44
278.383	58.2
278.599	41.81
278.814	0.85
279.03	50
279.245	21.33
279.461	31.57
279.676	23.38
279.892	78.68
280.107	11.09
280.322	54.1
280.538	27.48
280.753	54.1
280.969	-3.24
281.184	-3.24
281.399	97.11
281.615	17.24
281.83	15.19
282.045	-3.24
282.26	58.2
282.476	2.9
282.691	15.19
282.906	-13.48
283.122	64.34
283.337	13.14
283.552	39.76
283.767	-3.24
283.983	66.39
284.198	56.15
284.413	31.57
284.628	74.58
284.843	76.63
285.058	17.24
285.274	11.09
285.489	-25.77
285.704	13.14
285.919	-15.53
286.134	-31.91
286.349	68.44
286.564	60.24
286.779	13.14
286.995	-25.77
287.21	21.33
287.425	-17.58
287.64	-33.96
287.855	-48.3
288.07	21.33
288.285	13.14
288.5	17.24
288.715	-11.43
288.93	-38.06
289.145	21.33
289.36	39.76
289.575	4.95
289.79	31.57
290.004	27.48
290.219	-40.11
290.434	56.15
290.649	45.91
290.864	27.48
291.079	27.48
291.294	33.62
291.509	60.24
291.724	19.29
291.938	-27.82
292.153	43.86
292.368	66.39
292.583	37.72
292.798	9.05
293.012	33.62
293.227	11.09
293.442	-5.29
293.657	70.48
293.871	17.24
294.086	54.1
294.301	0.85
294.516	21.33
294.73	9.05
294.945	-25.77
295.16	27.48
295.374	-50.35
295.589	54.1
295.804	2.9
296.018	50
296.233	109.4
296.447	9.05
296.662	-52.39
296.877	11.09
297.091	60.24
297.306	15.19
297.52	-25.77
297.735	31.57
297.949	-62.63
298.164	82.77
298.378	-31.91
298.593	-38.06
298.807	127.83
299.022	4.95
299.236	82.77
299.451	58.2
299.665	-36.01
299.88	15.19
300.094	-1.19
300.309	60.24
300.523	-3.24
300.737	-3.24
300.952	27.48
301.166	-3.24
301.381	37.72
301.595	2.9
301.809	99.16
302.024	-5.29
302.238	-17.58
302.452	13.14
302.667	2.9
302.881	9.05
303.095	4.95
303.309	70.48
303.524	13.14
303.738	21.33
303.952	-29.87
304.166	9.05
304.381	-25.77
304.595	62.29
304.809	95.06
305.023	70.48
305.237	15.19
305.452	115.54
305.666	31.57
305.88	21.33
306.094	0.85
306.308	82.77
306.522	29.52
306.736	43.86
306.95	25.43
307.164	60.24
307.379	74.58
307.593	-13.48
307.807	-3.24
308.021	27.48
308.235	29.52
308.449	13.14
308.663	13.14
308.877	52.05
309.091	64.34
309.305	33.62
309.519	17.24
309.733	43.86
309.947	41.81
310.161	-11.43
310.374	25.43
310.588	7
310.802	17.24
311.016	33.62
311.23	25.43
311.444	25.43
311.658	68.44
311.872	-19.63
312.085	35.67
312.299	25.43
312.513	-13.48
312.727	31.57
312.941	97.11
313.154	78.68
313.368	43.86
313.582	19.29
313.796	-5.29
314.009	148.31
314.223	27.48
314.437	-11.43
314.651	43.86
314.864	-1.19
315.078	-1.19
315.292	33.62
315.505	33.62
315.719	50
315.933	13.14
316.146	43.86
316.36	52.05
316.573	39.76
316.787	-1.19
317.001	107.35
317.214	29.52
317.428	43.86
317.641	74.58
317.855	50
318.068	43.86
318.282	66.39
318.495	45.91
318.709	47.96
318.922	7
319.136	33.62
319.349	50
319.563	52.05
319.776	54.1
319.99	13.14
320.203	-66.73
320.417	17.24
320.63	0.85
320.843	29.52
321.057	-66.73
321.27	17.24
321.483	72.53
321.697	41.81
321.91	58.2
322.124	74.58
322.337	19.29
322.55	-7.34
322.763	33.62
322.977	15.19
323.19	-5.29
323.403	-36.01
323.617	0.85
323.83	60.24
324.043	25.43
324.256	33.62
324.469	31.57
324.683	25.43
324.896	37.72
325.109	2.9
325.322	-36.01
325.535	23.38
325.748	90.96
325.962	19.29
326.175	31.57
326.388	19.29
326.601	70.48
326.814	-38.06
327.027	45.91
327.24	60.24
327.453	-3.24
327.666	27.48
327.879	58.2
328.092	88.92
328.305	-42.15
328.518	82.77
328.731	45.91
328.944	68.44
329.157	43.86
329.37	31.57
329.583	62.29
329.796	95.06
330.009	27.48
330.222	62.29
330.435	66.39
330.648	54.1
330.861	9.05
331.073	99.16
331.286	31.57
331.499	19.29
331.712	41.81
331.925	21.33
332.138	-25.77
332.35	-52.39
332.563	-58.54
332.776	62.29
332.989	11.09
333.202	41.81
333.414	43.86
333.627	56.15
333.84	15.19
334.053	25.43
334.265	-3.24
334.478	43.86
334.691	60.24
334.903	54.1
335.116	-7.34
335.329	-15.53
335.541	90.96
335.754	33.62
335.966	19.29
336.179	21.33
336.392	54.1
336.604	43.86
336.817	27.48
337.029	56.15
337.242	0.85
337.454	0.85
337.667	19.29
337.88	43.86
338.092	-7.34
338.305	41.81
338.517	66.39
338.729	136.02
338.942	-7.34
339.154	27.48
339.367	-68.78
339.579	17.24
339.792	-29.87
340.004	-5.29
340.217	56.15
340.429	43.86
340.641	50
340.854	52.05
341.066	37.72
341.278	19.29
341.491	47.96
341.703	25.43
341.915	115.54
342.128	29.52
342.34	-40.11
342.552	76.63
342.764	33.62
342.977	60.24
343.189	45.91
343.401	62.29
343.613	-13.48
343.826	56.15
344.038	64.34
344.25	60.24
344.462	-7.34
344.674	105.3
344.886	41.81
345.099	15.19
345.311	52.05
345.523	17.24
345.735	11.09
345.947	19.29
346.159	13.14
346.371	66.39
346.583	58.2
346.795	17.24
347.007	21.33
347.219	43.86
347.431	76.63
347.643	52.05
347.855	-17.58
348.067	95.06
348.279	9.05
348.491	101.2
348.703	-19.63
348.915	-27.82
349.127	0.85
349.339	74.58
349.551	13.14
349.763	50
349.975	78.68
350.187	-36.01
350.399	19.29
350.61	21.33
350.822	74.58
351.034	31.57
351.246	4.95
351.458	86.87
351.669	29.52
351.881	70.48
352.093	13.14
352.305	60.24
352.517	50
352.728	74.58
352.94	21.33
353.152	50
353.363	58.2
353.575	4.95
353.787	70.48
353.999	33.62
354.21	50
354.422	84.82
354.633	95.06
354.845	35.67
355.057	41.81
355.268	4.95
355.48	15.19
355.692	27.48
355.903	23.38
356.115	109.4
356.326	11.09
356.538	64.34
356.749	41.81
356.961	58.2
357.172	-19.63
357.384	37.72
357.595	76.63
357.807	64.34
358.018	23.38
358.23	93.01
358.441	39.76
358.653	17.24
358.864	23.38
359.075	-11.43
359.287	52.05
359.498	70.48
359.709	-11.43
359.921	152.4
360.132	-48.3
360.344	9.05
360.555	27.48
360.766	41.81
360.977	39.76
361.189	25.43
361.4	58.2
361.611	78.68
361.823	52.05
362.034	-1.19
362.245	2.9
362.456	-29.87
362.667	25.43
362.879	11.09
363.09	37.72
363.301	35.67
363.512	31.57
363.723	33.62
363.935	-13.48
364.146	54.1
364.357	37.72
364.568	-33.96
364.779	29.52
364.99	60.24
365.201	-48.3
365.412	62.29
365.623	-3.24
365.834	25.43
366.045	-9.39
366.256	95.06
366.467	7
366.678	0.85
366.889	4.95
367.1	19.29
367.311	41.81
367.522	9.05
367.733	17.24
367.944	80.72
368.155	15.19
368.366	33.62
368.577	72.53
368.788	15.19
368.999	78.68
369.209	-7.34
369.42	19.29
369.631	60.24
369.842	45.91
370.053	27.48
370.264	74.58
370.474	52.05
370.685	4.95
370.896	-29.87
371.107	97.11
371.317	-5.29
371.528	41.81
371.739	52.05
371.95	27.48
372.16	58.2
372.371	11.09
372.582	-72.87
372.792	56.15
373.003	0.85
373.214	35.67
373.424	-64.68
373.635	-1.19
373.846	111.44
374.056	66.39
374.267	74.58
374.477	23.38
374.688	50
374.898	7
375.109	-5.29
375.319	64.34
375.53	60.24
375.74	54.1
375.951	35.67
376.161	-3.24
376.372	33.62
376.582	41.81
376.793	-3.24
377.003	52.05
377.214	58.2
377.424	50
377.635	15.19
377.845	13.14
378.055	93.01
378.266	21.33
378.476	23.38
378.686	45.91
378.897	68.44
379.107	11.09
379.317	43.86
379.528	31.57
379.738	99.16
379.948	-44.2
380.158	54.1
380.369	2.9
380.579	117.59
380.789	-23.72
380.999	19.29
381.21	50
381.42	17.24
381.63	54.1
381.84	39.76
382.05	-15.53
382.261	70.48
382.471	82.77
382.681	47.96
382.891	97.11
383.101	99.16
383.311	23.38
383.521	47.96
383.731	45.91
383.941	43.86
384.151	84.82
384.361	66.39
384.571	113.49
384.781	45.91
384.991	50
385.201	45.91
385.411	27.48
385.621	50
385.831	45.91
386.041	-11.43
386.251	31.57
386.461	52.05
386.671	68.44
386.881	58.2
387.091	13.14
387.301	45.91
387.511	15.19
387.72	39.76
387.93	90.96
388.14	33.62
388.35	68.44
388.56	43.86
388.769	68.44
388.979	78.68
389.189	-17.58
389.399	103.25
389.609	50
389.818	84.82
390.028	27.48
390.238	72.53
390.447	25.43
390.657	58.2
390.867	41.81
391.076	29.52
391.286	93.01
391.496	76.63
391.705	88.92
391.915	97.11
392.125	2.9
392.334	58.2
392.544	31.57
392.753	76.63
392.963	25.43
393.172	37.72
393.382	43.86
393.591	115.54
393.801	84.82
394.01	127.83
394.22	13.14
394.429	68.44
394.639	41.81
394.848	90.96
395.058	62.29
395.267	64.34
395.477	99.16
395.686	80.72
395.895	70.48
396.105	70.48
396.314	50
396.524	43.86
396.733	45.91
396.942	74.58
397.152	-11.43
397.361	54.1
397.57	99.16
397.78	82.77
397.989	9.05
398.198	52.05
398.407	33.62
398.617	7
398.826	113.49
399.035	4.95
399.244	90.96
399.453	72.53
399.663	88.92
399.872	97.11
400.081	74.58
400.29	93.01
400.499	84.82
400.708	95.06
400.917	74.58
401.127	74.58
401.336	113.49
401.545	82.77
401.754	54.1
401.963	90.96
402.172	15.19
402.381	54.1
402.59	101.2
402.799	127.83
403.008	101.2
403.217	93.01
403.426	121.68
403.635	33.62
403.844	109.4
404.053	43.86
404.262	84.82
404.471	146.26
404.68	64.34
404.888	133.97
405.097	123.73
405.306	154.45
405.515	150.36
405.724	115.54
405.933	133.97
406.142	88.92
406.35	99.16
406.559	158.55
406.768	107.35
406.977	131.92
407.185	95.06
407.394	146.26
407.603	142.16
407.812	150.36
408.02	142.16
408.229	136.02
408.438	164.69
408.646	168.79
408.855	113.49
409.064	209.75
409.272	197.46
409.481	203.6
409.69	127.83
409.898	174.93
410.107	170.83
410.315	207.7
410.524	306
410.733	230.23
410.941	224.08
411.15	260.95
411.358	258.9
411.567	306
411.775	191.31
411.984	217.94
412.192	289.62
412.401	271.19
412.609	318.29
412.818	336.72
413.026	283.47
413.234	279.38
413.443	340.82
413.651	328.53
413.86	406.35
414.068	389.97
414.276	435.02
414.485	432.97
414.693	475.98
414.901	418.64
415.11	475.98
415.318	432.97
415.526	394.06
415.734	494.41
415.943	512.85
416.151	512.85
416.359	541.52
416.567	584.52
416.776	559.95
416.984	643.92
417.192	596.81
417.4	633.68
417.608	619.34
417.817	686.92
418.025	635.72
418.233	744.27
418.441	719.69
418.649	756.55
418.857	881.48
419.065	807.75
419.273	811.85
419.481	774.99
419.689	981.83
419.897	904.01
420.105	961.35
420.313	1035.08
420.521	1030.98
420.729	1020.74
420.937	1082.18
421.145	1082.18
421.353	1235.78
421.561	1192.77
421.769	1246.02
421.977	1278.79
422.185	1323.84
422.393	1356.61
422.601	1483.58
422.809	1450.82
423.017	1473.34
423.224	1555.26
423.432	1565.5
423.64	1508.16
423.848	1731.39
424.056	1682.24
424.263	1690.43
424.471	1917.75
424.679	1796.92
424.887	1999.67
425.094	1938.23
425.302	1983.29
425.51	2054.97
425.718	2087.73
425.925	2257.71
426.133	2272.05
426.341	2323.25
426.548	2528.05
426.756	2425.65
426.964	2550.57
427.171	2497.33
427.379	2626.35
427.586	2738.99
427.794	2753.32
428.001	2970.41
428.209	3083.05
428.417	3128.1
428.624	3246.88
428.832	3220.26
429.039	3210.02
429.247	3318.56
429.454	3726.11
429.662	3846.94
429.869	3654.43
430.076	3789.6
430.284	3728.16
430.491	3851.03
430.699	4125.46
430.906	3990.3
431.114	4119.32
431.321	4229.91
431.528	4363.03
431.736	4635.41
431.943	4805.39
432.15	4752.14
432.358	4776.72
432.565	5004.04
432.772	4991.75
432.979	5260.04
433.187	5403.39
433.394	5307.14
433.601	5706.49
433.808	5815.04
434.016	5673.73
434.223	5870.33
434.43	6370.04
434.637	6077.18
434.844	6570.74
435.052	6734.57
435.259	6666.99
435.466	6697.71
435.673	6787.82
435.88	7154.41
436.087	7406.31
436.294	7498.47
436.501	7178.98
436.708	7469.8
436.915	7731.94
437.122	8045.27
437.329	8039.13
437.537	8196.82
437.743	8364.76
437.95	8557.27
438.157	8856.27
438.364	9018.06
438.571	9104.07
438.778	9355.97
438.985	9876.16
439.192	9468.61
439.399	9880.25
439.606	9669.31
439.813	10398.39
440.02	10850.99
440.227	10760.88
440.433	10527.41
440.64	10797.74
440.847	10803.89
441.054	11143.85
441.261	11463.33
441.467	11602.6
441.674	11938.46
441.881	12380.82
442.088	12079.77
442.294	12149.4
442.501	12614.29
442.708	12796.56
442.914	13091.47
443.121	13654.66
443.328	13367.95
443.534	14500.47
443.741	13867.65
443.948	13863.55
444.154	14643.83
444.361	14563.96
444.568	14963.31
444.774	14989.94
444.981	14944.88
445.187	15577.7
445.394	15958.63
445.6	15659.62
445.807	17222.22
446.013	16687.7
446.22	17140.3
446.426	17435.21
446.633	18000.45
446.839	18528.83
447.046	17689.16
447.252	18756.15
447.459	18637.37
447.665	18618.94
447.871	19491.37
448.078	20089.38
448.284	19182.13
448.491	19839.53
448.697	20443.68
448.903	21129.75
449.11	21189.14
449.316	20611.61
449.522	20937.24
449.728	21709.32
449.935	21778.95
450.141	21760.52
450.347	22407.68
450.553	21570.06
450.76	21889.54
450.966	22540.8
451.172	22247.94
451.378	23075.32
451.584	22249.99
451.791	23126.52
451.997	22745.59
452.203	23577.07
452.409	23312.88
452.615	23233.01
452.821	22258.18
453.027	22110.72
453.233	23452.14
453.44	22204.93
453.646	22565.37
453.852	22592
454.058	23056.89
454.264	22639.1
454.47	22977.01
454.676	22352.38
454.882	22897.14
455.088	21269.01
455.294	21477.9
455.5	21871.11
455.705	22252.03
455.911	21234.19
456.117	20933.14
456.323	20369.95
456.529	19307.05
456.735	20271.65
456.941	19700.26
457.147	19421.74
457.352	19059.25
457.558	18725.43
457.764	18469.44
457.97	18276.93
458.176	17723.97
458.381	17982.02
458.587	17228.37
458.793	17334.86
458.999	16476.76
459.204	17637.96
459.41	16900.69
459.616	15737.45
459.821	16073.31
460.027	16067.17
460.233	15374.95
460.438	14735.99
460.644	14959.22
460.85	14111.36
461.055	14064.25
461.261	13984.38
461.466	12821.14
461.672	12655.25
461.878	13408.9
462.083	12661.4
462.289	12331.67
462.494	12253.85
462.7	11616.93
462.905	11434.66
463.111	11668.13
463.316	11846.3
463.522	11733.67
463.727	11594.4
463.932	11477.67
464.138	11485.86
464.343	11463.33
464.549	11100.84
464.754	11477.67
464.959	11383.46
465.165	11387.56
465.37	10865.33
465.575	10480.31
465.781	11197.1
465.986	10916.53
466.191	10484.41
466.397	10474.17
466.602	10078.91
466.807	10261.18
467.012	10455.73
467.218	10441.4
467.423	10259.13
467.628	10330.81
467.833	10738.35
468.038	10078.91
468.244	9896.64
468.449	10386.1
468.654	9962.17
468.859	10191.55
469.064	9806.53
469.269	9497.28
469.474	9439.94
469.679	9898.69
469.885	9396.93
470.09	9564.87
