Data from USB4F104151__174__13-58-56-891.txt Node

Date: Thu Mar 13 13:58:56 EDT 2025
User: louis
Spectrometer: USB4F10415
Trigger mode: 4
Integration Time (sec): 1.000000E-2
Scans to average: 1
Electric dark correction enabled: true
Nonlinearity correction enabled: false
Boxcar width: 0
XAxis mode: Wavelengths
Number of Pixels in Spectrum: 3648
>>>>>Begin Spectral Data<<<<<
178.204	-44.71
178.424	-44.71
178.644	-44.71
178.864	55.64
179.084	-3.75
179.304	20.82
179.524	-18.09
179.744	-67.24
179.964	47.44
180.184	33.11
180.404	-40.62
180.624	51.54
180.844	-32.43
181.064	-26.28
181.283	47.44
181.503	-22.19
181.723	6.49
181.943	14.68
182.163	47.44
182.383	-67.24
182.602	-24.23
182.822	59.73
183.042	14.68
183.262	0.34
183.482	-7.85
183.701	33.11
183.921	51.54
184.141	0.34
184.361	72.02
184.58	18.77
184.8	47.44
185.02	-1.71
185.239	-1.71
185.459	-67.24
185.679	43.35
185.898	35.16
186.118	69.97
186.338	121.17
186.557	-81.58
186.777	80.21
186.997	2.39
187.216	69.97
187.436	78.16
187.655	33.11
187.875	47.44
188.095	12.63
188.314	-16.04
188.534	33.11
188.753	-13.99
188.973	20.82
189.192	26.96
189.412	74.07
189.631	55.64
189.851	41.3
190.07	57.68
190.29	8.53
190.509	43.35
190.729	26.96
190.948	24.92
191.168	31.06
191.387	18.77
191.607	47.44
191.826	-20.14
192.045	39.25
192.265	-7.85
192.484	-1.71
192.704	12.63
192.923	6.49
193.142	33.11
193.362	16.73
193.581	-13.99
193.8	110.93
194.02	20.82
194.239	-7.85
194.458	80.21
194.678	78.16
194.897	18.77
195.116	6.49
195.335	-24.23
195.555	51.54
195.774	-1.71
195.993	10.58
196.212	51.54
196.432	41.3
196.651	-24.23
196.87	22.87
197.089	59.73
197.308	43.35
197.528	-13.99
197.747	74.07
197.966	49.49
198.185	16.73
198.404	16.73
198.623	-34.47
198.842	22.87
199.062	8.53
199.281	41.3
199.5	53.59
199.719	65.88
199.938	0.34
200.157	14.68
200.376	14.68
200.595	69.97
200.814	117.08
201.033	29.01
201.252	24.92
201.471	8.53
201.69	51.54
201.909	74.07
202.128	22.87
202.347	61.78
202.566	35.16
202.785	63.83
203.004	-95.91
203.223	16.73
203.442	33.11
203.661	14.68
203.879	29.01
204.098	98.64
204.317	35.16
204.536	-7.85
204.755	47.44
204.974	-32.43
205.193	-24.23
205.411	18.77
205.63	102.74
205.849	51.54
206.068	24.92
206.287	31.06
206.505	6.49
206.724	24.92
206.943	39.25
207.162	16.73
207.381	-5.8
207.599	72.02
207.818	37.2
208.037	18.77
208.255	8.53
208.474	18.77
208.693	16.73
208.911	69.97
209.13	-7.85
209.349	59.73
209.567	-9.9
209.786	72.02
210.005	-7.85
210.223	2.39
210.442	6.49
210.661	-5.8
210.879	33.11
211.098	6.49
211.316	20.82
211.535	-16.04
211.753	31.06
211.972	63.83
212.191	-18.09
212.409	33.11
212.628	31.06
212.846	-48.81
213.065	31.06
213.283	2.39
213.502	18.77
213.72	18.77
213.938	69.97
214.157	4.44
214.375	-9.9
214.594	-9.9
214.812	96.6
215.031	-11.95
215.249	18.77
215.467	31.06
215.686	29.01
215.904	72.02
216.122	6.49
216.341	84.31
216.559	6.49
216.778	65.88
216.996	61.78
217.214	49.49
217.432	35.16
217.651	72.02
217.869	55.64
218.087	82.26
218.306	8.53
218.524	39.25
218.742	-5.8
218.96	59.73
219.179	-28.33
219.397	78.16
219.615	29.01
219.833	76.12
220.051	-9.9
220.27	55.64
220.488	33.11
220.706	-87.72
220.924	22.87
221.142	22.87
221.36	22.87
221.578	43.35
221.796	47.44
222.015	43.35
222.233	55.64
222.451	35.16
222.669	-7.85
222.887	10.58
223.105	74.07
223.323	-61.1
223.541	-5.8
223.759	29.01
223.977	18.77
224.195	12.63
224.413	121.17
224.631	6.49
224.849	-24.23
225.067	-5.8
225.285	98.64
225.503	-40.62
225.721	-42.67
225.939	8.53
226.157	8.53
226.375	63.83
226.592	74.07
226.81	49.49
227.028	22.87
227.246	12.63
227.464	49.49
227.682	41.3
227.9	43.35
228.117	51.54
228.335	-7.85
228.553	35.16
228.771	-7.85
228.989	29.01
229.206	-26.28
229.424	14.68
229.642	33.11
229.86	51.54
230.077	45.4
230.295	-1.71
230.513	45.4
230.731	39.25
230.948	37.2
231.166	10.58
231.384	4.44
231.601	47.44
231.819	72.02
232.037	22.87
232.254	74.07
232.472	100.69
232.689	16.73
232.907	2.39
233.125	-24.23
233.342	10.58
233.56	53.59
233.777	14.68
233.995	55.64
234.213	125.27
234.43	2.39
234.648	4.44
234.865	33.11
235.083	6.49
235.3	24.92
235.518	63.83
235.735	31.06
235.953	53.59
236.17	-3.75
236.388	53.59
236.605	-38.57
236.822	72.02
237.04	6.49
237.257	112.98
237.475	20.82
237.692	51.54
237.909	12.63
238.127	53.59
238.344	29.01
238.562	14.68
238.779	84.31
238.996	-18.09
239.214	31.06
239.431	45.4
239.648	31.06
239.865	74.07
240.083	-1.71
240.3	0.34
240.517	-63.15
240.735	18.77
240.952	69.97
241.169	80.21
241.386	16.73
241.603	33.11
241.821	33.11
242.038	-16.04
242.255	24.92
242.472	31.06
242.689	84.31
242.907	26.96
243.124	-30.38
243.341	41.3
243.558	51.54
243.775	6.49
243.992	53.59
244.209	82.26
244.426	41.3
244.643	61.78
244.86	-36.52
245.078	51.54
245.295	-42.67
245.512	61.78
245.729	31.06
245.946	12.63
246.163	57.68
246.38	104.79
246.597	43.35
246.814	41.3
247.031	-20.14
247.248	106.84
247.464	-24.23
247.681	16.73
247.898	12.63
248.115	-63.15
248.332	-22.19
248.549	22.87
248.766	-36.52
248.983	65.88
249.2	18.77
249.417	67.92
249.633	49.49
249.85	6.49
250.067	4.44
250.284	24.92
250.501	59.73
250.717	24.92
250.934	14.68
251.151	6.49
251.368	-40.62
251.585	8.53
251.801	69.97
252.018	82.26
252.235	39.25
252.451	-24.23
252.668	45.4
252.885	86.36
253.102	6.49
253.318	96.6
253.535	-1.71
253.752	-5.8
253.968	29.01
254.185	35.16
254.401	4.44
254.618	-9.9
254.835	82.26
255.051	53.59
255.268	84.31
255.484	47.44
255.701	59.73
255.917	37.2
256.134	-3.75
256.351	88.4
256.567	16.73
256.784	-20.14
257	-40.62
257.217	31.06
257.433	123.22
257.65	65.88
257.866	39.25
258.082	47.44
258.299	63.83
258.515	20.82
258.732	29.01
258.948	49.49
259.165	18.77
259.381	57.68
259.597	14.68
259.814	61.78
260.03	92.5
260.246	82.26
260.463	49.49
260.679	55.64
260.895	0.34
261.112	0.34
261.328	-24.23
261.544	57.68
261.761	51.54
261.977	55.64
262.193	-3.75
262.409	26.96
262.626	20.82
262.842	33.11
263.058	35.16
263.274	-1.71
263.49	-1.71
263.707	-26.28
263.923	-30.38
264.139	2.39
264.355	39.25
264.571	41.3
264.787	8.53
265.004	-3.75
265.22	-34.47
265.436	24.92
265.652	-34.47
265.868	-1.71
266.084	-34.47
266.3	37.2
266.516	51.54
266.732	-9.9
266.948	-3.75
267.164	59.73
267.38	16.73
267.596	47.44
267.812	22.87
268.028	37.2
268.244	8.53
268.46	-7.85
268.676	-9.9
268.892	0.34
269.108	-3.75
269.324	8.53
269.54	-52.91
269.756	55.64
269.972	14.68
270.188	33.11
270.403	-22.19
270.619	-13.99
270.835	0.34
271.051	22.87
271.267	16.73
271.483	88.4
271.698	16.73
271.914	55.64
272.13	18.77
272.346	39.25
272.562	4.44
272.777	100.69
272.993	90.45
273.209	33.11
273.425	26.96
273.64	-38.57
273.856	18.77
274.072	110.93
274.287	-11.95
274.503	110.93
274.719	-7.85
274.934	39.25
275.15	33.11
275.366	43.35
275.581	2.39
275.797	67.92
276.012	43.35
276.228	-28.33
276.444	-36.52
276.659	47.44
276.875	94.55
277.09	24.92
277.306	10.58
277.521	26.96
277.737	6.49
277.952	59.73
278.168	41.3
278.383	67.92
278.599	-18.09
278.814	49.49
279.03	18.77
279.245	41.3
279.461	-44.71
279.676	96.6
279.892	86.36
280.107	72.02
280.322	-9.9
280.538	33.11
280.753	-32.43
280.969	69.97
281.184	74.07
281.399	76.12
281.615	35.16
281.83	6.49
282.045	-7.85
282.26	-9.9
282.476	24.92
282.691	14.68
282.906	96.6
283.122	6.49
283.337	-7.85
283.552	80.21
283.767	-13.99
283.983	55.64
284.198	31.06
284.413	82.26
284.628	63.83
284.843	-24.23
285.058	-5.8
285.274	67.92
285.489	43.35
285.704	-16.04
285.919	45.4
286.134	18.77
286.349	92.5
286.564	41.3
286.779	47.44
286.995	108.88
287.21	16.73
287.425	-3.75
287.64	33.11
287.855	-1.71
288.07	-40.62
288.285	31.06
288.5	16.73
288.715	12.63
288.93	37.2
289.145	67.92
289.36	82.26
289.575	39.25
289.79	41.3
290.004	37.2
290.219	78.16
290.434	18.77
290.649	100.69
290.864	24.92
291.079	16.73
291.294	8.53
291.509	63.83
291.724	-13.99
291.938	29.01
292.153	57.68
292.368	-3.75
292.583	18.77
292.798	67.92
293.012	-3.75
293.227	61.78
293.442	6.49
293.657	82.26
293.871	94.55
294.086	6.49
294.301	14.68
294.516	-50.86
294.73	-18.09
294.945	47.44
295.16	31.06
295.374	-20.14
295.589	51.54
295.804	12.63
296.018	72.02
296.233	43.35
296.447	115.03
296.662	-3.75
296.877	41.3
297.091	47.44
297.306	74.07
297.52	35.16
297.735	41.3
297.949	24.92
298.164	-42.67
298.378	41.3
298.593	24.92
298.807	22.87
299.022	24.92
299.236	4.44
299.451	82.26
299.665	18.77
299.88	2.39
300.094	24.92
300.309	65.88
300.523	45.4
300.737	55.64
300.952	4.44
301.166	55.64
301.381	-7.85
301.595	-13.99
301.809	39.25
302.024	59.73
302.238	41.3
302.452	55.64
302.667	45.4
302.881	55.64
303.095	-18.09
303.309	61.78
303.524	-32.43
303.738	24.92
303.952	74.07
304.166	20.82
304.381	-63.15
304.595	67.92
304.809	24.92
305.023	53.59
305.237	-9.9
305.452	39.25
305.666	14.68
305.88	-44.71
306.094	14.68
306.308	-18.09
306.522	-9.9
306.736	69.97
306.95	37.2
307.164	14.68
307.379	-71.34
307.593	61.78
307.807	80.21
308.021	59.73
308.235	2.39
308.449	-16.04
308.663	18.77
308.877	98.64
309.091	65.88
309.305	112.98
309.519	45.4
309.733	59.73
309.947	31.06
310.161	14.68
310.374	57.68
310.588	47.44
310.802	10.58
311.016	-7.85
311.23	-3.75
311.444	29.01
311.658	20.82
311.872	82.26
312.085	-71.34
312.299	14.68
312.513	22.87
312.727	22.87
312.941	6.49
313.154	63.83
313.368	63.83
313.582	92.5
313.796	-54.95
314.009	31.06
314.223	47.44
314.437	55.64
314.651	59.73
314.864	69.97
315.078	-11.95
315.292	53.59
315.505	22.87
315.719	98.64
315.933	39.25
316.146	14.68
316.36	37.2
316.573	14.68
316.787	72.02
317.001	-1.71
317.214	-13.99
317.428	10.58
317.641	55.64
317.855	-20.14
318.068	31.06
318.282	2.39
318.495	63.83
318.709	-3.75
318.922	139.6
319.136	24.92
319.349	57.68
319.563	96.6
319.776	45.4
319.99	6.49
320.203	14.68
320.417	57.68
320.63	-18.09
320.843	76.12
321.057	129.36
321.27	24.92
321.483	37.2
321.697	-7.85
321.91	6.49
322.124	117.08
322.337	88.4
322.55	-13.99
322.763	20.82
322.977	-34.47
323.19	-22.19
323.403	-46.76
323.617	26.96
323.83	110.93
324.043	33.11
324.256	4.44
324.469	-5.8
324.683	-13.99
324.896	4.44
325.109	-16.04
325.322	12.63
325.535	14.68
325.748	24.92
325.962	57.68
326.175	12.63
326.388	88.4
326.601	-9.9
326.814	29.01
327.027	2.39
327.24	18.77
327.453	20.82
327.666	35.16
327.879	57.68
328.092	78.16
328.305	69.97
328.518	2.39
328.731	69.97
328.944	41.3
329.157	39.25
329.37	41.3
329.583	129.36
329.796	31.06
330.009	-11.95
330.222	-16.04
330.435	24.92
330.648	55.64
330.861	26.96
331.073	6.49
331.286	8.53
331.499	98.64
331.712	29.01
331.925	72.02
332.138	63.83
332.35	-40.62
332.563	-3.75
332.776	24.92
332.989	31.06
333.202	-9.9
333.414	47.44
333.627	51.54
333.84	63.83
334.053	31.06
334.265	53.59
334.478	65.88
334.691	65.88
334.903	67.92
335.116	12.63
335.329	22.87
335.541	-1.71
335.754	24.92
335.966	22.87
336.179	53.59
336.392	39.25
336.604	145.75
336.817	80.21
337.029	2.39
337.242	-11.95
337.454	67.92
337.667	78.16
337.88	74.07
338.092	4.44
338.305	6.49
338.517	35.16
338.729	69.97
338.942	-1.71
339.154	18.77
339.367	74.07
339.579	41.3
339.792	-9.9
340.004	47.44
340.217	16.73
340.429	35.16
340.641	-26.28
340.854	57.68
341.066	39.25
341.278	6.49
341.491	108.88
341.703	-22.19
341.915	6.49
342.128	-1.71
342.34	33.11
342.552	74.07
342.764	-36.52
342.977	29.01
343.189	-5.8
343.401	88.4
343.613	10.58
343.826	61.78
344.038	39.25
344.25	2.39
344.462	-18.09
344.674	8.53
344.886	-1.71
345.099	-18.09
345.311	-46.76
345.523	43.35
345.735	10.58
345.947	84.31
346.159	41.3
346.371	90.45
346.583	53.59
346.795	76.12
347.007	74.07
347.219	18.77
347.431	76.12
347.643	47.44
347.855	20.82
348.067	139.6
348.279	2.39
348.491	47.44
348.703	45.4
348.915	4.44
349.127	53.59
349.339	45.4
349.551	22.87
349.763	94.55
349.975	41.3
350.187	37.2
350.399	0.34
350.61	39.25
350.822	31.06
351.034	-3.75
351.246	6.49
351.458	-11.95
351.669	6.49
351.881	55.64
352.093	-1.71
352.305	55.64
352.517	37.2
352.728	63.83
352.94	-79.53
353.152	59.73
353.363	92.5
353.575	80.21
353.787	125.27
353.999	102.74
354.21	55.64
354.422	18.77
354.633	33.11
354.845	76.12
355.057	-34.47
355.268	39.25
355.48	-7.85
355.692	22.87
355.903	26.96
356.115	4.44
356.326	14.68
356.538	20.82
356.749	82.26
356.961	29.01
357.172	33.11
357.384	22.87
357.595	22.87
357.807	-7.85
358.018	-38.57
358.23	88.4
358.441	0.34
358.653	22.87
358.864	41.3
359.075	29.01
359.287	49.49
359.498	117.08
359.709	31.06
359.921	26.96
360.132	-18.09
360.344	72.02
360.555	24.92
360.766	10.58
360.977	22.87
361.189	20.82
361.4	24.92
361.611	6.49
361.823	61.78
362.034	49.49
362.245	47.44
362.456	24.92
362.667	61.78
362.879	57.68
363.09	-24.23
363.301	45.4
363.512	35.16
363.723	63.83
363.935	45.4
364.146	-16.04
364.357	22.87
364.568	63.83
364.779	8.53
364.99	57.68
365.201	74.07
365.412	39.25
365.623	29.01
365.834	29.01
366.045	45.4
366.256	115.03
366.467	29.01
366.678	55.64
366.889	43.35
367.1	31.06
367.311	90.45
367.522	31.06
367.733	51.54
367.944	-18.09
368.155	-18.09
368.366	12.63
368.577	72.02
368.788	63.83
368.999	82.26
369.209	110.93
369.42	14.68
369.631	24.92
369.842	45.4
370.053	47.44
370.264	-7.85
370.474	-3.75
370.685	10.58
370.896	59.73
371.107	55.64
371.317	57.68
371.528	65.88
371.739	88.4
371.95	-5.8
372.16	31.06
372.371	14.68
372.582	51.54
372.792	80.21
373.003	26.96
373.214	39.25
373.424	57.68
373.635	35.16
373.846	96.6
374.056	59.73
374.267	63.83
374.477	-13.99
374.688	108.88
374.898	22.87
375.109	45.4
375.319	18.77
375.53	65.88
375.74	43.35
375.951	-16.04
376.161	84.31
376.372	55.64
376.582	96.6
376.793	106.84
377.003	88.4
377.214	-7.85
377.424	-7.85
377.635	117.08
377.845	-9.9
378.055	-5.8
378.266	12.63
378.476	76.12
378.686	22.87
378.897	84.31
379.107	72.02
379.317	53.59
379.528	67.92
379.738	61.78
379.948	96.6
380.158	88.4
380.369	65.88
380.579	110.93
380.789	8.53
380.999	33.11
381.21	65.88
381.42	106.84
381.63	14.68
381.84	37.2
382.05	37.2
382.261	112.98
382.471	61.78
382.681	-1.71
382.891	45.4
383.101	-65.19
383.311	90.45
383.521	37.2
383.731	53.59
383.941	18.77
384.151	-3.75
384.361	41.3
384.571	76.12
384.781	47.44
384.991	47.44
385.201	51.54
385.411	74.07
385.621	43.35
385.831	76.12
386.041	22.87
386.251	63.83
386.461	72.02
386.671	80.21
386.881	-38.57
387.091	74.07
387.301	8.53
387.511	-63.15
387.72	39.25
387.93	41.3
388.14	-1.71
388.35	102.74
388.56	51.54
388.769	14.68
388.979	10.58
389.189	110.93
389.399	57.68
389.609	57.68
389.818	61.78
390.028	88.4
390.238	31.06
390.447	12.63
390.657	37.2
390.867	43.35
391.076	-18.09
391.286	22.87
391.496	-1.71
391.705	31.06
391.915	61.78
392.125	41.3
392.334	96.6
392.544	39.25
392.753	57.68
392.963	18.77
393.172	80.21
393.382	72.02
393.591	41.3
393.801	22.87
394.01	115.03
394.22	98.64
394.429	106.84
394.639	20.82
394.848	55.64
395.058	82.26
395.267	59.73
395.477	76.12
395.686	41.3
395.895	106.84
396.105	90.45
396.314	8.53
396.524	72.02
396.733	133.46
396.942	-18.09
397.152	94.55
397.361	53.59
397.57	94.55
397.78	61.78
397.989	53.59
398.198	149.84
398.407	43.35
398.617	92.5
398.826	82.26
399.035	14.68
399.244	55.64
399.453	61.78
399.663	90.45
399.872	112.98
400.081	-7.85
400.29	24.92
400.499	43.35
400.708	115.03
400.917	80.21
401.127	82.26
401.336	53.59
401.545	104.79
401.754	92.5
401.963	106.84
402.172	59.73
402.381	47.44
402.59	47.44
402.799	78.16
403.008	98.64
403.217	104.79
403.426	82.26
403.635	69.97
403.844	47.44
404.053	57.68
404.262	112.98
404.471	176.47
404.68	96.6
404.888	106.84
405.097	45.4
405.306	104.79
405.515	82.26
405.724	88.4
405.933	98.64
406.142	151.89
406.35	137.56
406.559	158.03
406.768	96.6
406.977	123.22
407.185	239.95
407.394	104.79
407.603	45.4
407.812	244.05
408.02	215.38
408.229	153.94
408.438	178.51
408.646	86.36
408.855	151.89
409.064	168.27
409.272	186.71
409.481	293.2
409.69	221.52
409.898	194.9
410.107	133.46
410.315	198.99
410.524	115.03
410.733	227.67
410.941	268.63
411.15	211.28
411.358	256.34
411.567	285.01
411.775	233.81
411.984	260.43
412.192	285.01
412.401	289.1
412.609	311.63
412.818	317.78
413.026	285.01
413.234	385.36
413.443	420.17
413.651	346.45
413.86	352.59
414.068	395.6
414.276	282.96
414.485	411.98
414.693	401.74
414.901	450.89
415.11	434.51
415.318	477.52
415.526	444.75
415.734	504.14
415.943	418.13
416.151	543.05
416.359	504.14
416.567	477.52
416.776	594.25
416.984	584.01
417.192	573.77
417.4	524.62
417.608	620.88
417.817	690.51
418.025	739.66
418.233	758.09
418.441	749.9
418.649	729.42
418.857	735.56
419.065	745.8
419.273	811.34
419.481	893.26
419.689	983.37
419.897	887.11
420.105	1005.89
420.313	1026.37
420.521	940.36
420.729	989.51
420.937	977.22
421.145	1163.59
421.353	1067.33
421.561	1145.16
421.769	1235.27
421.977	1270.08
422.185	1329.47
422.393	1261.89
422.601	1288.51
422.809	1380.67
423.017	1513.79
423.224	1472.83
423.432	1573.18
423.64	1481.02
423.848	1593.66
424.056	1687.87
424.263	1706.3
424.471	1708.35
424.679	1726.78
424.887	2001.21
425.094	1950.01
425.302	2011.45
425.51	1990.97
425.718	2154.8
425.925	2017.59
426.133	2224.44
426.341	2240.82
426.548	2375.99
426.756	2414.9
426.964	2369.84
427.171	2570.54
427.379	2574.64
427.586	2636.08
427.794	2703.66
428.001	2883.88
428.209	3023.14
428.417	2986.28
428.624	3043.62
428.832	3060.01
429.039	3094.82
429.247	3096.87
429.454	3506.46
429.662	3490.08
429.869	3383.59
430.076	3531.04
430.284	3574.05
430.491	3586.33
430.699	3836.19
430.906	3852.57
431.114	3815.71
431.321	4088.09
431.528	4339.99
431.736	4438.29
431.943	4577.55
432.15	4630.8
432.358	4505.87
432.565	4765.96
432.772	4860.17
432.979	5081.35
433.187	5107.98
433.394	4993.29
433.601	5376.26
433.808	5411.07
434.016	5394.69
434.223	5716.22
434.43	6115.58
434.637	5904.64
434.844	6142.2
435.052	6387.96
435.259	6359.28
435.466	6433.01
435.673	6357.24
435.88	6746.35
436.087	6920.43
436.294	7110.89
436.501	6938.86
436.708	7055.59
436.915	7260.39
437.122	7631.07
437.329	7366.88
437.537	7821.53
437.743	8102.11
437.95	7995.61
438.157	8364.25
438.364	8603.86
438.571	8546.51
438.778	8730.83
438.985	9386.18
439.192	9183.43
439.399	9451.72
439.606	9124.04
439.813	9621.7
440.02	10178.75
440.227	10057.92
440.433	9865.41
440.64	10256.57
440.847	10299.58
441.054	10369.21
441.261	11153.58
441.467	10979.5
441.674	11169.96
441.881	11894.94
442.088	11550.89
442.294	11477.16
442.501	11905.18
442.708	12054.69
442.914	12501.14
443.121	12951.7
443.328	12783.76
443.534	13660.29
443.741	13281.42
443.948	12937.36
444.154	14037.12
444.361	13846.66
444.568	14037.12
444.774	14061.69
444.981	14076.03
445.187	14727.28
445.394	15042.67
445.6	14903.41
445.807	16269.41
446.013	15521.9
446.22	16050.27
446.426	16556.12
446.633	16736.34
446.839	17356.88
447.046	16791.64
447.252	17647.69
447.459	17801.29
447.665	17465.42
447.871	18112.58
448.078	19146.8
448.284	18333.76
448.491	18808.89
448.697	19421.23
448.903	19552.3
449.11	19806.25
449.316	19451.95
449.522	19791.91
449.728	20377.63
449.935	20422.69
450.141	20453.41
450.347	20854.81
450.553	20424.73
450.76	20508.7
450.966	21067.8
451.172	20881.43
451.378	21592.08
451.584	20969.49
451.791	21364.75
451.997	21604.36
452.203	22042.63
452.409	21819.4
452.615	21757.96
452.821	21170.19
453.027	20766.74
453.233	21651.47
453.44	21100.56
453.646	21291.02
453.852	21127.19
454.058	21981.19
454.264	20662.3
454.47	21368.85
454.676	20740.12
454.882	21583.88
455.088	19791.91
455.294	20285.47
455.5	20299.81
455.705	20338.72
455.911	19472.43
456.117	19181.62
456.323	19126.32
456.529	18165.82
456.735	18794.55
456.941	18171.97
457.147	18012.23
457.352	17533
457.558	17295.44
457.764	17145.94
457.97	16980.05
458.176	16623.7
458.381	16513.11
458.587	15691.88
458.793	15706.21
458.999	14891.12
459.204	16128.1
459.41	15581.29
459.616	14432.38
459.821	14682.23
460.027	14715
460.233	14301.31
460.438	13772.93
460.644	13736.07
460.85	12974.22
461.055	13095.05
461.261	12671.12
461.466	11835.55
461.672	11589.8
461.878	12286.11
462.083	11622.56
462.289	11397.29
462.494	11161.77
462.7	10789.04
462.905	10430.65
463.111	10739.89
463.316	10983.6
463.522	10762.42
463.727	10844.34
463.932	10692.79
464.138	10600.63
464.343	10678.45
464.549	10324.15
464.754	10703.03
464.959	10383.54
465.165	10743.99
465.37	10000.57
465.575	9763.01
465.781	10100.92
465.986	10258.62
466.191	9910.46
466.397	9738.43
466.602	9111.75
466.807	9599.17
467.012	9672.9
467.218	9586.88
467.423	9435.33
467.628	9529.54
467.833	10115.26
468.038	9660.61
468.244	9296.07
468.449	9738.43
468.654	9337.03
468.859	9224.39
469.064	9150.67
469.269	8954.06
469.474	8943.82
