Data from USB4F104151__35__13-52-52-121.txt Node

Date: Thu Mar 13 13:52:52 EDT 2025
User: louis
Spectrometer: USB4F10415
Trigger mode: 4
Integration Time (sec): 1.000000E-2
Scans to average: 1
Electric dark correction enabled: true
Nonlinearity correction enabled: false
Boxcar width: 0
XAxis mode: Wavelengths
Number of Pixels in Spectrum: 3648
>>>>>Begin Spectral Data<<<<<
178.204	-66.22
178.424	-66.22
178.644	-66.22
178.864	-6.83
179.084	-41.64
179.304	-10.92
179.524	30.04
179.744	21.85
179.964	-21.16
180.184	9.56
180.404	40.28
180.624	-4.78
180.844	-55.98
181.064	-23.21
181.283	25.94
181.503	-0.68
181.723	-10.92
181.943	-17.07
182.163	85.33
182.383	-45.74
182.602	71
182.822	19.8
183.042	-25.26
183.262	23.89
183.482	7.51
183.701	-45.74
183.921	46.42
184.141	54.61
184.361	27.99
184.58	32.08
184.8	46.42
185.02	34.13
185.239	21.85
185.459	-2.73
185.679	27.99
185.898	-8.87
186.118	11.61
186.338	-17.07
186.557	73.04
186.777	-23.21
186.997	21.85
187.216	-19.11
187.436	-19.11
187.655	-12.97
187.875	68.95
188.095	-0.68
188.314	23.89
188.534	-66.22
188.753	21.85
188.973	111.96
189.192	56.66
189.412	15.7
189.631	1.37
189.851	25.94
190.07	91.48
190.29	21.85
190.509	83.28
190.729	-37.55
190.948	81.24
191.168	134.48
191.387	13.65
191.607	-6.83
191.826	30.04
192.045	34.13
192.265	19.8
192.484	34.13
192.704	-47.79
192.923	-8.87
193.142	23.89
193.362	-41.64
193.581	5.46
193.8	46.42
194.02	-31.4
194.239	13.65
194.458	-8.87
194.678	-25.26
194.897	13.65
195.116	54.61
195.335	11.61
195.555	93.52
195.774	-0.68
195.993	103.76
196.212	3.41
196.432	71
196.651	62.8
196.87	25.94
197.089	71
197.308	40.28
197.528	-23.21
197.747	-23.21
197.966	-19.11
198.185	-31.4
198.404	105.81
198.623	27.99
198.842	32.08
199.062	32.08
199.281	44.37
199.5	17.75
199.719	128.34
199.938	-19.11
200.157	-4.78
200.376	-4.78
200.595	32.08
200.814	44.37
201.033	25.94
201.252	68.95
201.471	21.85
201.69	58.71
201.909	38.23
202.128	-8.87
202.347	40.28
202.566	40.28
202.785	23.89
203.004	32.08
203.223	73.04
203.442	62.8
203.661	15.7
203.879	25.94
204.098	66.9
204.317	87.38
204.536	11.61
204.755	23.89
204.974	58.71
205.193	23.89
205.411	44.37
205.63	73.04
205.849	-10.92
206.068	27.99
206.287	11.61
206.505	81.24
206.724	66.9
206.943	46.42
207.162	3.41
207.381	40.28
207.599	-19.11
207.818	-12.97
208.037	21.85
208.255	77.14
208.474	13.65
208.693	-0.68
208.911	42.32
209.13	9.56
209.349	-4.78
209.567	13.65
209.786	13.65
210.005	-0.68
210.223	91.48
210.442	25.94
210.661	15.7
210.879	-0.68
211.098	46.42
211.316	-35.5
211.535	30.04
211.753	44.37
211.972	-10.92
212.191	-58.03
212.409	-33.45
212.628	19.8
212.846	83.28
213.065	58.71
213.283	60.76
213.502	-23.21
213.72	56.66
213.938	-35.5
214.157	93.52
214.375	-2.73
214.594	9.56
214.812	79.19
215.031	-35.5
215.249	-6.83
215.467	-8.87
215.686	58.71
215.904	11.61
216.122	3.41
216.341	89.43
216.559	62.8
216.778	32.08
216.996	-29.35
217.214	-12.97
217.432	-6.83
217.651	89.43
217.869	7.51
218.087	71
218.306	5.46
218.524	79.19
218.742	44.37
218.96	7.51
219.179	85.33
219.397	79.19
219.615	58.71
219.833	101.72
220.051	-21.16
220.27	42.32
220.488	48.47
220.706	40.28
220.924	-27.31
221.142	3.41
221.36	48.47
221.578	95.57
221.796	36.18
222.015	27.99
222.233	-47.79
222.451	48.47
222.669	44.37
222.887	77.14
223.105	15.7
223.323	5.46
223.541	21.85
223.759	52.56
223.977	-17.07
224.195	75.09
224.413	52.56
224.631	36.18
224.849	23.89
225.067	15.7
225.285	44.37
225.503	85.33
225.721	56.66
225.939	3.41
226.157	50.52
226.375	87.38
226.592	30.04
226.81	40.28
227.028	52.56
227.246	42.32
227.464	50.52
227.682	48.47
227.9	81.24
228.117	11.61
228.335	15.7
228.553	48.47
228.771	13.65
228.989	42.32
229.206	81.24
229.424	109.91
229.642	19.8
229.86	23.89
230.077	-41.64
230.295	21.85
230.513	64.85
230.731	122.2
230.948	50.52
231.166	68.95
231.384	66.9
231.601	50.52
231.819	58.71
232.037	44.37
232.254	48.47
232.472	-4.78
232.689	60.76
232.907	13.65
233.125	-27.31
233.342	64.85
233.56	17.75
233.777	-12.97
233.995	-0.68
234.213	83.28
234.43	25.94
234.648	19.8
234.865	60.76
235.083	36.18
235.3	64.85
235.518	-0.68
235.735	-39.59
235.953	81.24
236.17	-6.83
236.388	50.52
236.605	27.99
236.822	23.89
237.04	32.08
237.257	11.61
237.475	-8.87
237.692	60.76
237.909	68.95
238.127	-8.87
238.344	9.56
238.562	27.99
238.779	19.8
238.996	3.41
239.214	66.9
239.431	7.51
239.648	5.46
239.865	52.56
240.083	68.95
240.3	-10.92
240.517	48.47
240.735	32.08
240.952	38.23
241.169	89.43
241.386	60.76
241.603	17.75
241.821	54.61
242.038	42.32
242.255	17.75
242.472	40.28
242.689	56.66
242.907	46.42
243.124	66.9
243.341	71
243.558	-45.74
243.775	30.04
243.992	-47.79
244.209	7.51
244.426	66.9
244.643	13.65
244.86	101.72
245.078	66.9
245.295	-19.11
245.512	27.99
245.729	44.37
245.946	54.61
246.163	32.08
246.38	83.28
246.597	54.61
246.814	-17.07
247.031	13.65
247.248	93.52
247.464	11.61
247.681	40.28
247.898	52.56
248.115	50.52
248.332	27.99
248.549	15.7
248.766	-43.69
248.983	64.85
249.2	-17.07
249.417	9.56
249.633	3.41
249.85	97.62
250.067	17.75
250.284	27.99
250.501	-2.73
250.717	27.99
250.934	15.7
251.151	36.18
251.368	-12.97
251.585	64.85
251.801	-15.02
252.018	7.51
252.235	25.94
252.451	46.42
252.668	58.71
252.885	-19.11
253.102	-21.16
253.318	-2.73
253.535	38.23
253.752	-17.07
253.968	3.41
254.185	30.04
254.401	42.32
254.618	46.42
254.835	3.41
255.051	68.95
255.268	-41.64
255.484	36.18
255.701	44.37
255.917	89.43
256.134	42.32
256.351	7.51
256.567	-2.73
256.784	56.66
257	34.13
257.217	56.66
257.433	40.28
257.65	50.52
257.866	38.23
258.082	48.47
258.299	85.33
258.515	54.61
258.732	87.38
258.948	-0.68
259.165	-23.21
259.381	46.42
259.597	48.47
259.814	56.66
260.03	13.65
260.246	-23.21
260.463	-21.16
260.679	21.85
260.895	19.8
261.112	71
261.328	77.14
261.544	71
261.761	42.32
261.977	81.24
262.193	40.28
262.409	-4.78
262.626	68.95
262.842	17.75
263.058	-19.11
263.274	27.99
263.49	85.33
263.707	46.42
263.923	118.1
264.139	34.13
264.355	27.99
264.571	73.04
264.787	38.23
265.004	30.04
265.22	48.47
265.436	32.08
265.652	3.41
265.868	-39.59
266.084	-2.73
266.3	-6.83
266.516	9.56
266.732	66.9
266.948	50.52
267.164	124.24
267.38	-4.78
267.596	25.94
267.812	52.56
268.028	64.85
268.244	27.99
268.46	15.7
268.676	21.85
268.892	-10.92
269.108	-23.21
269.324	11.61
269.54	-25.26
269.756	34.13
269.972	-10.92
270.188	21.85
270.403	-19.11
270.619	-12.97
270.835	36.18
271.051	85.33
271.267	11.61
271.483	32.08
271.698	40.28
271.914	-21.16
272.13	83.28
272.346	83.28
272.562	34.13
272.777	13.65
272.993	-12.97
273.209	25.94
273.425	-31.4
273.64	-6.83
273.856	56.66
274.072	23.89
274.287	58.71
274.503	105.81
274.719	58.71
274.934	44.37
275.15	3.41
275.366	140.63
275.581	-27.31
275.797	21.85
276.012	25.94
276.228	-68.27
276.444	13.65
276.659	54.61
276.875	21.85
277.09	71
277.306	71
277.521	-15.02
277.737	48.47
277.952	17.75
278.168	50.52
278.383	87.38
278.599	79.19
278.814	103.76
279.03	-27.31
279.245	46.42
279.461	17.75
279.676	36.18
279.892	52.56
280.107	64.85
280.322	13.65
280.538	46.42
280.753	5.46
280.969	64.85
281.184	91.48
281.399	114
281.615	30.04
281.83	38.23
282.045	1.37
282.26	48.47
282.476	11.61
282.691	52.56
282.906	-8.87
283.122	9.56
283.337	36.18
283.552	42.32
283.767	58.71
283.983	38.23
284.198	54.61
284.413	3.41
284.628	30.04
284.843	44.37
285.058	87.38
285.274	-29.35
285.489	91.48
285.704	87.38
285.919	-4.78
286.134	60.76
286.349	62.8
286.564	25.94
286.779	95.57
286.995	13.65
287.21	87.38
287.425	50.52
287.64	-8.87
287.855	-2.73
288.07	-41.64
288.285	77.14
288.5	54.61
288.715	17.75
288.93	-6.83
289.145	101.72
289.36	52.56
289.575	58.71
289.79	44.37
290.004	-6.83
290.219	62.8
290.434	-6.83
290.649	-8.87
290.864	32.08
291.079	21.85
291.294	-4.78
291.509	36.18
291.724	44.37
291.938	50.52
292.153	62.8
292.368	68.95
292.583	60.76
292.798	118.1
293.012	5.46
293.227	48.47
293.442	32.08
293.657	-10.92
293.871	11.61
294.086	30.04
294.301	25.94
294.516	46.42
294.73	56.66
294.945	25.94
295.16	38.23
295.374	75.09
295.589	48.47
295.804	27.99
296.018	-23.21
296.233	40.28
296.447	81.24
296.662	54.61
296.877	38.23
297.091	75.09
297.306	38.23
297.52	42.32
297.735	71
297.949	-10.92
298.164	105.81
298.378	71
298.593	3.41
298.807	13.65
299.022	30.04
299.236	54.61
299.451	32.08
299.665	50.52
299.88	11.61
300.094	54.61
300.309	44.37
300.523	23.89
300.737	81.24
300.952	54.61
301.166	13.65
301.381	9.56
301.595	77.14
301.809	17.75
302.024	79.19
302.238	1.37
302.452	27.99
302.667	44.37
302.881	105.81
303.095	58.71
303.309	-15.02
303.524	66.9
303.738	-10.92
303.952	50.52
304.166	64.85
304.381	64.85
304.595	64.85
304.809	17.75
305.023	97.62
305.237	52.56
305.452	30.04
305.666	105.81
305.88	105.81
306.094	23.89
306.308	1.37
306.522	25.94
306.736	38.23
306.95	-29.35
307.164	73.04
307.379	73.04
307.593	-4.78
307.807	91.48
308.021	-6.83
308.235	-15.02
308.449	46.42
308.663	73.04
308.877	99.67
309.091	71
309.305	3.41
309.519	-33.45
309.733	44.37
309.947	7.51
310.161	-4.78
310.374	3.41
310.588	73.04
310.802	5.46
311.016	19.8
311.23	-8.87
311.444	-15.02
311.658	-33.45
311.872	136.53
312.085	23.89
312.299	122.2
312.513	60.76
312.727	15.7
312.941	17.75
313.154	-2.73
313.368	93.52
313.582	42.32
313.796	73.04
314.009	60.76
314.223	56.66
314.437	68.95
314.651	30.04
314.864	25.94
315.078	25.94
315.292	87.38
315.505	-15.02
315.719	107.86
315.933	77.14
316.146	27.99
316.36	54.61
316.573	3.41
316.787	87.38
317.001	36.18
317.214	60.76
317.428	13.65
317.641	-64.17
317.855	25.94
318.068	-10.92
318.282	52.56
318.495	93.52
318.709	44.37
318.922	81.24
319.136	85.33
319.349	77.14
319.563	-31.4
319.776	44.37
319.99	75.09
320.203	-4.78
320.417	50.52
320.63	17.75
320.843	73.04
321.057	75.09
321.27	-23.21
321.483	81.24
321.697	105.81
321.91	30.04
322.124	-0.68
322.337	48.47
322.55	48.47
322.763	36.18
322.977	60.76
323.19	1.37
323.403	25.94
323.617	30.04
323.83	44.37
324.043	56.66
324.256	126.29
324.469	64.85
324.683	114
324.896	21.85
325.109	101.72
325.322	27.99
325.535	101.72
325.748	13.65
325.962	-29.35
326.175	13.65
326.388	15.7
326.601	32.08
326.814	25.94
327.027	-2.73
327.24	103.76
327.453	64.85
327.666	23.89
327.879	9.56
328.092	54.61
328.305	15.7
328.518	27.99
328.731	58.71
328.944	44.37
329.157	109.91
329.37	89.43
329.583	60.76
329.796	30.04
330.009	11.61
330.222	7.51
330.435	77.14
330.648	38.23
330.861	15.7
331.073	40.28
331.286	-8.87
331.499	87.38
331.712	-15.02
331.925	36.18
332.138	56.66
332.35	126.29
332.563	-51.88
332.776	7.51
332.989	30.04
333.202	-15.02
333.414	124.24
333.627	58.71
333.84	48.47
334.053	23.89
334.265	50.52
334.478	1.37
334.691	105.81
334.903	54.61
335.116	50.52
335.329	40.28
335.541	21.85
335.754	48.47
335.966	-15.02
336.179	-10.92
336.392	40.28
336.604	19.8
336.817	-29.35
337.029	54.61
337.242	21.85
337.454	73.04
337.667	36.18
337.88	109.91
338.092	44.37
338.305	60.76
338.517	71
338.729	66.9
338.942	91.48
339.154	64.85
339.367	23.89
339.579	7.51
339.792	58.71
340.004	13.65
340.217	132.44
340.429	66.9
340.641	23.89
340.854	79.19
341.066	11.61
341.278	5.46
341.491	52.56
341.703	3.41
341.915	9.56
342.128	30.04
342.34	71
342.552	66.9
342.764	99.67
342.977	30.04
343.189	27.99
343.401	46.42
343.613	-43.69
343.826	-8.87
344.038	46.42
344.25	-23.21
344.462	60.76
344.674	87.38
344.886	81.24
345.099	95.57
345.311	-0.68
345.523	30.04
345.735	87.38
345.947	64.85
346.159	21.85
346.371	91.48
346.583	83.28
346.795	27.99
347.007	23.89
347.219	32.08
347.431	34.13
347.643	105.81
347.855	42.32
348.067	50.52
348.279	-23.21
348.491	-4.78
348.703	-41.64
348.915	17.75
349.127	79.19
349.339	36.18
349.551	9.56
349.763	66.9
349.975	9.56
350.187	23.89
350.399	11.61
350.61	54.61
350.822	-31.4
351.034	60.76
351.246	73.04
351.458	75.09
351.669	13.65
351.881	44.37
352.093	46.42
352.305	87.38
352.517	107.86
352.728	46.42
352.94	73.04
353.152	-6.83
353.363	1.37
353.575	50.52
353.787	44.37
353.999	-12.97
354.21	-6.83
354.422	89.43
354.633	50.52
354.845	83.28
355.057	56.66
355.268	68.95
355.48	15.7
355.692	68.95
355.903	44.37
356.115	44.37
356.326	46.42
356.538	54.61
356.749	62.8
356.961	48.47
357.172	66.9
357.384	21.85
357.595	68.95
357.807	42.32
358.018	42.32
358.23	23.89
358.441	42.32
358.653	40.28
358.864	27.99
359.075	-37.55
359.287	93.52
359.498	34.13
359.709	52.56
359.921	73.04
360.132	40.28
360.344	38.23
360.555	-0.68
360.766	1.37
360.977	68.95
361.189	17.75
361.4	44.37
361.611	109.91
361.823	50.52
362.034	7.51
362.245	-12.97
362.456	48.47
362.667	62.8
362.879	52.56
363.09	52.56
363.301	77.14
363.512	95.57
363.723	71
363.935	97.62
364.146	66.9
364.357	-45.74
364.568	15.7
364.779	48.47
364.99	36.18
365.201	23.89
365.412	27.99
365.623	89.43
365.834	62.8
366.045	-0.68
366.256	62.8
366.467	32.08
366.678	97.62
366.889	40.28
367.1	46.42
367.311	5.46
367.522	81.24
367.733	83.28
367.944	-41.64
368.155	64.85
368.366	99.67
368.577	46.42
368.788	68.95
368.999	58.71
369.209	75.09
369.42	116.05
369.631	3.41
369.842	109.91
370.053	93.52
370.264	75.09
370.474	64.85
370.685	-17.07
370.896	52.56
371.107	15.7
371.317	118.1
371.528	-2.73
371.739	58.71
371.95	1.37
372.16	89.43
372.371	3.41
372.582	34.13
372.792	19.8
373.003	-15.02
373.214	36.18
373.424	68.95
373.635	40.28
373.846	19.8
374.056	48.47
374.267	58.71
374.477	71
374.688	93.52
374.898	46.42
375.109	87.38
375.319	19.8
375.53	9.56
375.74	48.47
375.951	54.61
376.161	27.99
376.372	91.48
376.582	105.81
376.793	87.38
377.003	23.89
377.214	73.04
377.424	15.7
377.635	-2.73
377.845	60.76
378.055	30.04
378.266	30.04
378.476	25.94
378.686	9.56
378.897	105.81
379.107	85.33
379.317	19.8
379.528	50.52
379.738	107.86
379.948	-45.74
380.158	54.61
380.369	38.23
380.579	-0.68
380.789	5.46
380.999	128.34
381.21	54.61
381.42	101.72
381.63	21.85
381.84	-8.87
382.05	23.89
382.261	36.18
382.471	36.18
382.681	52.56
382.891	103.76
383.101	64.85
383.311	54.61
383.521	95.57
383.731	83.28
383.941	54.61
384.151	56.66
384.361	71
384.571	1.37
384.781	36.18
384.991	73.04
385.201	52.56
385.411	36.18
385.621	142.68
385.831	107.86
386.041	-43.69
386.251	91.48
386.461	79.19
386.671	13.65
386.881	54.61
387.091	52.56
387.301	17.75
387.511	46.42
387.72	46.42
387.93	21.85
388.14	30.04
388.35	46.42
388.56	114
388.769	99.67
388.979	42.32
389.189	32.08
389.399	91.48
389.609	50.52
389.818	15.7
390.028	11.61
390.238	-35.5
390.447	30.04
390.657	50.52
390.867	40.28
391.076	64.85
391.286	19.8
391.496	120.15
391.705	25.94
391.915	89.43
392.125	38.23
392.334	50.52
392.544	75.09
392.753	87.38
392.963	79.19
393.172	126.29
393.382	40.28
393.591	103.76
393.801	30.04
394.01	75.09
394.22	23.89
394.429	68.95
394.639	52.56
394.848	-0.68
395.058	54.61
395.267	60.76
395.477	23.89
395.686	97.62
395.895	62.8
396.105	99.67
396.314	132.44
396.524	62.8
396.733	77.14
396.942	146.77
397.152	111.96
397.361	87.38
397.57	-8.87
397.78	128.34
397.989	126.29
398.198	130.39
398.407	91.48
398.617	77.14
398.826	159.06
399.035	150.87
399.244	73.04
399.453	126.29
399.663	77.14
399.872	109.91
400.081	48.47
400.29	62.8
400.499	95.57
400.708	73.04
400.917	71
401.127	189.78
401.336	101.72
401.545	19.8
401.754	132.44
401.963	93.52
402.172	44.37
402.381	75.09
402.59	48.47
402.799	85.33
403.008	83.28
403.217	81.24
403.426	132.44
403.635	77.14
403.844	89.43
404.053	27.99
404.262	32.08
404.471	154.96
404.68	97.62
404.888	95.57
405.097	97.62
405.306	89.43
405.515	50.52
405.724	68.95
405.933	138.58
406.142	77.14
406.35	165.2
406.559	181.59
406.768	132.44
406.977	224.59
407.185	101.72
407.394	161.11
407.603	159.06
407.812	148.82
408.02	157.01
408.229	216.4
408.438	154.96
408.646	195.92
408.855	154.96
409.064	224.59
409.272	187.73
409.481	214.35
409.69	249.17
409.898	238.93
410.107	165.2
410.315	222.55
410.524	296.27
410.733	185.68
410.941	261.46
411.15	267.6
411.358	189.78
411.567	202.07
411.775	281.94
411.984	288.08
412.192	238.93
412.401	228.69
412.609	341.33
412.818	394.58
413.026	271.7
413.234	382.29
413.443	382.29
413.651	343.38
413.86	304.46
414.068	357.71
414.276	443.73
414.485	462.16
414.693	372.05
414.901	490.83
415.11	499.02
415.318	439.63
415.526	486.73
415.734	451.92
415.943	542.03
416.151	554.32
416.359	513.36
416.567	638.28
416.776	611.66
416.984	673.1
417.192	640.33
417.4	644.43
417.608	699.72
417.817	736.59
418.025	660.81
418.233	767.31
418.441	759.11
418.649	773.45
418.857	857.42
419.065	867.66
419.273	818.5
419.481	951.62
419.689	939.33
419.897	955.72
420.105	1047.88
420.313	980.29
420.521	1013.06
420.729	1062.21
420.937	1127.75
421.145	1129.8
421.353	1150.28
421.561	1289.54
421.769	1271.11
421.977	1400.13
422.185	1359.17
422.393	1525.05
422.601	1514.81
422.809	1420.61
423.017	1537.34
423.224	1506.62
423.432	1674.56
423.64	1647.93
423.848	1803.58
424.056	1748.28
424.263	1897.78
424.471	1905.98
424.679	1938.74
424.887	2127.16
425.094	2172.21
425.302	2039.09
425.51	2118.97
425.718	2286.9
425.925	2237.75
426.133	2362.67
426.341	2368.82
426.548	2559.28
426.756	2612.53
426.964	2563.37
427.171	2667.82
427.379	2977.06
427.586	2907.43
427.794	2870.57
428.001	3083.56
428.209	3263.78
428.417	3136.81
428.624	3400.99
428.832	3417.38
429.039	3450.14
429.247	3452.19
429.454	3626.27
429.662	3847.45
429.869	3726.62
430.076	3810.59
430.284	3925.27
430.491	3892.51
430.699	4224.28
430.906	4295.96
431.114	4338.96
431.321	4474.13
431.528	4652.3
431.736	4812.04
431.943	4992.27
432.15	4908.3
432.358	4881.67
432.565	5020.94
432.772	5274.88
432.979	5426.43
433.187	5664
433.394	5569.79
433.601	6051.06
433.808	5926.14
434.016	5985.53
434.223	6126.84
434.43	6587.63
434.637	6440.18
434.844	6651.12
435.052	6876.4
435.259	6989.03
435.466	6774
435.673	6720.75
435.88	7437.54
436.087	7599.33
436.294	7544.03
436.501	7460.07
436.708	7877.85
436.915	8035.55
437.122	8195.29
437.329	8256.73
437.537	8500.44
437.743	8692.94
437.95	8731.86
438.157	9211.08
438.364	9223.37
438.571	9348.29
438.778	9497.8
438.985	10347.7
439.192	9727.17
439.399	10228.92
439.606	10022.08
439.813	10480.82
440.02	11170.99
440.227	10878.13
440.433	10935.47
440.64	11439.27
440.847	11230.38
441.054	11435.17
441.261	12262.55
441.467	11959.45
441.674	12285.08
441.881	12633.24
442.088	12680.34
442.294	12600.47
442.501	12835.99
442.708	13255.82
442.914	13640.84
443.121	14431.35
443.328	14087.29
443.534	14867.57
443.741	14150.78
443.948	14169.21
444.154	15219.82
444.361	15268.97
444.568	15322.22
444.774	15273.07
444.981	15496.3
445.187	15860.84
445.394	16675.93
445.6	16618.58
445.807	18201.66
446.013	17226.83
446.22	17415.24
446.426	18250.81
446.633	18482.24
446.839	19409.97
447.046	18287.68
447.252	19141.68
447.459	19123.25
447.665	18945.08
447.871	19907.62
448.078	20962.33
448.284	19848.23
448.491	20366.37
448.697	21322.77
448.903	21644.3
449.11	21378.06
449.316	21548.04
449.522	21505.04
449.728	22215.68
449.935	22146.05
450.141	22465.53
450.347	22881.27
450.553	22094.85
450.76	22727.67
450.966	23239.67
451.172	22713.34
451.378	23348.21
451.584	23106.55
451.791	23421.94
451.997	23477.23
452.203	23923.69
452.409	23661.55
452.615	23618.54
452.821	22694.91
453.027	22504.45
453.233	23567.34
453.44	22940.66
453.646	22932.47
453.852	23069.69
454.058	23407.6
454.264	22377.47
454.47	23411.7
454.676	22737.91
454.882	23313.39
455.088	21130.26
455.294	21269.52
455.5	21900.3
455.705	22047.75
455.911	21160.98
456.117	20683.8
456.323	20524.06
456.529	19377.2
456.735	20153.38
456.941	19592.23
457.147	19319.85
457.352	18771
457.558	18371.64
457.764	18662.46
457.97	18084.93
458.176	17861.7
458.381	17751.11
458.587	16880.72
458.793	17155.15
458.999	16208.99
459.204	17286.22
459.41	16628.82
459.616	15510.63
459.821	15719.53
460.027	15658.09
460.233	15316.08
460.438	14646.39
460.644	14675.06
460.85	13855.87
461.055	14007.42
461.261	13825.15
461.466	12749.97
461.672	12342.42
461.878	13200.52
462.083	12463.26
462.289	11984.03
462.494	12063.9
462.7	11592.87
462.905	11105.45
463.111	11517.09
463.316	11754.66
463.522	11472.04
463.727	11418.79
463.932	11521.19
464.138	11191.47
464.343	11410.6
464.549	10919.09
464.754	11107.5
464.959	11187.37
465.165	11261.1
465.37	10742.96
465.575	10714.29
465.781	11011.25
465.986	10906.8
466.191	10441.91
466.397	10357.94
466.602	9952.45
466.807	10261.69
467.012	10259.64
467.218	10200.25
467.423	9893.05
467.628	10329.27
467.833	10536.12
468.038	10198.2
468.244	9827.52
468.449	10335.42
468.654	10040.51
468.859	9901.25
469.064	9817.28
