Data from USB4F104151__136__13-58-09-356.txt Node

Date: Thu Mar 13 13:58:09 EDT 2025
User: louis
Spectrometer: USB4F10415
Trigger mode: 4
Integration Time (sec): 1.000000E-2
Scans to average: 1
Electric dark correction enabled: true
Nonlinearity correction enabled: false
Boxcar width: 0
XAxis mode: Wavelengths
Number of Pixels in Spectrum: 3648
>>>>>Begin Spectral Data<<<<<
178.204	-50.35
178.424	-50.35
178.644	-50.35
178.864	-13.48
179.084	11.09
179.304	62.29
179.524	-42.15
179.744	56.15
179.964	-25.77
180.184	0.85
180.404	0.85
180.624	-50.35
180.844	15.19
181.064	-21.67
181.283	23.38
181.503	-13.48
181.723	-5.29
181.943	-29.87
182.163	4.95
182.383	27.48
182.602	-27.82
182.822	31.57
183.042	68.44
183.262	-19.63
183.482	56.15
183.701	-27.82
183.921	70.48
184.141	-31.91
184.361	107.35
184.58	-56.49
184.8	9.05
185.02	19.29
185.239	15.19
185.459	-46.25
185.679	13.14
185.898	43.86
186.118	27.48
186.338	43.86
186.557	21.33
186.777	0.85
186.997	52.05
187.216	43.86
187.436	43.86
187.655	29.52
187.875	27.48
188.095	15.19
188.314	72.53
188.534	-1.19
188.753	58.2
188.973	66.39
189.192	33.62
189.412	9.05
189.631	-9.39
189.851	-25.77
190.07	90.96
190.29	31.57
190.509	-56.49
190.729	25.43
190.948	52.05
191.168	154.45
191.387	-11.43
191.607	7
191.826	52.05
192.045	64.34
192.265	33.62
192.484	27.48
192.704	2.9
192.923	25.43
193.142	4.95
193.362	2.9
193.581	25.43
193.8	31.57
194.02	52.05
194.239	52.05
194.458	-13.48
194.678	23.38
194.897	-19.63
195.116	-64.68
195.335	23.38
195.555	-5.29
195.774	33.62
195.993	-27.82
196.212	-25.77
196.432	2.9
196.651	13.14
196.87	41.81
197.089	64.34
197.308	-5.29
197.528	43.86
197.747	-5.29
197.966	2.9
198.185	-17.58
198.404	-19.63
198.623	23.38
198.842	-50.35
199.062	-33.96
199.281	52.05
199.5	0.85
199.719	17.24
199.938	-19.63
200.157	15.19
200.376	27.48
200.595	54.1
200.814	19.29
201.033	54.1
201.252	60.24
201.471	7
201.69	-50.35
201.909	52.05
202.128	50
202.347	47.96
202.566	2.9
202.785	19.29
203.004	-21.67
203.223	84.82
203.442	15.19
203.661	35.67
203.879	-15.53
204.098	-27.82
204.317	-5.29
204.536	15.19
204.755	29.52
204.974	-3.24
205.193	-52.39
205.411	19.29
205.63	-3.24
205.849	95.06
206.068	4.95
206.287	-54.44
206.505	39.76
206.724	-42.15
206.943	-3.24
207.162	-36.01
207.381	2.9
207.599	50
207.818	-27.82
208.037	0.85
208.255	-40.11
208.474	15.19
208.693	-3.24
208.911	15.19
209.13	-9.39
209.349	19.29
209.567	35.67
209.786	37.72
210.005	-5.29
210.223	7
210.442	11.09
210.661	-36.01
210.879	78.68
211.098	11.09
211.316	74.58
211.535	-15.53
211.753	-9.39
211.972	15.19
212.191	7
212.409	7
212.628	2.9
212.846	-60.59
213.065	-9.39
213.283	-70.83
213.502	-11.43
213.72	-27.82
213.938	-5.29
214.157	21.33
214.375	37.72
214.594	23.38
214.812	93.01
215.031	0.85
215.249	35.67
215.467	21.33
215.686	35.67
215.904	39.76
216.122	60.24
216.341	47.96
216.559	23.38
216.778	-1.19
216.996	66.39
217.214	-27.82
217.432	-38.06
217.651	-9.39
217.869	-3.24
218.087	-9.39
218.306	52.05
218.524	80.72
218.742	25.43
218.96	19.29
219.179	27.48
219.397	29.52
219.615	37.72
219.833	15.19
220.051	35.67
220.27	27.48
220.488	-23.72
220.706	-21.67
220.924	47.96
221.142	-1.19
221.36	23.38
221.578	62.29
221.796	19.29
222.015	9.05
222.233	115.54
222.451	39.76
222.669	33.62
222.887	21.33
223.105	54.1
223.323	-25.77
223.541	-11.43
223.759	-50.35
223.977	21.33
224.195	35.67
224.413	4.95
224.631	52.05
224.849	13.14
225.067	19.29
225.285	-13.48
225.503	-5.29
225.721	43.86
225.939	64.34
226.157	-21.67
226.375	11.09
226.592	11.09
226.81	-1.19
227.028	-17.58
227.246	72.53
227.464	27.48
227.682	-9.39
227.9	23.38
228.117	17.24
228.335	21.33
228.553	-54.44
228.771	33.62
228.989	-19.63
229.206	66.39
229.424	93.01
229.642	19.29
229.86	-1.19
230.077	56.15
230.295	7
230.513	-58.54
230.731	-21.67
230.948	15.19
231.166	117.59
231.384	39.76
231.601	-3.24
231.819	-27.82
232.037	-13.48
232.254	33.62
232.472	-3.24
232.689	35.67
232.907	35.67
233.125	52.05
233.342	-17.58
233.56	-9.39
233.777	93.01
233.995	-9.39
234.213	2.9
234.43	35.67
234.648	35.67
234.865	21.33
235.083	7
235.3	-36.01
235.518	-5.29
235.735	-9.39
235.953	4.95
236.17	-40.11
236.388	15.19
236.605	13.14
236.822	37.72
237.04	29.52
237.257	39.76
237.475	35.67
237.692	35.67
237.909	-52.39
238.127	-11.43
238.344	31.57
238.562	19.29
238.779	15.19
238.996	47.96
239.214	13.14
239.431	27.48
239.648	2.9
239.865	43.86
240.083	41.81
240.3	-13.48
240.517	70.48
240.735	11.09
240.952	-9.39
241.169	74.58
241.386	-29.87
241.603	68.44
241.821	-9.39
242.038	15.19
242.255	64.34
242.472	-54.44
242.689	-25.77
242.907	-1.19
243.124	15.19
243.341	74.58
243.558	56.15
243.775	-62.63
243.992	-1.19
244.209	37.72
244.426	-1.19
244.643	23.38
244.86	54.1
245.078	45.91
245.295	15.19
245.512	-27.82
245.729	-7.34
245.946	25.43
246.163	76.63
246.38	43.86
246.597	54.1
246.814	25.43
247.031	-7.34
247.248	15.19
247.464	70.48
247.681	-15.53
247.898	29.52
248.115	58.2
248.332	31.57
248.549	-1.19
248.766	-13.48
248.983	68.44
249.2	35.67
249.417	-5.29
249.633	-48.3
249.85	64.34
250.067	2.9
250.284	-13.48
250.501	-27.82
250.717	19.29
250.934	13.14
251.151	107.35
251.368	-56.49
251.585	-40.11
251.801	0.85
252.018	58.2
252.235	39.76
252.451	4.95
252.668	58.2
252.885	45.91
253.102	-42.15
253.318	68.44
253.535	-17.58
253.752	-50.35
253.968	-21.67
254.185	-3.24
254.401	4.95
254.618	9.05
254.835	27.48
255.051	64.34
255.268	-42.15
255.484	56.15
255.701	-66.73
255.917	68.44
256.134	-17.58
256.351	-29.87
256.567	0.85
256.784	-36.01
257	7
257.217	82.77
257.433	4.95
257.65	13.14
257.866	29.52
258.082	19.29
258.299	56.15
258.515	13.14
258.732	-9.39
258.948	45.91
259.165	-31.91
259.381	13.14
259.597	11.09
259.814	-21.67
260.03	56.15
260.246	2.9
260.463	-33.96
260.679	78.68
260.895	21.33
261.112	43.86
261.328	-11.43
261.544	17.24
261.761	45.91
261.977	-21.67
262.193	23.38
262.409	21.33
262.626	27.48
262.842	4.95
263.058	72.53
263.274	-3.24
263.49	88.92
263.707	13.14
263.923	84.82
264.139	-25.77
264.355	66.39
264.571	47.96
264.787	15.19
265.004	15.19
265.22	33.62
265.436	-36.01
265.652	-15.53
265.868	95.06
266.084	-52.39
266.3	-36.01
266.516	72.53
266.732	29.52
266.948	7
267.164	29.52
267.38	-46.25
267.596	62.29
267.812	-13.48
268.028	21.33
268.244	2.9
268.46	4.95
268.676	33.62
268.892	-11.43
269.108	-3.24
269.324	72.53
269.54	93.01
269.756	-15.53
269.972	-27.82
270.188	-44.2
270.403	-3.24
270.619	37.72
270.835	29.52
271.051	-70.83
271.267	39.76
271.483	4.95
271.698	-40.11
271.914	-1.19
272.13	-11.43
272.346	-17.58
272.562	-5.29
272.777	68.44
272.993	-15.53
273.209	-42.15
273.425	-44.2
273.64	60.24
273.856	27.48
274.072	17.24
274.287	13.14
274.503	23.38
274.719	56.15
274.934	-83.11
275.15	-7.34
275.366	31.57
275.581	35.67
275.797	45.91
276.012	13.14
276.228	-23.72
276.444	45.91
276.659	2.9
276.875	74.58
277.09	-29.87
277.306	0.85
277.521	70.48
277.737	19.29
277.952	31.57
278.168	-25.77
278.383	23.38
278.599	70.48
278.814	19.29
279.03	13.14
279.245	62.29
279.461	-5.29
279.676	35.67
279.892	17.24
280.107	66.39
280.322	-7.34
280.538	17.24
280.753	17.24
280.969	31.57
281.184	29.52
281.399	0.85
281.615	58.2
281.83	27.48
282.045	-13.48
282.26	19.29
282.476	-9.39
282.691	35.67
282.906	127.83
283.122	29.52
283.337	-1.19
283.552	-11.43
283.767	-70.83
283.983	-5.29
284.198	-89.26
284.413	-3.24
284.628	17.24
284.843	15.19
285.058	19.29
285.274	-52.39
285.489	-3.24
285.704	17.24
285.919	-11.43
286.134	21.33
286.349	4.95
286.564	-3.24
286.779	88.92
286.995	9.05
287.21	-19.63
287.425	9.05
287.64	-9.39
287.855	-3.24
288.07	-11.43
288.285	29.52
288.5	7
288.715	-1.19
288.93	27.48
289.145	76.63
289.36	62.29
289.575	-68.78
289.79	-31.91
290.004	17.24
290.219	7
290.434	9.05
290.649	62.29
290.864	11.09
291.079	-5.29
291.294	82.77
291.509	45.91
291.724	72.53
291.938	-7.34
292.153	37.72
292.368	-9.39
292.583	-3.24
292.798	31.57
293.012	-46.25
293.227	2.9
293.442	58.2
293.657	19.29
293.871	2.9
294.086	105.3
294.301	72.53
294.516	62.29
294.73	76.63
294.945	-40.11
295.16	70.48
295.374	56.15
295.589	35.67
295.804	-17.58
296.018	9.05
296.233	39.76
296.447	21.33
296.662	-9.39
296.877	84.82
297.091	-40.11
297.306	37.72
297.52	21.33
297.735	-23.72
297.949	82.77
298.164	25.43
298.378	-36.01
298.593	47.96
298.807	-17.58
299.022	54.1
299.236	-1.19
299.451	41.81
299.665	35.67
299.88	2.9
300.094	-27.82
300.309	25.43
300.523	-27.82
300.737	-11.43
300.952	-29.87
301.166	-19.63
301.381	41.81
301.595	23.38
301.809	35.67
302.024	37.72
302.238	13.14
302.452	-3.24
302.667	-15.53
302.881	-38.06
303.095	33.62
303.309	-38.06
303.524	9.05
303.738	95.06
303.952	4.95
304.166	-11.43
304.381	78.68
304.595	45.91
304.809	-23.72
305.023	72.53
305.237	-1.19
305.452	2.9
305.666	-5.29
305.88	52.05
306.094	41.81
306.308	11.09
306.522	39.76
306.736	33.62
306.95	-5.29
307.164	-3.24
307.379	52.05
307.593	25.43
307.807	-21.67
308.021	7
308.235	-38.06
308.449	-7.34
308.663	35.67
308.877	33.62
309.091	-21.67
309.305	35.67
309.519	41.81
309.733	33.62
309.947	-36.01
310.161	37.72
310.374	7
310.588	43.86
310.802	-48.3
311.016	19.29
311.23	-40.11
311.444	2.9
311.658	17.24
311.872	45.91
312.085	11.09
312.299	80.72
312.513	13.14
312.727	-36.01
312.941	19.29
313.154	50
313.368	-15.53
313.582	78.68
313.796	-101.55
314.009	-13.48
314.223	15.19
314.437	70.48
314.651	-11.43
314.864	-1.19
315.078	-9.39
315.292	52.05
315.505	4.95
315.719	68.44
315.933	-44.2
316.146	-11.43
316.36	-36.01
316.573	43.86
316.787	-31.91
317.001	35.67
317.214	39.76
317.428	11.09
317.641	-13.48
317.855	-40.11
318.068	13.14
318.282	37.72
318.495	62.29
318.709	23.38
318.922	-64.68
319.136	2.9
319.349	15.19
319.563	39.76
319.776	37.72
319.99	-17.58
320.203	-11.43
320.417	35.67
320.63	33.62
320.843	37.72
321.057	45.91
321.27	25.43
321.483	33.62
321.697	76.63
321.91	62.29
322.124	-3.24
322.337	-3.24
322.55	39.76
322.763	-3.24
322.977	95.06
323.19	-13.48
323.403	52.05
323.617	58.2
323.83	62.29
324.043	29.52
324.256	13.14
324.469	-17.58
324.683	4.95
324.896	68.44
325.109	86.87
325.322	-33.96
325.535	-1.19
325.748	-48.3
325.962	-5.29
326.175	-5.29
326.388	-23.72
326.601	-3.24
326.814	-40.11
327.027	-17.58
327.24	15.19
327.453	11.09
327.666	-3.24
327.879	54.1
328.092	68.44
328.305	9.05
328.518	-5.29
328.731	11.09
328.944	13.14
329.157	31.57
329.37	31.57
329.583	-15.53
329.796	115.54
330.009	-9.39
330.222	58.2
330.435	-54.44
330.648	95.06
330.861	-15.53
331.073	45.91
331.286	29.52
331.499	101.2
331.712	-11.43
331.925	37.72
332.138	50
332.35	119.64
332.563	7
332.776	15.19
332.989	-13.48
333.202	-23.72
333.414	4.95
333.627	37.72
333.84	-64.68
334.053	19.29
334.265	-1.19
334.478	33.62
334.691	-36.01
334.903	60.24
335.116	-23.72
335.329	23.38
335.541	-40.11
335.754	15.19
335.966	-29.87
336.179	27.48
336.392	64.34
336.604	88.92
336.817	35.67
337.029	60.24
337.242	78.68
337.454	2.9
337.667	-48.3
337.88	52.05
338.092	7
338.305	27.48
338.517	-13.48
338.729	-42.15
338.942	-7.34
339.154	19.29
339.367	54.1
339.579	31.57
339.792	19.29
340.004	60.24
340.217	-58.54
340.429	58.2
340.641	25.43
340.854	-21.67
341.066	50
341.278	29.52
341.491	19.29
341.703	0.85
341.915	-3.24
342.128	-9.39
342.34	-23.72
342.552	-17.58
342.764	-50.35
342.977	-5.29
343.189	41.81
343.401	54.1
343.613	43.86
343.826	21.33
344.038	-17.58
344.25	45.91
344.462	45.91
344.674	27.48
344.886	31.57
345.099	78.68
345.311	58.2
345.523	45.91
345.735	21.33
345.947	-5.29
346.159	-25.77
346.371	-3.24
346.583	-58.54
346.795	39.76
347.007	31.57
347.219	39.76
347.431	39.76
347.643	31.57
347.855	66.39
348.067	84.82
348.279	23.38
348.491	-33.96
348.703	31.57
348.915	23.38
349.127	56.15
349.339	-5.29
349.551	60.24
349.763	93.01
349.975	-93.35
350.187	39.76
350.399	-29.87
350.61	47.96
350.822	25.43
351.034	25.43
351.246	88.92
351.458	-31.91
351.669	17.24
351.881	43.86
352.093	56.15
352.305	17.24
352.517	33.62
352.728	43.86
352.94	41.81
353.152	60.24
353.363	-15.53
353.575	68.44
353.787	93.01
353.999	21.33
354.21	11.09
354.422	13.14
354.633	133.97
354.845	19.29
355.057	66.39
355.268	-13.48
355.48	7
355.692	-27.82
355.903	39.76
356.115	66.39
356.326	-1.19
356.538	19.29
356.749	-33.96
356.961	50
357.172	4.95
357.384	54.1
357.595	47.96
357.807	-11.43
358.018	-13.48
358.23	31.57
358.441	52.05
358.653	21.33
358.864	66.39
359.075	11.09
359.287	-3.24
359.498	39.76
359.709	-70.83
359.921	11.09
360.132	37.72
360.344	27.48
360.555	45.91
360.766	45.91
360.977	7
361.189	2.9
361.4	35.67
361.611	52.05
361.823	-7.34
362.034	45.91
362.245	52.05
362.456	15.19
362.667	103.25
362.879	9.05
363.09	47.96
363.301	43.86
363.512	35.67
363.723	37.72
363.935	33.62
364.146	39.76
364.357	-9.39
364.568	37.72
364.779	13.14
364.99	-40.11
365.201	52.05
365.412	-60.59
365.623	4.95
365.834	41.81
366.045	7
366.256	15.19
366.467	45.91
366.678	-3.24
366.889	-31.91
367.1	45.91
367.311	-33.96
367.522	-5.29
367.733	13.14
367.944	111.44
368.155	-36.01
368.366	0.85
368.577	-38.06
368.788	111.44
368.999	-76.97
369.209	97.11
369.42	60.24
369.631	29.52
369.842	37.72
370.053	7
370.264	-3.24
370.474	52.05
370.685	15.19
370.896	9.05
371.107	-7.34
371.317	13.14
371.528	13.14
371.739	52.05
371.95	84.82
372.16	54.1
372.371	15.19
372.582	-3.24
372.792	70.48
373.003	43.86
373.214	93.01
373.424	-1.19
373.635	7
373.846	66.39
374.056	58.2
374.267	-38.06
374.477	47.96
374.688	31.57
374.898	-36.01
375.109	66.39
375.319	123.73
375.53	60.24
375.74	-23.72
375.951	56.15
376.161	7
376.372	43.86
376.582	2.9
376.793	47.96
377.003	-15.53
377.214	17.24
377.424	19.29
377.635	41.81
377.845	13.14
378.055	95.06
378.266	-11.43
378.476	-11.43
378.686	97.11
378.897	78.68
379.107	68.44
379.317	13.14
379.528	2.9
379.738	60.24
379.948	86.87
380.158	45.91
380.369	39.76
380.579	-50.35
380.789	-29.87
380.999	-3.24
381.21	80.72
381.42	31.57
381.63	39.76
381.84	13.14
382.05	-27.82
382.261	-9.39
382.471	43.86
382.681	19.29
382.891	45.91
383.101	-17.58
383.311	-36.01
383.521	60.24
383.731	11.09
383.941	64.34
384.151	2.9
384.361	37.72
384.571	4.95
384.781	-1.19
384.991	54.1
385.201	66.39
385.411	-7.34
385.621	9.05
385.831	-21.67
386.041	50
386.251	9.05
386.461	35.67
386.671	0.85
386.881	45.91
387.091	9.05
387.301	2.9
387.511	39.76
387.72	13.14
387.93	17.24
388.14	-1.19
388.35	-5.29
388.56	-5.29
388.769	56.15
388.979	31.57
389.189	-15.53
389.399	4.95
389.609	-21.67
389.818	21.33
390.028	37.72
390.238	0.85
390.447	-23.72
390.657	74.58
390.867	-7.34
391.076	93.01
391.286	29.52
391.496	45.91
391.705	19.29
391.915	31.57
392.125	54.1
392.334	29.52
392.544	-23.72
392.753	19.29
392.963	101.2
393.172	41.81
393.382	4.95
393.591	33.62
393.801	60.24
394.01	37.72
394.22	11.09
394.429	7
394.639	19.29
394.848	9.05
395.058	37.72
395.267	52.05
395.477	35.67
395.686	25.43
395.895	54.1
396.105	80.72
396.314	37.72
396.524	70.48
396.733	19.29
396.942	-1.19
397.152	-11.43
397.361	4.95
397.57	68.44
397.78	54.1
397.989	33.62
398.198	70.48
398.407	68.44
398.617	33.62
398.826	111.44
399.035	68.44
399.244	93.01
399.453	103.25
399.663	86.87
399.872	35.67
400.081	152.4
400.29	35.67
400.499	2.9
400.708	4.95
400.917	54.1
401.127	19.29
401.336	2.9
401.545	140.12
401.754	52.05
401.963	45.91
402.172	31.57
402.381	70.48
402.59	60.24
402.799	9.05
403.008	54.1
403.217	2.9
403.426	43.86
403.635	72.53
403.844	68.44
404.053	43.86
404.262	58.2
404.471	23.38
404.68	15.19
404.888	84.82
405.097	17.24
405.306	23.38
405.515	50
405.724	97.11
405.933	47.96
406.142	70.48
406.35	70.48
406.559	39.76
406.768	93.01
406.977	78.68
407.185	99.16
407.394	84.82
407.603	123.73
407.812	136.02
408.02	119.64
408.229	123.73
408.438	129.88
408.646	142.16
408.855	138.07
409.064	191.31
409.272	43.86
409.481	160.59
409.69	78.68
409.898	117.59
410.107	105.3
410.315	164.69
410.524	150.36
410.733	76.63
410.941	140.12
411.15	123.73
411.358	127.83
411.567	133.97
411.775	129.88
411.984	144.21
412.192	213.84
412.401	164.69
412.609	168.79
412.818	209.75
413.026	125.78
413.234	181.07
413.443	129.88
413.651	222.03
413.86	248.66
414.068	250.71
414.276	213.84
414.485	191.31
414.693	306
414.901	213.84
415.11	185.17
415.318	281.43
415.526	258.9
415.734	369.49
415.943	254.8
416.151	289.62
416.359	265.04
416.567	256.85
416.776	367.44
416.984	330.58
417.192	346.96
417.4	334.67
417.608	355.15
417.817	359.25
418.025	398.16
418.233	420.69
418.441	396.11
418.649	377.68
418.857	416.59
419.065	506.7
419.273	435.02
419.481	430.93
419.689	580.43
419.897	559.95
420.105	570.19
420.313	586.57
420.521	557.9
420.729	578.38
420.937	535.37
421.145	635.72
421.353	662.35
421.561	693.07
421.769	688.97
421.977	807.75
422.185	725.83
422.393	793.42
422.601	717.64
422.809	772.94
423.017	807.75
423.224	899.91
423.432	924.49
423.64	844.62
423.848	895.82
424.056	924.49
424.263	1119.04
424.471	1061.7
424.679	1094.47
424.887	1108.8
425.094	1110.85
425.302	1213.25
425.51	1102.66
425.718	1274.69
425.925	1270.59
426.133	1252.16
426.341	1432.38
426.548	1348.42
426.756	1463.1
426.964	1317.7
427.171	1506.11
427.379	1571.65
427.586	1588.03
427.794	1618.75
428.001	1696.57
428.209	1755.96
428.417	1690.43
428.624	1981.24
428.832	1817.4
429.039	1848.12
429.247	1755.96
429.454	2022.2
429.662	2044.73
429.869	1948.47
430.076	2018.1
430.284	1944.38
430.491	2204.47
430.699	2241.33
430.906	2292.53
431.114	2362.16
431.321	2374.45
431.528	2528.05
431.736	2575.15
431.943	2597.68
432.15	2544.43
432.358	2607.92
432.565	2792.23
432.772	2853.67
432.979	2894.63
433.187	2851.63
433.394	2917.16
433.601	3148.58
433.808	3226.4
434.016	3121.96
434.223	3359.52
434.43	3578.65
434.637	3406.63
434.844	3623.71
435.052	3754.78
435.259	3670.81
435.466	3609.37
435.673	3509.02
435.88	3992.34
436.087	4029.21
436.294	4199.19
436.501	3986.2
436.708	4035.35
436.915	4201.24
437.122	4397.84
437.329	4344.6
437.537	4543.25
437.743	4649.74
437.95	4700.94
438.157	4868.88
438.364	4993.8
438.571	4946.7
438.778	4977.42
438.985	5364.48
439.192	5274.37
439.399	5522.18
439.606	5430.02
439.813	5747.45
440.02	5839.61
440.227	5878.52
440.433	5675.77
440.64	6048.51
440.847	5862.14
441.054	5972.73
441.261	6466.29
441.467	6548.21
441.674	6560.5
441.881	6728.43
442.088	6732.53
442.294	6503.15
442.501	6836.97
442.708	6968.04
442.914	7215.85
443.121	7580.39
443.328	7443.17
443.534	7854.81
443.741	7576.29
443.948	7492.32
444.154	8002.27
444.361	8090.33
444.568	8024.79
444.774	8272.6
444.981	8157.91
445.187	8544.98
445.394	8635.09
445.6	8639.19
445.807	9501.38
446.013	9200.33
446.22	9220.81
446.426	9632.45
446.633	9740.99
446.839	10140.35
447.046	9667.27
447.252	10019.52
447.459	10064.57
447.665	10087.1
447.871	10691.25
448.078	10865.33
448.284	10283.7
448.491	10900.14
448.697	11250.35
448.903	11346.6
449.11	11426.47
449.316	11268.78
449.522	11575.97
449.728	11854.5
449.935	11829.92
450.141	11905.7
450.347	12112.54
450.553	11737.76
450.76	12169.88
450.966	12606.1
451.172	12178.08
451.378	12626.58
451.584	12239.51
451.791	12593.81
451.997	12712.6
452.203	12602.01
452.409	12704.4
452.615	12769.94
452.821	12069.53
453.027	12094.11
453.233	12722.84
453.44	12331.67
453.646	12364.44
453.852	12399.26
454.058	12575.38
454.264	12407.45
454.47	12311.19
454.676	12264.09
454.882	12624.53
455.088	11614.88
455.294	11711.14
455.5	12077.73
455.705	11997.85
455.911	11602.6
456.117	11410.09
456.323	11020.97
456.529	10597.04
456.735	11264.68
456.941	10769.07
457.147	10541.75
457.352	10429.11
457.558	10468.02
457.764	10248.89
457.97	10021.56
458.176	9999.04
458.381	9870.01
458.587	9542.34
458.793	9349.83
458.999	8848.08
459.204	9554.63
459.41	9317.06
459.616	8600.27
459.821	8815.31
460.027	8501.97
460.233	8350.42
460.438	8147.67
460.644	8237.78
460.85	7860.96
461.055	7604.96
461.261	7666.4
461.466	7066.35
461.672	6945.52
461.878	7369.44
462.083	7107.3
462.289	6836.97
462.494	6738.67
462.7	6408.95
462.905	6279.93
463.111	6441.72
463.316	6499.06
463.522	6232.82
463.727	6441.72
463.932	6382.32
464.138	6320.88
464.343	6214.39
464.549	6005.5
464.754	6146.81
464.959	6216.44
465.165	6343.41
465.37	5942.01
465.575	5737.21
465.781	6195.96
465.986	5991.16
466.191	5905.15
466.397	5643.01
466.602	5368.58
466.807	5698.3
467.012	5561.09
467.218	5665.53
467.423	5532.42
467.628	5401.35
467.833	5853.95
468.038	5501.7
468.244	5530.37
468.449	5604.1
468.654	5460.74
468.859	5497.6
469.064	5344
469.269	5149.45
469.474	5245.7
469.679	5225.22
469.885	5323.52
470.09	5153.54
470.295	5311.24
470.5	5085.96
