Data from USB4F104151__156__13-58-40-213.txt Node

Date: Thu Mar 13 13:58:40 EDT 2025
User: louis
Spectrometer: USB4F10415
Trigger mode: 4
Integration Time (sec): 1.000000E-2
Scans to average: 1
Electric dark correction enabled: true
Nonlinearity correction enabled: false
Boxcar width: 0
XAxis mode: Wavelengths
Number of Pixels in Spectrum: 3648
>>>>>Begin Spectral Data<<<<<
178.204	-22.36
178.424	-22.36
178.644	-22.36
178.864	-65.36
179.084	-85.84
179.304	-12.12
179.524	-18.26
179.744	-18.26
179.964	-10.07
180.184	34.99
180.404	20.65
180.624	-1.88
180.844	32.94
181.064	-10.07
181.283	30.89
181.503	-34.64
181.723	-14.17
181.943	-48.98
182.163	45.23
182.383	18.6
182.602	-36.69
182.822	-32.6
183.042	24.75
183.262	-30.55
183.482	22.7
183.701	-87.89
183.921	12.46
184.141	-28.5
184.361	-1.88
184.58	22.7
184.8	41.13
185.02	-20.31
185.239	18.6
185.459	26.79
185.679	55.47
185.898	-59.22
186.118	30.89
186.338	-16.21
186.557	-10.07
186.777	-5.97
186.997	-59.22
187.216	-8.02
187.436	12.46
187.655	10.41
187.875	0.17
188.095	-8.02
188.314	-1.88
188.534	-48.98
188.753	0.17
188.973	67.75
189.192	-10.07
189.412	63.66
189.631	10.41
189.851	16.55
190.07	71.85
190.29	51.37
190.509	63.66
190.729	39.08
190.948	92.33
191.168	73.9
191.387	24.75
191.607	14.51
191.826	-8.02
192.045	16.55
192.265	-10.07
192.484	-22.36
192.704	26.79
192.923	16.55
193.142	47.27
193.362	32.94
193.581	22.7
193.8	14.51
194.02	32.94
194.239	-71.51
194.458	-24.4
194.678	-12.12
194.897	90.28
195.116	-42.84
195.335	30.89
195.555	-1.88
195.774	26.79
195.993	69.8
196.212	24.75
196.432	39.08
196.651	6.31
196.87	-24.4
197.089	65.71
197.308	-30.55
197.528	34.99
197.747	-38.74
197.966	30.89
198.185	-30.55
198.404	-24.4
198.623	-1.88
198.842	41.13
199.062	-10.07
199.281	45.23
199.5	-44.88
199.719	24.75
199.938	34.99
200.157	2.22
200.376	-26.45
200.595	47.27
200.814	51.37
201.033	26.79
201.252	-12.12
201.471	22.7
201.69	30.89
201.909	30.89
202.128	6.31
202.347	14.51
202.566	-8.02
202.785	47.27
203.004	6.31
203.223	18.6
203.442	37.03
203.661	24.75
203.879	92.33
204.098	18.6
204.317	12.46
204.536	73.9
204.755	-14.17
204.974	0.17
205.193	26.79
205.411	30.89
205.63	32.94
205.849	30.89
206.068	0.17
206.287	63.66
206.505	39.08
206.724	-1.88
206.943	59.56
207.162	-1.88
207.381	-8.02
207.599	-5.97
207.818	18.6
208.037	26.79
208.255	20.65
208.474	-28.5
208.693	6.31
208.911	63.66
209.13	-30.55
209.349	-26.45
209.567	30.89
209.786	30.89
210.005	14.51
210.223	49.32
210.442	-18.26
210.661	6.31
210.879	53.42
211.098	14.51
211.316	55.47
211.535	39.08
211.753	18.6
211.972	96.43
212.191	49.32
212.409	6.31
212.628	20.65
212.846	-3.93
213.065	-34.64
213.283	114.86
213.502	47.27
213.72	-51.03
213.938	-8.02
214.157	-3.93
214.375	41.13
214.594	2.22
214.812	43.18
215.031	-38.74
215.249	-18.26
215.467	88.23
215.686	82.09
215.904	30.89
216.122	28.84
216.341	53.42
216.559	-44.88
216.778	55.47
216.996	-18.26
217.214	10.41
217.432	10.41
217.651	6.31
217.869	16.55
218.087	51.37
218.306	16.55
218.524	49.32
218.742	-28.5
218.96	-8.02
219.179	43.18
219.397	49.32
219.615	28.84
219.833	-5.97
220.051	18.6
220.27	49.32
220.488	-16.21
220.706	32.94
220.924	-57.17
221.142	-44.88
221.36	30.89
221.578	96.43
221.796	30.89
222.015	0.17
222.233	16.55
222.451	-1.88
222.669	-55.12
222.887	-18.26
223.105	-46.93
223.323	0.17
223.541	18.6
223.759	59.56
223.977	77.99
224.195	47.27
224.413	49.32
224.631	63.66
224.849	-24.4
225.067	-3.93
225.285	10.41
225.503	24.75
225.721	-114.52
225.939	-5.97
226.157	41.13
226.375	34.99
226.592	14.51
226.81	-65.36
227.028	88.23
227.246	41.13
227.464	51.37
227.682	82.09
227.9	43.18
228.117	39.08
228.335	32.94
228.553	-5.97
228.771	-20.31
228.989	47.27
229.206	-22.36
229.424	41.13
229.642	-34.64
229.86	-24.4
230.077	-10.07
230.295	59.56
230.513	51.37
230.731	-36.69
230.948	47.27
231.166	57.51
231.384	18.6
231.601	-40.79
231.819	20.65
232.037	16.55
232.254	57.51
232.472	22.7
232.689	88.23
232.907	39.08
233.125	20.65
233.342	55.47
233.56	-22.36
233.777	45.23
233.995	57.51
234.213	10.41
234.43	2.22
234.648	-34.64
234.865	-10.07
235.083	20.65
235.3	16.55
235.518	43.18
235.735	-16.21
235.953	39.08
236.17	-16.21
236.388	30.89
236.605	-22.36
236.822	18.6
237.04	4.27
237.257	-32.6
237.475	-12.12
237.692	41.13
237.909	26.79
238.127	18.6
238.344	43.18
238.562	12.46
238.779	24.75
238.996	0.17
239.214	-20.31
239.431	-22.36
239.648	2.22
239.865	30.89
240.083	-3.93
240.3	8.36
240.517	6.31
240.735	39.08
240.952	-8.02
241.169	67.75
241.386	37.03
241.603	39.08
241.821	69.8
242.038	77.99
242.255	61.61
242.472	-8.02
242.689	51.37
242.907	47.27
243.124	14.51
243.341	0.17
243.558	59.56
243.775	22.7
243.992	32.94
244.209	18.6
244.426	6.31
244.643	47.27
244.86	14.51
245.078	2.22
245.295	-32.6
245.512	18.6
245.729	51.37
245.946	51.37
246.163	0.17
246.38	88.23
246.597	8.36
246.814	-1.88
247.031	-22.36
247.248	57.51
247.464	-110.42
247.681	145.58
247.898	18.6
248.115	6.31
248.332	8.36
248.549	-94.04
248.766	-24.4
248.983	-24.4
249.2	6.31
249.417	6.31
249.633	6.31
249.85	6.31
250.067	18.6
250.284	18.6
250.501	-8.02
250.717	20.65
250.934	18.6
251.151	-38.74
251.368	12.46
251.585	75.95
251.801	-14.17
252.018	57.51
252.235	18.6
252.451	-30.55
252.668	32.94
252.885	12.46
253.102	41.13
253.318	77.99
253.535	18.6
253.752	43.18
253.968	10.41
254.185	12.46
254.401	20.65
254.618	37.03
254.835	-1.88
255.051	8.36
255.268	-42.84
255.484	14.51
255.701	-3.93
255.917	57.51
256.134	8.36
256.351	-73.56
256.567	6.31
256.784	30.89
257	41.13
257.217	0.17
257.433	-32.6
257.65	-34.64
257.866	-22.36
258.082	-1.88
258.299	-34.64
258.515	55.47
258.732	6.31
258.948	-20.31
259.165	32.94
259.381	75.95
259.597	47.27
259.814	-20.31
260.03	61.61
260.246	37.03
260.463	43.18
260.679	59.56
260.895	55.47
261.112	24.75
261.328	12.46
261.544	28.84
261.761	-22.36
261.977	57.51
262.193	-81.75
262.409	-3.93
262.626	-77.65
262.842	49.32
263.058	-20.31
263.274	8.36
263.49	22.7
263.707	28.84
263.923	16.55
264.139	-5.97
264.355	-18.26
264.571	37.03
264.787	20.65
265.004	-32.6
265.22	32.94
265.436	39.08
265.652	16.55
265.868	28.84
266.084	-10.07
266.3	0.17
266.516	22.7
266.732	49.32
266.948	49.32
267.164	-42.84
267.38	30.89
267.596	82.09
267.812	45.23
268.028	77.99
268.244	18.6
268.46	2.22
268.676	53.42
268.892	-32.6
269.108	-63.32
269.324	12.46
269.54	41.13
269.756	37.03
269.972	-8.02
270.188	18.6
270.403	-18.26
270.619	30.89
270.835	43.18
271.051	24.75
271.267	-32.6
271.483	-38.74
271.698	34.99
271.914	-48.98
272.13	20.65
272.346	32.94
272.562	55.47
272.777	32.94
272.993	30.89
273.209	59.56
273.425	-8.02
273.64	47.27
273.856	32.94
274.072	-16.21
274.287	-48.98
274.503	22.7
274.719	41.13
274.934	18.6
275.15	14.51
275.366	67.75
275.581	28.84
275.797	-26.45
276.012	26.79
276.228	24.75
276.444	45.23
276.659	-1.88
276.875	-5.97
277.09	-14.17
277.306	59.56
277.521	43.18
277.737	18.6
277.952	-20.31
278.168	34.99
278.383	-59.22
278.599	55.47
278.814	43.18
279.03	61.61
279.245	26.79
279.461	-28.5
279.676	10.41
279.892	18.6
280.107	-3.93
280.322	59.56
280.538	106.67
280.753	90.28
280.969	63.66
281.184	24.75
281.399	82.09
281.615	57.51
281.83	30.89
282.045	-1.88
282.26	8.36
282.476	-22.36
282.691	6.31
282.906	37.03
283.122	22.7
283.337	0.17
283.552	22.7
283.767	-3.93
283.983	4.27
284.198	-46.93
284.413	80.04
284.628	-3.93
284.843	30.89
285.058	30.89
285.274	-30.55
285.489	22.7
285.704	-14.17
285.919	16.55
286.134	-28.5
286.349	45.23
286.564	145.58
286.779	57.51
286.995	14.51
287.21	-3.93
287.425	67.75
287.64	0.17
287.855	16.55
288.07	14.51
288.285	-10.07
288.5	41.13
288.715	28.84
288.93	32.94
289.145	63.66
289.36	-20.31
289.575	24.75
289.79	-18.26
290.004	43.18
290.219	41.13
290.434	-3.93
290.649	63.66
290.864	32.94
291.079	20.65
291.294	18.6
291.509	65.71
291.724	59.56
291.938	16.55
292.153	18.6
292.368	73.9
292.583	-12.12
292.798	-44.88
293.012	57.51
293.227	26.79
293.442	-42.84
293.657	4.27
293.871	135.34
294.086	-3.93
294.301	4.27
294.516	32.94
294.73	37.03
294.945	-53.08
295.16	-10.07
295.374	57.51
295.589	63.66
295.804	39.08
296.018	39.08
296.233	16.55
296.447	26.79
296.662	20.65
296.877	90.28
297.091	45.23
297.306	112.81
297.52	10.41
297.735	10.41
297.949	63.66
298.164	37.03
298.378	37.03
298.593	61.61
298.807	69.8
299.022	92.33
299.236	-20.31
299.451	161.96
299.665	24.75
299.88	0.17
300.094	37.03
300.309	2.22
300.523	20.65
300.737	-12.12
300.952	24.75
301.166	26.79
301.381	4.27
301.595	80.04
301.809	10.41
302.024	22.7
302.238	10.41
302.452	32.94
302.667	-5.97
302.881	127.14
303.095	14.51
303.309	14.51
303.524	-3.93
303.738	30.89
303.952	24.75
304.166	10.41
304.381	-18.26
304.595	86.19
304.809	16.55
305.023	-3.93
305.237	53.42
305.452	-22.36
305.666	30.89
305.88	-3.93
306.094	80.04
306.308	4.27
306.522	49.32
306.736	28.84
306.95	43.18
307.164	18.6
307.379	39.08
307.593	39.08
307.807	18.6
308.021	10.41
308.235	-87.89
308.449	-8.02
308.663	24.75
308.877	34.99
309.091	-38.74
309.305	-8.02
309.519	-12.12
309.733	86.19
309.947	43.18
310.161	-10.07
310.374	16.55
310.588	-24.4
310.802	26.79
311.016	18.6
311.23	12.46
311.444	88.23
311.658	22.7
311.872	0.17
312.085	-22.36
312.299	63.66
312.513	86.19
312.727	47.27
312.941	6.31
313.154	84.14
313.368	51.37
313.582	14.51
313.796	43.18
314.009	16.55
314.223	61.61
314.437	32.94
314.651	6.31
314.864	73.9
315.078	43.18
315.292	41.13
315.505	32.94
315.719	-12.12
315.933	-16.21
316.146	10.41
316.36	-81.75
316.573	39.08
316.787	55.47
317.001	30.89
317.214	4.27
317.428	10.41
317.641	4.27
317.855	22.7
318.068	39.08
318.282	73.9
318.495	51.37
318.709	86.19
318.922	82.09
319.136	8.36
319.349	49.32
319.563	16.55
319.776	37.03
319.99	8.36
320.203	-8.02
320.417	63.66
320.63	10.41
320.843	110.76
321.057	-44.88
321.27	100.52
321.483	-40.79
321.697	-3.93
321.91	92.33
322.124	10.41
322.337	53.42
322.55	-1.88
322.763	69.8
322.977	24.75
323.19	-16.21
323.403	-38.74
323.617	-32.6
323.83	26.79
324.043	8.36
324.256	16.55
324.469	63.66
324.683	32.94
324.896	47.27
325.109	22.7
325.322	43.18
325.535	24.75
325.748	-22.36
325.962	-1.88
326.175	55.47
326.388	0.17
326.601	63.66
326.814	41.13
327.027	-32.6
327.24	-3.93
327.453	-18.26
327.666	63.66
327.879	-26.45
328.092	41.13
328.305	86.19
328.518	24.75
328.731	-48.98
328.944	28.84
329.157	43.18
329.37	-1.88
329.583	-18.26
329.796	4.27
330.009	-8.02
330.222	-79.7
330.435	47.27
330.648	47.27
330.861	39.08
331.073	65.71
331.286	-24.4
331.499	-10.07
331.712	-8.02
331.925	0.17
332.138	-44.88
332.35	47.27
332.563	51.37
332.776	-1.88
332.989	6.31
333.202	30.89
333.414	10.41
333.627	2.22
333.84	55.47
334.053	10.41
334.265	55.47
334.478	18.6
334.691	22.7
334.903	37.03
335.116	104.62
335.329	47.27
335.541	-36.69
335.754	26.79
335.966	6.31
336.179	63.66
336.392	-73.56
336.604	69.8
336.817	55.47
337.029	57.51
337.242	43.18
337.454	-8.02
337.667	14.51
337.88	28.84
338.092	47.27
338.305	-38.74
338.517	-28.5
338.729	20.65
338.942	55.47
339.154	51.37
339.367	4.27
339.579	18.6
339.792	-24.4
340.004	55.47
340.217	18.6
340.429	24.75
340.641	14.51
340.854	0.17
341.066	22.7
341.278	6.31
341.491	20.65
341.703	43.18
341.915	0.17
342.128	12.46
342.34	39.08
342.552	18.6
342.764	18.6
342.977	-26.45
343.189	-1.88
343.401	32.94
343.613	39.08
343.826	-8.02
344.038	55.47
344.25	6.31
344.462	53.42
344.674	2.22
344.886	14.51
345.099	8.36
345.311	53.42
345.523	-42.84
345.735	55.47
345.947	32.94
346.159	65.71
346.371	20.65
346.583	0.17
346.795	73.9
347.007	0.17
347.219	63.66
347.431	-51.03
347.643	-14.17
347.855	22.7
348.067	65.71
348.279	28.84
348.491	55.47
348.703	55.47
348.915	24.75
349.127	-16.21
349.339	47.27
349.551	63.66
349.763	71.85
349.975	-10.07
350.187	73.9
350.399	116.9
350.61	37.03
350.822	-14.17
351.034	67.75
351.246	73.9
351.458	39.08
351.669	-16.21
351.881	30.89
352.093	39.08
352.305	51.37
352.517	57.51
352.728	32.94
352.94	59.56
353.152	51.37
353.363	-12.12
353.575	20.65
353.787	20.65
353.999	20.65
354.21	57.51
354.422	-51.03
354.633	-18.26
354.845	80.04
355.057	41.13
355.268	14.51
355.48	43.18
355.692	55.47
355.903	2.22
356.115	-12.12
356.326	-44.88
356.538	-16.21
356.749	53.42
356.961	49.32
357.172	84.14
357.384	80.04
357.595	41.13
357.807	-14.17
358.018	-5.97
358.23	55.47
358.441	-51.03
358.653	82.09
358.864	67.75
359.075	-32.6
359.287	28.84
359.498	10.41
359.709	2.22
359.921	-65.36
360.132	30.89
360.344	57.51
360.555	6.31
360.766	10.41
360.977	-26.45
361.189	32.94
361.4	-32.6
361.611	12.46
361.823	67.75
362.034	69.8
362.245	110.76
362.456	51.37
362.667	34.99
362.879	61.61
363.09	55.47
363.301	26.79
363.512	67.75
363.723	51.37
363.935	34.99
364.146	51.37
364.357	-34.64
364.568	-1.88
364.779	-14.17
364.99	63.66
365.201	-65.36
365.412	24.75
365.623	-32.6
365.834	12.46
366.045	59.56
366.256	24.75
366.467	-10.07
366.678	82.09
366.889	112.81
367.1	4.27
367.311	32.94
367.522	-8.02
367.733	-18.26
367.944	59.56
368.155	18.6
368.366	73.9
368.577	84.14
368.788	39.08
368.999	59.56
369.209	80.04
369.42	-32.6
369.631	55.47
369.842	57.51
370.053	47.27
370.264	30.89
370.474	57.51
370.685	32.94
370.896	59.56
371.107	59.56
371.317	43.18
371.528	30.89
371.739	4.27
371.95	49.32
372.16	104.62
372.371	-28.5
372.582	30.89
372.792	43.18
373.003	57.51
373.214	6.31
373.424	112.81
373.635	6.31
373.846	123.05
374.056	0.17
374.267	49.32
374.477	90.28
374.688	-3.93
374.898	88.23
375.109	53.42
375.319	-34.64
375.53	39.08
375.74	24.75
375.951	16.55
376.161	47.27
376.372	147.62
376.582	49.32
376.793	65.71
377.003	59.56
377.214	49.32
377.424	10.41
377.635	84.14
377.845	-38.74
378.055	45.23
378.266	2.22
378.476	0.17
378.686	61.61
378.897	2.22
379.107	-91.99
379.317	2.22
379.528	-55.12
379.738	20.65
379.948	-10.07
380.158	20.65
380.369	30.89
380.579	30.89
380.789	-63.32
380.999	20.65
381.21	65.71
381.42	6.31
381.63	20.65
381.84	114.86
382.05	-69.46
382.261	14.51
382.471	59.56
382.681	88.23
382.891	65.71
383.101	4.27
383.311	71.85
383.521	106.67
383.731	125.1
383.941	14.51
384.151	51.37
384.361	6.31
384.571	67.75
384.781	37.03
384.991	71.85
385.201	77.99
385.411	73.9
385.621	67.75
385.831	30.89
386.041	47.27
386.251	-1.88
386.461	55.47
386.671	-1.88
386.881	16.55
387.091	43.18
387.301	69.8
387.511	-28.5
387.72	55.47
387.93	73.9
388.14	125.1
388.35	22.7
388.56	10.41
388.769	18.6
388.979	39.08
389.189	10.41
389.399	71.85
389.609	51.37
389.818	34.99
390.028	96.43
390.238	-38.74
390.447	65.71
390.657	61.61
390.867	37.03
391.076	14.51
391.286	39.08
391.496	39.08
391.705	88.23
391.915	4.27
392.125	43.18
392.334	32.94
392.544	55.47
392.753	65.71
392.963	184.49
393.172	92.33
393.382	71.85
393.591	88.23
393.801	75.95
394.01	10.41
394.22	4.27
394.429	100.52
394.639	65.71
394.848	125.1
395.058	73.9
395.267	96.43
395.477	63.66
395.686	-10.07
395.895	92.33
396.105	43.18
396.314	37.03
396.524	82.09
396.733	82.09
396.942	98.47
397.152	45.23
397.361	112.81
397.57	57.51
397.78	104.62
397.989	26.79
398.198	106.67
398.407	39.08
398.617	100.52
398.826	90.28
399.035	121
399.244	47.27
399.453	49.32
399.663	75.95
399.872	123.05
400.081	100.52
400.29	110.76
400.499	67.75
400.708	108.71
400.917	94.38
401.127	129.19
401.336	30.89
401.545	84.14
401.754	63.66
401.963	59.56
402.172	98.47
402.381	116.9
402.59	69.8
402.799	139.43
403.008	112.81
403.217	51.37
403.426	135.34
403.635	114.86
403.844	131.24
404.053	147.62
404.262	61.61
404.471	133.29
404.68	137.38
404.888	178.34
405.097	112.81
405.306	100.52
405.515	155.82
405.724	100.52
405.933	100.52
406.142	141.48
406.35	100.52
406.559	174.25
406.768	125.1
406.977	168.1
407.185	147.62
407.394	182.44
407.603	161.96
407.812	178.34
408.02	235.69
408.229	219.3
408.438	182.44
408.646	164.01
408.855	135.34
409.064	143.53
409.272	137.38
409.481	157.86
409.69	233.64
409.898	164.01
410.107	262.31
410.315	194.73
410.524	268.45
410.733	233.64
410.941	157.86
411.15	252.07
411.358	286.89
411.567	213.16
411.775	241.83
411.984	221.35
412.192	293.03
412.401	329.89
412.609	301.22
412.818	391.33
413.026	420
413.234	372.9
413.443	295.08
413.651	374.95
413.86	389.28
414.068	399.52
414.276	405.67
414.485	481.44
414.693	514.21
414.901	438.44
415.11	501.92
415.318	508.07
415.526	450.72
415.734	567.46
415.943	592.03
416.151	528.55
416.359	573.6
416.567	600.23
416.776	661.66
416.984	616.61
417.192	710.82
417.4	635.04
417.608	714.91
417.817	743.58
418.025	741.54
418.233	868.51
418.441	807.07
418.649	809.12
418.857	850.08
419.065	934.04
419.273	946.33
419.481	813.21
419.689	1015.96
419.897	1085.59
420.105	1048.73
420.313	1020.06
420.521	1149.08
420.729	1179.8
420.937	1165.46
421.145	1226.9
421.353	1169.56
421.561	1319.06
421.769	1386.65
421.977	1413.27
422.185	1542.29
422.393	1624.21
422.601	1720.46
422.809	1562.77
423.017	1636.5
423.224	1714.32
423.432	1706.13
423.64	1722.51
423.848	1953.93
424.056	1826.96
424.263	1992.84
424.471	1996.94
424.679	2066.57
424.887	2152.59
425.094	2242.7
425.302	2197.64
425.51	2388.1
425.718	2390.15
425.925	2488.45
426.133	2549.89
426.341	2683.01
426.548	2619.52
426.756	2857.09
426.964	2793.6
427.171	2982.01
427.379	3070.08
427.586	3100.8
427.794	3266.68
428.001	3291.26
428.209	3455.09
428.417	3420.28
428.624	3645.56
428.832	3682.42
429.039	3580.02
429.247	3606.64
429.454	3946.61
429.662	4235.37
429.869	4044.91
430.076	4180.07
430.284	4132.97
430.491	4350.06
430.699	4618.34
430.906	4524.13
431.114	4597.86
431.321	4870.24
431.528	4917.34
431.736	5081.18
431.943	5445.72
432.15	5306.46
432.358	5310.55
432.565	5531.73
432.772	5570.65
432.979	5793.87
433.187	5875.79
433.394	5810.26
433.601	6355.02
433.808	6395.98
434.016	6271.05
434.223	6543.43
434.43	6993.98
434.637	6883.39
434.844	7389.24
435.052	7524.41
435.259	7405.63
435.466	7714.87
435.673	7471.16
435.88	7987.25
436.087	8474.67
436.294	8280.11
436.501	7981.1
436.708	8181.81
436.915	8790.05
437.122	8910.88
437.329	9017.38
437.537	9340.96
437.743	9437.21
437.95	8986.66
438.157	9728.02
438.364	10051.6
438.571	10133.52
438.778	10135.57
438.985	11018.24
439.192	10436.62
439.399	10944.52
439.606	10674.18
439.813	11247.62
440.02	11884.53
440.227	11804.66
440.433	11917.3
440.64	12074.99
440.847	11913.2
441.054	12355.57
441.261	12967.91
441.467	13047.78
441.674	13375.45
441.881	13586.4
442.088	13565.92
442.294	13539.29
442.501	13834.2
442.708	14157.78
442.914	14704.59
443.121	15153.09
443.328	14751.69
443.534	15867.83
443.741	15390.66
443.948	15157.19
444.154	16218.04
444.361	16123.83
444.568	16422.83
444.774	16353.2
444.981	16830.38
445.187	17072.04
445.394	17764.25
445.6	17506.21
445.807	19136.39
446.013	18294.68
446.22	18972.55
446.426	19545.98
446.633	19453.83
446.839	20369.27
447.046	19656.57
447.252	20592.5
447.459	20469.62
447.665	20375.41
447.871	21569.38
448.078	22216.54
448.284	21233.51
448.491	21757.79
448.697	22470.48
448.903	22673.23
449.11	23134.03
449.316	22822.73
449.522	23119.69
449.728	23682.88
449.935	23801.66
450.141	23891.77
450.347	24145.72
450.553	23584.58
450.76	24012.6
450.966	24790.83
451.172	24491.83
451.378	24932.14
451.584	24434.49
451.791	25161.51
451.997	25171.75
452.203	25192.23
452.409	25509.67
452.615	25114.41
452.821	24508.21
453.027	24180.54
453.233	25257.77
453.44	24459.06
453.646	24596.28
453.852	24753.97
454.058	25036.59
454.264	24364.85
454.47	24903.47
454.676	24110.91
454.882	25241.39
455.088	22853.45
455.294	23271.24
455.5	23461.7
455.705	23244.62
455.911	22671.18
456.117	22187.86
456.323	22157.14
456.529	21034.86
456.735	21563.23
456.941	21389.16
457.147	20670.32
457.352	20483.95
457.558	20014.97
457.764	20135.8
457.97	19527.55
458.176	18921.35
458.381	19251.08
458.587	18446.23
458.793	18286.48
458.999	17168.29
459.204	18448.27
459.41	18235.28
459.616	17113
459.821	16871.34
460.027	17194.92
460.233	16326.58
460.438	16095.16
460.644	15822.78
460.85	15128.52
461.055	14981.06
461.261	14727.11
461.466	13895.64
461.672	13436.89
461.878	14378.96
462.083	13334.5
462.289	13152.23
462.494	12945.38
462.7	12302.32
462.905	12218.35
463.111	12607.47
463.316	12644.33
463.522	12386.29
463.727	12423.15
463.932	12308.46
464.138	12208.11
464.343	12255.22
464.549	12052.47
464.754	12439.53
464.959	12003.32
465.165	12017.65
465.37	11544.57
465.575	11376.64
465.781	12158.96
465.986	11984.88
466.191	11468.8
466.397	11196.42
466.602	10469.39
466.807	11216.9
467.012	11210.75
467.218	11145.22
467.423	10934.28
467.628	11073.54
467.833	11196.42
468.038	11014.15
