Data from USB4F104151__227__14-00-22-325.txt Node

Date: Thu Mar 13 14:00:22 EDT 2025
User: louis
Spectrometer: USB4F10415
Trigger mode: 4
Integration Time (sec): 1.000000E-2
Scans to average: 1
Electric dark correction enabled: true
Nonlinearity correction enabled: false
Boxcar width: 0
XAxis mode: Wavelengths
Number of Pixels in Spectrum: 3648
>>>>>Begin Spectral Data<<<<<
178.204	-47.1
178.424	-47.1
178.644	-47.1
178.864	-30.72
179.084	-94.21
179.304	-6.14
179.524	40.96
179.744	26.62
179.964	-71.68
180.184	4.1
180.404	-8.19
180.624	-4.1
180.844	-4.1
181.064	-14.34
181.283	16.38
181.503	8.19
181.723	12.29
181.943	-43.01
182.163	55.3
182.383	6.14
182.602	-26.62
182.822	34.82
183.042	-51.2
183.262	4.1
183.482	49.15
183.701	57.34
183.921	43.01
184.141	10.24
184.361	57.34
184.58	8.19
184.8	-10.24
185.02	-55.3
185.239	47.1
185.459	43.01
185.679	61.44
185.898	2.05
186.118	34.82
186.338	-34.82
186.557	63.49
186.777	14.34
186.997	38.91
187.216	45.06
187.436	-10.24
187.655	-73.73
187.875	-24.58
188.095	14.34
188.314	71.68
188.534	24.58
188.753	71.68
188.973	53.25
189.192	75.77
189.412	86.01
189.631	81.92
189.851	-4.1
190.07	65.53
190.29	-12.29
190.509	2.05
190.729	36.86
190.948	12.29
191.168	79.87
191.387	-4.1
191.607	43.01
191.826	4.1
192.045	-38.91
192.265	16.38
192.484	2.05
192.704	30.72
192.923	-69.63
193.142	20.48
193.362	79.87
193.581	73.73
193.8	75.77
194.02	36.86
194.239	10.24
194.458	75.77
194.678	-4.1
194.897	36.86
195.116	26.62
195.335	135.17
195.555	67.58
195.774	63.49
195.993	10.24
196.212	26.62
196.432	-10.24
196.651	-8.19
196.87	-57.34
197.089	20.48
197.308	14.34
197.528	38.91
197.747	28.67
197.966	14.34
198.185	40.96
198.404	14.34
198.623	6.14
198.842	8.19
199.062	-8.19
199.281	10.24
199.5	10.24
199.719	-71.68
199.938	6.14
200.157	18.43
200.376	20.48
200.595	53.25
200.814	26.62
201.033	-22.53
201.252	51.2
201.471	4.1
201.69	38.91
201.909	28.67
202.128	-6.14
202.347	-55.3
202.566	45.06
202.785	22.53
203.004	47.1
203.223	-8.19
203.442	73.73
203.661	75.77
203.879	83.97
204.098	83.97
204.317	-18.43
204.536	32.77
204.755	26.62
204.974	38.91
205.193	6.14
205.411	-12.29
205.63	-36.86
205.849	-36.86
206.068	-4.1
206.287	-22.53
206.505	18.43
206.724	51.2
206.943	-32.77
207.162	-20.48
207.381	-26.62
207.599	43.01
207.818	-24.58
208.037	26.62
208.255	-20.48
208.474	6.14
208.693	-22.53
208.911	32.77
209.13	10.24
209.349	43.01
209.567	51.2
209.786	47.1
210.005	59.39
210.223	28.67
210.442	63.49
210.661	45.06
210.879	51.2
211.098	28.67
211.316	10.24
211.535	-45.06
211.753	10.24
211.972	-30.72
212.191	-6.14
212.409	-20.48
212.628	18.43
212.846	20.48
213.065	-26.62
213.283	16.38
213.502	12.29
213.72	61.44
213.938	26.62
214.157	53.25
214.375	0
214.594	61.44
214.812	-10.24
215.031	18.43
215.249	43.01
215.467	4.1
215.686	18.43
215.904	8.19
216.122	-6.14
216.341	10.24
216.559	-65.54
216.778	-30.72
216.996	36.86
217.214	-30.72
217.432	-30.72
217.651	20.48
217.869	100.35
218.087	18.43
218.306	28.67
218.524	-12.29
218.742	4.1
218.96	26.62
219.179	43.01
219.397	26.62
219.615	-4.1
219.833	4.1
220.051	-4.1
220.27	137.21
220.488	43.01
220.706	51.2
220.924	71.68
221.142	10.24
221.36	2.05
221.578	94.21
221.796	-4.1
222.015	10.24
222.233	-34.82
222.451	94.21
222.669	12.29
222.887	4.1
223.105	36.86
223.323	2.05
223.541	4.1
223.759	10.24
223.977	8.19
224.195	40.96
224.413	0
224.631	-38.91
224.849	26.62
225.067	79.87
225.285	10.24
225.503	63.49
225.721	10.24
225.939	28.67
226.157	10.24
226.375	32.77
226.592	-30.72
226.81	-4.1
227.028	2.05
227.246	45.06
227.464	-20.48
227.682	20.48
227.9	-14.34
228.117	38.91
228.335	45.06
228.553	-22.53
228.771	12.29
228.989	34.82
229.206	12.29
229.424	4.1
229.642	20.48
229.86	-14.34
230.077	14.34
230.295	-2.05
230.513	71.68
230.731	-4.1
230.948	47.1
231.166	-14.34
231.384	77.82
231.601	26.62
231.819	-32.77
232.037	-43.01
232.254	26.62
232.472	71.68
232.689	12.29
232.907	43.01
233.125	-10.24
233.342	61.44
233.56	20.48
233.777	-18.43
233.995	49.15
234.213	-6.14
234.43	43.01
234.648	-30.72
234.865	12.29
235.083	34.82
235.3	-22.53
235.518	-47.1
235.735	32.77
235.953	2.05
236.17	-2.05
236.388	47.1
236.605	-10.24
236.822	6.14
237.04	18.43
237.257	32.77
237.475	-14.34
237.692	0
237.909	-26.62
238.127	2.05
238.344	6.14
238.562	0
238.779	32.77
238.996	30.72
239.214	20.48
239.431	26.62
239.648	16.38
239.865	34.82
240.083	26.62
240.3	34.82
240.517	18.43
240.735	30.72
240.952	22.53
241.169	26.62
241.386	102.4
241.603	14.34
241.821	-4.1
242.038	12.29
242.255	-32.77
242.472	4.1
242.689	47.1
242.907	63.49
243.124	71.68
243.341	4.1
243.558	118.78
243.775	36.86
243.992	14.34
244.209	32.77
244.426	18.43
244.643	38.91
244.86	20.48
245.078	67.58
245.295	100.35
245.512	-8.19
245.729	6.14
245.946	-38.91
246.163	65.53
246.38	4.1
246.597	-2.05
246.814	20.48
247.031	28.67
247.248	55.3
247.464	20.48
247.681	2.05
247.898	-16.38
248.115	49.15
248.332	-43.01
248.549	53.25
248.766	-67.58
248.983	26.62
249.2	6.14
249.417	69.63
249.633	-4.1
249.85	108.54
250.067	2.05
250.284	71.68
250.501	-30.72
250.717	45.06
250.934	14.34
251.151	34.82
251.368	4.1
251.585	18.43
251.801	45.06
252.018	-51.2
252.235	77.82
252.451	-4.1
252.668	-36.86
252.885	-2.05
253.102	20.48
253.318	57.34
253.535	22.53
253.752	14.34
253.968	69.63
254.185	-51.2
254.401	8.19
254.618	6.14
254.835	-77.82
255.051	90.11
255.268	-6.14
255.484	34.82
255.701	-28.67
255.917	10.24
256.134	26.62
256.351	26.62
256.567	22.53
256.784	10.24
257	-4.1
257.217	96.25
257.433	2.05
257.65	24.58
257.866	26.62
258.082	-135.17
258.299	-55.3
258.515	2.05
258.732	26.62
258.948	12.29
259.165	53.25
259.381	45.06
259.597	38.91
259.814	18.43
260.03	30.72
260.246	59.39
260.463	38.91
260.679	34.82
260.895	83.97
261.112	47.1
261.328	-45.06
261.544	18.43
261.761	14.34
261.977	2.05
262.193	-34.82
262.409	77.82
262.626	47.1
262.842	61.44
263.058	36.86
263.274	-14.34
263.49	53.25
263.707	20.48
263.923	-22.53
264.139	-10.24
264.355	30.72
264.571	51.2
264.787	43.01
265.004	-55.3
265.22	43.01
265.436	18.43
265.652	51.2
265.868	67.58
266.084	-12.29
266.3	36.86
266.516	8.19
266.732	36.86
266.948	32.77
267.164	43.01
267.38	63.49
267.596	-10.24
267.812	26.62
268.028	-6.14
268.244	16.38
268.46	12.29
268.676	-6.14
268.892	40.96
269.108	18.43
269.324	10.24
269.54	14.34
269.756	38.91
269.972	-49.15
270.188	-28.67
270.403	22.53
270.619	22.53
270.835	59.39
271.051	-6.14
271.267	18.43
271.483	34.82
271.698	14.34
271.914	26.62
272.13	53.25
272.346	14.34
272.562	55.3
272.777	18.43
272.993	-22.53
273.209	-12.29
273.425	100.35
273.64	55.3
273.856	-6.14
274.072	-36.86
274.287	61.44
274.503	12.29
274.719	-36.86
274.934	24.58
275.15	10.24
275.366	81.92
275.581	-12.29
275.797	40.96
276.012	-6.14
276.228	47.1
276.444	38.91
276.659	36.86
276.875	10.24
277.09	-12.29
277.306	65.53
277.521	-14.34
277.737	4.1
277.952	18.43
278.168	2.05
278.383	-4.1
278.599	71.68
278.814	2.05
279.03	8.19
279.245	-2.05
279.461	40.96
279.676	43.01
279.892	16.38
280.107	47.1
280.322	14.34
280.538	-30.72
280.753	-34.82
280.969	59.39
281.184	100.35
281.399	120.83
281.615	2.05
281.83	8.19
282.045	36.86
282.26	34.82
282.476	38.91
282.691	12.29
282.906	104.45
283.122	73.73
283.337	10.24
283.552	65.53
283.767	112.64
283.983	4.1
284.198	18.43
284.413	98.3
284.628	-2.05
284.843	59.39
285.058	24.58
285.274	94.21
285.489	20.48
285.704	53.25
285.919	-67.58
286.134	40.96
286.349	-10.24
286.564	8.19
286.779	45.06
286.995	40.96
287.21	32.77
287.425	100.35
287.64	-38.91
287.855	40.96
288.07	-32.77
288.285	32.77
288.5	38.91
288.715	-10.24
288.93	-14.34
289.145	-53.25
289.36	16.38
289.575	86.01
289.79	16.38
290.004	75.77
290.219	49.15
290.434	10.24
290.649	-6.14
290.864	75.77
291.079	45.06
291.294	51.2
291.509	22.53
291.724	40.96
291.938	28.67
292.153	-4.1
292.368	-30.72
292.583	34.82
292.798	141.31
293.012	16.38
293.227	26.62
293.442	26.62
293.657	43.01
293.871	-8.19
294.086	18.43
294.301	83.97
294.516	57.34
294.73	-12.29
294.945	-10.24
295.16	88.06
295.374	22.53
295.589	30.72
295.804	65.53
296.018	12.29
296.233	6.14
296.447	40.96
296.662	28.67
296.877	94.21
297.091	-16.38
297.306	67.58
297.52	-6.14
297.735	36.86
297.949	-18.43
298.164	28.67
298.378	32.77
298.593	4.1
298.807	-12.29
299.022	55.3
299.236	94.21
299.451	10.24
299.665	63.49
299.88	100.35
300.094	20.48
300.309	10.24
300.523	86.01
300.737	36.86
300.952	-2.05
301.166	135.17
301.381	14.34
301.595	-12.29
301.809	20.48
302.024	67.58
302.238	-24.58
302.452	-14.34
302.667	24.58
302.881	-30.72
303.095	16.38
303.309	34.82
303.524	12.29
303.738	-36.86
303.952	16.38
304.166	-30.72
304.381	-2.05
304.595	43.01
304.809	36.86
305.023	59.39
305.237	26.62
305.452	49.15
305.666	-34.82
305.88	26.62
306.094	8.19
306.308	26.62
306.522	55.3
306.736	51.2
306.95	14.34
307.164	-2.05
307.379	16.38
307.593	32.77
307.807	75.77
308.021	69.63
308.235	-6.14
308.449	10.24
308.663	49.15
308.877	75.77
309.091	45.06
309.305	59.39
309.519	-26.62
309.733	67.58
309.947	-8.19
310.161	71.68
310.374	-18.43
310.588	34.82
310.802	63.49
311.016	63.49
311.23	-63.49
311.444	-12.29
311.658	4.1
311.872	20.48
312.085	32.77
312.299	53.25
312.513	28.67
312.727	34.82
312.941	-2.05
313.154	14.34
313.368	83.97
313.582	14.34
313.796	47.1
314.009	40.96
314.223	86.01
314.437	20.48
314.651	28.67
314.864	6.14
315.078	0
315.292	43.01
315.505	-20.48
315.719	49.15
315.933	47.1
316.146	59.39
316.36	-14.34
316.573	43.01
316.787	34.82
317.001	4.1
317.214	14.34
317.428	30.72
317.641	43.01
317.855	8.19
318.068	45.06
318.282	65.53
318.495	4.1
318.709	22.53
318.922	49.15
319.136	-30.72
319.349	92.16
319.563	-12.29
319.776	30.72
319.99	28.67
320.203	18.43
320.417	47.1
320.63	61.44
320.843	20.48
321.057	20.48
321.27	-47.1
321.483	-18.43
321.697	51.2
321.91	-6.14
322.124	16.38
322.337	16.38
322.55	20.48
322.763	-6.14
322.977	63.49
323.19	-2.05
323.403	45.06
323.617	10.24
323.83	12.29
324.043	-6.14
324.256	38.91
324.469	-40.96
324.683	26.62
324.896	-53.25
325.109	14.34
325.322	28.67
325.535	20.48
325.748	-49.15
325.962	-26.62
326.175	-12.29
326.388	59.39
326.601	-2.05
326.814	71.68
327.027	61.44
327.24	86.01
327.453	4.1
327.666	-10.24
327.879	102.4
328.092	83.97
328.305	-2.05
328.518	36.86
328.731	51.2
328.944	71.68
329.157	18.43
329.37	-4.1
329.583	53.25
329.796	34.82
330.009	14.34
330.222	24.58
330.435	47.1
330.648	108.54
330.861	57.34
331.073	4.1
331.286	0
331.499	49.15
331.712	18.43
331.925	40.96
332.138	18.43
332.35	67.58
332.563	83.97
332.776	18.43
332.989	-8.19
333.202	53.25
333.414	55.3
333.627	14.34
333.84	45.06
334.053	8.19
334.265	28.67
334.478	30.72
334.691	47.1
334.903	22.53
335.116	40.96
335.329	112.64
335.541	34.82
335.754	26.62
335.966	90.11
336.179	-14.34
336.392	-57.34
336.604	53.25
336.817	18.43
337.029	28.67
337.242	65.53
337.454	-30.72
337.667	30.72
337.88	12.29
338.092	49.15
338.305	57.34
338.517	20.48
338.729	26.62
338.942	28.67
339.154	28.67
339.367	18.43
339.579	18.43
339.792	20.48
340.004	30.72
340.217	67.58
340.429	63.49
340.641	-10.24
340.854	-28.67
341.066	-38.91
341.278	57.34
341.491	30.72
341.703	34.82
341.915	-14.34
342.128	40.96
342.34	-2.05
342.552	10.24
342.764	67.58
342.977	96.25
343.189	116.73
343.401	83.97
343.613	51.2
343.826	30.72
344.038	18.43
344.25	47.1
344.462	14.34
344.674	92.16
344.886	49.15
345.099	45.06
345.311	36.86
345.523	-2.05
345.735	30.72
345.947	-2.05
346.159	-22.53
346.371	-2.05
346.583	-20.48
346.795	88.06
347.007	40.96
347.219	30.72
347.431	20.48
347.643	49.15
347.855	0
348.067	71.68
348.279	6.14
348.491	43.01
348.703	28.67
348.915	43.01
349.127	40.96
349.339	67.58
349.551	45.06
349.763	-10.24
349.975	-18.43
350.187	75.77
350.399	-18.43
350.61	49.15
350.822	30.72
351.034	16.38
351.246	30.72
351.458	51.2
351.669	32.77
351.881	-45.06
352.093	110.59
352.305	75.77
352.517	-18.43
352.728	65.53
352.94	-2.05
353.152	28.67
353.363	6.14
353.575	22.53
353.787	22.53
353.999	40.96
354.21	36.86
354.422	38.91
354.633	86.01
354.845	43.01
355.057	-28.67
355.268	12.29
355.48	16.38
355.692	-14.34
355.903	61.44
356.115	-28.67
356.326	73.73
356.538	126.97
356.749	63.49
356.961	22.53
357.172	51.2
357.384	28.67
357.595	-12.29
357.807	114.69
358.018	0
358.23	96.25
358.441	75.77
358.653	94.21
358.864	2.05
359.075	-77.82
359.287	-38.91
359.498	61.44
359.709	20.48
359.921	38.91
360.132	-22.53
360.344	-6.14
360.555	79.87
360.766	18.43
360.977	6.14
361.189	-20.48
361.4	0
361.611	14.34
361.823	71.68
362.034	120.83
362.245	65.53
362.456	49.15
362.667	67.58
362.879	36.86
363.09	12.29
363.301	61.44
363.512	-22.53
363.723	-49.15
363.935	-32.77
364.146	57.34
364.357	-6.14
364.568	75.77
364.779	43.01
364.99	4.1
365.201	43.01
365.412	30.72
365.623	-6.14
365.834	77.82
366.045	69.63
366.256	4.1
366.467	20.48
366.678	-14.34
366.889	-43.01
367.1	30.72
367.311	14.34
367.522	34.82
367.733	49.15
367.944	-10.24
368.155	-71.68
368.366	51.2
368.577	10.24
368.788	34.82
368.999	-30.72
369.209	49.15
369.42	49.15
369.631	43.01
369.842	55.3
370.053	4.1
370.264	51.2
370.474	69.63
370.685	86.01
370.896	53.25
371.107	43.01
371.317	59.39
371.528	38.91
371.739	22.53
371.95	28.67
372.16	120.83
372.371	26.62
372.582	2.05
372.792	12.29
373.003	86.01
373.214	16.38
373.424	61.44
373.635	-36.86
373.846	43.01
374.056	-4.1
374.267	59.39
374.477	40.96
374.688	20.48
374.898	63.49
375.109	26.62
375.319	-36.86
375.53	77.82
375.74	28.67
375.951	14.34
376.161	28.67
376.372	92.16
376.582	32.77
376.793	34.82
377.003	-22.53
377.214	83.97
377.424	43.01
377.635	71.68
377.845	28.67
378.055	55.3
378.266	-47.1
378.476	55.3
378.686	18.43
378.897	-14.34
379.107	57.34
379.317	120.83
379.528	59.39
379.738	133.12
379.948	10.24
380.158	75.77
380.369	-8.19
380.579	12.29
380.789	75.77
380.999	75.77
381.21	75.77
381.42	43.01
381.63	49.15
381.84	36.86
382.05	32.77
382.261	45.06
382.471	59.39
382.681	6.14
382.891	38.91
383.101	38.91
383.311	-8.19
383.521	-43.01
383.731	92.16
383.941	24.58
384.151	65.53
384.361	30.72
384.571	43.01
384.781	75.77
384.991	14.34
385.201	12.29
385.411	-8.19
385.621	51.2
385.831	26.62
386.041	88.06
386.251	73.73
386.461	26.62
386.671	-22.53
386.881	14.34
387.091	122.88
387.301	18.43
387.511	81.92
387.72	45.06
387.93	26.62
388.14	69.63
388.35	38.91
388.56	69.63
388.769	65.53
388.979	45.06
389.189	133.12
389.399	73.73
389.609	73.73
389.818	116.73
390.028	69.63
390.238	67.58
390.447	65.53
390.657	116.73
390.867	-49.15
391.076	26.62
391.286	102.4
391.496	0
391.705	26.62
391.915	49.15
392.125	43.01
392.334	-18.43
392.544	73.73
392.753	61.44
392.963	63.49
393.172	20.48
393.382	108.54
393.591	59.39
393.801	-36.86
394.01	45.06
394.22	47.1
394.429	88.06
394.639	30.72
394.848	10.24
395.058	26.62
395.267	92.16
395.477	104.45
395.686	55.3
395.895	40.96
396.105	34.82
396.314	165.89
396.524	57.34
396.733	92.16
396.942	86.01
397.152	81.92
397.361	104.45
397.57	71.68
397.78	133.12
397.989	75.77
398.198	110.59
398.407	53.25
398.617	75.77
398.826	51.2
399.035	73.73
399.244	-2.05
399.453	104.45
399.663	53.25
399.872	83.97
400.081	24.58
400.29	79.87
400.499	36.86
400.708	88.06
400.917	-4.1
401.127	108.54
401.336	71.68
401.545	86.01
401.754	12.29
401.963	102.4
402.172	20.48
402.381	59.39
402.59	86.01
402.799	102.4
403.008	61.44
403.217	77.82
403.426	34.82
403.635	49.15
403.844	90.11
404.053	49.15
404.262	137.21
404.471	83.97
404.68	124.93
404.888	120.83
405.097	36.86
405.306	186.37
405.515	94.21
405.724	96.25
405.933	106.49
406.142	81.92
406.35	129.02
406.559	36.86
406.768	110.59
406.977	145.41
407.185	96.25
407.394	124.93
407.603	122.88
407.812	167.93
408.02	141.31
408.229	112.64
408.438	141.31
408.646	186.37
408.855	172.03
409.064	120.83
409.272	235.52
409.481	212.99
409.69	145.41
409.898	231.42
410.107	219.13
410.315	225.28
410.524	217.08
410.733	208.89
410.941	229.37
411.15	256
411.358	286.72
411.567	288.76
411.775	180.22
411.984	256
412.192	282.62
412.401	210.94
412.609	301.05
412.818	284.67
413.026	337.91
413.234	321.53
413.443	346.11
413.651	366.59
413.86	387.07
414.068	415.74
414.276	370.68
414.485	362.49
414.693	387.07
414.901	440.31
415.11	462.84
415.318	456.7
415.526	499.7
415.734	532.47
415.943	501.75
416.151	567.29
416.359	505.85
416.567	514.04
416.776	491.51
416.984	585.72
417.192	593.91
417.4	552.95
417.608	626.68
417.817	509.94
418.025	641.01
418.233	737.27
418.441	665.59
418.649	780.28
418.857	800.76
419.065	720.88
419.273	710.65
419.481	841.72
419.689	892.91
419.897	894.96
420.105	849.91
420.313	882.67
420.521	1060.85
420.729	995.31
420.937	1116.14
421.145	1087.47
421.353	1095.66
421.561	1202.16
421.769	1173.49
421.977	1179.63
422.185	1263.6
422.393	1343.47
422.601	1341.42
422.809	1419.24
423.017	1374.19
423.224	1415.15
423.432	1591.27
423.64	1558.5
423.848	1675.24
424.056	1607.66
424.263	1755.11
424.471	1767.4
424.679	1800.16
424.887	1906.66
425.094	1949.67
425.302	1888.23
425.51	2015.2
425.718	2131.94
425.925	1988.58
426.133	2181.09
426.341	2289.63
426.548	2389.98
426.756	2410.46
426.964	2500.57
427.171	2625.5
427.379	2609.11
427.586	2543.58
427.794	2734.04
428.001	3000.27
428.209	3037.14
428.417	2901.97
428.624	3071.95
428.832	3153.87
429.039	3172.3
429.247	3147.73
429.454	3389.39
429.662	3622.86
429.869	3352.52
430.076	3635.14
430.284	3467.21
430.491	3678.15
430.699	4011.97
430.906	3788.74
431.114	3983.3
431.321	4075.46
431.528	4206.53
431.736	4511.68
431.943	4550.59
432.15	4526.01
432.358	4558.78
432.565	4640.7
432.772	4769.72
432.979	5066.67
433.187	5136.31
433.394	5240.75
433.601	5466.03
433.808	5470.12
434.016	5392.3
434.223	5830.57
434.43	6027.17
434.637	5965.73
434.844	6328.22
435.052	6432.67
435.259	6317.98
435.466	6604.7
435.673	6434.72
435.88	6872.98
436.087	7112.6
436.294	7151.51
436.501	7024.53
436.708	7069.59
436.915	7186.32
437.122	7622.54
437.329	7790.47
437.537	7939.97
437.743	8015.75
437.95	7886.73
438.157	8368
438.364	8861.56
438.571	8771.45
438.778	8732.54
438.985	9676.65
439.192	9115.51
439.399	9543.53
439.606	9305.97
439.813	9793.39
440.02	10268.52
440.227	10321.76
440.433	10076.01
440.64	10389.35
440.847	10391.39
441.054	10526.56
441.261	11194.2
441.467	11106.13
441.674	11366.23
441.881	11722.57
442.088	11652.94
442.294	11732.81
442.501	11839.31
442.708	12189.51
442.914	12631.87
443.121	13031.23
443.328	12844.86
443.534	13725.49
443.741	13418.29
443.948	13248.31
444.154	14001.96
444.361	14083.88
444.568	14253.86
444.774	14225.19
444.981	14309.16
445.187	14698.27
445.394	15425.3
445.6	15208.22
445.807	16570.12
446.013	15914.77
446.22	16099.08
446.426	16606.98
446.633	16828.16
446.839	17424.12
447.046	16807.68
447.252	17700.59
447.459	17858.29
447.665	17555.19
447.871	18380.52
448.078	19160.8
448.284	18431.72
448.491	18603.75
448.697	19386.07
448.903	19848.91
449.11	19803.86
449.316	19408.6
449.522	19859.15
449.728	20500.17
449.935	20621
450.141	20680.39
450.347	21001.92
450.553	20346.57
450.76	20897.47
450.966	21407.42
451.172	20963.01
451.378	21608.12
451.584	21044.93
451.791	21622.45
451.997	21747.38
452.203	22197.93
452.409	22025.9
452.615	21935.79
452.821	21018.3
453.027	20891.33
453.233	22124.21
453.44	21137.09
453.646	21266.11
453.852	21485.24
454.058	21986.99
454.264	20915.9
454.47	21427.9
454.676	21100.22
454.882	21755.57
455.088	20031.18
455.294	20219.6
455.5	20317.9
455.705	20594.37
455.911	19726.03
456.117	19558.1
456.323	19173.08
456.529	18188.01
456.735	18900.7
456.941	18153.19
457.147	18302.7
457.352	17686.26
457.558	17669.87
457.764	17393.4
457.97	17116.92
458.176	16697.09
458.381	16930.56
458.587	15826.7
458.793	15894.29
458.999	15177.5
459.204	15976.2
459.41	15585.04
459.616	14659.36
459.821	14890.78
460.027	14733.09
460.233	14536.48
460.438	13623.09
460.644	13776.69
460.85	13051.7
461.055	12898.11
461.261	12773.18
461.466	11863.88
461.672	11611.98
461.878	12390.21
462.083	11741
462.289	11595.6
462.494	11296.6
462.7	10833.75
462.905	10520.42
463.111	10903.39
463.316	11136.85
463.522	10819.42
463.727	10733.4
463.932	10952.54
464.138	10655.58
464.343	10741.6
464.549	10387.3
464.754	10667.87
464.959	10561.37
465.165	10569.57
465.37	10237.8
465.575	9860.97
465.781	10207.08
465.986	10235.75
466.191	9916.26
466.397	9850.73
466.602	9252.72
466.807	9645.93
467.012	9742.19
467.218	9473.9
467.423	9510.77
467.628	9598.83
467.833	9811.82
468.038	9523.05
468.244	9308.02
468.449	9672.56
468.654	9275.25
468.859	9258.87
469.064	9303.92
469.269	8947.58
