Data from USB4F104151__143__13-58-15-776.txt Node

Date: Thu Mar 13 13:58:15 EDT 2025
User: louis
Spectrometer: USB4F10415
Trigger mode: 4
Integration Time (sec): 1.000000E-2
Scans to average: 1
Electric dark correction enabled: true
Nonlinearity correction enabled: false
Boxcar width: 0
XAxis mode: Wavelengths
Number of Pixels in Spectrum: 3648
>>>>>Begin Spectral Data<<<<<
178.204	-50.35
178.424	-50.35
178.644	-50.35
178.864	-23.72
179.084	-11.43
179.304	21.33
179.524	-11.43
179.744	-31.91
179.964	41.81
180.184	-9.39
180.404	19.29
180.624	-27.82
180.844	76.63
181.064	-76.97
181.283	7
181.503	-25.77
181.723	17.24
181.943	-48.3
182.163	7
182.383	9.05
182.602	9.05
182.822	25.43
183.042	-1.19
183.262	99.16
183.482	17.24
183.701	-13.48
183.921	2.9
184.141	37.72
184.361	97.11
184.58	21.33
184.8	-48.3
185.02	74.58
185.239	-27.82
185.459	-33.96
185.679	41.81
185.898	-13.48
186.118	15.19
186.338	109.4
186.557	-19.63
186.777	29.52
186.997	9.05
187.216	-31.91
187.436	58.2
187.655	41.81
187.875	47.96
188.095	17.24
188.314	62.29
188.534	72.53
188.753	-29.87
188.973	-27.82
189.192	58.2
189.412	21.33
189.631	-23.72
189.851	35.67
190.07	47.96
190.29	4.95
190.509	66.39
190.729	27.48
190.948	78.68
191.168	35.67
191.387	62.29
191.607	19.29
191.826	78.68
192.045	-3.24
192.265	-76.97
192.484	-25.77
192.704	70.48
192.923	2.9
193.142	68.44
193.362	86.87
193.581	74.58
193.8	2.9
194.02	39.76
194.239	-33.96
194.458	15.19
194.678	17.24
194.897	21.33
195.116	93.01
195.335	-46.25
195.555	-72.87
195.774	21.33
195.993	-56.49
196.212	80.72
196.432	21.33
196.651	41.81
196.87	-13.48
197.089	33.62
197.308	50
197.528	50
197.747	9.05
197.966	-15.53
198.185	35.67
198.404	82.77
198.623	43.86
198.842	-54.44
199.062	11.09
199.281	-66.73
199.5	45.91
199.719	-19.63
199.938	-33.96
200.157	68.44
200.376	64.34
200.595	70.48
200.814	13.14
201.033	-29.87
201.252	-44.2
201.471	66.39
201.69	68.44
201.909	25.43
202.128	37.72
202.347	37.72
202.566	27.48
202.785	29.52
203.004	-21.67
203.223	33.62
203.442	11.09
203.661	9.05
203.879	84.82
204.098	127.83
204.317	7
204.536	121.68
204.755	45.91
204.974	27.48
205.193	23.38
205.411	-46.25
205.63	-1.19
205.849	43.86
206.068	0.85
206.287	64.34
206.505	80.72
206.724	47.96
206.943	-7.34
207.162	54.1
207.381	-1.19
207.599	41.81
207.818	-27.82
208.037	56.15
208.255	39.76
208.474	78.68
208.693	68.44
208.911	41.81
209.13	82.77
209.349	35.67
209.567	66.39
209.786	113.49
210.005	11.09
210.223	-27.82
210.442	-38.06
210.661	23.38
210.879	-13.48
211.098	78.68
211.316	-46.25
211.535	131.92
211.753	78.68
211.972	60.24
212.191	25.43
212.409	95.06
212.628	-15.53
212.846	15.19
213.065	41.81
213.283	58.2
213.502	35.67
213.72	23.38
213.938	-33.96
214.157	41.81
214.375	39.76
214.594	23.38
214.812	50
215.031	37.72
215.249	68.44
215.467	2.9
215.686	2.9
215.904	43.86
216.122	-13.48
216.341	31.57
216.559	64.34
216.778	80.72
216.996	58.2
217.214	58.2
217.432	80.72
217.651	0.85
217.869	52.05
218.087	82.77
218.306	31.57
218.524	76.63
218.742	80.72
218.96	13.14
219.179	58.2
219.397	-25.77
219.615	56.15
219.833	19.29
220.051	2.9
220.27	66.39
220.488	-27.82
220.706	39.76
220.924	-17.58
221.142	29.52
221.36	19.29
221.578	41.81
221.796	41.81
222.015	-81.07
222.233	43.86
222.451	-33.96
222.669	7
222.887	25.43
223.105	-56.49
223.323	56.15
223.541	45.91
223.759	-38.06
223.977	7
224.195	13.14
224.413	15.19
224.631	9.05
224.849	-27.82
225.067	-40.11
225.285	35.67
225.503	78.68
225.721	9.05
225.939	-23.72
226.157	52.05
226.375	17.24
226.592	58.2
226.81	-9.39
227.028	68.44
227.246	74.58
227.464	52.05
227.682	11.09
227.9	60.24
228.117	-23.72
228.335	37.72
228.553	58.2
228.771	117.59
228.989	11.09
229.206	19.29
229.424	11.09
229.642	52.05
229.86	-3.24
230.077	52.05
230.295	62.29
230.513	-9.39
230.731	47.96
230.948	39.76
231.166	9.05
231.384	-7.34
231.601	54.1
231.819	-27.82
232.037	64.34
232.254	-7.34
232.472	15.19
232.689	37.72
232.907	33.62
233.125	-5.29
233.342	27.48
233.56	50
233.777	70.48
233.995	45.91
234.213	90.96
234.43	27.48
234.648	27.48
234.865	2.9
235.083	72.53
235.3	23.38
235.518	31.57
235.735	9.05
235.953	39.76
236.17	-13.48
236.388	-19.63
236.605	-62.63
236.822	60.24
237.04	-48.3
237.257	37.72
237.475	15.19
237.692	7
237.909	31.57
238.127	39.76
238.344	86.87
238.562	121.68
238.779	74.58
238.996	47.96
239.214	-58.54
239.431	-7.34
239.648	29.52
239.865	66.39
240.083	19.29
240.3	60.24
240.517	9.05
240.735	52.05
240.952	45.91
241.169	39.76
241.386	50
241.603	64.34
241.821	70.48
242.038	25.43
242.255	35.67
242.472	11.09
242.689	-17.58
242.907	-15.53
243.124	11.09
243.341	117.59
243.558	17.24
243.775	13.14
243.992	35.67
244.209	80.72
244.426	54.1
244.643	115.54
244.86	27.48
245.078	-40.11
245.295	70.48
245.512	45.91
245.729	11.09
245.946	58.2
246.163	58.2
246.38	21.33
246.597	111.44
246.814	148.31
247.031	2.9
247.248	9.05
247.464	-13.48
247.681	58.2
247.898	-27.82
248.115	-7.34
248.332	60.24
248.549	62.29
248.766	39.76
248.983	35.67
249.2	11.09
249.417	84.82
249.633	11.09
249.85	82.77
250.067	103.25
250.284	-11.43
250.501	43.86
250.717	35.67
250.934	-15.53
251.151	84.82
251.368	47.96
251.585	68.44
251.801	60.24
252.018	39.76
252.235	25.43
252.451	11.09
252.668	64.34
252.885	52.05
253.102	25.43
253.318	37.72
253.535	-13.48
253.752	-33.96
253.968	62.29
254.185	43.86
254.401	4.95
254.618	66.39
254.835	9.05
255.051	45.91
255.268	60.24
255.484	-31.91
255.701	4.95
255.917	-15.53
256.134	37.72
256.351	-11.43
256.567	50
256.784	-46.25
257	-19.63
257.217	93.01
257.433	-3.24
257.65	103.25
257.866	11.09
258.082	31.57
258.299	-19.63
258.515	97.11
258.732	50
258.948	35.67
259.165	39.76
259.381	37.72
259.597	62.29
259.814	19.29
260.03	-9.39
260.246	35.67
260.463	4.95
260.679	82.77
260.895	95.06
261.112	19.29
261.328	45.91
261.544	90.96
261.761	80.72
261.977	-13.48
262.193	-3.24
262.409	33.62
262.626	80.72
262.842	23.38
263.058	4.95
263.274	21.33
263.49	-17.58
263.707	31.57
263.923	37.72
264.139	-31.91
264.355	37.72
264.571	50
264.787	54.1
265.004	-31.91
265.22	-7.34
265.436	113.49
265.652	33.62
265.868	88.92
266.084	52.05
266.3	4.95
266.516	60.24
266.732	76.63
266.948	-3.24
267.164	31.57
267.38	4.95
267.596	15.19
267.812	47.96
268.028	52.05
268.244	62.29
268.46	78.68
268.676	11.09
268.892	-7.34
269.108	86.87
269.324	33.62
269.54	4.95
269.756	84.82
269.972	64.34
270.188	19.29
270.403	64.34
270.619	-44.2
270.835	64.34
271.051	99.16
271.267	7
271.483	4.95
271.698	74.58
271.914	29.52
272.13	7
272.346	107.35
272.562	52.05
272.777	-33.96
272.993	52.05
273.209	47.96
273.425	64.34
273.64	-11.43
273.856	11.09
274.072	62.29
274.287	82.77
274.503	25.43
274.719	45.91
274.934	27.48
275.15	99.16
275.366	-7.34
275.581	45.91
275.797	50
276.012	-21.67
276.228	-52.39
276.444	23.38
276.659	-7.34
276.875	-38.06
277.09	13.14
277.306	37.72
277.521	68.44
277.737	9.05
277.952	17.24
278.168	78.68
278.383	-15.53
278.599	17.24
278.814	0.85
279.03	-19.63
279.245	43.86
279.461	62.29
279.676	58.2
279.892	52.05
280.107	19.29
280.322	-40.11
280.538	80.72
280.753	29.52
280.969	47.96
281.184	11.09
281.399	72.53
281.615	35.67
281.83	52.05
282.045	31.57
282.26	41.81
282.476	47.96
282.691	-5.29
282.906	9.05
283.122	-13.48
283.337	-17.58
283.552	58.2
283.767	41.81
283.983	70.48
284.198	66.39
284.413	29.52
284.628	-38.06
284.843	78.68
285.058	25.43
285.274	90.96
285.489	15.19
285.704	62.29
285.919	37.72
286.134	-36.01
286.349	13.14
286.564	60.24
286.779	7
286.995	13.14
287.21	62.29
287.425	37.72
287.64	45.91
287.855	52.05
288.07	72.53
288.285	45.91
288.5	-1.19
288.715	21.33
288.93	29.52
289.145	58.2
289.36	39.76
289.575	111.44
289.79	45.91
290.004	23.38
290.219	35.67
290.434	66.39
290.649	-25.77
290.864	25.43
291.079	33.62
291.294	82.77
291.509	11.09
291.724	-50.35
291.938	56.15
292.153	41.81
292.368	19.29
292.583	80.72
292.798	47.96
293.012	23.38
293.227	4.95
293.442	-46.25
293.657	37.72
293.871	54.1
294.086	84.82
294.301	-5.29
294.516	86.87
294.73	13.14
294.945	4.95
295.16	31.57
295.374	-11.43
295.589	72.53
295.804	2.9
296.018	66.39
296.233	68.44
296.447	82.77
296.662	25.43
296.877	39.76
297.091	-3.24
297.306	60.24
297.52	21.33
297.735	56.15
297.949	9.05
298.164	-3.24
298.378	45.91
298.593	56.15
298.807	27.48
299.022	-9.39
299.236	66.39
299.451	-29.87
299.665	37.72
299.88	93.01
300.094	-9.39
300.309	4.95
300.523	27.48
300.737	-29.87
300.952	111.44
301.166	19.29
301.381	133.97
301.595	-1.19
301.809	19.29
302.024	45.91
302.238	68.44
302.452	52.05
302.667	74.58
302.881	-15.53
303.095	-25.77
303.309	68.44
303.524	19.29
303.738	33.62
303.952	-21.67
304.166	41.81
304.381	13.14
304.595	9.05
304.809	68.44
305.023	76.63
305.237	21.33
305.452	37.72
305.666	-44.2
305.88	31.57
306.094	60.24
306.308	41.81
306.522	29.52
306.736	25.43
306.95	35.67
307.164	101.2
307.379	19.29
307.593	133.97
307.807	33.62
308.021	37.72
308.235	37.72
308.449	37.72
308.663	41.81
308.877	70.48
309.091	43.86
309.305	64.34
309.519	29.52
309.733	82.77
309.947	-21.67
310.161	17.24
310.374	7
310.588	101.2
310.802	-11.43
311.016	37.72
311.23	74.58
311.444	43.86
311.658	-38.06
311.872	62.29
312.085	31.57
312.299	15.19
312.513	82.77
312.727	82.77
312.941	19.29
313.154	-11.43
313.368	2.9
313.582	23.38
313.796	-15.53
314.009	72.53
314.223	31.57
314.437	-56.49
314.651	33.62
314.864	23.38
315.078	13.14
315.292	41.81
315.505	27.48
315.719	15.19
315.933	54.1
316.146	19.29
316.36	2.9
316.573	33.62
316.787	-3.24
317.001	121.68
317.214	4.95
317.428	97.11
317.641	13.14
317.855	64.34
318.068	54.1
318.282	9.05
318.495	50
318.709	33.62
318.922	-13.48
319.136	60.24
319.349	-7.34
319.563	21.33
319.776	74.58
319.99	25.43
320.203	80.72
320.417	37.72
320.63	19.29
320.843	33.62
321.057	60.24
321.27	-3.24
321.483	41.81
321.697	31.57
321.91	-7.34
322.124	-3.24
322.337	-1.19
322.55	50
322.763	19.29
322.977	64.34
323.19	-36.01
323.403	58.2
323.617	43.86
323.83	152.4
324.043	17.24
324.256	45.91
324.469	-27.82
324.683	25.43
324.896	41.81
325.109	109.4
325.322	15.19
325.535	37.72
325.748	21.33
325.962	39.76
326.175	-7.34
326.388	99.16
326.601	27.48
326.814	15.19
327.027	0.85
327.24	121.68
327.453	-27.82
327.666	56.15
327.879	47.96
328.092	21.33
328.305	35.67
328.518	-27.82
328.731	13.14
328.944	62.29
329.157	33.62
329.37	50
329.583	-19.63
329.796	82.77
330.009	84.82
330.222	29.52
330.435	47.96
330.648	-27.82
330.861	-17.58
331.073	52.05
331.286	56.15
331.499	66.39
331.712	72.53
331.925	60.24
332.138	68.44
332.35	50
332.563	19.29
332.776	0.85
332.989	19.29
333.202	21.33
333.414	86.87
333.627	41.81
333.84	37.72
334.053	131.92
334.265	-13.48
334.478	103.25
334.691	39.76
334.903	11.09
335.116	11.09
335.329	95.06
335.541	25.43
335.754	54.1
335.966	99.16
336.179	-3.24
336.392	58.2
336.604	99.16
336.817	23.38
337.029	56.15
337.242	60.24
337.454	37.72
337.667	25.43
337.88	74.58
338.092	64.34
338.305	-23.72
338.517	13.14
338.729	41.81
338.942	70.48
339.154	7
339.367	-1.19
339.579	80.72
339.792	64.34
340.004	4.95
340.217	31.57
340.429	58.2
340.641	47.96
340.854	101.2
341.066	-15.53
341.278	95.06
341.491	56.15
341.703	7
341.915	62.29
342.128	62.29
342.34	70.48
342.552	29.52
342.764	64.34
342.977	41.81
343.189	21.33
343.401	74.58
343.613	78.68
343.826	0.85
344.038	62.29
344.25	54.1
344.462	9.05
344.674	37.72
344.886	56.15
345.099	11.09
345.311	93.01
345.523	4.95
345.735	-50.35
345.947	33.62
346.159	29.52
346.371	45.91
346.583	2.9
346.795	29.52
347.007	33.62
347.219	-5.29
347.431	-11.43
347.643	78.68
347.855	68.44
348.067	70.48
348.279	62.29
348.491	68.44
348.703	78.68
348.915	-33.96
349.127	27.48
349.339	103.25
349.551	7
349.763	58.2
349.975	2.9
350.187	45.91
350.399	72.53
350.61	0.85
350.822	119.64
351.034	11.09
351.246	60.24
351.458	25.43
351.669	82.77
351.881	70.48
352.093	33.62
352.305	99.16
352.517	25.43
352.728	113.49
352.94	66.39
353.152	60.24
353.363	27.48
353.575	47.96
353.787	54.1
353.999	78.68
354.21	-25.77
354.422	109.4
354.633	21.33
354.845	-40.11
355.057	60.24
355.268	17.24
355.48	99.16
355.692	7
355.903	54.1
356.115	17.24
356.326	52.05
356.538	37.72
356.749	33.62
356.961	64.34
357.172	52.05
357.384	0.85
357.595	54.1
357.807	-3.24
358.018	54.1
358.23	58.2
358.441	88.92
358.653	17.24
358.864	50
359.075	58.2
359.287	17.24
359.498	109.4
359.709	119.64
359.921	58.2
360.132	25.43
360.344	60.24
360.555	68.44
360.766	39.76
360.977	45.91
361.189	66.39
361.4	17.24
361.611	33.62
361.823	115.54
362.034	103.25
362.245	15.19
362.456	156.5
362.667	13.14
362.879	62.29
363.09	66.39
363.301	82.77
363.512	47.96
363.723	19.29
363.935	9.05
364.146	58.2
364.357	17.24
364.568	2.9
364.779	31.57
364.99	25.43
365.201	21.33
365.412	66.39
365.623	11.09
365.834	58.2
366.045	37.72
366.256	25.43
366.467	68.44
366.678	13.14
366.889	-5.29
367.1	45.91
367.311	35.67
367.522	31.57
367.733	13.14
367.944	0.85
368.155	-11.43
368.366	62.29
368.577	25.43
368.788	62.29
368.999	31.57
369.209	99.16
369.42	60.24
369.631	86.87
369.842	13.14
370.053	50
370.264	0.85
370.474	-13.48
370.685	37.72
370.896	93.01
371.107	39.76
371.317	11.09
371.528	19.29
371.739	9.05
371.95	66.39
372.16	60.24
372.371	76.63
372.582	-5.29
372.792	37.72
373.003	7
373.214	74.58
373.424	41.81
373.635	43.86
373.846	107.35
374.056	41.81
374.267	58.2
374.477	-1.19
374.688	47.96
374.898	45.91
375.109	50
375.319	-27.82
375.53	74.58
375.74	111.44
375.951	25.43
376.161	54.1
376.372	84.82
376.582	80.72
376.793	-3.24
377.003	31.57
377.214	13.14
377.424	50
377.635	13.14
377.845	7
378.055	125.78
378.266	-3.24
378.476	9.05
378.686	56.15
378.897	31.57
379.107	78.68
379.317	68.44
379.528	-44.2
379.738	88.92
379.948	23.38
380.158	129.88
380.369	7
380.579	33.62
380.789	27.48
380.999	54.1
381.21	78.68
381.42	15.19
381.63	47.96
381.84	50
382.05	80.72
382.261	74.58
382.471	115.54
382.681	68.44
382.891	95.06
383.101	17.24
383.311	50
383.521	37.72
383.731	84.82
383.941	95.06
384.151	66.39
384.361	82.77
384.571	68.44
384.781	107.35
384.991	68.44
385.201	39.76
385.411	105.3
385.621	17.24
385.831	43.86
386.041	37.72
386.251	72.53
386.461	95.06
386.671	76.63
386.881	66.39
387.091	47.96
387.301	56.15
387.511	-13.48
387.72	29.52
387.93	52.05
388.14	45.91
388.35	66.39
388.56	125.78
388.769	86.87
388.979	-5.29
389.189	35.67
389.399	31.57
389.609	66.39
389.818	17.24
390.028	37.72
390.238	-3.24
390.447	72.53
390.657	31.57
390.867	-1.19
391.076	-40.11
391.286	66.39
391.496	80.72
391.705	50
391.915	80.72
392.125	90.96
392.334	107.35
392.544	54.1
392.753	74.58
392.963	74.58
393.172	23.38
393.382	60.24
393.591	66.39
393.801	60.24
394.01	-25.77
394.22	62.29
394.429	45.91
394.639	35.67
394.848	90.96
395.058	66.39
395.267	39.76
395.477	76.63
395.686	52.05
395.895	107.35
396.105	78.68
396.314	76.63
396.524	142.16
396.733	90.96
396.942	84.82
397.152	101.2
397.361	25.43
397.57	70.48
397.78	107.35
397.989	95.06
398.198	93.01
398.407	74.58
398.617	78.68
398.826	93.01
399.035	76.63
399.244	95.06
399.453	-93.35
399.663	17.24
399.872	136.02
400.081	82.77
400.29	64.34
400.499	35.67
400.708	45.91
400.917	50
401.127	123.73
401.336	109.4
401.545	101.2
401.754	64.34
401.963	107.35
402.172	64.34
402.381	2.9
402.59	84.82
402.799	127.83
403.008	43.86
403.217	152.4
403.426	123.73
403.635	131.92
403.844	142.16
404.053	95.06
404.262	70.48
404.471	97.11
404.68	136.02
404.888	136.02
405.097	117.59
405.306	107.35
405.515	174.93
405.724	107.35
405.933	76.63
406.142	131.92
406.35	158.55
406.559	119.64
406.768	127.83
406.977	168.79
407.185	70.48
407.394	150.36
407.603	176.98
407.812	207.7
408.02	140.12
408.229	226.13
408.438	142.16
408.646	150.36
408.855	197.46
409.064	201.55
409.272	129.88
409.481	207.7
409.69	230.23
409.898	156.5
410.107	201.55
410.315	260.95
410.524	283.47
410.733	303.95
410.941	215.89
411.15	303.95
411.358	283.47
411.567	367.44
411.775	299.86
411.984	351.06
412.192	250.71
412.401	332.62
412.609	328.53
412.818	344.91
413.026	330.58
413.234	351.06
413.443	365.39
413.651	379.73
413.86	363.34
414.068	488.27
414.276	422.73
414.485	445.26
414.693	459.6
414.901	508.75
415.11	480.08
415.318	607.05
415.526	486.22
415.734	553.8
415.943	490.32
416.151	568.14
416.359	576.33
416.567	611.15
416.776	527.18
416.984	572.24
417.192	611.15
417.4	674.64
417.608	715.59
417.817	684.87
418.025	709.45
418.233	783.18
418.441	742.22
418.649	869.19
418.857	854.86
419.065	858.95
419.273	867.14
419.481	852.81
419.689	975.69
419.897	981.83
420.105	1041.22
420.313	1092.42
420.521	1008.45
420.729	1188.68
420.937	1114.95
421.145	1219.39
421.353	1254.21
421.561	1237.83
421.769	1289.03
421.977	1377.09
422.185	1293.12
422.393	1471.29
422.601	1512.25
422.809	1567.55
423.017	1512.25
423.224	1592.13
423.432	1549.12
423.64	1604.41
423.848	1823.55
424.056	1749.82
424.263	1868.6
424.471	1958.71
424.679	1930.04
424.887	2044.73
425.094	2079.54
425.302	2136.88
425.51	2179.89
425.718	2251.57
425.925	2263.86
426.133	2347.83
426.341	2501.42
426.548	2587.44
426.756	2614.06
426.964	2646.83
427.171	2607.92
427.379	2822.95
427.586	2970.41
427.794	3076.9
428.001	3144.49
428.209	3158.82
428.417	3205.92
428.624	3384.1
428.832	3380
429.039	3429.15
429.247	3336.99
429.454	3844.89
429.662	3990.3
429.869	3578.65
430.076	3910.43
430.284	3830.55
430.491	4025.11
430.699	4205.33
430.906	4217.62
431.114	4236.05
431.321	4440.85
431.528	4619.02
431.736	4807.44
431.943	5057.29
432.15	4827.92
432.358	4946.7
432.565	5155.59
432.772	5122.82
432.979	5464.83
433.187	5604.1
433.394	5520.13
433.601	5833.47
433.808	5886.72
434.016	5909.24
434.223	6044.41
434.43	6560.5
434.637	6454
434.844	6798.06
435.052	6839.02
435.259	7133.93
435.466	7033.58
435.673	6814.45
435.88	7496.42
436.087	7697.12
436.294	7766.75
436.501	7508.71
436.708	7699.17
436.915	8022.75
437.122	8411.86
437.329	8209.11
437.537	8579.79
437.743	8841.93
437.95	8487.64
438.157	9091.79
438.364	9456.33
438.571	9351.88
438.778	9464.52
438.985	10433.21
439.192	9734.85
439.399	10277.56
439.606	9892.54
439.813	10535.6
440.02	11209.39
440.227	10906.29
440.433	10873.52
440.64	11403.94
440.847	11150
441.054	11322.02
441.261	12305.05
441.467	12092.06
441.674	12241.56
441.881	12737.17
442.088	12720.79
442.294	12567.19
442.501	13077.13
442.708	13419.14
442.914	13771.4
443.121	14236.28
443.328	13865.6
443.534	14699.13
443.741	14408.31
443.948	14092.93
444.154	15278.7
444.361	15073.9
444.568	15102.57
444.774	15176.3
444.981	15544.94
445.187	16038.5
445.394	16337.5
445.6	16226.91
445.807	17797.7
446.013	17132.11
446.22	17367.63
446.426	18166.34
446.633	18213.44
446.839	18999.86
447.046	17977.92
447.252	19128.88
447.459	19223.09
447.665	19192.37
447.871	19907.11
448.078	20515.36
448.284	19950.12
448.491	20064.8
448.697	20992.53
448.903	21586.44
449.11	21441.04
449.316	21256.72
449.522	21561.87
449.728	22098.44
449.935	22387.2
450.141	22315.52
450.347	22759.93
450.553	21895.69
450.76	22319.62
450.966	23269.87
451.172	22813.18
451.378	23280.11
451.584	22804.99
451.791	23525.87
451.997	23226.87
452.203	23820.78
452.409	23820.78
452.615	23769.58
452.821	22753.79
453.027	22551.04
453.233	23708.14
453.44	22637.05
453.646	22882.81
453.852	23302.64
454.058	23542.25
454.264	22692.35
454.47	23282.16
454.676	22800.89
454.882	23480.82
455.088	21760.52
455.294	22166.02
455.5	21983.75
455.705	22538.75
455.911	21391.89
456.117	21189.14
456.323	20929.05
456.529	19589.67
456.735	20550.17
456.941	20048.42
457.147	19907.11
457.352	19038.77
457.558	18729.53
457.764	19210.8
457.97	18643.51
458.176	18002.5
458.381	18086.47
458.587	17236.56
458.793	17558.09
458.999	16530.01
459.204	17695.3
459.41	17345.1
459.616	16208.48
459.821	15991.39
460.027	15983.2
460.233	15516.26
460.438	14998.13
460.644	15034.99
460.85	14252.67
461.055	14133.89
461.261	13931.14
461.466	13163.15
461.672	12704.4
461.878	13427.34
462.083	12759.7
462.289	12518.04
462.494	12225.18
462.7	11809.44
462.905	11479.72
463.111	11762.34
463.316	11915.94
463.522	11625.12
463.727	11600.55
463.932	11678.37
464.138	11438.76
464.343	11610.79
464.549	11231.91
464.754	11606.69
464.959	11481.77
465.165	11049.64
465.37	11053.74
465.575	10683.06
465.781	10850.99
465.986	11258.54
466.191	10781.36
466.397	10445.49
466.602	9904.83
466.807	10435.25
467.012	10330.81
467.218	10363.58
467.423	10209.98
467.628	10314.42
467.833	10873.52
468.038	10316.47
468.244	9898.69
468.449	10255.03
468.654	9980.61
468.859	9929.41
469.064	9966.27
469.269	9456.33
469.474	9757.38
469.679	9646.79
