Data from USB4F104151__126__13-57-57-118.txt Node

Date: Thu Mar 13 13:57:57 EDT 2025
User: louis
Spectrometer: USB4F10415
Trigger mode: 4
Integration Time (sec): 1.000000E-2
Scans to average: 1
Electric dark correction enabled: true
Nonlinearity correction enabled: false
Boxcar width: 0
XAxis mode: Wavelengths
Number of Pixels in Spectrum: 3648
>>>>>Begin Spectral Data<<<<<
178.204	-10.92
178.424	-10.92
178.644	-10.92
178.864	-119.46
179.084	-62.12
179.304	-19.11
179.524	44.37
179.744	-21.16
179.964	19.8
180.184	-19.11
180.404	3.41
180.624	17.75
180.844	30.04
181.064	21.85
181.283	7.51
181.503	-64.17
181.723	-21.16
181.943	-72.36
182.163	85.33
182.383	36.18
182.602	19.8
182.822	-6.83
183.042	-37.55
183.262	3.41
183.482	-55.98
183.701	48.47
183.921	60.76
184.141	-19.11
184.361	32.08
184.58	66.9
184.8	-27.31
185.02	27.99
185.239	107.86
185.459	27.99
185.679	58.71
185.898	-6.83
186.118	17.75
186.338	-8.87
186.557	27.99
186.777	52.56
186.997	52.56
187.216	17.75
187.436	1.37
187.655	-8.87
187.875	-10.92
188.095	13.65
188.314	-2.73
188.534	-29.35
188.753	95.57
188.973	60.76
189.192	44.37
189.412	103.76
189.631	89.43
189.851	3.41
190.07	15.7
190.29	27.99
190.509	17.75
190.729	71
190.948	25.94
191.168	66.9
191.387	15.7
191.607	34.13
191.826	62.8
192.045	60.76
192.265	11.61
192.484	75.09
192.704	-2.73
192.923	56.66
193.142	27.99
193.362	21.85
193.581	17.75
193.8	91.48
194.02	66.9
194.239	-10.92
194.458	52.56
194.678	15.7
194.897	9.56
195.116	9.56
195.335	66.9
195.555	32.08
195.774	50.52
195.993	107.86
196.212	17.75
196.432	34.13
196.651	-6.83
196.87	-6.83
197.089	56.66
197.308	5.46
197.528	38.23
197.747	-0.68
197.966	66.9
198.185	-4.78
198.404	50.52
198.623	-47.79
198.842	85.33
199.062	11.61
199.281	42.32
199.5	-12.97
199.719	17.75
199.938	68.95
200.157	91.48
200.376	54.61
200.595	23.89
200.814	-4.78
201.033	1.37
201.252	75.09
201.471	-4.78
201.69	-12.97
201.909	-2.73
202.128	-12.97
202.347	3.41
202.566	91.48
202.785	-15.02
203.004	11.61
203.223	95.57
203.442	30.04
203.661	52.56
203.879	52.56
204.098	-29.35
204.317	-8.87
204.536	9.56
204.755	68.95
204.974	15.7
205.193	-10.92
205.411	71
205.63	-6.83
205.849	32.08
206.068	-39.59
206.287	71
206.505	60.76
206.724	25.94
206.943	15.7
207.162	79.19
207.381	36.18
207.599	-0.68
207.818	13.65
208.037	68.95
208.255	-17.07
208.474	11.61
208.693	1.37
208.911	-31.4
209.13	17.75
209.349	21.85
209.567	79.19
209.786	48.47
210.005	48.47
210.223	-29.35
210.442	38.23
210.661	50.52
210.879	-0.68
211.098	52.56
211.316	40.28
211.535	21.85
211.753	25.94
211.972	9.56
212.191	27.99
212.409	34.13
212.628	154.96
212.846	-10.92
213.065	50.52
213.283	58.71
213.502	5.46
213.72	36.18
213.938	-10.92
214.157	77.14
214.375	36.18
214.594	42.32
214.812	-47.79
215.031	81.24
215.249	64.85
215.467	71
215.686	-10.92
215.904	36.18
216.122	87.38
216.341	73.04
216.559	-0.68
216.778	66.9
216.996	27.99
217.214	3.41
217.432	-53.93
217.651	58.71
217.869	-19.11
218.087	19.8
218.306	40.28
218.524	50.52
218.742	89.43
218.96	5.46
219.179	-60.07
219.397	-29.35
219.615	54.61
219.833	77.14
220.051	77.14
220.27	58.71
220.488	62.8
220.706	-55.98
220.924	9.56
221.142	75.09
221.36	19.8
221.578	34.13
221.796	-19.11
222.015	27.99
222.233	21.85
222.451	71
222.669	62.8
222.887	34.13
223.105	34.13
223.323	30.04
223.541	19.8
223.759	-2.73
223.977	11.61
224.195	34.13
224.413	-33.45
224.631	83.28
224.849	17.75
225.067	46.42
225.285	-8.87
225.503	-17.07
225.721	34.13
225.939	60.76
226.157	68.95
226.375	95.57
226.592	-51.88
226.81	44.37
227.028	-25.26
227.246	5.46
227.464	71
227.682	44.37
227.9	27.99
228.117	73.04
228.335	89.43
228.553	21.85
228.771	-37.55
228.989	9.56
229.206	64.85
229.424	52.56
229.642	25.94
229.86	17.75
230.077	15.7
230.295	-12.97
230.513	34.13
230.731	44.37
230.948	21.85
231.166	46.42
231.384	66.9
231.601	21.85
231.819	56.66
232.037	-0.68
232.254	19.8
232.472	-21.16
232.689	107.86
232.907	56.66
233.125	27.99
233.342	-10.92
233.56	9.56
233.777	19.8
233.995	79.19
234.213	93.52
234.43	25.94
234.648	46.42
234.865	44.37
235.083	36.18
235.3	71
235.518	36.18
235.735	-4.78
235.953	62.8
236.17	66.9
236.388	13.65
236.605	3.41
236.822	116.05
237.04	52.56
237.257	7.51
237.475	23.89
237.692	-12.97
237.909	-15.02
238.127	50.52
238.344	56.66
238.562	-10.92
238.779	-8.87
238.996	79.19
239.214	-4.78
239.431	17.75
239.648	-49.83
239.865	13.65
240.083	75.09
240.3	-0.68
240.517	25.94
240.735	48.47
240.952	85.33
241.169	21.85
241.386	-8.87
241.603	25.94
241.821	62.8
242.038	40.28
242.255	34.13
242.472	23.89
242.689	83.28
242.907	15.7
243.124	1.37
243.341	-35.5
243.558	3.41
243.775	54.61
243.992	21.85
244.209	19.8
244.426	56.66
244.643	62.8
244.86	60.76
245.078	15.7
245.295	-8.87
245.512	42.32
245.729	27.99
245.946	54.61
246.163	19.8
246.38	7.51
246.597	-10.92
246.814	19.8
247.031	79.19
247.248	58.71
247.464	75.09
247.681	32.08
247.898	58.71
248.115	38.23
248.332	66.9
248.549	101.72
248.766	-2.73
248.983	44.37
249.2	64.85
249.417	-0.68
249.633	-15.02
249.85	-43.69
250.067	-33.45
250.284	-10.92
250.501	46.42
250.717	54.61
250.934	-2.73
251.151	-41.64
251.368	56.66
251.585	13.65
251.801	-4.78
252.018	-10.92
252.235	66.9
252.451	-29.35
252.668	11.61
252.885	5.46
253.102	32.08
253.318	23.89
253.535	48.47
253.752	21.85
253.968	42.32
254.185	-15.02
254.401	3.41
254.618	13.65
254.835	48.47
255.051	34.13
255.268	21.85
255.484	30.04
255.701	42.32
255.917	30.04
256.134	-37.55
256.351	30.04
256.567	97.62
256.784	15.7
257	60.76
257.217	13.65
257.433	56.66
257.65	56.66
257.866	19.8
258.082	13.65
258.299	-15.02
258.515	99.67
258.732	-33.45
258.948	48.47
259.165	30.04
259.381	109.91
259.597	68.95
259.814	23.89
260.03	7.51
260.246	93.52
260.463	9.56
260.679	75.09
260.895	23.89
261.112	56.66
261.328	13.65
261.544	62.8
261.761	122.2
261.977	52.56
262.193	40.28
262.409	58.71
262.626	5.46
262.842	11.61
263.058	-2.73
263.274	56.66
263.49	-51.88
263.707	79.19
263.923	75.09
264.139	-2.73
264.355	1.37
264.571	17.75
264.787	-8.87
265.004	27.99
265.22	32.08
265.436	42.32
265.652	23.89
265.868	58.71
266.084	15.7
266.3	-49.83
266.516	48.47
266.732	71
266.948	21.85
267.164	52.56
267.38	56.66
267.596	36.18
267.812	17.75
268.028	58.71
268.244	54.61
268.46	66.9
268.676	50.52
268.892	30.04
269.108	1.37
269.324	52.56
269.54	17.75
269.756	75.09
269.972	-45.74
270.188	81.24
270.403	93.52
270.619	40.28
270.835	34.13
271.051	62.8
271.267	68.95
271.483	21.85
271.698	-10.92
271.914	38.23
272.13	46.42
272.346	15.7
272.562	9.56
272.777	5.46
272.993	13.65
273.209	52.56
273.425	48.47
273.64	58.71
273.856	42.32
274.072	58.71
274.287	-8.87
274.503	105.81
274.719	19.8
274.934	1.37
275.15	46.42
275.366	11.61
275.581	30.04
275.797	50.52
276.012	-39.59
276.228	38.23
276.444	54.61
276.659	13.65
276.875	75.09
277.09	68.95
277.306	13.65
277.521	15.7
277.737	50.52
277.952	25.94
278.168	60.76
278.383	93.52
278.599	58.71
278.814	-8.87
279.03	64.85
279.245	9.56
279.461	-4.78
279.676	-4.78
279.892	-23.21
280.107	83.28
280.322	77.14
280.538	27.99
280.753	-35.5
280.969	62.8
281.184	66.9
281.399	97.62
281.615	68.95
281.83	79.19
282.045	-33.45
282.26	60.76
282.476	23.89
282.691	30.04
282.906	56.66
283.122	11.61
283.337	-10.92
283.552	25.94
283.767	-47.79
283.983	50.52
284.198	-6.83
284.413	71
284.628	19.8
284.843	42.32
285.058	50.52
285.274	46.42
285.489	58.71
285.704	44.37
285.919	68.95
286.134	36.18
286.349	9.56
286.564	54.61
286.779	27.99
286.995	5.46
287.21	66.9
287.425	66.9
287.64	73.04
287.855	-6.83
288.07	13.65
288.285	52.56
288.5	32.08
288.715	89.43
288.93	11.61
289.145	99.67
289.36	83.28
289.575	50.52
289.79	58.71
290.004	54.61
290.219	23.89
290.434	-4.78
290.649	25.94
290.864	77.14
291.079	114
291.294	-4.78
291.509	44.37
291.724	-8.87
291.938	23.89
292.153	11.61
292.368	3.41
292.583	60.76
292.798	21.85
293.012	83.28
293.227	30.04
293.442	30.04
293.657	-2.73
293.871	58.71
294.086	85.33
294.301	66.9
294.516	30.04
294.73	23.89
294.945	5.46
295.16	13.65
295.374	44.37
295.589	99.67
295.804	-6.83
296.018	114
296.233	60.76
296.447	-19.11
296.662	15.7
296.877	30.04
297.091	5.46
297.306	-12.97
297.52	89.43
297.735	66.9
297.949	19.8
298.164	34.13
298.378	71
298.593	48.47
298.807	-6.83
299.022	11.61
299.236	62.8
299.451	36.18
299.665	42.32
299.88	126.29
300.094	54.61
300.309	62.8
300.523	25.94
300.737	-4.78
300.952	21.85
301.166	91.48
301.381	60.76
301.595	58.71
301.809	3.41
302.024	11.61
302.238	52.56
302.452	19.8
302.667	32.08
302.881	21.85
303.095	85.33
303.309	66.9
303.524	25.94
303.738	56.66
303.952	32.08
304.166	109.91
304.381	32.08
304.595	58.71
304.809	56.66
305.023	-19.11
305.237	73.04
305.452	-12.97
305.666	9.56
305.88	34.13
306.094	-23.21
306.308	138.58
306.522	68.95
306.736	13.65
306.95	50.52
307.164	66.9
307.379	46.42
307.593	83.28
307.807	40.28
308.021	19.8
308.235	79.19
308.449	101.72
308.663	-41.64
308.877	85.33
309.091	17.75
309.305	23.89
309.519	1.37
309.733	93.52
309.947	13.65
310.161	44.37
310.374	56.66
310.588	64.85
310.802	60.76
311.016	-29.35
311.23	-8.87
311.444	124.24
311.658	32.08
311.872	27.99
312.085	1.37
312.299	60.76
312.513	19.8
312.727	-0.68
312.941	32.08
313.154	25.94
313.368	-43.69
313.582	62.8
313.796	91.48
314.009	122.2
314.223	-35.5
314.437	19.8
314.651	11.61
314.864	-21.16
315.078	11.61
315.292	58.71
315.505	36.18
315.719	83.28
315.933	87.38
316.146	46.42
316.36	17.75
316.573	116.05
316.787	3.41
317.001	75.09
317.214	54.61
317.428	-43.69
317.641	-10.92
317.855	95.57
318.068	11.61
318.282	52.56
318.495	118.1
318.709	58.71
318.922	21.85
319.136	87.38
319.349	60.76
319.563	25.94
319.776	58.71
319.99	23.89
320.203	13.65
320.417	17.75
320.63	48.47
320.843	62.8
321.057	-51.88
321.27	42.32
321.483	38.23
321.697	136.53
321.91	32.08
322.124	91.48
322.337	-4.78
322.55	13.65
322.763	107.86
322.977	-12.97
323.19	5.46
323.403	23.89
323.617	73.04
323.83	85.33
324.043	32.08
324.256	11.61
324.469	30.04
324.683	54.61
324.896	-25.26
325.109	50.52
325.322	46.42
325.535	97.62
325.748	56.66
325.962	97.62
326.175	44.37
326.388	15.7
326.601	1.37
326.814	15.7
327.027	68.95
327.24	58.71
327.453	-12.97
327.666	1.37
327.879	66.9
328.092	34.13
328.305	-8.87
328.518	50.52
328.731	109.91
328.944	71
329.157	91.48
329.37	46.42
329.583	44.37
329.796	-12.97
330.009	62.8
330.222	116.05
330.435	95.57
330.648	38.23
330.861	-23.21
331.073	58.71
331.286	83.28
331.499	15.7
331.712	-47.79
331.925	111.96
332.138	52.56
332.35	25.94
332.563	-0.68
332.776	101.72
332.989	-12.97
333.202	36.18
333.414	54.61
333.627	44.37
333.84	32.08
334.053	32.08
334.265	54.61
334.478	48.47
334.691	-0.68
334.903	36.18
335.116	25.94
335.329	85.33
335.541	81.24
335.754	46.42
335.966	75.09
336.179	-6.83
336.392	60.76
336.604	13.65
336.817	-37.55
337.029	52.56
337.242	-29.35
337.454	52.56
337.667	38.23
337.88	48.47
338.092	95.57
338.305	116.05
338.517	36.18
338.729	44.37
338.942	17.75
339.154	-4.78
339.367	-23.21
339.579	124.24
339.792	64.85
340.004	27.99
340.217	-12.97
340.429	36.18
340.641	42.32
340.854	44.37
341.066	64.85
341.278	52.56
341.491	40.28
341.703	97.62
341.915	17.75
342.128	9.56
342.34	60.76
342.552	71
342.764	11.61
342.977	52.56
343.189	36.18
343.401	44.37
343.613	36.18
343.826	75.09
344.038	79.19
344.25	99.67
344.462	9.56
344.674	40.28
344.886	-15.02
345.099	42.32
345.311	105.81
345.523	-8.87
345.735	66.9
345.947	124.24
346.159	44.37
346.371	42.32
346.583	44.37
346.795	91.48
347.007	34.13
347.219	91.48
347.431	71
347.643	38.23
347.855	19.8
348.067	83.28
348.279	60.76
348.491	19.8
348.703	25.94
348.915	36.18
349.127	9.56
349.339	15.7
349.551	58.71
349.763	83.28
349.975	-0.68
350.187	142.68
350.399	87.38
350.61	66.9
350.822	27.99
351.034	83.28
351.246	21.85
351.458	52.56
351.669	9.56
351.881	9.56
352.093	85.33
352.305	21.85
352.517	36.18
352.728	40.28
352.94	58.71
353.152	109.91
353.363	-4.78
353.575	132.44
353.787	93.52
353.999	-2.73
354.21	-45.74
354.422	66.9
354.633	54.61
354.845	64.85
355.057	93.52
355.268	109.91
355.48	-23.21
355.692	5.46
355.903	60.76
356.115	36.18
356.326	48.47
356.538	52.56
356.749	-12.97
356.961	46.42
357.172	40.28
357.384	5.46
357.595	15.7
357.807	62.8
358.018	13.65
358.23	-6.83
358.441	138.58
358.653	9.56
358.864	71
359.075	46.42
359.287	66.9
359.498	68.95
359.709	-4.78
359.921	-10.92
360.132	34.13
360.344	97.62
360.555	32.08
360.766	64.85
360.977	114
361.189	36.18
361.4	66.9
361.611	-2.73
361.823	79.19
362.034	140.63
362.245	62.8
362.456	-19.11
362.667	23.89
362.879	-17.07
363.09	-15.02
363.301	64.85
363.512	3.41
363.723	30.04
363.935	66.9
364.146	60.76
364.357	79.19
364.568	66.9
364.779	89.43
364.99	126.29
365.201	25.94
365.412	34.13
365.623	-29.35
365.834	62.8
366.045	73.04
366.256	27.99
366.467	54.61
366.678	19.8
366.889	36.18
367.1	32.08
367.311	9.56
367.522	91.48
367.733	77.14
367.944	79.19
368.155	99.67
368.366	34.13
368.577	56.66
368.788	132.44
368.999	27.99
369.209	85.33
369.42	3.41
369.631	73.04
369.842	48.47
370.053	44.37
370.264	34.13
370.474	56.66
370.685	54.61
370.896	13.65
371.107	25.94
371.317	42.32
371.528	71
371.739	42.32
371.95	7.51
372.16	5.46
372.371	79.19
372.582	77.14
372.792	77.14
373.003	21.85
373.214	50.52
373.424	64.85
373.635	62.8
373.846	118.1
374.056	81.24
374.267	46.42
374.477	38.23
374.688	-12.97
374.898	-31.4
375.109	7.51
375.319	71
375.53	38.23
375.74	48.47
375.951	62.8
376.161	85.33
376.372	9.56
376.582	1.37
376.793	77.14
377.003	-25.26
377.214	34.13
377.424	17.75
377.635	19.8
377.845	62.8
378.055	21.85
378.266	52.56
378.476	73.04
378.686	109.91
378.897	64.85
379.107	42.32
379.317	62.8
379.528	38.23
379.738	73.04
379.948	30.04
380.158	73.04
380.369	75.09
380.579	42.32
380.789	91.48
380.999	75.09
381.21	52.56
381.42	109.91
381.63	-31.4
381.84	85.33
382.05	1.37
382.261	54.61
382.471	89.43
382.681	56.66
382.891	-29.35
383.101	64.85
383.311	9.56
383.521	93.52
383.731	42.32
383.941	66.9
384.151	75.09
384.361	23.89
384.571	118.1
384.781	87.38
384.991	54.61
385.201	54.61
385.411	50.52
385.621	60.76
385.831	42.32
386.041	60.76
386.251	105.81
386.461	73.04
386.671	64.85
386.881	19.8
387.091	48.47
387.301	48.47
387.511	21.85
387.72	11.61
387.93	50.52
388.14	9.56
388.35	120.15
388.56	75.09
388.769	75.09
388.979	75.09
389.189	42.32
389.399	97.62
389.609	62.8
389.818	79.19
390.028	48.47
390.238	75.09
390.447	30.04
390.657	103.76
390.867	7.51
391.076	62.8
391.286	99.67
391.496	52.56
391.705	9.56
391.915	48.47
392.125	27.99
392.334	114
392.544	109.91
392.753	15.7
392.963	118.1
393.172	101.72
393.382	83.28
393.591	46.42
393.801	3.41
394.01	142.68
394.22	68.95
394.429	34.13
394.639	111.96
394.848	95.57
395.058	46.42
395.267	99.67
395.477	75.09
395.686	25.94
395.895	134.48
396.105	50.52
396.314	56.66
396.524	89.43
396.733	99.67
396.942	89.43
397.152	25.94
397.361	152.91
397.57	118.1
397.78	161.11
397.989	114
398.198	60.76
398.407	148.82
398.617	134.48
398.826	64.85
399.035	152.91
399.244	144.72
399.453	71
399.663	118.1
399.872	64.85
400.081	71
400.29	101.72
400.499	30.04
400.708	167.25
400.917	15.7
401.127	87.38
401.336	120.15
401.545	142.68
401.754	66.9
401.963	85.33
402.172	85.33
402.381	58.71
402.59	107.86
402.799	154.96
403.008	120.15
403.217	101.72
403.426	159.06
403.635	134.48
403.844	157.01
404.053	126.29
404.262	38.23
404.471	183.63
404.68	130.39
404.888	136.53
405.097	60.76
405.306	91.48
405.515	126.29
405.724	105.81
405.933	185.68
406.142	124.24
406.35	136.53
406.559	159.06
406.768	222.55
406.977	204.11
407.185	167.25
407.394	238.93
407.603	222.55
407.812	214.35
408.02	161.11
408.229	185.68
408.438	167.25
408.646	200.02
408.855	157.01
409.064	263.51
409.272	251.22
409.481	273.75
409.69	251.22
409.898	251.22
410.107	384.34
410.315	228.69
410.524	283.99
410.733	296.27
410.941	398.67
411.15	306.51
411.358	314.7
411.567	363.86
411.775	333.14
411.984	382.29
412.192	351.57
412.401	460.11
412.609	376.14
412.818	423.25
413.026	441.68
413.234	445.77
413.443	456.01
413.651	427.34
413.86	511.31
414.068	566.6
414.276	523.6
414.485	562.51
414.693	513.36
414.901	552.27
415.11	615.76
415.318	605.52
415.526	599.37
415.734	718.15
415.943	730.44
416.151	679.24
416.359	689.48
416.567	795.98
416.776	857.42
416.984	804.17
417.192	877.9
417.4	898.38
417.608	838.98
417.817	888.14
418.025	951.62
418.233	1013.06
418.441	935.24
418.649	978.25
418.857	1142.08
419.065	1068.36
419.273	1054.02
419.481	1125.7
419.689	1258.82
419.897	1236.29
420.105	1340.74
420.313	1289.54
420.521	1353.02
420.729	1355.07
420.937	1566.01
421.145	1393.98
421.353	1590.59
421.561	1668.41
421.769	1664.32
421.977	1686.84
422.185	1799.48
422.393	1799.48
422.601	1965.37
422.809	2041.14
423.017	1953.08
423.224	2135.35
423.432	2127.16
423.64	2180.4
423.848	2331.95
424.056	2276.66
424.263	2450.74
424.471	2528.56
424.679	2497.84
424.887	2645.29
425.094	2577.71
425.302	2665.77
425.51	2712.88
425.718	2929.96
425.925	2905.38
426.133	3079.46
426.341	3265.83
426.548	3335.46
426.756	3388.71
426.964	3390.75
427.171	3607.84
427.379	3753.24
427.586	3775.77
427.794	3833.11
428.001	4009.24
428.209	4152.6
428.417	4199.7
428.624	4560.14
428.832	4556.05
429.039	4472.08
429.247	4439.31
429.454	4824.33
429.662	5106.95
429.869	4885.77
430.076	5135.62
430.284	4877.58
430.491	5211.4
430.699	5489.92
430.906	5453.06
431.114	5455.11
431.321	5790.97
431.528	5887.23
431.736	6268.15
431.943	6503.67
432.15	6370.55
432.358	6460.66
432.565	6745.33
432.772	6925.55
432.979	7101.67
433.187	7210.22
433.394	7152.87
433.601	7910.62
433.808	7818.46
434.016	7744.74
434.223	7976.16
434.43	8627.41
434.637	8447.19
434.844	8934.6
435.052	9223.37
435.259	9039.05
435.466	9002.19
435.673	9043.15
435.88	9530.56
436.087	10091.71
436.294	10040.51
436.501	9931.97
436.708	10339.51
436.915	10376.38
437.122	10798.26
437.329	10687.67
437.537	11144.36
437.743	11416.74
437.95	11443.37
438.157	11900.06
438.364	12336.28
438.571	12393.62
438.778	12326.04
438.985	13311.11
439.192	12883.09
439.399	13405.32
439.606	12983.44
439.813	13720.71
440.02	14615.67
440.227	14447.74
440.433	14279.8
440.64	14756.98
440.847	14523.51
441.054	14982.26
441.261	15979.62
441.467	15447.15
441.674	15801.44
441.881	16438.36
442.088	16475.23
442.294	16327.77
442.501	16708.69
442.708	17114.19
442.914	17593.42
443.121	18598.97
443.328	18103.36
443.534	19463.21
443.741	19094.58
443.948	18615.35
444.154	20026.4
444.361	19700.78
444.568	19999.78
444.774	20145.19
444.981	20200.48
445.187	20837.4
445.394	21705.74
445.6	21445.65
445.807	23356.4
446.013	22160.39
446.22	22694.91
446.426	23647.21
446.633	23843.82
446.839	24425.44
447.046	23426.03
447.252	25043.93
447.459	25029.59
447.665	24742.88
447.871	25686.99
448.078	26833.85
448.284	25777.1
448.491	26575.81
448.697	27255.73
448.903	27605.94
449.11	28062.63
449.316	27517.87
449.522	28304.29
449.728	28916.64
449.935	29062.04
450.141	28904.35
450.347	29621.14
450.553	28597.15
450.76	29094.81
450.966	29926.28
451.172	29741.97
451.378	30385.03
451.584	29660.05
451.791	30303.11
451.997	30432.13
452.203	31005.56
452.409	30757.76
452.615	30724.99
452.821	29772.69
453.027	29268.89
453.233	30641.03
453.44	29504.4
453.646	30057.35
453.852	30043.02
454.058	30722.94
454.264	29565.84
454.47	30198.66
454.676	29246.36
454.882	30444.42
455.088	27737.01
455.294	28079.02
455.5	28918.68
455.705	28908.44
455.911	27861.93
456.117	27292.6
456.323	27018.17
456.529	25209.81
456.735	26756.03
456.941	25740.24
457.147	25334.74
457.352	25037.78
457.558	24605.66
457.764	24349.67
457.97	23940.07
458.176	23100.4
458.381	23383.02
458.587	22371.33
458.793	22434.81
458.999	21341.2
459.204	22936.57
459.41	22217.73
459.616	20859.93
459.821	20620.31
460.027	20771.86
460.233	20014.12
460.438	19043.38
460.644	19377.2
460.85	18744.38
461.055	18152.51
461.261	17964.1
461.466	16837.72
461.672	16215.13
461.878	17540.17
462.083	16118.88
462.289	16163.93
462.494	15944.8
462.7	15062.13
462.905	14625.91
463.111	15613.03
463.316	15203.44
463.522	14904.43
463.727	15058.03
463.932	14822.52
464.138	14771.32
464.343	14978.16
464.549	14322.81
464.754	14742.64
464.959	14974.06
465.165	14842.99
465.37	14079.1
465.575	13833.35
465.781	14357.63
465.986	14374.01
466.191	13997.18
466.397	13577.35
466.602	12946.58
466.807	13489.29
467.012	13321.35
467.218	13272.2
467.423	13335.69
467.628	13325.45
467.833	13712.52
468.038	13239.44
468.244	12727.44
468.449	13485.19
468.654	12809.36
468.859	12883.09
469.064	12887.18
