Data from USB4F104151__206__13-59-54-865.txt Node

Date: Thu Mar 13 13:59:54 EDT 2025
User: louis
Spectrometer: USB4F10415
Trigger mode: 4
Integration Time (sec): 1.000000E-2
Scans to average: 1
Electric dark correction enabled: true
Nonlinearity correction enabled: false
Boxcar width: 0
XAxis mode: Wavelengths
Number of Pixels in Spectrum: 3648
>>>>>Begin Spectral Data<<<<<
178.204	-55.81
178.424	-55.81
178.644	-55.81
178.864	-39.42
179.084	-8.7
179.304	-14.85
179.524	-29.18
179.744	-86.53
179.964	3.58
180.184	19.97
180.404	60.93
180.624	17.92
180.844	22.02
181.064	-16.9
181.283	-72.19
181.503	52.74
181.723	42.5
181.943	60.93
182.163	-16.9
182.383	34.3
182.602	75.26
182.822	-31.23
183.042	19.97
183.262	73.21
183.482	128.51
183.701	52.74
183.921	42.5
184.141	11.78
184.361	-64
184.58	58.88
184.8	13.82
185.02	-6.66
185.239	81.41
185.459	15.87
185.679	50.69
185.898	26.11
186.118	50.69
186.338	30.21
186.557	-12.8
186.777	-78.33
186.997	58.88
187.216	108.03
187.436	54.78
187.655	62.98
187.875	46.59
188.095	-49.66
188.314	77.31
188.534	-2.56
188.753	101.89
188.973	34.3
189.192	103.93
189.412	73.21
189.631	40.45
189.851	-10.75
190.07	46.59
190.29	56.83
190.509	1.54
190.729	28.16
190.948	22.02
191.168	83.45
191.387	3.58
191.607	5.63
191.826	50.69
192.045	-4.61
192.265	-20.99
192.484	9.73
192.704	34.3
192.923	-51.71
193.142	-4.61
193.362	73.21
193.581	-8.7
193.8	42.5
194.02	36.35
194.239	-0.51
194.458	50.69
194.678	5.63
194.897	13.82
195.116	5.63
195.335	54.78
195.555	22.02
195.774	13.82
195.993	3.58
196.212	-4.61
196.432	-10.75
196.651	34.3
196.87	15.87
197.089	95.74
197.308	-39.42
197.528	116.22
197.747	-29.18
197.966	3.58
198.185	7.68
198.404	44.54
198.623	11.78
198.842	81.41
199.062	50.69
199.281	62.98
199.5	-33.28
199.719	-12.8
199.938	13.82
200.157	85.5
200.376	26.11
200.595	83.45
200.814	-14.85
201.033	-53.76
201.252	26.11
201.471	44.54
201.69	99.84
201.909	26.11
202.128	38.4
202.347	60.93
202.566	-27.14
202.785	32.26
203.004	-35.33
203.223	99.84
203.442	81.41
203.661	-23.04
203.879	17.92
204.098	81.41
204.317	-23.04
204.536	77.31
204.755	17.92
204.974	87.55
205.193	-27.14
205.411	15.87
205.63	28.16
205.849	-27.14
206.068	99.84
206.287	-2.56
206.505	-16.9
206.724	89.6
206.943	81.41
207.162	-23.04
207.381	69.12
207.599	-18.94
207.818	-8.7
208.037	7.68
208.255	95.74
208.474	5.63
208.693	28.16
208.911	9.73
209.13	58.88
209.349	48.64
209.567	50.69
209.786	-14.85
210.005	17.92
210.223	-2.56
210.442	-12.8
210.661	110.08
210.879	1.54
211.098	36.35
211.316	69.12
211.535	5.63
211.753	69.12
211.972	91.65
212.191	77.31
212.409	81.41
212.628	19.97
212.846	52.74
213.065	11.78
213.283	17.92
213.502	-59.9
213.72	-23.04
213.938	42.5
214.157	42.5
214.375	26.11
214.594	-8.7
214.812	36.35
215.031	17.92
215.249	15.87
215.467	89.6
215.686	3.58
215.904	56.83
216.122	-6.66
216.341	-6.66
216.559	19.97
216.778	42.5
216.996	56.83
217.214	1.54
217.432	-27.14
217.651	71.17
217.869	-49.66
218.087	-31.23
218.306	75.26
218.524	19.97
218.742	9.73
218.96	62.98
219.179	26.11
219.397	50.69
219.615	108.03
219.833	-47.62
220.051	-14.85
220.27	54.78
220.488	22.02
220.706	87.55
220.924	30.21
221.142	69.12
221.36	1.54
221.578	69.12
221.796	62.98
222.015	79.36
222.233	95.74
222.451	50.69
222.669	17.92
222.887	52.74
223.105	50.69
223.323	-8.7
223.541	-29.18
223.759	22.02
223.977	-43.52
224.195	11.78
224.413	67.07
224.631	-12.8
224.849	19.97
225.067	19.97
225.285	9.73
225.503	58.88
225.721	99.84
225.939	26.11
226.157	101.89
226.375	73.21
226.592	26.11
226.81	-14.85
227.028	85.5
227.246	19.97
227.464	7.68
227.682	-33.28
227.9	9.73
228.117	-6.66
228.335	-18.94
228.553	69.12
228.771	-47.62
228.989	54.78
229.206	69.12
229.424	-27.14
229.642	30.21
229.86	38.4
230.077	19.97
230.295	24.06
230.513	75.26
230.731	75.26
230.948	11.78
231.166	-6.66
231.384	48.64
231.601	19.97
231.819	83.45
232.037	22.02
232.254	7.68
232.472	-2.56
232.689	26.11
232.907	-2.56
233.125	42.5
233.342	22.02
233.56	-16.9
233.777	69.12
233.995	56.83
234.213	60.93
234.43	-12.8
234.648	11.78
234.865	-10.75
235.083	19.97
235.3	3.58
235.518	52.74
235.735	1.54
235.953	50.69
236.17	34.3
236.388	38.4
236.605	71.17
236.822	15.87
237.04	95.74
237.257	17.92
237.475	-10.75
237.692	22.02
237.909	5.63
238.127	42.5
238.344	1.54
238.562	19.97
238.779	19.97
238.996	-8.7
239.214	79.36
239.431	22.02
239.648	28.16
239.865	28.16
240.083	-8.7
240.3	91.65
240.517	-0.51
240.735	48.64
240.952	-14.85
241.169	44.54
241.386	7.68
241.603	58.88
241.821	-6.66
242.038	79.36
242.255	40.45
242.472	44.54
242.689	-55.81
242.907	71.17
243.124	50.69
243.341	22.02
243.558	26.11
243.775	-12.8
243.992	-0.51
244.209	9.73
244.426	-4.61
244.643	77.31
244.86	17.92
245.078	44.54
245.295	17.92
245.512	83.45
245.729	24.06
245.946	108.03
246.163	34.3
246.38	17.92
246.597	3.58
246.814	24.06
247.031	71.17
247.248	-4.61
247.464	67.07
247.681	77.31
247.898	75.26
248.115	56.83
248.332	-33.28
248.549	44.54
248.766	5.63
248.983	28.16
249.2	24.06
249.417	67.07
249.633	38.4
249.85	128.51
250.067	71.17
250.284	91.65
250.501	-43.52
250.717	30.21
250.934	-49.66
251.151	89.6
251.368	-10.75
251.585	58.88
251.801	22.02
252.018	48.64
252.235	56.83
252.451	83.45
252.668	38.4
252.885	60.93
253.102	30.21
253.318	75.26
253.535	-2.56
253.752	36.35
253.968	118.27
254.185	99.84
254.401	28.16
254.618	26.11
254.835	19.97
255.051	87.55
255.268	108.03
255.484	-4.61
255.701	36.35
255.917	11.78
256.134	60.93
256.351	19.97
256.567	75.26
256.784	5.63
257	11.78
257.217	44.54
257.433	26.11
257.65	52.74
257.866	83.45
258.082	85.5
258.299	-6.66
258.515	-6.66
258.732	34.3
258.948	83.45
259.165	60.93
259.381	56.83
259.597	26.11
259.814	36.35
260.03	69.12
260.246	38.4
260.463	73.21
260.679	77.31
260.895	28.16
261.112	52.74
261.328	77.31
261.544	54.78
261.761	15.87
261.977	-18.94
262.193	-10.75
262.409	77.31
262.626	46.59
262.842	-31.23
263.058	-6.66
263.274	-4.61
263.49	36.35
263.707	83.45
263.923	50.69
264.139	19.97
264.355	108.03
264.571	42.5
264.787	48.64
265.004	60.93
265.22	-14.85
265.436	1.54
265.652	9.73
265.868	46.59
266.084	1.54
266.3	-27.14
266.516	44.54
266.732	120.32
266.948	1.54
267.164	42.5
267.38	60.93
267.596	65.02
267.812	54.78
268.028	77.31
268.244	-10.75
268.46	19.97
268.676	58.88
268.892	105.98
269.108	-27.14
269.324	42.5
269.54	13.82
269.756	65.02
269.972	79.36
270.188	89.6
270.403	13.82
270.619	50.69
270.835	71.17
271.051	126.46
271.267	52.74
271.483	-20.99
271.698	26.11
271.914	75.26
272.13	157.18
272.346	67.07
272.562	77.31
272.777	34.3
272.993	11.78
273.209	34.3
273.425	67.07
273.64	-18.94
273.856	5.63
274.072	-2.56
274.287	42.5
274.503	75.26
274.719	40.45
274.934	56.83
275.15	34.3
275.366	-4.61
275.581	36.35
275.797	58.88
276.012	95.74
276.228	54.78
276.444	54.78
276.659	19.97
276.875	-6.66
277.09	44.54
277.306	15.87
277.521	-8.7
277.737	56.83
277.952	52.74
278.168	42.5
278.383	50.69
278.599	46.59
278.814	-12.8
279.03	75.26
279.245	83.45
279.461	42.5
279.676	48.64
279.892	34.3
280.107	58.88
280.322	-6.66
280.538	36.35
280.753	-6.66
280.969	42.5
281.184	-6.66
281.399	-0.51
281.615	56.83
281.83	77.31
282.045	-43.52
282.26	17.92
282.476	44.54
282.691	19.97
282.906	60.93
283.122	83.45
283.337	50.69
283.552	46.59
283.767	44.54
283.983	91.65
284.198	15.87
284.413	44.54
284.628	91.65
284.843	60.93
285.058	36.35
285.274	95.74
285.489	42.5
285.704	67.07
285.919	-10.75
286.134	3.58
286.349	38.4
286.564	42.5
286.779	-25.09
286.995	65.02
287.21	52.74
287.425	62.98
287.64	50.69
287.855	48.64
288.07	13.82
288.285	11.78
288.5	103.93
288.715	52.74
288.93	99.84
289.145	52.74
289.36	60.93
289.575	75.26
289.79	67.07
290.004	79.36
290.219	-4.61
290.434	-39.42
290.649	30.21
290.864	-14.85
291.079	38.4
291.294	103.93
291.509	5.63
291.724	22.02
291.938	-57.86
292.153	1.54
292.368	22.02
292.583	75.26
292.798	75.26
293.012	46.59
293.227	28.16
293.442	77.31
293.657	22.02
293.871	75.26
294.086	77.31
294.301	1.54
294.516	83.45
294.73	24.06
294.945	58.88
295.16	44.54
295.374	9.73
295.589	110.08
295.804	-10.75
296.018	44.54
296.233	19.97
296.447	50.69
296.662	67.07
296.877	9.73
297.091	38.4
297.306	38.4
297.52	-23.04
297.735	-20.99
297.949	91.65
298.164	42.5
298.378	97.79
298.593	-16.9
298.807	-23.04
299.022	65.02
299.236	42.5
299.451	58.88
299.665	1.54
299.88	75.26
300.094	60.93
300.309	54.78
300.523	-6.66
300.737	46.59
300.952	28.16
301.166	-10.75
301.381	28.16
301.595	101.89
301.809	38.4
302.024	95.74
302.238	81.41
302.452	85.5
302.667	1.54
302.881	89.6
303.095	58.88
303.309	52.74
303.524	17.92
303.738	11.78
303.952	52.74
304.166	28.16
304.381	3.58
304.595	42.5
304.809	-12.8
305.023	99.84
305.237	75.26
305.452	-72.19
305.666	56.83
305.88	36.35
306.094	46.59
306.308	15.87
306.522	30.21
306.736	30.21
306.95	89.6
307.164	67.07
307.379	32.26
307.593	54.78
307.807	101.89
308.021	60.93
308.235	50.69
308.449	54.78
308.663	17.92
308.877	67.07
309.091	30.21
309.305	69.12
309.519	38.4
309.733	7.68
309.947	75.26
310.161	19.97
310.374	83.45
310.588	85.5
310.802	-18.94
311.016	69.12
311.23	130.56
311.444	58.88
311.658	89.6
311.872	67.07
312.085	54.78
312.299	99.84
312.513	-4.61
312.727	108.03
312.941	103.93
313.154	7.68
313.368	97.79
313.582	58.88
313.796	54.78
314.009	30.21
314.223	87.55
314.437	60.93
314.651	58.88
314.864	7.68
315.078	32.26
315.292	56.83
315.505	34.3
315.719	122.37
315.933	56.83
316.146	97.79
316.36	-20.99
316.573	83.45
316.787	13.82
317.001	52.74
317.214	87.55
317.428	79.36
317.641	69.12
317.855	85.5
318.068	83.45
318.282	5.63
318.495	69.12
318.709	83.45
318.922	26.11
319.136	69.12
319.349	44.54
319.563	65.02
319.776	65.02
319.99	28.16
320.203	99.84
320.417	83.45
320.63	71.17
320.843	89.6
321.057	67.07
321.27	-6.66
321.483	97.79
321.697	77.31
321.91	67.07
322.124	62.98
322.337	-4.61
322.55	87.55
322.763	73.21
322.977	50.69
323.19	-0.51
323.403	128.51
323.617	48.64
323.83	62.98
324.043	26.11
324.256	19.97
324.469	22.02
324.683	73.21
324.896	-2.56
325.109	32.26
325.322	-0.51
325.535	79.36
325.748	5.63
325.962	56.83
326.175	93.69
326.388	3.58
326.601	46.59
326.814	32.26
327.027	69.12
327.24	13.82
327.453	17.92
327.666	77.31
327.879	69.12
328.092	73.21
328.305	73.21
328.518	58.88
328.731	22.02
328.944	30.21
329.157	46.59
329.37	65.02
329.583	24.06
329.796	48.64
330.009	69.12
330.222	50.69
330.435	77.31
330.648	46.59
330.861	69.12
331.073	65.02
331.286	34.3
331.499	97.79
331.712	48.64
331.925	54.78
332.138	58.88
332.35	75.26
332.563	9.73
332.776	1.54
332.989	26.11
333.202	46.59
333.414	91.65
333.627	-23.04
333.84	122.37
334.053	-14.85
334.265	7.68
334.478	60.93
334.691	30.21
334.903	1.54
335.116	28.16
335.329	26.11
335.541	93.69
335.754	11.78
335.966	122.37
336.179	60.93
336.392	34.3
336.604	58.88
336.817	19.97
337.029	38.4
337.242	69.12
337.454	134.65
337.667	40.45
337.88	99.84
338.092	40.45
338.305	83.45
338.517	32.26
338.729	79.36
338.942	28.16
339.154	38.4
339.367	-29.18
339.579	60.93
339.792	50.69
340.004	120.32
340.217	91.65
340.429	77.31
340.641	62.98
340.854	116.22
341.066	13.82
341.278	38.4
341.491	77.31
341.703	91.65
341.915	83.45
342.128	24.06
342.34	24.06
342.552	73.21
342.764	56.83
342.977	69.12
343.189	44.54
343.401	58.88
343.613	36.35
343.826	13.82
344.038	144.89
344.25	56.83
344.462	9.73
344.674	34.3
344.886	22.02
345.099	148.99
345.311	54.78
345.523	54.78
345.735	69.12
345.947	56.83
346.159	69.12
346.371	32.26
346.583	54.78
346.795	85.5
347.007	75.26
347.219	52.74
347.431	38.4
347.643	19.97
347.855	-59.9
348.067	26.11
348.279	26.11
348.491	56.83
348.703	-6.66
348.915	26.11
349.127	65.02
349.339	73.21
349.551	30.21
349.763	54.78
349.975	44.54
350.187	32.26
350.399	46.59
350.61	77.31
350.822	58.88
351.034	9.73
351.246	108.03
351.458	40.45
351.669	58.88
351.881	101.89
352.093	34.3
352.305	77.31
352.517	83.45
352.728	56.83
352.94	65.02
353.152	116.22
353.363	-10.75
353.575	124.41
353.787	91.65
353.999	71.17
354.21	28.16
354.422	71.17
354.633	13.82
354.845	42.5
355.057	95.74
355.268	52.74
355.48	77.31
355.692	93.69
355.903	105.98
356.115	91.65
356.326	48.64
356.538	28.16
356.749	46.59
356.961	38.4
357.172	54.78
357.384	103.93
357.595	99.84
357.807	105.98
358.018	58.88
358.23	46.59
358.441	71.17
358.653	56.83
358.864	83.45
359.075	19.97
359.287	9.73
359.498	58.88
359.709	58.88
359.921	67.07
360.132	99.84
360.344	40.45
360.555	42.5
360.766	58.88
360.977	89.6
361.189	62.98
361.4	13.82
361.611	89.6
361.823	79.36
362.034	103.93
362.245	24.06
362.456	52.74
362.667	108.03
362.879	19.97
363.09	42.5
363.301	62.98
363.512	34.3
363.723	5.63
363.935	65.02
364.146	124.41
364.357	159.23
364.568	26.11
364.779	105.98
364.99	17.92
365.201	28.16
365.412	95.74
365.623	89.6
365.834	38.4
366.045	91.65
366.256	77.31
366.467	97.79
366.678	77.31
366.889	83.45
367.1	89.6
367.311	17.92
367.522	26.11
367.733	87.55
367.944	105.98
368.155	120.32
368.366	44.54
368.577	75.26
368.788	73.21
368.999	71.17
369.209	62.98
369.42	101.89
369.631	114.17
369.842	26.11
370.053	28.16
370.264	28.16
370.474	38.4
370.685	79.36
370.896	85.5
371.107	112.13
371.317	44.54
371.528	32.26
371.739	36.35
371.95	44.54
372.16	50.69
372.371	87.55
372.582	58.88
372.792	99.84
373.003	95.74
373.214	13.82
373.424	126.46
373.635	36.35
373.846	52.74
374.056	85.5
374.267	-49.66
374.477	22.02
374.688	58.88
374.898	69.12
375.109	99.84
375.319	40.45
375.53	17.92
375.74	38.4
375.951	19.97
376.161	169.47
376.372	81.41
376.582	60.93
376.793	93.69
377.003	99.84
377.214	36.35
377.424	91.65
377.635	93.69
377.845	56.83
378.055	83.45
378.266	13.82
378.476	89.6
378.686	56.83
378.897	9.73
379.107	58.88
379.317	87.55
379.528	108.03
379.738	77.31
379.948	161.28
380.158	118.27
380.369	56.83
380.579	54.78
380.789	116.22
380.999	110.08
381.21	83.45
381.42	120.32
381.63	73.21
381.84	77.31
382.05	28.16
382.261	79.36
382.471	52.74
382.681	34.3
382.891	97.79
383.101	52.74
383.311	30.21
383.521	69.12
383.731	62.98
383.941	42.5
384.151	71.17
384.361	132.61
384.571	95.74
384.781	44.54
384.991	95.74
385.201	75.26
385.411	126.46
385.621	42.5
385.831	65.02
386.041	58.88
386.251	34.3
386.461	108.03
386.671	103.93
386.881	77.31
387.091	132.61
387.301	83.45
387.511	87.55
387.72	99.84
387.93	112.13
388.14	3.58
388.35	71.17
388.56	105.98
388.769	167.42
388.979	9.73
389.189	3.58
389.399	105.98
389.609	99.84
389.818	110.08
390.028	52.74
390.238	26.11
390.447	50.69
390.657	99.84
390.867	112.13
391.076	126.46
391.286	19.97
391.496	110.08
391.705	58.88
391.915	44.54
392.125	112.13
392.334	128.51
392.544	56.83
392.753	65.02
392.963	83.45
393.172	114.17
393.382	128.51
393.591	124.41
393.801	114.17
394.01	134.65
394.22	77.31
394.429	69.12
394.639	91.65
394.848	138.75
395.058	126.46
395.267	108.03
395.477	73.21
395.686	42.5
395.895	153.09
396.105	110.08
396.314	112.13
396.524	144.89
396.733	124.41
396.942	151.04
397.152	146.94
397.361	198.14
397.57	163.33
397.78	146.94
397.989	134.65
398.198	159.23
398.407	108.03
398.617	140.8
398.826	169.47
399.035	157.18
399.244	159.23
399.453	126.46
399.663	142.85
399.872	93.69
400.081	91.65
400.29	105.98
400.499	99.84
400.708	179.71
400.917	140.8
401.127	75.26
401.336	114.17
401.545	189.95
401.754	153.09
401.963	157.18
402.172	122.37
402.381	175.61
402.59	148.99
402.799	208.38
403.008	87.55
403.217	120.32
403.426	202.24
403.635	169.47
403.844	214.52
404.053	171.52
404.262	122.37
404.471	247.29
404.68	167.42
404.888	230.91
405.097	136.7
405.306	214.52
405.515	255.48
405.724	189.95
405.933	261.63
406.142	120.32
406.35	249.34
406.559	245.24
406.768	247.29
406.977	237.05
407.185	235
407.394	271.87
407.603	247.29
407.812	296.44
408.02	323.07
408.229	224.76
408.438	329.21
408.646	314.88
408.855	292.35
409.064	333.31
409.272	355.83
409.481	364.03
409.69	345.59
409.898	308.73
410.107	349.69
410.315	355.83
410.524	337.4
410.733	339.45
410.941	407.03
411.15	409.08
411.358	476.66
411.567	470.52
411.775	462.33
411.984	466.42
412.192	607.73
412.401	484.86
412.609	546.3
412.818	568.82
413.026	673.27
413.234	548.34
413.443	630.26
413.651	697.85
413.86	740.85
414.068	701.94
414.276	751.09
414.485	820.72
414.693	790
414.901	830.96
415.11	949.75
415.318	880.11
415.526	884.21
415.734	904.69
415.943	939.51
416.151	1068.53
416.359	1027.57
416.567	1224.17
416.776	1017.33
416.984	1033.71
417.192	1101.3
417.4	1205.74
417.608	1191.41
417.817	1254.89
418.025	1312.24
418.233	1388.01
418.441	1463.79
418.649	1478.12
418.857	1459.69
419.065	1506.79
419.273	1617.38
419.481	1644.01
419.689	1682.92
419.897	1828.32
420.105	1877.48
420.313	1947.11
420.521	1877.48
420.729	1996.26
420.937	2006.5
421.145	2110.94
421.353	2188.77
421.561	2385.37
421.769	2393.56
421.977	2469.34
422.185	2409.95
422.393	2721.24
422.601	2852.31
422.809	2827.73
423.017	2741.72
423.224	2917.84
423.432	3169.74
423.64	2989.52
423.848	3366.35
424.056	3206.61
424.263	3331.53
424.471	3515.85
424.679	3515.85
424.887	3640.78
425.094	3802.57
425.302	3796.42
425.51	3911.11
425.718	4036.03
425.925	4107.71
426.133	4324.8
426.341	4552.12
426.548	4599.23
426.756	4621.75
426.964	4744.63
427.171	5023.16
427.379	5184.94
427.586	5344.69
427.794	5434.8
428.001	5723.56
428.209	5934.5
428.417	5817.77
428.624	6215.07
428.832	6182.31
429.039	6206.88
429.247	6223.27
429.454	6792.6
429.662	7034.26
429.869	6686.11
430.076	7398.8
430.284	7091.6
430.491	7359.89
430.699	7792.01
430.906	7873.93
431.114	7861.64
431.321	8138.12
431.528	8400.26
431.736	8650.11
431.943	9196.92
432.15	9182.58
432.358	9020.79
432.565	9475.44
432.772	9571.69
432.979	10134.89
433.187	10339.68
433.394	10241.38
433.601	10798.43
433.808	11099.48
434.016	10925.4
434.223	11595.09
434.43	12082.5
434.637	11822.41
434.844	12397.89
435.052	12682.56
435.259	12604.74
435.466	12889.4
435.673	12764.48
435.88	13528.37
436.087	14011.69
436.294	14245.16
436.501	13888.81
436.708	14277.93
436.915	14499.11
437.122	15242.52
437.329	15228.18
437.537	15484.18
437.743	16170.25
437.95	15938.83
438.157	16776.45
438.364	17128.7
438.571	16930.05
438.778	17276.15
438.985	18840.8
439.192	18347.24
439.399	18687.2
439.606	18320.62
439.813	19506.39
440.02	20499.66
440.227	20239.56
440.433	20008.14
440.64	20458.7
440.847	20350.15
441.054	20989.12
441.261	22305.96
441.467	21820.6
441.674	22695.08
441.881	23413.91
442.088	23262.37
442.294	22815.91
442.501	24016.02
442.708	24329.36
442.914	25173.12
443.121	26162.29
443.328	25642.1
443.534	27350.11
443.741	26719.34
443.948	25994.36
444.154	28372.05
444.361	27874.39
444.568	27706.46
444.774	28019.8
444.981	28329.04
445.187	29375.55
445.394	30862.38
445.6	30075.96
445.807	32906.25
446.013	31392.8
446.22	31863.83
446.426	33379.33
446.633	33444.87
446.839	34874.35
447.046	33217.54
447.252	35191.78
447.459	35161.06
447.665	34481.14
447.871	36398.04
448.078	37972.92
448.284	36013.02
448.491	37206.98
448.697	38525.88
448.903	39146.41
449.11	39144.36
449.316	38450.1
449.522	39277.48
449.728	40264.6
449.935	40983.44
450.141	40592.28
450.347	41788.29
450.553	40375.19
450.76	40891.28
450.966	41919.36
451.172	41706.37
451.378	42638.2
451.584	41751.43
451.791	42869.62
451.997	42574.71
452.203	43465.58
452.409	43311.98
452.615	43156.33
452.821	41415.56
453.027	40967.05
453.233	43488.1
453.44	41325.45
453.646	41937.79
453.852	42118.01
454.058	42996.59
454.264	41427.85
454.47	42271.61
454.676	41405.32
454.882	42912.63
455.088	39127.98
455.294	39363.5
455.5	40373.14
455.705	40661.91
455.911	39265.19
456.117	38319.03
456.323	37790.66
456.529	36299.73
456.735	37438.4
456.941	36506.58
457.147	35677.15
457.352	34507.76
457.558	34382.84
457.764	34458.61
457.97	33862.65
458.176	33047.56
458.381	33213.45
458.587	31405.09
458.793	31579.17
458.999	29873.21
459.204	32429.07
459.41	30880.81
459.616	29064.26
459.821	29094.98
460.027	28998.73
460.233	28574.8
460.438	27155.55
460.644	27579.48
460.85	26133.62
461.055	25703.54
461.261	25437.31
461.466	23776.41
461.672	23139.49
461.878	24683.66
462.083	23233.69
462.289	22809.76
462.494	22502.57
462.7	21384.38
462.905	20628.68
463.111	21525.69
463.316	21714.1
463.522	21445.82
463.727	21126.33
463.932	21165.25
464.138	21279.93
464.343	21136.57
464.549	20440.26
464.754	21161.15
464.959	21185.72
465.165	20802.75
465.37	20128.97
465.575	19676.37
465.781	20329.67
465.986	20466.89
466.191	19811.54
466.397	19422.42
466.602	18390.25
466.807	18795.75
467.012	19164.38
467.218	18916.58
467.423	18476.26
467.628	19012.83
