Data from USB4F104151__53__13-53-29-977.txt Node

Date: Thu Mar 13 13:53:29 EDT 2025
User: louis
Spectrometer: USB4F10415
Trigger mode: 4
Integration Time (sec): 1.000000E-2
Scans to average: 1
Electric dark correction enabled: true
Nonlinearity correction enabled: false
Boxcar width: 0
XAxis mode: Wavelengths
Number of Pixels in Spectrum: 3648
>>>>>Begin Spectral Data<<<<<
178.204	-50.52
178.424	-50.52
178.644	-50.52
178.864	-9.56
179.084	-17.75
179.304	39.59
179.524	-3.41
179.744	-46.42
179.964	33.45
180.184	-60.76
180.404	-19.8
180.624	-5.46
180.844	94.89
181.064	-42.32
181.283	-36.18
181.503	37.55
181.723	8.87
181.943	-77.14
182.163	2.73
182.383	-7.51
182.602	-5.46
182.822	10.92
183.042	-19.8
183.262	21.16
183.482	92.84
183.701	19.11
183.921	-21.85
184.141	-27.99
184.361	49.83
184.58	10.92
184.8	58.03
185.02	-30.04
185.239	-42.32
185.459	62.12
185.679	-11.61
185.898	-23.89
186.118	-3.41
186.338	27.31
186.557	-34.13
186.777	33.45
186.997	47.79
187.216	10.92
187.436	25.26
187.655	0.68
187.875	94.89
188.095	45.74
188.314	25.26
188.534	70.31
188.753	27.31
188.973	-21.85
189.192	-34.13
189.412	39.59
189.631	25.26
189.851	15.02
190.07	35.5
190.29	-23.89
190.509	2.73
190.729	25.26
190.948	39.59
191.168	53.93
191.387	55.98
191.607	58.03
191.826	80.55
192.045	8.87
192.265	17.07
192.484	58.03
192.704	17.07
192.923	23.21
193.142	55.98
193.362	-91.48
193.581	-30.04
193.8	-9.56
194.02	-23.89
194.239	-13.65
194.458	10.92
194.678	15.02
194.897	15.02
195.116	-40.28
195.335	-23.89
195.555	96.94
195.774	-7.51
195.993	47.79
196.212	12.97
196.432	-52.56
196.651	-54.61
196.87	-9.56
197.089	43.69
197.308	37.55
197.528	33.45
197.747	-77.14
197.966	31.4
198.185	98.99
198.404	-15.7
198.623	19.11
198.842	55.98
199.062	49.83
199.281	-19.8
199.5	0.68
199.719	-64.85
199.938	-17.75
200.157	2.73
200.376	-3.41
200.595	-15.7
200.814	41.64
201.033	0.68
201.252	60.07
201.471	-38.23
201.69	2.73
201.909	96.94
202.128	-30.04
202.347	29.35
202.566	-34.13
202.785	8.87
203.004	-40.28
203.223	-3.41
203.442	-3.41
203.661	-7.51
203.879	4.78
204.098	-50.52
204.317	-19.8
204.536	-15.7
204.755	-58.71
204.974	84.65
205.193	103.08
205.411	111.27
205.63	29.35
205.849	-5.46
206.068	-34.13
206.287	-1.37
206.505	-19.8
206.724	21.16
206.943	-34.13
207.162	25.26
207.381	-15.7
207.599	-30.04
207.818	-27.99
208.037	35.5
208.255	-21.85
208.474	-62.8
208.693	25.26
208.911	-5.46
209.13	-5.46
209.349	43.69
209.567	39.59
209.786	4.78
210.005	-19.8
210.223	-13.65
210.442	2.73
210.661	25.26
210.879	-21.85
211.098	17.07
211.316	-3.41
211.535	-23.89
211.753	-48.47
211.972	41.64
212.191	53.93
212.409	31.4
212.628	-52.56
212.846	35.5
213.065	-13.65
213.283	-50.52
213.502	10.92
213.72	31.4
213.938	35.5
214.157	19.11
214.375	29.35
214.594	10.92
214.812	-30.04
215.031	62.12
215.249	-48.47
215.467	21.16
215.686	-42.32
215.904	37.55
216.122	-9.56
216.341	23.21
216.559	60.07
216.778	15.02
216.996	129.7
217.214	-13.65
217.432	70.31
217.651	23.21
217.869	-1.37
218.087	-5.46
218.306	-17.75
218.524	53.93
218.742	17.07
218.96	64.17
219.179	17.07
219.397	60.07
219.615	-9.56
219.833	4.78
220.051	-64.85
220.27	-1.37
220.488	2.73
220.706	51.88
220.924	-54.61
221.142	41.64
221.36	-17.75
221.578	12.97
221.796	90.79
222.015	31.4
222.233	-44.37
222.451	23.21
222.669	12.97
222.887	74.41
223.105	17.07
223.323	82.6
223.541	-7.51
223.759	60.07
223.977	12.97
224.195	-1.37
224.413	33.45
224.631	10.92
224.849	8.87
225.067	105.13
225.285	-23.89
225.503	55.98
225.721	-19.8
225.939	70.31
226.157	-1.37
226.375	29.35
226.592	-21.85
226.81	-56.66
227.028	6.83
227.246	-5.46
227.464	12.97
227.682	23.21
227.9	47.79
228.117	-1.37
228.335	10.92
228.553	47.79
228.771	-7.51
228.989	47.79
229.206	66.22
229.424	64.17
229.642	29.35
229.86	-13.65
230.077	41.64
230.295	12.97
230.513	35.5
230.731	70.31
230.948	0.68
231.166	92.84
231.384	-36.18
231.601	55.98
231.819	6.83
232.037	10.92
232.254	33.45
232.472	-25.94
232.689	-13.65
232.907	17.07
233.125	49.83
233.342	8.87
233.56	12.97
233.777	-17.75
233.995	23.21
234.213	43.69
234.43	-5.46
234.648	64.17
234.865	49.83
235.083	45.74
235.3	-54.61
235.518	-77.14
235.735	-40.28
235.953	51.88
236.17	29.35
236.388	23.21
236.605	-40.28
236.822	12.97
237.04	29.35
237.257	62.12
237.475	-9.56
237.692	101.03
237.909	-30.04
238.127	-68.95
238.344	58.03
238.562	55.98
238.779	-38.23
238.996	27.31
239.214	15.02
239.431	15.02
239.648	-27.99
239.865	80.55
240.083	-5.46
240.3	21.16
240.517	35.5
240.735	0.68
240.952	-15.7
241.169	84.65
241.386	66.22
241.603	-34.13
241.821	-5.46
242.038	31.4
242.255	10.92
242.472	80.55
242.689	2.73
242.907	31.4
243.124	17.07
243.341	49.83
243.558	37.55
243.775	-79.19
243.992	62.12
244.209	-3.41
244.426	-17.75
244.643	25.26
244.86	35.5
245.078	-25.94
245.295	19.11
245.512	35.5
245.729	8.87
245.946	-15.7
246.163	12.97
246.38	43.69
246.597	41.64
246.814	-7.51
247.031	-25.94
247.248	94.89
247.464	-79.19
247.681	137.9
247.898	53.93
248.115	-11.61
248.332	-23.89
248.549	70.31
248.766	101.03
248.983	-7.51
249.2	33.45
249.417	37.55
249.633	-25.94
249.85	21.16
250.067	17.07
250.284	70.31
250.501	51.88
250.717	43.69
250.934	12.97
251.151	-9.56
251.368	41.64
251.585	25.26
251.801	-52.56
252.018	17.07
252.235	27.31
252.451	60.07
252.668	-17.75
252.885	68.27
253.102	-9.56
253.318	17.07
253.535	-1.37
253.752	-3.41
253.968	-52.56
254.185	-19.8
254.401	19.11
254.618	-3.41
254.835	82.6
255.051	45.74
255.268	58.03
255.484	43.69
255.701	51.88
255.917	60.07
256.134	-11.61
256.351	12.97
256.567	19.11
256.784	10.92
257	4.78
257.217	43.69
257.433	60.07
257.65	39.59
257.866	12.97
258.082	-44.37
258.299	-9.56
258.515	29.35
258.732	-7.51
258.948	-9.56
259.165	2.73
259.381	60.07
259.597	45.74
259.814	109.22
260.03	33.45
260.246	-32.08
260.463	41.64
260.679	62.12
260.895	-9.56
261.112	82.6
261.328	-13.65
261.544	4.78
261.761	-9.56
261.977	-56.66
262.193	-56.66
262.409	25.26
262.626	19.11
262.842	37.55
263.058	33.45
263.274	88.75
263.49	4.78
263.707	43.69
263.923	-27.99
264.139	-36.18
264.355	66.22
264.571	60.07
264.787	17.07
265.004	-9.56
265.22	-40.28
265.436	27.31
265.652	-50.52
265.868	10.92
266.084	29.35
266.3	70.31
266.516	37.55
266.732	98.99
266.948	-13.65
267.164	27.31
267.38	31.4
267.596	60.07
267.812	105.13
268.028	58.03
268.244	43.69
268.46	-5.46
268.676	-38.23
268.892	-46.42
269.108	-3.41
269.324	53.93
269.54	-32.08
269.756	29.35
269.972	64.17
270.188	-52.56
270.403	-48.47
270.619	45.74
270.835	60.07
271.051	60.07
271.267	-5.46
271.483	19.11
271.698	-27.99
271.914	70.31
272.13	41.64
272.346	0.68
272.562	12.97
272.777	12.97
272.993	-15.7
273.209	-42.32
273.425	10.92
273.64	-13.65
273.856	-5.46
274.072	4.78
274.287	0.68
274.503	15.02
274.719	62.12
274.934	-5.46
275.15	-13.65
275.366	-34.13
275.581	10.92
275.797	60.07
276.012	-7.51
276.228	74.41
276.444	66.22
276.659	107.18
276.875	-13.65
277.09	-34.13
277.306	29.35
277.521	25.26
277.737	12.97
277.952	51.88
278.168	-23.89
278.383	-3.41
278.599	66.22
278.814	94.89
279.03	45.74
279.245	4.78
279.461	-42.32
279.676	88.75
279.892	-25.94
280.107	-30.04
280.322	51.88
280.538	49.83
280.753	41.64
280.969	45.74
281.184	37.55
281.399	62.12
281.615	94.89
281.83	15.02
282.045	0.68
282.26	-38.23
282.476	78.51
282.691	29.35
282.906	12.97
283.122	4.78
283.337	45.74
283.552	8.87
283.767	-17.75
283.983	35.5
284.198	133.8
284.413	10.92
284.628	25.26
284.843	4.78
285.058	2.73
285.274	15.02
285.489	19.11
285.704	29.35
285.919	8.87
286.134	94.89
286.349	29.35
286.564	58.03
286.779	31.4
286.995	60.07
287.21	41.64
287.425	12.97
287.64	10.92
287.855	15.02
288.07	-66.9
288.285	25.26
288.5	-11.61
288.715	-25.94
288.93	-11.61
289.145	17.07
289.36	0.68
289.575	-5.46
289.79	2.73
290.004	2.73
290.219	60.07
290.434	29.35
290.649	-9.56
290.864	-40.28
291.079	31.4
291.294	45.74
291.509	43.69
291.724	31.4
291.938	21.16
292.153	-11.61
292.368	-56.66
292.583	47.79
292.798	60.07
293.012	-7.51
293.227	53.93
293.442	-11.61
293.657	-13.65
293.871	60.07
294.086	53.93
294.301	58.03
294.516	8.87
294.73	31.4
294.945	25.26
295.16	41.64
295.374	64.17
295.589	12.97
295.804	-15.7
296.018	-1.37
296.233	-21.85
296.447	-9.56
296.662	-7.51
296.877	6.83
297.091	15.02
297.306	19.11
297.52	78.51
297.735	84.65
297.949	-25.94
298.164	-11.61
298.378	41.64
298.593	-17.75
298.807	111.27
299.022	-17.75
299.236	66.22
299.451	25.26
299.665	-3.41
299.88	37.55
300.094	-3.41
300.309	17.07
300.523	41.64
300.737	-3.41
300.952	2.73
301.166	29.35
301.381	39.59
301.595	35.5
301.809	2.73
302.024	27.31
302.238	66.22
302.452	-44.37
302.667	98.99
302.881	47.79
303.095	25.26
303.309	111.27
303.524	4.78
303.738	2.73
303.952	-7.51
304.166	35.5
304.381	-48.47
304.595	21.16
304.809	64.17
305.023	29.35
305.237	21.16
305.452	-17.75
305.666	17.07
305.88	35.5
306.094	25.26
306.308	39.59
306.522	94.89
306.736	66.22
306.95	0.68
307.164	4.78
307.379	2.73
307.593	90.79
307.807	58.03
308.021	49.83
308.235	64.17
308.449	8.87
308.663	-30.04
308.877	109.22
309.091	17.07
309.305	53.93
309.519	29.35
309.733	17.07
309.947	45.74
310.161	29.35
310.374	39.59
310.588	60.07
310.802	-77.14
311.016	-36.18
311.23	78.51
311.444	-9.56
311.658	21.16
311.872	15.02
312.085	-15.7
312.299	-9.56
312.513	0.68
312.727	-13.65
312.941	92.84
313.154	31.4
313.368	-11.61
313.582	10.92
313.796	-44.37
314.009	23.21
314.223	53.93
314.437	113.32
314.651	-38.23
314.864	4.78
315.078	2.73
315.292	74.41
315.505	86.7
315.719	17.07
315.933	39.59
316.146	-30.04
316.36	43.69
316.573	-13.65
316.787	39.59
317.001	55.98
317.214	-5.46
317.428	23.21
317.641	15.02
317.855	12.97
318.068	19.11
318.282	4.78
318.495	80.55
318.709	58.03
318.922	6.83
319.136	51.88
319.349	94.89
319.563	19.11
319.776	33.45
319.99	-48.47
320.203	-36.18
320.417	33.45
320.63	15.02
320.843	60.07
321.057	27.31
321.27	15.02
321.483	74.41
321.697	55.98
321.91	80.55
322.124	72.36
322.337	-50.52
322.55	43.69
322.763	31.4
322.977	35.5
323.19	27.31
323.403	4.78
323.617	6.83
323.83	35.5
324.043	37.55
324.256	27.31
324.469	0.68
324.683	-1.37
324.896	-3.41
325.109	35.5
325.322	6.83
325.535	60.07
325.748	53.93
325.962	49.83
326.175	-23.89
326.388	21.16
326.601	58.03
326.814	-3.41
327.027	33.45
327.24	86.7
327.453	-13.65
327.666	80.55
327.879	10.92
328.092	68.27
328.305	-52.56
328.518	27.31
328.731	10.92
328.944	43.69
329.157	-46.42
329.37	35.5
329.583	29.35
329.796	23.21
330.009	21.16
330.222	64.17
330.435	27.31
330.648	68.27
330.861	76.46
331.073	43.69
331.286	-50.52
331.499	-19.8
331.712	-27.99
331.925	-9.56
332.138	-36.18
332.35	31.4
332.563	-11.61
332.776	37.55
332.989	41.64
333.202	33.45
333.414	15.02
333.627	-38.23
333.84	-50.52
334.053	37.55
334.265	-79.19
334.478	58.03
334.691	17.07
334.903	25.26
335.116	-7.51
335.329	-7.51
335.541	39.59
335.754	45.74
335.966	-15.7
336.179	-15.7
336.392	127.66
336.604	-25.94
336.817	-15.7
337.029	70.31
337.242	23.21
337.454	-27.99
337.667	-79.19
337.88	51.88
338.092	45.74
338.305	39.59
338.517	68.27
338.729	-9.56
338.942	-11.61
339.154	2.73
339.367	49.83
339.579	37.55
339.792	53.93
340.004	-7.51
340.217	-9.56
340.429	-11.61
340.641	8.87
340.854	-9.56
341.066	21.16
341.278	-25.94
341.491	19.11
341.703	-11.61
341.915	6.83
342.128	60.07
342.34	-30.04
342.552	2.73
342.764	-19.8
342.977	-17.75
343.189	70.31
343.401	-7.51
343.613	-5.46
343.826	51.88
344.038	-23.89
344.25	2.73
344.462	0.68
344.674	-5.46
344.886	45.74
345.099	62.12
345.311	-1.37
345.523	-19.8
345.735	-19.8
345.947	37.55
346.159	25.26
346.371	-68.95
346.583	6.83
346.795	111.27
347.007	-19.8
347.219	33.45
347.431	-17.75
347.643	4.78
347.855	39.59
348.067	-36.18
348.279	23.21
348.491	-11.61
348.703	25.26
348.915	-36.18
349.127	15.02
349.339	43.69
349.551	-5.46
349.763	27.31
349.975	17.07
350.187	84.65
350.399	90.79
350.61	47.79
350.822	6.83
351.034	29.35
351.246	33.45
351.458	27.31
351.669	17.07
351.881	105.13
352.093	-13.65
352.305	0.68
352.517	-25.94
352.728	-9.56
352.94	39.59
353.152	23.21
353.363	35.5
353.575	47.79
353.787	90.79
353.999	86.7
354.21	-5.46
354.422	-3.41
354.633	80.55
354.845	12.97
355.057	35.5
355.268	15.02
355.48	33.45
355.692	29.35
355.903	-5.46
356.115	64.17
356.326	-23.89
356.538	-19.8
356.749	19.11
356.961	-21.85
357.172	29.35
357.384	27.31
357.595	39.59
357.807	41.64
358.018	-36.18
358.23	41.64
358.441	33.45
358.653	-5.46
358.864	43.69
359.075	10.92
359.287	-25.94
359.498	82.6
359.709	41.64
359.921	17.07
360.132	2.73
360.344	84.65
360.555	82.6
360.766	25.26
360.977	-9.56
361.189	-56.66
361.4	21.16
361.611	70.31
361.823	6.83
362.034	-32.08
362.245	-23.89
362.456	21.16
362.667	98.99
362.879	21.16
363.09	37.55
363.301	53.93
363.512	31.4
363.723	2.73
363.935	12.97
364.146	-15.7
364.357	35.5
364.568	-38.23
364.779	-23.89
364.99	45.74
365.201	-50.52
365.412	-60.76
365.623	8.87
365.834	51.88
366.045	10.92
366.256	23.21
366.467	29.35
366.678	8.87
366.889	47.79
367.1	17.07
367.311	47.79
367.522	21.16
367.733	78.51
367.944	55.98
368.155	129.7
368.366	19.11
368.577	53.93
368.788	8.87
368.999	4.78
369.209	33.45
369.42	15.02
369.631	21.16
369.842	43.69
370.053	-44.37
370.264	47.79
370.474	10.92
370.685	55.98
370.896	51.88
371.107	-15.7
371.317	0.68
371.528	10.92
371.739	98.99
371.95	21.16
372.16	62.12
372.371	-17.75
372.582	68.27
372.792	103.08
373.003	62.12
373.214	-19.8
373.424	-15.7
373.635	0.68
373.846	68.27
374.056	27.31
374.267	17.07
374.477	55.98
374.688	-40.28
374.898	31.4
375.109	33.45
375.319	-21.85
375.53	82.6
375.74	19.11
375.951	21.16
376.161	72.36
376.372	53.93
376.582	-11.61
376.793	53.93
377.003	45.74
377.214	47.79
377.424	55.98
377.635	15.02
377.845	39.59
378.055	45.74
378.266	17.07
378.476	-50.52
378.686	53.93
378.897	27.31
379.107	76.46
379.317	68.27
379.528	-25.94
379.738	45.74
379.948	35.5
380.158	10.92
380.369	37.55
380.579	90.79
380.789	19.11
380.999	72.36
381.21	47.79
381.42	70.31
381.63	-5.46
381.84	49.83
382.05	21.16
382.261	84.65
382.471	17.07
382.681	35.5
382.891	43.69
383.101	31.4
383.311	-25.94
383.521	-36.18
383.731	43.69
383.941	6.83
384.151	10.92
384.361	-3.41
384.571	-15.7
384.781	2.73
384.991	49.83
385.201	6.83
385.411	60.07
385.621	66.22
385.831	58.03
386.041	84.65
386.251	33.45
386.461	27.31
386.671	29.35
386.881	29.35
387.091	-3.41
387.301	115.37
387.511	-1.37
387.72	53.93
387.93	6.83
388.14	-15.7
388.35	15.02
388.56	98.99
388.769	0.68
388.979	41.64
389.189	-36.18
389.399	-1.37
389.609	43.69
389.818	51.88
390.028	78.51
390.238	84.65
390.447	-58.71
390.657	88.75
390.867	82.6
391.076	51.88
391.286	80.55
391.496	60.07
391.705	29.35
391.915	80.55
392.125	19.11
392.334	37.55
392.544	88.75
392.753	37.55
392.963	8.87
393.172	35.5
393.382	25.26
393.591	84.65
393.801	43.69
394.01	70.31
394.22	19.11
394.429	31.4
394.639	-15.7
394.848	103.08
395.058	94.89
395.267	41.64
395.477	33.45
395.686	35.5
395.895	58.03
396.105	66.22
396.314	109.22
396.524	-13.65
396.733	2.73
396.942	23.21
397.152	113.32
397.361	96.94
397.57	29.35
397.78	92.84
397.989	64.17
398.198	70.31
398.407	105.13
398.617	72.36
398.826	66.22
399.035	-21.85
399.244	19.11
399.453	90.79
399.663	37.55
399.872	53.93
400.081	55.98
400.29	41.64
400.499	72.36
400.708	127.66
400.917	21.16
401.127	39.59
401.336	105.13
401.545	60.07
401.754	37.55
401.963	66.22
402.172	101.03
402.381	62.12
402.59	33.45
402.799	96.94
403.008	105.13
403.217	92.84
403.426	60.07
403.635	109.22
403.844	84.65
404.053	131.75
404.262	98.99
404.471	98.99
404.68	10.92
404.888	117.42
405.097	51.88
405.306	37.55
405.515	19.11
405.724	115.37
405.933	111.27
406.142	182.95
406.35	76.46
406.559	113.32
406.768	86.7
406.977	68.27
407.185	131.75
407.394	125.61
407.603	160.42
407.812	133.8
408.02	105.13
408.229	178.86
408.438	141.99
408.646	141.99
408.855	201.38
409.064	113.32
409.272	137.9
409.481	148.14
409.69	51.88
409.898	123.56
410.107	264.87
410.315	180.9
410.524	170.66
410.733	262.82
410.941	234.15
411.15	191.14
411.358	174.76
411.567	291.49
411.775	187.05
411.984	238.25
412.192	248.49
412.401	195.24
412.609	283.3
412.818	391.84
413.026	336.55
413.234	340.65
413.443	232.1
413.651	352.93
413.86	367.27
414.068	332.45
414.276	377.51
414.485	389.8
414.693	359.08
414.901	438.95
415.11	434.85
415.318	436.9
415.526	373.41
415.734	459.43
415.943	465.57
416.151	496.29
416.359	559.78
416.567	514.72
416.776	567.97
416.984	600.74
417.192	656.03
417.4	604.83
417.608	631.46
417.817	641.7
418.025	600.74
418.233	715.42
418.441	711.33
418.649	764.57
418.857	864.93
419.065	770.72
419.273	778.91
419.481	823.97
419.689	920.22
419.897	971.42
420.105	877.21
420.313	969.37
420.521	940.7
420.729	1073.82
420.937	1028.76
421.145	1110.68
421.353	1102.49
421.561	1198.74
421.769	1118.87
421.977	1260.18
422.185	1301.14
422.393	1292.95
422.601	1348.25
422.809	1424.02
423.017	1391.25
423.224	1440.4
423.432	1544.85
423.64	1544.85
423.848	1575.57
424.056	1720.98
424.263	1782.42
424.471	1745.55
424.679	1772.18
424.887	1819.28
425.094	1987.21
425.302	1931.92
425.51	1929.87
425.718	1987.21
425.925	2091.66
426.133	2194.06
426.341	2253.45
426.548	2411.14
426.756	2390.66
426.964	2474.63
427.171	2605.7
427.379	2632.32
427.586	2681.47
427.794	2790.02
428.001	2802.3
428.209	3046.01
428.417	2996.86
428.624	3215.99
428.832	3121.79
429.039	3234.43
429.247	3252.86
429.454	3629.68
429.662	3641.97
429.869	3519.09
430.076	3680.88
430.284	3592.82
430.491	3627.64
430.699	3918.45
430.906	3977.84
431.114	4020.85
431.321	4113
431.528	4282.99
431.736	4577.89
431.943	4768.35
432.15	4616.8
432.358	4668
432.565	4956.77
432.772	4840.03
432.979	5202.52
433.187	5169.76
433.394	5401.18
433.601	5685.84
433.808	5648.98
434.016	5614.16
434.223	5943.89
434.43	6337.1
434.637	6077.01
434.844	6423.11
435.052	6453.83
435.259	6509.13
435.466	6634.05
435.673	6492.74
435.88	6945.34
436.087	7313.98
436.294	7268.92
436.501	7100.99
436.708	7387.71
436.915	7283.26
437.122	7911.99
437.329	7969.33
437.537	8075.82
437.743	8071.73
437.95	8161.84
438.157	8688.17
438.364	8780.32
438.571	8882.72
438.778	9017.89
438.985	9738.77
439.192	9361.95
439.399	9669.14
439.606	9515.55
439.813	9919
440.02	10533.39
440.227	10332.68
440.433	10134.03
440.64	10600.97
440.847	10517
441.054	10719.75
441.261	11639.29
441.467	11463.16
441.674	11751.93
441.881	12243.44
442.088	12095.99
442.294	11948.53
442.501	12204.53
442.708	12605.93
442.914	12947.94
443.121	13480.41
443.328	12995.04
443.534	14039.51
443.741	13578.72
443.948	13445.6
444.154	14373.33
444.361	14424.53
444.568	14350.8
444.774	14381.52
444.981	14721.48
445.187	15149.51
445.394	15530.43
445.6	15512
445.807	16910.76
446.013	16275.89
446.22	16748.97
446.426	17324.45
446.633	17312.16
446.839	18137.49
447.046	17031.59
447.252	18100.63
447.459	18114.97
447.665	17887.64
447.871	18903.43
448.078	19894.65
448.284	18592.14
448.491	19007.88
448.697	20140.41
448.903	20351.35
449.11	20334.96
449.316	19931.51
449.522	20380.02
449.728	20672.88
449.935	21014.89
450.141	20973.93
450.347	21219.69
450.553	20601.2
450.76	21039.47
450.966	21692.77
451.172	21291.37
451.378	22245.72
451.584	21629.28
451.791	22006.11
451.997	21678.43
452.203	22606.16
452.409	22286.68
452.615	22171.99
452.821	21313.89
453.027	20992.36
453.233	22215
453.44	21203.3
453.646	21635.42
453.852	21592.42
454.058	21973.34
454.264	21274.98
454.47	21442.92
454.676	21117.29
454.882	21709.15
455.088	19886.46
455.294	20097.4
455.5	20380.02
455.705	20519.28
455.911	19450.24
456.117	19382.66
456.323	18925.96
456.529	18147.73
456.735	18749.84
456.941	18160.02
457.147	17967.51
457.352	17521.06
457.558	17013.16
457.764	17205.67
457.97	16724.4
458.176	16300.47
458.381	16499.12
458.587	15720.89
458.793	15704.51
458.999	14768.59
459.204	15917.5
459.41	15505.85
459.616	14420.43
459.821	14318.03
460.027	14346.7
460.233	14076.37
460.438	13445.6
460.644	13435.36
460.85	12614.12
461.055	12837.35
461.261	12872.17
461.466	11977.2
461.672	11237.89
461.878	12132.85
462.083	11608.57
462.289	11299.33
462.494	11012.61
462.7	10443.28
462.905	10455.56
463.111	10641.93
463.316	10777.09
463.522	10662.41
463.727	10428.94
463.932	10639.88
464.138	10398.22
464.343	10451.47
464.549	10347.02
464.754	10576.39
464.959	10357.26
465.165	10375.69
465.37	10033.68
465.575	9574.94
465.781	10056.21
465.986	10056.21
466.191	9826.84
466.397	9632.28
466.602	9239.07
466.807	9628.18
467.012	9464.35
467.218	9667.1
467.423	9484.83
467.628	9396.76
467.833	9794.07
468.038	9566.74
