Data from USB4F104151__239__14-00-57-258.txt Node

Date: Thu Mar 13 14:00:57 EDT 2025
User: louis
Spectrometer: USB4F10415
Trigger mode: 4
Integration Time (sec): 1.000000E-2
Scans to average: 1
Electric dark correction enabled: true
Nonlinearity correction enabled: false
Boxcar width: 0
XAxis mode: Wavelengths
Number of Pixels in Spectrum: 3648
>>>>>Begin Spectral Data<<<<<
178.204	-57.86
178.424	-57.86
178.644	-57.86
178.864	-10.75
179.084	-47.62
179.304	7.68
179.524	13.82
179.744	-25.09
179.964	67.07
180.184	-0.51
180.404	19.97
180.624	-29.18
180.844	-41.47
181.064	-16.9
181.283	-18.94
181.503	-12.8
181.723	36.35
181.943	-74.24
182.163	7.68
182.383	28.16
182.602	-25.09
182.822	71.17
183.042	56.83
183.262	-16.9
183.482	24.06
183.701	-16.9
183.921	83.45
184.141	24.06
184.361	15.87
184.58	7.68
184.8	-8.7
185.02	-20.99
185.239	81.41
185.459	24.06
185.679	32.26
185.898	-72.19
186.118	24.06
186.338	3.58
186.557	34.3
186.777	58.88
186.997	56.83
187.216	91.65
187.436	114.17
187.655	15.87
187.875	93.69
188.095	7.68
188.314	97.79
188.534	-20.99
188.753	28.16
188.973	79.36
189.192	62.98
189.412	46.59
189.631	19.97
189.851	-20.99
190.07	-37.38
190.29	1.54
190.509	105.98
190.729	-78.33
190.948	-8.7
191.168	62.98
191.387	44.54
191.607	-27.14
191.826	30.21
192.045	22.02
192.265	54.78
192.484	26.11
192.704	56.83
192.923	28.16
193.142	77.31
193.362	15.87
193.581	52.74
193.8	52.74
194.02	30.21
194.239	26.11
194.458	1.54
194.678	11.78
194.897	-25.09
195.116	7.68
195.335	13.82
195.555	87.55
195.774	-14.85
195.993	-41.47
196.212	54.78
196.432	38.4
196.651	89.6
196.87	22.02
197.089	75.26
197.308	-51.71
197.528	60.93
197.747	-43.52
197.966	36.35
198.185	17.92
198.404	28.16
198.623	22.02
198.842	-16.9
199.062	81.41
199.281	-43.52
199.5	15.87
199.719	-12.8
199.938	-45.57
200.157	105.98
200.376	42.5
200.595	15.87
200.814	40.45
201.033	-4.61
201.252	42.5
201.471	52.74
201.69	36.35
201.909	50.69
202.128	32.26
202.347	22.02
202.566	62.98
202.785	7.68
203.004	26.11
203.223	44.54
203.442	-25.09
203.661	65.02
203.879	-29.18
204.098	56.83
204.317	-35.33
204.536	69.12
204.755	-16.9
204.974	-25.09
205.193	-2.56
205.411	67.07
205.63	38.4
205.849	-2.56
206.068	9.73
206.287	48.64
206.505	5.63
206.724	52.74
206.943	19.97
207.162	-12.8
207.381	54.78
207.599	79.36
207.818	77.31
208.037	-16.9
208.255	91.65
208.474	34.3
208.693	17.92
208.911	-43.52
209.13	-53.76
209.349	-0.51
209.567	-0.51
209.786	-2.56
210.005	15.87
210.223	13.82
210.442	50.69
210.661	-8.7
210.879	-27.14
211.098	-16.9
211.316	-2.56
211.535	26.11
211.753	24.06
211.972	-18.94
212.191	30.21
212.409	65.02
212.628	-2.56
212.846	-55.81
213.065	42.5
213.283	73.21
213.502	-6.66
213.72	30.21
213.938	36.35
214.157	52.74
214.375	40.45
214.594	-16.9
214.812	56.83
215.031	60.93
215.249	42.5
215.467	5.63
215.686	50.69
215.904	81.41
216.122	50.69
216.341	65.02
216.559	30.21
216.778	11.78
216.996	1.54
217.214	1.54
217.432	-2.56
217.651	-23.04
217.869	65.02
218.087	-8.7
218.306	-25.09
218.524	34.3
218.742	-25.09
218.96	1.54
219.179	69.12
219.397	65.02
219.615	77.31
219.833	71.17
220.051	-6.66
220.27	-4.61
220.488	54.78
220.706	17.92
220.924	48.64
221.142	13.82
221.36	-20.99
221.578	28.16
221.796	-10.75
222.015	32.26
222.233	-6.66
222.451	138.75
222.669	-49.66
222.887	73.21
223.105	-14.85
223.323	34.3
223.541	24.06
223.759	-16.9
223.977	19.97
224.195	40.45
224.413	32.26
224.631	34.3
224.849	-31.23
225.067	26.11
225.285	3.58
225.503	-6.66
225.721	-23.04
225.939	-6.66
226.157	42.5
226.375	60.93
226.592	19.97
226.81	34.3
227.028	-12.8
227.246	32.26
227.464	-25.09
227.682	32.26
227.9	44.54
228.117	24.06
228.335	13.82
228.553	-10.75
228.771	15.87
228.989	54.78
229.206	-41.47
229.424	7.68
229.642	54.78
229.86	13.82
230.077	103.93
230.295	-39.42
230.513	-2.56
230.731	73.21
230.948	93.69
231.166	48.64
231.384	3.58
231.601	83.45
231.819	-16.9
232.037	7.68
232.254	-8.7
232.472	15.87
232.689	50.69
232.907	65.02
233.125	3.58
233.342	48.64
233.56	83.45
233.777	79.36
233.995	9.73
234.213	-10.75
234.43	7.68
234.648	7.68
234.865	-16.9
235.083	65.02
235.3	71.17
235.518	13.82
235.735	42.5
235.953	-29.18
236.17	36.35
236.388	69.12
236.605	40.45
236.822	93.69
237.04	40.45
237.257	26.11
237.475	-59.9
237.692	9.73
237.909	54.78
238.127	15.87
238.344	22.02
238.562	-14.85
238.779	15.87
238.996	26.11
239.214	-12.8
239.431	85.5
239.648	54.78
239.865	56.83
240.083	40.45
240.3	-39.42
240.517	-27.14
240.735	30.21
240.952	15.87
241.169	-12.8
241.386	32.26
241.603	-6.66
241.821	7.68
242.038	83.45
242.255	3.58
242.472	42.5
242.689	3.58
242.907	28.16
243.124	-14.85
243.341	46.59
243.558	28.16
243.775	22.02
243.992	-16.9
244.209	26.11
244.426	52.74
244.643	7.68
244.86	-6.66
245.078	85.5
245.295	26.11
245.512	67.07
245.729	50.69
245.946	9.73
246.163	24.06
246.38	73.21
246.597	24.06
246.814	1.54
247.031	44.54
247.248	24.06
247.464	48.64
247.681	73.21
247.898	-47.62
248.115	50.69
248.332	87.55
248.549	60.93
248.766	7.68
248.983	101.89
249.2	-6.66
249.417	-33.28
249.633	-57.86
249.85	75.26
250.067	50.69
250.284	89.6
250.501	28.16
250.717	89.6
250.934	38.4
251.151	105.98
251.368	42.5
251.585	48.64
251.801	7.68
252.018	-47.62
252.235	11.78
252.451	-47.62
252.668	34.3
252.885	19.97
253.102	19.97
253.318	40.45
253.535	36.35
253.752	62.98
253.968	26.11
254.185	30.21
254.401	15.87
254.618	9.73
254.835	-8.7
255.051	-12.8
255.268	40.45
255.484	85.5
255.701	38.4
255.917	50.69
256.134	7.68
256.351	-8.7
256.567	3.58
256.784	26.11
257	-70.14
257.217	56.83
257.433	13.82
257.65	34.3
257.866	-27.14
258.082	-37.38
258.299	32.26
258.515	36.35
258.732	34.3
258.948	89.6
259.165	44.54
259.381	-8.7
259.597	89.6
259.814	-20.99
260.03	-25.09
260.246	79.36
260.463	38.4
260.679	24.06
260.895	-57.86
261.112	-0.51
261.328	40.45
261.544	-4.61
261.761	85.5
261.977	-0.51
262.193	65.02
262.409	46.59
262.626	-0.51
262.842	1.54
263.058	-39.42
263.274	26.11
263.49	38.4
263.707	11.78
263.923	40.45
264.139	-6.66
264.355	-43.52
264.571	-0.51
264.787	-8.7
265.004	40.45
265.22	7.68
265.436	-25.09
265.652	-43.52
265.868	30.21
266.084	-29.18
266.3	28.16
266.516	7.68
266.732	9.73
266.948	50.69
267.164	69.12
267.38	28.16
267.596	36.35
267.812	32.26
268.028	56.83
268.244	13.82
268.46	77.31
268.676	-27.14
268.892	1.54
269.108	3.58
269.324	3.58
269.54	40.45
269.756	36.35
269.972	36.35
270.188	-18.94
270.403	32.26
270.619	48.64
270.835	28.16
271.051	81.41
271.267	-74.24
271.483	26.11
271.698	11.78
271.914	79.36
272.13	-23.04
272.346	42.5
272.562	17.92
272.777	28.16
272.993	-6.66
273.209	34.3
273.425	36.35
273.64	7.68
273.856	32.26
274.072	-4.61
274.287	46.59
274.503	7.68
274.719	7.68
274.934	71.17
275.15	-0.51
275.366	-16.9
275.581	42.5
275.797	-6.66
276.012	-4.61
276.228	22.02
276.444	28.16
276.659	58.88
276.875	-29.18
277.09	58.88
277.306	65.02
277.521	73.21
277.737	-43.52
277.952	32.26
278.168	24.06
278.383	15.87
278.599	1.54
278.814	24.06
279.03	54.78
279.245	71.17
279.461	73.21
279.676	-8.7
279.892	38.4
280.107	91.65
280.322	-4.61
280.538	24.06
280.753	62.98
280.969	17.92
281.184	34.3
281.399	-12.8
281.615	40.45
281.83	42.5
282.045	-49.66
282.26	7.68
282.476	24.06
282.691	15.87
282.906	65.02
283.122	-31.23
283.337	38.4
283.552	73.21
283.767	17.92
283.983	7.68
284.198	-55.81
284.413	5.63
284.628	19.97
284.843	67.07
285.058	15.87
285.274	32.26
285.489	65.02
285.704	-2.56
285.919	13.82
286.134	50.69
286.349	52.74
286.564	85.5
286.779	28.16
286.995	-6.66
287.21	44.54
287.425	-55.81
287.64	-61.95
287.855	3.58
288.07	81.41
288.285	19.97
288.5	38.4
288.715	7.68
288.93	-0.51
289.145	19.97
289.36	-47.62
289.575	77.31
289.79	44.54
290.004	15.87
290.219	-47.62
290.434	32.26
290.649	-39.42
290.864	19.97
291.079	-6.66
291.294	15.87
291.509	120.32
291.724	42.5
291.938	71.17
292.153	26.11
292.368	19.97
292.583	56.83
292.798	-14.85
293.012	34.3
293.227	24.06
293.442	5.63
293.657	24.06
293.871	56.83
294.086	48.64
294.301	52.74
294.516	5.63
294.73	36.35
294.945	44.54
295.16	7.68
295.374	-23.04
295.589	40.45
295.804	3.58
296.018	-10.75
296.233	-14.85
296.447	34.3
296.662	-14.85
296.877	-25.09
297.091	28.16
297.306	67.07
297.52	32.26
297.735	48.64
297.949	15.87
298.164	77.31
298.378	-4.61
298.593	13.82
298.807	56.83
299.022	54.78
299.236	40.45
299.451	15.87
299.665	91.65
299.88	44.54
300.094	40.45
300.309	17.92
300.523	-4.61
300.737	73.21
300.952	65.02
301.166	56.83
301.381	40.45
301.595	-41.47
301.809	67.07
302.024	-8.7
302.238	44.54
302.452	83.45
302.667	-14.85
302.881	48.64
303.095	-37.38
303.309	32.26
303.524	32.26
303.738	26.11
303.952	48.64
304.166	-10.75
304.381	38.4
304.595	46.59
304.809	22.02
305.023	44.54
305.237	32.26
305.452	17.92
305.666	36.35
305.88	15.87
306.094	26.11
306.308	24.06
306.522	-6.66
306.736	34.3
306.95	17.92
307.164	-12.8
307.379	7.68
307.593	40.45
307.807	-10.75
308.021	126.46
308.235	73.21
308.449	7.68
308.663	73.21
308.877	36.35
309.091	3.58
309.305	97.79
309.519	-4.61
309.733	48.64
309.947	50.69
310.161	-27.14
310.374	91.65
310.588	32.26
310.802	-18.94
311.016	38.4
311.23	58.88
311.444	-29.18
311.658	38.4
311.872	97.79
312.085	15.87
312.299	42.5
312.513	42.5
312.727	56.83
312.941	24.06
313.154	-14.85
313.368	11.78
313.582	58.88
313.796	58.88
314.009	26.11
314.223	34.3
314.437	32.26
314.651	17.92
314.864	19.97
315.078	56.83
315.292	9.73
315.505	108.03
315.719	-18.94
315.933	19.97
316.146	62.98
316.36	-8.7
316.573	-2.56
316.787	108.03
317.001	15.87
317.214	15.87
317.428	46.59
317.641	65.02
317.855	19.97
318.068	28.16
318.282	48.64
318.495	75.26
318.709	83.45
318.922	48.64
319.136	19.97
319.349	93.69
319.563	9.73
319.776	52.74
319.99	52.74
320.203	108.03
320.417	56.83
320.63	87.55
320.843	71.17
321.057	40.45
321.27	22.02
321.483	103.93
321.697	65.02
321.91	32.26
322.124	17.92
322.337	26.11
322.55	65.02
322.763	36.35
322.977	28.16
323.19	71.17
323.403	-25.09
323.617	38.4
323.83	54.78
324.043	17.92
324.256	56.83
324.469	50.69
324.683	36.35
324.896	30.21
325.109	60.93
325.322	-27.14
325.535	3.58
325.748	22.02
325.962	19.97
326.175	-35.33
326.388	15.87
326.601	-16.9
326.814	105.98
327.027	13.82
327.24	32.26
327.453	73.21
327.666	42.5
327.879	50.69
328.092	-25.09
328.305	67.07
328.518	17.92
328.731	26.11
328.944	-37.38
329.157	-47.62
329.37	11.78
329.583	32.26
329.796	85.5
330.009	62.98
330.222	-14.85
330.435	42.5
330.648	5.63
330.861	40.45
331.073	15.87
331.286	42.5
331.499	46.59
331.712	79.36
331.925	36.35
332.138	56.83
332.35	32.26
332.563	48.64
332.776	-25.09
332.989	1.54
333.202	26.11
333.414	-10.75
333.627	44.54
333.84	-4.61
334.053	-74.24
334.265	-0.51
334.478	52.74
334.691	3.58
334.903	38.4
335.116	48.64
335.329	9.73
335.541	48.64
335.754	52.74
335.966	42.5
336.179	-8.7
336.392	24.06
336.604	15.87
336.817	118.27
337.029	89.6
337.242	56.83
337.454	-20.99
337.667	56.83
337.88	97.79
338.092	17.92
338.305	58.88
338.517	24.06
338.729	-0.51
338.942	60.93
339.154	-35.33
339.367	-64
339.579	-8.7
339.792	9.73
340.004	85.5
340.217	60.93
340.429	-27.14
340.641	-2.56
340.854	-8.7
341.066	-16.9
341.278	7.68
341.491	24.06
341.703	-14.85
341.915	36.35
342.128	62.98
342.34	9.73
342.552	52.74
342.764	28.16
342.977	54.78
343.189	11.78
343.401	28.16
343.613	58.88
343.826	34.3
344.038	15.87
344.25	69.12
344.462	32.26
344.674	52.74
344.886	56.83
345.099	-12.8
345.311	22.02
345.523	103.93
345.735	-2.56
345.947	26.11
346.159	42.5
346.371	-8.7
346.583	-16.9
346.795	60.93
347.007	38.4
347.219	60.93
347.431	-31.23
347.643	50.69
347.855	-45.57
348.067	67.07
348.279	50.69
348.491	5.63
348.703	56.83
348.915	17.92
349.127	52.74
349.339	60.93
349.551	42.5
349.763	-8.7
349.975	-33.28
350.187	9.73
350.399	19.97
350.61	65.02
350.822	69.12
351.034	93.69
351.246	65.02
351.458	34.3
351.669	-16.9
351.881	-6.66
352.093	-2.56
352.305	58.88
352.517	71.17
352.728	7.68
352.94	22.02
353.152	81.41
353.363	93.69
353.575	13.82
353.787	17.92
353.999	11.78
354.21	52.74
354.422	46.59
354.633	58.88
354.845	56.83
355.057	132.61
355.268	44.54
355.48	19.97
355.692	28.16
355.903	30.21
356.115	17.92
356.326	-12.8
356.538	75.26
356.749	42.5
356.961	11.78
357.172	77.31
357.384	40.45
357.595	67.07
357.807	-8.7
358.018	75.26
358.23	1.54
358.441	-16.9
358.653	89.6
358.864	-10.75
359.075	9.73
359.287	50.69
359.498	81.41
359.709	30.21
359.921	34.3
360.132	17.92
360.344	85.5
360.555	52.74
360.766	62.98
360.977	17.92
361.189	1.54
361.4	1.54
361.611	48.64
361.823	-6.66
362.034	-29.18
362.245	11.78
362.456	26.11
362.667	89.6
362.879	1.54
363.09	13.82
363.301	71.17
363.512	26.11
363.723	19.97
363.935	40.45
364.146	28.16
364.357	-10.75
364.568	7.68
364.779	26.11
364.99	97.79
365.201	24.06
365.412	24.06
365.623	28.16
365.834	65.02
366.045	50.69
366.256	56.83
366.467	73.21
366.678	56.83
366.889	-6.66
367.1	44.54
367.311	22.02
367.522	52.74
367.733	48.64
367.944	3.58
368.155	-53.76
368.366	67.07
368.577	7.68
368.788	99.84
368.999	124.41
369.209	75.26
369.42	-16.9
369.631	48.64
369.842	26.11
370.053	44.54
370.264	32.26
370.474	19.97
370.685	-20.99
370.896	15.87
371.107	99.84
371.317	52.74
371.528	-23.04
371.739	-18.94
371.95	-23.04
372.16	42.5
372.371	50.69
372.582	36.35
372.792	34.3
373.003	52.74
373.214	-27.14
373.424	11.78
373.635	56.83
373.846	56.83
374.056	11.78
374.267	48.64
374.477	9.73
374.688	-94.72
374.898	56.83
375.109	13.82
375.319	34.3
375.53	103.93
375.74	71.17
375.951	65.02
376.161	77.31
376.372	38.4
376.582	79.36
376.793	42.5
377.003	-8.7
377.214	105.98
377.424	-20.99
377.635	32.26
377.845	24.06
378.055	93.69
378.266	24.06
378.476	124.41
378.686	38.4
378.897	24.06
379.107	105.98
379.317	32.26
379.528	97.79
379.738	69.12
379.948	-8.7
380.158	50.69
380.369	46.59
380.579	17.92
380.789	67.07
380.999	81.41
381.21	73.21
381.42	79.36
381.63	17.92
381.84	58.88
382.05	19.97
382.261	48.64
382.471	65.02
382.681	3.58
382.891	67.07
383.101	46.59
383.311	58.88
383.521	62.98
383.731	46.59
383.941	44.54
384.151	48.64
384.361	5.63
384.571	42.5
384.781	42.5
384.991	40.45
385.201	9.73
385.411	-0.51
385.621	38.4
385.831	32.26
386.041	81.41
386.251	99.84
386.461	58.88
386.671	24.06
386.881	28.16
387.091	9.73
387.301	67.07
387.511	-0.51
387.72	7.68
387.93	48.64
388.14	48.64
388.35	-43.52
388.56	40.45
388.769	15.87
388.979	93.69
389.189	77.31
389.399	87.55
389.609	24.06
389.818	-8.7
390.028	1.54
390.238	30.21
390.447	3.58
390.657	15.87
390.867	-12.8
391.076	62.98
391.286	19.97
391.496	36.35
391.705	-14.85
391.915	69.12
392.125	-31.23
392.334	75.26
392.544	13.82
392.753	26.11
392.963	50.69
393.172	105.98
393.382	85.5
393.591	44.54
393.801	40.45
394.01	-2.56
394.22	54.78
394.429	81.41
394.639	38.4
394.848	67.07
395.058	83.45
395.267	99.84
395.477	24.06
395.686	-16.9
395.895	38.4
396.105	50.69
396.314	81.41
396.524	54.78
396.733	11.78
396.942	34.3
397.152	60.93
397.361	110.08
397.57	30.21
397.78	89.6
397.989	58.88
398.198	89.6
398.407	56.83
398.617	87.55
398.826	58.88
399.035	52.74
399.244	79.36
399.453	77.31
399.663	83.45
399.872	105.98
400.081	26.11
400.29	130.56
400.499	77.31
400.708	73.21
400.917	122.37
401.127	42.5
401.336	48.64
401.545	50.69
401.754	44.54
401.963	138.75
402.172	81.41
402.381	30.21
402.59	89.6
402.799	71.17
403.008	50.69
403.217	58.88
403.426	85.5
403.635	89.6
403.844	79.36
404.053	108.03
404.262	81.41
404.471	114.17
404.68	134.65
404.888	175.61
405.097	101.89
405.306	142.85
405.515	146.94
405.724	122.37
405.933	91.65
406.142	134.65
406.35	120.32
406.559	192
406.768	58.88
406.977	163.33
407.185	105.98
407.394	146.94
407.603	169.47
407.812	118.27
408.02	140.8
408.229	146.94
408.438	173.57
408.646	161.28
408.855	212.48
409.064	183.81
409.272	179.71
409.481	220.67
409.69	200.19
409.898	214.52
410.107	177.66
410.315	187.9
410.524	243.2
410.733	235
410.941	269.82
411.15	278.01
411.358	230.91
411.567	245.24
411.775	269.82
411.984	312.83
412.192	290.3
412.401	263.68
412.609	361.98
412.818	361.98
413.026	288.25
413.234	280.06
413.443	316.92
413.651	318.97
413.86	364.03
414.068	450.04
414.276	404.99
414.485	409.08
414.693	382.46
414.901	507.38
415.11	495.1
415.318	456.19
415.526	486.9
415.734	540.15
415.943	562.68
416.151	550.39
416.359	558.58
416.567	622.07
416.776	671.22
416.984	671.22
417.192	620.02
417.4	716.28
417.608	638.45
417.817	632.31
418.025	660.98
418.233	736.76
418.441	779.76
418.649	884.21
418.857	818.68
419.065	851.44
419.273	767.48
419.481	904.69
419.689	943.6
419.897	1015.28
420.105	1046
420.313	1011.18
420.521	1041.9
420.729	1109.49
420.937	1162.73
421.145	992.75
421.353	1179.12
421.561	1222.13
421.769	1199.6
421.977	1351.15
422.185	1314.28
422.393	1488.36
422.601	1490.41
422.809	1463.79
423.017	1457.64
423.224	1592.81
423.432	1617.38
423.64	1648.1
423.848	1777.12
424.056	1687.01
424.263	1943.01
424.471	1902.05
424.679	2012.64
424.887	1924.58
425.094	1943.01
425.302	2065.89
425.51	2094.56
425.718	2201.05
425.925	2186.72
426.133	2311.64
426.341	2383.32
426.548	2532.83
426.756	2555.35
426.964	2604.5
427.171	2792.92
427.379	2805.21
427.586	2651.61
427.794	2915.8
428.001	2893.27
428.209	3216.85
428.417	3089.87
428.624	3245.52
428.832	3290.57
429.039	3317.2
429.247	3370.44
429.454	3546.57
429.662	3874.24
429.869	3573.19
430.076	3931.59
430.284	3734.98
430.491	3861.96
430.699	4120
430.906	4144.58
431.114	4173.25
431.321	4365.76
431.528	4308.41
431.736	4668.86
431.943	4869.56
432.15	4879.8
432.358	4861.37
432.565	5264.82
432.772	5191.09
432.979	5447.08
433.187	5381.55
433.394	5406.13
433.601	5754.28
433.808	5746.09
434.016	5821.86
434.223	6065.57
434.43	6432.16
434.637	6217.12
434.844	6628.76
435.052	6835.61
435.259	6698.39
435.466	6923.67
435.673	6710.68
435.88	7124.37
436.087	7519.63
436.294	7583.12
436.501	7406.99
436.708	7409.04
436.915	7724.43
437.122	8082.82
437.329	8170.88
437.537	8334.72
437.743	8512.89
437.95	8226.18
438.157	8756.6
438.364	9219.44
438.571	8877.43
438.778	9260.4
438.985	10075.49
439.192	9594.22
439.399	9813.35
439.606	9692.52
439.813	10259.81
440.02	10599.77
440.227	10644.83
440.433	10532.19
440.64	10937.69
440.847	10732.89
441.054	11175.25
441.261	11808.08
441.467	11765.07
441.674	11928.91
441.881	12324.16
442.088	12328.26
442.294	12279.11
442.501	12541.25
442.708	12942.65
442.914	13387.06
443.121	13749.55
443.328	13280.57
443.534	14353.7
443.741	13817.13
443.948	13790.51
444.154	14849.31
444.361	14679.33
444.568	14859.55
444.774	14572.83
444.981	14830.88
445.187	15256.86
445.394	16198.92
445.6	15822.09
445.807	17233.15
446.013	16479.49
446.22	16669.95
446.426	17476.85
446.633	17624.31
446.839	18396.39
447.046	17706.23
447.252	18431.21
447.459	18533.61
447.665	18482.41
447.871	19539.16
448.078	20104.4
448.284	19211.48
448.491	19438.81
448.697	20616.39
448.903	20628.68
449.11	20759.75
449.316	20632.77
449.522	20782.27
449.728	21515.45
449.935	21812.4
450.141	21320.89
450.347	22170.8
450.553	21431.48
450.76	21695.67
450.966	22326.44
451.172	22176.94
451.378	22815.91
451.584	22064.3
451.791	22477.99
451.997	22682.79
452.203	22863.01
452.409	23004.32
452.615	22762.66
452.821	21912.75
453.027	21902.51
453.233	22836.39
453.44	22103.21
453.646	22129.84
453.852	22019.25
454.058	22572.2
454.264	22101.17
454.47	22391.98
454.676	21601.46
454.882	22656.17
455.088	20509.9
455.294	21044.41
455.5	21275.84
455.705	21372.09
455.911	20380.87
456.117	20104.4
456.323	19926.22
456.529	18687.2
456.735	19791.06
456.941	19258.59
457.147	18924.77
457.352	18339.05
457.558	18263.27
457.764	18117.87
457.97	17706.23
458.176	17136.89
458.381	17399.03
458.587	16645.38
458.793	16293.13
458.999	15621.39
459.204	16712.96
459.41	16477.44
459.616	15281.43
459.821	15402.26
460.027	15191.32
460.233	14918.94
460.438	14116.14
460.644	14513.44
460.85	13692.21
461.055	13335.86
461.261	13483.31
461.466	12500.29
461.672	12201.29
461.878	13016.38
462.083	11949.39
462.289	11820.36
462.494	11582.8
462.7	11091.29
462.905	10812.76
463.111	11224.4
463.316	11457.87
463.522	11066.71
463.727	11289.94
463.932	11322.71
464.138	11130.2
464.343	11038.04
464.549	10657.12
464.754	11214.16
464.959	11066.71
465.165	11070.81
465.37	10509.66
465.575	10358.11
465.781	10759.52
465.986	10646.88
466.191	10491.23
466.397	10214.76
466.602	9600.37
466.807	10093.93
467.012	10044.77
467.218	10005.86
467.423	9842.03
467.628	9844.07
467.833	10194.28
468.038	9948.52
468.244	9735.53
468.449	9915.75
468.654	9741.68
468.859	9758.06
469.064	9411.95
469.269	9129.33
