Data from USB4F104151__232__14-00-49-479.txt Node

Date: Thu Mar 13 14:00:49 EDT 2025
User: louis
Spectrometer: USB4F10415
Trigger mode: 4
Integration Time (sec): 1.000000E-2
Scans to average: 1
Electric dark correction enabled: true
Nonlinearity correction enabled: false
Boxcar width: 0
XAxis mode: Wavelengths
Number of Pixels in Spectrum: 3648
>>>>>Begin Spectral Data<<<<<
178.204	-69.97
178.424	-69.97
178.644	-69.97
178.864	-59.73
179.084	-35.16
179.304	42.67
179.524	-16.73
179.744	20.14
179.964	16.04
180.184	-86.36
180.404	36.52
180.624	-6.49
180.844	-20.82
181.064	-47.44
181.283	-2.39
181.503	-4.44
181.723	69.29
181.943	-10.58
182.163	5.8
182.383	-35.16
182.602	20.14
182.822	-4.44
183.042	3.75
183.262	-112.98
183.482	-10.58
183.701	9.9
183.921	36.52
184.141	44.71
184.361	1.71
184.58	-4.44
184.8	18.09
185.02	26.28
185.239	57
185.459	30.38
185.679	-61.78
185.898	52.91
186.118	-16.73
186.338	32.43
186.557	83.63
186.777	3.75
186.997	3.75
187.216	20.14
187.436	20.14
187.655	34.47
187.875	-4.44
188.095	-78.16
188.314	63.15
188.534	-20.82
188.753	44.71
188.973	42.67
189.192	11.95
189.412	48.81
189.631	26.28
189.851	93.87
190.07	-2.39
190.29	-16.73
190.509	85.67
190.729	32.43
190.948	48.81
191.168	102.06
191.387	-43.35
191.607	26.28
191.826	52.91
192.045	1.71
192.265	-20.82
192.484	-2.39
192.704	-45.4
192.923	-37.2
193.142	3.75
193.362	-49.49
193.581	-20.82
193.8	16.04
194.02	-22.87
194.239	7.85
194.458	50.86
194.678	-35.16
194.897	13.99
195.116	-16.73
195.335	7.85
195.555	11.95
195.774	-31.06
195.993	18.09
196.212	-10.58
196.432	-18.77
196.651	32.43
196.87	26.28
197.089	32.43
197.308	-16.73
197.528	-4.44
197.747	11.95
197.966	-24.92
198.185	44.71
198.404	-8.53
198.623	38.57
198.842	22.19
199.062	-12.63
199.281	-29.01
199.5	-14.68
199.719	28.33
199.938	11.95
200.157	36.52
200.376	-0.34
200.595	-18.77
200.814	-65.88
201.033	-12.63
201.252	-0.34
201.471	18.09
201.69	26.28
201.909	-26.96
202.128	42.67
202.347	-6.49
202.566	-51.54
202.785	24.23
203.004	3.75
203.223	13.99
203.442	-26.96
203.661	5.8
203.879	16.04
204.098	-20.82
204.317	77.48
204.536	112.3
204.755	20.14
204.974	-8.53
205.193	32.43
205.411	28.33
205.63	-35.16
205.849	-59.73
206.068	20.14
206.287	-2.39
206.505	11.95
206.724	18.09
206.943	-39.25
207.162	-35.16
207.381	36.52
207.599	46.76
207.818	44.71
208.037	11.95
208.255	77.48
208.474	-16.73
208.693	16.04
208.911	16.04
209.13	9.9
209.349	-24.92
209.567	50.86
209.786	7.85
210.005	-8.53
210.223	-16.73
210.442	22.19
210.661	20.14
210.879	32.43
211.098	-12.63
211.316	-43.35
211.535	81.58
211.753	-53.59
211.972	11.95
212.191	-39.25
212.409	-2.39
212.628	-14.68
212.846	1.71
213.065	-12.63
213.283	87.72
213.502	7.85
213.72	34.47
213.938	44.71
214.157	-39.25
214.375	22.19
214.594	-16.73
214.812	-8.53
215.031	3.75
215.249	-33.11
215.467	5.8
215.686	57
215.904	57
216.122	-51.54
216.341	-18.77
216.559	-35.16
216.778	71.34
216.996	18.09
217.214	85.67
217.432	61.1
217.651	-22.87
217.869	-4.44
218.087	73.39
218.306	-4.44
218.524	11.95
218.742	-24.92
218.96	-49.49
219.179	-4.44
219.397	50.86
219.615	-12.63
219.833	5.8
220.051	-41.3
220.27	73.39
220.488	32.43
220.706	-10.58
220.924	67.24
221.142	38.57
221.36	-49.49
221.578	-0.34
221.796	34.47
222.015	61.1
222.233	-33.11
222.451	-0.34
222.669	-43.35
222.887	44.71
223.105	-24.92
223.323	36.52
223.541	-14.68
223.759	44.71
223.977	16.04
224.195	-41.3
224.413	26.28
224.631	1.71
224.849	-35.16
225.067	69.29
225.285	-49.49
225.503	93.87
225.721	-41.3
225.939	36.52
226.157	-86.36
226.375	93.87
226.592	3.75
226.81	-12.63
227.028	28.33
227.246	-26.96
227.464	32.43
227.682	28.33
227.9	7.85
228.117	7.85
228.335	-14.68
228.553	-10.58
228.771	48.81
228.989	9.9
229.206	73.39
229.424	-86.36
229.642	-12.63
229.86	5.8
230.077	38.57
230.295	28.33
230.513	-6.49
230.731	83.63
230.948	38.57
231.166	-33.11
231.384	7.85
231.601	-20.82
231.819	-4.44
232.037	16.04
232.254	20.14
232.472	28.33
232.689	52.91
232.907	7.85
233.125	-6.49
233.342	-35.16
233.56	-20.82
233.777	48.81
233.995	-43.35
234.213	-39.25
234.43	-0.34
234.648	42.67
234.865	11.95
235.083	40.62
235.3	-35.16
235.518	1.71
235.735	20.14
235.953	28.33
236.17	28.33
236.388	38.57
236.605	-53.59
236.822	-53.59
237.04	30.38
237.257	3.75
237.475	26.28
237.692	32.43
237.909	77.48
238.127	77.48
238.344	26.28
238.562	16.04
238.779	40.62
238.996	1.71
239.214	5.8
239.431	-12.63
239.648	42.67
239.865	22.19
240.083	38.57
240.3	44.71
240.517	-10.58
240.735	40.62
240.952	30.38
241.169	-72.02
241.386	-20.82
241.603	-4.44
241.821	-65.88
242.038	-61.78
242.255	38.57
242.472	-10.58
242.689	69.29
242.907	-45.4
243.124	-69.97
243.341	32.43
243.558	61.1
243.775	-12.63
243.992	-49.49
244.209	-0.34
244.426	63.15
244.643	44.71
244.86	-14.68
245.078	65.19
245.295	-2.39
245.512	16.04
245.729	-10.58
245.946	1.71
246.163	1.71
246.38	-43.35
246.597	-10.58
246.814	9.9
247.031	-47.44
247.248	-4.44
247.464	7.85
247.681	11.95
247.898	32.43
248.115	46.76
248.332	36.52
248.549	-26.96
248.766	38.57
248.983	28.33
249.2	-20.82
249.417	44.71
249.633	-33.11
249.85	54.95
250.067	-63.83
250.284	-18.77
250.501	24.23
250.717	61.1
250.934	-22.87
251.151	-45.4
251.368	-45.4
251.585	32.43
251.801	3.75
252.018	44.71
252.235	16.04
252.451	-41.3
252.668	13.99
252.885	30.38
253.102	-18.77
253.318	-12.63
253.535	-22.87
253.752	-59.73
253.968	-47.44
254.185	67.24
254.401	-2.39
254.618	-12.63
254.835	-43.35
255.051	16.04
255.268	-8.53
255.484	61.1
255.701	-45.4
255.917	-8.53
256.134	34.47
256.351	81.58
256.567	-8.53
256.784	20.14
257	-18.77
257.217	32.43
257.433	36.52
257.65	-18.77
257.866	36.52
258.082	44.71
258.299	54.95
258.515	-10.58
258.732	9.9
258.948	-16.73
259.165	11.95
259.381	-14.68
259.597	40.62
259.814	5.8
260.03	-10.58
260.246	-74.07
260.463	24.23
260.679	61.1
260.895	38.57
261.112	-4.44
261.328	-2.39
261.544	9.9
261.761	3.75
261.977	65.19
262.193	38.57
262.409	75.43
262.626	-8.53
262.842	3.75
263.058	24.23
263.274	-41.3
263.49	-31.06
263.707	24.23
263.923	40.62
264.139	7.85
264.355	-35.16
264.571	28.33
264.787	-55.64
265.004	-12.63
265.22	20.14
265.436	71.34
265.652	-57.68
265.868	36.52
266.084	-20.82
266.3	-29.01
266.516	-33.11
266.732	7.85
266.948	11.95
267.164	-16.73
267.38	1.71
267.596	52.91
267.812	20.14
268.028	11.95
268.244	46.76
268.46	65.19
268.676	-16.73
268.892	22.19
269.108	28.33
269.324	-0.34
269.54	32.43
269.756	-4.44
269.972	-61.78
270.188	-2.39
270.403	-8.53
270.619	30.38
270.835	32.43
271.051	22.19
271.267	63.15
271.483	-8.53
271.698	-31.06
271.914	13.99
272.13	-67.92
272.346	40.62
272.562	65.19
272.777	36.52
272.993	-80.21
273.209	-10.58
273.425	69.29
273.64	7.85
273.856	104.11
274.072	-29.01
274.287	-12.63
274.503	83.63
274.719	16.04
274.934	28.33
275.15	-57.68
275.366	-18.77
275.581	-76.12
275.797	22.19
276.012	-51.54
276.228	16.04
276.444	34.47
276.659	-31.06
276.875	-59.73
277.09	-2.39
277.306	59.05
277.521	22.19
277.737	7.85
277.952	73.39
278.168	22.19
278.383	-16.73
278.599	-82.26
278.814	36.52
279.03	26.28
279.245	-2.39
279.461	22.19
279.676	3.75
279.892	-6.49
280.107	54.95
280.322	20.14
280.538	-45.4
280.753	32.43
280.969	81.58
281.184	22.19
281.399	38.57
281.615	-61.78
281.83	-39.25
282.045	-20.82
282.26	-16.73
282.476	-59.73
282.691	20.14
282.906	-0.34
283.122	5.8
283.337	18.09
283.552	-16.73
283.767	48.81
283.983	-78.16
284.198	-57.68
284.413	34.47
284.628	-67.92
284.843	20.14
285.058	-0.34
285.274	54.95
285.489	-14.68
285.704	44.71
285.919	-20.82
286.134	-37.2
286.349	30.38
286.564	48.81
286.779	81.58
286.995	-49.49
287.21	-47.44
287.425	-14.68
287.64	34.47
287.855	38.57
288.07	-0.34
288.285	-43.35
288.5	67.24
288.715	7.85
288.93	11.95
289.145	18.09
289.36	46.76
289.575	-43.35
289.79	13.99
290.004	59.05
290.219	20.14
290.434	38.57
290.649	-39.25
290.864	32.43
291.079	-10.58
291.294	-33.11
291.509	40.62
291.724	46.76
291.938	79.53
292.153	-16.73
292.368	54.95
292.583	3.75
292.798	61.1
293.012	9.9
293.227	63.15
293.442	38.57
293.657	22.19
293.871	50.86
294.086	57
294.301	40.62
294.516	-22.87
294.73	-26.96
294.945	3.75
295.16	-39.25
295.374	20.14
295.589	38.57
295.804	22.19
296.018	-16.73
296.233	32.43
296.447	38.57
296.662	-22.87
296.877	7.85
297.091	26.28
297.306	20.14
297.52	42.67
297.735	-26.96
297.949	20.14
298.164	54.95
298.378	3.75
298.593	-24.92
298.807	40.62
299.022	-16.73
299.236	13.99
299.451	11.95
299.665	13.99
299.88	30.38
300.094	-74.07
300.309	79.53
300.523	-24.92
300.737	85.67
300.952	-8.53
301.166	28.33
301.381	-104.79
301.595	-20.82
301.809	-16.73
302.024	28.33
302.238	-18.77
302.452	54.95
302.667	-26.96
302.881	59.05
303.095	36.52
303.309	-22.87
303.524	7.85
303.738	16.04
303.952	-55.64
304.166	48.81
304.381	-35.16
304.595	-12.63
304.809	-100.69
305.023	-20.82
305.237	-20.82
305.452	3.75
305.666	-10.58
305.88	30.38
306.094	-12.63
306.308	18.09
306.522	91.82
306.736	52.91
306.95	46.76
307.164	30.38
307.379	26.28
307.593	11.95
307.807	75.43
308.021	24.23
308.235	20.14
308.449	114.34
308.663	-8.53
308.877	-37.2
309.091	61.1
309.305	-55.64
309.519	5.8
309.733	18.09
309.947	1.71
310.161	-63.83
310.374	-49.49
310.588	30.38
310.802	-24.92
311.016	16.04
311.23	-0.34
311.444	54.95
311.658	24.23
311.872	20.14
312.085	16.04
312.299	77.48
312.513	65.19
312.727	44.71
312.941	-8.53
313.154	26.28
313.368	-12.63
313.582	16.04
313.796	-61.78
314.009	3.75
314.223	-20.82
314.437	-12.63
314.651	22.19
314.864	-18.77
315.078	-26.96
315.292	-0.34
315.505	20.14
315.719	1.71
315.933	3.75
316.146	-26.96
316.36	-16.73
316.573	40.62
316.787	30.38
317.001	-2.39
317.214	-16.73
317.428	22.19
317.641	-4.44
317.855	40.62
318.068	-6.49
318.282	-53.59
318.495	-29.01
318.709	38.57
318.922	20.14
319.136	61.1
319.349	16.04
319.563	48.81
319.776	-0.34
319.99	24.23
320.203	-8.53
320.417	-26.96
320.63	46.76
320.843	34.47
321.057	-2.39
321.27	40.62
321.483	-2.39
321.697	16.04
321.91	9.9
322.124	11.95
322.337	-18.77
322.55	-45.4
322.763	16.04
322.977	34.47
323.19	22.19
323.403	-12.63
323.617	22.19
323.83	3.75
324.043	-47.44
324.256	-49.49
324.469	7.85
324.683	34.47
324.896	26.28
325.109	52.91
325.322	-18.77
325.535	20.14
325.748	44.71
325.962	-0.34
326.175	30.38
326.388	26.28
326.601	42.67
326.814	-35.16
327.027	36.52
327.24	38.57
327.453	-37.2
327.666	-4.44
327.879	24.23
328.092	24.23
328.305	91.82
328.518	26.28
328.731	-6.49
328.944	79.53
329.157	1.71
329.37	69.29
329.583	46.76
329.796	59.05
330.009	-12.63
330.222	40.62
330.435	-4.44
330.648	69.29
330.861	71.34
331.073	24.23
331.286	22.19
331.499	-8.53
331.712	-24.92
331.925	-20.82
332.138	5.8
332.35	13.99
332.563	-33.11
332.776	40.62
332.989	28.33
333.202	32.43
333.414	22.19
333.627	11.95
333.84	50.86
334.053	-43.35
334.265	-67.92
334.478	67.24
334.691	57
334.903	20.14
335.116	32.43
335.329	81.58
335.541	3.75
335.754	24.23
335.966	50.86
336.179	28.33
336.392	-0.34
336.604	13.99
336.817	-4.44
337.029	38.57
337.242	26.28
337.454	63.15
337.667	-26.96
337.88	100.01
338.092	38.57
338.305	11.95
338.517	18.09
338.729	52.91
338.942	48.81
339.154	42.67
339.367	18.09
339.579	83.63
339.792	-39.25
340.004	44.71
340.217	9.9
340.429	-45.4
340.641	-33.11
340.854	-2.39
341.066	20.14
341.278	16.04
341.491	11.95
341.703	48.81
341.915	11.95
342.128	40.62
342.34	-33.11
342.552	-10.58
342.764	9.9
342.977	-8.53
343.189	63.15
343.401	38.57
343.613	-51.54
343.826	36.52
344.038	-10.58
344.25	-33.11
344.462	-0.34
344.674	-4.44
344.886	-18.77
345.099	36.52
345.311	-24.92
345.523	5.8
345.735	28.33
345.947	-39.25
346.159	-51.54
346.371	63.15
346.583	24.23
346.795	20.14
347.007	-45.4
347.219	36.52
347.431	-45.4
347.643	75.43
347.855	83.63
348.067	69.29
348.279	-55.64
348.491	3.75
348.703	-74.07
348.915	50.86
349.127	-26.96
349.339	48.81
349.551	26.28
349.763	-31.06
349.975	38.57
350.187	61.1
350.399	54.95
350.61	59.05
350.822	32.43
351.034	61.1
351.246	-20.82
351.458	36.52
351.669	-22.87
351.881	24.23
352.093	13.99
352.305	-29.01
352.517	44.71
352.728	46.76
352.94	-8.53
353.152	20.14
353.363	3.75
353.575	48.81
353.787	5.8
353.999	102.06
354.21	11.95
354.422	-0.34
354.633	22.19
354.845	44.71
355.057	26.28
355.268	-43.35
355.48	-29.01
355.692	24.23
355.903	28.33
356.115	11.95
356.326	40.62
356.538	81.58
356.749	42.67
356.961	18.09
357.172	34.47
357.384	1.71
357.595	54.95
357.807	-12.63
358.018	22.19
358.23	3.75
358.441	-12.63
358.653	-26.96
358.864	38.57
359.075	-16.73
359.287	24.23
359.498	83.63
359.709	134.82
359.921	7.85
360.132	-12.63
360.344	48.81
360.555	77.48
360.766	75.43
360.977	42.67
361.189	7.85
361.4	-8.53
361.611	30.38
361.823	40.62
362.034	-10.58
362.245	13.99
362.456	59.05
362.667	-26.96
362.879	-16.73
363.09	38.57
363.301	5.8
363.512	1.71
363.723	28.33
363.935	5.8
364.146	20.14
364.357	-18.77
364.568	-55.64
364.779	-45.4
364.99	44.71
365.201	26.28
365.412	63.15
365.623	73.39
365.834	-29.01
366.045	24.23
366.256	3.75
366.467	71.34
366.678	-16.73
366.889	-37.2
367.1	-4.44
367.311	5.8
367.522	-29.01
367.733	11.95
367.944	63.15
368.155	79.53
368.366	38.57
368.577	-35.16
368.788	3.75
368.999	69.29
369.209	11.95
369.42	40.62
369.631	3.75
369.842	71.34
370.053	-2.39
370.264	16.04
370.474	24.23
370.685	42.67
370.896	-45.4
371.107	75.43
371.317	71.34
371.528	7.85
371.739	22.19
371.95	159.4
372.16	40.62
372.371	50.86
372.582	34.47
372.792	122.54
373.003	40.62
373.214	20.14
373.424	20.14
373.635	30.38
373.846	54.95
374.056	40.62
374.267	71.34
374.477	54.95
374.688	36.52
374.898	11.95
375.109	1.71
375.319	61.1
375.53	40.62
375.74	28.33
375.951	20.14
376.161	52.91
376.372	46.76
376.582	22.19
376.793	24.23
377.003	-22.87
377.214	13.99
377.424	-14.68
377.635	26.28
377.845	24.23
378.055	18.09
378.266	40.62
378.476	5.8
378.686	24.23
378.897	54.95
379.107	73.39
379.317	28.33
379.528	-59.73
379.738	24.23
379.948	-12.63
380.158	71.34
380.369	50.86
380.579	54.95
380.789	1.71
380.999	106.15
381.21	11.95
381.42	-29.01
381.63	11.95
381.84	102.06
382.05	36.52
382.261	-29.01
382.471	114.34
382.681	28.33
382.891	24.23
383.101	-26.96
383.311	50.86
383.521	-0.34
383.731	-14.68
383.941	63.15
384.151	48.81
384.361	5.8
384.571	59.05
384.781	63.15
384.991	57
385.201	91.82
385.411	-47.44
385.621	61.1
385.831	20.14
386.041	24.23
386.251	11.95
386.461	-10.58
386.671	3.75
386.881	50.86
387.091	46.76
387.301	30.38
387.511	61.1
387.72	81.58
387.93	13.99
388.14	40.62
388.35	-20.82
388.56	81.58
388.769	81.58
388.979	63.15
389.189	7.85
389.399	40.62
389.609	3.75
389.818	63.15
390.028	16.04
390.238	40.62
390.447	-0.34
390.657	36.52
390.867	36.52
391.076	28.33
391.286	48.81
391.496	-43.35
391.705	-22.87
391.915	71.34
392.125	13.99
392.334	30.38
392.544	48.81
392.753	-14.68
392.963	24.23
393.172	46.76
393.382	104.11
393.591	124.58
393.801	69.29
394.01	7.85
394.22	54.95
394.429	50.86
394.639	13.99
394.848	32.43
395.058	100.01
395.267	28.33
395.477	46.76
395.686	34.47
395.895	38.57
396.105	3.75
396.314	-10.58
396.524	79.53
396.733	-18.77
396.942	89.77
397.152	7.85
397.361	124.58
397.57	116.39
397.78	93.87
397.989	36.52
398.198	120.49
398.407	30.38
398.617	48.81
398.826	36.52
399.035	61.1
399.244	24.23
399.453	38.57
399.663	97.96
399.872	77.48
400.081	75.43
400.29	57
400.499	83.63
400.708	7.85
400.917	89.77
401.127	71.34
401.336	32.43
401.545	28.33
401.754	97.96
401.963	46.76
402.172	106.15
402.381	32.43
402.59	24.23
402.799	77.48
403.008	75.43
403.217	81.58
403.426	52.91
403.635	26.28
403.844	24.23
404.053	38.57
404.262	151.21
404.471	112.3
404.68	83.63
404.888	89.77
405.097	81.58
405.306	75.43
405.515	114.34
405.724	52.91
405.933	32.43
406.142	110.25
406.35	110.25
406.559	104.11
406.768	194.22
406.977	169.64
407.185	110.25
407.394	112.3
407.603	155.3
407.812	183.98
408.02	147.11
408.229	42.67
408.438	102.06
408.646	106.15
408.855	161.45
409.064	81.58
409.272	161.45
409.481	175.78
409.69	235.18
409.898	183.98
410.107	163.5
410.315	128.68
410.524	222.89
410.733	284.33
410.941	169.64
411.15	249.51
411.358	247.46
411.567	186.02
411.775	296.61
411.984	261.8
412.192	339.62
412.401	284.33
412.609	323.24
412.818	331.43
413.026	335.53
413.234	315.05
413.443	347.81
413.651	351.91
413.86	394.92
414.068	366.25
414.276	392.87
414.485	392.87
414.693	425.64
414.901	435.88
415.11	448.16
415.318	439.97
415.526	446.12
415.734	528.03
415.943	566.95
416.151	562.85
416.359	528.03
416.567	468.64
416.776	587.43
416.984	652.96
417.192	632.48
417.4	601.76
417.608	591.52
417.817	648.86
418.025	659.1
418.233	712.35
418.441	732.83
418.649	728.74
418.857	954.01
419.065	822.94
419.273	894.62
419.481	865.95
419.689	904.86
419.897	933.53
420.105	958.11
420.313	1027.74
420.521	1068.7
420.729	1027.74
420.937	1062.55
421.145	1171.1
421.353	1123.99
421.561	1228.44
421.769	1244.82
421.977	1314.45
422.185	1318.55
422.393	1349.27
422.601	1449.62
422.809	1511.06
423.017	1472.15
423.224	1496.72
423.432	1576.59
423.64	1513.11
423.848	1668.75
424.056	1642.13
424.263	1824.4
424.471	1957.52
424.679	1846.93
424.887	1939.09
425.094	2018.96
425.302	2115.21
425.51	2076.3
425.718	2109.07
425.925	2174.6
426.133	2279.05
426.341	2408.07
426.548	2516.61
426.756	2504.32
426.964	2469.51
427.171	2676.35
427.379	2711.17
427.586	2758.27
427.794	2756.22
428.001	2895.49
428.209	3006.08
428.417	3155.58
428.624	3192.44
428.832	3255.93
429.039	3143.29
429.247	3217.02
429.454	3661.43
429.662	3716.72
429.869	3522.16
430.076	3747.44
430.284	3606.13
430.491	3905.14
430.699	4036.21
430.906	4154.99
431.114	4101.74
431.321	4261.48
431.528	4456.04
431.736	4787.81
431.943	4894.3
432.15	4691.56
432.358	4781.67
432.565	5162.59
432.772	5000.8
432.979	5207.64
433.187	5371.48
433.394	5224.03
433.601	5656.15
433.808	5705.3
434.016	5807.7
434.223	5994.06
434.43	6336.07
434.637	6147.66
434.844	6598.21
435.052	6733.38
435.259	6573.64
435.466	6872.64
435.673	6729.28
435.88	7157.31
436.087	7425.59
436.294	7321.15
436.501	7228.99
436.708	7419.45
436.915	7923.25
437.122	8150.57
437.329	8019.5
437.537	8236.59
437.743	8447.53
437.95	8318.51
438.157	8810.02
438.364	8879.65
438.571	8916.51
438.778	9236
438.985	10090
439.192	9657.88
439.399	9956.88
439.606	9463.32
439.813	10014.23
440.02	10792.45
440.227	10653.19
440.433	10362.38
440.64	10751.49
440.847	10862.08
441.054	10890.76
441.261	11750.9
441.467	11847.16
441.674	11640.31
441.881	12017.14
442.088	12105.2
442.294	11978.23
442.501	12320.24
442.708	12797.42
442.914	13174.24
443.121	13784.54
443.328	13272.54
443.534	14126.55
443.741	13950.42
443.948	13546.97
444.154	14646.73
444.361	14620.11
444.568	14872.01
444.774	14720.46
444.981	14753.23
445.187	15424.96
445.394	15758.78
445.6	15556.03
445.807	17165.73
446.013	16330.16
446.22	16723.37
446.426	17511.84
446.633	17454.5
446.839	18242.96
447.046	17610.14
447.252	18103.7
447.459	18468.24
447.665	18322.84
447.871	19139.97
448.078	19807.61
448.284	18779.53
448.491	19635.58
448.697	20383.09
448.903	20706.67
449.11	20553.07
449.316	20419.96
449.522	20561.26
449.728	21212.52
449.935	21392.74
450.141	21286.25
450.347	21849.44
450.553	21251.43
450.76	21636.45
450.966	22521.17
451.172	21622.11
451.378	22527.31
451.584	22146.39
451.791	22453.59
451.997	22687.06
452.203	23059.79
452.409	23067.98
452.615	22895.95
452.821	21656.93
453.027	21738.85
453.233	22642
453.44	22027.61
453.646	22070.62
453.852	22125.91
454.058	22517.08
454.264	21871.96
454.47	22187.35
454.676	22138.2
454.882	22670.67
455.088	20587.89
455.294	21007.72
455.5	21085.54
455.705	21448.04
455.911	20538.74
456.117	19991.93
456.323	19793.28
456.529	19029.38
456.735	19926.39
456.941	19162.5
457.147	18929.03
457.352	18222.48
457.558	18029.98
457.764	18202
457.97	17870.23
458.176	17804.7
458.381	17333.67
458.587	16571.82
458.793	16586.16
458.999	15678.91
459.204	16836.01
459.41	16416.18
459.616	15269.31
459.821	15314.37
460.027	15345.09
460.233	15111.62
460.438	14323.15
460.644	14290.38
460.85	13946.33
461.055	13622.75
461.261	13530.59
461.466	12572.14
461.672	12291.57
461.878	12971.49
462.083	12185.07
462.289	12082.67
462.494	11812.34
462.7	11359.74
462.905	10929.67
463.111	11406.84
463.316	11294.21
463.522	11079.17
463.727	11087.36
463.932	11367.93
464.138	10907.14
464.343	11103.75
464.549	10819.08
464.754	11306.49
464.959	11023.87
465.165	10964.48
465.37	10243.6
465.575	10130.96
465.781	10753.54
465.986	10718.73
466.191	10274.32
466.397	10194.45
466.602	9584.15
466.807	9825.81
467.012	10014.23
467.218	9948.69
