Data from USB4F104151__293__14-02-48-956.txt Node

Date: Thu Mar 13 14:02:48 EDT 2025
User: louis
Spectrometer: USB4F10415
Trigger mode: 4
Integration Time (sec): 1.000000E-2
Scans to average: 1
Electric dark correction enabled: true
Nonlinearity correction enabled: false
Boxcar width: 0
XAxis mode: Wavelengths
Number of Pixels in Spectrum: 3648
>>>>>Begin Spectral Data<<<<<
178.204	-14.68
178.424	-14.68
178.644	-14.68
178.864	-88.4
179.084	-90.45
179.304	9.9
179.524	24.23
179.744	18.09
179.964	34.47
180.184	28.33
180.404	-8.53
180.624	-24.92
180.844	-24.92
181.064	16.04
181.283	-53.59
181.503	-63.83
181.723	44.71
181.943	-22.87
182.163	46.76
182.383	57
182.602	52.91
182.822	-2.39
183.042	20.14
183.262	-39.25
183.482	48.81
183.701	34.47
183.921	-78.16
184.141	-39.25
184.361	5.8
184.58	28.33
184.8	40.62
185.02	18.09
185.239	-0.34
185.459	52.91
185.679	52.91
185.898	71.34
186.118	36.52
186.338	63.15
186.557	38.57
186.777	-33.11
186.997	-4.44
187.216	-4.44
187.436	22.19
187.655	69.29
187.875	26.28
188.095	-51.54
188.314	-90.45
188.534	9.9
188.753	59.05
188.973	-20.82
189.192	63.15
189.412	1.71
189.631	63.15
189.851	3.75
190.07	28.33
190.29	13.99
190.509	13.99
190.729	24.23
190.948	-26.96
191.168	110.25
191.387	36.52
191.607	-18.77
191.826	-6.49
192.045	30.38
192.265	20.14
192.484	3.75
192.704	59.05
192.923	9.9
193.142	20.14
193.362	40.62
193.581	81.58
193.8	57
194.02	44.71
194.239	-26.96
194.458	9.9
194.678	-0.34
194.897	54.95
195.116	24.23
195.335	-31.06
195.555	-41.3
195.774	20.14
195.993	38.57
196.212	75.43
196.432	28.33
196.651	93.87
196.87	54.95
197.089	-0.34
197.308	-29.01
197.528	-0.34
197.747	-45.4
197.966	5.8
198.185	61.1
198.404	-31.06
198.623	-6.49
198.842	57
199.062	-24.92
199.281	20.14
199.5	34.47
199.719	73.39
199.938	65.19
200.157	-8.53
200.376	22.19
200.595	69.29
200.814	48.81
201.033	69.29
201.252	77.48
201.471	50.86
201.69	38.57
201.909	46.76
202.128	59.05
202.347	3.75
202.566	-47.44
202.785	26.28
203.004	7.85
203.223	97.96
203.442	-45.4
203.661	50.86
203.879	11.95
204.098	3.75
204.317	59.05
204.536	77.48
204.755	26.28
204.974	-49.49
205.193	-0.34
205.411	46.76
205.63	7.85
205.849	-8.53
206.068	67.24
206.287	89.77
206.505	-16.73
206.724	40.62
206.943	-6.49
207.162	16.04
207.381	67.24
207.599	11.95
207.818	52.91
208.037	34.47
208.255	-0.34
208.474	24.23
208.693	40.62
208.911	32.43
209.13	-6.49
209.349	-2.39
209.567	-18.77
209.786	59.05
210.005	104.11
210.223	138.92
210.442	22.19
210.661	13.99
210.879	-63.83
211.098	116.39
211.316	-10.58
211.535	-8.53
211.753	20.14
211.972	61.1
212.191	-4.44
212.409	-31.06
212.628	1.71
212.846	-55.64
213.065	54.95
213.283	38.57
213.502	9.9
213.72	7.85
213.938	48.81
214.157	-8.53
214.375	30.38
214.594	28.33
214.812	79.53
215.031	85.67
215.249	34.47
215.467	-8.53
215.686	38.57
215.904	40.62
216.122	32.43
216.341	89.77
216.559	-22.87
216.778	7.85
216.996	89.77
217.214	-47.44
217.432	-8.53
217.651	40.62
217.869	54.95
218.087	50.86
218.306	110.25
218.524	36.52
218.742	77.48
218.96	44.71
219.179	24.23
219.397	1.71
219.615	28.33
219.833	22.19
220.051	-49.49
220.27	57
220.488	18.09
220.706	65.19
220.924	-10.58
221.142	48.81
221.36	-12.63
221.578	48.81
221.796	-61.78
222.015	24.23
222.233	57
222.451	38.57
222.669	-106.84
222.887	69.29
223.105	-10.58
223.323	-8.53
223.541	-29.01
223.759	3.75
223.977	-41.3
224.195	13.99
224.413	-4.44
224.631	-29.01
224.849	32.43
225.067	18.09
225.285	28.33
225.503	44.71
225.721	11.95
225.939	22.19
226.157	24.23
226.375	-8.53
226.592	-16.73
226.81	73.39
227.028	16.04
227.246	26.28
227.464	40.62
227.682	87.72
227.9	28.33
228.117	-18.77
228.335	28.33
228.553	-29.01
228.771	18.09
228.989	11.95
229.206	-24.92
229.424	73.39
229.642	-29.01
229.86	7.85
230.077	-16.73
230.295	40.62
230.513	-39.25
230.731	20.14
230.948	34.47
231.166	3.75
231.384	-10.58
231.601	-41.3
231.819	-24.92
232.037	63.15
232.254	-24.92
232.472	18.09
232.689	24.23
232.907	7.85
233.125	48.81
233.342	-33.11
233.56	48.81
233.777	67.24
233.995	7.85
234.213	9.9
234.43	52.91
234.648	28.33
234.865	-22.87
235.083	65.19
235.3	52.91
235.518	106.15
235.735	122.54
235.953	-0.34
236.17	1.71
236.388	65.19
236.605	-20.82
236.822	20.14
237.04	-2.39
237.257	40.62
237.475	-8.53
237.692	-24.92
237.909	-6.49
238.127	16.04
238.344	81.58
238.562	-6.49
238.779	42.67
238.996	40.62
239.214	20.14
239.431	87.72
239.648	30.38
239.865	-2.39
240.083	11.95
240.3	-6.49
240.517	26.28
240.735	32.43
240.952	50.86
241.169	32.43
241.386	7.85
241.603	34.47
241.821	18.09
242.038	32.43
242.255	-16.73
242.472	-6.49
242.689	-39.25
242.907	44.71
243.124	5.8
243.341	-53.59
243.558	-18.77
243.775	36.52
243.992	65.19
244.209	71.34
244.426	40.62
244.643	-45.4
244.86	-22.87
245.078	-14.68
245.295	50.86
245.512	20.14
245.729	-24.92
245.946	50.86
246.163	63.15
246.38	65.19
246.597	28.33
246.814	34.47
247.031	3.75
247.248	52.91
247.464	16.04
247.681	50.86
247.898	54.95
248.115	11.95
248.332	-0.34
248.549	30.38
248.766	65.19
248.983	118.44
249.2	59.05
249.417	-18.77
249.633	108.2
249.85	30.38
250.067	18.09
250.284	16.04
250.501	-41.3
250.717	57
250.934	34.47
251.151	102.06
251.368	-31.06
251.585	65.19
251.801	54.95
252.018	-37.2
252.235	28.33
252.451	-8.53
252.668	-33.11
252.885	-18.77
253.102	-63.83
253.318	32.43
253.535	75.43
253.752	-14.68
253.968	18.09
254.185	7.85
254.401	1.71
254.618	11.95
254.835	1.71
255.051	42.67
255.268	-6.49
255.484	73.39
255.701	-12.63
255.917	16.04
256.134	11.95
256.351	9.9
256.567	-45.4
256.784	65.19
257	1.71
257.217	7.85
257.433	16.04
257.65	50.86
257.866	1.71
258.082	-65.88
258.299	38.57
258.515	26.28
258.732	44.71
258.948	-0.34
259.165	22.19
259.381	26.28
259.597	42.67
259.814	22.19
260.03	-6.49
260.246	22.19
260.463	59.05
260.679	16.04
260.895	67.24
261.112	9.9
261.328	-14.68
261.544	63.15
261.761	-45.4
261.977	13.99
262.193	7.85
262.409	65.19
262.626	1.71
262.842	106.15
263.058	13.99
263.274	-0.34
263.49	-4.44
263.707	65.19
263.923	93.87
264.139	-35.16
264.355	-24.92
264.571	28.33
264.787	97.96
265.004	57
265.22	5.8
265.436	40.62
265.652	7.85
265.868	40.62
266.084	-8.53
266.3	124.58
266.516	52.91
266.732	-33.11
266.948	26.28
267.164	24.23
267.38	69.29
267.596	48.81
267.812	69.29
268.028	-4.44
268.244	100.01
268.46	-14.68
268.676	75.43
268.892	32.43
269.108	32.43
269.324	42.67
269.54	-37.2
269.756	48.81
269.972	-6.49
270.188	75.43
270.403	34.47
270.619	30.38
270.835	40.62
271.051	48.81
271.267	9.9
271.483	-65.88
271.698	9.9
271.914	28.33
272.13	20.14
272.346	18.09
272.562	-22.87
272.777	9.9
272.993	36.52
273.209	73.39
273.425	-47.44
273.64	-33.11
273.856	61.1
274.072	3.75
274.287	-94.55
274.503	7.85
274.719	24.23
274.934	89.77
275.15	-24.92
275.366	77.48
275.581	32.43
275.797	26.28
276.012	-6.49
276.228	67.24
276.444	48.81
276.659	40.62
276.875	13.99
277.09	32.43
277.306	22.19
277.521	7.85
277.737	-2.39
277.952	65.19
278.168	-8.53
278.383	38.57
278.599	30.38
278.814	57
279.03	69.29
279.245	97.96
279.461	-45.4
279.676	24.23
279.892	22.19
280.107	-0.34
280.322	104.11
280.538	7.85
280.753	-20.82
280.969	44.71
281.184	-47.44
281.399	36.52
281.615	3.75
281.83	24.23
282.045	63.15
282.26	34.47
282.476	-24.92
282.691	65.19
282.906	11.95
283.122	67.24
283.337	69.29
283.552	3.75
283.767	54.95
283.983	48.81
284.198	34.47
284.413	59.05
284.628	-12.63
284.843	11.95
285.058	44.71
285.274	-10.58
285.489	-18.77
285.704	34.47
285.919	-0.34
286.134	20.14
286.349	-49.49
286.564	116.39
286.779	18.09
286.995	-0.34
287.21	57
287.425	20.14
287.64	-6.49
287.855	28.33
288.07	24.23
288.285	40.62
288.5	42.67
288.715	1.71
288.93	20.14
289.145	26.28
289.36	11.95
289.575	48.81
289.79	13.99
290.004	42.67
290.219	63.15
290.434	11.95
290.649	-20.82
290.864	36.52
291.079	-53.59
291.294	50.86
291.509	-4.44
291.724	36.52
291.938	-37.2
292.153	36.52
292.368	-26.96
292.583	16.04
292.798	-0.34
293.012	100.01
293.227	67.24
293.442	-29.01
293.657	26.28
293.871	40.62
294.086	40.62
294.301	26.28
294.516	16.04
294.73	-14.68
294.945	-55.64
295.16	24.23
295.374	-10.58
295.589	20.14
295.804	36.52
296.018	1.71
296.233	24.23
296.447	83.63
296.662	-41.3
296.877	102.06
297.091	36.52
297.306	36.52
297.52	16.04
297.735	85.67
297.949	28.33
298.164	65.19
298.378	65.19
298.593	28.33
298.807	57
299.022	91.82
299.236	114.34
299.451	-45.4
299.665	-33.11
299.88	9.9
300.094	30.38
300.309	32.43
300.523	-0.34
300.737	-4.44
300.952	46.76
301.166	24.23
301.381	9.9
301.595	9.9
301.809	54.95
302.024	13.99
302.238	24.23
302.452	89.77
302.667	44.71
302.881	40.62
303.095	-4.44
303.309	65.19
303.524	48.81
303.738	28.33
303.952	11.95
304.166	57
304.381	32.43
304.595	1.71
304.809	36.52
305.023	73.39
305.237	30.38
305.452	-4.44
305.666	-12.63
305.88	-16.73
306.094	50.86
306.308	97.96
306.522	-8.53
306.736	-8.53
306.95	73.39
307.164	-35.16
307.379	5.8
307.593	-53.59
307.807	32.43
308.021	73.39
308.235	-6.49
308.449	40.62
308.663	-0.34
308.877	147.11
309.091	54.95
309.305	69.29
309.519	-0.34
309.733	7.85
309.947	48.81
310.161	24.23
310.374	75.43
310.588	34.47
310.802	26.28
311.016	-6.49
311.23	65.19
311.444	57
311.658	-6.49
311.872	57
312.085	44.71
312.299	26.28
312.513	63.15
312.727	-14.68
312.941	24.23
313.154	24.23
313.368	9.9
313.582	7.85
313.796	1.71
314.009	-6.49
314.223	-24.92
314.437	63.15
314.651	89.77
314.864	50.86
315.078	75.43
315.292	7.85
315.505	11.95
315.719	-8.53
315.933	89.77
316.146	16.04
316.36	13.99
316.573	59.05
316.787	124.58
317.001	-43.35
317.214	20.14
317.428	89.77
317.641	65.19
317.855	-33.11
318.068	77.48
318.282	38.57
318.495	30.38
318.709	22.19
318.922	7.85
319.136	65.19
319.349	7.85
319.563	5.8
319.776	9.9
319.99	-45.4
320.203	22.19
320.417	20.14
320.63	73.39
320.843	57
321.057	77.48
321.27	3.75
321.483	34.47
321.697	52.91
321.91	11.95
322.124	30.38
322.337	-16.73
322.55	83.63
322.763	-22.87
322.977	65.19
323.19	77.48
323.403	34.47
323.617	9.9
323.83	9.9
324.043	-24.92
324.256	59.05
324.469	3.75
324.683	108.2
324.896	52.91
325.109	36.52
325.322	26.28
325.535	116.39
325.748	11.95
325.962	69.29
326.175	20.14
326.388	59.05
326.601	9.9
326.814	52.91
327.027	-31.06
327.24	26.28
327.453	-14.68
327.666	-4.44
327.879	32.43
328.092	24.23
328.305	-8.53
328.518	67.24
328.731	59.05
328.944	24.23
329.157	59.05
329.37	26.28
329.583	73.39
329.796	-12.63
330.009	-69.97
330.222	20.14
330.435	24.23
330.648	20.14
330.861	26.28
331.073	28.33
331.286	61.1
331.499	48.81
331.712	102.06
331.925	-24.92
332.138	36.52
332.35	11.95
332.563	61.1
332.776	34.47
332.989	89.77
333.202	3.75
333.414	9.9
333.627	36.52
333.84	89.77
334.053	11.95
334.265	65.19
334.478	16.04
334.691	34.47
334.903	42.67
335.116	73.39
335.329	20.14
335.541	1.71
335.754	83.63
335.966	81.58
336.179	28.33
336.392	24.23
336.604	18.09
336.817	75.43
337.029	9.9
337.242	65.19
337.454	24.23
337.667	-14.68
337.88	83.63
338.092	36.52
338.305	50.86
338.517	-29.01
338.729	40.62
338.942	48.81
339.154	48.81
339.367	9.9
339.579	57
339.792	40.62
340.004	91.82
340.217	5.8
340.429	69.29
340.641	36.52
340.854	9.9
341.066	26.28
341.278	32.43
341.491	91.82
341.703	44.71
341.915	-31.06
342.128	61.1
342.34	32.43
342.552	-16.73
342.764	57
342.977	-14.68
343.189	108.2
343.401	91.82
343.613	-14.68
343.826	-0.34
344.038	-63.83
344.25	24.23
344.462	89.77
344.674	75.43
344.886	69.29
345.099	73.39
345.311	16.04
345.523	18.09
345.735	22.19
345.947	85.67
346.159	40.62
346.371	36.52
346.583	9.9
346.795	73.39
347.007	9.9
347.219	-41.3
347.431	34.47
347.643	20.14
347.855	-16.73
348.067	52.91
348.279	-29.01
348.491	104.11
348.703	-12.63
348.915	28.33
349.127	34.47
349.339	54.95
349.551	16.04
349.763	28.33
349.975	42.67
350.187	114.34
350.399	3.75
350.61	24.23
350.822	40.62
351.034	-12.63
351.246	1.71
351.458	73.39
351.669	57
351.881	-8.53
352.093	-18.77
352.305	32.43
352.517	102.06
352.728	42.67
352.94	32.43
353.152	-20.82
353.363	26.28
353.575	5.8
353.787	81.58
353.999	28.33
354.21	48.81
354.422	102.06
354.633	73.39
354.845	16.04
355.057	48.81
355.268	59.05
355.48	79.53
355.692	3.75
355.903	69.29
356.115	46.76
356.326	-14.68
356.538	143.02
356.749	-0.34
356.961	36.52
357.172	-22.87
357.384	20.14
357.595	40.62
357.807	63.15
358.018	-4.44
358.23	22.19
358.441	-8.53
358.653	61.1
358.864	26.28
359.075	32.43
359.287	40.62
359.498	91.82
359.709	28.33
359.921	24.23
360.132	91.82
360.344	40.62
360.555	-29.01
360.766	57
360.977	24.23
361.189	26.28
361.4	75.43
361.611	106.15
361.823	57
362.034	30.38
362.245	93.87
362.456	73.39
362.667	26.28
362.879	5.8
363.09	59.05
363.301	36.52
363.512	24.23
363.723	83.63
363.935	57
364.146	40.62
364.357	13.99
364.568	16.04
364.779	93.87
364.99	38.57
365.201	77.48
365.412	16.04
365.623	48.81
365.834	52.91
366.045	57
366.256	16.04
366.467	32.43
366.678	48.81
366.889	34.47
367.1	69.29
367.311	-63.83
367.522	46.76
367.733	9.9
367.944	24.23
368.155	11.95
368.366	73.39
368.577	71.34
368.788	9.9
368.999	48.81
369.209	67.24
369.42	46.76
369.631	38.57
369.842	-90.45
370.053	40.62
370.264	30.38
370.474	-0.34
370.685	-8.53
370.896	26.28
371.107	-6.49
371.317	52.91
371.528	65.19
371.739	73.39
371.95	50.86
372.16	-16.73
372.371	52.91
372.582	63.15
372.792	9.9
373.003	46.76
373.214	7.85
373.424	97.96
373.635	-45.4
373.846	44.71
374.056	65.19
374.267	-24.92
374.477	65.19
374.688	57
374.898	50.86
375.109	52.91
375.319	-8.53
375.53	28.33
375.74	77.48
375.951	52.91
376.161	44.71
376.372	57
376.582	22.19
376.793	40.62
377.003	20.14
377.214	16.04
377.424	13.99
377.635	22.19
377.845	40.62
378.055	7.85
378.266	95.91
378.476	24.23
378.686	40.62
378.897	-20.82
379.107	32.43
379.317	54.95
379.528	9.9
379.738	22.19
379.948	32.43
380.158	57
380.369	-4.44
380.579	24.23
380.789	77.48
380.999	59.05
381.21	3.75
381.42	65.19
381.63	77.48
381.84	40.62
382.05	54.95
382.261	69.29
382.471	40.62
382.681	75.43
382.891	81.58
383.101	48.81
383.311	73.39
383.521	24.23
383.731	89.77
383.941	93.87
384.151	52.91
384.361	44.71
384.571	61.1
384.781	106.15
384.991	48.81
385.201	57
385.411	65.19
385.621	38.57
385.831	42.67
386.041	38.57
386.251	61.1
386.461	57
386.671	59.05
386.881	54.95
387.091	26.28
387.301	61.1
387.511	26.28
387.72	7.85
387.93	-0.34
388.14	59.05
388.35	79.53
388.56	100.01
388.769	18.09
388.979	81.58
389.189	67.24
389.399	-8.53
389.609	1.71
389.818	65.19
390.028	91.82
390.238	1.71
390.447	59.05
390.657	59.05
390.867	52.91
391.076	59.05
391.286	61.1
391.496	85.67
391.705	42.67
391.915	134.82
392.125	48.81
392.334	46.76
392.544	65.19
392.753	100.01
392.963	89.77
393.172	59.05
393.382	1.71
393.591	73.39
393.801	69.29
394.01	-4.44
394.22	67.24
394.429	91.82
394.639	83.63
394.848	59.05
395.058	57
395.267	155.3
395.477	59.05
395.686	69.29
395.895	42.67
396.105	102.06
396.314	54.95
396.524	85.67
396.733	71.34
396.942	102.06
397.152	-0.34
397.361	34.47
397.57	83.63
397.78	52.91
397.989	28.33
398.198	40.62
398.407	67.24
398.617	11.95
398.826	50.86
399.035	73.39
399.244	136.87
399.453	77.48
399.663	93.87
399.872	59.05
400.081	52.91
400.29	134.82
400.499	97.96
400.708	183.98
400.917	126.63
401.127	44.71
401.336	85.67
401.545	153.26
401.754	140.97
401.963	130.73
402.172	73.39
402.381	97.96
402.59	97.96
402.799	143.02
403.008	89.77
403.217	138.92
403.426	171.69
403.635	110.25
403.844	147.11
404.053	122.54
404.262	122.54
404.471	116.39
404.68	130.73
404.888	87.72
405.097	200.36
405.306	151.21
405.515	100.01
405.724	208.55
405.933	149.16
406.142	128.68
406.35	183.98
406.559	179.88
406.768	175.78
406.977	259.75
407.185	218.79
407.394	247.46
407.603	151.21
407.812	229.03
408.02	196.26
408.229	192.17
408.438	138.92
408.646	261.8
408.855	145.06
409.064	194.22
409.272	253.61
409.481	292.52
409.69	208.55
409.898	300.71
410.107	327.33
410.315	319.14
410.524	286.37
410.733	261.8
410.941	216.74
411.15	319.14
411.358	384.68
411.567	417.44
411.775	345.77
411.984	337.57
412.192	419.49
412.401	325.29
412.609	491.17
412.818	528.03
413.026	427.68
413.234	442.02
413.443	466.6
413.651	501.41
413.86	519.84
414.068	669.34
414.276	605.86
414.485	571.04
414.693	640.67
414.901	650.91
415.11	597.67
415.318	616.1
415.526	724.64
415.734	652.96
415.943	790.17
416.151	779.93
416.359	761.5
416.567	700.06
416.776	759.46
416.984	966.3
417.192	884.38
417.4	915.1
417.608	896.67
417.817	1009.31
418.025	974.49
418.233	1103.51
418.441	1058.46
418.649	1066.65
418.857	1177.24
419.065	1273.5
419.273	1154.71
419.481	1173.14
419.689	1291.93
419.897	1392.28
420.105	1445.52
420.313	1451.67
420.521	1457.81
420.729	1480.34
420.937	1658.51
421.145	1629.84
421.353	1707.66
421.561	1734.29
421.769	1816.21
421.977	1922.7
422.185	1908.37
422.393	1943.18
422.601	2080.39
422.809	2109.07
423.017	2031.24
423.224	2223.75
423.432	2217.61
423.64	2389.64
423.848	2438.79
424.056	2369.16
424.263	2619.01
424.471	2672.26
424.679	2662.02
424.887	2836.1
425.094	2895.49
425.302	2975.36
425.51	3139.19
425.718	3030.65
425.925	2995.84
426.133	3298.94
426.341	3282.55
426.548	3559.03
426.756	3442.29
426.964	3669.62
427.171	3890.8
427.379	3903.09
427.586	3991.15
427.794	4099.69
428.001	4374.12
428.209	4519.53
428.417	4402.79
428.624	4664.93
428.832	4859.49
429.039	4757.09
429.247	4609.64
429.454	5127.77
429.662	5500.5
429.869	5144.16
430.076	5639.76
430.284	5242.46
430.491	5656.15
430.699	5754.45
430.906	5944.91
431.114	5912.14
431.321	6291.02
431.528	6274.63
431.736	6622.79
431.943	6915.65
432.15	6846.02
432.358	7013.95
432.565	7257.66
432.772	7431.74
432.979	7667.25
433.187	7751.22
433.394	7781.94
433.601	8244.78
433.808	8283.69
434.016	8201.77
434.223	8633.89
434.43	9068.06
434.637	8764.96
434.844	9547.29
435.052	9618.97
435.259	9618.97
435.466	9700.89
435.673	9698.84
435.88	10341.9
436.087	10948.1
436.294	10868.23
436.501	10714.63
436.708	10530.31
436.915	11116.03
437.122	11619.83
437.329	11650.55
437.537	11951.6
437.743	12330.48
437.95	12189.17
438.157	12522.99
438.364	13219.3
438.571	12942.82
438.778	13270.5
438.985	14392.78
439.192	13831.64
439.399	14200.27
439.606	13962.71
439.813	14769.61
440.02	15648.19
440.227	15300.03
440.433	14896.58
440.64	15500.73
440.847	15664.57
441.054	15893.94
441.261	16911.78
441.467	16811.43
441.674	17036.71
441.881	17851.8
442.088	17524.13
442.294	17702.3
442.501	18142.61
442.708	18324.88
442.914	18883.98
443.121	20026.75
443.328	19336.58
443.534	20952.43
443.741	20184.44
443.948	19907.96
444.154	21413.22
444.361	21067.11
444.568	21380.45
444.774	21413.22
444.981	21876.06
445.187	22173.02
445.394	23348.55
445.6	23084.36
445.807	25355.56
446.013	24124.73
446.22	24337.72
446.426	25488.68
446.633	25509.16
446.839	26770.71
447.046	25337.13
447.252	27047.18
447.459	26658.07
447.665	26866.96
447.871	27712.77
448.078	29011.18
448.284	27882.75
448.491	28306.68
448.697	29506.79
448.903	30037.22
449.11	29983.97
449.316	29658.34
449.522	30080.22
449.728	30883.03
449.935	30934.23
450.141	31423.69
450.347	31909.06
450.553	30934.23
450.76	31306.96
450.966	31993.03
451.172	31904.96
451.378	32713.91
451.584	32183.49
451.791	33019.06
451.997	32496.83
452.203	32937.14
452.409	33754.28
452.615	33193.14
452.821	32025.79
453.027	31755.46
453.233	33010.87
453.44	32230.59
453.646	32212.16
453.852	32332.99
454.058	32984.24
454.264	31341.77
454.47	32707.77
454.676	31474.89
454.882	32935.09
455.088	30170.33
455.294	30624.98
455.5	30821.59
455.705	31044.82
455.911	29752.55
456.117	29486.31
456.323	29048.05
456.529	27559.17
456.735	28656.89
456.941	27763.97
457.147	27172.11
457.352	26819.86
457.558	26352.92
457.764	26199.32
457.97	26035.49
458.176	25605.41
458.381	25140.52
458.587	24233.27
458.793	24194.36
458.999	23061.83
459.204	24352.06
459.41	23883.07
459.616	22359.38
459.821	22144.34
460.027	22232.41
460.233	21845.34
460.438	20671.86
460.644	20870.51
460.85	20335.99
461.055	19488.13
461.261	19553.66
461.466	18167.19
461.672	17810.84
461.878	18812.3
462.083	17708.44
462.289	17178.02
462.494	17100.2
462.7	16444.85
462.905	16051.64
463.111	16559.53
463.316	16770.47
463.522	16221.62
463.727	16096.69
463.932	16166.32
464.138	16096.69
464.343	16020.92
464.549	15654.33
464.754	16149.94
464.959	15830.46
465.165	15844.79
465.37	15357.38
465.575	14806.47
465.781	15504.83
465.986	15486.4
466.191	14929.35
466.397	14626.25
466.602	13966.81
466.807	14495.18
467.012	14570.96
467.218	14415.31
467.423	14155.22
467.628	14257.62
467.833	15005.13
468.038	14583.24
468.244	13819.35
468.449	14548.43
468.654	13991.38
