Data from USB4F104151__50__13-53-25-537.txt Node

Date: Thu Mar 13 13:53:25 EDT 2025
User: louis
Spectrometer: USB4F10415
Trigger mode: 4
Integration Time (sec): 1.000000E-2
Scans to average: 1
Electric dark correction enabled: true
Nonlinearity correction enabled: false
Boxcar width: 0
XAxis mode: Wavelengths
Number of Pixels in Spectrum: 3648
>>>>>Begin Spectral Data<<<<<
178.204	-55.12
178.424	-55.12
178.644	-55.12
178.864	-59.22
179.084	-65.36
179.304	-22.36
179.524	-24.4
179.744	16.55
179.964	20.65
180.184	37.03
180.404	-42.84
180.624	-14.17
180.844	55.47
181.064	-30.55
181.283	-22.36
181.503	14.51
181.723	12.46
181.943	14.51
182.163	57.51
182.383	4.27
182.602	16.55
182.822	-51.03
183.042	24.75
183.262	-10.07
183.482	16.55
183.701	-55.12
183.921	-36.69
184.141	-1.88
184.361	22.7
184.58	-22.36
184.8	-24.4
185.02	-14.17
185.239	22.7
185.459	10.41
185.679	-10.07
185.898	-12.12
186.118	12.46
186.338	30.89
186.557	2.22
186.777	69.8
186.997	22.7
187.216	8.36
187.436	43.18
187.655	28.84
187.875	2.22
188.095	12.46
188.314	92.33
188.534	47.27
188.753	14.51
188.973	61.61
189.192	-24.4
189.412	30.89
189.631	26.79
189.851	73.9
190.07	75.95
190.29	-20.31
190.509	63.66
190.729	-1.88
190.948	55.47
191.168	45.23
191.387	-1.88
191.607	-16.21
191.826	39.08
192.045	-14.17
192.265	-28.5
192.484	32.94
192.704	-24.4
192.923	24.75
193.142	-10.07
193.362	16.55
193.581	57.51
193.8	47.27
194.02	51.37
194.239	4.27
194.458	37.03
194.678	22.7
194.897	67.75
195.116	-61.27
195.335	12.46
195.555	-8.02
195.774	-40.79
195.993	16.55
196.212	69.8
196.432	32.94
196.651	-28.5
196.87	-10.07
197.089	-40.79
197.308	-32.6
197.528	-30.55
197.747	8.36
197.966	77.99
198.185	18.6
198.404	24.75
198.623	2.22
198.842	-22.36
199.062	4.27
199.281	67.75
199.5	-38.74
199.719	-10.07
199.938	45.23
200.157	-69.46
200.376	22.7
200.595	67.75
200.814	20.65
201.033	-38.74
201.252	-65.36
201.471	-77.65
201.69	61.61
201.909	24.75
202.128	-18.26
202.347	28.84
202.566	-34.64
202.785	-36.69
203.004	8.36
203.223	16.55
203.442	-30.55
203.661	65.71
203.879	43.18
204.098	12.46
204.317	-87.89
204.536	-65.36
204.755	41.13
204.974	2.22
205.193	6.31
205.411	16.55
205.63	4.27
205.849	0.17
206.068	20.65
206.287	20.65
206.505	-67.41
206.724	-42.84
206.943	34.99
207.162	49.32
207.381	61.61
207.599	-10.07
207.818	-14.17
208.037	6.31
208.255	-28.5
208.474	39.08
208.693	-75.6
208.911	8.36
209.13	-8.02
209.349	49.32
209.567	-10.07
209.786	24.75
210.005	14.51
210.223	-16.21
210.442	-34.64
210.661	16.55
210.879	90.28
211.098	20.65
211.316	43.18
211.535	-38.74
211.753	-8.02
211.972	4.27
212.191	0.17
212.409	18.6
212.628	37.03
212.846	6.31
213.065	84.14
213.283	45.23
213.502	-61.27
213.72	28.84
213.938	-12.12
214.157	34.99
214.375	-8.02
214.594	-5.97
214.812	-18.26
215.031	28.84
215.249	47.27
215.467	-1.88
215.686	24.75
215.904	0.17
216.122	-5.97
216.341	20.65
216.559	-51.03
216.778	-40.79
216.996	45.23
217.214	65.71
217.432	-42.84
217.651	22.7
217.869	-61.27
218.087	2.22
218.306	8.36
218.524	39.08
218.742	8.36
218.96	-32.6
219.179	47.27
219.397	-14.17
219.615	-8.02
219.833	-3.93
220.051	-14.17
220.27	-3.93
220.488	14.51
220.706	14.51
220.924	4.27
221.142	55.47
221.36	-55.12
221.578	28.84
221.796	8.36
222.015	18.6
222.233	-20.31
222.451	-10.07
222.669	-36.69
222.887	-18.26
223.105	-85.84
223.323	-5.97
223.541	30.89
223.759	-8.02
223.977	-3.93
224.195	43.18
224.413	-53.08
224.631	61.61
224.849	6.31
225.067	34.99
225.285	-10.07
225.503	12.46
225.721	26.79
225.939	-32.6
226.157	-1.88
226.375	8.36
226.592	-36.69
226.81	61.61
227.028	16.55
227.246	-22.36
227.464	-12.12
227.682	-94.04
227.9	82.09
228.117	4.27
228.335	61.61
228.553	0.17
228.771	53.42
228.989	2.22
229.206	14.51
229.424	-65.36
229.642	-18.26
229.86	34.99
230.077	-24.4
230.295	28.84
230.513	-22.36
230.731	59.56
230.948	20.65
231.166	-1.88
231.384	18.6
231.601	80.04
231.819	30.89
232.037	12.46
232.254	41.13
232.472	88.23
232.689	-12.12
232.907	57.51
233.125	-14.17
233.342	26.79
233.56	39.08
233.777	37.03
233.995	-46.93
234.213	71.85
234.43	-36.69
234.648	-18.26
234.865	8.36
235.083	67.75
235.3	-46.93
235.518	28.84
235.735	51.37
235.953	-8.02
236.17	-30.55
236.388	16.55
236.605	0.17
236.822	-8.02
237.04	-34.64
237.257	-98.13
237.475	75.95
237.692	-30.55
237.909	-38.74
238.127	-24.4
238.344	-8.02
238.562	-1.88
238.779	-10.07
238.996	-8.02
239.214	-71.51
239.431	45.23
239.648	-5.97
239.865	-18.26
240.083	-24.4
240.3	-61.27
240.517	-26.45
240.735	26.79
240.952	12.46
241.169	34.99
241.386	-38.74
241.603	20.65
241.821	-55.12
242.038	30.89
242.255	57.51
242.472	24.75
242.689	4.27
242.907	-8.02
243.124	-89.94
243.341	41.13
243.558	26.79
243.775	-16.21
243.992	-32.6
244.209	37.03
244.426	18.6
244.643	55.47
244.86	20.65
245.078	-18.26
245.295	4.27
245.512	-36.69
245.729	-1.88
245.946	-8.02
246.163	-16.21
246.38	-30.55
246.597	39.08
246.814	47.27
247.031	24.75
247.248	4.27
247.464	18.6
247.681	80.04
247.898	-40.79
248.115	4.27
248.332	6.31
248.549	-12.12
248.766	37.03
248.983	96.43
249.2	41.13
249.417	49.32
249.633	26.79
249.85	-32.6
250.067	41.13
250.284	45.23
250.501	-5.97
250.717	37.03
250.934	37.03
251.151	-18.26
251.368	-32.6
251.585	12.46
251.801	-26.45
252.018	4.27
252.235	8.36
252.451	-3.93
252.668	71.85
252.885	-12.12
253.102	26.79
253.318	69.8
253.535	30.89
253.752	-44.88
253.968	-28.5
254.185	65.71
254.401	-28.5
254.618	39.08
254.835	16.55
255.051	26.79
255.268	4.27
255.484	39.08
255.701	-22.36
255.917	24.75
256.134	-24.4
256.351	-8.02
256.567	-42.84
256.784	47.27
257	-55.12
257.217	-79.7
257.433	-1.88
257.65	6.31
257.866	22.7
258.082	-16.21
258.299	10.41
258.515	22.7
258.732	59.56
258.948	-42.84
259.165	45.23
259.381	-1.88
259.597	2.22
259.814	75.95
260.03	-22.36
260.246	0.17
260.463	55.47
260.679	-5.97
260.895	77.99
261.112	47.27
261.328	-30.55
261.544	-30.55
261.761	-22.36
261.977	-40.79
262.193	0.17
262.409	80.04
262.626	-16.21
262.842	37.03
263.058	-16.21
263.274	-26.45
263.49	-48.98
263.707	69.8
263.923	-34.64
264.139	-51.03
264.355	37.03
264.571	-18.26
264.787	-26.45
265.004	12.46
265.22	-1.88
265.436	2.22
265.652	12.46
265.868	-10.07
266.084	49.32
266.3	-26.45
266.516	65.71
266.732	49.32
266.948	26.79
267.164	32.94
267.38	6.31
267.596	14.51
267.812	2.22
268.028	12.46
268.244	37.03
268.46	-16.21
268.676	98.47
268.892	69.8
269.108	71.85
269.324	12.46
269.54	30.89
269.756	34.99
269.972	63.66
270.188	34.99
270.403	-24.4
270.619	4.27
270.835	61.61
271.051	8.36
271.267	-18.26
271.483	12.46
271.698	59.56
271.914	-28.5
272.13	4.27
272.346	-12.12
272.562	22.7
272.777	82.09
272.993	-36.69
273.209	-44.88
273.425	0.17
273.64	37.03
273.856	-28.5
274.072	-24.4
274.287	-44.88
274.503	-8.02
274.719	-44.88
274.934	-38.74
275.15	-5.97
275.366	-26.45
275.581	-55.12
275.797	-44.88
276.012	-26.45
276.228	0.17
276.444	-85.84
276.659	-14.17
276.875	-8.02
277.09	88.23
277.306	-40.79
277.521	-3.93
277.737	-8.02
277.952	18.6
278.168	0.17
278.383	4.27
278.599	55.47
278.814	-14.17
279.03	-8.02
279.245	22.7
279.461	-26.45
279.676	8.36
279.892	4.27
280.107	-83.8
280.322	-34.64
280.538	2.22
280.753	14.51
280.969	-12.12
281.184	-53.08
281.399	-57.17
281.615	-20.31
281.83	71.85
282.045	-22.36
282.26	16.55
282.476	-1.88
282.691	22.7
282.906	-3.93
283.122	84.14
283.337	26.79
283.552	-24.4
283.767	-40.79
283.983	39.08
284.198	-24.4
284.413	-12.12
284.628	-20.31
284.843	-12.12
285.058	57.51
285.274	-1.88
285.489	-1.88
285.704	30.89
285.919	-30.55
286.134	-18.26
286.349	82.09
286.564	73.9
286.779	-42.84
286.995	37.03
287.21	6.31
287.425	12.46
287.64	24.75
287.855	43.18
288.07	-5.97
288.285	43.18
288.5	-59.22
288.715	39.08
288.93	14.51
289.145	24.75
289.36	18.6
289.575	61.61
289.79	-36.69
290.004	-40.79
290.219	-22.36
290.434	18.6
290.649	8.36
290.864	75.95
291.079	34.99
291.294	-22.36
291.509	51.37
291.724	-42.84
291.938	26.79
292.153	-14.17
292.368	-5.97
292.583	53.42
292.798	-42.84
293.012	80.04
293.227	-65.36
293.442	12.46
293.657	32.94
293.871	24.75
294.086	-51.03
294.301	39.08
294.516	-18.26
294.73	67.75
294.945	55.47
295.16	-34.64
295.374	34.99
295.589	41.13
295.804	-1.88
296.018	-63.32
296.233	92.33
296.447	-75.6
296.662	-40.79
296.877	43.18
297.091	-14.17
297.306	-32.6
297.52	-51.03
297.735	-36.69
297.949	51.37
298.164	24.75
298.378	-36.69
298.593	-10.07
298.807	39.08
299.022	-20.31
299.236	-22.36
299.451	47.27
299.665	30.89
299.88	20.65
300.094	-42.84
300.309	0.17
300.523	-89.94
300.737	-3.93
300.952	-18.26
301.166	-14.17
301.381	4.27
301.595	-5.97
301.809	59.56
302.024	-26.45
302.238	-12.12
302.452	71.85
302.667	14.51
302.881	-30.55
303.095	16.55
303.309	100.52
303.524	-32.6
303.738	61.61
303.952	-38.74
304.166	2.22
304.381	-12.12
304.595	-20.31
304.809	-65.36
305.023	71.85
305.237	61.61
305.452	-65.36
305.666	-38.74
305.88	-48.98
306.094	-14.17
306.308	0.17
306.522	-1.88
306.736	-3.93
306.95	39.08
307.164	-10.07
307.379	43.18
307.593	6.31
307.807	-3.93
308.021	10.41
308.235	-42.84
308.449	-32.6
308.663	-14.17
308.877	-28.5
309.091	2.22
309.305	88.23
309.519	-22.36
309.733	47.27
309.947	18.6
310.161	45.23
310.374	26.79
310.588	55.47
310.802	34.99
311.016	-20.31
311.23	75.95
311.444	34.99
311.658	32.94
311.872	55.47
312.085	-3.93
312.299	20.65
312.513	2.22
312.727	2.22
312.941	32.94
313.154	0.17
313.368	-16.21
313.582	32.94
313.796	20.65
314.009	94.38
314.223	-48.98
314.437	10.41
314.651	8.36
314.864	-59.22
315.078	-44.88
315.292	-53.08
315.505	-22.36
315.719	-3.93
315.933	10.41
316.146	6.31
316.36	-40.79
316.573	57.51
316.787	-26.45
317.001	98.47
317.214	22.7
317.428	67.75
317.641	61.61
317.855	0.17
318.068	18.6
318.282	24.75
318.495	53.42
318.709	110.76
318.922	-69.46
319.136	32.94
319.349	26.79
319.563	41.13
319.776	26.79
319.99	4.27
320.203	-8.02
320.417	-12.12
320.63	43.18
320.843	26.79
321.057	34.99
321.27	12.46
321.483	14.51
321.697	-24.4
321.91	6.31
322.124	102.57
322.337	90.28
322.55	88.23
322.763	67.75
322.977	104.62
323.19	55.47
323.403	-28.5
323.617	-48.98
323.83	37.03
324.043	-12.12
324.256	8.36
324.469	18.6
324.683	8.36
324.896	-32.6
325.109	-10.07
325.322	-77.65
325.535	14.51
325.748	22.7
325.962	2.22
326.175	8.36
326.388	45.23
326.601	53.42
326.814	6.31
327.027	-36.69
327.24	-61.27
327.453	-5.97
327.666	4.27
327.879	12.46
328.092	-20.31
328.305	6.31
328.518	47.27
328.731	20.65
328.944	47.27
329.157	-10.07
329.37	20.65
329.583	-26.45
329.796	-61.27
330.009	-1.88
330.222	59.56
330.435	-5.97
330.648	-28.5
330.861	43.18
331.073	-57.17
331.286	14.51
331.499	14.51
331.712	-51.03
331.925	-10.07
332.138	22.7
332.35	12.46
332.563	-42.84
332.776	8.36
332.989	24.75
333.202	28.84
333.414	-44.88
333.627	61.61
333.84	45.23
334.053	24.75
334.265	-28.5
334.478	41.13
334.691	61.61
334.903	32.94
335.116	-26.45
335.329	20.65
335.541	34.99
335.754	53.42
335.966	-8.02
336.179	-14.17
336.392	14.51
336.604	69.8
336.817	53.42
337.029	43.18
337.242	18.6
337.454	88.23
337.667	2.22
337.88	37.03
338.092	12.46
338.305	-22.36
338.517	32.94
338.729	-34.64
338.942	92.33
339.154	-8.02
339.367	26.79
339.579	16.55
339.792	18.6
340.004	-3.93
340.217	-5.97
340.429	-8.02
340.641	-18.26
340.854	-12.12
341.066	-18.26
341.278	-28.5
341.491	-26.45
341.703	-16.21
341.915	-40.79
342.128	14.51
342.34	14.51
342.552	-12.12
342.764	53.42
342.977	-48.98
343.189	37.03
343.401	-40.79
343.613	108.71
343.826	-42.84
344.038	-18.26
344.25	69.8
344.462	63.66
344.674	59.56
344.886	63.66
345.099	32.94
345.311	96.43
345.523	-12.12
345.735	-106.32
345.947	30.89
346.159	14.51
346.371	14.51
346.583	-28.5
346.795	57.51
347.007	-36.69
347.219	-34.64
347.431	24.75
347.643	20.65
347.855	-8.02
348.067	55.47
348.279	-34.64
348.491	47.27
348.703	-16.21
348.915	20.65
349.127	-18.26
349.339	49.32
349.551	51.37
349.763	-22.36
349.975	-3.93
350.187	-22.36
350.399	-22.36
350.61	-5.97
350.822	-24.4
351.034	14.51
351.246	-3.93
351.458	2.22
351.669	41.13
351.881	24.75
352.093	-8.02
352.305	77.99
352.517	45.23
352.728	-36.69
352.94	-12.12
353.152	-5.97
353.363	-36.69
353.575	30.89
353.787	-16.21
353.999	4.27
354.21	-30.55
354.422	57.51
354.633	-69.46
354.845	-1.88
355.057	98.47
355.268	47.27
355.48	63.66
355.692	8.36
355.903	45.23
356.115	55.47
356.326	-5.97
356.538	67.75
356.749	47.27
356.961	55.47
357.172	26.79
357.384	18.6
357.595	-16.21
357.807	8.36
358.018	49.32
358.23	22.7
358.441	-22.36
358.653	16.55
358.864	-40.79
359.075	8.36
359.287	14.51
359.498	22.7
359.709	47.27
359.921	16.55
360.132	-36.69
360.344	12.46
360.555	41.13
360.766	-18.26
360.977	32.94
361.189	108.71
361.4	63.66
361.611	-3.93
361.823	14.51
362.034	-26.45
362.245	4.27
362.456	32.94
362.667	24.75
362.879	2.22
363.09	-3.93
363.301	12.46
363.512	-3.93
363.723	22.7
363.935	67.75
364.146	57.51
364.357	-32.6
364.568	20.65
364.779	34.99
364.99	30.89
365.201	-12.12
365.412	-46.93
365.623	-48.98
365.834	43.18
366.045	63.66
366.256	88.23
366.467	2.22
366.678	12.46
366.889	10.41
367.1	30.89
367.311	65.71
367.522	-42.84
367.733	41.13
367.944	18.6
368.155	-20.31
368.366	-14.17
368.577	86.19
368.788	47.27
368.999	32.94
369.209	37.03
369.42	16.55
369.631	82.09
369.842	43.18
370.053	-10.07
370.264	-22.36
370.474	112.81
370.685	63.66
370.896	-89.94
371.107	-1.88
371.317	18.6
371.528	-34.64
371.739	43.18
371.95	39.08
372.16	-38.74
372.371	135.34
372.582	14.51
372.792	112.81
373.003	24.75
373.214	24.75
373.424	49.32
373.635	-26.45
373.846	-16.21
374.056	41.13
374.267	49.32
374.477	6.31
374.688	12.46
374.898	16.55
375.109	-44.88
375.319	28.84
375.53	57.51
375.74	-3.93
375.951	20.65
376.161	59.56
376.372	-24.4
376.582	14.51
376.793	-8.02
377.003	32.94
377.214	-77.65
377.424	12.46
377.635	88.23
377.845	73.9
378.055	-10.07
378.266	2.22
378.476	71.85
378.686	57.51
378.897	-20.31
379.107	61.61
379.317	116.9
379.528	-10.07
379.738	32.94
379.948	30.89
380.158	100.52
380.369	8.36
380.579	16.55
380.789	2.22
380.999	51.37
381.21	71.85
381.42	4.27
381.63	34.99
381.84	34.99
382.05	22.7
382.261	41.13
382.471	47.27
382.681	30.89
382.891	14.51
383.101	63.66
383.311	24.75
383.521	-34.64
383.731	16.55
383.941	77.99
384.151	12.46
384.361	39.08
384.571	-32.6
384.781	4.27
384.991	37.03
385.201	20.65
385.411	57.51
385.621	-12.12
385.831	39.08
386.041	67.75
386.251	8.36
386.461	86.19
386.671	45.23
386.881	86.19
387.091	41.13
387.301	47.27
387.511	32.94
387.72	94.38
387.93	-36.69
388.14	-132.95
388.35	47.27
388.56	45.23
388.769	18.6
388.979	16.55
389.189	30.89
389.399	-1.88
389.609	43.18
389.818	-22.36
390.028	39.08
390.238	8.36
390.447	6.31
390.657	-30.55
390.867	49.32
391.076	-3.93
391.286	-16.21
391.496	149.67
391.705	10.41
391.915	-32.6
392.125	0.17
392.334	82.09
392.544	-8.02
392.753	-59.22
392.963	4.27
393.172	18.6
393.382	73.9
393.591	57.51
393.801	73.9
394.01	98.47
394.22	86.19
394.429	45.23
394.639	-5.97
394.848	75.95
395.058	86.19
395.267	82.09
395.477	24.75
395.686	51.37
395.895	10.41
396.105	45.23
396.314	-20.31
396.524	32.94
396.733	100.52
396.942	39.08
397.152	30.89
397.361	84.14
397.57	26.79
397.78	-26.45
397.989	4.27
398.198	39.08
398.407	26.79
398.617	129.19
398.826	-46.93
399.035	57.51
399.244	80.04
399.453	53.42
399.663	22.7
399.872	73.9
400.081	24.75
400.29	69.8
400.499	45.23
400.708	63.66
400.917	-46.93
401.127	61.61
401.336	24.75
401.545	8.36
401.754	53.42
401.963	84.14
402.172	114.86
402.381	55.47
402.59	106.67
402.799	75.95
403.008	14.51
403.217	123.05
403.426	96.43
403.635	98.47
403.844	37.03
404.053	37.03
404.262	41.13
404.471	92.33
404.68	102.57
404.888	102.57
405.097	-36.69
405.306	84.14
405.515	63.66
405.724	98.47
405.933	125.1
406.142	34.99
406.35	30.89
406.559	116.9
406.768	53.42
406.977	151.72
407.185	127.14
407.394	69.8
407.603	84.14
407.812	84.14
408.02	92.33
408.229	137.38
408.438	92.33
408.646	63.66
408.855	80.04
409.064	82.09
409.272	80.04
409.481	164.01
409.69	192.68
409.898	155.82
410.107	161.96
410.315	133.29
410.524	139.43
410.733	231.59
410.941	147.62
411.15	221.35
411.358	241.83
411.567	243.88
411.775	164.01
411.984	217.26
412.192	211.11
412.401	225.45
412.609	198.82
412.818	254.12
413.026	252.07
413.234	309.41
413.443	178.34
413.651	258.21
413.86	305.32
414.068	276.65
414.276	272.55
414.485	299.17
414.693	385.19
414.901	321.7
415.11	458.92
415.318	286.89
415.526	336.04
415.734	401.57
415.943	463.01
416.151	465.06
416.359	475.3
416.567	469.16
416.776	479.4
416.984	512.16
417.192	501.92
417.4	563.36
417.608	608.42
417.817	530.59
418.025	585.89
418.233	678.05
418.441	561.31
418.649	657.57
418.857	753.82
419.065	784.54
419.273	700.58
419.481	706.72
419.689	770.21
419.897	770.21
420.105	798.88
420.313	848.03
420.521	839.84
420.729	905.37
420.937	837.79
421.145	1030.3
421.353	932
421.561	1003.68
421.769	1112.22
421.977	1147.03
422.185	1083.55
422.393	1220.76
422.601	1351.83
422.809	1206.42
423.017	1171.61
423.224	1296.53
423.432	1378.45
423.64	1370.26
423.848	1431.7
424.056	1437.84
424.263	1648.79
424.471	1710.22
424.679	1661.07
424.887	1622.16
425.094	1697.94
425.302	1699.98
425.51	1773.71
425.718	1896.59
425.925	1941.65
426.133	1962.12
426.341	2044.04
426.548	2250.89
426.756	2181.26
426.964	2195.59
427.171	2316.42
427.379	2369.67
427.586	2474.12
427.794	2459.78
428.001	2537.6
428.209	2752.64
428.417	2672.77
428.624	2834.56
428.832	2867.33
429.039	2941.05
429.247	2879.61
429.454	3094.65
429.662	3342.46
429.869	3131.51
430.076	3360.89
430.284	3180.67
430.491	3266.68
430.699	3512.44
430.906	3561.59
431.114	3623.03
431.321	3704.95
431.528	3772.53
431.736	4194.41
431.943	4274.28
432.15	4114.54
432.358	4094.06
432.565	4415.59
432.772	4356.2
432.979	4622.44
433.187	4552.81
433.394	4552.81
433.601	5058.65
433.808	4964.45
434.016	4995.17
434.223	5199.96
434.43	5603.41
434.637	5310.55
434.844	5847.12
435.052	5916.75
435.259	5982.29
435.466	5965.9
435.673	5750.87
435.88	6213.71
436.087	6404.17
436.294	6467.66
436.501	6490.18
436.708	6629.45
436.915	6688.84
437.122	7071.81
437.329	7049.28
437.537	7266.36
437.743	7526.46
437.95	7462.97
438.157	7690.29
438.364	8077.36
438.571	7925.81
438.778	7964.72
438.985	8710.18
439.192	8378.41
439.399	8529.96
439.606	8597.54
439.813	8984.61
440.02	9375.77
440.227	9193.5
440.433	9336.86
440.64	9504.79
440.847	9439.26
441.054	9773.08
441.261	10147.86
441.467	10137.62
441.674	10373.13
441.881	10815.49
442.088	10706.95
442.294	10688.52
442.501	10975.24
442.708	11237.38
442.914	11663.35
443.121	12046.32
443.328	11810.81
443.534	12435.44
443.741	12312.56
443.948	12251.12
444.154	12888.04
444.361	12863.46
444.568	12759.02
444.774	13172.71
444.981	13291.49
445.187	13488.09
445.394	13928.41
445.6	14000.09
445.807	15130.56
446.013	14667.72
446.22	14723.02
446.426	15138.76
446.633	15712.19
446.839	16035.77
447.046	15425.47
447.252	16091.06
447.459	16250.8
447.665	16252.85
447.871	17043.37
448.078	17612.7
448.284	16936.87
448.491	17180.58
448.697	18190.23
448.903	18159.51
449.11	18411.41
449.316	18063.26
449.522	18329.49
449.728	18804.62
449.935	18734.99
450.141	18950.03
450.347	19214.21
450.553	18790.28
450.76	18984.84
450.966	19828.6
451.172	19169.16
451.378	19724.16
451.584	19314.56
451.791	19787.64
451.997	19715.97
452.203	20156.28
452.409	20281.21
452.615	19789.69
452.821	18909.07
453.027	19085.19
453.233	20103.03
453.44	18810.76
453.646	19388.29
453.852	19611.52
454.058	19593.09
454.264	19091.34
454.47	19517.31
454.676	18845.58
454.882	19789.69
455.088	18063.26
455.294	18272.15
455.5	18386.83
455.705	18694.03
455.911	17676.19
456.117	17442.72
456.323	17235.88
456.529	16373.68
456.735	17270.69
456.941	16533.42
457.147	16041.91
457.352	15892.41
457.558	15732.67
457.764	15427.52
457.97	15120.32
458.176	14944.2
458.381	14983.11
458.587	14030.8
458.793	14405.58
458.999	13543.39
459.204	14524.37
459.41	13780.95
459.616	13277.15
459.821	13322.21
460.027	13123.55
460.233	12896.23
460.438	12126.19
460.644	12281.84
460.85	11763.7
461.055	11692.02
461.261	11792.37
461.466	10639.37
461.672	10366.99
461.878	11161.6
462.083	10500.11
462.289	10123.28
462.494	10029.07
462.7	9543.71
462.905	9504.79
463.111	9752.6
463.316	9775.13
463.522	9506.84
463.727	9701.4
463.932	9654.3
464.138	9533.47
464.343	9562.14
464.549	9156.64
464.754	9603.1
464.959	9512.99
465.165	9560.09
465.37	8966.18
465.575	8900.64
465.781	9291.8
465.986	9222.17
466.191	8871.97
466.397	8783.91
466.602	8206.38
466.807	8609.83
467.012	8521.77
467.218	8448.04
467.423	8466.47
