Data from USB4F104151__263__14-01-57-782.txt Node

Date: Thu Mar 13 14:01:57 EDT 2025
User: louis
Spectrometer: USB4F10415
Trigger mode: 4
Integration Time (sec): 1.000000E-2
Scans to average: 1
Electric dark correction enabled: true
Nonlinearity correction enabled: false
Boxcar width: 0
XAxis mode: Wavelengths
Number of Pixels in Spectrum: 3648
>>>>>Begin Spectral Data<<<<<
178.204	-4.95
178.424	-4.95
178.644	-4.95
178.864	-115.54
179.084	-7
179.304	56.49
179.524	-9.05
179.744	-7
179.964	17.58
180.184	1.19
180.404	-37.72
180.624	-2.9
180.844	7.34
181.064	-15.19
181.283	-23.38
181.503	13.48
181.723	-0.85
181.943	27.82
182.163	54.44
182.383	3.24
182.602	85.16
182.822	19.63
183.042	83.11
183.262	5.29
183.482	15.53
183.701	3.24
183.921	46.25
184.141	13.48
184.361	7.34
184.58	-9.05
184.8	21.67
185.02	-11.09
185.239	11.43
185.459	-19.29
185.679	-39.76
185.898	-17.24
186.118	23.72
186.338	25.77
186.557	-0.85
186.777	-58.2
186.997	7.34
187.216	11.43
187.436	85.16
187.655	17.58
187.875	25.77
188.095	122.02
188.314	-19.29
188.534	56.49
188.753	-35.67
188.973	-62.29
189.192	62.63
189.412	64.68
189.631	11.43
189.851	-74.58
190.07	36.01
190.29	17.58
190.509	15.53
190.729	117.93
190.948	-7
191.168	15.53
191.387	-17.24
191.607	-7
191.826	72.87
192.045	48.3
192.265	31.91
192.484	66.73
192.704	17.58
192.923	23.72
193.142	68.78
193.362	40.11
193.581	54.44
193.8	40.11
194.02	7.34
194.239	-7
194.458	17.58
194.678	-37.72
194.897	17.58
195.116	56.49
195.335	25.77
195.555	-41.81
195.774	25.77
195.993	3.24
196.212	27.82
196.432	19.63
196.651	-39.76
196.87	-17.24
197.089	115.88
197.308	-4.95
197.528	38.06
197.747	56.49
197.966	56.49
198.185	1.19
198.404	1.19
198.623	48.3
198.842	56.49
199.062	72.87
199.281	81.07
199.5	-27.48
199.719	17.58
199.938	15.53
200.157	44.2
200.376	40.11
200.595	-2.9
200.814	33.96
201.033	-0.85
201.252	19.63
201.471	-9.05
201.69	93.35
201.909	-7
202.128	99.5
202.347	50.35
202.566	3.24
202.785	-39.76
203.004	44.2
203.223	79.02
203.442	-9.05
203.661	27.82
203.879	54.44
204.098	-4.95
204.317	25.77
204.536	25.77
204.755	29.87
204.974	-15.19
205.193	9.39
205.411	31.91
205.63	48.3
205.849	46.25
206.068	31.91
206.287	89.26
206.505	9.39
206.724	27.82
206.943	1.19
207.162	36.01
207.381	-33.62
207.599	11.43
207.818	-56.15
208.037	52.39
208.255	-66.39
208.474	42.15
208.693	-31.57
208.911	25.77
209.13	-0.85
209.349	56.49
209.567	44.2
209.786	-33.62
210.005	11.43
210.223	-13.14
210.442	-0.85
210.661	31.91
210.879	44.2
211.098	-33.62
211.316	15.53
211.535	56.49
211.753	44.2
211.972	21.67
212.191	38.06
212.409	40.11
212.628	21.67
212.846	-15.19
213.065	17.58
213.283	40.11
213.502	52.39
213.72	13.48
213.938	-17.24
214.157	7.34
214.375	50.35
214.594	-9.05
214.812	15.53
215.031	-2.9
215.249	-33.62
215.467	-0.85
215.686	17.58
215.904	23.72
216.122	-17.24
216.341	17.58
216.559	-25.43
216.778	1.19
216.996	-17.24
217.214	-56.15
217.432	-21.33
217.651	-21.33
217.869	7.34
218.087	-9.05
218.306	-4.95
218.524	17.58
218.742	31.91
218.96	76.97
219.179	-23.38
219.397	54.44
219.615	31.91
219.833	11.43
220.051	76.97
220.27	48.3
220.488	7.34
220.706	48.3
220.924	21.67
221.142	-7
221.36	-66.39
221.578	7.34
221.796	42.15
222.015	36.01
222.233	-17.24
222.451	23.72
222.669	44.2
222.887	66.73
223.105	-27.48
223.323	-2.9
223.541	-54.1
223.759	105.64
223.977	-43.86
224.195	105.64
224.413	60.59
224.631	19.63
224.849	33.96
225.067	-9.05
225.285	-7
225.503	-0.85
225.721	-39.76
225.939	23.72
226.157	13.48
226.375	93.35
226.592	56.49
226.81	-4.95
227.028	23.72
227.246	40.11
227.464	9.39
227.682	48.3
227.9	13.48
228.117	11.43
228.335	58.54
228.553	-33.62
228.771	11.43
228.989	9.39
229.206	40.11
229.424	48.3
229.642	-25.43
229.86	-0.85
230.077	15.53
230.295	15.53
230.513	36.01
230.731	29.87
230.948	40.11
231.166	33.96
231.384	33.96
231.601	13.48
231.819	23.72
232.037	3.24
232.254	-31.57
232.472	58.54
232.689	81.07
232.907	68.78
233.125	1.19
233.342	-17.24
233.56	23.72
233.777	117.93
233.995	36.01
234.213	23.72
234.43	70.83
234.648	23.72
234.865	9.39
235.083	25.77
235.3	-0.85
235.518	-23.38
235.735	7.34
235.953	17.58
236.17	11.43
236.388	-0.85
236.605	7.34
236.822	60.59
237.04	64.68
237.257	36.01
237.475	-4.95
237.692	97.45
237.909	54.44
238.127	7.34
238.344	-29.52
238.562	58.54
238.779	48.3
238.996	66.73
239.214	-4.95
239.431	-4.95
239.648	19.63
239.865	64.68
240.083	19.63
240.3	25.77
240.517	31.91
240.735	-50
240.952	-41.81
241.169	48.3
241.386	-4.95
241.603	-2.9
241.821	48.3
242.038	1.19
242.255	-4.95
242.472	-0.85
242.689	-41.81
242.907	36.01
243.124	44.2
243.341	52.39
243.558	-29.52
243.775	-15.19
243.992	-23.38
244.209	5.29
244.426	15.53
244.643	66.73
244.86	23.72
245.078	40.11
245.295	31.91
245.512	13.48
245.729	85.16
245.946	50.35
246.163	-0.85
246.38	-9.05
246.597	36.01
246.814	1.19
247.031	-66.39
247.248	36.01
247.464	-4.95
247.681	-50
247.898	-35.67
248.115	-17.24
248.332	15.53
248.549	38.06
248.766	19.63
248.983	117.93
249.2	60.59
249.417	31.91
249.633	-33.62
249.85	89.26
250.067	17.58
250.284	-50
250.501	56.49
250.717	58.54
250.934	-7
251.151	-15.19
251.368	31.91
251.585	-21.33
251.801	81.07
252.018	13.48
252.235	52.39
252.451	-2.9
252.668	17.58
252.885	40.11
253.102	-43.86
253.318	-7
253.535	93.35
253.752	36.01
253.968	42.15
254.185	-29.52
254.401	46.25
254.618	31.91
254.835	31.91
255.051	7.34
255.268	68.78
255.484	11.43
255.701	40.11
255.917	31.91
256.134	38.06
256.351	27.82
256.567	-19.29
256.784	-33.62
257	21.67
257.217	3.24
257.433	-15.19
257.65	-0.85
257.866	9.39
258.082	33.96
258.299	7.34
258.515	33.96
258.732	15.53
258.948	-9.05
259.165	-0.85
259.381	11.43
259.597	-50
259.814	17.58
260.03	-0.85
260.246	-41.81
260.463	52.39
260.679	9.39
260.895	42.15
261.112	76.97
261.328	-29.52
261.544	33.96
261.761	11.43
261.977	7.34
262.193	36.01
262.409	64.68
262.626	17.58
262.842	58.54
263.058	-29.52
263.274	48.3
263.49	97.45
263.707	-9.05
263.923	-21.33
264.139	-58.2
264.355	-13.14
264.571	64.68
264.787	76.97
265.004	89.26
265.22	40.11
265.436	70.83
265.652	-15.19
265.868	76.97
266.084	-41.81
266.3	21.67
266.516	-11.09
266.732	-31.57
266.948	-47.96
267.164	60.59
267.38	-2.9
267.596	-21.33
267.812	62.63
268.028	-4.95
268.244	-19.29
268.46	66.73
268.676	42.15
268.892	-37.72
269.108	44.2
269.324	13.48
269.54	-13.14
269.756	56.49
269.972	11.43
270.188	-2.9
270.403	-33.62
270.619	-17.24
270.835	40.11
271.051	70.83
271.267	7.34
271.483	-0.85
271.698	9.39
271.914	-33.62
272.13	13.48
272.346	15.53
272.562	-31.57
272.777	64.68
272.993	50.35
273.209	1.19
273.425	17.58
273.64	15.53
273.856	46.25
274.072	19.63
274.287	33.96
274.503	-19.29
274.719	50.35
274.934	48.3
275.15	9.39
275.366	-4.95
275.581	99.5
275.797	19.63
276.012	-31.57
276.228	44.2
276.444	89.26
276.659	40.11
276.875	-41.81
277.09	-9.05
277.306	-17.24
277.521	3.24
277.737	1.19
277.952	-0.85
278.168	7.34
278.383	-23.38
278.599	-33.62
278.814	-25.43
279.03	7.34
279.245	19.63
279.461	-15.19
279.676	7.34
279.892	42.15
280.107	-0.85
280.322	-17.24
280.538	-9.05
280.753	13.48
280.969	-7
281.184	-15.19
281.399	7.34
281.615	56.49
281.83	89.26
282.045	-60.24
282.26	-13.14
282.476	42.15
282.691	-2.9
282.906	-23.38
283.122	42.15
283.337	-2.9
283.552	31.91
283.767	60.59
283.983	42.15
284.198	-35.67
284.413	25.77
284.628	1.19
284.843	50.35
285.058	-31.57
285.274	21.67
285.489	-2.9
285.704	68.78
285.919	-41.81
286.134	23.72
286.349	-9.05
286.564	-25.43
286.779	-17.24
286.995	-13.14
287.21	52.39
287.425	27.82
287.64	3.24
287.855	15.53
288.07	31.91
288.285	19.63
288.5	33.96
288.715	60.59
288.93	13.48
289.145	56.49
289.36	31.91
289.575	-7
289.79	42.15
290.004	48.3
290.219	115.88
290.434	48.3
290.649	23.72
290.864	-23.38
291.079	42.15
291.294	40.11
291.509	-9.05
291.724	-19.29
291.938	50.35
292.153	68.78
292.368	-11.09
292.583	7.34
292.798	13.48
293.012	1.19
293.227	-27.48
293.442	58.54
293.657	50.35
293.871	-9.05
294.086	-11.09
294.301	91.31
294.516	46.25
294.73	29.87
294.945	-80.72
295.16	13.48
295.374	33.96
295.589	50.35
295.804	-9.05
296.018	66.73
296.233	64.68
296.447	48.3
296.662	-17.24
296.877	85.16
297.091	-7
297.306	-19.29
297.52	33.96
297.735	83.11
297.949	-0.85
298.164	-15.19
298.378	25.77
298.593	21.67
298.807	11.43
299.022	42.15
299.236	48.3
299.451	19.63
299.665	-50
299.88	15.53
300.094	99.5
300.309	-4.95
300.523	-13.14
300.737	-9.05
300.952	31.91
301.166	99.5
301.381	81.07
301.595	50.35
301.809	64.68
302.024	58.54
302.238	-27.48
302.452	50.35
302.667	-33.62
302.881	21.67
303.095	17.58
303.309	-45.91
303.524	23.72
303.738	9.39
303.952	56.49
304.166	-33.62
304.381	23.72
304.595	89.26
304.809	38.06
305.023	1.19
305.237	81.07
305.452	31.91
305.666	40.11
305.88	-33.62
306.094	40.11
306.308	-33.62
306.522	11.43
306.736	81.07
306.95	60.59
307.164	-39.76
307.379	27.82
307.593	48.3
307.807	64.68
308.021	54.44
308.235	48.3
308.449	52.39
308.663	-29.52
308.877	17.58
309.091	-13.14
309.305	72.87
309.519	-29.52
309.733	-9.05
309.947	-27.48
310.161	107.69
310.374	38.06
310.588	64.68
310.802	-9.05
311.016	91.31
311.23	21.67
311.444	-45.91
311.658	9.39
311.872	-11.09
312.085	3.24
312.299	58.54
312.513	40.11
312.727	-0.85
312.941	-0.85
313.154	5.29
313.368	48.3
313.582	42.15
313.796	83.11
314.009	70.83
314.223	105.64
314.437	1.19
314.651	64.68
314.864	11.43
315.078	33.96
315.292	-33.62
315.505	83.11
315.719	46.25
315.933	11.43
316.146	-25.43
316.36	56.49
316.573	23.72
316.787	48.3
317.001	-13.14
317.214	19.63
317.428	-47.96
317.641	-27.48
317.855	60.59
318.068	-41.81
318.282	64.68
318.495	70.83
318.709	42.15
318.922	52.39
319.136	40.11
319.349	40.11
319.563	50.35
319.776	21.67
319.99	-33.62
320.203	44.2
320.417	11.43
320.63	-68.44
320.843	-2.9
321.057	40.11
321.27	36.01
321.483	-9.05
321.697	91.31
321.91	95.4
322.124	79.02
322.337	-13.14
322.55	62.63
322.763	25.77
322.977	50.35
323.19	50.35
323.403	56.49
323.617	-47.96
323.83	66.73
324.043	-9.05
324.256	117.93
324.469	50.35
324.683	33.96
324.896	-19.29
325.109	46.25
325.322	50.35
325.535	5.29
325.748	27.82
325.962	62.63
326.175	-4.95
326.388	-29.52
326.601	-9.05
326.814	38.06
327.027	-25.43
327.24	89.26
327.453	-41.81
327.666	9.39
327.879	33.96
328.092	105.64
328.305	-78.68
328.518	5.29
328.731	44.2
328.944	76.97
329.157	-0.85
329.37	-21.33
329.583	46.25
329.796	50.35
330.009	-47.96
330.222	66.73
330.435	76.97
330.648	-4.95
330.861	25.77
331.073	-15.19
331.286	-9.05
331.499	76.97
331.712	33.96
331.925	50.35
332.138	-29.52
332.35	58.54
332.563	95.4
332.776	-7
332.989	27.82
333.202	66.73
333.414	46.25
333.627	31.91
333.84	-27.48
334.053	17.58
334.265	17.58
334.478	-17.24
334.691	91.31
334.903	-9.05
335.116	-25.43
335.329	-41.81
335.541	66.73
335.754	31.91
335.966	40.11
336.179	109.74
336.392	19.63
336.604	7.34
336.817	72.87
337.029	48.3
337.242	-21.33
337.454	58.54
337.667	3.24
337.88	66.73
338.092	-2.9
338.305	40.11
338.517	54.44
338.729	70.83
338.942	-25.43
339.154	40.11
339.367	42.15
339.579	91.31
339.792	11.43
340.004	23.72
340.217	13.48
340.429	19.63
340.641	-0.85
340.854	44.2
341.066	74.92
341.278	9.39
341.491	31.91
341.703	56.49
341.915	-78.68
342.128	42.15
342.34	58.54
342.552	1.19
342.764	17.58
342.977	-9.05
343.189	44.2
343.401	44.2
343.613	-41.81
343.826	70.83
344.038	-4.95
344.25	40.11
344.462	-11.09
344.674	66.73
344.886	101.55
345.099	11.43
345.311	23.72
345.523	-80.72
345.735	31.91
345.947	33.96
346.159	17.58
346.371	70.83
346.583	23.72
346.795	105.64
347.007	36.01
347.219	48.3
347.431	21.67
347.643	66.73
347.855	44.2
348.067	31.91
348.279	11.43
348.491	7.34
348.703	17.58
348.915	7.34
349.127	-27.48
349.339	33.96
349.551	11.43
349.763	107.69
349.975	9.39
350.187	52.39
350.399	-11.09
350.61	64.68
350.822	-82.77
351.034	40.11
351.246	-4.95
351.458	33.96
351.669	25.77
351.881	60.59
352.093	33.96
352.305	7.34
352.517	7.34
352.728	7.34
352.94	-33.62
353.152	40.11
353.363	-0.85
353.575	5.29
353.787	99.5
353.999	76.97
354.21	31.91
354.422	17.58
354.633	15.53
354.845	7.34
355.057	17.58
355.268	17.58
355.48	25.77
355.692	23.72
355.903	31.91
356.115	56.49
356.326	-9.05
356.538	11.43
356.749	70.83
356.961	44.2
357.172	-15.19
357.384	52.39
357.595	72.87
357.807	105.64
358.018	58.54
358.23	-21.33
358.441	-27.48
358.653	17.58
358.864	33.96
359.075	23.72
359.287	85.16
359.498	50.35
359.709	13.48
359.921	7.34
360.132	15.53
360.344	56.49
360.555	13.48
360.766	124.07
360.977	-13.14
361.189	27.82
361.4	50.35
361.611	15.53
361.823	33.96
362.034	91.31
362.245	-45.91
362.456	83.11
362.667	38.06
362.879	54.44
363.09	31.91
363.301	25.77
363.512	5.29
363.723	-19.29
363.935	62.63
364.146	68.78
364.357	-11.09
364.568	7.34
364.779	9.39
364.99	29.87
365.201	-11.09
365.412	52.39
365.623	15.53
365.834	-19.29
366.045	56.49
366.256	81.07
366.467	-15.19
366.678	44.2
366.889	56.49
367.1	7.34
367.311	99.5
367.522	25.77
367.733	101.55
367.944	79.02
368.155	-31.57
368.366	38.06
368.577	-19.29
368.788	111.78
368.999	17.58
369.209	95.4
369.42	95.4
369.631	-9.05
369.842	40.11
370.053	48.3
370.264	23.72
370.474	17.58
370.685	7.34
370.896	21.67
371.107	66.73
371.317	5.29
371.528	50.35
371.739	19.63
371.95	64.68
372.16	11.43
372.371	40.11
372.582	-17.24
372.792	-17.24
373.003	74.92
373.214	38.06
373.424	31.91
373.635	-4.95
373.846	7.34
374.056	52.39
374.267	9.39
374.477	13.48
374.688	-17.24
374.898	31.91
375.109	23.72
375.319	21.67
375.53	62.63
375.74	56.49
375.951	25.77
376.161	70.83
376.372	50.35
376.582	70.83
376.793	68.78
377.003	74.92
377.214	40.11
377.424	9.39
377.635	13.48
377.845	68.78
378.055	72.87
378.266	56.49
378.476	89.26
378.686	9.39
378.897	105.64
379.107	52.39
379.317	23.72
379.528	-25.43
379.738	97.45
379.948	54.44
380.158	21.67
380.369	-37.72
380.579	48.3
380.789	91.31
380.999	66.73
381.21	38.06
381.42	48.3
381.63	44.2
381.84	103.59
382.05	52.39
382.261	66.73
382.471	91.31
382.681	27.82
382.891	-19.29
383.101	31.91
383.311	-0.85
383.521	74.92
383.731	36.01
383.941	56.49
384.151	54.44
384.361	62.63
384.571	68.78
384.781	64.68
384.991	23.72
385.201	27.82
385.411	64.68
385.621	36.01
385.831	81.07
386.041	52.39
386.251	36.01
386.461	54.44
386.671	17.58
386.881	70.83
387.091	36.01
387.301	93.35
387.511	-4.95
387.72	-39.76
387.93	-31.57
388.14	130.22
388.35	36.01
388.56	33.96
388.769	91.31
388.979	11.43
389.189	50.35
389.399	64.68
389.609	66.73
389.818	36.01
390.028	-9.05
390.238	29.87
390.447	79.02
390.657	81.07
390.867	-4.95
391.076	79.02
391.286	7.34
391.496	52.39
391.705	-27.48
391.915	60.59
392.125	27.82
392.334	50.35
392.544	17.58
392.753	56.49
392.963	-4.95
393.172	64.68
393.382	113.83
393.591	124.07
393.801	58.54
394.01	48.3
394.22	87.21
394.429	81.07
394.639	-41.81
394.848	50.35
395.058	23.72
395.267	99.5
395.477	36.01
395.686	11.43
395.895	79.02
396.105	111.78
396.314	-45.91
396.524	89.26
396.733	99.5
396.942	93.35
397.152	44.2
397.361	134.31
397.57	5.29
397.78	89.26
397.989	31.91
398.198	79.02
398.407	40.11
398.617	132.26
398.826	46.25
399.035	54.44
399.244	52.39
399.453	134.31
399.663	23.72
399.872	113.83
400.081	66.73
400.29	46.25
400.499	60.59
400.708	58.54
400.917	87.21
401.127	83.11
401.336	66.73
401.545	33.96
401.754	181.42
401.963	119.98
402.172	60.59
402.381	83.11
402.59	107.69
402.799	136.36
403.008	87.21
403.217	140.46
403.426	81.07
403.635	93.35
403.844	97.45
404.053	140.46
404.262	101.55
404.471	152.74
404.68	99.5
404.888	105.64
405.097	87.21
405.306	97.45
405.515	101.55
405.724	136.36
405.933	136.36
406.142	195.75
406.35	89.26
406.559	187.56
406.768	117.93
406.977	148.65
407.185	126.12
407.394	183.46
407.603	138.41
407.812	138.41
408.02	222.38
408.229	249
408.438	187.56
408.646	212.14
408.855	230.57
409.064	214.18
409.272	199.85
409.481	195.75
409.69	230.57
409.898	187.56
410.107	212.14
410.315	271.53
410.524	181.42
410.733	275.62
410.941	249
411.15	371.88
411.358	314.53
411.567	373.92
411.775	261.29
411.984	322.73
412.192	361.64
412.401	298.15
412.609	355.49
412.818	464.04
413.026	341.16
413.234	396.45
413.443	378.02
413.651	398.5
413.86	449.7
414.068	531.62
414.276	550.05
414.485	457.89
414.693	554.15
414.901	572.58
415.11	564.39
415.318	539.81
415.526	539.81
415.734	640.16
415.943	650.4
416.151	648.35
416.359	697.5
416.567	644.26
416.776	711.84
416.984	789.66
417.192	902.3
417.4	750.75
417.608	736.42
417.817	738.46
418.025	902.3
418.233	871.58
418.441	828.57
418.649	961.69
418.857	1113.24
419.065	1070.23
419.273	1062.04
419.481	1121.43
419.689	1168.54
419.897	1182.87
420.105	1141.91
420.313	1281.18
420.521	1254.55
420.729	1299.61
420.937	1432.72
421.145	1445.01
421.353	1387.67
421.561	1576.08
421.769	1606.8
421.977	1795.22
422.185	1645.71
422.393	1721.49
422.601	1748.11
422.809	1856.65
423.017	1817.74
423.224	1875.09
423.432	2022.54
423.64	1997.96
423.848	2196.62
424.056	2143.37
424.263	2329.74
424.471	2243.72
424.679	2432.13
424.887	2509.96
425.094	2667.65
425.302	2575.49
425.51	2763.9
425.718	2765.95
425.925	2727.04
426.133	2892.93
426.341	2878.59
426.548	3062.91
426.756	3202.17
426.964	3216.51
427.171	3497.08
427.379	3468.41
427.586	3685.49
427.794	3617.91
428.001	3716.21
428.209	4115.56
428.417	4031.6
428.624	4113.52
428.832	4090.99
429.039	4136.04
429.247	4125.8
429.454	4461.67
429.662	4809.83
429.869	4430.95
430.076	4824.16
430.284	4742.24
430.491	5000.29
430.699	5170.27
430.906	5227.61
431.114	5143.64
431.321	5436.5
431.528	5766.23
431.736	5977.17
431.943	6194.25
432.15	6024.27
432.358	6126.67
432.565	6300.75
432.772	6480.97
432.979	6626.37
433.187	6980.67
433.394	6833.22
433.601	7285.82
433.808	7355.45
434.016	7285.82
434.223	7781.43
434.43	8338.48
434.637	8031.28
434.844	8453.16
435.052	8580.14
435.259	8498.22
435.466	8569.9
435.673	8666.15
435.88	9092.13
436.087	9460.76
436.294	9622.55
436.501	9344.03
436.708	9731.09
436.915	9968.66
437.122	10361.87
437.329	10193.94
437.537	10761.22
437.743	10783.75
437.95	10796.04
438.157	11414.52
438.364	11475.96
438.571	11672.57
438.778	11629.56
438.985	12553.2
439.192	12293.1
439.399	12817.38
439.606	12221.42
439.813	12942.31
440.02	13669.34
440.227	13753.3
440.433	13521.88
440.64	13904.85
440.847	13913.05
441.054	14255.06
441.261	14955.46
441.467	14883.78
441.674	15279.04
441.881	15748.03
442.088	15768.51
442.294	15891.38
442.501	15846.33
442.708	16204.72
442.914	16978.86
443.121	17685.4
443.328	16991.14
443.534	18379.67
443.741	17726.36
443.948	17701.79
444.154	19037.06
444.361	19073.93
444.568	19008.39
444.774	19131.27
444.981	19309.44
445.187	19747.71
445.394	20593.52
445.6	20167.54
445.807	22342.49
446.013	21214.05
446.22	21756.77
446.426	22569.81
446.633	22680.4
446.839	23640.9
447.046	22430.55
447.252	23731.01
447.459	24052.54
447.665	23475.01
447.871	24888.11
448.078	25750.31
448.284	24296.25
448.491	25283.37
448.697	26069.79
448.903	26608.4
449.11	26882.83
449.316	26223.39
449.522	26888.98
449.728	27493.13
449.935	27452.17
450.141	27452.17
450.347	28441.34
450.553	27491.08
450.76	27603.72
450.966	28910.32
451.172	28160.76
451.378	29125.36
451.584	28365.56
451.791	29106.93
451.997	29031.15
452.203	29225.71
452.409	29383.4
452.615	29352.68
452.821	28160.76
453.027	27611.91
453.233	29199.09
453.44	28181.24
453.646	28197.63
453.852	28648.18
454.058	29428.46
454.264	28136.19
454.47	28484.34
454.676	27955.97
454.882	29221.61
455.088	26463
455.294	26407.7
455.5	26962.7
455.705	27224.84
455.911	26374.94
456.117	25680.67
456.323	25426.73
456.529	24128.31
456.735	24967.98
456.941	24480.57
457.147	24165.18
457.352	23452.48
457.558	22999.88
457.764	23184.2
457.97	22768.46
458.176	22240.09
458.381	22471.51
458.587	21363.56
458.793	21396.32
458.999	19979.13
459.204	21576.55
459.41	20781.93
459.616	19305.35
459.821	19424.13
460.027	19377.03
460.233	19248
460.438	18328.47
460.644	18164.63
460.85	17376.16
461.055	17404.83
461.261	17288.1
461.466	15989.69
461.672	15416.26
461.878	16759.72
462.083	15424.45
462.289	15250.37
462.494	14914.5
462.7	14498.77
462.905	14035.92
463.111	14441.42
463.316	14316.5
463.522	13984.73
463.727	14371.79
463.932	14132.18
464.138	13806.55
464.343	14099.41
464.549	13861.85
464.754	14291.92
464.959	14109.65
465.165	14185.43
465.37	13620.19
465.575	13089.76
465.781	13573.08
465.986	13761.5
466.191	13102.05
466.397	12985.32
466.602	12483.56
466.807	12547.05
467.012	12903.4
467.218	12850.15
467.423	12532.72
467.628	12698.6
467.833	13145.06
468.038	12698.6
468.244	12342.25
468.449	12917.73
