Data from USB4F104151__21__13-52-36-843.txt Node

Date: Thu Mar 13 13:52:36 EDT 2025
User: louis
Spectrometer: USB4F10415
Trigger mode: 4
Integration Time (sec): 1.000000E-2
Scans to average: 1
Electric dark correction enabled: true
Nonlinearity correction enabled: false
Boxcar width: 0
XAxis mode: Wavelengths
Number of Pixels in Spectrum: 3648
>>>>>Begin Spectral Data<<<<<
178.204	12.12
178.424	12.12
178.644	12.12
178.864	-8.36
179.084	-39.08
179.304	-32.94
179.524	36.69
179.744	-22.7
179.964	-47.27
180.184	-20.65
180.404	12.12
180.624	-34.99
180.844	-10.41
181.064	53.08
181.283	32.6
181.503	8.02
181.723	26.45
181.943	61.27
182.163	67.41
182.383	-18.6
182.602	135
182.822	81.75
183.042	-6.31
183.262	42.84
183.482	98.13
183.701	98.13
183.921	-14.51
184.141	5.97
184.361	67.41
184.58	104.28
184.8	10.07
185.02	-18.6
185.239	-6.31
185.459	122.71
185.679	67.41
185.898	63.32
186.118	28.5
186.338	83.8
186.557	57.17
186.777	-32.94
186.997	40.79
187.216	16.21
187.436	53.08
187.655	81.75
187.875	120.66
188.095	24.4
188.314	55.12
188.534	32.6
188.753	102.23
188.973	36.69
189.192	77.65
189.412	59.22
189.631	130.9
189.851	18.26
190.07	42.84
190.29	67.41
190.509	36.69
190.729	116.56
190.948	40.79
191.168	61.27
191.387	38.74
191.607	-20.65
191.826	55.12
192.045	48.98
192.265	3.93
192.484	135
192.704	46.93
192.923	36.69
193.142	149.33
193.362	94.04
193.581	59.22
193.8	14.17
194.02	104.28
194.239	91.99
194.458	30.55
194.678	18.26
194.897	-57.51
195.116	-6.31
195.335	46.93
195.555	12.12
195.774	155.47
195.993	67.41
196.212	61.27
196.432	-4.27
196.651	51.03
196.87	137.04
197.089	69.46
197.308	71.51
197.528	12.12
197.747	91.99
197.966	16.21
198.185	106.32
198.404	44.88
198.623	63.32
198.842	44.88
199.062	16.21
199.281	36.69
199.5	48.98
199.719	61.27
199.938	81.75
200.157	10.07
200.376	-18.6
200.595	91.99
200.814	42.84
201.033	89.94
201.252	63.32
201.471	20.31
201.69	10.07
201.909	40.79
202.128	42.84
202.347	96.08
202.566	51.03
202.785	51.03
203.004	46.93
203.223	-59.56
203.442	106.32
203.661	61.27
203.879	-28.84
204.098	75.6
204.317	55.12
204.536	77.65
204.755	18.26
204.974	30.55
205.193	10.07
205.411	46.93
205.63	-0.17
205.849	18.26
206.068	48.98
206.287	-6.31
206.505	38.74
206.724	59.22
206.943	3.93
207.162	22.36
207.381	10.07
207.599	57.17
207.818	53.08
208.037	59.22
208.255	16.21
208.474	14.17
208.693	34.64
208.911	96.08
209.13	89.94
209.349	34.64
209.567	-16.55
209.786	-8.36
210.005	139.09
210.223	67.41
210.442	14.17
210.661	102.23
210.879	24.4
211.098	104.28
211.316	73.56
211.535	22.36
211.753	32.6
211.972	30.55
212.191	-18.6
212.409	55.12
212.628	53.08
212.846	89.94
213.065	75.6
213.283	73.56
213.502	69.46
213.72	22.36
213.938	48.98
214.157	69.46
214.375	67.41
214.594	112.47
214.812	59.22
215.031	30.55
215.249	-16.55
215.467	79.7
215.686	96.08
215.904	67.41
216.122	26.45
216.341	98.13
216.559	46.93
216.778	-26.79
216.996	106.32
217.214	108.37
217.432	71.51
217.651	20.31
217.869	16.21
218.087	24.4
218.306	22.36
218.524	69.46
218.742	91.99
218.96	46.93
219.179	28.5
219.397	51.03
219.615	65.36
219.833	57.17
220.051	40.79
220.27	118.61
220.488	71.51
220.706	42.84
220.924	40.79
221.142	16.21
221.36	122.71
221.578	24.4
221.796	75.6
222.015	69.46
222.233	89.94
222.451	71.51
222.669	-4.27
222.887	36.69
223.105	20.31
223.323	28.5
223.541	55.12
223.759	36.69
223.977	-28.84
224.195	85.84
224.413	55.12
224.631	83.8
224.849	69.46
225.067	102.23
225.285	20.31
225.503	112.47
225.721	24.4
225.939	38.74
226.157	3.93
226.375	63.32
226.592	61.27
226.81	61.27
227.028	8.02
227.246	28.5
227.464	65.36
227.682	38.74
227.9	79.7
228.117	24.4
228.335	69.46
228.553	30.55
228.771	42.84
228.989	83.8
229.206	71.51
229.424	40.79
229.642	46.93
229.86	65.36
230.077	12.12
230.295	102.23
230.513	42.84
230.731	-14.51
230.948	81.75
231.166	85.84
231.384	-12.46
231.601	48.98
231.819	-24.75
232.037	28.5
232.254	5.97
232.472	91.99
232.689	67.41
232.907	14.17
233.125	16.21
233.342	53.08
233.56	116.56
233.777	8.02
233.995	89.94
234.213	151.38
234.43	67.41
234.648	28.5
234.865	79.7
235.083	24.4
235.3	28.5
235.518	65.36
235.735	91.99
235.953	110.42
236.17	53.08
236.388	61.27
236.605	30.55
236.822	32.6
237.04	22.36
237.257	73.56
237.475	3.93
237.692	69.46
237.909	-22.7
238.127	122.71
238.344	14.17
238.562	38.74
238.779	22.36
238.996	69.46
239.214	14.17
239.431	116.56
239.648	20.31
239.865	124.76
240.083	5.97
240.3	14.17
240.517	8.02
240.735	8.02
240.952	16.21
241.169	40.79
241.386	8.02
241.603	75.6
241.821	26.45
242.038	108.37
242.255	40.79
242.472	55.12
242.689	91.99
242.907	-6.31
243.124	22.36
243.341	77.65
243.558	69.46
243.775	59.22
243.992	14.17
244.209	30.55
244.426	59.22
244.643	161.62
244.86	32.6
245.078	104.28
245.295	26.45
245.512	69.46
245.729	-24.75
245.946	44.88
246.163	81.75
246.38	44.88
246.597	94.04
246.814	75.6
247.031	57.17
247.248	116.56
247.464	63.32
247.681	108.37
247.898	22.36
248.115	67.41
248.332	32.6
248.549	163.67
248.766	102.23
248.983	61.27
249.2	77.65
249.417	59.22
249.633	10.07
249.85	38.74
250.067	57.17
250.284	28.5
250.501	1.88
250.717	38.74
250.934	63.32
251.151	53.08
251.368	94.04
251.585	-28.84
251.801	18.26
252.018	14.17
252.235	94.04
252.451	8.02
252.668	79.7
252.885	79.7
253.102	10.07
253.318	46.93
253.535	18.26
253.752	20.31
253.968	34.64
254.185	5.97
254.401	46.93
254.618	20.31
254.835	34.64
255.051	110.42
255.268	67.41
255.484	46.93
255.701	30.55
255.917	79.7
256.134	28.5
256.351	57.17
256.567	14.17
256.784	108.37
257	59.22
257.217	63.32
257.433	42.84
257.65	59.22
257.866	30.55
258.082	65.36
258.299	81.75
258.515	79.7
258.732	26.45
258.948	12.12
259.165	-14.51
259.381	67.41
259.597	91.99
259.814	122.71
260.03	139.09
260.246	96.08
260.463	38.74
260.679	63.32
260.895	42.84
261.112	14.17
261.328	30.55
261.544	65.36
261.761	44.88
261.977	79.7
262.193	38.74
262.409	-16.55
262.626	77.65
262.842	114.52
263.058	24.4
263.274	-34.99
263.49	22.36
263.707	-37.03
263.923	42.84
264.139	24.4
264.355	3.93
264.571	87.89
264.787	-24.75
265.004	34.64
265.22	34.64
265.436	32.6
265.652	46.93
265.868	20.31
266.084	104.28
266.3	48.98
266.516	28.5
266.732	112.47
266.948	28.5
267.164	91.99
267.38	139.09
267.596	46.93
267.812	126.8
268.028	53.08
268.244	124.76
268.46	83.8
268.676	44.88
268.892	55.12
269.108	34.64
269.324	73.56
269.54	69.46
269.756	61.27
269.972	46.93
270.188	85.84
270.403	22.36
270.619	112.47
270.835	28.5
271.051	69.46
271.267	10.07
271.483	114.52
271.698	44.88
271.914	102.23
272.13	53.08
272.346	106.32
272.562	-12.46
272.777	83.8
272.993	63.32
273.209	24.4
273.425	-4.27
273.64	126.8
273.856	102.23
274.072	73.56
274.287	-8.36
274.503	57.17
274.719	106.32
274.934	55.12
275.15	-4.27
275.366	46.93
275.581	22.36
275.797	40.79
276.012	53.08
276.228	65.36
276.444	3.93
276.659	94.04
276.875	79.7
277.09	110.42
277.306	34.64
277.521	61.27
277.737	32.6
277.952	79.7
278.168	18.26
278.383	38.74
278.599	28.5
278.814	63.32
279.03	71.51
279.245	1.88
279.461	-18.6
279.676	30.55
279.892	-8.36
280.107	-26.79
280.322	-6.31
280.538	73.56
280.753	34.64
280.969	155.47
281.184	79.7
281.399	46.93
281.615	20.31
281.83	87.89
282.045	22.36
282.26	81.75
282.476	-0.17
282.691	38.74
282.906	-22.7
283.122	96.08
283.337	10.07
283.552	61.27
283.767	69.46
283.983	65.36
284.198	69.46
284.413	77.65
284.628	46.93
284.843	73.56
285.058	73.56
285.274	73.56
285.489	106.32
285.704	96.08
285.919	89.94
286.134	-18.6
286.349	30.55
286.564	57.17
286.779	59.22
286.995	91.99
287.21	38.74
287.425	59.22
287.64	71.51
287.855	81.75
288.07	71.51
288.285	40.79
288.5	26.45
288.715	46.93
288.93	22.36
289.145	44.88
289.36	73.56
289.575	59.22
289.79	-2.22
290.004	14.17
290.219	98.13
290.434	55.12
290.649	12.12
290.864	85.84
291.079	-4.27
291.294	48.98
291.509	-49.32
291.724	38.74
291.938	38.74
292.153	71.51
292.368	26.45
292.583	65.36
292.798	141.14
293.012	116.56
293.227	100.18
293.442	87.89
293.657	-34.99
293.871	122.71
294.086	22.36
294.301	59.22
294.516	59.22
294.73	40.79
294.945	-2.22
295.16	10.07
295.374	81.75
295.589	100.18
295.804	106.32
296.018	89.94
296.233	67.41
296.447	20.31
296.662	46.93
296.877	63.32
297.091	110.42
297.306	114.52
297.52	14.17
297.735	10.07
297.949	44.88
298.164	40.79
298.378	44.88
298.593	65.36
298.807	77.65
299.022	106.32
299.236	57.17
299.451	34.64
299.665	73.56
299.88	26.45
300.094	59.22
300.309	112.47
300.523	-0.17
300.737	59.22
300.952	36.69
301.166	114.52
301.381	55.12
301.595	106.32
301.809	63.32
302.024	130.9
302.238	102.23
302.452	96.08
302.667	63.32
302.881	10.07
303.095	48.98
303.309	8.02
303.524	40.79
303.738	87.89
303.952	-8.36
304.166	83.8
304.381	94.04
304.595	71.51
304.809	10.07
305.023	87.89
305.237	32.6
305.452	55.12
305.666	79.7
305.88	65.36
306.094	36.69
306.308	36.69
306.522	85.84
306.736	-63.66
306.95	98.13
307.164	63.32
307.379	61.27
307.593	108.37
307.807	46.93
308.021	87.89
308.235	30.55
308.449	51.03
308.663	24.4
308.877	79.7
309.091	102.23
309.305	24.4
309.519	102.23
309.733	5.97
309.947	36.69
310.161	12.12
310.374	-0.17
310.588	85.84
310.802	-10.41
311.016	42.84
311.23	53.08
311.444	36.69
311.658	53.08
311.872	83.8
312.085	77.65
312.299	55.12
312.513	67.41
312.727	79.7
312.941	69.46
313.154	114.52
313.368	100.18
313.582	32.6
313.796	-10.41
314.009	42.84
314.223	83.8
314.437	77.65
314.651	79.7
314.864	69.46
315.078	122.71
315.292	48.98
315.505	34.64
315.719	132.95
315.933	20.31
316.146	77.65
316.36	-8.36
316.573	81.75
316.787	69.46
317.001	77.65
317.214	53.08
317.428	124.76
317.641	16.21
317.855	81.75
318.068	10.07
318.282	57.17
318.495	87.89
318.709	83.8
318.922	83.8
319.136	-18.6
319.349	26.45
319.563	81.75
319.776	34.64
319.99	120.66
320.203	149.33
320.417	24.4
320.63	116.56
320.843	69.46
321.057	116.56
321.27	75.6
321.483	81.75
321.697	59.22
321.91	94.04
322.124	108.37
322.337	85.84
322.55	94.04
322.763	40.79
322.977	94.04
323.19	77.65
323.403	-16.55
323.617	94.04
323.83	8.02
324.043	34.64
324.256	94.04
324.469	-0.17
324.683	94.04
324.896	14.17
325.109	67.41
325.322	53.08
325.535	98.13
325.748	81.75
325.962	34.64
326.175	34.64
326.388	65.36
326.601	87.89
326.814	42.84
327.027	91.99
327.24	106.32
327.453	12.12
327.666	87.89
327.879	147.28
328.092	42.84
328.305	46.93
328.518	-6.31
328.731	67.41
328.944	71.51
329.157	55.12
329.37	32.6
329.583	55.12
329.796	206.67
330.009	28.5
330.222	5.97
330.435	67.41
330.648	85.84
330.861	104.28
331.073	91.99
331.286	104.28
331.499	69.46
331.712	18.26
331.925	51.03
332.138	-20.65
332.35	137.04
332.563	55.12
332.776	89.94
332.989	59.22
333.202	83.8
333.414	8.02
333.627	12.12
333.84	8.02
334.053	69.46
334.265	69.46
334.478	12.12
334.691	61.27
334.903	79.7
335.116	-8.36
335.329	42.84
335.541	32.6
335.754	20.31
335.966	-0.17
336.179	44.88
336.392	55.12
336.604	55.12
336.817	130.9
337.029	83.8
337.242	83.8
337.454	61.27
337.667	73.56
337.88	94.04
338.092	44.88
338.305	38.74
338.517	26.45
338.729	83.8
338.942	85.84
339.154	44.88
339.367	81.75
339.579	116.56
339.792	130.9
340.004	126.8
340.217	1.88
340.429	61.27
340.641	79.7
340.854	65.36
341.066	104.28
341.278	106.32
341.491	85.84
341.703	118.61
341.915	75.6
342.128	112.47
342.34	77.65
342.552	69.46
342.764	40.79
342.977	42.84
343.189	85.84
343.401	28.5
343.613	40.79
343.826	102.23
344.038	26.45
344.25	-6.31
344.462	77.65
344.674	124.76
344.886	34.64
345.099	67.41
345.311	81.75
345.523	55.12
345.735	1.88
345.947	73.56
346.159	116.56
346.371	16.21
346.583	24.4
346.795	96.08
347.007	73.56
347.219	85.84
347.431	32.6
347.643	122.71
347.855	79.7
348.067	44.88
348.279	98.13
348.491	-0.17
348.703	71.51
348.915	75.6
349.127	116.56
349.339	10.07
349.551	53.08
349.763	102.23
349.975	24.4
350.187	94.04
350.399	163.67
350.61	83.8
350.822	36.69
351.034	10.07
351.246	26.45
351.458	75.6
351.669	28.5
351.881	102.23
352.093	48.98
352.305	108.37
352.517	55.12
352.728	108.37
352.94	104.28
353.152	77.65
353.363	118.61
353.575	44.88
353.787	77.65
353.999	48.98
354.21	48.98
354.422	89.94
354.633	67.41
354.845	34.64
355.057	106.32
355.268	65.36
355.48	51.03
355.692	98.13
355.903	46.93
356.115	89.94
356.326	40.79
356.538	65.36
356.749	3.93
356.961	128.85
357.172	44.88
357.384	61.27
357.595	94.04
357.807	79.7
358.018	14.17
358.23	42.84
358.441	28.5
358.653	67.41
358.864	48.98
359.075	-24.75
359.287	40.79
359.498	12.12
359.709	46.93
359.921	137.04
360.132	51.03
360.344	42.84
360.555	96.08
360.766	67.41
360.977	94.04
361.189	112.47
361.4	57.17
361.611	57.17
361.823	32.6
362.034	116.56
362.245	22.36
362.456	108.37
362.667	28.5
362.879	87.89
363.09	48.98
363.301	135
363.512	-37.03
363.723	42.84
363.935	110.42
364.146	-8.36
364.357	96.08
364.568	85.84
364.779	22.36
364.99	116.56
365.201	126.8
365.412	77.65
365.623	8.02
365.834	26.45
366.045	91.99
366.256	104.28
366.467	55.12
366.678	77.65
366.889	10.07
367.1	-10.41
367.311	81.75
367.522	24.4
367.733	69.46
367.944	108.37
368.155	38.74
368.366	128.85
368.577	96.08
368.788	91.99
368.999	32.6
369.209	57.17
369.42	53.08
369.631	87.89
369.842	67.41
370.053	91.99
370.264	89.94
370.474	57.17
370.685	94.04
370.896	81.75
371.107	79.7
371.317	83.8
371.528	48.98
371.739	8.02
371.95	32.6
372.16	89.94
372.371	42.84
372.582	100.18
372.792	61.27
373.003	153.43
373.214	94.04
373.424	116.56
373.635	20.31
373.846	112.47
374.056	14.17
374.267	12.12
374.477	91.99
374.688	83.8
374.898	46.93
375.109	85.84
375.319	38.74
375.53	53.08
375.74	106.32
375.951	139.09
376.161	44.88
376.372	32.6
376.582	141.14
376.793	63.32
377.003	61.27
377.214	53.08
377.424	46.93
377.635	106.32
377.845	46.93
378.055	24.4
378.266	89.94
378.476	28.5
378.686	85.84
378.897	81.75
379.107	59.22
379.317	53.08
379.528	14.17
379.738	108.37
379.948	-65.71
380.158	65.36
380.369	59.22
380.579	48.98
380.789	55.12
380.999	71.51
381.21	67.41
381.42	42.84
381.63	81.75
381.84	77.65
382.05	71.51
382.261	96.08
382.471	100.18
382.681	104.28
382.891	132.95
383.101	83.8
383.311	38.74
383.521	44.88
383.731	67.41
383.941	94.04
384.151	73.56
384.361	48.98
384.571	34.64
384.781	112.47
384.991	108.37
385.201	67.41
385.411	102.23
385.621	71.51
385.831	46.93
386.041	-6.31
386.251	91.99
386.461	114.52
386.671	42.84
386.881	38.74
387.091	79.7
387.301	18.26
387.511	126.8
387.72	132.95
387.93	75.6
388.14	106.32
388.35	98.13
388.56	96.08
388.769	38.74
388.979	51.03
389.189	130.9
389.399	110.42
389.609	98.13
389.818	59.22
390.028	87.89
390.238	98.13
390.447	44.88
390.657	53.08
390.867	24.4
391.076	106.32
391.286	100.18
391.496	124.76
391.705	-2.22
391.915	116.56
392.125	73.56
392.334	173.91
392.544	61.27
392.753	143.19
392.963	81.75
393.172	96.08
393.382	75.6
393.591	157.52
393.801	55.12
394.01	85.84
394.22	89.94
394.429	128.85
394.639	100.18
394.848	53.08
395.058	53.08
395.267	94.04
395.477	102.23
395.686	79.7
395.895	91.99
396.105	98.13
396.314	59.22
396.524	65.36
396.733	104.28
396.942	159.57
397.152	63.32
397.361	79.7
397.57	85.84
397.78	89.94
397.989	167.76
398.198	153.43
398.407	63.32
398.617	98.13
398.826	89.94
399.035	102.23
399.244	145.24
399.453	128.85
399.663	57.17
399.872	98.13
400.081	118.61
400.29	128.85
400.499	128.85
400.708	114.52
400.917	79.7
401.127	59.22
401.336	112.47
401.545	106.32
401.754	79.7
401.963	128.85
402.172	87.89
402.381	202.58
402.59	104.28
402.799	124.76
403.008	61.27
403.217	71.51
403.426	77.65
403.635	122.71
403.844	151.38
404.053	96.08
404.262	102.23
404.471	104.28
404.68	194.39
404.888	200.53
405.097	114.52
405.306	180.05
405.515	116.56
405.724	157.52
405.933	184.15
406.142	169.81
406.35	145.24
406.559	106.32
406.768	208.72
406.977	182.1
407.185	180.05
407.394	200.53
407.603	110.42
407.812	223.06
408.02	192.34
408.229	184.15
408.438	231.25
408.646	257.87
408.855	102.23
409.064	180.05
409.272	204.63
409.481	225.11
409.69	151.38
409.898	202.58
410.107	229.2
410.315	304.98
410.524	235.35
410.733	259.92
410.941	202.58
411.15	298.83
411.358	329.55
411.567	337.74
411.775	264.02
411.984	298.83
412.192	304.98
412.401	311.12
412.609	413.52
412.818	341.84
413.026	274.26
413.234	376.66
413.443	345.94
413.651	415.57
413.86	337.74
414.068	485.2
414.276	409.42
414.485	452.43
414.693	497.49
414.901	575.31
415.11	491.34
415.318	538.45
415.526	472.91
415.734	571.21
415.943	565.07
416.151	577.36
416.359	567.12
416.567	593.74
416.776	669.52
416.984	649.04
417.192	687.95
417.4	644.94
417.608	671.56
417.817	692.04
418.025	776.01
418.233	755.53
418.441	751.43
418.649	704.33
418.857	829.26
419.065	929.61
419.273	874.31
419.481	909.13
419.689	952.13
419.897	1029.96
420.105	1036.1
420.313	968.52
420.521	984.9
420.729	1072.96
420.937	1247.04
421.145	1062.73
421.353	1167.17
421.561	1189.7
421.769	1283.91
421.977	1326.91
422.185	1462.08
422.393	1427.26
422.601	1572.67
422.809	1550.14
423.017	1568.57
423.224	1701.69
423.432	1625.92
423.64	1615.68
423.848	1783.61
424.056	1660.73
424.263	1804.09
424.471	1822.52
424.679	1840.95
424.887	1920.82
425.094	2039.61
425.302	1992.5
425.51	2150.2
425.718	2164.53
425.925	2228.02
426.133	2342.71
426.341	2512.69
426.548	2471.73
426.756	2533.17
426.964	2537.26
427.171	2697
427.379	2826.03
427.586	2883.37
427.794	2996.01
428.001	2969.38
428.209	3295.01
428.417	3241.76
428.624	3344.16
428.832	3333.92
429.039	3434.27
429.247	3403.55
429.454	3655.45
429.662	3946.27
429.869	3620.64
430.076	3931.93
430.284	3749.66
430.491	4110.1
430.699	4206.36
430.906	4273.94
431.114	4165.4
431.321	4427.54
431.528	4417.3
431.736	4810.51
431.943	4990.73
432.15	4904.71
432.358	4939.53
432.565	5156.61
432.772	5068.55
432.979	5437.19
433.187	5469.95
433.394	5539.58
433.601	5949.18
433.808	5951.23
434.016	5992.19
434.223	6151.93
434.43	6553.33
434.637	6491.89
434.844	6846.19
435.052	6993.64
435.259	6645.49
435.466	7003.88
435.673	6774.51
435.88	7329.51
436.087	7640.8
436.294	7751.39
436.501	7612.13
436.708	7626.46
436.915	7968.48
437.122	8287.96
437.329	8464.08
437.537	8785.62
437.743	8627.92
437.95	8605.39
438.157	9109.19
438.364	9393.86
438.571	9465.54
438.778	9567.94
438.985	10286.78
439.192	9979.58
439.399	10260.15
439.606	9748.16
439.813	10653.36
440.02	11165.35
440.227	11099.82
440.433	10800.82
440.64	11267.75
440.847	11224.75
441.054	11484.84
441.261	12299.93
441.467	12119.71
441.674	12394.14
441.881	12752.53
442.088	12756.63
442.294	12609.17
442.501	12932.75
442.708	13389.45
442.914	13604.49
443.121	14331.51
443.328	13833.86
443.534	14827.12
443.741	14450.3
443.948	14296.7
444.154	15253.1
444.361	15507.05
444.568	15367.79
444.774	15435.37
444.981	15570.54
445.187	16047.71
445.394	16647.77
445.6	16610.9
445.807	17940.04
446.013	17299.02
446.22	17434.19
446.426	18456.12
446.633	18343.49
446.839	18880.05
447.046	18447.93
447.252	19162.67
447.459	19172.91
447.665	18988.6
447.871	20059.68
448.078	21032.47
448.284	19883.56
448.491	20358.69
448.697	21132.82
448.903	21612.04
449.11	21546.51
449.316	21548.56
449.522	21745.16
449.728	22599.16
449.935	22234.63
450.141	22330.88
450.347	22984.18
450.553	22332.93
450.76	22679.04
450.966	23035.38
451.172	22816.25
451.378	23856.62
451.584	23188.98
451.791	23674.35
451.997	23705.07
452.203	23997.93
452.409	24194.53
452.615	23723.5
452.821	23035.38
453.027	22676.99
453.233	24188.39
453.44	22613.5
453.646	22951.42
453.852	23367.15
454.058	23414.26
454.264	22904.31
454.47	23231.99
454.676	22570.49
454.882	23287.28
455.088	21683.72
455.294	21829.13
455.5	22111.75
455.705	22259.2
455.911	21278.22
456.117	20665.88
456.323	20540.96
456.529	19564.07
456.735	20684.31
456.941	19955.24
457.147	19492.4
457.352	18767.41
457.558	18718.26
457.764	18847.29
457.97	18476.6
458.176	17978.95
458.381	18042.43
458.587	17516.11
458.793	17217.1
458.999	16305.76
459.204	17454.67
459.41	16969.3
459.616	15767.14
459.821	15875.68
460.027	15720.04
460.233	15406.7
460.438	14702.2
460.644	14724.72
460.85	14204.54
461.055	14341.75
461.261	14055.04
461.466	12928.66
461.672	12566.17
461.878	13565.57
462.083	12379.8
462.289	12162.72
462.494	12185.24
462.7	11722.4
462.905	11429.54
463.111	11771.55
463.316	11781.79
463.522	11683.49
463.727	11708.07
463.932	11734.69
464.138	11769.51
464.343	11585.19
464.549	11265.71
464.754	11646.63
464.959	11341.48
465.165	11372.2
465.37	11060.91
465.575	10755.76
465.781	11122.35
465.986	11017.9
466.191	10624.69
466.397	10606.26
466.602	10155.71
466.807	10722.99
467.012	10659.51
467.218	10266.3
467.423	10266.3
467.628	10405.56
467.833	10878.64
468.038	10235.58
