Data from USB4F104151__296__14-02-53-036.txt Node

Date: Thu Mar 13 14:02:53 EDT 2025
User: louis
Spectrometer: USB4F10415
Trigger mode: 4
Integration Time (sec): 1.000000E-2
Scans to average: 1
Electric dark correction enabled: true
Nonlinearity correction enabled: false
Boxcar width: 0
XAxis mode: Wavelengths
Number of Pixels in Spectrum: 3648
>>>>>Begin Spectral Data<<<<<
178.204	12.63
178.424	12.63
178.644	12.63
178.864	-40.62
179.084	-61.1
179.304	-9.9
179.524	-38.57
179.744	-11.95
179.964	20.82
180.184	-16.04
180.404	55.64
180.624	69.97
180.844	-22.19
181.064	-11.95
181.283	-22.19
181.503	-42.67
181.723	29.01
181.943	-40.62
182.163	-13.99
182.383	20.82
182.602	2.39
182.822	24.92
183.042	43.35
183.262	-52.91
183.482	0.34
183.701	33.11
183.921	-9.9
184.141	0.34
184.361	33.11
184.58	45.4
184.8	12.63
185.02	-36.52
185.239	26.96
185.459	20.82
185.679	26.96
185.898	-28.33
186.118	41.3
186.338	-3.75
186.557	20.82
186.777	-18.09
186.997	26.96
187.216	65.88
187.436	51.54
187.655	-28.33
187.875	37.2
188.095	-65.19
188.314	18.77
188.534	6.49
188.753	-24.23
188.973	76.12
189.192	-32.43
189.412	-3.75
189.631	53.59
189.851	92.5
190.07	-11.95
190.29	-28.33
190.509	16.73
190.729	-20.14
190.948	24.92
191.168	67.92
191.387	-30.38
191.607	16.73
191.826	-44.71
192.045	41.3
192.265	31.06
192.484	12.63
192.704	115.03
192.923	96.6
193.142	59.73
193.362	-5.8
193.581	-13.99
193.8	67.92
194.02	-24.23
194.239	37.2
194.458	-20.14
194.678	37.2
194.897	-24.23
195.116	2.39
195.335	47.44
195.555	-7.85
195.774	14.68
195.993	8.53
196.212	29.01
196.432	-5.8
196.651	-20.14
196.87	0.34
197.089	16.73
197.308	61.78
197.528	35.16
197.747	-11.95
197.966	53.59
198.185	33.11
198.404	78.16
198.623	41.3
198.842	88.4
199.062	-22.19
199.281	16.73
199.5	86.36
199.719	8.53
199.938	49.49
200.157	8.53
200.376	33.11
200.595	65.88
200.814	-16.04
201.033	-42.67
201.252	37.2
201.471	47.44
201.69	12.63
201.909	43.35
202.128	35.16
202.347	0.34
202.566	0.34
202.785	0.34
203.004	55.64
203.223	-1.71
203.442	53.59
203.661	29.01
203.879	-5.8
204.098	-85.67
204.317	-7.85
204.536	-22.19
204.755	24.92
204.974	31.06
205.193	41.3
205.411	139.6
205.63	49.49
205.849	65.88
206.068	10.58
206.287	-83.63
206.505	106.84
206.724	-71.34
206.943	0.34
207.162	100.69
207.381	16.73
207.599	10.58
207.818	35.16
208.037	4.44
208.255	33.11
208.474	8.53
208.693	69.97
208.911	82.26
209.13	-34.47
209.349	59.73
209.567	8.53
209.786	2.39
210.005	47.44
210.223	10.58
210.442	61.78
210.661	53.59
210.879	-30.38
211.098	72.02
211.316	-7.85
211.535	65.88
211.753	-13.99
211.972	-36.52
212.191	76.12
212.409	53.59
212.628	-30.38
212.846	26.96
213.065	51.54
213.283	-18.09
213.502	10.58
213.72	-54.95
213.938	-9.9
214.157	2.39
214.375	57.68
214.594	-54.95
214.812	37.2
215.031	0.34
215.249	0.34
215.467	-3.75
215.686	6.49
215.904	61.78
216.122	29.01
216.341	26.96
216.559	-20.14
216.778	-26.28
216.996	-40.62
217.214	82.26
217.432	26.96
217.651	39.25
217.869	-11.95
218.087	-20.14
218.306	8.53
218.524	24.92
218.742	24.92
218.96	24.92
219.179	-1.71
219.397	-18.09
219.615	49.49
219.833	-3.75
220.051	18.77
220.27	-7.85
220.488	2.39
220.706	-20.14
220.924	-65.19
221.142	51.54
221.36	41.3
221.578	2.39
221.796	-28.33
222.015	22.87
222.233	16.73
222.451	51.54
222.669	45.4
222.887	35.16
223.105	57.68
223.323	29.01
223.541	-24.23
223.759	-5.8
223.977	-40.62
224.195	-61.1
224.413	74.07
224.631	37.2
224.849	37.2
225.067	-32.43
225.285	35.16
225.503	-9.9
225.721	-16.04
225.939	-32.43
226.157	65.88
226.375	-5.8
226.592	4.44
226.81	10.58
227.028	24.92
227.246	35.16
227.464	14.68
227.682	4.44
227.9	-3.75
228.117	-11.95
228.335	0.34
228.553	67.92
228.771	41.3
228.989	24.92
229.206	90.45
229.424	-9.9
229.642	8.53
229.86	-54.95
230.077	-3.75
230.295	43.35
230.513	59.73
230.731	16.73
230.948	22.87
231.166	33.11
231.384	24.92
231.601	24.92
231.819	0.34
232.037	18.77
232.254	-63.15
232.472	59.73
232.689	8.53
232.907	14.68
233.125	10.58
233.342	-38.57
233.56	0.34
233.777	-48.81
233.995	-3.75
234.213	90.45
234.43	35.16
234.648	47.44
234.865	51.54
235.083	53.59
235.3	31.06
235.518	96.6
235.735	43.35
235.953	47.44
236.17	-61.1
236.388	55.64
236.605	-11.95
236.822	-40.62
237.04	0.34
237.257	43.35
237.475	2.39
237.692	-52.91
237.909	29.01
238.127	6.49
238.344	4.44
238.562	10.58
238.779	-22.19
238.996	18.77
239.214	16.73
239.431	10.58
239.648	53.59
239.865	18.77
240.083	-5.8
240.3	-16.04
240.517	-13.99
240.735	20.82
240.952	-7.85
241.169	26.96
241.386	51.54
241.603	24.92
241.821	24.92
242.038	14.68
242.255	74.07
242.472	43.35
242.689	82.26
242.907	16.73
243.124	-36.52
243.341	24.92
243.558	55.64
243.775	-46.76
243.992	24.92
244.209	49.49
244.426	51.54
244.643	104.79
244.86	65.88
245.078	-52.91
245.295	-5.8
245.512	-13.99
245.729	-30.38
245.946	16.73
246.163	-57
246.38	35.16
246.597	8.53
246.814	8.53
247.031	33.11
247.248	-13.99
247.464	-30.38
247.681	35.16
247.898	-63.15
248.115	57.68
248.332	39.25
248.549	35.16
248.766	84.31
248.983	49.49
249.2	37.2
249.417	104.79
249.633	-54.95
249.85	61.78
250.067	-18.09
250.284	10.58
250.501	26.96
250.717	65.88
250.934	35.16
251.151	24.92
251.368	8.53
251.585	-40.62
251.801	20.82
252.018	10.58
252.235	78.16
252.451	-85.67
252.668	18.77
252.885	18.77
253.102	0.34
253.318	35.16
253.535	6.49
253.752	35.16
253.968	-48.81
254.185	18.77
254.401	8.53
254.618	16.73
254.835	100.69
255.051	55.64
255.268	26.96
255.484	98.64
255.701	43.35
255.917	12.63
256.134	10.58
256.351	8.53
256.567	-26.28
256.784	20.82
257	4.44
257.217	53.59
257.433	37.2
257.65	8.53
257.866	16.73
258.082	-11.95
258.299	-11.95
258.515	0.34
258.732	37.2
258.948	117.08
259.165	16.73
259.381	41.3
259.597	-7.85
259.814	45.4
260.03	2.39
260.246	24.92
260.463	61.78
260.679	0.34
260.895	26.96
261.112	86.36
261.328	43.35
261.544	35.16
261.761	31.06
261.977	18.77
262.193	33.11
262.409	8.53
262.626	43.35
262.842	63.83
263.058	-24.23
263.274	35.16
263.49	-89.77
263.707	41.3
263.923	33.11
264.139	-32.43
264.355	33.11
264.571	61.78
264.787	74.07
265.004	43.35
265.22	-36.52
265.436	-5.8
265.652	16.73
265.868	65.88
266.084	8.53
266.3	0.34
266.516	0.34
266.732	41.3
266.948	-22.19
267.164	-18.09
267.38	-3.75
267.596	35.16
267.812	16.73
268.028	24.92
268.244	22.87
268.46	43.35
268.676	12.63
268.892	-5.8
269.108	-24.23
269.324	8.53
269.54	-18.09
269.756	0.34
269.972	-40.62
270.188	-1.71
270.403	29.01
270.619	29.01
270.835	14.68
271.051	-20.14
271.267	90.45
271.483	-5.8
271.698	8.53
271.914	14.68
272.13	-18.09
272.346	18.77
272.562	12.63
272.777	57.68
272.993	22.87
273.209	-28.33
273.425	18.77
273.64	-73.39
273.856	67.92
274.072	82.26
274.287	-30.38
274.503	-16.04
274.719	49.49
274.934	67.92
275.15	-5.8
275.366	20.82
275.581	16.73
275.797	8.53
276.012	49.49
276.228	69.97
276.444	63.83
276.659	-9.9
276.875	-30.38
277.09	49.49
277.306	-32.43
277.521	88.4
277.737	41.3
277.952	-7.85
278.168	16.73
278.383	-1.71
278.599	16.73
278.814	61.78
279.03	8.53
279.245	-22.19
279.461	-26.28
279.676	12.63
279.892	-65.19
280.107	24.92
280.322	29.01
280.538	26.96
280.753	33.11
280.969	-5.8
281.184	61.78
281.399	6.49
281.615	-18.09
281.83	14.68
282.045	-22.19
282.26	39.25
282.476	20.82
282.691	24.92
282.906	63.83
283.122	84.31
283.337	-36.52
283.552	82.26
283.767	2.39
283.983	22.87
284.198	26.96
284.413	-7.85
284.628	-5.8
284.843	45.4
285.058	12.63
285.274	16.73
285.489	47.44
285.704	43.35
285.919	-11.95
286.134	45.4
286.349	33.11
286.564	-11.95
286.779	26.96
286.995	-32.43
287.21	-5.8
287.425	49.49
287.64	-54.95
287.855	-9.9
288.07	-81.58
288.285	41.3
288.5	49.49
288.715	49.49
288.93	20.82
289.145	51.54
289.36	-28.33
289.575	49.49
289.79	59.73
290.004	22.87
290.219	18.77
290.434	-7.85
290.649	-28.33
290.864	65.88
291.079	24.92
291.294	35.16
291.509	-46.76
291.724	20.82
291.938	26.96
292.153	49.49
292.368	-3.75
292.583	26.96
292.798	12.63
293.012	78.16
293.227	0.34
293.442	59.73
293.657	18.77
293.871	37.2
294.086	-7.85
294.301	4.44
294.516	78.16
294.73	8.53
294.945	35.16
295.16	8.53
295.374	57.68
295.589	16.73
295.804	61.78
296.018	65.88
296.233	67.92
296.447	29.01
296.662	-5.8
296.877	86.36
297.091	16.73
297.306	18.77
297.52	74.07
297.735	24.92
297.949	35.16
298.164	47.44
298.378	0.34
298.593	47.44
298.807	6.49
299.022	8.53
299.236	-36.52
299.451	47.44
299.665	61.78
299.88	12.63
300.094	67.92
300.309	57.68
300.523	41.3
300.737	26.96
300.952	63.83
301.166	67.92
301.381	65.88
301.595	55.64
301.809	-40.62
302.024	55.64
302.238	45.4
302.452	-32.43
302.667	-26.28
302.881	-5.8
303.095	20.82
303.309	65.88
303.524	-5.8
303.738	45.4
303.952	2.39
304.166	55.64
304.381	-28.33
304.595	47.44
304.809	45.4
305.023	26.96
305.237	-30.38
305.452	41.3
305.666	55.64
305.88	57.68
306.094	33.11
306.308	-18.09
306.522	41.3
306.736	123.22
306.95	-22.19
307.164	-16.04
307.379	41.3
307.593	65.88
307.807	-81.58
308.021	29.01
308.235	-11.95
308.449	-32.43
308.663	16.73
308.877	88.4
309.091	8.53
309.305	18.77
309.519	-38.57
309.733	-13.99
309.947	6.49
310.161	82.26
310.374	-5.8
310.588	104.79
310.802	31.06
311.016	10.58
311.23	69.97
311.444	24.92
311.658	29.01
311.872	67.92
312.085	39.25
312.299	2.39
312.513	-16.04
312.727	24.92
312.941	26.96
313.154	51.54
313.368	-24.23
313.582	45.4
313.796	0.34
314.009	26.96
314.223	-20.14
314.437	-9.9
314.651	8.53
314.864	-7.85
315.078	-9.9
315.292	12.63
315.505	45.4
315.719	-7.85
315.933	-30.38
316.146	49.49
316.36	37.2
316.573	33.11
316.787	63.83
317.001	16.73
317.214	43.35
317.428	78.16
317.641	-16.04
317.855	29.01
318.068	-16.04
318.282	51.54
318.495	86.36
318.709	16.73
318.922	26.96
319.136	-3.75
319.349	24.92
319.563	8.53
319.776	12.63
319.99	33.11
320.203	59.73
320.417	61.78
320.63	14.68
320.843	10.58
321.057	10.58
321.27	8.53
321.483	82.26
321.697	35.16
321.91	-3.75
322.124	12.63
322.337	51.54
322.55	20.82
322.763	86.36
322.977	26.96
323.19	0.34
323.403	26.96
323.617	43.35
323.83	49.49
324.043	33.11
324.256	24.92
324.469	45.4
324.683	22.87
324.896	10.58
325.109	-16.04
325.322	22.87
325.535	63.83
325.748	115.03
325.962	16.73
326.175	35.16
326.388	43.35
326.601	59.73
326.814	20.82
327.027	78.16
327.24	20.82
327.453	-5.8
327.666	16.73
327.879	29.01
328.092	72.02
328.305	65.88
328.518	-34.47
328.731	35.16
328.944	22.87
329.157	108.88
329.37	76.12
329.583	12.63
329.796	121.17
330.009	47.44
330.222	49.49
330.435	51.54
330.648	-7.85
330.861	49.49
331.073	-5.8
331.286	102.74
331.499	43.35
331.712	47.44
331.925	-16.04
332.138	4.44
332.35	22.87
332.563	57.68
332.776	37.2
332.989	4.44
333.202	-16.04
333.414	49.49
333.627	100.69
333.84	-38.57
334.053	14.68
334.265	-57
334.478	-44.71
334.691	-44.71
334.903	72.02
335.116	51.54
335.329	51.54
335.541	-3.75
335.754	55.64
335.966	35.16
336.179	0.34
336.392	45.4
336.604	-20.14
336.817	10.58
337.029	47.44
337.242	18.77
337.454	-28.33
337.667	92.5
337.88	43.35
338.092	-38.57
338.305	37.2
338.517	-3.75
338.729	26.96
338.942	49.49
339.154	-69.29
339.367	37.2
339.579	67.92
339.792	80.21
340.004	53.59
340.217	-44.71
340.429	18.77
340.641	-30.38
340.854	49.49
341.066	-50.86
341.278	37.2
341.491	76.12
341.703	-40.62
341.915	90.45
342.128	26.96
342.34	51.54
342.552	26.96
342.764	76.12
342.977	117.08
343.189	0.34
343.401	10.58
343.613	65.88
343.826	14.68
344.038	20.82
344.25	-11.95
344.462	24.92
344.674	-5.8
344.886	33.11
345.099	33.11
345.311	-16.04
345.523	26.96
345.735	57.68
345.947	53.59
346.159	-28.33
346.371	0.34
346.583	10.58
346.795	8.53
347.007	39.25
347.219	14.68
347.431	59.73
347.643	24.92
347.855	61.78
348.067	117.08
348.279	-9.9
348.491	-24.23
348.703	35.16
348.915	76.12
349.127	-24.23
349.339	16.73
349.551	8.53
349.763	2.39
349.975	98.64
350.187	33.11
350.399	29.01
350.61	33.11
350.822	8.53
351.034	82.26
351.246	74.07
351.458	76.12
351.669	92.5
351.881	43.35
352.093	14.68
352.305	72.02
352.517	-3.75
352.728	33.11
352.94	76.12
353.152	149.84
353.363	-5.8
353.575	121.17
353.787	8.53
353.999	8.53
354.21	26.96
354.422	-1.71
354.633	0.34
354.845	6.49
355.057	16.73
355.268	43.35
355.48	-32.43
355.692	2.39
355.903	59.73
356.115	-40.62
356.326	14.68
356.538	47.44
356.749	35.16
356.961	78.16
357.172	-5.8
357.384	49.49
357.595	106.84
357.807	80.21
358.018	-16.04
358.23	80.21
358.441	51.54
358.653	72.02
358.864	-11.95
359.075	18.77
359.287	37.2
359.498	90.45
359.709	67.92
359.921	92.5
360.132	29.01
360.344	82.26
360.555	2.39
360.766	6.49
360.977	8.53
361.189	26.96
361.4	-38.57
361.611	-52.91
361.823	-42.67
362.034	18.77
362.245	41.3
362.456	-7.85
362.667	-7.85
362.879	45.4
363.09	24.92
363.301	8.53
363.512	-1.71
363.723	72.02
363.935	37.2
364.146	16.73
364.357	108.88
364.568	51.54
364.779	39.25
364.99	106.84
365.201	-3.75
365.412	76.12
365.623	-7.85
365.834	127.32
366.045	43.35
366.256	4.44
366.467	24.92
366.678	82.26
366.889	117.08
367.1	20.82
367.311	8.53
367.522	-16.04
367.733	63.83
367.944	65.88
368.155	57.68
368.366	22.87
368.577	6.49
368.788	14.68
368.999	-9.9
369.209	106.84
369.42	51.54
369.631	57.68
369.842	35.16
370.053	-11.95
370.264	31.06
370.474	-36.52
370.685	14.68
370.896	59.73
371.107	65.88
371.317	45.4
371.528	63.83
371.739	59.73
371.95	61.78
372.16	65.88
372.371	61.78
372.582	37.2
372.792	80.21
373.003	59.73
373.214	47.44
373.424	37.2
373.635	-1.71
373.846	51.54
374.056	-5.8
374.267	59.73
374.477	69.97
374.688	57.68
374.898	94.55
375.109	102.74
375.319	-30.38
375.53	45.4
375.74	18.77
375.951	86.36
376.161	69.97
376.372	8.53
376.582	-3.75
376.793	45.4
377.003	65.88
377.214	0.34
377.424	2.39
377.635	-7.85
377.845	67.92
378.055	37.2
378.266	41.3
378.476	74.07
378.686	78.16
378.897	37.2
379.107	4.44
379.317	16.73
379.528	8.53
379.738	63.83
379.948	-26.28
380.158	110.93
380.369	33.11
380.579	82.26
380.789	-7.85
380.999	57.68
381.21	14.68
381.42	115.03
381.63	2.39
381.84	16.73
382.05	-13.99
382.261	-5.8
382.471	18.77
382.681	24.92
382.891	-5.8
383.101	61.78
383.311	-28.33
383.521	43.35
383.731	51.54
383.941	106.84
384.151	20.82
384.361	-63.15
384.571	16.73
384.781	115.03
384.991	78.16
385.201	115.03
385.411	45.4
385.621	45.4
385.831	4.44
386.041	12.63
386.251	57.68
386.461	-16.04
386.671	8.53
386.881	26.96
387.091	37.2
387.301	63.83
387.511	16.73
387.72	16.73
387.93	88.4
388.14	88.4
388.35	90.45
388.56	20.82
388.769	14.68
388.979	-18.09
389.189	35.16
389.399	117.08
389.609	-3.75
389.818	10.58
390.028	53.59
390.238	37.2
390.447	-20.14
390.657	61.78
390.867	31.06
391.076	69.97
391.286	18.77
391.496	-30.38
391.705	8.53
391.915	168.27
392.125	45.4
392.334	22.87
392.544	33.11
392.753	72.02
392.963	67.92
393.172	57.68
393.382	-38.57
393.591	67.92
393.801	37.2
394.01	29.01
394.22	24.92
394.429	61.78
394.639	0.34
394.848	-16.04
395.058	16.73
395.267	31.06
395.477	26.96
395.686	10.58
395.895	102.74
396.105	72.02
396.314	41.3
396.524	74.07
396.733	92.5
396.942	59.73
397.152	82.26
397.361	72.02
397.57	53.59
397.78	49.49
397.989	26.96
398.198	106.84
398.407	26.96
398.617	41.3
398.826	26.96
399.035	18.77
399.244	108.88
399.453	137.56
399.663	80.21
399.872	51.54
400.081	106.84
400.29	98.64
400.499	115.03
400.708	18.77
400.917	55.64
401.127	74.07
401.336	80.21
401.545	141.65
401.754	110.93
401.963	74.07
402.172	63.83
402.381	76.12
402.59	61.78
402.799	57.68
403.008	26.96
403.217	155.99
403.426	143.7
403.635	92.5
403.844	108.88
404.053	94.55
404.262	43.35
404.471	115.03
404.68	-24.23
404.888	84.31
405.097	65.88
405.306	61.78
405.515	108.88
405.724	98.64
405.933	90.45
406.142	155.99
406.35	86.36
406.559	147.8
406.768	143.7
406.977	90.45
407.185	98.64
407.394	100.69
407.603	61.78
407.812	155.99
408.02	168.27
408.229	164.18
408.438	106.84
408.646	246.1
408.855	131.41
409.064	174.42
409.272	158.03
409.481	190.8
409.69	256.34
409.898	213.33
410.107	192.85
410.315	217.43
410.524	207.19
410.733	215.38
410.941	160.08
411.15	180.56
411.358	373.07
411.567	278.87
411.775	256.34
411.984	332.11
412.192	328.02
412.401	319.82
412.609	282.96
412.818	411.98
413.026	362.83
413.234	360.78
413.443	272.72
413.651	371.02
413.86	377.17
414.068	364.88
414.276	377.17
414.485	467.28
414.693	448.85
414.901	452.94
415.11	483.66
415.318	387.41
415.526	479.57
415.734	534.86
415.943	567.63
416.151	561.48
416.359	506.19
416.567	577.87
416.776	635.21
416.984	629.07
417.192	706.89
417.4	688.46
417.608	702.79
417.817	733.51
418.025	721.23
418.233	809.29
418.441	756.04
418.649	803.15
418.857	893.26
419.065	776.52
419.273	856.39
419.481	948.55
419.689	903.5
419.897	969.03
420.105	1075.52
420.313	1020.23
420.521	1032.52
420.729	1081.67
420.937	1126.72
421.145	1216.83
421.353	1108.29
421.561	1319.23
421.769	1276.23
421.977	1345.86
422.185	1386.82
422.393	1458.5
422.601	1503.55
422.809	1495.36
423.017	1460.54
423.224	1530.17
423.432	1599.8
423.64	1634.62
423.848	1757.5
424.056	1820.99
424.263	1884.47
424.471	1868.09
424.679	1884.47
424.887	1954.1
425.094	1931.58
425.302	2216.24
425.51	2126.13
425.718	2253.11
425.925	2281.78
426.133	2310.45
426.341	2543.92
426.548	2511.15
426.756	2597.17
426.964	2537.77
427.171	2771.24
427.379	2810.15
427.586	2822.44
427.794	2992.42
428.001	3127.59
428.209	3180.84
428.417	3232.04
428.624	3451.17
428.832	3354.91
429.039	3447.07
429.247	3469.6
429.454	3784.99
429.662	3914.01
429.869	3696.92
430.076	3883.29
430.284	3821.85
430.491	4010.26
430.699	4266.26
430.906	4262.16
431.114	4311.32
431.321	4366.61
431.528	4569.36
431.736	4792.59
431.943	5019.91
432.15	4854.03
432.358	4860.17
432.565	5228.81
432.772	5345.54
432.979	5583.1
433.187	5644.54
433.394	5597.44
433.601	6121.72
433.808	6013.18
434.016	5961.98
434.223	6252.79
434.43	6668.53
434.637	6449.39
434.844	6828.27
435.052	6961.39
435.259	6777.07
435.466	7002.35
435.673	6709.49
435.88	7508.19
436.087	7629.02
436.294	7809.25
436.501	7467.24
436.708	7604.45
436.915	8040.67
437.122	8251.61
437.329	8415.44
437.537	8483.03
437.743	8757.46
437.95	8636.63
438.157	9246.92
438.364	9443.53
438.571	9314.5
438.778	9513.16
438.985	10223.8
439.192	9902.27
439.399	10211.51
439.606	10109.12
439.813	10674.35
440.02	11026.61
440.227	11034.8
440.433	10764.47
440.64	11268.27
440.847	11315.37
441.054	11524.26
441.261	12320.92
441.467	12126.36
441.674	12374.17
441.881	12748.95
442.088	12916.88
442.294	12822.67
442.501	12806.29
442.708	13297.8
442.914	13734.02
443.121	14381.18
443.328	13865.09
443.534	14841.97
443.741	14483.58
443.948	14155.9
444.154	15261.8
444.361	14983.28
444.568	15671.4
444.774	15335.53
444.981	15515.75
445.187	15771.75
445.394	16851.03
445.6	16234.59
445.807	17862.72
446.013	17209.42
446.22	17606.73
446.426	18225.22
446.633	18270.27
446.839	18845.75
447.046	18409.53
447.252	19576.87
447.459	19286.06
447.665	19181.62
447.871	19853.35
448.078	20762.65
448.284	19990.56
448.491	20330.53
448.697	21434.38
448.903	21514.25
449.11	21676.04
449.316	21428.24
449.522	21745.67
449.728	22056.96
449.935	22206.47
450.141	22308.86
450.347	22890.49
450.553	21839.88
450.76	22308.86
450.966	23322.61
451.172	22831.1
451.378	23494.64
451.584	22861.82
451.791	23461.87
451.997	23515.12
452.203	23945.19
452.409	24014.82
452.615	23638
452.821	22816.76
453.027	22906.87
453.233	23818.22
453.44	22886.39
453.646	23435.25
453.852	23222.26
454.058	23920.62
454.264	22523.9
454.47	23545.84
454.676	22800.38
454.882	23445.49
455.088	21473.29
455.294	21610.51
455.5	22083.59
455.705	22444.03
455.911	21637.13
456.117	21303.31
456.323	20752.41
456.529	19685.42
456.735	20518.94
456.941	19892.26
457.147	19636.27
457.352	18927.67
457.558	18751.54
457.764	19183.66
457.97	18597.95
458.176	18180.16
458.381	17997.89
458.587	17381.45
458.793	17299.53
458.999	16574.55
459.204	17561.67
459.41	17127.5
459.616	15880.29
459.821	15751.27
460.027	15929.44
460.233	15474.79
460.438	14717.04
460.644	15100.01
460.85	14252.16
461.055	14123.13
461.261	14016.64
461.466	13082.77
461.672	12478.61
461.878	13568.13
462.083	12624.02
462.289	12279.96
462.494	12400.79
462.7	11880.61
462.905	11337.9
463.111	11880.61
463.316	11759.78
463.522	11661.48
463.727	11602.08
463.932	11792.55
464.138	11567.27
464.343	11694.24
464.549	11274.41
464.754	11509.93
464.959	11417.77
465.165	11475.11
465.37	10924.21
465.575	10741.94
465.781	10983.6
465.986	11391.14
466.191	10870.96
466.397	10522.8
466.602	10125.5
466.807	10434.74
467.012	10494.13
467.218	10385.59
467.423	10053.82
467.628	10485.94
467.833	10922.16
468.038	10328.25
468.244	10094.78
468.449	10363.06
468.654	10102.97
