Data from USB4F104151__14__13-52-21-025.txt Node

Date: Thu Mar 13 13:52:21 EDT 2025
User: louis
Spectrometer: USB4F10415
Trigger mode: 4
Integration Time (sec): 1.000000E-2
Scans to average: 1
Electric dark correction enabled: true
Nonlinearity correction enabled: false
Boxcar width: 0
XAxis mode: Wavelengths
Number of Pixels in Spectrum: 3648
>>>>>Begin Spectral Data<<<<<
178.204	-2.9
178.424	-2.9
178.644	-2.9
178.864	-70.48
179.084	-74.58
179.304	-4.95
179.524	-2.9
179.744	11.43
179.964	-11.09
180.184	-25.43
180.404	36.01
180.624	54.44
180.844	-2.9
181.064	15.53
181.283	9.39
181.503	-39.76
181.723	-39.76
181.943	-31.57
182.163	54.44
182.383	40.11
182.602	56.49
182.822	29.87
183.042	48.3
183.262	25.77
183.482	13.48
183.701	31.91
183.921	-19.29
184.141	-27.48
184.361	-7
184.58	50.35
184.8	97.45
185.02	-23.38
185.239	36.01
185.459	46.25
185.679	23.72
185.898	11.43
186.118	19.63
186.338	42.15
186.557	40.11
186.777	-35.67
186.997	29.87
187.216	19.63
187.436	7.34
187.655	15.53
187.875	27.82
188.095	3.24
188.314	15.53
188.534	23.72
188.753	-21.33
188.973	1.19
189.192	27.82
189.412	19.63
189.631	64.68
189.851	85.16
190.07	-33.62
190.29	72.87
190.509	52.39
190.729	-7
190.948	23.72
191.168	105.64
191.387	-15.19
191.607	25.77
191.826	11.43
192.045	25.77
192.265	3.24
192.484	19.63
192.704	54.44
192.923	-17.24
193.142	124.07
193.362	-25.43
193.581	36.01
193.8	19.63
194.02	1.19
194.239	40.11
194.458	27.82
194.678	54.44
194.897	72.87
195.116	21.67
195.335	-17.24
195.555	46.25
195.774	-58.2
195.993	62.63
196.212	74.92
196.432	-19.29
196.651	11.43
196.87	36.01
197.089	5.29
197.308	40.11
197.528	9.39
197.747	56.49
197.966	-25.43
198.185	36.01
198.404	38.06
198.623	-41.81
198.842	13.48
199.062	76.97
199.281	-9.05
199.5	113.83
199.719	7.34
199.938	19.63
200.157	52.39
200.376	40.11
200.595	-7
200.814	50.35
201.033	27.82
201.252	11.43
201.471	-31.57
201.69	19.63
201.909	58.54
202.128	13.48
202.347	-4.95
202.566	46.25
202.785	31.91
203.004	-25.43
203.223	58.54
203.442	64.68
203.661	83.11
203.879	19.63
204.098	15.53
204.317	-0.85
204.536	23.72
204.755	40.11
204.974	72.87
205.193	-4.95
205.411	-11.09
205.63	19.63
205.849	23.72
206.068	11.43
206.287	21.67
206.505	1.19
206.724	-0.85
206.943	40.11
207.162	11.43
207.381	3.24
207.599	62.63
207.818	21.67
208.037	1.19
208.255	83.11
208.474	50.35
208.693	5.29
208.911	-25.43
209.13	-43.86
209.349	3.24
209.567	40.11
209.786	13.48
210.005	85.16
210.223	-39.76
210.442	9.39
210.661	70.83
210.879	56.49
211.098	3.24
211.316	54.44
211.535	99.5
211.753	31.91
211.972	3.24
212.191	48.3
212.409	27.82
212.628	25.77
212.846	31.91
213.065	44.2
213.283	54.44
213.502	7.34
213.72	13.48
213.938	25.77
214.157	52.39
214.375	44.2
214.594	-23.38
214.812	54.44
215.031	31.91
215.249	23.72
215.467	29.87
215.686	25.77
215.904	64.68
216.122	19.63
216.341	44.2
216.559	-21.33
216.778	119.98
216.996	7.34
217.214	46.25
217.432	81.07
217.651	31.91
217.869	3.24
218.087	44.2
218.306	27.82
218.524	52.39
218.742	9.39
218.96	40.11
219.179	-50
219.397	1.19
219.615	46.25
219.833	68.78
220.051	36.01
220.27	21.67
220.488	-70.48
220.706	54.44
220.924	83.11
221.142	79.02
221.36	11.43
221.578	9.39
221.796	40.11
222.015	31.91
222.233	66.73
222.451	-25.43
222.669	-2.9
222.887	95.4
223.105	9.39
223.323	-25.43
223.541	58.54
223.759	68.78
223.977	-72.53
224.195	-9.05
224.413	-21.33
224.631	-19.29
224.849	-25.43
225.067	58.54
225.285	25.77
225.503	-29.52
225.721	58.54
225.939	48.3
226.157	-0.85
226.375	54.44
226.592	9.39
226.81	-7
227.028	46.25
227.246	124.07
227.464	27.82
227.682	95.4
227.9	42.15
228.117	74.92
228.335	-7
228.553	17.58
228.771	17.58
228.989	-15.19
229.206	31.91
229.424	-9.05
229.642	-9.05
229.86	-84.82
230.077	7.34
230.295	36.01
230.513	-9.05
230.731	83.11
230.948	52.39
231.166	99.5
231.384	95.4
231.601	-37.72
231.819	56.49
232.037	81.07
232.254	27.82
232.472	1.19
232.689	7.34
232.907	36.01
233.125	19.63
233.342	-15.19
233.56	1.19
233.777	46.25
233.995	-27.48
234.213	17.58
234.43	3.24
234.648	-7
234.865	-23.38
235.083	25.77
235.3	40.11
235.518	1.19
235.735	46.25
235.953	15.53
236.17	107.69
236.388	46.25
236.605	5.29
236.822	103.59
237.04	81.07
237.257	64.68
237.475	36.01
237.692	76.97
237.909	7.34
238.127	81.07
238.344	25.77
238.562	58.54
238.779	46.25
238.996	-7
239.214	19.63
239.431	46.25
239.648	29.87
239.865	50.35
240.083	21.67
240.3	33.96
240.517	-9.05
240.735	46.25
240.952	36.01
241.169	56.49
241.386	13.48
241.603	38.06
241.821	97.45
242.038	23.72
242.255	-11.09
242.472	46.25
242.689	11.43
242.907	13.48
243.124	25.77
243.341	-11.09
243.558	11.43
243.775	27.82
243.992	-19.29
244.209	62.63
244.426	-4.95
244.643	-11.09
244.86	70.83
245.078	31.91
245.295	5.29
245.512	126.12
245.729	11.43
245.946	44.2
246.163	60.59
246.38	48.3
246.597	-23.38
246.814	17.58
247.031	23.72
247.248	-15.19
247.464	-21.33
247.681	-4.95
247.898	17.58
248.115	58.54
248.332	17.58
248.549	-0.85
248.766	-0.85
248.983	46.25
249.2	27.82
249.417	48.3
249.633	42.15
249.85	68.78
250.067	-50
250.284	27.82
250.501	-0.85
250.717	58.54
250.934	52.39
251.151	128.17
251.368	46.25
251.585	66.73
251.801	64.68
252.018	7.34
252.235	3.24
252.451	-7
252.668	68.78
252.885	38.06
253.102	-0.85
253.318	21.67
253.535	56.49
253.752	23.72
253.968	62.63
254.185	19.63
254.401	81.07
254.618	21.67
254.835	17.58
255.051	17.58
255.268	83.11
255.484	-17.24
255.701	7.34
255.917	11.43
256.134	-68.44
256.351	21.67
256.567	3.24
256.784	52.39
257	-4.95
257.217	-7
257.433	23.72
257.65	68.78
257.866	25.77
258.082	9.39
258.299	-64.34
258.515	-0.85
258.732	7.34
258.948	3.24
259.165	44.2
259.381	48.3
259.597	48.3
259.814	60.59
260.03	-0.85
260.246	72.87
260.463	-2.9
260.679	23.72
260.895	-0.85
261.112	17.58
261.328	58.54
261.544	15.53
261.761	74.92
261.977	-9.05
262.193	42.15
262.409	21.67
262.626	70.83
262.842	-0.85
263.058	31.91
263.274	38.06
263.49	50.35
263.707	58.54
263.923	-0.85
264.139	29.87
264.355	89.26
264.571	42.15
264.787	74.92
265.004	109.74
265.22	19.63
265.436	81.07
265.652	60.59
265.868	165.03
266.084	-37.72
266.3	33.96
266.516	42.15
266.732	38.06
266.948	11.43
267.164	76.97
267.38	68.78
267.596	70.83
267.812	38.06
268.028	54.44
268.244	-35.67
268.46	23.72
268.676	50.35
268.892	79.02
269.108	-33.62
269.324	21.67
269.54	68.78
269.756	42.15
269.972	27.82
270.188	119.98
270.403	-58.2
270.619	91.31
270.835	17.58
271.051	15.53
271.267	-62.29
271.483	42.15
271.698	-33.62
271.914	89.26
272.13	19.63
272.346	83.11
272.562	25.77
272.777	60.59
272.993	19.63
273.209	64.68
273.425	27.82
273.64	31.91
273.856	-7
274.072	7.34
274.287	52.39
274.503	19.63
274.719	-60.24
274.934	56.49
275.15	5.29
275.366	38.06
275.581	-15.19
275.797	1.19
276.012	62.63
276.228	72.87
276.444	87.21
276.659	44.2
276.875	87.21
277.09	99.5
277.306	50.35
277.521	85.16
277.737	21.67
277.952	76.97
278.168	44.2
278.383	-23.38
278.599	23.72
278.814	58.54
279.03	89.26
279.245	52.39
279.461	54.44
279.676	64.68
279.892	62.63
280.107	44.2
280.322	93.35
280.538	66.73
280.753	40.11
280.969	50.35
281.184	66.73
281.399	25.77
281.615	-41.81
281.83	105.64
282.045	9.39
282.26	46.25
282.476	-17.24
282.691	54.44
282.906	19.63
283.122	36.01
283.337	-23.38
283.552	95.4
283.767	54.44
283.983	21.67
284.198	111.78
284.413	105.64
284.628	72.87
284.843	38.06
285.058	40.11
285.274	81.07
285.489	42.15
285.704	13.48
285.919	7.34
286.134	1.19
286.349	27.82
286.564	15.53
286.779	-39.76
286.995	29.87
287.21	29.87
287.425	40.11
287.64	74.92
287.855	89.26
288.07	21.67
288.285	72.87
288.5	70.83
288.715	21.67
288.93	91.31
289.145	1.19
289.36	17.58
289.575	25.77
289.79	33.96
290.004	38.06
290.219	70.83
290.434	64.68
290.649	48.3
290.864	25.77
291.079	-17.24
291.294	-15.19
291.509	27.82
291.724	-23.38
291.938	50.35
292.153	27.82
292.368	-2.9
292.583	95.4
292.798	36.01
293.012	83.11
293.227	7.34
293.442	42.15
293.657	93.35
293.871	103.59
294.086	5.29
294.301	40.11
294.516	-0.85
294.73	87.21
294.945	46.25
295.16	19.63
295.374	21.67
295.589	31.91
295.804	-35.67
296.018	46.25
296.233	17.58
296.447	25.77
296.662	17.58
296.877	33.96
297.091	9.39
297.306	58.54
297.52	21.67
297.735	56.49
297.949	25.77
298.164	113.83
298.378	44.2
298.593	-4.95
298.807	64.68
299.022	36.01
299.236	33.96
299.451	-19.29
299.665	25.77
299.88	46.25
300.094	119.98
300.309	64.68
300.523	66.73
300.737	130.22
300.952	33.96
301.166	40.11
301.381	19.63
301.595	-2.9
301.809	66.73
302.024	-23.38
302.238	-33.62
302.452	93.35
302.667	19.63
302.881	89.26
303.095	54.44
303.309	31.91
303.524	19.63
303.738	126.12
303.952	136.36
304.166	48.3
304.381	29.87
304.595	83.11
304.809	27.82
305.023	-0.85
305.237	15.53
305.452	81.07
305.666	83.11
305.88	103.59
306.094	29.87
306.308	81.07
306.522	21.67
306.736	76.97
306.95	68.78
307.164	60.59
307.379	87.21
307.593	13.48
307.807	44.2
308.021	7.34
308.235	-9.05
308.449	50.35
308.663	62.63
308.877	58.54
309.091	38.06
309.305	44.2
309.519	-13.14
309.733	85.16
309.947	31.91
310.161	74.92
310.374	111.78
310.588	93.35
310.802	-47.96
311.016	42.15
311.23	29.87
311.444	40.11
311.658	33.96
311.872	97.45
312.085	76.97
312.299	81.07
312.513	31.91
312.727	27.82
312.941	36.01
313.154	85.16
313.368	13.48
313.582	72.87
313.796	-17.24
314.009	58.54
314.223	68.78
314.437	40.11
314.651	5.29
314.864	13.48
315.078	54.44
315.292	48.3
315.505	13.48
315.719	40.11
315.933	38.06
316.146	25.77
316.36	21.67
316.573	128.17
316.787	23.72
317.001	19.63
317.214	1.19
317.428	25.77
317.641	44.2
317.855	29.87
318.068	46.25
318.282	48.3
318.495	54.44
318.709	36.01
318.922	5.29
319.136	144.55
319.349	81.07
319.563	60.59
319.776	46.25
319.99	64.68
320.203	46.25
320.417	130.22
320.63	15.53
320.843	58.54
321.057	89.26
321.27	44.2
321.483	9.39
321.697	27.82
321.91	5.29
322.124	7.34
322.337	126.12
322.55	38.06
322.763	13.48
322.977	62.63
323.19	-21.33
323.403	29.87
323.617	103.59
323.83	117.93
324.043	36.01
324.256	109.74
324.469	25.77
324.683	42.15
324.896	95.4
325.109	56.49
325.322	31.91
325.535	40.11
325.748	13.48
325.962	13.48
326.175	-13.14
326.388	113.83
326.601	5.29
326.814	54.44
327.027	27.82
327.24	95.4
327.453	62.63
327.666	101.55
327.879	38.06
328.092	44.2
328.305	66.73
328.518	29.87
328.731	68.78
328.944	9.39
329.157	42.15
329.37	58.54
329.583	50.35
329.796	130.22
330.009	60.59
330.222	5.29
330.435	60.59
330.648	31.91
330.861	23.72
331.073	56.49
331.286	60.59
331.499	58.54
331.712	-11.09
331.925	74.92
332.138	15.53
332.35	58.54
332.563	-4.95
332.776	23.72
332.989	68.78
333.202	15.53
333.414	-11.09
333.627	60.59
333.84	42.15
334.053	93.35
334.265	-2.9
334.478	62.63
334.691	124.07
334.903	126.12
335.116	56.49
335.329	-2.9
335.541	64.68
335.754	60.59
335.966	83.11
336.179	3.24
336.392	-0.85
336.604	93.35
336.817	72.87
337.029	29.87
337.242	81.07
337.454	81.07
337.667	101.55
337.88	72.87
338.092	-23.38
338.305	87.21
338.517	79.02
338.729	-33.62
338.942	101.55
339.154	-7
339.367	58.54
339.579	48.3
339.792	19.63
340.004	46.25
340.217	27.82
340.429	-17.24
340.641	54.44
340.854	60.59
341.066	50.35
341.278	66.73
341.491	50.35
341.703	40.11
341.915	11.43
342.128	68.78
342.34	83.11
342.552	21.67
342.764	101.55
342.977	44.2
343.189	-9.05
343.401	38.06
343.613	1.19
343.826	50.35
344.038	48.3
344.25	95.4
344.462	44.2
344.674	25.77
344.886	40.11
345.099	103.59
345.311	19.63
345.523	33.96
345.735	21.67
345.947	70.83
346.159	-23.38
346.371	119.98
346.583	136.36
346.795	62.63
347.007	54.44
347.219	21.67
347.431	19.63
347.643	66.73
347.855	64.68
348.067	48.3
348.279	76.97
348.491	107.69
348.703	89.26
348.915	48.3
349.127	11.43
349.339	33.96
349.551	11.43
349.763	70.83
349.975	60.59
350.187	42.15
350.399	64.68
350.61	1.19
350.822	89.26
351.034	-23.38
351.246	5.29
351.458	70.83
351.669	72.87
351.881	81.07
352.093	87.21
352.305	97.45
352.517	136.36
352.728	50.35
352.94	68.78
353.152	46.25
353.363	79.02
353.575	52.39
353.787	7.34
353.999	68.78
354.21	42.15
354.422	68.78
354.633	62.63
354.845	42.15
355.057	33.96
355.268	5.29
355.48	44.2
355.692	56.49
355.903	93.35
356.115	148.65
356.326	-31.57
356.538	66.73
356.749	13.48
356.961	56.49
357.172	64.68
357.384	27.82
357.595	-23.38
357.807	60.59
358.018	44.2
358.23	68.78
358.441	13.48
358.653	85.16
358.864	27.82
359.075	74.92
359.287	99.5
359.498	70.83
359.709	113.83
359.921	89.26
360.132	-2.9
360.344	87.21
360.555	50.35
360.766	5.29
360.977	52.39
361.189	99.5
361.4	68.78
361.611	52.39
361.823	19.63
362.034	89.26
362.245	-31.57
362.456	38.06
362.667	15.53
362.879	103.59
363.09	76.97
363.301	105.64
363.512	111.78
363.723	62.63
363.935	111.78
364.146	79.02
364.357	99.5
364.568	11.43
364.779	60.59
364.99	9.39
365.201	-37.72
365.412	60.59
365.623	15.53
365.834	72.87
366.045	74.92
366.256	48.3
366.467	-9.05
366.678	62.63
366.889	25.77
367.1	85.16
367.311	72.87
367.522	52.39
367.733	144.55
367.944	23.72
368.155	87.21
368.366	74.92
368.577	17.58
368.788	85.16
368.999	54.44
369.209	140.46
369.42	76.97
369.631	111.78
369.842	58.54
370.053	1.19
370.264	-9.05
370.474	-0.85
370.685	42.15
370.896	103.59
371.107	64.68
371.317	46.25
371.528	27.82
371.739	-15.19
371.95	58.54
372.16	111.78
372.371	60.59
372.582	50.35
372.792	44.2
373.003	95.4
373.214	-11.09
373.424	91.31
373.635	56.49
373.846	66.73
374.056	33.96
374.267	23.72
374.477	93.35
374.688	93.35
374.898	21.67
375.109	119.98
375.319	42.15
375.53	-0.85
375.74	66.73
375.951	48.3
376.161	9.39
376.372	46.25
376.582	89.26
376.793	64.68
377.003	99.5
377.214	42.15
377.424	58.54
377.635	74.92
377.845	58.54
378.055	-11.09
378.266	44.2
378.476	76.97
378.686	21.67
378.897	48.3
379.107	11.43
379.317	25.77
379.528	23.72
379.738	52.39
379.948	97.45
380.158	113.83
380.369	13.48
380.579	126.12
380.789	17.58
380.999	95.4
381.21	27.82
381.42	60.59
381.63	13.48
381.84	93.35
382.05	101.55
382.261	3.24
382.471	136.36
382.681	-7
382.891	91.31
383.101	-4.95
383.311	25.77
383.521	46.25
383.731	103.59
383.941	72.87
384.151	46.25
384.361	66.73
384.571	54.44
384.781	91.31
384.991	128.17
385.201	64.68
385.411	70.83
385.621	36.01
385.831	50.35
386.041	15.53
386.251	85.16
386.461	68.78
386.671	52.39
386.881	132.26
387.091	48.3
387.301	56.49
387.511	19.63
387.72	72.87
387.93	83.11
388.14	136.36
388.35	-9.05
388.56	107.69
388.769	119.98
388.979	70.83
389.189	44.2
389.399	124.07
389.609	70.83
389.818	81.07
390.028	48.3
390.238	48.3
390.447	107.69
390.657	62.63
390.867	113.83
391.076	58.54
391.286	66.73
391.496	44.2
391.705	36.01
391.915	23.72
392.125	25.77
392.334	117.93
392.544	46.25
392.753	79.02
392.963	56.49
393.172	115.88
393.382	105.64
393.591	109.74
393.801	115.88
394.01	136.36
394.22	64.68
394.429	126.12
394.639	124.07
394.848	87.21
395.058	52.39
395.267	83.11
395.477	93.35
395.686	128.17
395.895	119.98
396.105	156.84
396.314	122.02
396.524	162.98
396.733	89.26
396.942	60.59
397.152	130.22
397.361	126.12
397.57	122.02
397.78	62.63
397.989	119.98
398.198	113.83
398.407	144.55
398.617	95.4
398.826	40.11
399.035	87.21
399.244	150.7
399.453	74.92
399.663	87.21
399.872	122.02
400.081	128.17
400.29	177.32
400.499	130.22
400.708	132.26
400.917	134.31
401.127	103.59
401.336	136.36
401.545	89.26
401.754	144.55
401.963	154.79
402.172	68.78
402.381	33.96
402.59	148.65
402.799	152.74
403.008	113.83
403.217	54.44
403.426	154.79
403.635	154.79
403.844	115.88
404.053	183.46
404.262	134.31
404.471	173.22
404.68	81.07
404.888	136.36
405.097	201.9
405.306	193.7
405.515	203.94
405.724	103.59
405.933	138.41
406.142	191.66
406.35	191.66
406.559	228.52
406.768	175.27
406.977	187.56
407.185	165.03
407.394	191.66
407.603	212.14
407.812	224.42
408.02	195.75
408.229	173.22
408.438	205.99
408.646	230.57
408.855	205.99
409.064	332.97
409.272	212.14
409.481	283.81
409.69	257.19
409.898	263.33
410.107	351.4
410.315	326.82
410.524	306.34
410.733	384.16
410.941	322.73
411.15	375.97
411.358	390.31
411.567	390.31
411.775	461.99
411.984	418.98
412.192	437.41
412.401	427.17
412.609	486.56
412.818	408.74
413.026	498.85
413.234	607.39
413.443	461.99
413.651	535.71
413.86	605.35
414.068	591.01
414.276	670.88
414.485	746.66
414.693	656.54
414.901	634.02
415.11	642.21
415.318	717.98
415.526	650.4
415.734	779.42
415.943	660.64
416.151	873.63
416.359	924.83
416.567	797.85
416.776	873.63
416.984	988.32
417.192	971.93
417.4	951.45
417.608	1025.18
417.817	1080.47
418.025	1053.85
418.233	1115.29
418.441	1170.58
418.649	1289.37
418.857	1258.65
419.065	1232.02
419.273	1256.6
419.481	1445.01
419.689	1483.92
419.897	1473.68
420.105	1567.89
420.313	1590.42
420.521	1686.67
420.729	1633.43
420.937	1694.86
421.145	1780.88
421.353	1866.89
421.561	2008.2
421.769	1967.24
421.977	2040.97
422.185	2081.93
422.393	2139.27
422.601	2239.62
422.809	2169.99
423.017	2335.88
423.224	2327.69
423.432	2567.3
423.64	2473.09
423.848	2720.9
424.056	2636.93
424.263	2823.3
424.471	2741.38
424.679	2874.49
424.887	3116.16
425.094	3210.36
425.302	3130.49
425.51	3216.51
425.718	3216.51
425.925	3425.4
426.133	3677.3
426.341	3687.54
426.548	4045.93
426.756	3867.76
426.964	3976.3
427.171	4162.67
427.379	4215.91
427.586	4476.01
427.794	4510.82
428.001	4605.03
428.209	4789.35
428.417	4797.54
428.624	5108.83
428.832	5104.73
429.039	5059.68
429.247	5145.69
429.454	5518.42
429.662	6018.13
429.869	5725.27
430.076	5989.46
430.284	5977.17
430.491	6034.51
430.699	6569.03
430.906	6526.02
431.114	6458.44
431.321	6710.34
431.528	6812.74
431.736	7330.87
431.943	7590.97
432.15	7330.87
432.358	7384.12
432.565	8016.94
432.772	7951.41
432.979	8207.41
433.187	8342.57
433.394	8430.63
433.601	9083.94
433.808	9092.13
434.016	9116.7
434.223	9397.28
434.43	10132.5
434.637	9794.58
434.844	10392.59
435.052	10601.48
435.259	10314.77
435.466	10470.41
435.673	10480.65
435.88	11275.26
436.087	12026.87
436.294	11994.1
436.501	11531.26
436.708	11830.26
436.915	12106.74
437.122	12669.93
437.329	12604.39
437.537	13091.81
437.743	13349.85
437.95	13183.97
438.157	13704.15
438.364	14304.21
438.571	14195.67
438.778	14506.96
438.985	15707.07
439.192	15160.26
439.399	15610.81
439.606	15446.97
439.813	15979.45
440.02	16855.98
440.227	16798.63
440.433	16653.23
440.64	17343.39
440.847	17220.52
441.054	17388.45
441.261	18650
441.467	18246.55
441.674	18854.79
441.881	19485.57
442.088	19317.64
442.294	18996.1
442.501	19700.61
442.708	20063.1
442.914	20783.98
443.121	21599.07
443.328	20937.58
443.534	22922.06
443.741	21900.12
443.948	21775.2
444.154	23456.58
444.361	23151.43
444.568	23063.37
444.774	23544.64
444.981	23673.67
445.187	24199.99
445.394	25482.02
445.6	25027.37
445.807	27405.06
446.013	26252.06
446.22	26825.49
446.426	27826.95
446.633	28072.7
446.839	29111.02
447.046	27499.27
447.252	29262.57
447.459	29178.61
447.665	28869.36
447.871	30343.9
448.078	31414.99
448.284	30376.67
448.491	31101.65
448.697	32225.98
448.903	32633.53
449.11	33071.79
449.316	32377.53
449.522	32867
449.728	33753.77
449.935	33764.01
450.141	34099.87
450.347	34654.87
450.553	33446.57
450.76	33729.19
450.966	34978.45
451.172	34437.79
451.378	35644.04
451.584	34493.08
451.791	35594.89
451.997	35609.23
452.203	36010.63
452.409	35850.89
452.615	35916.42
452.821	34353.82
453.027	34253.47
453.233	35474.06
453.44	34605.72
453.646	34814.62
453.852	34738.84
454.058	35316.37
454.264	34042.53
454.47	35105.43
454.676	34253.47
454.882	35279.5
455.088	32103.1
455.294	32899.76
455.5	32950.96
455.705	33309.36
455.911	31916.74
456.117	31548.11
456.323	30915.28
456.529	29205.23
456.735	30474.97
456.941	29580.01
457.147	29367.02
457.352	28310.27
457.558	28265.21
457.764	28064.51
457.97	27482.89
458.176	26958.61
458.381	27265.8
458.587	25498.41
458.793	25740.07
458.999	24472.37
459.204	26114.84
459.41	25314.09
459.616	23659.33
459.821	23649.09
460.027	23552.84
460.233	23225.16
460.438	22008.67
460.644	22289.24
460.85	21207.91
461.055	21160.81
461.261	20605.81
461.466	19338.12
461.672	18574.22
461.878	20206.45
462.083	18887.56
462.289	18506.64
462.494	18123.67
462.7	17378.21
462.905	16780.2
463.111	17634.21
463.316	18023.32
463.522	17173.41
463.727	17456.03
463.932	17419.17
464.138	16948.14
464.343	17163.17
464.549	16599.98
464.754	17439.65
464.959	16946.09
465.165	16817.07
465.37	16456.62
465.575	15682.49
465.781	16569.26
465.986	16667.56
466.191	15969.21
466.397	15731.64
466.602	14830.54
466.807	15467.45
467.012	15664.06
467.218	15541.18
467.423	15377.34
467.628	15246.27
467.833	15883.19
468.038	15393.73
