Data from USB4F104151__253__14-01-35-804.txt Node

Date: Thu Mar 13 14:01:35 EDT 2025
User: louis
Spectrometer: USB4F10415
Trigger mode: 4
Integration Time (sec): 1.000000E-2
Scans to average: 1
Electric dark correction enabled: true
Nonlinearity correction enabled: false
Boxcar width: 0
XAxis mode: Wavelengths
Number of Pixels in Spectrum: 3648
>>>>>Begin Spectral Data<<<<<
178.204	-64.51
178.424	-64.51
178.644	-64.51
178.864	-7.17
179.084	-101.37
179.304	-15.36
179.524	-15.36
179.744	35.84
179.964	44.03
180.184	-46.08
180.404	15.36
180.624	29.7
180.844	-21.5
181.064	-52.22
181.283	25.6
181.503	17.41
181.723	-17.41
181.943	-17.41
182.163	50.18
182.383	48.13
182.602	-11.26
182.822	-52.22
183.042	54.27
183.262	-19.46
183.482	7.17
183.701	11.26
183.921	-31.74
184.141	109.57
184.361	-5.12
184.58	87.04
184.8	-76.8
185.02	66.56
185.239	-23.55
185.459	-37.89
185.679	54.27
185.898	-48.13
186.118	3.07
186.338	-23.55
186.557	44.03
186.777	-17.41
186.997	35.84
187.216	17.41
187.436	-7.17
187.655	60.42
187.875	23.55
188.095	-5.12
188.314	52.22
188.534	15.36
188.753	-19.46
188.973	7.17
189.192	35.84
189.412	19.46
189.631	-3.07
189.851	17.41
190.07	39.94
190.29	-25.6
190.509	41.98
190.729	17.41
190.948	50.18
191.168	62.46
191.387	37.89
191.607	17.41
191.826	41.98
192.045	-7.17
192.265	89.09
192.484	13.31
192.704	13.31
192.923	-37.89
193.142	41.98
193.362	44.03
193.581	44.03
193.8	44.03
194.02	-15.36
194.239	19.46
194.458	54.27
194.678	-58.37
194.897	13.31
195.116	13.31
195.335	-46.08
195.555	-23.55
195.774	25.6
195.993	82.94
196.212	9.22
196.432	33.79
196.651	23.55
196.87	31.74
197.089	44.03
197.308	23.55
197.528	25.6
197.747	-80.89
197.966	1.02
198.185	-5.12
198.404	87.04
198.623	27.65
198.842	1.02
199.062	41.98
199.281	58.37
199.5	-21.5
199.719	44.03
199.938	-5.12
200.157	37.89
200.376	46.08
200.595	35.84
200.814	82.94
201.033	27.65
201.252	13.31
201.471	15.36
201.69	41.98
201.909	21.5
202.128	25.6
202.347	37.89
202.566	13.31
202.785	39.94
203.004	-31.74
203.223	-11.26
203.442	13.31
203.661	3.07
203.879	-25.6
204.098	-23.55
204.317	-19.46
204.536	82.94
204.755	60.42
204.974	3.07
205.193	-5.12
205.411	33.79
205.63	23.55
205.849	-48.13
206.068	58.37
206.287	68.61
206.505	74.75
206.724	19.46
206.943	9.22
207.162	62.46
207.381	1.02
207.599	33.79
207.818	44.03
208.037	1.02
208.255	19.46
208.474	13.31
208.693	58.37
208.911	27.65
209.13	21.5
209.349	27.65
209.567	-19.46
209.786	21.5
210.005	76.8
210.223	33.79
210.442	87.04
210.661	9.22
210.879	29.7
211.098	-19.46
211.316	5.12
211.535	-1.02
211.753	48.13
211.972	109.57
212.191	-13.31
212.409	-44.03
212.628	17.41
212.846	17.41
213.065	-3.07
213.283	119.81
213.502	-33.79
213.72	70.65
213.938	48.13
214.157	9.22
214.375	3.07
214.594	-1.02
214.812	21.5
215.031	1.02
215.249	7.17
215.467	35.84
215.686	-17.41
215.904	70.65
216.122	-21.5
216.341	72.7
216.559	-31.74
216.778	48.13
216.996	29.7
217.214	39.94
217.432	60.42
217.651	-17.41
217.869	9.22
218.087	-21.5
218.306	-3.07
218.524	-13.31
218.742	-7.17
218.96	74.75
219.179	-17.41
219.397	11.26
219.615	17.41
219.833	13.31
220.051	-37.89
220.27	25.6
220.488	1.02
220.706	3.07
220.924	31.74
221.142	23.55
221.36	-33.79
221.578	31.74
221.796	9.22
222.015	15.36
222.233	-13.31
222.451	56.32
222.669	68.61
222.887	-15.36
223.105	11.26
223.323	-56.32
223.541	33.79
223.759	37.89
223.977	-52.22
224.195	82.94
224.413	15.36
224.631	27.65
224.849	33.79
225.067	64.51
225.285	9.22
225.503	17.41
225.721	-21.5
225.939	1.02
226.157	48.13
226.375	-48.13
226.592	101.37
226.81	76.8
227.028	17.41
227.246	66.56
227.464	7.17
227.682	33.79
227.9	91.13
228.117	-23.55
228.335	48.13
228.553	101.37
228.771	37.89
228.989	-23.55
229.206	-15.36
229.424	-7.17
229.642	-56.32
229.86	1.02
230.077	64.51
230.295	17.41
230.513	-11.26
230.731	54.27
230.948	25.6
231.166	3.07
231.384	3.07
231.601	5.12
231.819	-3.07
232.037	48.13
232.254	66.56
232.472	17.41
232.689	-29.7
232.907	46.08
233.125	21.5
233.342	66.56
233.56	-3.07
233.777	21.5
233.995	1.02
234.213	29.7
234.43	27.65
234.648	-1.02
234.865	74.75
235.083	37.89
235.3	-17.41
235.518	1.02
235.735	46.08
235.953	41.98
236.17	33.79
236.388	5.12
236.605	25.6
236.822	35.84
237.04	19.46
237.257	-19.46
237.475	25.6
237.692	13.31
237.909	62.46
238.127	-44.03
238.344	70.65
238.562	11.26
238.779	-58.37
238.996	44.03
239.214	-44.03
239.431	41.98
239.648	66.56
239.865	5.12
240.083	48.13
240.3	29.7
240.517	37.89
240.735	-7.17
240.952	50.18
241.169	-56.32
241.386	76.8
241.603	41.98
241.821	27.65
242.038	54.27
242.255	5.12
242.472	37.89
242.689	5.12
242.907	60.42
243.124	11.26
243.341	7.17
243.558	-3.07
243.775	7.17
243.992	-33.79
244.209	95.23
244.426	-23.55
244.643	93.18
244.86	-7.17
245.078	-23.55
245.295	-27.65
245.512	74.75
245.729	5.12
245.946	35.84
246.163	11.26
246.38	11.26
246.597	13.31
246.814	60.42
247.031	-19.46
247.248	91.13
247.464	119.81
247.681	-37.89
247.898	15.36
248.115	1.02
248.332	3.07
248.549	15.36
248.766	44.03
248.983	78.85
249.2	11.26
249.417	56.32
249.633	33.79
249.85	-21.5
250.067	9.22
250.284	13.31
250.501	44.03
250.717	46.08
250.934	-21.5
251.151	1.02
251.368	31.74
251.585	-39.94
251.801	41.98
252.018	17.41
252.235	9.22
252.451	25.6
252.668	-39.94
252.885	37.89
253.102	15.36
253.318	-9.22
253.535	25.6
253.752	17.41
253.968	-23.55
254.185	-11.26
254.401	-29.7
254.618	-46.08
254.835	7.17
255.051	-21.5
255.268	-13.31
255.484	78.85
255.701	25.6
255.917	54.27
256.134	-27.65
256.351	46.08
256.567	46.08
256.784	52.22
257	1.02
257.217	5.12
257.433	27.65
257.65	35.84
257.866	-27.65
258.082	-23.55
258.299	15.36
258.515	1.02
258.732	-15.36
258.948	-3.07
259.165	-21.5
259.381	23.55
259.597	21.5
259.814	80.89
260.03	50.18
260.246	13.31
260.463	66.56
260.679	72.7
260.895	89.09
261.112	-64.51
261.328	35.84
261.544	-23.55
261.761	-17.41
261.977	58.37
262.193	5.12
262.409	66.56
262.626	58.37
262.842	9.22
263.058	48.13
263.274	101.37
263.49	17.41
263.707	-25.6
263.923	44.03
264.139	1.02
264.355	-21.5
264.571	11.26
264.787	1.02
265.004	70.65
265.22	-31.74
265.436	50.18
265.652	17.41
265.868	33.79
266.084	-80.89
266.3	44.03
266.516	3.07
266.732	-9.22
266.948	48.13
267.164	35.84
267.38	-1.02
267.596	23.55
267.812	23.55
268.028	3.07
268.244	-19.46
268.46	-37.89
268.676	-5.12
268.892	68.61
269.108	-3.07
269.324	-29.7
269.54	1.02
269.756	119.81
269.972	-62.46
270.188	-7.17
270.403	-46.08
270.619	54.27
270.835	-25.6
271.051	-23.55
271.267	62.46
271.483	1.02
271.698	19.46
271.914	15.36
272.13	35.84
272.346	9.22
272.562	-7.17
272.777	33.79
272.993	44.03
273.209	-41.98
273.425	15.36
273.64	-27.65
273.856	66.56
274.072	-44.03
274.287	-19.46
274.503	23.55
274.719	23.55
274.934	17.41
275.15	31.74
275.366	19.46
275.581	-37.89
275.797	5.12
276.012	68.61
276.228	13.31
276.444	19.46
276.659	29.7
276.875	9.22
277.09	-13.31
277.306	-33.79
277.521	39.94
277.737	11.26
277.952	27.65
278.168	5.12
278.383	-23.55
278.599	21.5
278.814	35.84
279.03	-29.7
279.245	52.22
279.461	-21.5
279.676	3.07
279.892	-19.46
280.107	25.6
280.322	-3.07
280.538	29.7
280.753	11.26
280.969	74.75
281.184	44.03
281.399	-1.02
281.615	46.08
281.83	35.84
282.045	13.31
282.26	74.75
282.476	5.12
282.691	31.74
282.906	48.13
283.122	-7.17
283.337	1.02
283.552	50.18
283.767	-1.02
283.983	1.02
284.198	25.6
284.413	23.55
284.628	68.61
284.843	37.89
285.058	3.07
285.274	-13.31
285.489	-37.89
285.704	3.07
285.919	46.08
286.134	3.07
286.349	21.5
286.564	25.6
286.779	44.03
286.995	13.31
287.21	-76.8
287.425	1.02
287.64	-17.41
287.855	39.94
288.07	5.12
288.285	-3.07
288.5	-27.65
288.715	58.37
288.93	-29.7
289.145	-15.36
289.36	72.7
289.575	27.65
289.79	-21.5
290.004	50.18
290.219	1.02
290.434	31.74
290.649	54.27
290.864	-7.17
291.079	5.12
291.294	-19.46
291.509	17.41
291.724	-7.17
291.938	-35.84
292.153	44.03
292.368	23.55
292.583	97.28
292.798	17.41
293.012	-25.6
293.227	31.74
293.442	9.22
293.657	41.98
293.871	44.03
294.086	-19.46
294.301	-3.07
294.516	56.32
294.73	-7.17
294.945	-23.55
295.16	17.41
295.374	50.18
295.589	70.65
295.804	37.89
296.018	27.65
296.233	25.6
296.447	54.27
296.662	37.89
296.877	80.89
297.091	52.22
297.306	46.08
297.52	107.52
297.735	-19.46
297.949	5.12
298.164	21.5
298.378	-39.94
298.593	68.61
298.807	9.22
299.022	39.94
299.236	41.98
299.451	89.09
299.665	27.65
299.88	19.46
300.094	-11.26
300.309	-5.12
300.523	44.03
300.737	-29.7
300.952	56.32
301.166	21.5
301.381	-25.6
301.595	5.12
301.809	9.22
302.024	-27.65
302.238	11.26
302.452	52.22
302.667	58.37
302.881	44.03
303.095	-7.17
303.309	-17.41
303.524	-5.12
303.738	11.26
303.952	-9.22
304.166	33.79
304.381	27.65
304.595	72.7
304.809	25.6
305.023	56.32
305.237	3.07
305.452	19.46
305.666	62.46
305.88	25.6
306.094	66.56
306.308	101.37
306.522	-9.22
306.736	58.37
306.95	64.51
307.164	23.55
307.379	25.6
307.593	13.31
307.807	74.75
308.021	31.74
308.235	33.79
308.449	41.98
308.663	13.31
308.877	-19.46
309.091	50.18
309.305	-87.04
309.519	17.41
309.733	80.89
309.947	5.12
310.161	66.56
310.374	13.31
310.588	62.46
310.802	50.18
311.016	21.5
311.23	-44.03
311.444	17.41
311.658	-27.65
311.872	35.84
312.085	93.18
312.299	-17.41
312.513	-35.84
312.727	1.02
312.941	7.17
313.154	35.84
313.368	29.7
313.582	23.55
313.796	46.08
314.009	74.75
314.223	21.5
314.437	-23.55
314.651	17.41
314.864	37.89
315.078	-23.55
315.292	-11.26
315.505	29.7
315.719	33.79
315.933	-13.31
316.146	-35.84
316.36	-3.07
316.573	66.56
316.787	-7.17
317.001	-5.12
317.214	19.46
317.428	9.22
317.641	46.08
317.855	17.41
318.068	41.98
318.282	5.12
318.495	41.98
318.709	62.46
318.922	48.13
319.136	-9.22
319.349	31.74
319.563	9.22
319.776	29.7
319.99	-13.31
320.203	54.27
320.417	70.65
320.63	41.98
320.843	-13.31
321.057	-3.07
321.27	84.99
321.483	21.5
321.697	66.56
321.91	-31.74
322.124	19.46
322.337	58.37
322.55	23.55
322.763	-11.26
322.977	56.32
323.19	33.79
323.403	46.08
323.617	-41.98
323.83	5.12
324.043	-64.51
324.256	25.6
324.469	37.89
324.683	25.6
324.896	17.41
325.109	-13.31
325.322	-9.22
325.535	3.07
325.748	-13.31
325.962	-29.7
326.175	82.94
326.388	17.41
326.601	-9.22
326.814	25.6
327.027	87.04
327.24	37.89
327.453	66.56
327.666	103.42
327.879	97.28
328.092	72.7
328.305	56.32
328.518	15.36
328.731	-52.22
328.944	19.46
329.157	46.08
329.37	3.07
329.583	11.26
329.796	17.41
330.009	46.08
330.222	62.46
330.435	56.32
330.648	54.27
330.861	68.61
331.073	11.26
331.286	-15.36
331.499	68.61
331.712	-1.02
331.925	41.98
332.138	11.26
332.35	82.94
332.563	11.26
332.776	48.13
332.989	21.5
333.202	-48.13
333.414	93.18
333.627	23.55
333.84	-25.6
334.053	-15.36
334.265	-60.42
334.478	68.61
334.691	27.65
334.903	-7.17
335.116	39.94
335.329	-15.36
335.541	78.85
335.754	62.46
335.966	48.13
336.179	95.23
336.392	-48.13
336.604	41.98
336.817	29.7
337.029	39.94
337.242	74.75
337.454	58.37
337.667	19.46
337.88	-9.22
338.092	58.37
338.305	99.33
338.517	-7.17
338.729	87.04
338.942	17.41
339.154	7.17
339.367	23.55
339.579	37.89
339.792	-31.74
340.004	1.02
340.217	31.74
340.429	64.51
340.641	-46.08
340.854	52.22
341.066	60.42
341.278	29.7
341.491	-21.5
341.703	76.8
341.915	17.41
342.128	46.08
342.34	25.6
342.552	52.22
342.764	80.89
342.977	-37.89
343.189	64.51
343.401	115.71
343.613	-15.36
343.826	27.65
344.038	3.07
344.25	-9.22
344.462	91.13
344.674	17.41
344.886	-3.07
345.099	9.22
345.311	-19.46
345.523	19.46
345.735	15.36
345.947	-25.6
346.159	-17.41
346.371	15.36
346.583	3.07
346.795	25.6
347.007	-64.51
347.219	13.31
347.431	15.36
347.643	7.17
347.855	1.02
348.067	11.26
348.279	13.31
348.491	-3.07
348.703	-23.55
348.915	-35.84
349.127	33.79
349.339	78.85
349.551	-27.65
349.763	-39.94
349.975	17.41
350.187	39.94
350.399	-35.84
350.61	64.51
350.822	-11.26
351.034	-5.12
351.246	44.03
351.458	11.26
351.669	44.03
351.881	33.79
352.093	37.89
352.305	41.98
352.517	17.41
352.728	3.07
352.94	33.79
353.152	33.79
353.363	23.55
353.575	-37.89
353.787	41.98
353.999	23.55
354.21	54.27
354.422	9.22
354.633	-11.26
354.845	35.84
355.057	17.41
355.268	29.7
355.48	5.12
355.692	-3.07
355.903	29.7
356.115	54.27
356.326	44.03
356.538	62.46
356.749	68.61
356.961	66.56
357.172	-25.6
357.384	101.37
357.595	17.41
357.807	-5.12
358.018	29.7
358.23	11.26
358.441	-23.55
358.653	-7.17
358.864	-5.12
359.075	-31.74
359.287	-5.12
359.498	21.5
359.709	33.79
359.921	-23.55
360.132	46.08
360.344	66.56
360.555	-52.22
360.766	46.08
360.977	-15.36
361.189	-21.5
361.4	25.6
361.611	46.08
361.823	11.26
362.034	35.84
362.245	11.26
362.456	13.31
362.667	-7.17
362.879	-5.12
363.09	17.41
363.301	15.36
363.512	39.94
363.723	-5.12
363.935	37.89
364.146	33.79
364.357	27.65
364.568	39.94
364.779	64.51
364.99	64.51
365.201	-35.84
365.412	48.13
365.623	-27.65
365.834	-13.31
366.045	29.7
366.256	99.33
366.467	74.75
366.678	60.42
366.889	9.22
367.1	50.18
367.311	-23.55
367.522	29.7
367.733	68.61
367.944	-3.07
368.155	-46.08
368.366	107.52
368.577	1.02
368.788	-1.02
368.999	-23.55
369.209	7.17
369.42	-25.6
369.631	27.65
369.842	48.13
370.053	-9.22
370.264	33.79
370.474	-35.84
370.685	29.7
370.896	72.7
371.107	105.47
371.317	19.46
371.528	-13.31
371.739	11.26
371.95	7.17
372.16	64.51
372.371	19.46
372.582	29.7
372.792	41.98
373.003	66.56
373.214	41.98
373.424	9.22
373.635	17.41
373.846	13.31
374.056	-13.31
374.267	27.65
374.477	33.79
374.688	9.22
374.898	-33.79
375.109	33.79
375.319	33.79
375.53	9.22
375.74	13.31
375.951	-25.6
376.161	-35.84
376.372	-5.12
376.582	50.18
376.793	160.77
377.003	9.22
377.214	56.32
377.424	11.26
377.635	-7.17
377.845	33.79
378.055	-5.12
378.266	15.36
378.476	41.98
378.686	41.98
378.897	1.02
379.107	50.18
379.317	39.94
379.528	60.42
379.738	44.03
379.948	-52.22
380.158	1.02
380.369	48.13
380.579	109.57
380.789	107.52
380.999	54.27
381.21	29.7
381.42	41.98
381.63	33.79
381.84	1.02
382.05	76.8
382.261	41.98
382.471	-15.36
382.681	9.22
382.891	-1.02
383.101	93.18
383.311	68.61
383.521	-7.17
383.731	41.98
383.941	62.46
384.151	44.03
384.361	-23.55
384.571	-27.65
384.781	33.79
384.991	60.42
385.201	70.65
385.411	58.37
385.621	87.04
385.831	56.32
386.041	-27.65
386.251	33.79
386.461	9.22
386.671	-25.6
386.881	60.42
387.091	74.75
387.301	72.7
387.511	70.65
387.72	44.03
387.93	17.41
388.14	19.46
388.35	97.28
388.56	76.8
388.769	15.36
388.979	21.5
389.189	-60.42
389.399	9.22
389.609	70.65
389.818	101.37
390.028	70.65
390.238	19.46
390.447	5.12
390.657	5.12
390.867	25.6
391.076	72.7
391.286	-31.74
391.496	82.94
391.705	-23.55
391.915	50.18
392.125	27.65
392.334	17.41
392.544	17.41
392.753	17.41
392.963	62.46
393.172	50.18
393.382	25.6
393.591	46.08
393.801	82.94
394.01	-5.12
394.22	41.98
394.429	25.6
394.639	50.18
394.848	-23.55
395.058	84.99
395.267	84.99
395.477	52.22
395.686	80.89
395.895	95.23
396.105	58.37
396.314	70.65
396.524	3.07
396.733	44.03
396.942	58.37
397.152	15.36
397.361	70.65
397.57	52.22
397.78	60.42
397.989	-37.89
398.198	19.46
398.407	-23.55
398.617	91.13
398.826	56.32
399.035	-11.26
399.244	5.12
399.453	23.55
399.663	60.42
399.872	21.5
400.081	44.03
400.29	17.41
400.499	130.05
400.708	80.89
400.917	64.51
401.127	-5.12
401.336	52.22
401.545	89.09
401.754	99.33
401.963	37.89
402.172	74.75
402.381	-11.26
402.59	19.46
402.799	136.19
403.008	44.03
403.217	23.55
403.426	9.22
403.635	70.65
403.844	37.89
404.053	87.04
404.262	101.37
404.471	93.18
404.68	66.56
404.888	199.68
405.097	39.94
405.306	125.95
405.515	5.12
405.724	78.85
405.933	101.37
406.142	107.52
406.35	66.56
406.559	101.37
406.768	39.94
406.977	46.08
407.185	72.7
407.394	101.37
407.603	148.48
407.812	119.81
408.02	105.47
408.229	78.85
408.438	70.65
408.646	76.8
408.855	78.85
409.064	37.89
409.272	70.65
409.481	144.38
409.69	117.76
409.898	58.37
410.107	134.14
410.315	140.29
410.524	117.76
410.733	109.57
410.941	89.09
411.15	177.15
411.358	142.33
411.567	214.01
411.775	140.29
411.984	197.63
412.192	140.29
412.401	183.29
412.609	179.2
412.818	207.87
413.026	168.96
413.234	222.2
413.443	220.16
413.651	201.72
413.86	207.87
414.068	257.02
414.276	150.53
414.485	211.96
414.693	318.46
414.901	275.45
415.11	250.88
415.318	236.54
415.526	345.08
415.734	353.27
415.943	308.22
416.151	340.99
416.359	306.17
416.567	310.27
416.776	361.47
416.984	248.83
417.192	402.43
417.4	351.23
417.608	445.43
417.817	422.91
418.025	418.81
418.233	472.06
418.441	400.38
418.649	476.15
418.857	510.97
419.065	451.58
419.273	508.92
419.481	623.61
419.689	672.76
419.897	541.69
420.105	508.92
420.313	592.89
420.521	617.46
420.729	621.56
420.937	648.18
421.145	676.85
421.353	740.34
421.561	697.33
421.769	771.06
421.977	861.17
422.185	691.19
422.393	861.17
422.601	852.98
422.809	887.79
423.017	836.6
423.224	871.41
423.432	934.9
423.64	982
423.848	1035.25
424.056	1043.44
424.263	1057.78
424.471	1108.98
424.679	1057.78
424.887	1149.93
425.094	1215.47
425.302	1158.13
425.51	1301.48
425.718	1285.1
425.925	1313.77
426.133	1262.57
426.341	1442.79
426.548	1450.99
426.756	1496.04
426.964	1532.9
427.171	1491.95
427.379	1586.15
427.586	1659.88
427.794	1719.27
428.001	1749.99
428.209	1903.59
428.417	1737.7
428.624	1999.84
428.832	1952.74
429.039	1997.79
429.247	1846.24
429.454	2059.23
429.662	2237.41
429.869	2180.06
430.076	2153.44
430.284	2206.69
430.491	2239.45
430.699	2448.35
430.906	2452.44
431.114	2464.73
431.321	2485.21
431.528	2747.35
431.736	2675.67
431.943	2937.81
432.15	2767.83
432.358	2943.96
432.565	3052.5
432.772	2937.81
432.979	3156.94
433.187	3216.33
433.394	3187.66
433.601	3326.93
433.808	3486.67
434.016	3326.93
434.223	3544.01
434.43	3810.25
434.637	3693.51
434.844	3961.8
435.052	3978.18
435.259	3931.08
435.466	3967.94
435.673	4074.43
435.88	4271.04
436.087	4410.3
436.294	4443.07
436.501	4301.76
436.708	4328.38
436.915	4461.5
437.122	4647.87
437.329	4592.57
437.537	4875.19
437.743	4903.86
437.95	4903.86
438.157	5170.1
438.364	5407.66
438.571	5374.89
438.778	5415.85
438.985	5735.34
439.192	5677.99
439.399	5702.57
439.606	5686.19
439.813	5950.37
440.02	6165.41
440.227	6374.3
440.433	6265.76
440.64	6511.52
440.847	6454.17
441.054	6568.86
441.261	6857.62
441.467	6933.4
441.674	7021.46
441.881	7426.96
442.088	7005.08
442.294	7058.32
442.501	7164.82
442.708	7447.44
442.914	7652.24
443.121	7998.34
443.328	7859.08
443.534	8561.53
443.741	8196.99
443.948	8147.84
444.154	8803.19
444.361	8670.08
444.568	8577.92
444.774	8508.29
444.981	8811.39
445.187	8797.05
445.394	9325.43
445.6	9311.09
445.807	10146.66
446.013	9909.1
446.22	9890.67
446.426	10267.49
446.633	10292.07
446.839	10750.81
447.046	10378.08
447.252	10693.47
447.459	10847.07
447.665	10826.59
447.871	11348.82
448.078	11905.87
448.284	11152.21
448.491	11590.48
448.697	11901.77
448.903	12165.96
449.11	12059.46
449.316	12053.32
449.522	12219.21
449.728	12630.85
449.935	12612.42
450.141	12649.28
450.347	12886.84
450.553	12440.39
450.76	12567.36
450.966	13042.49
451.172	12743.49
451.378	12987.19
451.584	12895.04
451.791	13384.5
451.997	13128.5
452.203	13368.12
452.409	13400.88
452.615	13239.09
452.821	12903.23
453.027	12577.6
453.233	13220.66
453.44	12688.19
453.646	13042.49
453.852	12970.81
454.058	13101.88
454.264	12956.47
454.47	12968.76
454.676	12632.9
454.882	13288.25
455.088	12116.81
455.294	12159.81
455.5	12643.14
455.705	12362.56
455.911	11936.59
456.117	11772.75
456.323	11739.98
456.529	11082.58
456.735	11570
456.941	11193.17
457.147	11053.91
457.352	10654.56
457.558	10281.83
457.764	10441.57
457.97	10335.07
458.176	10066.79
458.381	10087.27
458.587	9710.44
458.793	9558.89
458.999	9153.4
459.204	9649
459.41	9452.4
459.616	8790.91
459.821	8711.04
460.027	8950.65
460.233	8512.38
460.438	8455.04
460.644	8272.77
460.85	7973.77
461.055	7908.23
461.261	7875.46
461.466	7285.65
461.672	7195.54
461.878	7416.72
462.083	7084.95
462.289	6896.53
462.494	6798.23
462.7	6495.13
462.905	6329.25
463.111	6761.37
463.316	6663.07
463.522	6400.93
463.727	6540.19
463.932	6482.85
464.138	6276
464.343	6327.2
464.549	6415.26
464.754	6591.39
464.959	6237.09
465.165	6302.62
465.37	6106.02
465.575	5856.17
465.781	6300.58
465.986	6163.36
466.191	5966.76
466.397	5940.13
466.602	5475.24
466.807	5839.78
467.012	5800.87
467.218	5813.16
467.423	5608.36
467.628	5696.43
467.833	6005.67
468.038	5872.55
468.244	5587.88
468.449	5829.54
468.654	5675.95
468.859	5524.4
469.064	5606.31
469.269	5204.91
469.474	5391.28
469.679	5524.4
469.885	5383.09
470.09	5434.29
