Data from USB4F104151__11__13-52-15-645.txt Node

Date: Thu Mar 13 13:52:15 EDT 2025
User: louis
Spectrometer: USB4F10415
Trigger mode: 4
Integration Time (sec): 1.000000E-2
Scans to average: 1
Electric dark correction enabled: true
Nonlinearity correction enabled: false
Boxcar width: 0
XAxis mode: Wavelengths
Number of Pixels in Spectrum: 3648
>>>>>Begin Spectral Data<<<<<
178.204	-22.7
178.424	-22.7
178.644	-22.7
178.864	3.93
179.084	-49.32
179.304	-63.66
179.524	-41.13
179.744	-30.89
179.964	24.4
180.184	61.27
180.404	71.51
180.624	24.4
180.844	53.08
181.064	-32.94
181.283	14.17
181.503	-84.14
181.723	3.93
181.943	-45.23
182.163	3.93
182.383	14.17
182.602	-37.03
182.822	55.12
183.042	22.36
183.262	5.97
183.482	20.31
183.701	16.21
183.921	-57.51
184.141	-2.22
184.361	61.27
184.58	16.21
184.8	8.02
185.02	-18.6
185.239	-8.36
185.459	-22.7
185.679	-43.18
185.898	-26.79
186.118	18.26
186.338	8.02
186.557	-24.75
186.777	-10.41
186.997	16.21
187.216	-30.89
187.436	36.69
187.655	59.22
187.875	51.03
188.095	55.12
188.314	67.41
188.534	59.22
188.753	81.75
188.973	-53.42
189.192	10.07
189.412	-10.41
189.631	-2.22
189.851	-57.51
190.07	5.97
190.29	-49.32
190.509	-6.31
190.729	63.32
190.948	-41.13
191.168	40.79
191.387	22.36
191.607	-26.79
191.826	20.31
192.045	20.31
192.265	63.32
192.484	67.41
192.704	-0.17
192.923	-59.56
193.142	61.27
193.362	3.93
193.581	36.69
193.8	14.17
194.02	79.7
194.239	1.88
194.458	-20.65
194.678	34.64
194.897	34.64
195.116	-34.99
195.335	-6.31
195.555	51.03
195.774	-16.55
195.993	85.84
196.212	-67.75
196.432	-39.08
196.651	24.4
196.87	12.12
197.089	32.6
197.308	-20.65
197.528	24.4
197.747	-12.46
197.966	1.88
198.185	-45.23
198.404	3.93
198.623	87.89
198.842	42.84
199.062	3.93
199.281	-47.27
199.5	-43.18
199.719	53.08
199.938	30.55
200.157	106.32
200.376	36.69
200.595	22.36
200.814	-71.85
201.033	-96.43
201.252	-28.84
201.471	24.4
201.69	-4.27
201.909	28.5
202.128	-30.89
202.347	-51.37
202.566	-0.17
202.785	-53.42
203.004	73.56
203.223	42.84
203.442	8.02
203.661	-12.46
203.879	57.17
204.098	-14.51
204.317	-71.85
204.536	20.31
204.755	10.07
204.974	69.46
205.193	26.45
205.411	-12.46
205.63	-2.22
205.849	1.88
206.068	-30.89
206.287	22.36
206.505	81.75
206.724	53.08
206.943	73.56
207.162	28.5
207.381	-10.41
207.599	-32.94
207.818	-18.6
208.037	28.5
208.255	-41.13
208.474	-12.46
208.693	-24.75
208.911	30.55
209.13	63.32
209.349	-43.18
209.567	46.93
209.786	32.6
210.005	108.37
210.223	-6.31
210.442	-30.89
210.661	44.88
210.879	1.88
211.098	-4.27
211.316	24.4
211.535	26.45
211.753	12.12
211.972	-6.31
212.191	18.26
212.409	1.88
212.628	42.84
212.846	-73.9
213.065	24.4
213.283	-10.41
213.502	36.69
213.72	-0.17
213.938	85.84
214.157	-16.55
214.375	51.03
214.594	8.02
214.812	-18.6
215.031	65.36
215.249	-39.08
215.467	94.04
215.686	53.08
215.904	22.36
216.122	63.32
216.341	61.27
216.559	-6.31
216.778	53.08
216.996	-0.17
217.214	-24.75
217.432	-2.22
217.651	69.46
217.869	-24.75
218.087	5.97
218.306	1.88
218.524	-14.51
218.742	65.36
218.96	3.93
219.179	40.79
219.397	-47.27
219.615	8.02
219.833	3.93
220.051	48.98
220.27	3.93
220.488	24.4
220.706	24.4
220.924	30.55
221.142	24.4
221.36	5.97
221.578	53.08
221.796	-51.37
222.015	14.17
222.233	-24.75
222.451	-34.99
222.669	26.45
222.887	10.07
223.105	1.88
223.323	67.41
223.541	-4.27
223.759	102.23
223.977	40.79
224.195	-20.65
224.413	-16.55
224.631	16.21
224.849	-75.95
225.067	-0.17
225.285	10.07
225.503	34.64
225.721	-37.03
225.939	-0.17
226.157	48.98
226.375	30.55
226.592	-49.32
226.81	-43.18
227.028	-26.79
227.246	-24.75
227.464	-41.13
227.682	32.6
227.9	-18.6
228.117	32.6
228.335	-8.36
228.553	-8.36
228.771	14.17
228.989	32.6
229.206	-45.23
229.424	-14.51
229.642	8.02
229.86	57.17
230.077	24.4
230.295	26.45
230.513	-37.03
230.731	63.32
230.948	61.27
231.166	-8.36
231.384	5.97
231.601	-22.7
231.819	-6.31
232.037	34.64
232.254	-49.32
232.472	-20.65
232.689	10.07
232.907	38.74
233.125	1.88
233.342	20.31
233.56	-8.36
233.777	-10.41
233.995	-32.94
234.213	67.41
234.43	-34.99
234.648	1.88
234.865	5.97
235.083	59.22
235.3	36.69
235.518	75.6
235.735	26.45
235.953	81.75
236.17	5.97
236.388	-45.23
236.605	46.93
236.822	10.07
237.04	18.26
237.257	-49.32
237.475	-37.03
237.692	42.84
237.909	-26.79
238.127	16.21
238.344	-39.08
238.562	-22.7
238.779	8.02
238.996	71.51
239.214	-12.46
239.431	77.65
239.648	1.88
239.865	-28.84
240.083	5.97
240.3	14.17
240.517	-43.18
240.735	-26.79
240.952	14.17
241.169	10.07
241.386	-6.31
241.603	-2.22
241.821	-34.99
242.038	-32.94
242.255	20.31
242.472	28.5
242.689	-6.31
242.907	38.74
243.124	-43.18
243.341	28.5
243.558	48.98
243.775	48.98
243.992	-47.27
244.209	-41.13
244.426	-4.27
244.643	16.21
244.86	-6.31
245.078	-4.27
245.295	-47.27
245.512	3.93
245.729	46.93
245.946	28.5
246.163	36.69
246.38	67.41
246.597	-32.94
246.814	3.93
247.031	-39.08
247.248	18.26
247.464	-12.46
247.681	44.88
247.898	71.51
248.115	32.6
248.332	36.69
248.549	16.21
248.766	-63.66
248.983	34.64
249.2	-10.41
249.417	-18.6
249.633	-26.79
249.85	-6.31
250.067	59.22
250.284	30.55
250.501	-63.66
250.717	73.56
250.934	5.97
251.151	20.31
251.368	-10.41
251.585	5.97
251.801	1.88
252.018	-0.17
252.235	-41.13
252.451	-8.36
252.668	38.74
252.885	48.98
253.102	-4.27
253.318	44.88
253.535	30.55
253.752	-16.55
253.968	-45.23
254.185	-61.61
254.401	26.45
254.618	-28.84
254.835	-22.7
255.051	-51.37
255.268	-12.46
255.484	-16.55
255.701	-10.41
255.917	85.84
256.134	18.26
256.351	44.88
256.567	-12.46
256.784	61.27
257	55.12
257.217	-14.51
257.433	12.12
257.65	-16.55
257.866	28.5
258.082	42.84
258.299	22.36
258.515	-39.08
258.732	10.07
258.948	61.27
259.165	-75.95
259.381	14.17
259.597	26.45
259.814	3.93
260.03	-30.89
260.246	38.74
260.463	28.5
260.679	-41.13
260.895	-18.6
261.112	57.17
261.328	18.26
261.544	67.41
261.761	61.27
261.977	-51.37
262.193	48.98
262.409	-2.22
262.626	34.64
262.842	46.93
263.058	-51.37
263.274	-26.79
263.49	-10.41
263.707	81.75
263.923	-8.36
264.139	-0.17
264.355	10.07
264.571	-4.27
264.787	-43.18
265.004	51.03
265.22	3.93
265.436	-16.55
265.652	20.31
265.868	-47.27
266.084	-20.65
266.3	3.93
266.516	-0.17
266.732	36.69
266.948	67.41
267.164	48.98
267.38	16.21
267.596	-43.18
267.812	26.45
268.028	1.88
268.244	-24.75
268.46	-0.17
268.676	10.07
268.892	46.93
269.108	16.21
269.324	20.31
269.54	14.17
269.756	16.21
269.972	-12.46
270.188	16.21
270.403	-18.6
270.619	40.79
270.835	-55.47
271.051	-4.27
271.267	24.4
271.483	-34.99
271.698	8.02
271.914	40.79
272.13	16.21
272.346	-20.65
272.562	1.88
272.777	28.5
272.993	-30.89
273.209	-24.75
273.425	-39.08
273.64	1.88
273.856	69.46
274.072	32.6
274.287	-45.23
274.503	24.4
274.719	5.97
274.934	79.7
275.15	3.93
275.366	32.6
275.581	10.07
275.797	34.64
276.012	-12.46
276.228	20.31
276.444	32.6
276.659	42.84
276.875	44.88
277.09	-16.55
277.306	10.07
277.521	42.84
277.737	-37.03
277.952	-0.17
278.168	16.21
278.383	-63.66
278.599	61.27
278.814	1.88
279.03	-14.51
279.245	-22.7
279.461	42.84
279.676	3.93
279.892	-8.36
280.107	1.88
280.322	44.88
280.538	55.12
280.753	-63.66
280.969	14.17
281.184	28.5
281.399	42.84
281.615	-2.22
281.83	-18.6
282.045	-8.36
282.26	91.99
282.476	10.07
282.691	48.98
282.906	46.93
283.122	-32.94
283.337	18.26
283.552	16.21
283.767	14.17
283.983	38.74
284.198	12.12
284.413	-37.03
284.628	20.31
284.843	-4.27
285.058	32.6
285.274	16.21
285.489	-8.36
285.704	20.31
285.919	30.55
286.134	57.17
286.349	-12.46
286.564	36.69
286.779	14.17
286.995	57.17
287.21	-10.41
287.425	51.03
287.64	-37.03
287.855	14.17
288.07	12.12
288.285	-37.03
288.5	46.93
288.715	12.12
288.93	-96.43
289.145	3.93
289.36	57.17
289.575	-2.22
289.79	34.64
290.004	42.84
290.219	-0.17
290.434	28.5
290.649	3.93
290.864	-22.7
291.079	14.17
291.294	42.84
291.509	8.02
291.724	94.04
291.938	12.12
292.153	-10.41
292.368	28.5
292.583	-0.17
292.798	40.79
293.012	48.98
293.227	22.36
293.442	44.88
293.657	1.88
293.871	24.4
294.086	-14.51
294.301	81.75
294.516	38.74
294.73	22.36
294.945	1.88
295.16	12.12
295.374	46.93
295.589	26.45
295.804	-45.23
296.018	34.64
296.233	32.6
296.447	38.74
296.662	-34.99
296.877	77.65
297.091	5.97
297.306	18.26
297.52	10.07
297.735	10.07
297.949	-53.42
298.164	30.55
298.378	32.6
298.593	20.31
298.807	-20.65
299.022	-49.32
299.236	44.88
299.451	46.93
299.665	-2.22
299.88	48.98
300.094	-37.03
300.309	40.79
300.523	53.08
300.737	-28.84
300.952	5.97
301.166	16.21
301.381	28.5
301.595	44.88
301.809	-32.94
302.024	-57.51
302.238	44.88
302.452	-12.46
302.667	32.6
302.881	-10.41
303.095	12.12
303.309	10.07
303.524	-22.7
303.738	-10.41
303.952	-24.75
304.166	24.4
304.381	40.79
304.595	10.07
304.809	-84.14
305.023	-0.17
305.237	-22.7
305.452	-16.55
305.666	22.36
305.88	14.17
306.094	40.79
306.308	53.08
306.522	14.17
306.736	-4.27
306.95	61.27
307.164	79.7
307.379	26.45
307.593	32.6
307.807	18.26
308.021	12.12
308.235	-65.71
308.449	48.98
308.663	61.27
308.877	22.36
309.091	-26.79
309.305	40.79
309.519	-10.41
309.733	8.02
309.947	36.69
310.161	12.12
310.374	16.21
310.588	8.02
310.802	-51.37
311.016	81.75
311.23	40.79
311.444	-24.75
311.658	22.36
311.872	-20.65
312.085	-12.46
312.299	5.97
312.513	16.21
312.727	46.93
312.941	32.6
313.154	10.07
313.368	79.7
313.582	28.5
313.796	-18.6
314.009	-0.17
314.223	3.93
314.437	59.22
314.651	3.93
314.864	-39.08
315.078	48.98
315.292	-12.46
315.505	-8.36
315.719	-26.79
315.933	3.93
316.146	-26.79
316.36	-24.75
316.573	-16.55
316.787	8.02
317.001	57.17
317.214	53.08
317.428	10.07
317.641	48.98
317.855	28.5
318.068	12.12
318.282	89.94
318.495	69.46
318.709	42.84
318.922	-16.55
319.136	40.79
319.349	22.36
319.563	73.56
319.776	-14.51
319.99	67.41
320.203	30.55
320.417	24.4
320.63	46.93
320.843	96.08
321.057	-20.65
321.27	-30.89
321.483	3.93
321.697	-18.6
321.91	24.4
322.124	8.02
322.337	63.32
322.55	-4.27
322.763	-16.55
322.977	-18.6
323.19	85.84
323.403	-14.51
323.617	-6.31
323.83	22.36
324.043	-22.7
324.256	22.36
324.469	-26.79
324.683	59.22
324.896	-10.41
325.109	61.27
325.322	-30.89
325.535	24.4
325.748	12.12
325.962	28.5
326.175	34.64
326.388	-18.6
326.601	-0.17
326.814	85.84
327.027	26.45
327.24	5.97
327.453	5.97
327.666	79.7
327.879	-4.27
328.092	55.12
328.305	34.64
328.518	-77.99
328.731	38.74
328.944	16.21
329.157	32.6
329.37	-24.75
329.583	-6.31
329.796	8.02
330.009	3.93
330.222	16.21
330.435	3.93
330.648	-2.22
330.861	71.51
331.073	67.41
331.286	1.88
331.499	-53.42
331.712	-32.94
331.925	-24.75
332.138	63.32
332.35	26.45
332.563	18.26
332.776	40.79
332.989	-22.7
333.202	-18.6
333.414	-14.51
333.627	-24.75
333.84	42.84
334.053	-43.18
334.265	14.17
334.478	12.12
334.691	96.08
334.903	18.26
335.116	8.02
335.329	18.26
335.541	44.88
335.754	28.5
335.966	-6.31
336.179	51.03
336.392	40.79
336.604	-47.27
336.817	-43.18
337.029	5.97
337.242	65.36
337.454	-4.27
337.667	34.64
337.88	48.98
338.092	67.41
338.305	22.36
338.517	20.31
338.729	14.17
338.942	3.93
339.154	22.36
339.367	-6.31
339.579	53.08
339.792	26.45
340.004	-14.51
340.217	-18.6
340.429	-4.27
340.641	-32.94
340.854	5.97
341.066	8.02
341.278	32.6
341.491	-84.14
341.703	14.17
341.915	-75.95
342.128	1.88
342.34	-37.03
342.552	10.07
342.764	53.08
342.977	71.51
343.189	51.03
343.401	40.79
343.613	24.4
343.826	40.79
344.038	-43.18
344.25	65.36
344.462	-14.51
344.674	61.27
344.886	12.12
345.099	48.98
345.311	48.98
345.523	30.55
345.735	16.21
345.947	-30.89
346.159	53.08
346.371	-16.55
346.583	26.45
346.795	3.93
347.007	36.69
347.219	18.26
347.431	40.79
347.643	83.8
347.855	-41.13
348.067	40.79
348.279	-37.03
348.491	12.12
348.703	-2.22
348.915	24.4
349.127	-8.36
349.339	36.69
349.551	22.36
349.763	55.12
349.975	-26.79
350.187	-28.84
350.399	-73.9
350.61	-4.27
350.822	44.88
351.034	30.55
351.246	36.69
351.458	-6.31
351.669	53.08
351.881	57.17
352.093	-14.51
352.305	85.84
352.517	59.22
352.728	14.17
352.94	53.08
353.152	-28.84
353.363	-12.46
353.575	20.31
353.787	3.93
353.999	24.4
354.21	34.64
354.422	94.04
354.633	75.6
354.845	-49.32
355.057	40.79
355.268	46.93
355.48	-24.75
355.692	-65.71
355.903	18.26
356.115	55.12
356.326	-32.94
356.538	65.36
356.749	-49.32
356.961	-30.89
357.172	-30.89
357.384	-39.08
357.595	67.41
357.807	18.26
358.018	-53.42
358.23	16.21
358.441	-53.42
358.653	73.56
358.864	-16.55
359.075	-2.22
359.287	-34.99
359.498	61.27
359.709	-24.75
359.921	-6.31
360.132	-4.27
360.344	-10.41
360.555	61.27
360.766	44.88
360.977	26.45
361.189	53.08
361.4	16.21
361.611	14.17
361.823	55.12
362.034	48.98
362.245	-88.23
362.456	-47.27
362.667	32.6
362.879	-4.27
363.09	-18.6
363.301	77.65
363.512	-28.84
363.723	26.45
363.935	-6.31
364.146	12.12
364.357	-4.27
364.568	32.6
364.779	51.03
364.99	-14.51
365.201	24.4
365.412	73.56
365.623	71.51
365.834	8.02
366.045	20.31
366.256	20.31
366.467	53.08
366.678	-6.31
366.889	-65.71
367.1	14.17
367.311	59.22
367.522	-8.36
367.733	8.02
367.944	32.6
368.155	3.93
368.366	94.04
368.577	8.02
368.788	112.47
368.999	5.97
369.209	18.26
369.42	77.65
369.631	-18.6
369.842	-65.71
370.053	-8.36
370.264	-20.65
370.474	-18.6
370.685	91.99
370.896	-57.51
371.107	22.36
371.317	61.27
371.528	32.6
371.739	63.32
371.95	63.32
372.16	-14.51
372.371	57.17
372.582	44.88
372.792	-10.41
373.003	79.7
373.214	57.17
373.424	100.18
373.635	28.5
373.846	14.17
374.056	53.08
374.267	24.4
374.477	18.26
374.688	57.17
374.898	-2.22
375.109	-41.13
375.319	8.02
375.53	65.36
375.74	63.32
375.951	8.02
376.161	18.26
376.372	26.45
376.582	1.88
376.793	-18.6
377.003	18.26
377.214	36.69
377.424	-26.79
377.635	42.84
377.845	3.93
378.055	1.88
378.266	32.6
378.476	12.12
378.686	-4.27
378.897	34.64
379.107	14.17
379.317	16.21
379.528	-4.27
379.738	-28.84
379.948	44.88
380.158	51.03
380.369	-18.6
380.579	83.8
380.789	-39.08
380.999	24.4
381.21	-6.31
381.42	38.74
381.63	-22.7
381.84	16.21
382.05	48.98
382.261	42.84
382.471	12.12
382.681	48.98
382.891	65.36
383.101	18.26
383.311	42.84
383.521	-39.08
383.731	53.08
383.941	116.56
384.151	12.12
384.361	32.6
384.571	22.36
384.781	36.69
384.991	75.6
385.201	104.28
385.411	63.32
385.621	-14.51
385.831	48.98
386.041	-6.31
386.251	69.46
386.461	-12.46
386.671	-47.27
386.881	38.74
387.091	14.17
387.301	-22.7
387.511	12.12
387.72	69.46
387.93	-16.55
388.14	53.08
388.35	-6.31
388.56	5.97
388.769	5.97
388.979	34.64
389.189	32.6
389.399	-24.75
389.609	30.55
389.818	42.84
390.028	22.36
390.238	104.28
390.447	20.31
390.657	108.37
390.867	98.13
391.076	-12.46
391.286	26.45
391.496	51.03
391.705	65.36
391.915	85.84
392.125	24.4
392.334	5.97
392.544	44.88
392.753	55.12
392.963	1.88
393.172	38.74
393.382	100.18
393.591	79.7
393.801	69.46
394.01	22.36
394.22	12.12
394.429	48.98
394.639	-16.55
394.848	1.88
395.058	57.17
395.267	-43.18
395.477	42.84
395.686	16.21
395.895	1.88
396.105	57.17
396.314	26.45
396.524	-37.03
396.733	36.69
396.942	20.31
397.152	30.55
397.361	96.08
397.57	71.51
397.78	118.61
397.989	48.98
398.198	73.56
398.407	65.36
398.617	14.17
398.826	59.22
399.035	-8.36
399.244	14.17
399.453	57.17
399.663	24.4
399.872	63.32
400.081	42.84
400.29	48.98
400.499	75.6
400.708	100.18
400.917	-26.79
401.127	-24.75
401.336	10.07
401.545	91.99
401.754	30.55
401.963	-8.36
402.172	-4.27
402.381	24.4
402.59	10.07
402.799	-4.27
403.008	79.7
403.217	120.66
403.426	83.8
403.635	-4.27
403.844	-0.17
404.053	40.79
404.262	-53.42
404.471	77.65
404.68	91.99
404.888	118.61
405.097	67.41
405.306	24.4
405.515	36.69
405.724	14.17
405.933	89.94
406.142	26.45
406.35	46.93
406.559	26.45
406.768	24.4
406.977	73.56
407.185	61.27
407.394	94.04
407.603	83.8
407.812	104.28
408.02	116.56
408.229	139.09
408.438	118.61
408.646	102.23
408.855	-18.6
409.064	44.88
409.272	73.56
409.481	48.98
409.69	63.32
409.898	96.08
410.107	112.47
410.315	180.05
410.524	89.94
410.733	67.41
410.941	126.8
411.15	141.14
411.358	75.6
411.567	147.28
411.775	16.21
411.984	141.14
412.192	116.56
412.401	48.98
412.609	163.67
412.818	196.43
413.026	208.72
413.234	194.39
413.443	102.23
413.651	221.01
413.86	208.72
414.068	223.06
414.276	206.67
414.485	173.91
414.693	194.39
414.901	214.87
415.11	261.97
415.318	214.87
415.526	259.92
415.734	190.29
415.943	261.97
416.151	237.39
416.359	122.71
416.567	286.54
416.776	302.93
416.984	298.83
417.192	350.03
417.4	286.54
417.608	360.27
417.817	286.54
418.025	362.32
418.233	296.78
418.441	362.32
418.649	454.48
418.857	380.75
419.065	390.99
419.273	390.99
419.481	405.33
419.689	368.46
419.897	440.14
420.105	454.48
420.313	454.48
420.521	515.92
420.729	593.74
420.937	540.49
421.145	612.17
421.353	618.32
421.561	587.6
421.769	591.69
421.977	603.98
422.185	636.75
422.393	747.34
422.601	675.66
422.809	638.8
423.017	675.66
423.224	800.59
423.432	796.49
423.64	710.47
423.848	894.79
424.056	790.35
424.263	816.97
424.471	991.05
424.679	882.5
424.887	956.23
425.094	960.33
425.302	952.13
425.51	1111.88
425.718	1023.81
425.925	978.76
426.133	1089.35
426.341	1208.13
426.548	1105.73
426.756	1169.22
426.964	1201.99
427.171	1269.57
427.379	1296.19
427.586	1341.25
427.794	1408.83
428.001	1365.82
428.209	1474.37
428.417	1517.37
428.624	1576.77
428.832	1492.8
429.039	1558.33
429.247	1580.86
429.454	1718.08
429.662	1771.32
429.869	1697.6
430.076	1933.11
430.284	1849.15
430.491	1861.43
430.699	1939.26
430.906	1996.6
431.114	2086.71
431.321	2176.82
431.528	2170.68
431.736	2156.34
431.943	2316.08
432.15	2225.97
432.358	2252.59
432.565	2443.06
432.772	2455.34
432.979	2561.84
433.187	2570.03
433.394	2506.54
433.601	2819.88
433.808	2656.04
434.016	2688.81
434.223	2725.68
434.43	3092.26
434.637	3018.54
434.844	3143.46
435.052	3225.38
435.259	3297.06
435.466	3143.46
435.673	3184.42
435.88	3376.93
436.087	3524.38
436.294	3585.82
436.501	3403.55
436.708	3594.01
436.915	3649.31
437.122	3815.2
437.329	3751.71
437.537	3985.18
437.743	3958.55
437.95	4005.66
438.157	4253.46
438.364	4306.71
438.571	4376.34
438.778	4275.99
438.985	4798.22
439.192	4603.66
439.399	4687.63
439.606	4527.89
439.813	4718.35
440.02	5089.03
440.227	4972.3
440.433	5148.42
440.64	5058.31
440.847	5080.84
441.054	5248.77
441.261	5519.11
441.467	5590.78
441.674	5582.59
441.881	5791.48
442.088	5846.78
442.294	5953.27
442.501	6121.21
442.708	6231.8
442.914	6305.53
443.121	6684.4
443.328	6459.12
443.534	6766.32
443.741	6797.04
443.948	6610.67
444.154	7130.86
444.361	7137
444.568	7077.61
444.774	7192.3
444.981	7206.63
445.187	7501.54
445.394	7712.48
445.6	7603.94
445.807	8113.88
446.013	8001.24
446.22	7827.17
446.426	8390.36
446.633	8546
446.839	8883.92
447.046	8443.6
447.252	8732.37
447.459	8767.18
447.665	8828.62
447.871	9598.66
448.078	9750.21
448.284	8957.64
448.491	9373.38
448.697	9664.19
448.903	9991.87
449.11	10178.23
449.316	10028.73
449.522	9922.24
449.728	10251.96
449.935	10372.79
450.141	10688.18
450.347	10608.31
450.553	10192.57
450.76	10327.74
450.966	10632.88
451.172	10528.44
451.378	10827.44
451.584	10598.07
451.791	10696.37
451.997	10823.34
452.203	11259.56
452.409	10862.26
452.615	10917.55
452.821	10458.81
453.027	10276.54
453.233	10845.87
453.44	10458.81
453.646	10389.17
453.852	10532.53
454.058	10610.36
454.264	10387.13
454.47	10811.06
454.676	10497.72
454.882	10868.4
455.088	10028.73
455.294	10108.6
455.5	10096.32
455.705	10264.25
455.911	9799.36
456.117	9522.88
456.323	9344.71
456.529	8982.22
456.735	9176.78
456.941	9019.08
457.147	9043.66
457.352	8490.71
457.558	8615.63
457.764	8617.68
457.97	8314.58
458.176	8216.28
458.381	8326.87
458.587	7745.25
458.793	7784.16
458.999	7347.94
459.204	8201.94
459.41	7741.15
459.616	7343.85
459.821	7208.68
460.027	7251.69
460.233	7223.02
460.438	6631.15
460.644	6754.03
460.85	6594.29
461.055	6354.68
461.261	6323.96
461.466	5910.27
461.672	5732.09
461.878	6123.26
462.083	5660.41
462.289	5553.92
462.494	5572.35
462.7	5246.73
462.905	5220.1
463.111	5322.5
463.316	5461.76
463.522	5359.36
463.727	5373.7
463.932	5361.41
464.138	5402.37
464.343	5158.66
464.549	5203.72
464.754	5320.45
464.959	5240.58
465.165	5216.01
465.37	5140.23
465.575	5048.07
465.781	5084.94
465.986	5054.22
466.191	4984.59
466.397	4865.8
466.602	4495.12
466.807	4800.27
467.012	4839.18
467.218	4726.54
467.423	4865.8
467.628	4704.01
467.833	4820.75
468.038	4640.53
468.244	4560.66
468.449	4792.08
468.654	4574.99
468.859	4597.52
469.064	4636.43
469.269	4527.89
469.474	4513.55
469.679	4417.3
