Data from USB4F104151__127__13-57-58-217.txt Node

Date: Thu Mar 13 13:57:58 EDT 2025
User: louis
Spectrometer: USB4F10415
Trigger mode: 4
Integration Time (sec): 1.000000E-2
Scans to average: 1
Electric dark correction enabled: true
Nonlinearity correction enabled: false
Boxcar width: 0
XAxis mode: Wavelengths
Number of Pixels in Spectrum: 3648
>>>>>Begin Spectral Data<<<<<
178.204	-64.17
178.424	-64.17
178.644	-64.17
178.864	-74.41
179.084	-82.6
179.304	-6.83
179.524	-15.02
179.744	-6.83
179.964	1.37
180.184	-23.21
180.404	58.71
180.624	-39.59
180.844	-43.69
181.064	21.85
181.283	60.76
181.503	-53.93
181.723	46.42
181.943	38.23
182.163	-15.02
182.383	-21.16
182.602	13.65
182.822	-64.17
183.042	-15.02
183.262	-19.11
183.482	23.89
183.701	-10.92
183.921	64.85
184.141	-27.31
184.361	-45.74
184.58	-19.11
184.8	-45.74
185.02	-31.4
185.239	68.95
185.459	-31.4
185.679	17.75
185.898	-23.21
186.118	15.7
186.338	-15.02
186.557	1.37
186.777	-33.45
186.997	11.61
187.216	5.46
187.436	32.08
187.655	-4.78
187.875	25.94
188.095	-27.31
188.314	46.42
188.534	1.37
188.753	-21.16
188.973	-43.69
189.192	-4.78
189.412	-2.73
189.631	-37.55
189.851	-58.03
190.07	34.13
190.29	-88.75
190.509	56.66
190.729	-33.45
190.948	23.89
191.168	50.52
191.387	-19.11
191.607	-29.35
191.826	3.41
192.045	-41.64
192.265	25.94
192.484	17.75
192.704	-51.88
192.923	-72.36
193.142	11.61
193.362	25.94
193.581	73.04
193.8	-25.26
194.02	46.42
194.239	-49.83
194.458	-33.45
194.678	-84.65
194.897	5.46
195.116	1.37
195.335	36.18
195.555	-2.73
195.774	27.99
195.993	15.7
196.212	50.52
196.432	-27.31
196.651	-0.68
196.87	-70.31
197.089	36.18
197.308	-23.21
197.528	42.32
197.747	-66.22
197.966	34.13
198.185	1.37
198.404	21.85
198.623	-72.36
198.842	-51.88
199.062	11.61
199.281	-25.26
199.5	3.41
199.719	-19.11
199.938	-74.41
200.157	-72.36
200.376	-10.92
200.595	73.04
200.814	-27.31
201.033	30.04
201.252	-25.26
201.471	-27.31
201.69	-47.79
201.909	17.75
202.128	32.08
202.347	3.41
202.566	11.61
202.785	-17.07
203.004	-82.6
203.223	19.8
203.442	-37.55
203.661	5.46
203.879	64.85
204.098	38.23
204.317	15.7
204.536	27.99
204.755	23.89
204.974	73.04
205.193	-90.79
205.411	-64.17
205.63	-31.4
205.849	50.52
206.068	34.13
206.287	-29.35
206.505	-2.73
206.724	-0.68
206.943	44.37
207.162	5.46
207.381	32.08
207.599	40.28
207.818	-10.92
208.037	-55.98
208.255	-31.4
208.474	58.71
208.693	32.08
208.911	30.04
209.13	-43.69
209.349	-2.73
209.567	48.47
209.786	54.61
210.005	9.56
210.223	-19.11
210.442	-6.83
210.661	40.28
210.879	50.52
211.098	-19.11
211.316	11.61
211.535	19.8
211.753	-21.16
211.972	-27.31
212.191	-37.55
212.409	54.61
212.628	-15.02
212.846	-43.69
213.065	9.56
213.283	7.51
213.502	-58.03
213.72	-15.02
213.938	-21.16
214.157	-15.02
214.375	3.41
214.594	-6.83
214.812	-2.73
215.031	15.7
215.249	-12.97
215.467	-27.31
215.686	124.24
215.904	-25.26
216.122	-68.27
216.341	42.32
216.559	54.61
216.778	-15.02
216.996	77.14
217.214	15.7
217.432	-60.07
217.651	-10.92
217.869	19.8
218.087	-17.07
218.306	-70.31
218.524	-4.78
218.742	-8.87
218.96	7.51
219.179	-58.03
219.397	-19.11
219.615	30.04
219.833	25.94
220.051	11.61
220.27	9.56
220.488	-23.21
220.706	-58.03
220.924	-4.78
221.142	-45.74
221.36	38.23
221.578	-19.11
221.796	38.23
222.015	38.23
222.233	-19.11
222.451	-31.4
222.669	-2.73
222.887	3.41
223.105	23.89
223.323	-8.87
223.541	-2.73
223.759	1.37
223.977	38.23
224.195	-47.79
224.413	17.75
224.631	19.8
224.849	-2.73
225.067	62.8
225.285	-15.02
225.503	-15.02
225.721	-45.74
225.939	-19.11
226.157	44.37
226.375	23.89
226.592	-35.5
226.81	-0.68
227.028	40.28
227.246	1.37
227.464	-47.79
227.682	-31.4
227.9	-6.83
228.117	23.89
228.335	25.94
228.553	15.7
228.771	-64.17
228.989	62.8
229.206	34.13
229.424	46.42
229.642	23.89
229.86	58.71
230.077	-47.79
230.295	-49.83
230.513	54.61
230.731	17.75
230.948	-33.45
231.166	42.32
231.384	-37.55
231.601	-2.73
231.819	-43.69
232.037	71
232.254	-105.13
232.472	-49.83
232.689	-33.45
232.907	11.61
233.125	-49.83
233.342	-0.68
233.56	5.46
233.777	-21.16
233.995	-37.55
234.213	68.95
234.43	32.08
234.648	17.75
234.865	-29.35
235.083	-25.26
235.3	-84.65
235.518	17.75
235.735	46.42
235.953	56.66
236.17	-43.69
236.388	-43.69
236.605	-4.78
236.822	81.24
237.04	-35.5
237.257	52.56
237.475	-6.83
237.692	-39.59
237.909	40.28
238.127	15.7
238.344	-4.78
238.562	-55.98
238.779	-53.93
238.996	-37.55
239.214	-58.03
239.431	54.61
239.648	-92.84
239.865	-64.17
240.083	30.04
240.3	46.42
240.517	54.61
240.735	77.14
240.952	56.66
241.169	46.42
241.386	-49.83
241.603	-12.97
241.821	-12.97
242.038	81.24
242.255	15.7
242.472	58.71
242.689	-43.69
242.907	-2.73
243.124	-33.45
243.341	-37.55
243.558	52.56
243.775	-66.22
243.992	-25.26
244.209	-55.98
244.426	-60.07
244.643	7.51
244.86	34.13
245.078	13.65
245.295	-10.92
245.512	1.37
245.729	54.61
245.946	9.56
246.163	15.7
246.38	15.7
246.597	52.56
246.814	34.13
247.031	19.8
247.248	21.85
247.464	-10.92
247.681	64.85
247.898	-10.92
248.115	-62.12
248.332	-15.02
248.549	46.42
248.766	3.41
248.983	-0.68
249.2	-33.45
249.417	-23.21
249.633	-0.68
249.85	34.13
250.067	25.94
250.284	75.09
250.501	-4.78
250.717	1.37
250.934	40.28
251.151	15.7
251.368	-49.83
251.585	17.75
251.801	-33.45
252.018	-43.69
252.235	15.7
252.451	-88.75
252.668	-2.73
252.885	-33.45
253.102	46.42
253.318	-35.5
253.535	9.56
253.752	-2.73
253.968	21.85
254.185	44.37
254.401	15.7
254.618	7.51
254.835	-4.78
255.051	62.8
255.268	42.32
255.484	-35.5
255.701	9.56
255.917	50.52
256.134	-21.16
256.351	-58.03
256.567	-43.69
256.784	17.75
257	-25.26
257.217	-12.97
257.433	34.13
257.65	-10.92
257.866	-21.16
258.082	-31.4
258.299	21.85
258.515	21.85
258.732	13.65
258.948	64.85
259.165	-0.68
259.381	17.75
259.597	5.46
259.814	-21.16
260.03	-21.16
260.246	34.13
260.463	81.24
260.679	-25.26
260.895	7.51
261.112	19.8
261.328	-19.11
261.544	40.28
261.761	36.18
261.977	7.51
262.193	-29.35
262.409	23.89
262.626	79.19
262.842	15.7
263.058	-25.26
263.274	11.61
263.49	44.37
263.707	-15.02
263.923	-12.97
264.139	1.37
264.355	34.13
264.571	34.13
264.787	-15.02
265.004	-39.59
265.22	-15.02
265.436	-2.73
265.652	15.7
265.868	-2.73
266.084	-55.98
266.3	83.28
266.516	-15.02
266.732	56.66
266.948	44.37
267.164	40.28
267.38	5.46
267.596	58.71
267.812	1.37
268.028	54.61
268.244	50.52
268.46	21.85
268.676	32.08
268.892	32.08
269.108	-8.87
269.324	-31.4
269.54	-33.45
269.756	23.89
269.972	54.61
270.188	-41.64
270.403	7.51
270.619	-17.07
270.835	-2.73
271.051	5.46
271.267	-2.73
271.483	42.32
271.698	5.46
271.914	21.85
272.13	23.89
272.346	85.33
272.562	-68.27
272.777	3.41
272.993	17.75
273.209	13.65
273.425	3.41
273.64	23.89
273.856	-10.92
274.072	64.85
274.287	3.41
274.503	21.85
274.719	-0.68
274.934	-23.21
275.15	38.23
275.366	-64.17
275.581	-25.26
275.797	-8.87
276.012	5.46
276.228	1.37
276.444	23.89
276.659	71
276.875	68.95
277.09	-4.78
277.306	-4.78
277.521	-37.55
277.737	68.95
277.952	-27.31
278.168	1.37
278.383	1.37
278.599	-29.35
278.814	-19.11
279.03	48.47
279.245	42.32
279.461	-41.64
279.676	-35.5
279.892	-45.74
280.107	9.56
280.322	-70.31
280.538	23.89
280.753	-4.78
280.969	23.89
281.184	-10.92
281.399	27.99
281.615	3.41
281.83	54.61
282.045	-6.83
282.26	-8.87
282.476	-10.92
282.691	-51.88
282.906	32.08
283.122	23.89
283.337	46.42
283.552	21.85
283.767	71
283.983	13.65
284.198	81.24
284.413	17.75
284.628	-39.59
284.843	34.13
285.058	15.7
285.274	27.99
285.489	5.46
285.704	38.23
285.919	-15.02
286.134	42.32
286.349	-37.55
286.564	13.65
286.779	-31.4
286.995	-21.16
287.21	-19.11
287.425	42.32
287.64	-6.83
287.855	34.13
288.07	25.94
288.285	17.75
288.5	19.8
288.715	38.23
288.93	36.18
289.145	-72.36
289.36	21.85
289.575	-19.11
289.79	48.47
290.004	7.51
290.219	-8.87
290.434	-27.31
290.649	-12.97
290.864	-27.31
291.079	9.56
291.294	19.8
291.509	42.32
291.724	-41.64
291.938	-47.79
292.153	11.61
292.368	-21.16
292.583	34.13
292.798	50.52
293.012	1.37
293.227	-15.02
293.442	42.32
293.657	50.52
293.871	-8.87
294.086	-35.5
294.301	21.85
294.516	77.14
294.73	-17.07
294.945	-17.07
295.16	15.7
295.374	7.51
295.589	85.33
295.804	-21.16
296.018	30.04
296.233	13.65
296.447	-6.83
296.662	23.89
296.877	9.56
297.091	32.08
297.306	32.08
297.52	-17.07
297.735	71
297.949	-0.68
298.164	7.51
298.378	17.75
298.593	11.61
298.807	34.13
299.022	-74.41
299.236	5.46
299.451	3.41
299.665	-82.6
299.88	-35.5
300.094	-27.31
300.309	34.13
300.523	-27.31
300.737	17.75
300.952	-49.83
301.166	71
301.381	-37.55
301.595	-25.26
301.809	-68.27
302.024	-21.16
302.238	40.28
302.452	58.71
302.667	-51.88
302.881	40.28
303.095	-43.69
303.309	60.76
303.524	-25.26
303.738	54.61
303.952	23.89
304.166	15.7
304.381	46.42
304.595	-12.97
304.809	38.23
305.023	89.43
305.237	73.04
305.452	5.46
305.666	95.57
305.88	-21.16
306.094	-25.26
306.308	-2.73
306.522	-27.31
306.736	30.04
306.95	-2.73
307.164	50.52
307.379	-17.07
307.593	30.04
307.807	11.61
308.021	-15.02
308.235	-23.21
308.449	-4.78
308.663	-23.21
308.877	85.33
309.091	5.46
309.305	13.65
309.519	13.65
309.733	-15.02
309.947	-96.94
310.161	46.42
310.374	-4.78
310.588	-0.68
310.802	-33.45
311.016	-21.16
311.23	-33.45
311.444	-0.68
311.658	3.41
311.872	23.89
312.085	19.8
312.299	38.23
312.513	32.08
312.727	56.66
312.941	23.89
313.154	60.76
313.368	-17.07
313.582	-51.88
313.796	-17.07
314.009	-8.87
314.223	15.7
314.437	25.94
314.651	-12.97
314.864	75.09
315.078	-23.21
315.292	-6.83
315.505	38.23
315.719	101.72
315.933	21.85
316.146	-45.74
316.36	13.65
316.573	-2.73
316.787	9.56
317.001	5.46
317.214	7.51
317.428	30.04
317.641	25.94
317.855	34.13
318.068	-29.35
318.282	-2.73
318.495	17.75
318.709	5.46
318.922	9.56
319.136	42.32
319.349	-31.4
319.563	38.23
319.776	-78.51
319.99	15.7
320.203	-0.68
320.417	-17.07
320.63	-19.11
320.843	-2.73
321.057	-2.73
321.27	54.61
321.483	-8.87
321.697	7.51
321.91	7.51
322.124	36.18
322.337	21.85
322.55	1.37
322.763	-23.21
322.977	1.37
323.19	-0.68
323.403	-37.55
323.617	38.23
323.83	7.51
324.043	1.37
324.256	40.28
324.469	-10.92
324.683	95.57
324.896	56.66
325.109	-29.35
325.322	17.75
325.535	-31.4
325.748	30.04
325.962	-23.21
326.175	-0.68
326.388	120.15
326.601	-51.88
326.814	11.61
327.027	-6.83
327.24	73.04
327.453	25.94
327.666	54.61
327.879	48.47
328.092	34.13
328.305	-49.83
328.518	13.65
328.731	11.61
328.944	-2.73
329.157	32.08
329.37	-2.73
329.583	81.24
329.796	3.41
330.009	-19.11
330.222	11.61
330.435	5.46
330.648	25.94
330.861	83.28
331.073	-15.02
331.286	105.81
331.499	79.19
331.712	-21.16
331.925	15.7
332.138	34.13
332.35	-2.73
332.563	48.47
332.776	44.37
332.989	54.61
333.202	-35.5
333.414	-17.07
333.627	-8.87
333.84	19.8
334.053	38.23
334.265	15.7
334.478	54.61
334.691	-10.92
334.903	25.94
335.116	54.61
335.329	66.9
335.541	5.46
335.754	-31.4
335.966	19.8
336.179	1.37
336.392	-8.87
336.604	13.65
336.817	13.65
337.029	9.56
337.242	1.37
337.454	-35.5
337.667	-74.41
337.88	52.56
338.092	-84.65
338.305	-23.21
338.517	52.56
338.729	34.13
338.942	-35.5
339.154	3.41
339.367	-6.83
339.579	-23.21
339.792	23.89
340.004	73.04
340.217	7.51
340.429	30.04
340.641	-66.22
340.854	52.56
341.066	-27.31
341.278	25.94
341.491	68.95
341.703	56.66
341.915	5.46
342.128	17.75
342.34	-23.21
342.552	19.8
342.764	-0.68
342.977	-29.35
343.189	11.61
343.401	-10.92
343.613	7.51
343.826	21.85
344.038	-47.79
344.25	-23.21
344.462	-47.79
344.674	-12.97
344.886	-17.07
345.099	38.23
345.311	-33.45
345.523	-2.73
345.735	21.85
345.947	-72.36
346.159	-51.88
346.371	120.15
346.583	-0.68
346.795	23.89
347.007	-31.4
347.219	27.99
347.431	-60.07
347.643	-12.97
347.855	11.61
348.067	13.65
348.279	-2.73
348.491	58.71
348.703	-19.11
348.915	30.04
349.127	42.32
349.339	75.09
349.551	-70.31
349.763	-8.87
349.975	38.23
350.187	73.04
350.399	5.46
350.61	17.75
350.822	9.56
351.034	21.85
351.246	-25.26
351.458	87.38
351.669	36.18
351.881	91.48
352.093	36.18
352.305	17.75
352.517	-94.89
352.728	-2.73
352.94	81.24
353.152	-2.73
353.363	19.8
353.575	36.18
353.787	-2.73
353.999	21.85
354.21	-29.35
354.422	25.94
354.633	15.7
354.845	79.19
355.057	50.52
355.268	1.37
355.48	7.51
355.692	42.32
355.903	-33.45
356.115	36.18
356.326	-37.55
356.538	-0.68
356.749	5.46
356.961	83.28
357.172	27.99
357.384	44.37
357.595	19.8
357.807	-51.88
358.018	-27.31
358.23	40.28
358.441	7.51
358.653	13.65
358.864	11.61
359.075	-2.73
359.287	21.85
359.498	38.23
359.709	71
359.921	-25.26
360.132	-41.64
360.344	23.89
360.555	3.41
360.766	-0.68
360.977	-74.41
361.189	58.71
361.4	-29.35
361.611	42.32
361.823	128.34
362.034	30.04
362.245	79.19
362.456	23.89
362.667	79.19
362.879	25.94
363.09	1.37
363.301	7.51
363.512	32.08
363.723	7.51
363.935	11.61
364.146	83.28
364.357	-43.69
364.568	34.13
364.779	1.37
364.99	38.23
365.201	9.56
365.412	3.41
365.623	11.61
365.834	-47.79
366.045	-41.64
366.256	56.66
366.467	68.95
366.678	-58.03
366.889	68.95
367.1	-8.87
367.311	83.28
367.522	-33.45
367.733	7.51
367.944	-41.64
368.155	-35.5
368.366	-19.11
368.577	58.71
368.788	68.95
368.999	21.85
369.209	27.99
369.42	-6.83
369.631	-19.11
369.842	75.09
370.053	19.8
370.264	56.66
370.474	15.7
370.685	27.99
370.896	60.76
371.107	46.42
371.317	36.18
371.528	15.7
371.739	91.48
371.95	42.32
372.16	1.37
372.371	11.61
372.582	9.56
372.792	21.85
373.003	23.89
373.214	64.85
373.424	79.19
373.635	5.46
373.846	89.43
374.056	7.51
374.267	-25.26
374.477	15.7
374.688	21.85
374.898	58.71
375.109	19.8
375.319	19.8
375.53	17.75
375.74	71
375.951	23.89
376.161	27.99
376.372	5.46
376.582	58.71
376.793	44.37
377.003	27.99
377.214	17.75
377.424	-0.68
377.635	-4.78
377.845	-41.64
378.055	38.23
378.266	40.28
378.476	-8.87
378.686	9.56
378.897	-17.07
379.107	30.04
379.317	-6.83
379.528	54.61
379.738	-2.73
379.948	-47.79
380.158	56.66
380.369	81.24
380.579	5.46
380.789	60.76
380.999	23.89
381.21	34.13
381.42	71
381.63	30.04
381.84	23.89
382.05	46.42
382.261	7.51
382.471	56.66
382.681	9.56
382.891	42.32
383.101	66.9
383.311	87.38
383.521	5.46
383.731	83.28
383.941	54.61
384.151	23.89
384.361	21.85
384.571	54.61
384.781	9.56
384.991	32.08
385.201	-8.87
385.411	30.04
385.621	87.38
385.831	21.85
386.041	56.66
386.251	-21.16
386.461	44.37
386.671	62.8
386.881	5.46
387.091	66.9
387.301	-17.07
387.511	32.08
387.72	17.75
387.93	-2.73
388.14	42.32
388.35	25.94
388.56	75.09
388.769	62.8
388.979	-19.11
389.189	-31.4
389.399	93.52
389.609	44.37
389.818	-0.68
390.028	21.85
390.238	81.24
390.447	25.94
390.657	103.76
390.867	-6.83
391.076	122.2
391.286	71
391.496	58.71
391.705	1.37
391.915	9.56
392.125	132.44
392.334	-10.92
392.544	19.8
392.753	71
392.963	48.47
393.172	13.65
393.382	21.85
393.591	48.47
393.801	48.47
394.01	105.81
394.22	9.56
394.429	1.37
394.639	21.85
394.848	83.28
395.058	91.48
395.267	79.19
395.477	56.66
395.686	73.04
395.895	36.18
396.105	50.52
396.314	40.28
396.524	71
396.733	50.52
396.942	64.85
397.152	79.19
397.361	89.43
397.57	71
397.78	13.65
397.989	136.53
398.198	122.2
398.407	93.52
398.617	68.95
398.826	111.96
399.035	68.95
399.244	21.85
399.453	64.85
399.663	40.28
399.872	36.18
400.081	89.43
400.29	146.77
400.499	87.38
400.708	15.7
400.917	15.7
401.127	130.39
401.336	42.32
401.545	89.43
401.754	73.04
401.963	71
402.172	38.23
402.381	27.99
402.59	97.62
402.799	60.76
403.008	118.1
403.217	144.72
403.426	68.95
403.635	140.63
403.844	130.39
404.053	71
404.262	101.72
404.471	150.87
404.68	95.57
404.888	71
405.097	101.72
405.306	95.57
405.515	93.52
405.724	116.05
405.933	81.24
406.142	142.68
406.35	159.06
406.559	136.53
406.768	128.34
406.977	159.06
407.185	177.49
407.394	103.76
407.603	173.39
407.812	189.78
408.02	107.86
408.229	185.68
408.438	193.87
408.646	171.35
408.855	183.63
409.064	181.59
409.272	212.31
409.481	275.79
409.69	243.03
409.898	230.74
410.107	265.55
410.315	259.41
410.524	224.59
410.733	210.26
410.941	290.13
411.15	253.27
411.358	294.22
411.567	326.99
411.775	310.61
411.984	406.86
412.192	353.62
412.401	357.71
412.609	423.25
412.818	488.78
413.026	392.53
413.234	406.86
413.443	417.1
413.651	417.1
413.86	429.39
414.068	496.97
414.276	501.07
414.485	456.01
414.693	580.94
414.901	517.45
415.11	585.04
415.318	677.2
415.526	660.81
415.734	591.18
415.943	669
416.151	687.43
416.359	701.77
416.567	759.11
416.776	838.98
416.984	822.6
417.192	845.13
417.4	902.47
417.608	855.37
417.817	892.23
418.025	1000.77
418.233	1006.92
418.441	986.44
418.649	1021.25
418.857	1117.51
419.065	1058.12
419.273	1115.46
419.481	1293.63
419.689	1144.13
419.897	1297.73
420.105	1359.17
420.313	1332.55
420.521	1443.14
420.729	1447.23
420.937	1469.76
421.145	1596.73
421.353	1582.4
421.561	1713.47
421.769	1731.9
421.977	1830.2
422.185	1758.52
422.393	1850.68
422.601	2084.15
422.809	2002.23
423.017	2030.9
423.224	2100.53
423.432	2161.97
423.64	2200.88
423.848	2364.72
424.056	2260.27
424.263	2528.56
424.471	2463.02
424.679	2438.45
424.887	2751.79
425.094	2757.93
425.302	2741.55
425.51	2755.88
425.718	2975.02
425.925	2915.62
426.133	3052.84
426.341	3214.63
426.548	3470.62
426.756	3446.05
426.964	3595.55
427.171	3695.9
427.379	3792.16
427.586	3786.01
427.794	3966.23
428.001	4093.21
428.209	4207.89
428.417	4197.65
428.624	4576.53
428.832	4535.57
429.039	4594.96
429.247	4476.18
429.454	4781.32
429.662	5311.75
429.869	4826.38
430.076	5313.8
430.284	5188.87
430.491	5186.82
430.699	5485.83
430.906	5629.18
431.114	5692.67
431.321	5831.93
431.528	6157.56
431.736	6477.04
431.943	6706.41
432.15	6599.92
432.358	6579.44
432.565	6956.27
432.772	6986.99
432.979	7404.77
433.187	7476.45
433.394	7582.95
433.601	7879.9
433.808	7945.44
434.016	7849.18
434.223	8271.06
434.43	8791.25
434.637	8619.22
434.844	9247.94
435.052	9370.82
435.259	8994
435.466	9415.88
435.673	9331.91
435.88	9968.83
436.087	10482.87
436.294	10353.85
436.501	10042.56
436.708	10247.35
436.915	10622.13
437.122	10990.77
437.329	11197.61
437.537	11547.81
437.743	11644.07
437.95	11588.77
438.157	12127.39
438.364	12506.26
438.571	12520.6
438.778	12448.92
438.985	13712.52
439.192	13235.34
439.399	13587.59
439.606	13380.75
439.813	14435.45
440.02	15195.25
440.227	14687.35
440.433	14220.41
440.64	15195.25
440.847	14914.67
441.054	15404.14
441.261	16116.83
441.467	16034.91
441.674	16397.4
441.881	17218.64
442.088	16960.59
442.294	16768.09
442.501	17364.04
442.708	17564.75
442.914	18361.41
443.121	19035.19
443.328	18543.67
443.534	19694.63
443.741	19088.43
443.948	19084.34
444.154	20270.11
444.361	20288.54
444.568	20360.22
444.774	20309.02
444.981	20743.19
445.187	21199.89
445.394	21957.64
445.6	21783.56
445.807	24165.35
446.013	22838.26
446.22	23325.68
446.426	24099.81
446.633	24472.54
446.839	25248.72
447.046	24267.75
447.252	25488.34
447.459	25852.87
447.665	25519.06
447.871	26571.71
448.078	27937.71
448.284	26395.59
448.491	27126.71
448.697	28158.89
448.903	28705.7
449.11	28804
449.316	28281.77
449.522	28607.39
449.728	29596.56
449.935	29649.81
450.141	29930.38
450.347	30423.94
450.553	29506.45
450.76	29692.82
450.966	31073.15
451.172	30395.27
451.378	31241.08
451.584	30667.65
451.791	31269.75
451.997	31341.43
452.203	31845.23
452.409	31845.23
452.615	31579
452.821	30264.2
453.027	29971.34
453.233	31619.95
453.44	30307.21
453.646	30520.2
453.852	30892.93
454.058	31329.14
454.264	30165.9
454.47	30976.89
454.676	30399.37
454.882	31185.79
455.088	28593.06
455.294	29096.86
455.5	29492.12
455.705	29647.76
455.911	28865.44
456.117	27960.23
456.323	27612.08
456.529	26059.72
456.735	27646.9
456.941	26889.15
457.147	26356.68
457.352	25269.2
457.558	25035.74
457.764	25228.24
457.97	24794.07
458.176	23993.32
458.381	24249.32
458.587	22852.6
458.793	22744.06
458.999	21654.54
459.204	23114.74
459.41	22608.89
459.616	20947.99
459.821	21220.37
460.027	20943.89
460.233	20923.41
460.438	19274.8
460.644	20087.84
460.85	18644.02
461.055	18699.32
461.261	18740.28
461.466	17523.79
461.672	16741.46
461.878	17923.14
462.083	16933.97
462.289	16583.77
462.494	16227.42
462.7	15840.36
462.905	15029.36
463.111	15377.51
463.316	15701.09
463.522	15490.15
463.727	15488.1
463.932	15541.35
464.138	15230.06
464.343	15393.9
464.549	14763.12
464.754	15314.03
464.959	15309.93
465.165	15015.02
465.37	14261.37
465.575	14249.08
465.781	14693.49
465.986	14834.8
466.191	14326.91
466.397	13603.97
466.602	13116.56
466.807	13505.67
467.012	13603.97
467.218	13630.6
