Data from USB4F104151__179__13-59-01-351.txt Node

Date: Thu Mar 13 13:59:01 EDT 2025
User: louis
Spectrometer: USB4F10415
Trigger mode: 4
Integration Time (sec): 1.000000E-2
Scans to average: 1
Electric dark correction enabled: true
Nonlinearity correction enabled: false
Boxcar width: 0
XAxis mode: Wavelengths
Number of Pixels in Spectrum: 3648
>>>>>Begin Spectral Data<<<<<
178.204	-8.7
178.424	-8.7
178.644	-8.7
178.864	-90.62
179.084	-51.71
179.304	-20.99
179.524	13.82
179.744	17.92
179.964	9.73
180.184	-8.7
180.404	26.11
180.624	26.11
180.844	1.54
181.064	-20.99
181.283	24.06
181.503	-53.76
181.723	-14.85
181.943	-82.43
182.163	38.4
182.383	-18.94
182.602	1.54
182.822	38.4
183.042	-25.09
183.262	89.6
183.482	52.74
183.701	7.68
183.921	30.21
184.141	1.54
184.361	-8.7
184.58	73.21
184.8	11.78
185.02	-74.24
185.239	26.11
185.459	3.58
185.679	56.83
185.898	50.69
186.118	-27.14
186.338	-10.75
186.557	5.63
186.777	-12.8
186.997	26.11
187.216	48.64
187.436	95.74
187.655	24.06
187.875	-39.42
188.095	-31.23
188.314	38.4
188.534	75.26
188.753	-43.52
188.973	-53.76
189.192	30.21
189.412	22.02
189.631	95.74
189.851	62.98
190.07	46.59
190.29	-12.8
190.509	75.26
190.729	-10.75
190.948	9.73
191.168	103.93
191.387	-0.51
191.607	75.26
191.826	22.02
192.045	-16.9
192.265	60.93
192.484	-8.7
192.704	128.51
192.923	38.4
193.142	103.93
193.362	56.83
193.581	5.63
193.8	22.02
194.02	-2.56
194.239	50.69
194.458	50.69
194.678	30.21
194.897	17.92
195.116	48.64
195.335	54.78
195.555	28.16
195.774	32.26
195.993	32.26
196.212	32.26
196.432	-18.94
196.651	54.78
196.87	-51.71
197.089	-35.33
197.308	13.82
197.528	73.21
197.747	-76.29
197.966	62.98
198.185	122.37
198.404	46.59
198.623	60.93
198.842	60.93
199.062	32.26
199.281	85.5
199.5	15.87
199.719	-33.28
199.938	22.02
200.157	75.26
200.376	-27.14
200.595	30.21
200.814	81.41
201.033	-10.75
201.252	-18.94
201.471	13.82
201.69	-31.23
201.909	46.59
202.128	-51.71
202.347	-33.28
202.566	-35.33
202.785	24.06
203.004	22.02
203.223	95.74
203.442	34.3
203.661	46.59
203.879	-16.9
204.098	32.26
204.317	-8.7
204.536	17.92
204.755	30.21
204.974	17.92
205.193	24.06
205.411	101.89
205.63	-16.9
205.849	40.45
206.068	32.26
206.287	69.12
206.505	26.11
206.724	30.21
206.943	32.26
207.162	15.87
207.381	3.58
207.599	34.3
207.818	34.3
208.037	-10.75
208.255	-35.33
208.474	9.73
208.693	17.92
208.911	87.55
209.13	-64
209.349	71.17
209.567	71.17
209.786	19.97
210.005	56.83
210.223	110.08
210.442	-35.33
210.661	54.78
210.879	42.5
211.098	65.02
211.316	34.3
211.535	91.65
211.753	-16.9
211.972	24.06
212.191	24.06
212.409	-2.56
212.628	17.92
212.846	46.59
213.065	-39.42
213.283	3.58
213.502	-4.61
213.72	5.63
213.938	48.64
214.157	9.73
214.375	87.55
214.594	75.26
214.812	124.41
215.031	38.4
215.249	67.07
215.467	56.83
215.686	15.87
215.904	32.26
216.122	40.45
216.341	58.88
216.559	46.59
216.778	24.06
216.996	120.32
217.214	19.97
217.432	38.4
217.651	44.54
217.869	26.11
218.087	24.06
218.306	30.21
218.524	-45.57
218.742	28.16
218.96	11.78
219.179	9.73
219.397	62.98
219.615	44.54
219.833	-18.94
220.051	28.16
220.27	79.36
220.488	97.79
220.706	36.35
220.924	81.41
221.142	-43.52
221.36	7.68
221.578	-33.28
221.796	48.64
222.015	50.69
222.233	-27.14
222.451	58.88
222.669	1.54
222.887	42.5
223.105	42.5
223.323	46.59
223.541	79.36
223.759	-8.7
223.977	3.58
224.195	48.64
224.413	-14.85
224.631	48.64
224.849	34.3
225.067	-10.75
225.285	40.45
225.503	46.59
225.721	-23.04
225.939	-25.09
226.157	89.6
226.375	73.21
226.592	44.54
226.81	-4.61
227.028	13.82
227.246	56.83
227.464	-66.05
227.682	-2.56
227.9	13.82
228.117	83.45
228.335	50.69
228.553	30.21
228.771	44.54
228.989	13.82
229.206	34.3
229.424	-0.51
229.642	67.07
229.86	13.82
230.077	13.82
230.295	46.59
230.513	91.65
230.731	38.4
230.948	32.26
231.166	-47.62
231.384	26.11
231.601	-0.51
231.819	42.5
232.037	34.3
232.254	-27.14
232.472	3.58
232.689	58.88
232.907	77.31
233.125	13.82
233.342	-33.28
233.56	38.4
233.777	103.93
233.995	-10.75
234.213	1.54
234.43	5.63
234.648	44.54
234.865	32.26
235.083	71.17
235.3	-35.33
235.518	38.4
235.735	-0.51
235.953	-14.85
236.17	54.78
236.388	114.17
236.605	38.4
236.822	3.58
237.04	24.06
237.257	5.63
237.475	-4.61
237.692	28.16
237.909	22.02
238.127	13.82
238.344	87.55
238.562	-4.61
238.779	60.93
238.996	17.92
239.214	32.26
239.431	34.3
239.648	13.82
239.865	85.5
240.083	67.07
240.3	5.63
240.517	26.11
240.735	30.21
240.952	54.78
241.169	62.98
241.386	19.97
241.603	-8.7
241.821	-20.99
242.038	28.16
242.255	36.35
242.472	46.59
242.689	3.58
242.907	13.82
243.124	58.88
243.341	19.97
243.558	-2.56
243.775	-16.9
243.992	34.3
244.209	-0.51
244.426	54.78
244.643	99.84
244.86	75.26
245.078	24.06
245.295	-6.66
245.512	73.21
245.729	40.45
245.946	38.4
246.163	11.78
246.38	69.12
246.597	-6.66
246.814	75.26
247.031	-20.99
247.248	13.82
247.464	13.82
247.681	28.16
247.898	62.98
248.115	17.92
248.332	-2.56
248.549	62.98
248.766	54.78
248.983	79.36
249.2	17.92
249.417	-25.09
249.633	-2.56
249.85	81.41
250.067	1.54
250.284	22.02
250.501	-6.66
250.717	48.64
250.934	1.54
251.151	5.63
251.368	114.17
251.585	50.69
251.801	22.02
252.018	-0.51
252.235	-10.75
252.451	15.87
252.668	30.21
252.885	17.92
253.102	3.58
253.318	-6.66
253.535	32.26
253.752	13.82
253.968	-2.56
254.185	69.12
254.401	-31.23
254.618	32.26
254.835	-29.18
255.051	3.58
255.268	56.83
255.484	-6.66
255.701	28.16
255.917	5.63
256.134	40.45
256.351	40.45
256.567	-2.56
256.784	77.31
257	-10.75
257.217	32.26
257.433	5.63
257.65	87.55
257.866	87.55
258.082	-20.99
258.299	13.82
258.515	40.45
258.732	79.36
258.948	5.63
259.165	56.83
259.381	-25.09
259.597	36.35
259.814	22.02
260.03	71.17
260.246	15.87
260.463	-39.42
260.679	52.74
260.895	-43.52
261.112	58.88
261.328	32.26
261.544	19.97
261.761	75.26
261.977	24.06
262.193	30.21
262.409	36.35
262.626	-23.04
262.842	110.08
263.058	3.58
263.274	3.58
263.49	24.06
263.707	-27.14
263.923	75.26
264.139	79.36
264.355	-6.66
264.571	112.13
264.787	34.3
265.004	-8.7
265.22	99.84
265.436	71.17
265.652	9.73
265.868	65.02
266.084	7.68
266.3	65.02
266.516	7.68
266.732	71.17
266.948	62.98
267.164	58.88
267.38	24.06
267.596	24.06
267.812	58.88
268.028	65.02
268.244	46.59
268.46	44.54
268.676	15.87
268.892	17.92
269.108	-27.14
269.324	40.45
269.54	-8.7
269.756	32.26
269.972	58.88
270.188	38.4
270.403	19.97
270.619	85.5
270.835	40.45
271.051	9.73
271.267	85.5
271.483	26.11
271.698	40.45
271.914	56.83
272.13	40.45
272.346	-16.9
272.562	7.68
272.777	62.98
272.993	-4.61
273.209	87.55
273.425	56.83
273.64	46.59
273.856	77.31
274.072	48.64
274.287	48.64
274.503	-16.9
274.719	46.59
274.934	75.26
275.15	22.02
275.366	15.87
275.581	1.54
275.797	32.26
276.012	65.02
276.228	120.32
276.444	79.36
276.659	87.55
276.875	5.63
277.09	50.69
277.306	50.69
277.521	15.87
277.737	28.16
277.952	108.03
278.168	5.63
278.383	11.78
278.599	38.4
278.814	22.02
279.03	1.54
279.245	91.65
279.461	7.68
279.676	103.93
279.892	5.63
280.107	-2.56
280.322	-16.9
280.538	60.93
280.753	50.69
280.969	-18.94
281.184	3.58
281.399	-12.8
281.615	46.59
281.83	32.26
282.045	-31.23
282.26	60.93
282.476	-18.94
282.691	32.26
282.906	71.17
283.122	71.17
283.337	60.93
283.552	19.97
283.767	36.35
283.983	110.08
284.198	-25.09
284.413	9.73
284.628	24.06
284.843	54.78
285.058	67.07
285.274	15.87
285.489	3.58
285.704	65.02
285.919	13.82
286.134	65.02
286.349	28.16
286.564	34.3
286.779	5.63
286.995	9.73
287.21	-29.18
287.425	40.45
287.64	7.68
287.855	28.16
288.07	22.02
288.285	42.5
288.5	60.93
288.715	-16.9
288.93	46.59
289.145	7.68
289.36	40.45
289.575	38.4
289.79	11.78
290.004	67.07
290.219	75.26
290.434	-8.7
290.649	-12.8
290.864	79.36
291.079	28.16
291.294	95.74
291.509	7.68
291.724	62.98
291.938	15.87
292.153	56.83
292.368	54.78
292.583	83.45
292.798	-31.23
293.012	34.3
293.227	9.73
293.442	75.26
293.657	73.21
293.871	85.5
294.086	13.82
294.301	122.37
294.516	-0.51
294.73	30.21
294.945	-4.61
295.16	17.92
295.374	-8.7
295.589	13.82
295.804	-23.04
296.018	75.26
296.233	5.63
296.447	30.21
296.662	56.83
296.877	7.68
297.091	38.4
297.306	54.78
297.52	13.82
297.735	71.17
297.949	58.88
298.164	-4.61
298.378	36.35
298.593	36.35
298.807	-2.56
299.022	71.17
299.236	38.4
299.451	71.17
299.665	-55.81
299.88	101.89
300.094	11.78
300.309	42.5
300.523	38.4
300.737	52.74
300.952	11.78
301.166	-25.09
301.381	60.93
301.595	52.74
301.809	54.78
302.024	93.69
302.238	46.59
302.452	7.68
302.667	46.59
302.881	15.87
303.095	-10.75
303.309	15.87
303.524	48.64
303.738	22.02
303.952	7.68
304.166	38.4
304.381	-25.09
304.595	95.74
304.809	58.88
305.023	30.21
305.237	81.41
305.452	19.97
305.666	95.74
305.88	105.98
306.094	-29.18
306.308	73.21
306.522	28.16
306.736	38.4
306.95	165.37
307.164	9.73
307.379	32.26
307.593	95.74
307.807	122.37
308.021	56.83
308.235	62.98
308.449	46.59
308.663	19.97
308.877	62.98
309.091	13.82
309.305	56.83
309.519	-25.09
309.733	-10.75
309.947	73.21
310.161	24.06
310.374	28.16
310.588	87.55
310.802	15.87
311.016	26.11
311.23	11.78
311.444	40.45
311.658	1.54
311.872	112.13
312.085	44.54
312.299	56.83
312.513	34.3
312.727	65.02
312.941	44.54
313.154	13.82
313.368	38.4
313.582	24.06
313.796	50.69
314.009	40.45
314.223	40.45
314.437	77.31
314.651	24.06
314.864	26.11
315.078	7.68
315.292	-45.57
315.505	34.3
315.719	7.68
315.933	65.02
316.146	32.26
316.36	-25.09
316.573	-4.61
316.787	19.97
317.001	1.54
317.214	1.54
317.428	52.74
317.641	52.74
317.855	101.89
318.068	22.02
318.282	15.87
318.495	91.65
318.709	30.21
318.922	30.21
319.136	40.45
319.349	24.06
319.563	22.02
319.776	44.54
319.99	56.83
320.203	15.87
320.417	71.17
320.63	46.59
320.843	-51.71
321.057	40.45
321.27	40.45
321.483	-0.51
321.697	116.22
321.91	85.5
322.124	52.74
322.337	46.59
322.55	-53.76
322.763	77.31
322.977	15.87
323.19	91.65
323.403	3.58
323.617	5.63
323.83	17.92
324.043	32.26
324.256	54.78
324.469	71.17
324.683	77.31
324.896	19.97
325.109	26.11
325.322	-10.75
325.535	38.4
325.748	52.74
325.962	65.02
326.175	32.26
326.388	30.21
326.601	9.73
326.814	32.26
327.027	28.16
327.24	-4.61
327.453	62.98
327.666	71.17
327.879	71.17
328.092	15.87
328.305	103.93
328.518	26.11
328.731	11.78
328.944	50.69
329.157	3.58
329.37	-2.56
329.583	28.16
329.796	56.83
330.009	36.35
330.222	118.27
330.435	7.68
330.648	97.79
330.861	87.55
331.073	67.07
331.286	56.83
331.499	67.07
331.712	52.74
331.925	-8.7
332.138	54.78
332.35	-12.8
332.563	67.07
332.776	87.55
332.989	30.21
333.202	56.83
333.414	112.13
333.627	48.64
333.84	46.59
334.053	91.65
334.265	46.59
334.478	-57.86
334.691	65.02
334.903	65.02
335.116	48.64
335.329	44.54
335.541	62.98
335.754	56.83
335.966	24.06
336.179	73.21
336.392	52.74
336.604	40.45
336.817	83.45
337.029	22.02
337.242	-10.75
337.454	42.5
337.667	65.02
337.88	44.54
338.092	77.31
338.305	52.74
338.517	38.4
338.729	81.41
338.942	30.21
339.154	28.16
339.367	48.64
339.579	11.78
339.792	-14.85
340.004	38.4
340.217	7.68
340.429	44.54
340.641	40.45
340.854	15.87
341.066	58.88
341.278	105.98
341.491	71.17
341.703	1.54
341.915	97.79
342.128	5.63
342.34	-14.85
342.552	60.93
342.764	13.82
342.977	81.41
343.189	26.11
343.401	91.65
343.613	9.73
343.826	24.06
344.038	-43.52
344.25	-23.04
344.462	-43.52
344.674	99.84
344.886	5.63
345.099	58.88
345.311	13.82
345.523	13.82
345.735	26.11
345.947	-10.75
346.159	54.78
346.371	34.3
346.583	17.92
346.795	62.98
347.007	26.11
347.219	114.17
347.431	-37.38
347.643	28.16
347.855	-0.51
348.067	52.74
348.279	77.31
348.491	24.06
348.703	-88.57
348.915	34.3
349.127	19.97
349.339	28.16
349.551	24.06
349.763	22.02
349.975	65.02
350.187	95.74
350.399	126.46
350.61	-33.28
350.822	32.26
351.034	36.35
351.246	30.21
351.458	89.6
351.669	52.74
351.881	56.83
352.093	56.83
352.305	65.02
352.517	163.33
352.728	91.65
352.94	44.54
353.152	26.11
353.363	-35.33
353.575	85.5
353.787	87.55
353.999	73.21
354.21	46.59
354.422	110.08
354.633	34.3
354.845	30.21
355.057	7.68
355.268	101.89
355.48	67.07
355.692	101.89
355.903	7.68
356.115	99.84
356.326	46.59
356.538	24.06
356.749	42.5
356.961	77.31
357.172	126.46
357.384	30.21
357.595	-23.04
357.807	38.4
358.018	15.87
358.23	22.02
358.441	-27.14
358.653	56.83
358.864	34.3
359.075	19.97
359.287	46.59
359.498	108.03
359.709	34.3
359.921	40.45
360.132	44.54
360.344	65.02
360.555	69.12
360.766	11.78
360.977	-82.43
361.189	101.89
361.4	99.84
361.611	89.6
361.823	38.4
362.034	69.12
362.245	26.11
362.456	9.73
362.667	73.21
362.879	-47.62
363.09	15.87
363.301	85.5
363.512	81.41
363.723	7.68
363.935	3.58
364.146	95.74
364.357	65.02
364.568	-14.85
364.779	30.21
364.99	26.11
365.201	-0.51
365.412	60.93
365.623	54.78
365.834	65.02
366.045	52.74
366.256	-8.7
366.467	56.83
366.678	81.41
366.889	-55.81
367.1	42.5
367.311	73.21
367.522	103.93
367.733	1.54
367.944	50.69
368.155	54.78
368.366	73.21
368.577	89.6
368.788	42.5
368.999	116.22
369.209	87.55
369.42	114.17
369.631	34.3
369.842	44.54
370.053	9.73
370.264	85.5
370.474	28.16
370.685	58.88
370.896	71.17
371.107	87.55
371.317	38.4
371.528	38.4
371.739	65.02
371.95	73.21
372.16	67.07
372.371	-37.38
372.582	60.93
372.792	81.41
373.003	87.55
373.214	9.73
373.424	32.26
373.635	67.07
373.846	83.45
374.056	73.21
374.267	71.17
374.477	71.17
374.688	87.55
374.898	112.13
375.109	30.21
375.319	40.45
375.53	1.54
375.74	46.59
375.951	48.64
376.161	32.26
376.372	60.93
376.582	89.6
376.793	30.21
377.003	95.74
377.214	46.59
377.424	73.21
377.635	62.98
377.845	7.68
378.055	-6.66
378.266	65.02
378.476	17.92
378.686	13.82
378.897	50.69
379.107	5.63
379.317	62.98
379.528	17.92
379.738	105.98
379.948	95.74
380.158	5.63
380.369	97.79
380.579	-8.7
380.789	105.98
380.999	46.59
381.21	75.26
381.42	30.21
381.63	-4.61
381.84	110.08
382.05	60.93
382.261	30.21
382.471	34.3
382.681	13.82
382.891	28.16
383.101	48.64
383.311	30.21
383.521	54.78
383.731	112.13
383.941	95.74
384.151	58.88
384.361	97.79
384.571	99.84
384.781	-2.56
384.991	75.26
385.201	34.3
385.411	24.06
385.621	-27.14
385.831	97.79
386.041	73.21
386.251	46.59
386.461	46.59
386.671	79.36
386.881	28.16
387.091	65.02
387.301	103.93
387.511	-2.56
387.72	34.3
387.93	50.69
388.14	56.83
388.35	67.07
388.56	124.41
388.769	46.59
388.979	124.41
389.189	105.98
389.399	110.08
389.609	69.12
389.818	22.02
390.028	114.17
390.238	93.69
390.447	103.93
390.657	159.23
390.867	42.5
391.076	30.21
391.286	75.26
391.496	114.17
391.705	46.59
391.915	34.3
392.125	56.83
392.334	44.54
392.544	42.5
392.753	3.58
392.963	60.93
393.172	87.55
393.382	69.12
393.591	89.6
393.801	89.6
394.01	161.28
394.22	15.87
394.429	79.36
394.639	-2.56
394.848	30.21
395.058	103.93
395.267	85.5
395.477	89.6
395.686	99.84
395.895	79.36
396.105	177.66
396.314	71.17
396.524	97.79
396.733	54.78
396.942	99.84
397.152	62.98
397.361	114.17
397.57	155.13
397.78	40.45
397.989	120.32
398.198	46.59
398.407	-14.85
398.617	52.74
398.826	103.93
399.035	103.93
399.244	99.84
399.453	134.65
399.663	114.17
399.872	163.33
400.081	144.89
400.29	67.07
400.499	79.36
400.708	173.57
400.917	165.37
401.127	40.45
401.336	108.03
401.545	183.81
401.754	120.32
401.963	132.61
402.172	114.17
402.381	118.27
402.59	138.75
402.799	91.65
403.008	144.89
403.217	120.32
403.426	54.78
403.635	114.17
403.844	105.98
404.053	163.33
404.262	124.41
404.471	95.74
404.68	95.74
404.888	155.13
405.097	85.5
405.306	169.47
405.515	183.81
405.724	97.79
405.933	144.89
406.142	175.61
406.35	99.84
406.559	198.14
406.768	167.42
406.977	194.05
407.185	171.52
407.394	171.52
407.603	116.22
407.812	226.81
408.02	255.48
408.229	189.95
408.438	235
408.646	194.05
408.855	253.44
409.064	249.34
409.272	243.2
409.481	286.2
409.69	220.67
409.898	267.77
410.107	255.48
410.315	243.2
410.524	284.16
410.733	304.64
410.941	294.4
411.15	398.84
411.358	351.74
411.567	384.51
411.775	327.16
411.984	435.71
412.192	339.45
412.401	409.08
412.609	349.69
412.818	435.71
413.026	439.8
413.234	372.22
413.443	435.71
413.651	472.57
413.86	472.57
414.068	491
414.276	538.1
414.485	505.34
414.693	593.4
414.901	577.02
415.11	570.87
415.318	611.83
415.526	648.69
415.734	640.5
415.943	634.36
416.151	783.86
416.359	695.8
416.567	753.14
416.776	822.77
416.984	900.59
417.192	810.48
417.4	796.15
417.608	935.41
417.817	884.21
418.025	1041.9
418.233	1033.71
418.441	998.9
418.649	1058.29
418.857	1121.77
419.065	1179.12
419.273	1027.57
419.481	1103.34
419.689	1254.89
419.897	1295.85
420.105	1226.22
420.313	1345
420.521	1330.67
420.729	1451.5
420.937	1398.25
421.145	1582.57
421.353	1697.25
421.561	1648.1
421.769	1744.36
421.977	1707.49
422.185	1754.6
422.393	1953.25
422.601	1840.61
422.809	1893.86
423.017	1977.83
423.224	1998.31
423.432	2061.79
423.64	2151.9
423.848	2215.39
424.056	2414.04
424.263	2512.35
424.471	2428.38
424.679	2434.52
424.887	2639.32
425.094	2651.61
425.302	2717.14
425.51	2737.62
425.718	2966.99
425.925	3005.91
426.133	2977.23
426.341	3227.09
426.548	3380.68
426.756	3333.58
426.964	3261.9
427.171	3501.51
427.379	3571.15
427.586	3691.98
427.794	3845.57
428.001	3966.4
428.209	4068.8
428.417	4132.29
428.624	4376
428.832	4359.61
429.039	4359.61
429.247	4363.71
429.454	4824.5
429.662	5119.41
429.869	4718.01
430.076	5143.99
430.284	5010.87
430.491	5066.16
430.699	5629.35
430.906	5756.33
431.114	5496.24
431.321	5830.06
431.528	5981.6
431.736	6438.3
431.943	6530.46
432.15	6360.48
432.358	6415.77
432.565	6806.94
432.772	6722.97
432.979	7189.91
433.187	7230.87
433.394	7185.81
433.601	7789.96
433.808	7806.34
434.016	7687.56
434.223	8136.07
434.43	8476.03
434.637	8390.02
434.844	8799.61
435.052	9018.74
435.259	8912.25
435.466	9166.2
435.673	9045.37
435.88	9563.5
436.087	9901.42
436.294	10052.97
436.501	9663.85
436.708	10089.83
436.915	10335.59
437.122	10835.29
437.329	10857.82
437.537	11074.9
437.743	11310.42
437.95	11287.89
438.157	11941.19
438.364	12133.7
438.571	12053.83
438.778	12385.6
438.985	13442.35
439.192	12717.37
439.399	13360.44
439.606	12836.16
439.813	13671.73
440.02	14613.79
440.227	14368.04
440.433	14019.88
440.64	14605.6
440.847	14492.96
441.054	14935.32
441.261	15852.81
441.467	15777.04
441.674	16098.57
441.881	16432.39
442.088	16631.04
442.294	16299.27
442.501	16608.51
442.708	17083.64
442.914	18009.33
443.121	18543.85
443.328	17984.75
443.534	19358.94
443.741	18971.87
443.948	18617.57
444.154	20098.25
444.361	19438.81
444.568	19821.78
444.774	19985.62
444.981	20235.47
445.187	20905.15
445.394	21531.83
445.6	21300.41
445.807	23413.91
446.013	22449.32
446.22	22793.38
446.426	23534.74
446.633	23966.87
446.839	24704.14
447.046	23557.27
447.252	24786.05
447.459	24927.36
447.665	24896.64
447.871	25949.3
448.078	26940.52
448.284	25781.37
448.491	26659.95
448.697	27569.24
448.903	28075.09
449.11	28337.23
449.316	27808.86
449.522	28464.21
449.728	28685.39
449.935	28873.8
450.141	29117.51
450.347	29731.9
450.553	28640.33
450.76	29035.59
450.966	29887.54
451.172	29375.55
451.378	30469.17
451.584	29776.95
451.791	30575.66
451.997	30344.24
452.203	31145
452.409	30788.65
452.615	30903.34
452.821	29584.44
453.027	29150.28
453.233	30848.04
453.44	29643.84
453.646	29897.78
453.852	30084.15
454.058	30585.9
454.264	29424.7
454.47	30301.23
454.676	29408.32
454.882	30501.93
455.088	27642.97
455.294	28462.16
455.5	28578.89
455.705	28890.18
455.911	27866.2
456.117	27268.19
456.323	26991.72
456.529	25414.78
456.735	26483.82
456.941	25984.12
457.147	25517.18
457.352	24734.85
457.558	24554.63
457.764	24364.17
457.97	24046.74
458.176	23401.63
458.381	23516.31
458.587	22287.53
458.793	22637.73
458.999	21509.3
459.204	22723.75
459.41	21845.17
459.616	20759.75
459.821	20724.93
460.027	20483.27
460.233	20237.52
460.438	19455.19
460.644	19389.66
460.85	18636
461.055	18152.68
461.261	18392.3
461.466	17177.85
461.672	16399.62
461.878	17792.24
462.083	16440.58
462.289	16266.5
462.494	16178.44
462.7	15217.94
462.905	14925.08
463.111	15709.46
463.316	15533.33
463.522	15275.29
463.727	15428.88
463.932	15090.97
464.138	15080.73
464.343	15117.59
464.549	14497.06
464.754	15107.35
464.959	14992.67
465.165	15011.1
465.37	14245.16
465.575	13985.07
465.781	14538.02
465.986	14556.45
466.191	13956.4
466.397	13655.34
466.602	12959.03
466.807	13501.75
467.012	13526.32
467.218	13473.07
467.423	13456.69
467.628	13659.44
467.833	14095.66
468.038	13554.99
468.244	13065.53
468.449	13702.45
468.654	13274.42
