Data from USB4F104151__113__13-54-57-007.txt Node

Date: Thu Mar 13 13:54:57 EDT 2025
User: louis
Spectrometer: USB4F10415
Trigger mode: 4
Integration Time (sec): 1.000000E-2
Scans to average: 1
Electric dark correction enabled: true
Nonlinearity correction enabled: false
Boxcar width: 0
XAxis mode: Wavelengths
Number of Pixels in Spectrum: 3648
>>>>>Begin Spectral Data<<<<<
178.204	-24.75
178.424	-24.75
178.644	-24.75
178.864	-6.31
179.084	-65.71
179.304	20.31
179.524	-12.46
179.744	-43.18
179.964	40.79
180.184	32.6
180.404	-10.41
180.624	-26.79
180.844	-12.46
181.064	5.97
181.283	-0.17
181.503	1.88
181.723	3.93
181.943	26.45
182.163	-4.27
182.383	-28.84
182.602	-59.56
182.822	71.51
183.042	46.93
183.262	-30.89
183.482	32.6
183.701	51.03
183.921	28.5
184.141	-2.22
184.361	-18.6
184.58	-32.94
184.8	22.36
185.02	-12.46
185.239	-34.99
185.459	-12.46
185.679	100.18
185.898	57.17
186.118	12.12
186.338	81.75
186.557	108.37
186.777	46.93
186.997	-28.84
187.216	-16.55
187.436	12.12
187.655	26.45
187.875	79.7
188.095	77.65
188.314	87.89
188.534	24.4
188.753	-20.65
188.973	3.93
189.192	18.26
189.412	55.12
189.631	5.97
189.851	-8.36
190.07	65.36
190.29	-61.61
190.509	-10.41
190.729	-2.22
190.948	-51.37
191.168	-14.51
191.387	3.93
191.607	-26.79
191.826	44.88
192.045	18.26
192.265	69.46
192.484	-6.31
192.704	18.26
192.923	38.74
193.142	-22.7
193.362	3.93
193.581	-16.55
193.8	48.98
194.02	12.12
194.239	77.65
194.458	-2.22
194.678	-10.41
194.897	32.6
195.116	46.93
195.335	-14.51
195.555	32.6
195.774	44.88
195.993	-20.65
196.212	46.93
196.432	34.64
196.651	16.21
196.87	57.17
197.089	-12.46
197.308	8.02
197.528	46.93
197.747	-28.84
197.966	3.93
198.185	12.12
198.404	-63.66
198.623	-8.36
198.842	-88.23
199.062	-24.75
199.281	-30.89
199.5	16.21
199.719	-47.27
199.938	38.74
200.157	79.7
200.376	30.55
200.595	14.17
200.814	83.8
201.033	24.4
201.252	57.17
201.471	-2.22
201.69	36.69
201.909	30.55
202.128	-18.6
202.347	-34.99
202.566	30.55
202.785	5.97
203.004	61.27
203.223	65.36
203.442	-10.41
203.661	28.5
203.879	10.07
204.098	28.5
204.317	22.36
204.536	16.21
204.755	34.64
204.974	38.74
205.193	22.36
205.411	34.64
205.63	-4.27
205.849	32.6
206.068	1.88
206.287	67.41
206.505	-14.51
206.724	20.31
206.943	-32.94
207.162	-110.76
207.381	-26.79
207.599	18.26
207.818	36.69
208.037	12.12
208.255	83.8
208.474	55.12
208.693	-24.75
208.911	-24.75
209.13	48.98
209.349	55.12
209.567	-49.32
209.786	-16.55
210.005	-6.31
210.223	38.74
210.442	-14.51
210.661	18.26
210.879	67.41
211.098	79.7
211.316	44.88
211.535	73.56
211.753	-10.41
211.972	-45.23
212.191	34.64
212.409	-34.99
212.628	38.74
212.846	-22.7
213.065	5.97
213.283	36.69
213.502	1.88
213.72	-28.84
213.938	3.93
214.157	22.36
214.375	1.88
214.594	-4.27
214.812	28.5
215.031	-24.75
215.249	-12.46
215.467	12.12
215.686	5.97
215.904	20.31
216.122	-34.99
216.341	120.66
216.559	40.79
216.778	48.98
216.996	55.12
217.214	1.88
217.432	36.69
217.651	-18.6
217.869	48.98
218.087	10.07
218.306	18.26
218.524	32.6
218.742	26.45
218.96	10.07
219.179	-51.37
219.397	3.93
219.615	-0.17
219.833	5.97
220.051	-16.55
220.27	77.65
220.488	96.08
220.706	28.5
220.924	22.36
221.142	-26.79
221.36	5.97
221.578	24.4
221.796	85.84
222.015	100.18
222.233	38.74
222.451	36.69
222.669	34.64
222.887	48.98
223.105	46.93
223.323	75.6
223.541	22.36
223.759	40.79
223.977	8.02
224.195	87.89
224.413	44.88
224.631	61.27
224.849	-10.41
225.067	-28.84
225.285	38.74
225.503	-18.6
225.721	18.26
225.939	34.64
226.157	42.84
226.375	12.12
226.592	36.69
226.81	-8.36
227.028	61.27
227.246	26.45
227.464	79.7
227.682	55.12
227.9	3.93
228.117	73.56
228.335	-12.46
228.553	34.64
228.771	94.04
228.989	48.98
229.206	12.12
229.424	8.02
229.642	124.76
229.86	-14.51
230.077	34.64
230.295	5.97
230.513	12.12
230.731	30.55
230.948	44.88
231.166	-65.71
231.384	38.74
231.601	46.93
231.819	91.99
232.037	20.31
232.254	8.02
232.472	12.12
232.689	3.93
232.907	-20.65
233.125	-6.31
233.342	-22.7
233.56	-6.31
233.777	10.07
233.995	32.6
234.213	32.6
234.43	55.12
234.648	20.31
234.865	-12.46
235.083	5.97
235.3	24.4
235.518	36.69
235.735	34.64
235.953	-43.18
236.17	63.32
236.388	36.69
236.605	83.8
236.822	18.26
237.04	34.64
237.257	-10.41
237.475	-28.84
237.692	51.03
237.909	-12.46
238.127	46.93
238.344	-28.84
238.562	-28.84
238.779	-4.27
238.996	-6.31
239.214	-2.22
239.431	3.93
239.648	65.36
239.865	30.55
240.083	-26.79
240.3	42.84
240.517	-4.27
240.735	-43.18
240.952	30.55
241.169	73.56
241.386	-30.89
241.603	-37.03
241.821	16.21
242.038	1.88
242.255	-20.65
242.472	-8.36
242.689	-14.51
242.907	44.88
243.124	55.12
243.341	32.6
243.558	20.31
243.775	32.6
243.992	32.6
244.209	8.02
244.426	38.74
244.643	36.69
244.86	83.8
245.078	16.21
245.295	-43.18
245.512	12.12
245.729	-39.08
245.946	10.07
246.163	-4.27
246.38	36.69
246.597	65.36
246.814	32.6
247.031	36.69
247.248	98.13
247.464	-18.6
247.681	57.17
247.898	-28.84
248.115	-34.99
248.332	73.56
248.549	16.21
248.766	63.32
248.983	22.36
249.2	14.17
249.417	44.88
249.633	57.17
249.85	32.6
250.067	55.12
250.284	108.37
250.501	14.17
250.717	69.46
250.934	20.31
251.151	63.32
251.368	110.42
251.585	12.12
251.801	55.12
252.018	30.55
252.235	10.07
252.451	53.08
252.668	-77.99
252.885	46.93
253.102	44.88
253.318	46.93
253.535	-14.51
253.752	32.6
253.968	14.17
254.185	36.69
254.401	28.5
254.618	-34.99
254.835	38.74
255.051	69.46
255.268	5.97
255.484	8.02
255.701	-28.84
255.917	73.56
256.134	-2.22
256.351	8.02
256.567	-39.08
256.784	30.55
257	20.31
257.217	98.13
257.433	36.69
257.65	16.21
257.866	77.65
258.082	-16.55
258.299	67.41
258.515	28.5
258.732	32.6
258.948	32.6
259.165	-10.41
259.381	71.51
259.597	63.32
259.814	40.79
260.03	20.31
260.246	-0.17
260.463	-37.03
260.679	-2.22
260.895	59.22
261.112	48.98
261.328	59.22
261.544	38.74
261.761	44.88
261.977	16.21
262.193	-37.03
262.409	32.6
262.626	55.12
262.842	38.74
263.058	-6.31
263.274	73.56
263.49	94.04
263.707	36.69
263.923	16.21
264.139	16.21
264.355	26.45
264.571	59.22
264.787	46.93
265.004	165.71
265.22	10.07
265.436	-51.37
265.652	81.75
265.868	40.79
266.084	85.84
266.3	-22.7
266.516	44.88
266.732	34.64
266.948	26.45
267.164	71.51
267.38	-26.79
267.596	-20.65
267.812	-0.17
268.028	87.89
268.244	61.27
268.46	18.26
268.676	16.21
268.892	40.79
269.108	102.23
269.324	32.6
269.54	-14.51
269.756	104.28
269.972	-10.41
270.188	24.4
270.403	10.07
270.619	-49.32
270.835	59.22
271.051	-14.51
271.267	16.21
271.483	-8.36
271.698	5.97
271.914	75.6
272.13	-0.17
272.346	34.64
272.562	-34.99
272.777	-8.36
272.993	57.17
273.209	85.84
273.425	-14.51
273.64	53.08
273.856	18.26
274.072	-16.55
274.287	44.88
274.503	67.41
274.719	-2.22
274.934	16.21
275.15	10.07
275.366	-30.89
275.581	61.27
275.797	-49.32
276.012	1.88
276.228	38.74
276.444	48.98
276.659	85.84
276.875	53.08
277.09	-6.31
277.306	40.79
277.521	-10.41
277.737	-30.89
277.952	132.95
278.168	30.55
278.383	40.79
278.599	-57.51
278.814	12.12
279.03	71.51
279.245	-2.22
279.461	-22.7
279.676	94.04
279.892	-26.79
280.107	14.17
280.322	53.08
280.538	22.36
280.753	48.98
280.969	14.17
281.184	149.33
281.399	14.17
281.615	36.69
281.83	5.97
282.045	48.98
282.26	55.12
282.476	30.55
282.691	24.4
282.906	30.55
283.122	-41.13
283.337	26.45
283.552	22.36
283.767	-0.17
283.983	22.36
284.198	53.08
284.413	-32.94
284.628	18.26
284.843	-18.6
285.058	8.02
285.274	63.32
285.489	-59.56
285.704	-26.79
285.919	-28.84
286.134	38.74
286.349	-51.37
286.564	85.84
286.779	46.93
286.995	22.36
287.21	-14.51
287.425	40.79
287.64	71.51
287.855	22.36
288.07	61.27
288.285	-18.6
288.5	32.6
288.715	-22.7
288.93	-6.31
289.145	-24.75
289.36	53.08
289.575	48.98
289.79	8.02
290.004	65.36
290.219	-32.94
290.434	44.88
290.649	51.03
290.864	3.93
291.079	24.4
291.294	44.88
291.509	-10.41
291.724	32.6
291.938	8.02
292.153	38.74
292.368	-24.75
292.583	40.79
292.798	-12.46
293.012	20.31
293.227	36.69
293.442	102.23
293.657	18.26
293.871	10.07
294.086	16.21
294.301	5.97
294.516	8.02
294.73	-12.46
294.945	-16.55
295.16	-0.17
295.374	3.93
295.589	-0.17
295.804	-34.99
296.018	63.32
296.233	30.55
296.447	3.93
296.662	-8.36
296.877	26.45
297.091	-32.94
297.306	28.5
297.52	77.65
297.735	-6.31
297.949	55.12
298.164	63.32
298.378	14.17
298.593	53.08
298.807	-59.56
299.022	1.88
299.236	67.41
299.451	14.17
299.665	20.31
299.88	51.03
300.094	38.74
300.309	71.51
300.523	63.32
300.737	59.22
300.952	22.36
301.166	32.6
301.381	30.55
301.595	3.93
301.809	57.17
302.024	28.5
302.238	77.65
302.452	40.79
302.667	-2.22
302.881	77.65
303.095	24.4
303.309	79.7
303.524	18.26
303.738	20.31
303.952	-18.6
304.166	20.31
304.381	1.88
304.595	48.98
304.809	-59.56
305.023	-30.89
305.237	-20.65
305.452	53.08
305.666	18.26
305.88	77.65
306.094	18.26
306.308	32.6
306.522	5.97
306.736	8.02
306.95	26.45
307.164	5.97
307.379	-55.47
307.593	118.61
307.807	53.08
308.021	46.93
308.235	65.36
308.449	30.55
308.663	12.12
308.877	59.22
309.091	42.84
309.305	3.93
309.519	-57.51
309.733	53.08
309.947	16.21
310.161	18.26
310.374	69.46
310.588	44.88
310.802	-18.6
311.016	-39.08
311.23	-12.46
311.444	46.93
311.658	67.41
311.872	122.71
312.085	38.74
312.299	34.64
312.513	3.93
312.727	-2.22
312.941	-4.27
313.154	81.75
313.368	26.45
313.582	28.5
313.796	-49.32
314.009	85.84
314.223	51.03
314.437	51.03
314.651	44.88
314.864	1.88
315.078	34.64
315.292	-22.7
315.505	98.13
315.719	32.6
315.933	46.93
316.146	-6.31
316.36	38.74
316.573	28.5
316.787	34.64
317.001	16.21
317.214	55.12
317.428	87.89
317.641	16.21
317.855	79.7
318.068	12.12
318.282	16.21
318.495	40.79
318.709	59.22
318.922	-0.17
319.136	36.69
319.349	128.85
319.563	36.69
319.776	20.31
319.99	5.97
320.203	57.17
320.417	36.69
320.63	61.27
320.843	79.7
321.057	55.12
321.27	100.18
321.483	-12.46
321.697	42.84
321.91	46.93
322.124	32.6
322.337	-41.13
322.55	94.04
322.763	-30.89
322.977	-12.46
323.19	73.56
323.403	-24.75
323.617	36.69
323.83	22.36
324.043	75.6
324.256	94.04
324.469	3.93
324.683	79.7
324.896	32.6
325.109	77.65
325.322	59.22
325.535	40.79
325.748	38.74
325.962	20.31
326.175	55.12
326.388	67.41
326.601	36.69
326.814	20.31
327.027	-43.18
327.24	44.88
327.453	-30.89
327.666	-12.46
327.879	36.69
328.092	-4.27
328.305	-10.41
328.518	79.7
328.731	38.74
328.944	-0.17
329.157	18.26
329.37	32.6
329.583	114.52
329.796	67.41
330.009	16.21
330.222	-12.46
330.435	106.32
330.648	63.32
330.861	51.03
331.073	-20.65
331.286	40.79
331.499	69.46
331.712	57.17
331.925	87.89
332.138	-16.55
332.35	118.61
332.563	36.69
332.776	20.31
332.989	38.74
333.202	85.84
333.414	8.02
333.627	-4.27
333.84	-18.6
334.053	141.14
334.265	22.36
334.478	46.93
334.691	-4.27
334.903	36.69
335.116	83.8
335.329	32.6
335.541	26.45
335.754	42.84
335.966	32.6
336.179	20.31
336.392	-24.75
336.604	-8.36
336.817	67.41
337.029	14.17
337.242	20.31
337.454	10.07
337.667	-51.37
337.88	26.45
338.092	89.94
338.305	-22.7
338.517	-4.27
338.729	61.27
338.942	22.36
339.154	-22.7
339.367	16.21
339.579	36.69
339.792	-26.79
340.004	38.74
340.217	71.51
340.429	3.93
340.641	26.45
340.854	30.55
341.066	12.12
341.278	55.12
341.491	-45.23
341.703	65.36
341.915	22.36
342.128	8.02
342.34	53.08
342.552	98.13
342.764	77.65
342.977	104.28
343.189	46.93
343.401	-39.08
343.613	-12.46
343.826	40.79
344.038	10.07
344.25	98.13
344.462	67.41
344.674	53.08
344.886	32.6
345.099	53.08
345.311	-4.27
345.523	5.97
345.735	59.22
345.947	55.12
346.159	69.46
346.371	-0.17
346.583	61.27
346.795	112.47
347.007	16.21
347.219	-8.36
347.431	-16.55
347.643	55.12
347.855	114.52
348.067	63.32
348.279	46.93
348.491	73.56
348.703	5.97
348.915	38.74
349.127	67.41
349.339	22.36
349.551	48.98
349.763	20.31
349.975	71.51
350.187	83.8
350.399	46.93
350.61	61.27
350.822	87.89
351.034	-47.27
351.246	67.41
351.458	-12.46
351.669	44.88
351.881	20.31
352.093	63.32
352.305	42.84
352.517	-4.27
352.728	75.6
352.94	24.4
353.152	51.03
353.363	-12.46
353.575	1.88
353.787	34.64
353.999	22.36
354.21	59.22
354.422	22.36
354.633	10.07
354.845	118.61
355.057	40.79
355.268	67.41
355.48	3.93
355.692	16.21
355.903	71.51
356.115	51.03
356.326	-32.94
356.538	114.52
356.749	71.51
356.961	44.88
357.172	-6.31
357.384	75.6
357.595	110.42
357.807	71.51
358.018	-37.03
358.23	22.36
358.441	42.84
358.653	48.98
358.864	51.03
359.075	46.93
359.287	89.94
359.498	38.74
359.709	67.41
359.921	96.08
360.132	40.79
360.344	53.08
360.555	-10.41
360.766	61.27
360.977	110.42
361.189	40.79
361.4	26.45
361.611	22.36
361.823	85.84
362.034	46.93
362.245	118.61
362.456	-47.27
362.667	18.26
362.879	34.64
363.09	-30.89
363.301	53.08
363.512	32.6
363.723	89.94
363.935	10.07
364.146	20.31
364.357	44.88
364.568	36.69
364.779	61.27
364.99	53.08
365.201	30.55
365.412	53.08
365.623	-12.46
365.834	67.41
366.045	42.84
366.256	71.51
366.467	28.5
366.678	20.31
366.889	-14.51
367.1	5.97
367.311	-8.36
367.522	71.51
367.733	53.08
367.944	63.32
368.155	30.55
368.366	94.04
368.577	40.79
368.788	44.88
368.999	102.23
369.209	79.7
369.42	116.56
369.631	81.75
369.842	38.74
370.053	20.31
370.264	36.69
370.474	-4.27
370.685	16.21
370.896	118.61
371.107	28.5
371.317	71.51
371.528	61.27
371.739	77.65
371.95	53.08
372.16	38.74
372.371	59.22
372.582	75.6
372.792	34.64
373.003	36.69
373.214	36.69
373.424	5.97
373.635	24.4
373.846	26.45
374.056	40.79
374.267	61.27
374.477	28.5
374.688	38.74
374.898	12.12
375.109	36.69
375.319	36.69
375.53	-43.18
375.74	61.27
375.951	3.93
376.161	30.55
376.372	67.41
376.582	137.04
376.793	20.31
377.003	28.5
377.214	91.99
377.424	24.4
377.635	89.94
377.845	46.93
378.055	83.8
378.266	57.17
378.476	67.41
378.686	-47.27
378.897	61.27
379.107	65.36
379.317	42.84
379.528	53.08
379.738	30.55
379.948	1.88
380.158	34.64
380.369	69.46
380.579	40.79
380.789	59.22
380.999	71.51
381.21	67.41
381.42	30.55
381.63	-20.65
381.84	69.46
382.05	61.27
382.261	44.88
382.471	102.23
382.681	85.84
382.891	110.42
383.101	20.31
383.311	73.56
383.521	14.17
383.731	22.36
383.941	147.28
384.151	89.94
384.361	1.88
384.571	79.7
384.781	22.36
384.991	-4.27
385.201	46.93
385.411	79.7
385.621	36.69
385.831	71.51
386.041	40.79
386.251	22.36
386.461	55.12
386.671	61.27
386.881	104.28
387.091	48.98
387.301	87.89
387.511	-10.41
387.72	81.75
387.93	55.12
388.14	32.6
388.35	30.55
388.56	48.98
388.769	98.13
388.979	65.36
389.189	73.56
389.399	98.13
389.609	14.17
389.818	28.5
390.028	28.5
390.238	14.17
390.447	55.12
390.657	24.4
390.867	48.98
391.076	34.64
391.286	100.18
391.496	63.32
391.705	24.4
391.915	75.6
392.125	91.99
392.334	61.27
392.544	98.13
392.753	57.17
392.963	122.71
393.172	79.7
393.382	100.18
393.591	51.03
393.801	46.93
394.01	40.79
394.22	98.13
394.429	46.93
394.639	48.98
394.848	65.36
395.058	16.21
395.267	63.32
395.477	34.64
395.686	71.51
395.895	44.88
396.105	81.75
396.314	96.08
396.524	112.47
396.733	73.56
396.942	83.8
397.152	38.74
397.361	69.46
397.57	44.88
397.78	79.7
397.989	126.8
398.198	61.27
398.407	135
398.617	85.84
398.826	53.08
399.035	139.09
399.244	79.7
399.453	106.32
399.663	59.22
399.872	53.08
400.081	48.98
400.29	112.47
400.499	61.27
400.708	100.18
400.917	36.69
401.127	87.89
401.336	85.84
401.545	42.84
401.754	55.12
401.963	42.84
402.172	98.13
402.381	108.37
402.59	118.61
402.799	94.04
403.008	130.9
403.217	124.76
403.426	116.56
403.635	91.99
403.844	87.89
404.053	83.8
404.262	69.46
404.471	98.13
404.68	122.71
404.888	145.24
405.097	124.76
405.306	145.24
405.515	124.76
405.724	116.56
405.933	108.37
406.142	137.04
406.35	114.52
406.559	120.66
406.768	130.9
406.977	182.1
407.185	42.84
407.394	96.08
407.603	180.05
407.812	186.19
408.02	178
408.229	216.91
408.438	145.24
408.646	165.71
408.855	171.86
409.064	161.62
409.272	223.06
409.481	178
409.69	188.24
409.898	202.58
410.107	243.54
410.315	171.86
410.524	284.5
410.733	309.07
410.941	196.43
411.15	282.45
411.358	257.87
411.567	282.45
411.775	264.02
411.984	323.41
412.192	313.17
412.401	376.66
412.609	313.17
412.818	395.09
413.026	315.22
413.234	360.27
413.443	409.42
413.651	415.57
413.86	388.94
414.068	446.29
414.276	425.81
414.485	524.11
414.693	431.95
414.901	460.62
415.11	552.78
415.318	485.2
415.526	595.79
415.734	587.6
415.943	624.46
416.151	610.12
416.359	630.6
416.567	687.95
416.776	632.65
416.984	735.05
417.192	726.86
417.4	675.66
417.608	741.19
417.817	755.53
418.025	851.78
418.233	851.78
418.441	831.3
418.649	929.61
418.857	952.13
419.065	872.26
419.273	919.37
419.481	1044.29
419.689	919.37
419.897	1034.05
420.105	1154.88
420.313	1101.64
420.521	1161.03
420.729	1105.73
420.937	1238.85
421.145	1333.06
421.353	1380.16
421.561	1376.06
421.769	1386.3
421.977	1417.02
422.185	1482.56
422.393	1531.71
422.601	1773.37
422.809	1541.95
423.017	1634.11
423.224	1728.31
423.432	1756.99
423.64	1875.77
423.848	1902.39
424.056	1908.54
424.263	2125.62
424.471	2064.18
424.679	2092.85
424.887	2074.42
425.094	2215.73
425.302	2344.75
425.51	2316.08
425.718	2424.62
425.925	2496.3
426.133	2469.68
426.341	2803.5
426.548	2793.26
426.756	2760.49
426.964	2764.59
427.171	2932.52
427.379	3139.37
427.586	3118.89
427.794	3243.81
428.001	3342.11
428.209	3655.45
428.417	3522.34
428.624	3704.6
428.832	3733.28
429.039	3643.17
429.247	3745.56
429.454	4063
429.662	4314.9
429.869	4028.18
430.076	4345.62
430.284	4316.95
430.491	4325.14
430.699	4648.72
430.906	4636.43
431.114	4699.92
431.321	4953.87
431.528	4986.63
431.736	5189.38
431.943	5340.93
432.15	5332.74
432.358	5340.93
432.565	5725.95
432.772	5746.43
432.979	6108.92
433.187	6004.47
433.394	6188.79
433.601	6461.17
433.808	6573.81
434.016	6475.51
434.223	6631.15
434.43	7261.93
434.637	7065.32
434.844	7446.24
435.052	7569.12
435.259	7503.59
435.466	7593.7
435.673	7640.8
435.88	8019.67
436.087	8459.99
436.294	8431.32
436.501	8234.71
436.708	8523.48
436.915	8619.73
437.122	9043.66
437.329	9119.43
437.537	9469.64
437.743	9531.08
437.95	9432.77
438.157	10012.35
438.364	10389.17
438.571	9948.86
438.778	10288.82
438.985	11267.75
439.192	10874.54
439.399	11015.85
439.606	10866.35
439.813	11577
440.02	12439.19
440.227	11861.66
440.433	11779.75
440.64	12332.7
440.847	12203.68
441.054	12705.43
441.261	13145.74
441.467	13182.6
441.674	13487.75
441.881	13940.35
442.088	14073.47
442.294	13897.35
442.501	14233.21
442.708	14364.28
442.914	15054.45
443.121	15681.13
443.328	15050.35
443.534	16322.14
443.741	15728.23
443.948	15650.41
444.154	16545.37
444.361	16492.12
444.568	16602.71
444.774	16762.45
444.981	16907.86
445.187	17380.94
445.394	18095.68
445.6	17952.32
445.807	19463.72
446.013	18611.77
446.22	19289.65
446.426	20076.07
446.633	20203.04
446.839	21042.71
447.046	19789.35
447.252	21042.71
447.459	20917.78
447.665	20858.39
447.871	21661.19
448.078	22818.3
448.284	21548.56
448.491	22138.37
448.697	23188.98
448.903	23512.56
449.11	23719.4
449.316	23277.04
449.522	23584.24
449.728	24493.54
449.935	24313.31
450.141	24413.66
450.347	25079.25
450.553	24528.35
450.76	24354.27
450.966	25239
451.172	24921.56
451.378	25476.56
451.584	24751.58
451.791	25558.48
451.997	25566.67
452.203	25945.55
452.409	25994.7
452.615	25581.01
452.821	24735.2
453.027	24597.98
453.233	25841.1
453.44	24806.87
453.646	24862.17
453.852	25189.84
454.058	25458.13
454.264	24753.63
454.47	25048.54
454.676	24751.58
454.882	25140.69
455.088	23207.41
455.294	23674.35
455.5	23842.28
455.705	24124.9
455.911	23371.25
456.117	22582.78
456.323	22568.44
456.529	21354
456.735	21992.97
456.941	21610
457.147	21220.88
457.352	20325.92
457.558	20434.46
457.764	20420.13
457.97	19912.23
458.176	19463.72
458.381	19332.65
458.587	18517.56
458.793	18533.95
458.999	17647.18
459.204	18996.79
459.41	18247.23
459.616	17079.89
459.821	17163.86
460.027	17548.87
460.233	16877.14
460.438	16051.81
460.644	16090.72
460.85	15324.78
461.055	15263.34
461.261	14952.05
461.466	13995.65
461.672	13565.57
461.878	14446.2
462.083	13319.82
462.289	13446.79
462.494	13309.58
462.7	12805.78
462.905	12379.8
463.111	12779.15
463.316	12861.07
463.522	12517.01
463.727	12740.24
463.932	12494.49
464.138	12355.22
464.343	12332.7
464.549	11943.58
464.754	12359.32
464.959	12332.7
465.165	12263.07
465.37	11818.66
465.575	11441.83
465.781	11808.42
465.986	11830.94
466.191	11458.21
466.397	11200.17
466.602	10710.71
466.807	11249.32
467.012	11265.71
467.218	11132.59
467.423	11022
467.628	11148.97
467.833	11558.56
468.038	11042.48
468.244	10645.17
