Data from USB4F104151__261__14-01-42-923.txt Node

Date: Thu Mar 13 14:01:42 EDT 2025
User: louis
Spectrometer: USB4F10415
Trigger mode: 4
Integration Time (sec): 1.000000E-2
Scans to average: 1
Electric dark correction enabled: true
Nonlinearity correction enabled: false
Boxcar width: 0
XAxis mode: Wavelengths
Number of Pixels in Spectrum: 3648
>>>>>Begin Spectral Data<<<<<
178.204	-24.06
178.424	-24.06
178.644	-24.06
178.864	-1.54
179.084	-24.06
179.304	25.09
179.524	14.85
179.744	39.42
179.964	14.85
180.184	-83.45
180.404	33.28
180.624	12.8
180.844	20.99
181.064	-9.73
181.283	41.47
181.503	-36.35
181.723	-73.21
181.943	29.18
182.163	-9.73
182.383	-17.92
182.602	-3.58
182.822	57.86
183.042	-3.58
183.262	25.09
183.482	25.09
183.701	6.66
183.921	33.28
184.141	-44.54
184.361	72.19
184.58	-48.64
184.8	57.86
185.02	10.75
185.239	0.51
185.459	39.42
185.679	-11.78
185.898	-24.06
186.118	6.66
186.338	37.38
186.557	47.62
186.777	-3.58
186.997	72.19
187.216	-15.87
187.436	31.23
187.655	-24.06
187.875	14.85
188.095	8.7
188.314	12.8
188.534	25.09
188.753	0.51
188.973	23.04
189.192	-5.63
189.412	45.57
189.631	72.19
189.851	-48.64
190.07	-11.78
190.29	-9.73
190.509	-9.73
190.729	14.85
190.948	-40.45
191.168	41.47
191.387	59.9
191.607	-13.82
191.826	14.85
192.045	-30.21
192.265	16.9
192.484	-42.5
192.704	-38.4
192.923	47.62
193.142	8.7
193.362	80.38
193.581	-42.5
193.8	27.14
194.02	25.09
194.239	-7.68
194.458	66.05
194.678	8.7
194.897	33.28
195.116	20.99
195.335	-1.54
195.555	47.62
195.774	47.62
195.993	23.04
196.212	82.43
196.432	-32.26
196.651	121.34
196.87	-26.11
197.089	-40.45
197.308	-5.63
197.528	76.29
197.747	14.85
197.966	35.33
198.185	6.66
198.404	0.51
198.623	-56.83
198.842	23.04
199.062	-28.16
199.281	98.81
199.5	12.8
199.719	74.24
199.938	20.99
200.157	-65.02
200.376	14.85
200.595	33.28
200.814	25.09
201.033	-24.06
201.252	-17.92
201.471	-24.06
201.69	-1.54
201.909	8.7
202.128	-26.11
202.347	72.19
202.566	-13.82
202.785	23.04
203.004	-50.69
203.223	20.99
203.442	47.62
203.661	2.56
203.879	37.38
204.098	-9.73
204.317	33.28
204.536	-19.97
204.755	14.85
204.974	-15.87
205.193	64
205.411	57.86
205.63	68.09
205.849	-3.58
206.068	6.66
206.287	-22.02
206.505	0.51
206.724	-83.45
206.943	-9.73
207.162	31.23
207.381	10.75
207.599	59.9
207.818	23.04
208.037	43.52
208.255	-13.82
208.474	-34.3
208.693	-9.73
208.911	68.09
209.13	31.23
209.349	16.9
209.567	-13.82
209.786	2.56
210.005	-3.58
210.223	-13.82
210.442	-32.26
210.661	14.85
210.879	-28.16
211.098	20.99
211.316	10.75
211.535	59.9
211.753	49.66
211.972	-17.92
212.191	14.85
212.409	-9.73
212.628	2.56
212.846	57.86
213.065	8.7
213.283	6.66
213.502	31.23
213.72	39.42
213.938	72.19
214.157	4.61
214.375	23.04
214.594	29.18
214.812	29.18
215.031	35.33
215.249	-40.45
215.467	14.85
215.686	12.8
215.904	66.05
216.122	-17.92
216.341	96.77
216.559	-50.69
216.778	4.61
216.996	39.42
217.214	72.19
217.432	55.81
217.651	23.04
217.869	2.56
218.087	-15.87
218.306	8.7
218.524	76.29
218.742	-34.3
218.96	37.38
219.179	47.62
219.397	39.42
219.615	16.9
219.833	-17.92
220.051	-17.92
220.27	-75.26
220.488	47.62
220.706	27.14
220.924	35.33
221.142	33.28
221.36	76.29
221.578	-19.97
221.796	20.99
222.015	-26.11
222.233	14.85
222.451	8.7
222.669	-15.87
222.887	35.33
223.105	8.7
223.323	27.14
223.541	-34.3
223.759	86.53
223.977	20.99
224.195	2.56
224.413	102.91
224.631	-17.92
224.849	64
225.067	-15.87
225.285	-22.02
225.503	6.66
225.721	18.94
225.939	41.47
226.157	6.66
226.375	37.38
226.592	-7.68
226.81	-24.06
227.028	-26.11
227.246	43.52
227.464	-1.54
227.682	80.38
227.9	-5.63
228.117	43.52
228.335	-5.63
228.553	4.61
228.771	-1.54
228.989	47.62
229.206	47.62
229.424	10.75
229.642	14.85
229.86	59.9
230.077	68.09
230.295	0.51
230.513	-13.82
230.731	4.61
230.948	-1.54
231.166	12.8
231.384	-9.73
231.601	-7.68
231.819	33.28
232.037	-26.11
232.254	-9.73
232.472	-22.02
232.689	-69.12
232.907	-9.73
233.125	78.33
233.342	-1.54
233.56	-17.92
233.777	14.85
233.995	2.56
234.213	43.52
234.43	6.66
234.648	-9.73
234.865	37.38
235.083	-77.31
235.3	-1.54
235.518	12.8
235.735	-40.45
235.953	14.85
236.17	-30.21
236.388	53.76
236.605	-83.45
236.822	96.77
237.04	20.99
237.257	2.56
237.475	-30.21
237.692	-79.36
237.909	37.38
238.127	-22.02
238.344	18.94
238.562	-15.87
238.779	-50.69
238.996	20.99
239.214	-26.11
239.431	35.33
239.648	14.85
239.865	-11.78
240.083	23.04
240.3	14.85
240.517	51.71
240.735	-22.02
240.952	-24.06
241.169	10.75
241.386	-5.63
241.603	-13.82
241.821	10.75
242.038	6.66
242.255	74.24
242.472	47.62
242.689	51.71
242.907	6.66
243.124	59.9
243.341	4.61
243.558	33.28
243.775	-36.35
243.992	47.62
244.209	66.05
244.426	55.81
244.643	8.7
244.86	29.18
245.078	90.62
245.295	23.04
245.512	14.85
245.729	-15.87
245.946	-15.87
246.163	57.86
246.38	39.42
246.597	33.28
246.814	23.04
247.031	-9.73
247.248	27.14
247.464	-32.26
247.681	0.51
247.898	4.61
248.115	0.51
248.332	49.66
248.549	16.9
248.766	51.71
248.983	-46.59
249.2	47.62
249.417	14.85
249.633	31.23
249.85	37.38
250.067	-85.5
250.284	88.57
250.501	-40.45
250.717	47.62
250.934	66.05
251.151	2.56
251.368	-38.4
251.585	39.42
251.801	-46.59
252.018	33.28
252.235	0.51
252.451	16.9
252.668	35.33
252.885	47.62
253.102	-30.21
253.318	10.75
253.535	43.52
253.752	47.62
253.968	-11.78
254.185	0.51
254.401	55.81
254.618	33.28
254.835	12.8
255.051	0.51
255.268	-42.5
255.484	-1.54
255.701	-5.63
255.917	31.23
256.134	37.38
256.351	33.28
256.567	47.62
256.784	2.56
257	-28.16
257.217	29.18
257.433	4.61
257.65	68.09
257.866	-34.3
258.082	8.7
258.299	-42.5
258.515	18.94
258.732	45.57
258.948	-15.87
259.165	-5.63
259.381	66.05
259.597	113.15
259.814	18.94
260.03	-17.92
260.246	23.04
260.463	33.28
260.679	55.81
260.895	64
261.112	0.51
261.328	37.38
261.544	6.66
261.761	-48.64
261.977	-1.54
262.193	-38.4
262.409	59.9
262.626	-11.78
262.842	39.42
263.058	-34.3
263.274	27.14
263.49	23.04
263.707	0.51
263.923	-7.68
264.139	55.81
264.355	-34.3
264.571	43.52
264.787	-17.92
265.004	53.76
265.22	29.18
265.436	-7.68
265.652	49.66
265.868	59.9
266.084	8.7
266.3	4.61
266.516	-5.63
266.732	37.38
266.948	0.51
267.164	41.47
267.38	35.33
267.596	25.09
267.812	84.48
268.028	16.9
268.244	64
268.46	59.9
268.676	-7.68
268.892	35.33
269.108	16.9
269.324	70.14
269.54	6.66
269.756	-7.68
269.972	-42.5
270.188	31.23
270.403	-28.16
270.619	92.67
270.835	35.33
271.051	47.62
271.267	-9.73
271.483	31.23
271.698	-50.69
271.914	41.47
272.13	12.8
272.346	-7.68
272.562	12.8
272.777	2.56
272.993	43.52
273.209	-77.31
273.425	8.7
273.64	84.48
273.856	-40.45
274.072	49.66
274.287	16.9
274.503	-5.63
274.719	55.81
274.934	20.99
275.15	-1.54
275.366	10.75
275.581	-71.17
275.797	-24.06
276.012	41.47
276.228	-13.82
276.444	18.94
276.659	47.62
276.875	2.56
277.09	37.38
277.306	8.7
277.521	-56.83
277.737	-1.54
277.952	27.14
278.168	-9.73
278.383	6.66
278.599	-7.68
278.814	43.52
279.03	6.66
279.245	14.85
279.461	0.51
279.676	14.85
279.892	-93.69
280.107	-7.68
280.322	-15.87
280.538	70.14
280.753	49.66
280.969	45.57
281.184	25.09
281.399	25.09
281.615	-26.11
281.83	61.95
282.045	-26.11
282.26	16.9
282.476	39.42
282.691	23.04
282.906	31.23
283.122	-1.54
283.337	-91.65
283.552	43.52
283.767	8.7
283.983	-1.54
284.198	-26.11
284.413	-1.54
284.628	12.8
284.843	-1.54
285.058	39.42
285.274	68.09
285.489	-87.55
285.704	18.94
285.919	31.23
286.134	2.56
286.349	35.33
286.564	-26.11
286.779	78.33
286.995	25.09
287.21	-48.64
287.425	41.47
287.64	-9.73
287.855	-1.54
288.07	14.85
288.285	-5.63
288.5	-30.21
288.715	45.57
288.93	-71.17
289.145	-15.87
289.36	-17.92
289.575	23.04
289.79	10.75
290.004	10.75
290.219	18.94
290.434	10.75
290.649	-7.68
290.864	-28.16
291.079	66.05
291.294	68.09
291.509	-9.73
291.724	6.66
291.938	-7.68
292.153	8.7
292.368	0.51
292.583	-32.26
292.798	6.66
293.012	31.23
293.227	117.25
293.442	-34.3
293.657	33.28
293.871	-48.64
294.086	25.09
294.301	72.19
294.516	53.76
294.73	41.47
294.945	80.38
295.16	-5.63
295.374	6.66
295.589	33.28
295.804	31.23
296.018	41.47
296.233	2.56
296.447	37.38
296.662	47.62
296.877	41.47
297.091	-1.54
297.306	16.9
297.52	-7.68
297.735	43.52
297.949	-1.54
298.164	39.42
298.378	-42.5
298.593	6.66
298.807	-28.16
299.022	-22.02
299.236	-19.97
299.451	47.62
299.665	2.56
299.88	33.28
300.094	57.86
300.309	-22.02
300.523	-5.63
300.737	31.23
300.952	12.8
301.166	6.66
301.381	49.66
301.595	20.99
301.809	-9.73
302.024	-38.4
302.238	-11.78
302.452	47.62
302.667	14.85
302.881	55.81
303.095	20.99
303.309	49.66
303.524	2.56
303.738	-28.16
303.952	-3.58
304.166	4.61
304.381	41.47
304.595	14.85
304.809	-15.87
305.023	12.8
305.237	4.61
305.452	14.85
305.666	16.9
305.88	-30.21
306.094	-65.02
306.308	35.33
306.522	14.85
306.736	23.04
306.95	25.09
307.164	31.23
307.379	16.9
307.593	-19.97
307.807	45.57
308.021	-42.5
308.235	10.75
308.449	45.57
308.663	64
308.877	64
309.091	10.75
309.305	8.7
309.519	-13.82
309.733	20.99
309.947	20.99
310.161	25.09
310.374	47.62
310.588	-50.69
310.802	-9.73
311.016	-1.54
311.23	23.04
311.444	66.05
311.658	4.61
311.872	-28.16
312.085	14.85
312.299	-13.82
312.513	68.09
312.727	-34.3
312.941	-34.3
313.154	0.51
313.368	8.7
313.582	55.81
313.796	57.86
314.009	27.14
314.223	31.23
314.437	-48.64
314.651	-7.68
314.864	18.94
315.078	-44.54
315.292	70.14
315.505	12.8
315.719	-3.58
315.933	-42.5
316.146	4.61
316.36	-34.3
316.573	49.66
316.787	-5.63
317.001	98.81
317.214	18.94
317.428	49.66
317.641	14.85
317.855	57.86
318.068	10.75
318.282	92.67
318.495	-5.63
318.709	27.14
318.922	88.57
319.136	55.81
319.349	49.66
319.563	55.81
319.776	14.85
319.99	29.18
320.203	74.24
320.417	14.85
320.63	-22.02
320.843	141.82
321.057	49.66
321.27	88.57
321.483	45.57
321.697	66.05
321.91	39.42
322.124	55.81
322.337	-3.58
322.55	39.42
322.763	0.51
322.977	14.85
323.19	-48.64
323.403	45.57
323.617	16.9
323.83	2.56
324.043	12.8
324.256	0.51
324.469	-22.02
324.683	61.95
324.896	57.86
325.109	18.94
325.322	-42.5
325.535	-7.68
325.748	6.66
325.962	27.14
326.175	-32.26
326.388	84.48
326.601	96.77
326.814	57.86
327.027	-5.63
327.24	45.57
327.453	-30.21
327.666	-11.78
327.879	-1.54
328.092	55.81
328.305	88.57
328.518	18.94
328.731	27.14
328.944	31.23
329.157	41.47
329.37	47.62
329.583	18.94
329.796	2.56
330.009	-22.02
330.222	39.42
330.435	92.67
330.648	6.66
330.861	20.99
331.073	35.33
331.286	-3.58
331.499	88.57
331.712	10.75
331.925	-17.92
332.138	8.7
332.35	27.14
332.563	41.47
332.776	113.15
332.989	-7.68
333.202	55.81
333.414	-58.88
333.627	-44.54
333.84	25.09
334.053	68.09
334.265	80.38
334.478	-34.3
334.691	20.99
334.903	88.57
335.116	2.56
335.329	84.48
335.541	-50.69
335.754	33.28
335.966	-11.78
336.179	16.9
336.392	0.51
336.604	14.85
336.817	-19.97
337.029	35.33
337.242	4.61
337.454	88.57
337.667	16.9
337.88	43.52
338.092	49.66
338.305	25.09
338.517	78.33
338.729	43.52
338.942	51.71
339.154	94.72
339.367	-1.54
339.579	29.18
339.792	-46.59
340.004	23.04
340.217	16.9
340.429	14.85
340.641	0.51
340.854	70.14
341.066	-9.73
341.278	-28.16
341.491	78.33
341.703	-38.4
341.915	-38.4
342.128	88.57
342.34	10.75
342.552	33.28
342.764	-1.54
342.977	86.53
343.189	-24.06
343.401	-3.58
343.613	68.09
343.826	27.14
344.038	-5.63
344.25	59.9
344.462	43.52
344.674	-1.54
344.886	2.56
345.099	43.52
345.311	39.42
345.523	33.28
345.735	12.8
345.947	27.14
346.159	23.04
346.371	-7.68
346.583	-5.63
346.795	57.86
347.007	-5.63
347.219	31.23
347.431	-22.02
347.643	59.9
347.855	-5.63
348.067	33.28
348.279	104.96
348.491	33.28
348.703	-26.11
348.915	-28.16
349.127	51.71
349.339	14.85
349.551	8.7
349.763	72.19
349.975	80.38
350.187	35.33
350.399	66.05
350.61	68.09
350.822	0.51
351.034	70.14
351.246	49.66
351.458	84.48
351.669	18.94
351.881	-34.3
352.093	90.62
352.305	14.85
352.517	4.61
352.728	27.14
352.94	16.9
353.152	31.23
353.363	-48.64
353.575	14.85
353.787	80.38
353.999	-22.02
354.21	76.29
354.422	27.14
354.633	16.9
354.845	-1.54
355.057	18.94
355.268	25.09
355.48	-24.06
355.692	33.28
355.903	-30.21
356.115	16.9
356.326	-24.06
356.538	31.23
356.749	6.66
356.961	104.96
357.172	-5.63
357.384	88.57
357.595	18.94
357.807	88.57
358.018	-3.58
358.23	92.67
358.441	82.43
358.653	25.09
358.864	-60.93
359.075	27.14
359.287	16.9
359.498	0.51
359.709	70.14
359.921	-32.26
360.132	-34.3
360.344	41.47
360.555	-22.02
360.766	-15.87
360.977	6.66
361.189	66.05
361.4	-7.68
361.611	123.39
361.823	-7.68
362.034	-13.82
362.245	59.9
362.456	35.33
362.667	43.52
362.879	20.99
363.09	-9.73
363.301	29.18
363.512	72.19
363.723	20.99
363.935	-50.69
364.146	49.66
364.357	-5.63
364.568	20.99
364.779	78.33
364.99	6.66
365.201	-62.98
365.412	16.9
365.623	6.66
365.834	55.81
366.045	31.23
366.256	23.04
366.467	49.66
366.678	29.18
366.889	51.71
367.1	59.9
367.311	6.66
367.522	-1.54
367.733	64
367.944	57.86
368.155	14.85
368.366	57.86
368.577	51.71
368.788	66.05
368.999	23.04
369.209	72.19
369.42	18.94
369.631	14.85
369.842	-11.78
370.053	41.47
370.264	45.57
370.474	-22.02
370.685	59.9
370.896	55.81
371.107	2.56
371.317	31.23
371.528	14.85
371.739	14.85
371.95	-34.3
372.16	47.62
372.371	14.85
372.582	33.28
372.792	8.7
373.003	31.23
373.214	8.7
373.424	66.05
373.635	12.8
373.846	45.57
374.056	35.33
374.267	92.67
374.477	4.61
374.688	41.47
374.898	-7.68
375.109	61.95
375.319	16.9
375.53	51.71
375.74	55.81
375.951	18.94
376.161	35.33
376.372	88.57
376.582	33.28
376.793	-26.11
377.003	-13.82
377.214	53.76
377.424	29.18
377.635	8.7
377.845	-1.54
378.055	-5.63
378.266	4.61
378.476	82.43
378.686	51.71
378.897	74.24
379.107	66.05
379.317	-7.68
379.528	35.33
379.738	33.28
379.948	-26.11
380.158	64
380.369	8.7
380.579	-1.54
380.789	29.18
380.999	16.9
381.21	80.38
381.42	41.47
381.63	41.47
381.84	23.04
382.05	64
382.261	51.71
382.471	78.33
382.681	-19.97
382.891	88.57
383.101	162.3
383.311	88.57
383.521	-38.4
383.731	39.42
383.941	90.62
384.151	45.57
384.361	-110.08
384.571	98.81
384.781	39.42
384.991	72.19
385.201	55.81
385.411	8.7
385.621	59.9
385.831	-30.21
386.041	31.23
386.251	57.86
386.461	100.86
386.671	98.81
386.881	25.09
387.091	39.42
387.301	0.51
387.511	25.09
387.72	78.33
387.93	23.04
388.14	25.09
388.35	66.05
388.56	47.62
388.769	129.53
388.979	-9.73
389.189	82.43
389.399	84.48
389.609	12.8
389.818	123.39
390.028	23.04
390.238	31.23
390.447	-13.82
390.657	6.66
390.867	80.38
391.076	41.47
391.286	111.1
391.496	111.1
391.705	-38.4
391.915	59.9
392.125	31.23
392.334	129.53
392.544	41.47
392.753	68.09
392.963	-24.06
393.172	55.81
393.382	16.9
393.591	96.77
393.801	74.24
394.01	35.33
394.22	-5.63
394.429	47.62
394.639	6.66
394.848	76.29
395.058	45.57
395.267	53.76
395.477	39.42
395.686	78.33
395.895	-58.88
396.105	61.95
396.314	82.43
396.524	80.38
396.733	94.72
396.942	-1.54
397.152	94.72
397.361	74.24
397.57	23.04
397.78	94.72
397.989	-9.73
398.198	33.28
398.407	66.05
398.617	74.24
398.826	27.14
399.035	104.96
399.244	64
399.453	31.23
399.663	70.14
399.872	68.09
400.081	47.62
400.29	102.91
400.499	113.15
400.708	96.77
400.917	150.01
401.127	41.47
401.336	10.75
401.545	98.81
401.754	121.34
401.963	16.9
402.172	115.2
402.381	92.67
402.59	80.38
402.799	82.43
403.008	16.9
403.217	131.58
403.426	76.29
403.635	45.57
403.844	145.92
404.053	27.14
404.262	80.38
404.471	143.87
404.68	117.25
404.888	154.11
405.097	80.38
405.306	94.72
405.515	70.14
405.724	115.2
405.933	74.24
406.142	109.05
406.35	55.81
406.559	162.3
406.768	178.69
406.977	193.02
407.185	117.25
407.394	137.73
407.603	121.34
407.812	129.53
408.02	150.01
408.229	113.15
408.438	139.77
408.646	133.63
408.855	199.16
409.064	199.16
409.272	190.97
409.481	195.07
409.69	186.88
409.898	219.64
410.107	229.88
410.315	252.41
410.524	201.21
410.733	197.12
410.941	211.45
411.15	252.41
411.358	270.84
411.567	342.52
411.775	301.56
411.984	266.75
412.192	291.32
412.401	283.13
412.609	342.52
412.818	377.34
413.026	330.23
413.234	350.71
413.443	373.24
413.651	399.87
413.86	440.83
414.068	434.68
414.276	389.63
414.485	424.44
414.693	436.73
414.901	434.68
415.11	539.13
415.318	512.5
415.526	489.98
415.734	532.98
415.943	563.7
416.151	623.09
416.359	621.05
416.567	530.94
416.776	731.64
416.984	748.02
417.192	741.88
417.4	727.54
417.608	727.54
417.817	719.35
418.025	727.54
418.233	866.8
418.441	813.56
418.649	866.8
418.857	969.2
419.065	918
419.273	836.08
419.481	918
419.689	1124.85
419.897	1106.42
420.105	1096.18
420.313	1071.6
420.521	1149.42
420.729	1133.04
420.937	1128.94
421.145	1300.97
421.353	1337.84
421.561	1429.99
421.769	1460.71
421.977	1530.34
422.185	1429.99
422.393	1452.52
422.601	1690.09
422.809	1636.84
423.017	1702.37
423.224	1692.13
423.432	1735.14
423.64	1792.48
423.848	1999.33
424.056	1888.74
424.263	2048.48
424.471	1987.04
424.679	2114.02
424.887	2218.46
425.094	2218.46
425.302	2128.35
425.51	2365.92
425.718	2494.94
425.925	2386.4
426.133	2505.18
426.341	2681.3
426.548	2857.43
426.756	2752.98
426.964	2795.99
427.171	3017.17
427.379	3000.79
427.586	3140.05
427.794	3183.06
428.001	3314.13
428.209	3553.74
428.417	3432.91
428.624	3580.36
428.832	3623.37
429.039	3801.54
429.247	3768.77
429.454	4098.5
429.662	4102.59
429.869	3963.33
430.076	4233.66
430.284	4155.84
430.491	4307.39
430.699	4549.05
430.906	4614.59
431.114	4458.94
431.321	4686.26
431.528	4999.6
431.736	5224.88
431.943	5519.79
432.15	5292.46
432.358	5480.88
432.565	5720.49
432.772	5700.01
432.979	5986.72
433.187	6111.65
433.394	5947.81
433.601	6420.89
433.808	6592.92
434.016	6371.74
434.223	6865.3
434.43	7027.09
434.637	6932.89
434.844	7532.94
435.052	7567.76
435.259	7520.65
435.466	7588.24
435.673	7412.11
435.88	8157.57
436.087	8257.92
436.294	8606.08
436.501	8270.21
436.708	8518.01
436.915	8745.34
437.122	9163.12
437.329	9064.82
437.537	9353.59
437.743	9478.51
437.95	9386.35
438.157	9904.49
438.364	10322.27
438.571	10127.72
438.778	10357.09
438.985	11342.16
439.192	10735.96
439.399	11069.78
439.606	10676.57
439.813	11540.82
440.02	12257.6
440.227	11882.83
440.433	11917.64
440.64	12343.62
440.847	11907.4
441.054	12704.06
441.261	13199.67
441.467	13095.22
441.674	13572.4
441.881	13769.01
442.088	13951.28
442.294	13599.02
442.501	14037.29
442.708	14416.16
442.914	14954.78
443.121	15624.47
443.328	14995.74
443.534	16324.87
443.741	15902.99
443.948	15468.82
444.154	16574.72
444.361	16703.75
444.568	16580.87
444.774	16646.4
444.981	17037.56
445.187	17223.93
445.394	18225.39
445.6	17856.75
445.807	19577.05
446.013	18825.44
446.22	18985.18
446.426	19835.09
446.633	19912.91
446.839	20447.43
447.046	19775.7
447.252	20680.9
447.459	20854.98
447.665	20844.74
447.871	21735.6
448.078	22429.87
448.284	21627.06
448.491	22124.72
448.697	22933.67
448.903	23046.3
449.11	23543.96
449.316	22894.75
449.522	23439.51
449.728	24217.74
449.935	24060.05
450.141	24172.69
450.347	25057.41
450.553	24094.86
450.76	24250.51
450.966	24909.96
451.172	24727.69
451.378	25462.91
451.584	24854.66
451.791	25534.59
451.997	25294.97
452.203	26011.76
452.409	26185.84
452.615	25532.54
452.821	24696.97
453.027	24477.83
453.233	25755.77
453.44	24553.61
453.646	24899.72
453.852	25063.55
454.058	25571.45
454.264	24686.73
454.47	25368.7
454.676	24637.58
454.882	25387.13
455.088	23206.05
455.294	23912.6
455.5	23808.15
455.705	23918.74
455.911	23109.79
456.117	22540.46
456.323	22503.59
456.529	21348.54
456.735	21983.41
456.941	21661.88
457.147	21258.43
457.352	20666.56
457.558	20527.3
457.764	20543.69
457.97	19900.62
458.176	19544.28
458.381	19433.69
458.587	18761.95
458.793	18872.54
458.999	17645.81
459.204	19075.29
459.41	18434.28
459.616	17424.63
459.821	17381.62
460.027	17268.98
460.233	16627.97
460.438	15937.8
460.644	16023.82
460.85	15712.53
461.055	15171.86
461.261	15208.73
461.466	14086.44
461.672	13680.94
461.878	14596.39
462.083	13449.52
462.289	13291.83
462.494	13340.98
462.7	12728.64
462.905	12280.13
463.111	12769.6
463.316	13080.89
463.522	12718.4
463.727	12712.25
463.932	12468.55
464.138	12568.9
464.343	12554.56
464.549	12140.87
464.754	12667.2
464.959	12630.34
465.165	12360
465.37	11753.8
465.575	11460.95
465.781	12204.36
465.986	12190.02
466.191	11665.74
466.397	11422.03
466.602	10871.13
466.807	11362.64
467.012	11340.11
467.218	11385.17
467.423	11000.15
467.628	11202.9
467.833	11645.26
468.038	11012.44
468.244	11028.82
468.449	11139.41
468.654	10932.57
468.859	10774.88
469.064	10930.52
