Data from USB4F104151__202__13-59-49-666.txt Node

Date: Thu Mar 13 13:59:49 EDT 2025
User: louis
Spectrometer: USB4F10415
Trigger mode: 4
Integration Time (sec): 1.000000E-2
Scans to average: 1
Electric dark correction enabled: true
Nonlinearity correction enabled: false
Boxcar width: 0
XAxis mode: Wavelengths
Number of Pixels in Spectrum: 3648
>>>>>Begin Spectral Data<<<<<
178.204	-25.26
178.424	-25.26
178.644	-25.26
178.864	-53.93
179.084	-53.93
179.304	15.7
179.524	-66.22
179.744	13.65
179.964	34.13
180.184	19.8
180.404	-15.02
180.624	-21.16
180.844	-27.31
181.064	-4.78
181.283	-8.87
181.503	27.99
181.723	32.08
181.943	-41.64
182.163	42.32
182.383	5.46
182.602	-29.35
182.822	7.51
183.042	27.99
183.262	-88.75
183.482	-29.35
183.701	11.61
183.921	-0.68
184.141	-2.73
184.361	71
184.58	7.51
184.8	19.8
185.02	81.24
185.239	-19.11
185.459	36.18
185.679	-58.03
185.898	36.18
186.118	5.46
186.338	9.56
186.557	75.09
186.777	32.08
186.997	-6.83
187.216	58.71
187.436	19.8
187.655	-15.02
187.875	34.13
188.095	40.28
188.314	73.04
188.534	15.7
188.753	-53.93
188.973	-23.21
189.192	3.41
189.412	17.75
189.631	58.71
189.851	7.51
190.07	50.52
190.29	1.37
190.509	25.94
190.729	48.47
190.948	13.65
191.168	32.08
191.387	109.91
191.607	-47.79
191.826	34.13
192.045	-23.21
192.265	17.75
192.484	75.09
192.704	-6.83
192.923	-35.5
193.142	42.32
193.362	64.85
193.581	-64.17
193.8	-33.45
194.02	7.51
194.239	-8.87
194.458	66.9
194.678	71
194.897	42.32
195.116	-10.92
195.335	-72.36
195.555	75.09
195.774	54.61
195.993	36.18
196.212	15.7
196.432	46.42
196.651	42.32
196.87	21.85
197.089	-2.73
197.308	13.65
197.528	120.15
197.747	19.8
197.966	1.37
198.185	21.85
198.404	-8.87
198.623	52.56
198.842	34.13
199.062	58.71
199.281	77.14
199.5	-0.68
199.719	36.18
199.938	32.08
200.157	1.37
200.376	64.85
200.595	-15.02
200.814	64.85
201.033	27.99
201.252	-17.07
201.471	42.32
201.69	64.85
201.909	27.99
202.128	-6.83
202.347	-25.26
202.566	116.05
202.785	75.09
203.004	9.56
203.223	-2.73
203.442	64.85
203.661	25.94
203.879	27.99
204.098	124.24
204.317	3.41
204.536	118.1
204.755	66.9
204.974	68.95
205.193	-10.92
205.411	34.13
205.63	21.85
205.849	50.52
206.068	103.76
206.287	62.8
206.505	13.65
206.724	9.56
206.943	15.7
207.162	-35.5
207.381	32.08
207.599	9.56
207.818	91.48
208.037	-19.11
208.255	60.76
208.474	-12.97
208.693	58.71
208.911	52.56
209.13	60.76
209.349	68.95
209.567	60.76
209.786	93.52
210.005	21.85
210.223	50.52
210.442	13.65
210.661	32.08
210.879	68.95
211.098	-6.83
211.316	79.19
211.535	21.85
211.753	34.13
211.972	-10.92
212.191	97.62
212.409	-15.02
212.628	68.95
212.846	32.08
213.065	-15.02
213.283	32.08
213.502	19.8
213.72	52.56
213.938	-10.92
214.157	17.75
214.375	68.95
214.594	-33.45
214.812	-64.17
215.031	44.37
215.249	30.04
215.467	54.61
215.686	-27.31
215.904	85.33
216.122	19.8
216.341	36.18
216.559	15.7
216.778	50.52
216.996	56.66
217.214	23.89
217.432	64.85
217.651	17.75
217.869	1.37
218.087	40.28
218.306	-43.69
218.524	-19.11
218.742	54.61
218.96	83.28
219.179	-60.07
219.397	-4.78
219.615	34.13
219.833	-15.02
220.051	32.08
220.27	-6.83
220.488	-70.31
220.706	-6.83
220.924	-2.73
221.142	62.8
221.36	36.18
221.578	23.89
221.796	17.75
222.015	7.51
222.233	-25.26
222.451	62.8
222.669	-6.83
222.887	58.71
223.105	13.65
223.323	-29.35
223.541	-2.73
223.759	101.72
223.977	27.99
224.195	-2.73
224.413	17.75
224.631	75.09
224.849	-12.97
225.067	56.66
225.285	-29.35
225.503	101.72
225.721	13.65
225.939	36.18
226.157	32.08
226.375	89.43
226.592	46.42
226.81	-6.83
227.028	60.76
227.246	60.76
227.464	40.28
227.682	56.66
227.9	1.37
228.117	25.94
228.335	17.75
228.553	-25.26
228.771	25.94
228.989	132.44
229.206	17.75
229.424	54.61
229.642	3.41
229.86	25.94
230.077	13.65
230.295	-6.83
230.513	52.56
230.731	68.95
230.948	50.52
231.166	9.56
231.384	48.47
231.601	13.65
231.819	95.57
232.037	-0.68
232.254	17.75
232.472	7.51
232.689	46.42
232.907	77.14
233.125	46.42
233.342	13.65
233.56	-25.26
233.777	46.42
233.995	27.99
234.213	44.37
234.43	-43.69
234.648	34.13
234.865	62.8
235.083	40.28
235.3	36.18
235.518	64.85
235.735	64.85
235.953	9.56
236.17	-23.21
236.388	54.61
236.605	79.19
236.822	3.41
237.04	30.04
237.257	42.32
237.475	54.61
237.692	44.37
237.909	34.13
238.127	19.8
238.344	83.28
238.562	36.18
238.779	42.32
238.996	58.71
239.214	-10.92
239.431	81.24
239.648	13.65
239.865	54.61
240.083	68.95
240.3	32.08
240.517	60.76
240.735	44.37
240.952	-43.69
241.169	62.8
241.386	77.14
241.603	87.38
241.821	-6.83
242.038	38.23
242.255	15.7
242.472	23.89
242.689	15.7
242.907	19.8
243.124	13.65
243.341	62.8
243.558	36.18
243.775	73.04
243.992	38.23
244.209	15.7
244.426	30.04
244.643	36.18
244.86	-39.59
245.078	-15.02
245.295	50.52
245.512	19.8
245.729	27.99
245.946	91.48
246.163	68.95
246.38	62.8
246.597	34.13
246.814	38.23
247.031	13.65
247.248	134.48
247.464	48.47
247.681	40.28
247.898	-2.73
248.115	3.41
248.332	21.85
248.549	19.8
248.766	21.85
248.983	3.41
249.2	36.18
249.417	-10.92
249.633	-27.31
249.85	-55.98
250.067	-4.78
250.284	19.8
250.501	48.47
250.717	17.75
250.934	36.18
251.151	68.95
251.368	34.13
251.585	34.13
251.801	-21.16
252.018	54.61
252.235	99.67
252.451	64.85
252.668	23.89
252.885	-2.73
253.102	1.37
253.318	27.99
253.535	9.56
253.752	7.51
253.968	75.09
254.185	5.46
254.401	36.18
254.618	13.65
254.835	58.71
255.051	81.24
255.268	-35.5
255.484	32.08
255.701	89.43
255.917	30.04
256.134	-39.59
256.351	13.65
256.567	44.37
256.784	30.04
257	9.56
257.217	83.28
257.433	52.56
257.65	50.52
257.866	44.37
258.082	-19.11
258.299	13.65
258.515	56.66
258.732	-2.73
258.948	19.8
259.165	68.95
259.381	85.33
259.597	58.71
259.814	66.9
260.03	66.9
260.246	17.75
260.463	-53.93
260.679	42.32
260.895	-4.78
261.112	5.46
261.328	34.13
261.544	3.41
261.761	52.56
261.977	25.94
262.193	-33.45
262.409	15.7
262.626	44.37
262.842	105.81
263.058	-17.07
263.274	-17.07
263.49	81.24
263.707	46.42
263.923	40.28
264.139	34.13
264.355	44.37
264.571	60.76
264.787	42.32
265.004	89.43
265.22	13.65
265.436	25.94
265.652	85.33
265.868	15.7
266.084	48.47
266.3	95.57
266.516	21.85
266.732	-2.73
266.948	25.94
267.164	1.37
267.38	56.66
267.596	99.67
267.812	-12.97
268.028	3.41
268.244	38.23
268.46	9.56
268.676	-12.97
268.892	66.9
269.108	60.76
269.324	-47.79
269.54	54.61
269.756	46.42
269.972	30.04
270.188	36.18
270.403	-2.73
270.619	25.94
270.835	21.85
271.051	56.66
271.267	46.42
271.483	17.75
271.698	58.71
271.914	5.46
272.13	42.32
272.346	-45.74
272.562	-35.5
272.777	62.8
272.993	93.52
273.209	42.32
273.425	81.24
273.64	87.38
273.856	60.76
274.072	58.71
274.287	5.46
274.503	83.28
274.719	48.47
274.934	25.94
275.15	99.67
275.366	75.09
275.581	-15.02
275.797	-15.02
276.012	44.37
276.228	-23.21
276.444	42.32
276.659	56.66
276.875	5.46
277.09	79.19
277.306	58.71
277.521	3.41
277.737	23.89
277.952	48.47
278.168	50.52
278.383	25.94
278.599	46.42
278.814	116.05
279.03	56.66
279.245	152.92
279.461	-19.11
279.676	-27.31
279.892	79.19
280.107	42.32
280.322	21.85
280.538	38.23
280.753	7.51
280.969	73.04
281.184	-2.73
281.399	93.52
281.615	36.18
281.83	52.56
282.045	99.67
282.26	-25.26
282.476	-19.11
282.691	142.68
282.906	32.08
283.122	3.41
283.337	-66.22
283.552	7.51
283.767	1.37
283.983	-8.87
284.198	54.61
284.413	48.47
284.628	-31.4
284.843	13.65
285.058	87.38
285.274	25.94
285.489	23.89
285.704	60.76
285.919	7.51
286.134	-31.4
286.349	15.7
286.564	21.85
286.779	109.91
286.995	52.56
287.21	38.23
287.425	64.85
287.64	44.37
287.855	38.23
288.07	97.62
288.285	42.32
288.5	42.32
288.715	95.57
288.93	-0.68
289.145	-4.78
289.36	-19.11
289.575	42.32
289.79	15.7
290.004	66.9
290.219	40.28
290.434	60.76
290.649	40.28
290.864	19.8
291.079	36.18
291.294	36.18
291.509	46.42
291.724	66.9
291.938	32.08
292.153	30.04
292.368	-6.83
292.583	50.52
292.798	-4.78
293.012	114
293.227	66.9
293.442	25.94
293.657	101.72
293.871	85.33
294.086	-23.21
294.301	118.1
294.516	-6.83
294.73	91.48
294.945	-39.59
295.16	79.19
295.374	124.24
295.589	105.81
295.804	-15.02
296.018	81.24
296.233	36.18
296.447	52.56
296.662	-25.26
296.877	68.95
297.091	1.37
297.306	11.61
297.52	-27.31
297.735	58.71
297.949	32.08
298.164	44.37
298.378	-19.11
298.593	19.8
298.807	-0.68
299.022	68.95
299.236	50.52
299.451	68.95
299.665	11.61
299.88	64.85
300.094	75.09
300.309	-6.83
300.523	-12.97
300.737	66.9
300.952	116.05
301.166	50.52
301.381	-17.07
301.595	75.09
301.809	25.94
302.024	68.95
302.238	3.41
302.452	46.42
302.667	13.65
302.881	62.8
303.095	34.13
303.309	42.32
303.524	-23.21
303.738	36.18
303.952	-4.78
304.166	85.33
304.381	13.65
304.595	58.71
304.809	30.04
305.023	91.48
305.237	21.85
305.452	99.67
305.666	21.85
305.88	19.8
306.094	5.46
306.308	-35.5
306.522	-8.87
306.736	79.19
306.95	89.43
307.164	30.04
307.379	71
307.593	38.23
307.807	68.95
308.021	66.9
308.235	-10.92
308.449	52.56
308.663	56.66
308.877	48.47
309.091	54.61
309.305	27.99
309.519	-10.92
309.733	68.95
309.947	-58.03
310.161	66.9
310.374	75.09
310.588	-37.55
310.802	11.61
311.016	-17.07
311.23	40.28
311.444	17.75
311.658	-2.73
311.872	68.95
312.085	19.8
312.299	48.47
312.513	75.09
312.727	93.52
312.941	23.89
313.154	58.71
313.368	-17.07
313.582	11.61
313.796	21.85
314.009	-10.92
314.223	132.44
314.437	38.23
314.651	66.9
314.864	42.32
315.078	-19.11
315.292	-4.78
315.505	-37.55
315.719	66.9
315.933	124.24
316.146	68.95
316.36	23.89
316.573	50.52
316.787	32.08
317.001	-6.83
317.214	58.71
317.428	77.14
317.641	11.61
317.855	56.66
318.068	27.99
318.282	175.44
318.495	134.48
318.709	9.56
318.922	30.04
319.136	99.67
319.349	75.09
319.563	95.57
319.776	68.95
319.99	5.46
320.203	32.08
320.417	13.65
320.63	38.23
320.843	73.04
321.057	50.52
321.27	34.13
321.483	56.66
321.697	-0.68
321.91	32.08
322.124	13.65
322.337	93.52
322.55	36.18
322.763	34.13
322.977	17.75
323.19	-29.35
323.403	54.61
323.617	-17.07
323.83	56.66
324.043	46.42
324.256	66.9
324.469	9.56
324.683	-10.92
324.896	-35.5
325.109	118.1
325.322	60.76
325.535	58.71
325.748	27.99
325.962	7.51
326.175	60.76
326.388	93.52
326.601	71
326.814	46.42
327.027	30.04
327.24	32.08
327.453	25.94
327.666	56.66
327.879	58.71
328.092	58.71
328.305	-15.02
328.518	52.56
328.731	36.18
328.944	91.48
329.157	62.8
329.37	71
329.583	64.85
329.796	114
330.009	75.09
330.222	111.96
330.435	62.8
330.648	75.09
330.861	34.13
331.073	-4.78
331.286	60.76
331.499	7.51
331.712	142.68
331.925	64.85
332.138	1.37
332.35	46.42
332.563	-19.11
332.776	111.96
332.989	5.46
333.202	34.13
333.414	97.62
333.627	30.04
333.84	3.41
334.053	87.38
334.265	64.85
334.478	25.94
334.691	25.94
334.903	21.85
335.116	-49.83
335.329	9.56
335.541	79.19
335.754	40.28
335.966	-17.07
336.179	7.51
336.392	-15.02
336.604	38.23
336.817	75.09
337.029	50.52
337.242	64.85
337.454	52.56
337.667	44.37
337.88	27.99
338.092	11.61
338.305	-17.07
338.517	62.8
338.729	40.28
338.942	75.09
339.154	46.42
339.367	81.24
339.579	75.09
339.792	32.08
340.004	52.56
340.217	34.13
340.429	66.9
340.641	79.19
340.854	40.28
341.066	27.99
341.278	79.19
341.491	109.91
341.703	-10.92
341.915	-6.83
342.128	109.91
342.34	-0.68
342.552	-15.02
342.764	27.99
342.977	25.94
343.189	21.85
343.401	5.46
343.613	27.99
343.826	11.61
344.038	17.75
344.25	66.9
344.462	79.19
344.674	9.56
344.886	48.47
345.099	-0.68
345.311	89.43
345.523	52.56
345.735	-27.31
345.947	91.48
346.159	44.37
346.371	-0.68
346.583	36.18
346.795	58.71
347.007	9.56
347.219	91.48
347.431	75.09
347.643	157.01
347.855	44.37
348.067	68.95
348.279	-4.78
348.491	44.37
348.703	17.75
348.915	17.75
349.127	73.04
349.339	46.42
349.551	40.28
349.763	13.65
349.975	87.38
350.187	30.04
350.399	77.14
350.61	60.76
350.822	44.37
351.034	48.47
351.246	50.52
351.458	77.14
351.669	3.41
351.881	52.56
352.093	5.46
352.305	23.89
352.517	77.14
352.728	85.33
352.94	66.9
353.152	27.99
353.363	25.94
353.575	81.24
353.787	109.91
353.999	23.89
354.21	44.37
354.422	71
354.633	-41.64
354.845	103.76
355.057	32.08
355.268	58.71
355.48	66.9
355.692	71
355.903	77.14
356.115	17.75
356.326	-4.78
356.538	36.18
356.749	-10.92
356.961	91.48
357.172	21.85
357.384	77.14
357.595	-2.73
357.807	-37.55
358.018	50.52
358.23	64.85
358.441	107.86
358.653	52.56
358.864	11.61
359.075	71
359.287	40.28
359.498	40.28
359.709	99.67
359.921	21.85
360.132	42.32
360.344	107.86
360.555	7.51
360.766	50.52
360.977	54.61
361.189	68.95
361.4	15.7
361.611	118.1
361.823	15.7
362.034	17.75
362.245	32.08
362.456	38.23
362.667	50.52
362.879	19.8
363.09	15.7
363.301	-2.73
363.512	66.9
363.723	23.89
363.935	-6.83
364.146	58.71
364.357	9.56
364.568	66.9
364.779	-0.68
364.99	101.72
365.201	52.56
365.412	52.56
365.623	19.8
365.834	9.56
366.045	21.85
366.256	68.95
366.467	54.61
366.678	-45.74
366.889	9.56
367.1	75.09
367.311	83.28
367.522	34.13
367.733	32.08
367.944	34.13
368.155	-15.02
368.366	60.76
368.577	64.85
368.788	34.13
368.999	15.7
369.209	75.09
369.42	85.33
369.631	21.85
369.842	15.7
370.053	60.76
370.264	62.8
370.474	62.8
370.685	54.61
370.896	42.32
371.107	89.43
371.317	54.61
371.528	-47.79
371.739	68.95
371.95	75.09
372.16	25.94
372.371	66.9
372.582	23.89
372.792	-37.55
373.003	124.24
373.214	7.51
373.424	73.04
373.635	38.23
373.846	30.04
374.056	71
374.267	32.08
374.477	60.76
374.688	34.13
374.898	36.18
375.109	73.04
375.319	62.8
375.53	91.48
375.74	-15.02
375.951	66.9
376.161	32.08
376.372	109.91
376.582	79.19
376.793	21.85
377.003	15.7
377.214	103.76
377.424	62.8
377.635	-2.73
377.845	93.52
378.055	161.11
378.266	19.8
378.476	68.95
378.686	5.46
378.897	17.75
379.107	54.61
379.317	66.9
379.528	64.85
379.738	9.56
379.948	85.33
380.158	150.87
380.369	21.85
380.579	-4.78
380.789	25.94
380.999	79.19
381.21	38.23
381.42	17.75
381.63	-2.73
381.84	75.09
382.05	58.71
382.261	32.08
382.471	73.04
382.681	27.99
382.891	-15.02
383.101	124.24
383.311	58.71
383.521	89.43
383.731	50.52
383.941	83.28
384.151	23.89
384.361	87.38
384.571	15.7
384.781	128.34
384.991	25.94
385.201	105.81
385.411	124.24
385.621	42.32
385.831	5.46
386.041	85.33
386.251	64.85
386.461	66.9
386.671	-37.55
386.881	66.9
387.091	64.85
387.301	25.94
387.511	75.09
387.72	50.52
387.93	95.57
388.14	103.76
388.35	124.24
388.56	25.94
388.769	56.66
388.979	77.14
389.189	17.75
389.399	21.85
389.609	11.61
389.818	195.92
390.028	89.43
390.238	64.85
390.447	54.61
390.657	91.48
390.867	89.43
391.076	62.8
391.286	93.52
391.496	140.63
391.705	89.43
391.915	87.38
392.125	81.24
392.334	83.28
392.544	124.24
392.753	23.89
392.963	77.14
393.172	93.52
393.382	73.04
393.591	152.92
393.801	124.24
394.01	75.09
394.22	103.76
394.429	83.28
394.639	66.9
394.848	77.14
395.058	87.38
395.267	103.76
395.477	83.28
395.686	23.89
395.895	95.57
396.105	101.72
396.314	-10.92
396.524	64.85
396.733	54.61
396.942	19.8
397.152	71
397.361	77.14
397.57	71
397.78	95.57
397.989	34.13
398.198	152.92
398.407	144.72
398.617	95.57
398.826	17.75
399.035	95.57
399.244	130.39
399.453	46.42
399.663	83.28
399.872	152.92
400.081	144.72
400.29	103.76
400.499	89.43
400.708	85.33
400.917	134.48
401.127	132.44
401.336	91.48
401.545	130.39
401.754	62.8
401.963	136.53
402.172	118.1
402.381	132.44
402.59	128.34
402.799	62.8
403.008	132.44
403.217	157.01
403.426	124.24
403.635	175.44
403.844	120.15
404.053	144.72
404.262	73.04
404.471	165.2
404.68	165.2
404.888	77.14
405.097	64.85
405.306	99.67
405.515	208.21
405.724	140.63
405.933	179.54
406.142	157.01
406.35	200.02
406.559	234.83
406.768	216.4
406.977	191.83
407.185	187.73
407.394	183.63
407.603	249.17
407.812	177.49
408.02	247.12
408.229	189.78
408.438	222.55
408.646	173.39
408.855	273.75
409.064	286.03
409.272	255.31
409.481	288.08
409.69	253.27
409.898	238.93
410.107	300.37
410.315	365.9
410.524	376.14
410.733	353.62
410.941	392.53
411.15	380.24
411.358	388.43
411.567	378.19
411.775	435.53
411.984	400.72
412.192	406.86
412.401	429.39
412.609	419.15
412.818	517.45
413.026	519.5
413.234	468.3
413.443	519.5
413.651	544.08
413.86	488.78
414.068	587.08
414.276	593.23
414.485	591.18
414.693	566.6
414.901	669
415.11	628.04
415.318	673.1
415.526	755.02
415.734	752.97
415.943	761.16
416.151	820.55
416.359	787.79
416.567	814.41
416.776	941.38
416.984	920.9
417.192	1035.59
417.4	953.67
417.608	978.25
417.817	937.29
418.025	1140.04
418.233	1027.4
418.441	1074.5
418.649	1168.71
418.857	1205.57
419.065	1224
419.273	1219.91
419.481	1373.5
419.689	1445.18
419.897	1410.37
420.105	1480
420.313	1488.19
420.521	1635.64
420.729	1639.74
420.937	1606.97
421.145	1758.52
421.353	1787.19
421.561	1973.56
421.769	1955.13
421.977	2026.81
422.185	1987.9
422.393	2145.59
422.601	2192.69
422.809	2149.68
423.017	2184.5
423.224	2270.51
423.432	2444.59
423.64	2229.56
423.848	2700.59
424.056	2581.81
424.263	2671.92
424.471	2913.58
424.679	2858.28
424.887	3104.04
425.094	3042.6
425.302	3036.45
425.51	3163.43
425.718	3298.6
425.925	3388.71
426.133	3400.99
426.341	3667.23
426.548	3812.64
426.756	3685.66
426.964	3814.68
427.171	4121.88
427.379	4168.98
427.586	4263.19
427.794	4328.72
428.001	4508.94
428.209	4869.39
428.417	4619.53
428.624	5004.55
428.832	5041.42
429.039	4965.64
429.247	5039.37
429.454	5420.29
429.662	5811.45
429.869	5383.43
430.076	5813.5
430.284	5506.31
430.491	5930.23
430.699	6165.75
430.906	6257.91
431.114	6331.64
431.321	6448.37
431.528	6657.26
431.736	7161.06
431.943	7566.56
432.15	7081.19
432.358	7234.79
432.565	7738.59
432.772	7425.25
432.979	7902.43
433.187	7941.34
433.394	8086.75
433.601	8883.41
433.808	8838.35
434.016	8633.55
434.223	9243.85
434.43	9612.48
434.637	9331.91
434.844	9776.32
435.052	10104
435.259	10108.09
435.466	10325.18
435.673	10091.71
435.88	10851.5
436.087	11381.93
436.294	11355.3
436.501	10949.81
436.708	11158.7
436.915	11693.22
437.122	12082.33
437.329	12174.49
437.537	12364.95
437.743	12709.01
437.95	12661.91
438.157	13347.98
438.364	13898.88
438.571	13810.82
438.778	13841.54
438.985	15228.01
439.192	14593.14
439.399	14842.99
439.606	14507.13
439.813	15631.46
440.02	16327.77
440.227	16065.63
440.433	15983.71
440.64	16616.54
440.847	16282.72
441.054	16798.81
441.261	17740.87
441.467	17769.54
441.674	17949.76
441.881	18543.67
442.088	18656.31
442.294	18445.37
442.501	18967.6
442.708	19323.95
442.914	20124.71
443.121	20642.84
443.328	20356.13
443.534	21775.37
443.741	21154.83
443.948	20808.73
444.154	22381.57
444.361	22254.59
444.568	22750.2
444.774	22375.42
444.981	22334.46
445.187	23065.59
445.394	24333.28
445.6	23913.45
445.807	26237.89
446.013	25158.61
446.22	25863.11
446.426	26624.96
446.633	26891.19
446.839	27689.9
447.046	26508.22
447.252	28165.03
447.459	28378.02
447.665	28134.31
447.871	29453.2
448.078	30501.76
448.284	29113.24
448.491	29981.58
448.697	31071.1
448.903	31601.52
449.11	31996.78
449.316	31236.98
449.522	31441.78
449.728	32318.31
449.935	32732
450.141	33223.51
450.347	33252.19
450.553	32158.57
450.76	33170.27
450.966	33680.21
451.172	33870.67
451.378	34454.34
451.584	33434.46
451.791	34458.44
451.997	34769.73
452.203	35359.55
452.409	35197.76
452.615	35003.2
452.821	33758.03
453.027	33207.13
453.233	35285.82
453.44	33442.65
453.646	34007.89
453.852	34501.45
454.058	34378.57
454.264	33688.4
454.47	34382.66
454.676	33669.97
454.882	34669.38
455.088	31812.46
455.294	32123.76
455.5	32609.12
455.705	32971.61
455.911	31896.43
456.117	31224.7
456.323	30821.25
456.529	29506.45
456.735	30331.78
456.941	29690.77
457.147	29500.31
457.352	28142.5
457.558	28160.94
457.764	28251.05
457.97	27448.24
458.176	27083.7
458.381	26837.95
458.587	25768.91
458.793	25496.53
458.999	24435.68
459.204	25934.79
459.41	25258.96
459.616	23864.3
459.821	23661.55
460.027	23643.12
460.233	23167.99
460.438	22072.32
460.644	22412.29
460.85	21388.3
461.055	20954.13
461.261	21050.39
461.466	19364.91
461.672	18926.64
461.878	20122.66
462.083	18801.72
462.289	18515
462.494	18363.45
462.7	17751.11
462.905	17198.16
463.111	17863.75
463.316	17726.53
463.522	17617.99
463.727	17486.92
463.932	17366.09
464.138	17212.49
464.343	17407.05
464.549	16604.25
464.754	17372.24
464.959	17210.45
465.165	17106
465.37	16284.76
465.575	15905.89
465.781	16512.09
465.986	17015.89
466.191	16211.04
466.397	15553.64
466.602	14824.56
466.807	15662.18
467.012	15680.61
467.218	15653.99
467.423	15441
467.628	15653.99
467.833	16043.1
468.038	15539.3
468.244	15322.22
468.449	15651.94
468.654	15033.46
