Data from USB4F104151__258__14-01-41-443.txt Node

Date: Thu Mar 13 14:01:41 EDT 2025
User: louis
Spectrometer: USB4F10415
Trigger mode: 4
Integration Time (sec): 1.000000E-2
Scans to average: 1
Electric dark correction enabled: true
Nonlinearity correction enabled: false
Boxcar width: 0
XAxis mode: Wavelengths
Number of Pixels in Spectrum: 3648
>>>>>Begin Spectral Data<<<<<
178.204	-7.85
178.424	-7.85
178.644	-7.85
178.864	-65.19
179.084	20.82
179.304	-20.14
179.524	-24.23
179.744	-36.52
179.964	98.64
180.184	-44.71
180.404	78.16
180.624	-16.04
180.844	-24.23
181.064	2.39
181.283	-20.14
181.503	6.49
181.723	0.34
181.943	35.16
182.163	35.16
182.383	-11.95
182.602	53.59
182.822	-77.48
183.042	65.88
183.262	8.53
183.482	8.53
183.701	18.77
183.921	106.84
184.141	-28.33
184.361	76.12
184.58	49.49
184.8	33.11
185.02	2.39
185.239	51.54
185.459	-40.62
185.679	24.92
185.898	8.53
186.118	39.25
186.338	14.68
186.557	65.88
186.777	16.73
186.997	86.36
187.216	0.34
187.436	18.77
187.655	45.4
187.875	16.73
188.095	-20.14
188.314	16.73
188.534	-36.52
188.753	65.88
188.973	18.77
189.192	6.49
189.412	0.34
189.631	0.34
189.851	57.68
190.07	76.12
190.29	-65.19
190.509	35.16
190.729	65.88
190.948	51.54
191.168	35.16
191.387	-7.85
191.607	74.07
191.826	20.82
192.045	24.92
192.265	45.4
192.484	69.97
192.704	98.64
192.923	24.92
193.142	78.16
193.362	33.11
193.581	49.49
193.8	16.73
194.02	33.11
194.239	59.73
194.458	67.92
194.678	22.87
194.897	82.26
195.116	55.64
195.335	57.68
195.555	35.16
195.774	-18.09
195.993	43.35
196.212	67.92
196.432	49.49
196.651	20.82
196.87	37.2
197.089	100.69
197.308	90.45
197.528	65.88
197.747	-52.91
197.966	-11.95
198.185	63.83
198.404	24.92
198.623	-22.19
198.842	4.44
199.062	-1.71
199.281	47.44
199.5	59.73
199.719	2.39
199.938	12.63
200.157	-5.8
200.376	47.44
200.595	29.01
200.814	6.49
201.033	2.39
201.252	29.01
201.471	29.01
201.69	8.53
201.909	90.45
202.128	35.16
202.347	14.68
202.566	82.26
202.785	63.83
203.004	16.73
203.223	49.49
203.442	31.06
203.661	-36.52
203.879	37.2
204.098	39.25
204.317	26.96
204.536	69.97
204.755	59.73
204.974	49.49
205.193	2.39
205.411	82.26
205.63	-7.85
205.849	12.63
206.068	-16.04
206.287	55.64
206.505	43.35
206.724	39.25
206.943	-13.99
207.162	-5.8
207.381	-18.09
207.599	72.02
207.818	43.35
208.037	16.73
208.255	61.78
208.474	45.4
208.693	16.73
208.911	41.3
209.13	16.73
209.349	67.92
209.567	-7.85
209.786	74.07
210.005	41.3
210.223	-24.23
210.442	4.44
210.661	20.82
210.879	-52.91
211.098	94.55
211.316	0.34
211.535	37.2
211.753	16.73
211.972	57.68
212.191	29.01
212.409	16.73
212.628	67.92
212.846	2.39
213.065	39.25
213.283	-42.67
213.502	106.84
213.72	-44.71
213.938	12.63
214.157	98.64
214.375	82.26
214.594	16.73
214.812	57.68
215.031	65.88
215.249	-3.75
215.467	43.35
215.686	-16.04
215.904	82.26
216.122	-13.99
216.341	-59.05
216.559	47.44
216.778	63.83
216.996	39.25
217.214	10.58
217.432	14.68
217.651	57.68
217.869	22.87
218.087	29.01
218.306	-16.04
218.524	65.88
218.742	53.59
218.96	18.77
219.179	-28.33
219.397	14.68
219.615	26.96
219.833	43.35
220.051	-75.43
220.27	43.35
220.488	80.21
220.706	129.36
220.924	14.68
221.142	80.21
221.36	72.02
221.578	45.4
221.796	-32.43
222.015	29.01
222.233	90.45
222.451	10.58
222.669	80.21
222.887	41.3
223.105	78.16
223.323	55.64
223.541	129.36
223.759	-3.75
223.977	-16.04
224.195	26.96
224.413	123.22
224.631	18.77
224.849	16.73
225.067	-36.52
225.285	45.4
225.503	16.73
225.721	-32.43
225.939	63.83
226.157	22.87
226.375	12.63
226.592	-61.1
226.81	96.6
227.028	57.68
227.246	61.78
227.464	18.77
227.682	53.59
227.9	-5.8
228.117	-1.71
228.335	49.49
228.553	49.49
228.771	0.34
228.989	39.25
229.206	102.74
229.424	61.78
229.642	41.3
229.86	102.74
230.077	35.16
230.295	10.58
230.513	45.4
230.731	84.31
230.948	-3.75
231.166	63.83
231.384	33.11
231.601	12.63
231.819	41.3
232.037	-30.38
232.254	12.63
232.472	29.01
232.689	8.53
232.907	59.73
233.125	74.07
233.342	63.83
233.56	57.68
233.777	115.03
233.995	67.92
234.213	33.11
234.43	57.68
234.648	16.73
234.865	33.11
235.083	51.54
235.3	63.83
235.518	33.11
235.735	39.25
235.953	16.73
236.17	39.25
236.388	74.07
236.605	41.3
236.822	43.35
237.04	-3.75
237.257	35.16
237.475	-50.86
237.692	47.44
237.909	16.73
238.127	-7.85
238.344	4.44
238.562	51.54
238.779	41.3
238.996	67.92
239.214	-9.9
239.431	51.54
239.648	69.97
239.865	-7.85
240.083	123.22
240.3	-22.19
240.517	59.73
240.735	61.78
240.952	-7.85
241.169	-13.99
241.386	12.63
241.603	51.54
241.821	-7.85
242.038	-20.14
242.255	47.44
242.472	82.26
242.689	65.88
242.907	-5.8
243.124	8.53
243.341	45.4
243.558	43.35
243.775	22.87
243.992	78.16
244.209	24.92
244.426	0.34
244.643	20.82
244.86	4.44
245.078	51.54
245.295	63.83
245.512	33.11
245.729	-16.04
245.946	20.82
246.163	-5.8
246.38	67.92
246.597	-28.33
246.814	57.68
247.031	-20.14
247.248	90.45
247.464	57.68
247.681	59.73
247.898	-81.58
248.115	41.3
248.332	10.58
248.549	24.92
248.766	-5.8
248.983	33.11
249.2	76.12
249.417	37.2
249.633	86.36
249.85	33.11
250.067	31.06
250.284	6.49
250.501	18.77
250.717	-20.14
250.934	14.68
251.151	57.68
251.368	-63.15
251.585	65.88
251.801	47.44
252.018	53.59
252.235	26.96
252.451	49.49
252.668	49.49
252.885	6.49
253.102	39.25
253.318	-13.99
253.535	35.16
253.752	24.92
253.968	18.77
254.185	39.25
254.401	90.45
254.618	-5.8
254.835	67.92
255.051	-16.04
255.268	96.6
255.484	20.82
255.701	26.96
255.917	106.84
256.134	76.12
256.351	0.34
256.567	26.96
256.784	51.54
257	2.39
257.217	8.53
257.433	18.77
257.65	74.07
257.866	-7.85
258.082	61.78
258.299	35.16
258.515	24.92
258.732	20.82
258.948	26.96
259.165	51.54
259.381	37.2
259.597	10.58
259.814	0.34
260.03	29.01
260.246	18.77
260.463	51.54
260.679	-16.04
260.895	65.88
261.112	100.69
261.328	69.97
261.544	2.39
261.761	33.11
261.977	22.87
262.193	12.63
262.409	39.25
262.626	4.44
262.842	108.88
263.058	45.4
263.274	65.88
263.49	22.87
263.707	145.75
263.923	49.49
264.139	57.68
264.355	74.07
264.571	-13.99
264.787	18.77
265.004	59.73
265.22	98.64
265.436	33.11
265.652	37.2
265.868	16.73
266.084	-20.14
266.3	82.26
266.516	2.39
266.732	20.82
266.948	59.73
267.164	29.01
267.38	57.68
267.596	29.01
267.812	24.92
268.028	59.73
268.244	49.49
268.46	-5.8
268.676	0.34
268.892	-22.19
269.108	45.4
269.324	76.12
269.54	65.88
269.756	131.41
269.972	72.02
270.188	-52.91
270.403	26.96
270.619	33.11
270.835	20.82
271.051	53.59
271.267	45.4
271.483	86.36
271.698	-18.09
271.914	67.92
272.13	74.07
272.346	61.78
272.562	-7.85
272.777	-5.8
272.993	43.35
273.209	115.03
273.425	-1.71
273.64	18.77
273.856	8.53
274.072	55.64
274.287	55.64
274.503	-32.43
274.719	14.68
274.934	-11.95
275.15	41.3
275.366	57.68
275.581	2.39
275.797	51.54
276.012	53.59
276.228	82.26
276.444	-3.75
276.659	108.88
276.875	-11.95
277.09	-22.19
277.306	45.4
277.521	78.16
277.737	-38.57
277.952	26.96
278.168	49.49
278.383	-20.14
278.599	-7.85
278.814	-3.75
279.03	65.88
279.245	35.16
279.461	22.87
279.676	33.11
279.892	-7.85
280.107	-11.95
280.322	33.11
280.538	112.98
280.753	53.59
280.969	45.4
281.184	29.01
281.399	29.01
281.615	67.92
281.83	65.88
282.045	37.2
282.26	35.16
282.476	45.4
282.691	74.07
282.906	49.49
283.122	33.11
283.337	43.35
283.552	47.44
283.767	49.49
283.983	65.88
284.198	-20.14
284.413	-9.9
284.628	-46.76
284.843	8.53
285.058	24.92
285.274	-16.04
285.489	35.16
285.704	45.4
285.919	74.07
286.134	47.44
286.349	14.68
286.564	84.31
286.779	106.84
286.995	4.44
287.21	49.49
287.425	33.11
287.64	-5.8
287.855	53.59
288.07	-18.09
288.285	51.54
288.5	82.26
288.715	41.3
288.93	0.34
289.145	41.3
289.36	84.31
289.575	12.63
289.79	69.97
290.004	2.39
290.219	45.4
290.434	8.53
290.649	86.36
290.864	4.44
291.079	12.63
291.294	16.73
291.509	4.44
291.724	-36.52
291.938	53.59
292.153	49.49
292.368	33.11
292.583	82.26
292.798	110.93
293.012	12.63
293.227	4.44
293.442	39.25
293.657	41.3
293.871	49.49
294.086	59.73
294.301	2.39
294.516	55.64
294.73	37.2
294.945	43.35
295.16	98.64
295.374	53.59
295.589	33.11
295.804	8.53
296.018	26.96
296.233	63.83
296.447	8.53
296.662	-16.04
296.877	29.01
297.091	-32.43
297.306	10.58
297.52	72.02
297.735	78.16
297.949	51.54
298.164	74.07
298.378	31.06
298.593	33.11
298.807	41.3
299.022	-3.75
299.236	67.92
299.451	18.77
299.665	29.01
299.88	65.88
300.094	-5.8
300.309	-5.8
300.523	94.55
300.737	61.78
300.952	33.11
301.166	96.6
301.381	67.92
301.595	-5.8
301.809	55.64
302.024	51.54
302.238	10.58
302.452	35.16
302.667	-24.23
302.881	112.98
303.095	45.4
303.309	29.01
303.524	-7.85
303.738	69.97
303.952	26.96
304.166	39.25
304.381	-28.33
304.595	98.64
304.809	-54.95
305.023	106.84
305.237	57.68
305.452	33.11
305.666	31.06
305.88	26.96
306.094	100.69
306.308	94.55
306.522	69.97
306.736	-7.85
306.95	43.35
307.164	67.92
307.379	41.3
307.593	18.77
307.807	72.02
308.021	100.69
308.235	33.11
308.449	16.73
308.663	90.45
308.877	69.97
309.091	16.73
309.305	84.31
309.519	84.31
309.733	67.92
309.947	22.87
310.161	33.11
310.374	55.64
310.588	155.99
310.802	-24.23
311.016	20.82
311.23	-24.23
311.444	92.5
311.658	98.64
311.872	53.59
312.085	29.01
312.299	90.45
312.513	106.84
312.727	61.78
312.941	35.16
313.154	100.69
313.368	18.77
313.582	112.98
313.796	65.88
314.009	35.16
314.223	37.2
314.437	129.36
314.651	0.34
314.864	57.68
315.078	45.4
315.292	20.82
315.505	14.68
315.719	20.82
315.933	10.58
316.146	0.34
316.36	-1.71
316.573	57.68
316.787	51.54
317.001	-9.9
317.214	31.06
317.428	41.3
317.641	65.88
317.855	33.11
318.068	45.4
318.282	16.73
318.495	82.26
318.709	24.92
318.922	8.53
319.136	6.49
319.349	84.31
319.563	14.68
319.776	20.82
319.99	98.64
320.203	26.96
320.417	63.83
320.63	82.26
320.843	-1.71
321.057	65.88
321.27	49.49
321.483	12.63
321.697	-30.38
321.91	20.82
322.124	33.11
322.337	2.39
322.55	33.11
322.763	-28.33
322.977	-3.75
323.19	-20.14
323.403	43.35
323.617	100.69
323.83	92.5
324.043	59.73
324.256	18.77
324.469	-1.71
324.683	-9.9
324.896	78.16
325.109	2.39
325.322	16.73
325.535	65.88
325.748	4.44
325.962	63.83
326.175	20.82
326.388	98.64
326.601	-50.86
326.814	59.73
327.027	-61.1
327.24	-13.99
327.453	26.96
327.666	-38.57
327.879	47.44
328.092	49.49
328.305	-18.09
328.518	26.96
328.731	41.3
328.944	98.64
329.157	35.16
329.37	20.82
329.583	80.21
329.796	-3.75
330.009	24.92
330.222	22.87
330.435	33.11
330.648	61.78
330.861	98.64
331.073	-5.8
331.286	106.84
331.499	2.39
331.712	108.88
331.925	-38.57
332.138	26.96
332.35	74.07
332.563	39.25
332.776	61.78
332.989	41.3
333.202	45.4
333.414	82.26
333.627	-1.71
333.84	78.16
334.053	96.6
334.265	18.77
334.478	59.73
334.691	61.78
334.903	82.26
335.116	33.11
335.329	76.12
335.541	88.4
335.754	29.01
335.966	12.63
336.179	-13.99
336.392	100.69
336.604	24.92
336.817	59.73
337.029	86.36
337.242	4.44
337.454	72.02
337.667	31.06
337.88	55.64
338.092	2.39
338.305	67.92
338.517	24.92
338.729	18.77
338.942	59.73
339.154	72.02
339.367	41.3
339.579	82.26
339.792	67.92
340.004	-7.85
340.217	22.87
340.429	72.02
340.641	8.53
340.854	94.55
341.066	78.16
341.278	16.73
341.491	74.07
341.703	12.63
341.915	108.88
342.128	41.3
342.34	20.82
342.552	55.64
342.764	-1.71
342.977	-1.71
343.189	47.44
343.401	119.12
343.613	65.88
343.826	61.78
344.038	31.06
344.25	59.73
344.462	0.34
344.674	59.73
344.886	29.01
345.099	-26.28
345.311	8.53
345.523	41.3
345.735	-20.14
345.947	29.01
346.159	-9.9
346.371	74.07
346.583	35.16
346.795	10.58
347.007	55.64
347.219	106.84
347.431	-7.85
347.643	92.5
347.855	41.3
348.067	102.74
348.279	39.25
348.491	53.59
348.703	24.92
348.915	102.74
349.127	59.73
349.339	74.07
349.551	-18.09
349.763	41.3
349.975	-11.95
350.187	100.69
350.399	26.96
350.61	20.82
350.822	-13.99
351.034	4.44
351.246	29.01
351.458	82.26
351.669	65.88
351.881	117.08
352.093	41.3
352.305	35.16
352.517	12.63
352.728	76.12
352.94	18.77
353.152	84.31
353.363	-13.99
353.575	12.63
353.787	90.45
353.999	-3.75
354.21	41.3
354.422	92.5
354.633	-38.57
354.845	33.11
355.057	55.64
355.268	24.92
355.48	82.26
355.692	20.82
355.903	65.88
356.115	49.49
356.326	115.03
356.538	90.45
356.749	88.4
356.961	51.54
357.172	-30.38
357.384	51.54
357.595	51.54
357.807	61.78
358.018	18.77
358.23	39.25
358.441	74.07
358.653	49.49
358.864	33.11
359.075	33.11
359.287	57.68
359.498	18.77
359.709	29.01
359.921	31.06
360.132	74.07
360.344	0.34
360.555	33.11
360.766	131.41
360.977	90.45
361.189	53.59
361.4	26.96
361.611	76.12
361.823	33.11
362.034	33.11
362.245	14.68
362.456	29.01
362.667	14.68
362.879	72.02
363.09	49.49
363.301	45.4
363.512	35.16
363.723	69.97
363.935	102.74
364.146	84.31
364.357	74.07
364.568	61.78
364.779	35.16
364.99	2.39
365.201	92.5
365.412	67.92
365.623	31.06
365.834	43.35
366.045	24.92
366.256	29.01
366.467	98.64
366.678	90.45
366.889	55.64
367.1	0.34
367.311	16.73
367.522	82.26
367.733	119.12
367.944	57.68
368.155	29.01
368.366	84.31
368.577	106.84
368.788	57.68
368.999	80.21
369.209	8.53
369.42	-28.33
369.631	149.84
369.842	35.16
370.053	41.3
370.264	65.88
370.474	67.92
370.685	2.39
370.896	100.69
371.107	18.77
371.317	106.84
371.528	4.44
371.739	98.64
371.95	-24.23
372.16	67.92
372.371	57.68
372.582	45.4
372.792	26.96
373.003	33.11
373.214	14.68
373.424	18.77
373.635	96.6
373.846	104.79
374.056	98.64
374.267	61.78
374.477	108.88
374.688	90.45
374.898	10.58
375.109	-24.23
375.319	31.06
375.53	96.6
375.74	72.02
375.951	65.88
376.161	18.77
376.372	74.07
376.582	86.36
376.793	78.16
377.003	26.96
377.214	37.2
377.424	69.97
377.635	61.78
377.845	82.26
378.055	37.2
378.266	39.25
378.476	26.96
378.686	35.16
378.897	0.34
379.107	90.45
379.317	-28.33
379.528	39.25
379.738	26.96
379.948	76.12
380.158	39.25
380.369	59.73
380.579	94.55
380.789	-22.19
380.999	26.96
381.21	47.44
381.42	115.03
381.63	63.83
381.84	49.49
382.05	45.4
382.261	90.45
382.471	63.83
382.681	49.49
382.891	82.26
383.101	49.49
383.311	33.11
383.521	82.26
383.731	-48.81
383.941	18.77
384.151	100.69
384.361	80.21
384.571	61.78
384.781	57.68
384.991	96.6
385.201	74.07
385.411	35.16
385.621	133.46
385.831	31.06
386.041	65.88
386.251	31.06
386.461	2.39
386.671	57.68
386.881	106.84
387.091	92.5
387.301	31.06
387.511	100.69
387.72	76.12
387.93	26.96
388.14	16.73
388.35	80.21
388.56	41.3
388.769	61.78
388.979	-63.15
389.189	59.73
389.399	84.31
389.609	84.31
389.818	78.16
390.028	67.92
390.238	16.73
390.447	49.49
390.657	65.88
390.867	24.92
391.076	-7.85
391.286	20.82
391.496	65.88
391.705	129.36
391.915	82.26
392.125	41.3
392.334	100.69
392.544	90.45
392.753	59.73
392.963	53.59
393.172	65.88
393.382	106.84
393.591	35.16
393.801	72.02
394.01	74.07
394.22	47.44
394.429	72.02
394.639	76.12
394.848	92.5
395.058	51.54
395.267	82.26
395.477	98.64
395.686	49.49
395.895	12.63
396.105	127.32
396.314	108.88
396.524	74.07
396.733	29.01
396.942	141.65
397.152	92.5
397.361	49.49
397.57	47.44
397.78	29.01
397.989	67.92
398.198	172.37
398.407	84.31
398.617	88.4
398.826	115.03
399.035	90.45
399.244	100.69
399.453	137.56
399.663	88.4
399.872	18.77
400.081	-5.8
400.29	129.36
400.499	112.98
400.708	84.31
400.917	63.83
401.127	76.12
401.336	53.59
401.545	110.93
401.754	39.25
401.963	78.16
402.172	16.73
402.381	12.63
402.59	127.32
402.799	74.07
403.008	67.92
403.217	86.36
403.426	155.99
403.635	86.36
403.844	86.36
404.053	112.98
404.262	102.74
404.471	57.68
404.68	137.56
404.888	106.84
405.097	90.45
405.306	141.65
405.515	123.22
405.724	180.56
405.933	155.99
406.142	123.22
406.35	205.14
406.559	166.23
406.768	131.41
406.977	131.41
407.185	51.54
407.394	125.27
407.603	145.75
407.812	190.8
408.02	203.09
408.229	158.03
408.438	164.18
408.646	225.62
408.855	145.75
409.064	213.33
409.272	260.43
409.481	198.99
409.69	198.99
409.898	270.67
410.107	239.95
410.315	246.1
410.524	270.67
410.733	235.86
410.941	287.06
411.15	338.26
411.358	356.69
411.567	248.15
411.775	287.06
411.984	362.83
412.192	297.3
412.401	321.87
412.609	422.22
412.818	346.45
413.026	342.35
413.234	500.05
413.443	356.69
413.651	358.74
413.86	407.89
414.068	448.85
414.276	500.05
414.485	500.05
414.693	485.71
414.901	454.99
415.11	536.91
415.318	510.29
415.526	524.62
415.734	498
415.943	600.4
416.151	635.21
416.359	577.87
416.567	688.46
416.776	659.79
416.984	762.19
417.192	733.51
417.4	731.47
417.608	753.99
417.817	829.77
418.025	821.58
418.233	870.73
418.441	825.67
418.649	889.16
418.857	866.63
419.065	979.27
419.273	975.17
419.481	966.98
419.689	956.74
419.897	1157.44
420.105	1118.53
420.313	1141.06
420.521	1196.36
420.729	1218.88
420.937	1253.7
421.145	1378.62
421.353	1364.29
421.561	1481.02
421.769	1438.02
421.977	1519.93
422.185	1470.78
422.393	1524.03
422.601	1712.44
422.809	1673.53
423.017	1722.68
423.224	1771.83
423.432	1798.46
423.64	1868.09
423.848	2050.36
424.056	1919.29
424.263	2163
424.471	2025.78
424.679	2218.29
424.887	2302.26
425.094	2322.74
425.302	2318.64
425.51	2380.08
425.718	2490.67
425.925	2541.87
426.133	2623.79
426.341	2683.18
426.548	2775.34
426.756	2851.11
426.964	2902.31
427.171	3049.77
427.379	3113.25
427.586	3244.32
427.794	3201.32
428.001	3311.91
428.209	3596.57
428.417	3586.33
428.624	3809.56
428.832	3860.76
429.039	3748.12
429.247	3709.21
429.454	4024.6
429.662	4339.99
429.869	4077.85
430.076	4393.23
430.284	4348.18
430.491	4432.15
430.699	4751.63
430.906	4690.19
431.114	4858.12
431.321	4882.7
431.528	4983.05
431.736	5339.4
431.943	5529.86
432.15	5286.15
432.358	5443.84
432.565	5781.76
432.772	5695.74
432.979	6177.02
433.187	6103.29
433.394	6199.54
433.601	6619.38
433.808	6549.75
434.016	6582.51
434.223	6705.39
434.43	7254.25
434.637	7047.4
434.844	7641.31
435.052	7880.93
435.259	7876.83
435.466	7600.35
435.673	7641.31
435.88	8122.59
436.087	8480.98
436.294	8523.99
436.501	8378.58
436.708	8671.44
436.915	8952.01
437.122	9189.58
437.329	9175.24
437.537	9523.4
437.743	9898.17
437.95	9638.08
438.157	10111.16
438.364	10535.09
438.571	10406.07
438.778	10494.13
438.985	11464.87
439.192	11069.61
439.399	11413.67
439.606	10889.39
439.813	11722.91
440.02	12355.74
440.227	12148.89
440.433	12173.47
440.64	12607.64
440.847	12404.89
441.054	12607.64
441.261	13355.15
441.467	13291.66
441.674	13506.7
441.881	14043.26
442.088	14098.56
442.294	13803.65
442.501	14413.95
442.708	14690.42
442.914	15210.61
443.121	15925.35
443.328	15251.56
443.534	16529.5
443.741	15822.95
443.948	15835.24
444.154	16752.73
444.361	16867.41
444.568	17150.03
444.774	16719.96
444.981	17035.35
445.187	17424.46
445.394	18182.21
445.6	18128.96
445.807	19691.56
446.013	18952.24
446.22	19470.38
446.426	19884.07
446.633	20054.05
446.839	20924.44
447.046	20181.03
447.252	21170.19
447.459	20989.97
447.665	21170.19
447.871	21944.33
448.078	22851.58
448.284	21823.5
448.491	22573.05
448.697	23447.54
448.903	23750.63
449.11	23746.54
449.316	23496.69
449.522	23646.19
449.728	24608.73
449.935	24627.17
450.141	24684.51
450.347	25173.97
450.553	24602.59
450.76	24725.47
450.966	25776.08
451.172	25321.43
451.378	25731.02
451.584	25303
451.791	26093.51
451.997	26091.46
452.203	26230.73
452.409	26372.03
452.615	25659.34
452.821	25219.03
453.027	24942.55
453.233	25915.34
453.44	25266.13
453.646	25362.39
453.852	25567.18
454.058	25898.95
454.264	25096.15
454.47	25688.01
454.676	25106.39
454.882	26161.09
455.088	23640.04
455.294	24203.24
455.5	24233.96
455.705	24641.5
455.911	23341.04
456.117	23209.97
456.323	22829.05
456.529	21573.64
456.735	22345.73
456.941	22255.62
457.147	21702.67
457.352	20838.42
457.558	21129.23
457.764	20799.51
457.97	20387.87
458.176	20158.5
458.381	19945.51
458.587	18890.81
458.793	18980.92
458.999	17895.49
459.204	19517.48
459.41	18692.15
459.616	17752.13
459.821	17440.84
460.027	17344.59
460.233	17131.6
460.438	16236.64
460.644	16349.28
460.85	15679.59
461.055	15425.64
461.261	15382.63
461.466	14321.79
461.672	13869.19
461.878	14841.97
462.083	13895.81
462.289	13899.91
462.494	13480.07
462.7	12939.41
462.905	12648.6
463.111	13183.12
463.316	12902.54
463.522	12638.36
463.727	12935.31
463.932	12724.37
464.138	12732.56
464.343	12808.34
464.549	12427.42
464.754	12562.58
464.959	13045.9
465.165	12662.93
465.37	12011.68
465.575	11665.57
465.781	12083.36
465.986	12361.88
466.191	11722.91
466.397	11620.52
466.602	11067.56
466.807	11428.01
467.012	11548.84
467.218	11210.92
467.423	11329.7
467.628	11303.08
467.833	11937.95
468.038	11436.2
468.244	10946.73
468.449	11425.96
