Data from USB4F104151__151__13-58-34-154.txt Node

Date: Thu Mar 13 13:58:34 EDT 2025
User: louis
Spectrometer: USB4F10415
Trigger mode: 4
Integration Time (sec): 1.000000E-2
Scans to average: 1
Electric dark correction enabled: true
Nonlinearity correction enabled: false
Boxcar width: 0
XAxis mode: Wavelengths
Number of Pixels in Spectrum: 3648
>>>>>Begin Spectral Data<<<<<
178.204	-50
178.424	-50
178.644	-50
178.864	-50
179.084	-33.62
179.304	9.39
179.524	-35.67
179.744	-23.38
179.964	15.53
180.184	40.11
180.404	-39.76
180.624	70.83
180.844	-15.19
181.064	29.87
181.283	-13.14
181.503	3.24
181.723	-41.81
181.943	-82.77
182.163	-0.85
182.383	-19.29
182.602	25.77
182.822	68.78
183.042	97.45
183.262	-50
183.482	-0.85
183.701	29.87
183.921	5.29
184.141	11.43
184.361	40.11
184.58	11.43
184.8	-33.62
185.02	-43.86
185.239	-4.95
185.459	-60.24
185.679	-19.29
185.898	-70.48
186.118	52.39
186.338	64.68
186.557	-47.96
186.777	17.58
186.997	15.53
187.216	11.43
187.436	36.01
187.655	48.3
187.875	23.72
188.095	44.2
188.314	27.82
188.534	-9.05
188.753	87.21
188.973	-19.29
189.192	38.06
189.412	11.43
189.631	17.58
189.851	17.58
190.07	9.39
190.29	-15.19
190.509	25.77
190.729	38.06
190.948	-35.67
191.168	17.58
191.387	56.49
191.607	-9.05
191.826	-13.14
192.045	7.34
192.265	17.58
192.484	31.91
192.704	5.29
192.923	-2.9
193.142	-11.09
193.362	29.87
193.581	33.96
193.8	-19.29
194.02	1.19
194.239	-33.62
194.458	23.72
194.678	7.34
194.897	-11.09
195.116	50.35
195.335	-60.24
195.555	44.2
195.774	33.96
195.993	21.67
196.212	1.19
196.432	-62.29
196.651	9.39
196.87	-17.24
197.089	42.15
197.308	-13.14
197.528	-2.9
197.747	-76.63
197.966	54.44
198.185	19.63
198.404	-37.72
198.623	-41.81
198.842	83.11
199.062	-52.05
199.281	17.58
199.5	-60.24
199.719	-9.05
199.938	-82.77
200.157	-17.24
200.376	-72.53
200.595	21.67
200.814	13.48
201.033	-13.14
201.252	-33.62
201.471	-9.05
201.69	-35.67
201.909	-70.48
202.128	33.96
202.347	-33.62
202.566	17.58
202.785	-4.95
203.004	-27.48
203.223	38.06
203.442	44.2
203.661	-80.72
203.879	-23.38
204.098	-4.95
204.317	-17.24
204.536	7.34
204.755	-9.05
204.974	15.53
205.193	-27.48
205.411	38.06
205.63	15.53
205.849	-13.14
206.068	-11.09
206.287	23.72
206.505	1.19
206.724	7.34
206.943	-11.09
207.162	36.01
207.381	54.44
207.599	-35.67
207.818	25.77
208.037	97.45
208.255	15.53
208.474	27.82
208.693	60.59
208.911	-7
209.13	-9.05
209.349	70.83
209.567	-15.19
209.786	46.25
210.005	58.54
210.223	62.63
210.442	-13.14
210.661	7.34
210.879	-7
211.098	-64.34
211.316	21.67
211.535	-70.48
211.753	-41.81
211.972	-7
212.191	-62.29
212.409	87.21
212.628	-13.14
212.846	-11.09
213.065	13.48
213.283	-23.38
213.502	-4.95
213.72	-2.9
213.938	-11.09
214.157	17.58
214.375	79.02
214.594	-9.05
214.812	-9.05
215.031	15.53
215.249	15.53
215.467	-7
215.686	-13.14
215.904	-13.14
216.122	-25.43
216.341	58.54
216.559	-11.09
216.778	72.87
216.996	9.39
217.214	-7
217.432	-31.57
217.651	36.01
217.869	-54.1
218.087	31.91
218.306	1.19
218.524	50.35
218.742	-11.09
218.96	38.06
219.179	25.77
219.397	50.35
219.615	-2.9
219.833	-17.24
220.051	-29.52
220.27	15.53
220.488	33.96
220.706	60.59
220.924	-43.86
221.142	-19.29
221.36	-9.05
221.578	76.97
221.796	13.48
222.015	5.29
222.233	-9.05
222.451	50.35
222.669	-17.24
222.887	-35.67
223.105	21.67
223.323	33.96
223.541	40.11
223.759	64.68
223.977	31.91
224.195	-25.43
224.413	-19.29
224.631	-19.29
224.849	-15.19
225.067	13.48
225.285	7.34
225.503	44.2
225.721	-52.05
225.939	-15.19
226.157	-11.09
226.375	-2.9
226.592	46.25
226.81	-84.82
227.028	-23.38
227.246	72.87
227.464	21.67
227.682	23.72
227.9	17.58
228.117	-15.19
228.335	-23.38
228.553	9.39
228.771	50.35
228.989	-0.85
229.206	15.53
229.424	19.63
229.642	31.91
229.86	-19.29
230.077	13.48
230.295	-0.85
230.513	56.49
230.731	33.96
230.948	54.44
231.166	29.87
231.384	50.35
231.601	46.25
231.819	25.77
232.037	-11.09
232.254	-43.86
232.472	-35.67
232.689	-37.72
232.907	9.39
233.125	1.19
233.342	7.34
233.56	-88.92
233.777	48.3
233.995	42.15
234.213	33.96
234.43	-17.24
234.648	21.67
234.865	29.87
235.083	40.11
235.3	-15.19
235.518	54.44
235.735	-29.52
235.953	7.34
236.17	-35.67
236.388	13.48
236.605	-35.67
236.822	-4.95
237.04	36.01
237.257	19.63
237.475	-25.43
237.692	56.49
237.909	15.53
238.127	-11.09
238.344	-2.9
238.562	-2.9
238.779	7.34
238.996	1.19
239.214	-58.2
239.431	-17.24
239.648	9.39
239.865	48.3
240.083	-45.91
240.3	-0.85
240.517	-17.24
240.735	-43.86
240.952	-21.33
241.169	-17.24
241.386	-2.9
241.603	38.06
241.821	17.58
242.038	21.67
242.255	3.24
242.472	-70.48
242.689	9.39
242.907	-7
243.124	19.63
243.341	62.63
243.558	1.19
243.775	1.19
243.992	-19.29
244.209	46.25
244.426	-7
244.643	-19.29
244.86	-17.24
245.078	1.19
245.295	15.53
245.512	-4.95
245.729	-29.52
245.946	48.3
246.163	-76.63
246.38	38.06
246.597	23.72
246.814	7.34
247.031	-17.24
247.248	13.48
247.464	58.54
247.681	-13.14
247.898	-0.85
248.115	1.19
248.332	46.25
248.549	1.19
248.766	42.15
248.983	54.44
249.2	-0.85
249.417	-21.33
249.633	-11.09
249.85	17.58
250.067	-15.19
250.284	25.77
250.501	38.06
250.717	79.02
250.934	40.11
251.151	-19.29
251.368	89.26
251.585	56.49
251.801	60.59
252.018	54.44
252.235	72.87
252.451	44.2
252.668	40.11
252.885	54.44
253.102	44.2
253.318	-9.05
253.535	-74.58
253.752	-17.24
253.968	87.21
254.185	-4.95
254.401	7.34
254.618	-27.48
254.835	54.44
255.051	-70.48
255.268	-9.05
255.484	38.06
255.701	21.67
255.917	117.93
256.134	3.24
256.351	23.72
256.567	-15.19
256.784	31.91
257	-23.38
257.217	87.21
257.433	27.82
257.65	-2.9
257.866	21.67
258.082	-56.15
258.299	50.35
258.515	13.48
258.732	-13.14
258.948	23.72
259.165	-66.39
259.381	-52.05
259.597	-70.48
259.814	29.87
260.03	-35.67
260.246	29.87
260.463	9.39
260.679	33.96
260.895	36.01
261.112	-11.09
261.328	74.92
261.544	-66.39
261.761	-17.24
261.977	23.72
262.193	9.39
262.409	-9.05
262.626	48.3
262.842	9.39
263.058	13.48
263.274	42.15
263.49	1.19
263.707	36.01
263.923	5.29
264.139	1.19
264.355	13.48
264.571	-33.62
264.787	-15.19
265.004	-58.2
265.22	3.24
265.436	17.58
265.652	13.48
265.868	60.59
266.084	64.68
266.3	-52.05
266.516	9.39
266.732	-50
266.948	70.83
267.164	95.4
267.38	62.63
267.596	-13.14
267.812	-43.86
268.028	-52.05
268.244	9.39
268.46	-19.29
268.676	46.25
268.892	-39.76
269.108	38.06
269.324	62.63
269.54	-39.76
269.756	13.48
269.972	15.53
270.188	3.24
270.403	15.53
270.619	15.53
270.835	31.91
271.051	15.53
271.267	105.64
271.483	-37.72
271.698	83.11
271.914	-29.52
272.13	-13.14
272.346	19.63
272.562	1.19
272.777	5.29
272.993	62.63
273.209	17.58
273.425	7.34
273.64	38.06
273.856	11.43
274.072	23.72
274.287	1.19
274.503	3.24
274.719	62.63
274.934	-56.15
275.15	-11.09
275.366	46.25
275.581	50.35
275.797	21.67
276.012	-2.9
276.228	29.87
276.444	33.96
276.659	72.87
276.875	-23.38
277.09	21.67
277.306	-7
277.521	50.35
277.737	-35.67
277.952	-74.58
278.168	-25.43
278.383	52.39
278.599	27.82
278.814	-19.29
279.03	36.01
279.245	-0.85
279.461	89.26
279.676	44.2
279.892	-23.38
280.107	5.29
280.322	-54.1
280.538	58.54
280.753	-97.11
280.969	31.91
281.184	3.24
281.399	40.11
281.615	111.78
281.83	15.53
282.045	-11.09
282.26	70.83
282.476	-17.24
282.691	76.97
282.906	-11.09
283.122	-52.05
283.337	-25.43
283.552	38.06
283.767	-0.85
283.983	9.39
284.198	13.48
284.413	29.87
284.628	-74.58
284.843	29.87
285.058	-72.53
285.274	5.29
285.489	1.19
285.704	15.53
285.919	7.34
286.134	31.91
286.349	3.24
286.564	-19.29
286.779	9.39
286.995	29.87
287.21	-27.48
287.425	15.53
287.64	62.63
287.855	-13.14
288.07	48.3
288.285	27.82
288.5	44.2
288.715	-2.9
288.93	-56.15
289.145	36.01
289.36	62.63
289.575	-13.14
289.79	38.06
290.004	13.48
290.219	21.67
290.434	-27.48
290.649	5.29
290.864	-4.95
291.079	7.34
291.294	56.49
291.509	-11.09
291.724	62.63
291.938	36.01
292.153	21.67
292.368	-23.38
292.583	-19.29
292.798	87.21
293.012	117.93
293.227	-4.95
293.442	64.68
293.657	58.54
293.871	93.35
294.086	56.49
294.301	33.96
294.516	-0.85
294.73	15.53
294.945	36.01
295.16	5.29
295.374	21.67
295.589	19.63
295.804	17.58
296.018	3.24
296.233	-37.72
296.447	25.77
296.662	21.67
296.877	91.31
297.091	29.87
297.306	23.72
297.52	-9.05
297.735	11.43
297.949	33.96
298.164	46.25
298.378	7.34
298.593	7.34
298.807	1.19
299.022	-39.76
299.236	25.77
299.451	15.53
299.665	31.91
299.88	79.02
300.094	-11.09
300.309	-19.29
300.523	-0.85
300.737	40.11
300.952	54.44
301.166	60.59
301.381	79.02
301.595	23.72
301.809	-9.05
302.024	50.35
302.238	25.77
302.452	1.19
302.667	1.19
302.881	-11.09
303.095	56.49
303.309	-15.19
303.524	-29.52
303.738	-9.05
303.952	-23.38
304.166	7.34
304.381	-4.95
304.595	9.39
304.809	-4.95
305.023	-19.29
305.237	-13.14
305.452	13.48
305.666	7.34
305.88	23.72
306.094	27.82
306.308	27.82
306.522	-2.9
306.736	25.77
306.95	-29.52
307.164	89.26
307.379	-33.62
307.593	54.44
307.807	25.77
308.021	27.82
308.235	-7
308.449	-66.39
308.663	52.39
308.877	66.73
309.091	33.96
309.305	-56.15
309.519	-45.91
309.733	70.83
309.947	-2.9
310.161	105.64
310.374	-23.38
310.588	-15.19
310.802	-56.15
311.016	-19.29
311.23	-9.05
311.444	17.58
311.658	3.24
311.872	44.2
312.085	72.87
312.299	72.87
312.513	1.19
312.727	9.39
312.941	21.67
313.154	-29.52
313.368	62.63
313.582	3.24
313.796	23.72
314.009	74.92
314.223	60.59
314.437	-27.48
314.651	1.19
314.864	42.15
315.078	81.07
315.292	17.58
315.505	-9.05
315.719	33.96
315.933	54.44
316.146	-13.14
316.36	-41.81
316.573	72.87
316.787	1.19
317.001	-19.29
317.214	46.25
317.428	-11.09
317.641	-17.24
317.855	87.21
318.068	15.53
318.282	72.87
318.495	-43.86
318.709	101.55
318.922	7.34
319.136	-9.05
319.349	83.11
319.563	-7
319.776	-47.96
319.99	42.15
320.203	-29.52
320.417	50.35
320.63	36.01
320.843	83.11
321.057	-31.57
321.27	50.35
321.483	46.25
321.697	38.06
321.91	66.73
322.124	33.96
322.337	17.58
322.55	36.01
322.763	72.87
322.977	33.96
323.19	-64.34
323.403	-58.2
323.617	-31.57
323.83	17.58
324.043	5.29
324.256	5.29
324.469	-21.33
324.683	13.48
324.896	3.24
325.109	13.48
325.322	-78.68
325.535	25.77
325.748	42.15
325.962	21.67
326.175	79.02
326.388	54.44
326.601	50.35
326.814	-43.86
327.027	27.82
327.24	72.87
327.453	38.06
327.666	-62.29
327.879	29.87
328.092	19.63
328.305	42.15
328.518	13.48
328.731	13.48
328.944	-33.62
329.157	9.39
329.37	7.34
329.583	15.53
329.796	76.97
330.009	-2.9
330.222	52.39
330.435	27.82
330.648	46.25
330.861	-66.39
331.073	62.63
331.286	36.01
331.499	-11.09
331.712	9.39
331.925	-9.05
332.138	5.29
332.35	36.01
332.563	7.34
332.776	3.24
332.989	-27.48
333.202	-7
333.414	-37.72
333.627	-15.19
333.84	-35.67
334.053	5.29
334.265	-58.2
334.478	33.96
334.691	-4.95
334.903	3.24
335.116	38.06
335.329	17.58
335.541	-17.24
335.754	62.63
335.966	15.53
336.179	38.06
336.392	54.44
336.604	23.72
336.817	13.48
337.029	29.87
337.242	103.59
337.454	70.83
337.667	-27.48
337.88	15.53
338.092	-11.09
338.305	27.82
338.517	64.68
338.729	48.3
338.942	58.54
339.154	3.24
339.367	19.63
339.579	-0.85
339.792	38.06
340.004	-17.24
340.217	-19.29
340.429	44.2
340.641	25.77
340.854	15.53
341.066	42.15
341.278	13.48
341.491	36.01
341.703	50.35
341.915	-2.9
342.128	56.49
342.34	36.01
342.552	-25.43
342.764	42.15
342.977	-39.76
343.189	-27.48
343.401	15.53
343.613	7.34
343.826	60.59
344.038	38.06
344.25	5.29
344.462	54.44
344.674	19.63
344.886	38.06
345.099	87.21
345.311	23.72
345.523	-2.9
345.735	42.15
345.947	-13.14
346.159	66.73
346.371	60.59
346.583	-11.09
346.795	-4.95
347.007	29.87
347.219	146.6
347.431	7.34
347.643	87.21
347.855	122.02
348.067	21.67
348.279	76.97
348.491	11.43
348.703	3.24
348.915	13.48
349.127	-19.29
349.339	-19.29
349.551	17.58
349.763	46.25
349.975	7.34
350.187	58.54
350.399	60.59
350.61	33.96
350.822	-33.62
351.034	46.25
351.246	25.77
351.458	68.78
351.669	42.15
351.881	13.48
352.093	-2.9
352.305	15.53
352.517	15.53
352.728	36.01
352.94	-29.52
353.152	36.01
353.363	-23.38
353.575	79.02
353.787	42.15
353.999	5.29
354.21	38.06
354.422	-19.29
354.633	36.01
354.845	3.24
355.057	-39.76
355.268	48.3
355.48	62.63
355.692	-11.09
355.903	58.54
356.115	5.29
356.326	-25.43
356.538	38.06
356.749	64.68
356.961	13.48
357.172	-72.53
357.384	89.26
357.595	25.77
357.807	-54.1
358.018	19.63
358.23	-2.9
358.441	72.87
358.653	40.11
358.864	33.96
359.075	-9.05
359.287	15.53
359.498	15.53
359.709	-0.85
359.921	9.39
360.132	95.4
360.344	56.49
360.555	40.11
360.766	38.06
360.977	29.87
361.189	11.43
361.4	23.72
361.611	-37.72
361.823	50.35
362.034	97.45
362.245	7.34
362.456	-25.43
362.667	13.48
362.879	-56.15
363.09	-35.67
363.301	50.35
363.512	11.43
363.723	5.29
363.935	9.39
364.146	-13.14
364.357	11.43
364.568	70.83
364.779	-17.24
364.99	50.35
365.201	-11.09
365.412	19.63
365.623	-25.43
365.834	9.39
366.045	-17.24
366.256	56.49
366.467	13.48
366.678	40.11
366.889	23.72
367.1	70.83
367.311	33.96
367.522	-60.24
367.733	-9.05
367.944	93.35
368.155	17.58
368.366	50.35
368.577	13.48
368.788	25.77
368.999	36.01
369.209	25.77
369.42	15.53
369.631	31.91
369.842	29.87
370.053	74.92
370.264	-9.05
370.474	-2.9
370.685	66.73
370.896	31.91
371.107	89.26
371.317	-37.72
371.528	46.25
371.739	87.21
371.95	105.64
372.16	101.55
372.371	36.01
372.582	38.06
372.792	1.19
373.003	70.83
373.214	87.21
373.424	-2.9
373.635	48.3
373.846	25.77
374.056	-17.24
374.267	-27.48
374.477	17.58
374.688	60.59
374.898	56.49
375.109	11.43
375.319	-4.95
375.53	-45.91
375.74	23.72
375.951	5.29
376.161	36.01
376.372	95.4
376.582	1.19
376.793	27.82
377.003	68.78
377.214	42.15
377.424	48.3
377.635	-25.43
377.845	58.54
378.055	50.35
378.266	-17.24
378.476	60.59
378.686	130.22
378.897	5.29
379.107	40.11
379.317	64.68
379.528	-23.38
379.738	11.43
379.948	72.87
380.158	11.43
380.369	48.3
380.579	46.25
380.789	-0.85
380.999	29.87
381.21	54.44
381.42	31.91
381.63	46.25
381.84	25.77
382.05	60.59
382.261	50.35
382.471	23.72
382.681	36.01
382.891	19.63
383.101	79.02
383.311	-15.19
383.521	9.39
383.731	42.15
383.941	83.11
384.151	-23.38
384.361	72.87
384.571	29.87
384.781	-31.57
384.991	117.93
385.201	23.72
385.411	9.39
385.621	54.44
385.831	33.96
386.041	56.49
386.251	9.39
386.461	97.45
386.671	-15.19
386.881	5.29
387.091	-11.09
387.301	33.96
387.511	60.59
387.72	36.01
387.93	17.58
388.14	119.98
388.35	124.07
388.56	23.72
388.769	42.15
388.979	83.11
389.189	-21.33
389.399	83.11
389.609	31.91
389.818	-17.24
390.028	95.4
390.238	-21.33
390.447	38.06
390.657	62.63
390.867	60.59
391.076	48.3
391.286	62.63
391.496	111.78
391.705	-17.24
391.915	85.16
392.125	50.35
392.334	-23.38
392.544	48.3
392.753	68.78
392.963	-33.62
393.172	66.73
393.382	-78.68
393.591	42.15
393.801	5.29
394.01	97.45
394.22	-4.95
394.429	-27.48
394.639	7.34
394.848	109.74
395.058	31.91
395.267	5.29
395.477	-62.29
395.686	27.82
395.895	56.49
396.105	97.45
396.314	42.15
396.524	33.96
396.733	-41.81
396.942	79.02
397.152	68.78
397.361	62.63
397.57	124.07
397.78	68.78
397.989	105.64
398.198	103.59
398.407	19.63
398.617	130.22
398.826	25.77
399.035	136.36
399.244	54.44
399.453	107.69
399.663	87.21
399.872	79.02
400.081	134.31
400.29	105.64
400.499	15.53
400.708	36.01
400.917	21.67
401.127	40.11
401.336	72.87
401.545	70.83
401.754	74.92
401.963	134.31
402.172	97.45
402.381	46.25
402.59	107.69
402.799	89.26
403.008	38.06
403.217	48.3
403.426	138.41
403.635	33.96
403.844	83.11
404.053	54.44
404.262	85.16
404.471	173.22
404.68	109.74
404.888	107.69
405.097	95.4
405.306	117.93
405.515	48.3
405.724	109.74
405.933	97.45
406.142	113.83
406.35	126.12
406.559	117.93
406.768	124.07
406.977	103.59
407.185	130.22
407.394	154.79
407.603	56.49
407.812	119.98
408.02	191.66
408.229	162.98
408.438	167.08
408.646	203.94
408.855	175.27
409.064	169.13
409.272	205.99
409.481	169.13
409.69	160.94
409.898	255.14
410.107	195.75
410.315	189.61
410.524	283.81
410.733	294.05
410.941	152.74
411.15	298.15
411.358	253.09
411.567	353.45
411.775	269.48
411.984	332.97
412.192	332.97
412.401	300.2
412.609	253.09
412.818	353.45
413.026	378.02
413.234	345.25
413.443	332.97
413.651	343.21
413.86	425.12
414.068	492.71
414.276	429.22
414.485	414.88
414.693	490.66
414.901	472.23
415.11	507.04
415.318	484.52
415.526	545.95
415.734	566.43
415.943	517.28
416.151	531.62
416.359	623.78
416.567	648.35
416.776	574.63
416.984	695.46
417.192	677.02
417.4	709.79
417.608	681.12
417.817	758.94
418.025	804
418.233	783.52
418.441	849.05
418.649	955.55
418.857	842.91
419.065	906.4
419.273	926.88
419.481	1008.8
419.689	1027.23
419.897	1051.8
420.105	1127.58
420.313	1105.05
420.521	1064.09
420.729	1133.72
420.937	1201.3
421.145	1264.79
421.353	1246.36
421.561	1367.19
421.769	1367.19
421.977	1395.86
422.185	1485.97
422.393	1508.5
422.601	1674.39
422.809	1672.34
423.017	1651.86
423.224	1672.34
423.432	1834.13
423.64	1825.93
423.848	1889.42
424.056	1768.59
424.263	1948.81
424.471	2061.45
424.679	2018.44
424.887	2065.55
425.094	2270.34
425.302	2233.48
425.51	2342.02
425.718	2493.57
425.925	2464.9
426.133	2514.05
426.341	2643.07
426.548	2868.35
426.756	2886.78
426.964	2772.1
427.171	2864.25
427.379	3138.68
427.586	3036.28
427.794	3269.75
428.001	3292.28
428.209	3443.83
428.417	3431.54
428.624	3662.96
428.832	3593.33
429.039	3615.86
429.247	3644.53
429.454	3968.11
429.662	4222.06
429.869	4013.17
430.076	4234.35
430.284	4234.35
430.491	4283.5
430.699	4433
430.906	4723.81
431.114	4613.22
431.321	4789.35
431.528	4834.4
431.736	5143.64
431.943	5375.06
432.15	5350.49
432.358	5364.82
432.565	5639.25
432.772	5649.49
432.979	5870.67
433.187	6042.7
433.394	6050.89
433.601	6364.23
433.808	6394.95
434.016	6552.65
434.223	6657.09
434.43	7089.21
434.637	6995.01
434.844	7357.5
435.052	7644.21
435.259	7484.47
435.466	7560.25
435.673	7418.94
435.88	7892.02
436.087	8322.09
436.294	8170.54
436.501	8062
436.708	8256.56
436.915	8485.93
437.122	9126.94
437.329	8625.19
437.537	9298.97
437.743	9356.32
437.95	9331.74
438.157	9917.46
438.364	10179.6
438.571	10026
438.778	10261.52
438.985	10888.2
439.192	10705.93
439.399	11072.51
439.606	10781.7
439.813	11262.97
440.02	12090.35
440.227	11736.06
440.433	11744.25
440.64	12086.26
440.847	12010.48
441.054	12497.9
441.261	12960.74
441.467	12927.97
441.674	13186.02
441.881	13663.19
442.088	13702.11
442.294	13476.83
442.501	13904.85
442.708	14336.98
442.914	14582.73
443.121	15530.94
443.328	14894.02
443.534	15930.3
443.741	15729.59
443.948	15668.16
444.154	16593.84
444.361	16360.37
444.568	16356.27
444.774	16548.78
444.981	16518.06
445.187	16939.94
445.394	17937.3
445.6	17642.4
445.807	19131.27
446.013	18488.21
446.22	19037.06
446.426	19417.99
446.633	19657.6
446.839	20525.94
447.046	19485.57
447.252	20841.32
447.459	20771.69
447.665	20755.31
447.871	21388.13
448.078	22590.29
448.284	21152.62
448.491	21918.56
448.697	22838.09
448.903	22877.01
449.11	23145.29
449.316	22930.25
449.522	23040.84
449.728	23900.99
449.935	24025.92
450.141	23669.57
450.347	24556.34
450.553	23876.41
450.76	24394.55
450.966	24896.3
451.172	24636.21
451.378	25492.26
451.584	24496.95
451.791	25471.78
451.997	25078.57
452.203	25828.13
452.409	25862.94
452.615	25252.65
452.821	24677.17
453.027	24509.24
453.233	25236.27
453.44	24308.54
453.646	24732.47
453.852	24832.82
454.058	25461.54
454.264	24769.33
454.47	24924.97
454.676	24466.23
454.882	24951.6
455.088	22993.74
455.294	23616.32
455.5	23759.68
455.705	24077.12
455.911	22842.19
456.117	22471.51
456.323	22231.9
456.529	21011.31
456.735	21922.65
456.941	21629.79
457.147	21199.72
457.352	20329.33
457.558	20325.24
457.764	20224.89
457.97	19944.31
458.176	19147.65
458.381	19200.9
458.587	18459.54
458.793	18635.66
458.999	17550.24
459.204	18736.01
459.41	18486.16
459.616	17116.07
459.821	17058.73
460.027	16837.55
460.233	16927.66
460.438	15934.39
460.644	16063.41
460.85	15336.38
461.055	14918.6
461.261	15223.75
461.466	13704.15
461.672	13714.39
461.878	14414.8
462.083	13568.99
462.289	13358.05
462.494	13210.59
462.7	12567.53
462.905	12112.88
463.111	12561.39
463.316	12772.33
463.522	12573.67
463.727	12657.64
463.932	12606.44
464.138	12219.38
464.343	12225.52
464.549	12166.13
464.754	12499.95
464.959	12317.68
465.165	12329.97
465.37	11826.17
465.575	11512.83
465.781	12166.13
465.986	12080.11
466.191	11752.44
466.397	11269.12
466.602	10599.43
466.807	11086.85
467.012	11230.21
467.218	11215.87
467.423	11117.57
467.628	11228.16
