Data from USB4F104151__134__13-58-03-097.txt Node

Date: Thu Mar 13 13:58:03 EDT 2025
User: louis
Spectrometer: USB4F10415
Trigger mode: 4
Integration Time (sec): 1.000000E-2
Scans to average: 1
Electric dark correction enabled: true
Nonlinearity correction enabled: false
Boxcar width: 0
XAxis mode: Wavelengths
Number of Pixels in Spectrum: 3648
>>>>>Begin Spectral Data<<<<<
178.204	-24.06
178.424	-24.06
178.644	-24.06
178.864	-22.02
179.084	20.99
179.304	18.94
179.524	-17.92
179.744	41.47
179.964	4.61
180.184	-34.3
180.404	78.33
180.624	-38.4
180.844	-15.87
181.064	-65.02
181.283	-17.92
181.503	49.66
181.723	-3.58
181.943	86.53
182.163	6.66
182.383	-65.02
182.602	-15.87
182.822	-1.54
183.042	14.85
183.262	-13.82
183.482	33.28
183.701	86.53
183.921	-1.54
184.141	78.33
184.361	37.38
184.58	16.9
184.8	20.99
185.02	-48.64
185.239	6.66
185.459	41.47
185.679	31.23
185.898	6.66
186.118	41.47
186.338	25.09
186.557	-15.87
186.777	31.23
186.997	4.61
187.216	0.51
187.436	61.95
187.655	61.95
187.875	39.42
188.095	18.94
188.314	8.7
188.534	10.75
188.753	59.9
188.973	-24.06
189.192	-7.68
189.412	6.66
189.631	45.57
189.851	8.7
190.07	37.38
190.29	31.23
190.509	0.51
190.729	-24.06
190.948	78.33
191.168	145.92
191.387	31.23
191.607	12.8
191.826	10.75
192.045	29.18
192.265	55.81
192.484	-40.45
192.704	45.57
192.923	-40.45
193.142	-9.73
193.362	33.28
193.581	66.05
193.8	49.66
194.02	90.62
194.239	-54.78
194.458	12.8
194.678	29.18
194.897	2.56
195.116	94.72
195.335	23.04
195.555	70.14
195.774	31.23
195.993	92.67
196.212	20.99
196.432	82.43
196.651	102.91
196.87	-19.97
197.089	49.66
197.308	-19.97
197.528	-3.58
197.747	25.09
197.966	41.47
198.185	0.51
198.404	64
198.623	-50.69
198.842	37.38
199.062	29.18
199.281	-17.92
199.5	49.66
199.719	86.53
199.938	70.14
200.157	53.76
200.376	-1.54
200.595	127.49
200.814	-32.26
201.033	20.99
201.252	53.76
201.471	80.38
201.69	23.04
201.909	37.38
202.128	49.66
202.347	55.81
202.566	-36.35
202.785	-3.58
203.004	27.14
203.223	98.81
203.442	23.04
203.661	-11.78
203.879	37.38
204.098	119.29
204.317	-28.16
204.536	78.33
204.755	27.14
204.974	4.61
205.193	33.28
205.411	12.8
205.63	39.42
205.849	-7.68
206.068	-19.97
206.287	12.8
206.505	39.42
206.724	-3.58
206.943	23.04
207.162	-3.58
207.381	57.86
207.599	12.8
207.818	0.51
208.037	66.05
208.255	49.66
208.474	39.42
208.693	37.38
208.911	78.33
209.13	23.04
209.349	45.57
209.567	37.38
209.786	0.51
210.005	39.42
210.223	14.85
210.442	41.47
210.661	41.47
210.879	29.18
211.098	39.42
211.316	4.61
211.535	41.47
211.753	-19.97
211.972	90.62
212.191	-32.26
212.409	12.8
212.628	-42.5
212.846	35.33
213.065	78.33
213.283	45.57
213.502	-34.3
213.72	20.99
213.938	45.57
214.157	29.18
214.375	66.05
214.594	45.57
214.812	12.8
215.031	37.38
215.249	-5.63
215.467	57.86
215.686	-5.63
215.904	68.09
216.122	43.52
216.341	74.24
216.559	72.19
216.778	55.81
216.996	27.14
217.214	10.75
217.432	25.09
217.651	25.09
217.869	104.96
218.087	68.09
218.306	-22.02
218.524	45.57
218.742	18.94
218.96	8.7
219.179	76.29
219.397	-7.68
219.615	55.81
219.833	-13.82
220.051	27.14
220.27	68.09
220.488	41.47
220.706	16.9
220.924	29.18
221.142	53.76
221.36	55.81
221.578	61.95
221.796	-15.87
222.015	49.66
222.233	45.57
222.451	20.99
222.669	45.57
222.887	53.76
223.105	4.61
223.323	104.96
223.541	4.61
223.759	20.99
223.977	47.62
224.195	84.48
224.413	25.09
224.631	86.53
224.849	-11.78
225.067	29.18
225.285	2.56
225.503	49.66
225.721	-50.69
225.939	37.38
226.157	49.66
226.375	31.23
226.592	39.42
226.81	37.38
227.028	10.75
227.246	96.77
227.464	64
227.682	37.38
227.9	41.47
228.117	-22.02
228.335	78.33
228.553	90.62
228.771	29.18
228.989	57.86
229.206	-52.74
229.424	4.61
229.642	59.9
229.86	25.09
230.077	2.56
230.295	39.42
230.513	61.95
230.731	35.33
230.948	35.33
231.166	37.38
231.384	12.8
231.601	-32.26
231.819	70.14
232.037	-7.68
232.254	-3.58
232.472	33.28
232.689	12.8
232.907	-7.68
233.125	78.33
233.342	25.09
233.56	6.66
233.777	68.09
233.995	51.71
234.213	47.62
234.43	90.62
234.648	74.24
234.865	23.04
235.083	49.66
235.3	61.95
235.518	-28.16
235.735	47.62
235.953	61.95
236.17	64
236.388	45.57
236.605	35.33
236.822	29.18
237.04	31.23
237.257	6.66
237.475	90.62
237.692	53.76
237.909	31.23
238.127	-77.31
238.344	-13.82
238.562	57.86
238.779	20.99
238.996	47.62
239.214	0.51
239.431	66.05
239.648	143.87
239.865	55.81
240.083	10.75
240.3	64
240.517	10.75
240.735	45.57
240.952	37.38
241.169	47.62
241.386	-7.68
241.603	10.75
241.821	88.57
242.038	18.94
242.255	0.51
242.472	-3.58
242.689	72.19
242.907	12.8
243.124	76.29
243.341	90.62
243.558	45.57
243.775	43.52
243.992	14.85
244.209	-34.3
244.426	23.04
244.643	57.86
244.86	18.94
245.078	27.14
245.295	-7.68
245.512	-1.54
245.729	-26.11
245.946	53.76
246.163	47.62
246.38	78.33
246.597	70.14
246.814	80.38
247.031	25.09
247.248	10.75
247.464	12.8
247.681	18.94
247.898	45.57
248.115	4.61
248.332	-46.59
248.549	39.42
248.766	25.09
248.983	78.33
249.2	51.71
249.417	59.9
249.633	-11.78
249.85	31.23
250.067	4.61
250.284	102.91
250.501	27.14
250.717	39.42
250.934	-71.17
251.151	66.05
251.368	-9.73
251.585	107.01
251.801	-36.35
252.018	-3.58
252.235	43.52
252.451	-11.78
252.668	35.33
252.885	70.14
253.102	49.66
253.318	18.94
253.535	23.04
253.752	16.9
253.968	-34.3
254.185	49.66
254.401	51.71
254.618	49.66
254.835	107.01
255.051	55.81
255.268	55.81
255.484	90.62
255.701	-30.21
255.917	96.77
256.134	-11.78
256.351	115.2
256.567	4.61
256.784	-17.92
257	-24.06
257.217	16.9
257.433	25.09
257.65	37.38
257.866	96.77
258.082	8.7
258.299	-17.92
258.515	53.76
258.732	-36.35
258.948	66.05
259.165	4.61
259.381	-22.02
259.597	-34.3
259.814	92.67
260.03	2.56
260.246	0.51
260.463	27.14
260.679	61.95
260.895	35.33
261.112	14.85
261.328	14.85
261.544	41.47
261.761	39.42
261.977	86.53
262.193	53.76
262.409	-7.68
262.626	35.33
262.842	61.95
263.058	39.42
263.274	109.05
263.49	0.51
263.707	39.42
263.923	-36.35
264.139	-17.92
264.355	43.52
264.571	41.47
264.787	102.91
265.004	41.47
265.22	20.99
265.436	0.51
265.652	39.42
265.868	0.51
266.084	90.62
266.3	6.66
266.516	66.05
266.732	-67.07
266.948	0.51
267.164	31.23
267.38	18.94
267.596	45.57
267.812	61.95
268.028	94.72
268.244	-11.78
268.46	14.85
268.676	12.8
268.892	96.77
269.108	12.8
269.324	18.94
269.54	-11.78
269.756	6.66
269.972	20.99
270.188	-36.35
270.403	-32.26
270.619	57.86
270.835	29.18
271.051	49.66
271.267	39.42
271.483	37.38
271.698	8.7
271.914	70.14
272.13	92.67
272.346	-36.35
272.562	-15.87
272.777	29.18
272.993	64
273.209	55.81
273.425	31.23
273.64	25.09
273.856	8.7
274.072	37.38
274.287	-15.87
274.503	39.42
274.719	47.62
274.934	59.9
275.15	-15.87
275.366	0.51
275.581	43.52
275.797	76.29
276.012	-24.06
276.228	84.48
276.444	-1.54
276.659	82.43
276.875	33.28
277.09	-19.97
277.306	-3.58
277.521	68.09
277.737	14.85
277.952	49.66
278.168	51.71
278.383	45.57
278.599	25.09
278.814	72.19
279.03	74.24
279.245	47.62
279.461	37.38
279.676	39.42
279.892	-1.54
280.107	121.34
280.322	68.09
280.538	41.47
280.753	29.18
280.969	102.91
281.184	35.33
281.399	14.85
281.615	53.76
281.83	16.9
282.045	59.9
282.26	-15.87
282.476	37.38
282.691	70.14
282.906	84.48
283.122	57.86
283.337	53.76
283.552	55.81
283.767	98.81
283.983	37.38
284.198	111.1
284.413	45.57
284.628	53.76
284.843	102.91
285.058	-9.73
285.274	23.04
285.489	-60.93
285.704	78.33
285.919	23.04
286.134	47.62
286.349	20.99
286.564	68.09
286.779	88.57
286.995	-24.06
287.21	104.96
287.425	27.14
287.64	53.76
287.855	76.29
288.07	49.66
288.285	104.96
288.5	0.51
288.715	-24.06
288.93	53.76
289.145	45.57
289.36	64
289.575	74.24
289.79	37.38
290.004	16.9
290.219	37.38
290.434	14.85
290.649	-15.87
290.864	41.47
291.079	-1.54
291.294	78.33
291.509	2.56
291.724	57.86
291.938	82.43
292.153	66.05
292.368	96.77
292.583	43.52
292.798	25.09
293.012	66.05
293.227	45.57
293.442	25.09
293.657	-1.54
293.871	-1.54
294.086	41.47
294.301	27.14
294.516	27.14
294.73	37.38
294.945	-28.16
295.16	-28.16
295.374	64
295.589	20.99
295.804	92.67
296.018	49.66
296.233	53.76
296.447	45.57
296.662	104.96
296.877	84.48
297.091	8.7
297.306	70.14
297.52	-28.16
297.735	6.66
297.949	-36.35
298.164	33.28
298.378	-30.21
298.593	14.85
298.807	29.18
299.022	47.62
299.236	76.29
299.451	102.91
299.665	16.9
299.88	123.39
300.094	-32.26
300.309	53.76
300.523	70.14
300.737	-15.87
300.952	70.14
301.166	35.33
301.381	84.48
301.595	72.19
301.809	66.05
302.024	29.18
302.238	-67.07
302.452	70.14
302.667	41.47
302.881	111.1
303.095	-5.63
303.309	61.95
303.524	0.51
303.738	35.33
303.952	-13.82
304.166	100.86
304.381	6.66
304.595	86.53
304.809	61.95
305.023	10.75
305.237	76.29
305.452	23.04
305.666	55.81
305.88	39.42
306.094	8.7
306.308	70.14
306.522	43.52
306.736	-1.54
306.95	47.62
307.164	78.33
307.379	74.24
307.593	94.72
307.807	41.47
308.021	29.18
308.235	57.86
308.449	88.57
308.663	20.99
308.877	57.86
309.091	-9.73
309.305	76.29
309.519	20.99
309.733	31.23
309.947	47.62
310.161	94.72
310.374	-34.3
310.588	29.18
310.802	-34.3
311.016	27.14
311.23	-40.45
311.444	35.33
311.658	53.76
311.872	55.81
312.085	88.57
312.299	78.33
312.513	12.8
312.727	70.14
312.941	-3.58
313.154	53.76
313.368	74.24
313.582	49.66
313.796	74.24
314.009	61.95
314.223	18.94
314.437	66.05
314.651	45.57
314.864	-1.54
315.078	-3.58
315.292	37.38
315.505	-19.97
315.719	78.33
315.933	49.66
316.146	68.09
316.36	31.23
316.573	66.05
316.787	-15.87
317.001	49.66
317.214	-1.54
317.428	14.85
317.641	29.18
317.855	76.29
318.068	111.1
318.282	49.66
318.495	33.28
318.709	23.04
318.922	55.81
319.136	2.56
319.349	70.14
319.563	102.91
319.776	68.09
319.99	64
320.203	25.09
320.417	45.57
320.63	33.28
320.843	49.66
321.057	23.04
321.27	76.29
321.483	16.9
321.697	23.04
321.91	10.75
322.124	23.04
322.337	-7.68
322.55	8.7
322.763	51.71
322.977	49.66
323.19	-17.92
323.403	107.01
323.617	29.18
323.83	-19.97
324.043	96.77
324.256	37.38
324.469	68.09
324.683	33.28
324.896	20.99
325.109	43.52
325.322	4.61
325.535	27.14
325.748	68.09
325.962	47.62
326.175	23.04
326.388	72.19
326.601	-7.68
326.814	66.05
327.027	6.66
327.24	57.86
327.453	31.23
327.666	12.8
327.879	53.76
328.092	16.9
328.305	-9.73
328.518	123.39
328.731	29.18
328.944	51.71
329.157	158.21
329.37	29.18
329.583	98.81
329.796	14.85
330.009	18.94
330.222	61.95
330.435	131.58
330.648	92.67
330.861	18.94
331.073	84.48
331.286	47.62
331.499	57.86
331.712	94.72
331.925	74.24
332.138	29.18
332.35	45.57
332.563	-26.11
332.776	20.99
332.989	23.04
333.202	0.51
333.414	-7.68
333.627	78.33
333.84	16.9
334.053	72.19
334.265	-26.11
334.478	100.86
334.691	33.28
334.903	55.81
335.116	6.66
335.329	29.18
335.541	51.71
335.754	45.57
335.966	-52.74
336.179	6.66
336.392	41.47
336.604	100.86
336.817	78.33
337.029	18.94
337.242	94.72
337.454	-7.68
337.667	94.72
337.88	43.52
338.092	27.14
338.305	4.61
338.517	4.61
338.729	123.39
338.942	2.56
339.154	-9.73
339.367	107.01
339.579	43.52
339.792	-11.78
340.004	8.7
340.217	-44.54
340.429	-7.68
340.641	0.51
340.854	59.9
341.066	23.04
341.278	33.28
341.491	-15.87
341.703	14.85
341.915	16.9
342.128	119.29
342.34	45.57
342.552	-15.87
342.764	41.47
342.977	57.86
343.189	31.23
343.401	8.7
343.613	51.71
343.826	-3.58
344.038	37.38
344.25	80.38
344.462	98.81
344.674	-38.4
344.886	45.57
345.099	86.53
345.311	-28.16
345.523	53.76
345.735	61.95
345.947	61.95
346.159	45.57
346.371	25.09
346.583	96.77
346.795	66.05
347.007	55.81
347.219	86.53
347.431	23.04
347.643	20.99
347.855	-40.45
348.067	-3.58
348.279	-28.16
348.491	10.75
348.703	20.99
348.915	37.38
349.127	0.51
349.339	-30.21
349.551	45.57
349.763	39.42
349.975	20.99
350.187	6.66
350.399	55.81
350.61	168.45
350.822	100.86
351.034	78.33
351.246	-17.92
351.458	37.38
351.669	29.18
351.881	29.18
352.093	-11.78
352.305	92.67
352.517	70.14
352.728	39.42
352.94	90.62
353.152	55.81
353.363	23.04
353.575	49.66
353.787	16.9
353.999	18.94
354.21	74.24
354.422	4.61
354.633	41.47
354.845	49.66
355.057	27.14
355.268	39.42
355.48	70.14
355.692	-3.58
355.903	39.42
356.115	41.47
356.326	57.86
356.538	31.23
356.749	82.43
356.961	109.05
357.172	-38.4
357.384	-22.02
357.595	61.95
357.807	61.95
358.018	86.53
358.23	-13.82
358.441	98.81
358.653	55.81
358.864	90.62
359.075	47.62
359.287	-9.73
359.498	61.95
359.709	-17.92
359.921	59.9
360.132	45.57
360.344	-5.63
360.555	-15.87
360.766	10.75
360.977	61.95
361.189	12.8
361.4	55.81
361.611	72.19
361.823	57.86
362.034	47.62
362.245	-19.97
362.456	43.52
362.667	10.75
362.879	90.62
363.09	94.72
363.301	111.1
363.512	74.24
363.723	86.53
363.935	90.62
364.146	12.8
364.357	45.57
364.568	78.33
364.779	20.99
364.99	61.95
365.201	-3.58
365.412	76.29
365.623	41.47
365.834	45.57
366.045	27.14
366.256	82.43
366.467	115.2
366.678	78.33
366.889	49.66
367.1	84.48
367.311	4.61
367.522	66.05
367.733	98.81
367.944	27.14
368.155	31.23
368.366	113.15
368.577	51.71
368.788	70.14
368.999	-15.87
369.209	102.91
369.42	53.76
369.631	61.95
369.842	82.43
370.053	84.48
370.264	68.09
370.474	45.57
370.685	76.29
370.896	74.24
371.107	92.67
371.317	59.9
371.528	33.28
371.739	39.42
371.95	51.71
372.16	4.61
372.371	-26.11
372.582	98.81
372.792	2.56
373.003	119.29
373.214	41.47
373.424	33.28
373.635	2.56
373.846	80.38
374.056	-1.54
374.267	57.86
374.477	18.94
374.688	-11.78
374.898	74.24
375.109	-30.21
375.319	53.76
375.53	57.86
375.74	72.19
375.951	55.81
376.161	64
376.372	68.09
376.582	61.95
376.793	18.94
377.003	37.38
377.214	45.57
377.424	104.96
377.635	35.33
377.845	-22.02
378.055	121.34
378.266	82.43
378.476	88.57
378.686	31.23
378.897	74.24
379.107	98.81
379.317	68.09
379.528	102.91
379.738	121.34
379.948	41.47
380.158	76.29
380.369	90.62
380.579	45.57
380.789	37.38
380.999	31.23
381.21	88.57
381.42	6.66
381.63	-15.87
381.84	86.53
382.05	104.96
382.261	104.96
382.471	70.14
382.681	72.19
382.891	25.09
383.101	84.48
383.311	47.62
383.521	29.18
383.731	98.81
383.941	109.05
384.151	20.99
384.361	86.53
384.571	43.52
384.781	98.81
384.991	141.82
385.201	86.53
385.411	53.76
385.621	68.09
385.831	18.94
386.041	84.48
386.251	84.48
386.461	137.73
386.671	37.38
386.881	-3.58
387.091	64
387.301	53.76
387.511	23.04
387.72	102.91
387.93	115.2
388.14	35.33
388.35	37.38
388.56	86.53
388.769	96.77
388.979	102.91
389.189	78.33
389.399	119.29
389.609	74.24
389.818	14.85
390.028	20.99
390.238	68.09
390.447	49.66
390.657	70.14
390.867	102.91
391.076	-24.06
391.286	6.66
391.496	33.28
391.705	-11.78
391.915	96.77
392.125	47.62
392.334	10.75
392.544	82.43
392.753	16.9
392.963	47.62
393.172	88.57
393.382	25.09
393.591	35.33
393.801	-5.63
394.01	39.42
394.22	66.05
394.429	102.91
394.639	16.9
394.848	84.48
395.058	72.19
395.267	-13.82
395.477	160.25
395.686	70.14
395.895	147.97
396.105	41.47
396.314	127.49
396.524	78.33
396.733	82.43
396.942	49.66
397.152	8.7
397.361	88.57
397.57	61.95
397.78	102.91
397.989	72.19
398.198	119.29
398.407	37.38
398.617	121.34
398.826	68.09
399.035	-1.54
399.244	94.72
399.453	90.62
399.663	113.15
399.872	92.67
400.081	96.77
400.29	94.72
400.499	109.05
400.708	98.81
400.917	82.43
401.127	109.05
401.336	109.05
401.545	96.77
401.754	53.76
401.963	70.14
402.172	152.06
402.381	104.96
402.59	45.57
402.799	141.82
403.008	141.82
403.217	74.24
403.426	86.53
403.635	102.91
403.844	135.68
404.053	80.38
404.262	51.71
404.471	113.15
404.68	14.85
404.888	158.21
405.097	68.09
405.306	94.72
405.515	125.44
405.724	125.44
405.933	51.71
406.142	119.29
406.35	172.54
406.559	111.1
406.768	154.11
406.977	170.49
407.185	160.25
407.394	184.83
407.603	129.53
407.812	109.05
408.02	168.45
408.229	238.08
408.438	152.06
408.646	158.21
408.855	154.11
409.064	121.34
409.272	172.54
409.481	152.06
409.69	231.93
409.898	190.97
410.107	186.88
410.315	231.93
410.524	211.45
410.733	203.26
410.941	311.8
411.15	283.13
411.358	233.98
411.567	258.56
411.775	285.18
411.984	268.8
412.192	346.62
412.401	236.03
412.609	340.47
412.818	311.8
413.026	272.89
413.234	342.52
413.443	317.95
413.651	322.04
413.86	381.43
414.068	422.39
414.276	401.91
414.485	408.06
414.693	367.1
414.901	502.26
415.11	446.97
415.318	449.02
415.526	467.45
415.734	561.66
415.943	547.32
416.151	508.41
416.359	561.66
416.567	545.27
416.776	608.76
416.984	655.86
417.192	604.66
417.4	610.81
417.608	651.77
417.817	651.77
418.025	754.16
418.233	733.68
418.441	713.21
418.649	723.44
418.857	780.79
419.065	842.23
419.273	821.75
419.481	915.95
419.689	903.67
419.897	850.42
420.105	954.87
420.313	928.24
420.521	1094.13
420.729	1020.4
420.937	1079.79
421.145	1106.42
421.353	1126.89
421.561	1253.87
421.769	1313.26
421.977	1395.18
422.185	1243.63
422.393	1378.79
422.601	1421.8
422.809	1450.47
423.017	1407.47
423.224	1513.96
423.432	1505.77
423.64	1704.42
423.848	1636.84
424.056	1735.14
424.263	1694.18
424.471	1864.16
424.679	1878.5
424.887	2028
425.094	1987.04
425.302	2079.2
425.51	2062.82
425.718	2159.07
425.925	2073.06
426.133	2302.43
426.341	2384.35
426.548	2361.82
426.756	2562.52
426.964	2613.72
427.171	2560.47
427.379	2603.48
427.586	2795.99
427.794	2752.98
428.001	2939.35
428.209	3207.63
428.417	2963.92
428.624	3232.21
428.832	3322.32
429.039	3289.55
429.247	3332.56
429.454	3658.18
429.662	3701.19
429.869	3477.96
430.076	3787.21
430.284	3891.65
430.491	3856.84
430.699	4008.39
430.906	4098.5
431.114	3985.86
431.321	4356.54
431.528	4469.18
431.736	4645.31
431.943	5024.18
432.15	4719.03
432.358	4858.29
432.565	5081.52
432.772	5018.04
432.979	5343.66
433.187	5239.22
433.394	5390.77
433.601	5685.67
433.808	5781.93
434.016	5763.5
434.223	5986.72
434.43	6445.47
434.637	6220.19
434.844	6386.08
435.052	6721.95
435.259	6783.38
435.466	6691.23
435.673	6732.19
435.88	7102.87
436.087	7672.2
436.294	7448.97
436.501	7438.73
436.708	7344.53
436.915	7776.65
437.122	8081.8
437.329	7969.16
437.537	8219.01
437.743	8382.85
437.95	8444.29
438.157	8845.69
438.364	9236.85
438.571	8978.81
438.778	9359.73
438.985	9951.59
439.192	9570.67
439.399	9902.44
439.606	9781.61
439.813	10254.69
440.02	10789.21
440.227	10748.25
440.433	10412.39
440.64	10885.47
440.847	10963.29
441.054	11262.29
441.261	11833.68
441.467	11706.7
441.674	11999.56
441.881	12220.74
442.088	12302.66
442.294	12155.21
442.501	12456.26
442.708	12814.65
442.914	13248.82
443.121	13828.4
443.328	13381.94
443.534	14203.18
443.741	13818.16
443.948	13961.51
444.154	14625.06
444.361	14594.34
444.568	14586.15
444.774	14795.04
444.981	14995.74
445.187	15497.49
445.394	16109.83
445.6	15933.71
445.807	17256.7
446.013	16570.63
446.22	16937.21
446.426	17733.87
446.633	17770.74
446.839	18514.15
447.046	17852.66
447.252	18833.63
447.459	18575.59
447.665	18503.91
447.871	19611.86
448.078	20185.29
448.284	19323.1
448.491	19464.41
448.697	20576.45
448.903	20953.28
449.11	20940.99
449.316	20691.14
449.522	20949.18
449.728	21610.68
449.935	21809.33
450.141	21620.92
450.347	22329.52
450.553	21708.98
450.76	22044.85
450.966	22589.61
451.172	22595.75
451.378	23111.84
451.584	22638.76
451.791	23105.7
451.997	22810.79
452.203	23392.41
452.409	23503
452.615	23507.1
452.821	22466.73
453.027	22157.49
453.233	23115.94
453.44	22384.81
453.646	22747.3
453.852	22870.18
454.058	23218.33
454.264	22413.48
454.47	22978.72
454.676	22444.2
454.882	22982.82
455.088	21162.17
455.294	21807.28
455.5	21995.7
455.705	21874.87
455.911	21027.01
456.117	21070.01
456.323	20410.57
456.529	19146.97
456.735	20488.39
456.941	19751.12
457.147	19636.44
457.352	19011.81
457.558	18663.65
457.764	18661.6
457.97	18471.14
458.176	17817.84
458.381	17862.9
458.587	17338.62
458.793	17144.06
458.999	16185.61
459.204	17471.73
459.41	16816.38
459.616	15649.04
459.821	15927.56
460.027	15780.11
460.233	15364.37
460.438	14885.15
460.644	15077.66
460.85	14235.94
461.055	13922.6
461.261	13959.47
461.466	12765.5
461.672	12677.44
461.878	13510.96
462.083	12497.22
462.289	12448.07
462.494	12296.52
462.7	11911.5
462.905	11247.96
463.111	11837.77
463.316	11882.83
463.522	11598.16
463.727	11530.58
463.932	11415.89
464.138	11323.73
464.343	11348.31
464.549	11147.61
464.754	11620.69
464.959	11626.83
465.165	11401.55
465.37	10948.95
465.575	10570.08
465.781	10983.77
465.986	11090.26
466.191	10953.05
466.397	10436.96
466.602	9902.44
466.807	10324.32
467.012	10312.03
467.218	10211.68
467.423	10115.43
467.628	10090.85
467.833	10713.44
468.038	10199.4
468.244	9910.63
468.449	10219.88
