Data from USB4F104151__84__13-54-24-310.txt Node

Date: Thu Mar 13 13:54:24 EDT 2025
User: louis
Spectrometer: USB4F10415
Trigger mode: 4
Integration Time (sec): 1.000000E-2
Scans to average: 1
Electric dark correction enabled: true
Nonlinearity correction enabled: false
Boxcar width: 0
XAxis mode: Wavelengths
Number of Pixels in Spectrum: 3648
>>>>>Begin Spectral Data<<<<<
178.204	-19.29
178.424	-19.29
178.644	-19.29
178.864	-25.43
179.084	-33.62
179.304	11.43
179.524	36.01
179.744	-27.48
179.964	11.43
180.184	31.91
180.404	-47.96
180.624	-9.05
180.844	-2.9
181.064	-0.85
181.283	-23.38
181.503	5.29
181.723	15.53
181.943	7.34
182.163	-9.05
182.383	21.67
182.602	44.2
182.822	58.54
183.042	21.67
183.262	40.11
183.482	103.59
183.701	68.78
183.921	36.01
184.141	-21.33
184.361	74.92
184.58	93.35
184.8	-52.05
185.02	-93.01
185.239	54.44
185.459	42.15
185.679	11.43
185.898	52.39
186.118	17.58
186.338	-31.57
186.557	42.15
186.777	17.58
186.997	36.01
187.216	-27.48
187.436	36.01
187.655	-15.19
187.875	56.49
188.095	-39.76
188.314	81.07
188.534	-0.85
188.753	81.07
188.973	81.07
189.192	83.11
189.412	76.97
189.631	44.2
189.851	62.63
190.07	58.54
190.29	17.58
190.509	-66.39
190.729	38.06
190.948	23.72
191.168	-39.76
191.387	31.91
191.607	36.01
191.826	64.68
192.045	27.82
192.265	27.82
192.484	46.25
192.704	-0.85
192.923	-19.29
193.142	117.93
193.362	19.63
193.581	13.48
193.8	-15.19
194.02	-21.33
194.239	58.54
194.458	27.82
194.678	-13.14
194.897	19.63
195.116	17.58
195.335	-23.38
195.555	-11.09
195.774	9.39
195.993	-0.85
196.212	50.35
196.432	5.29
196.651	56.49
196.87	19.63
197.089	74.92
197.308	13.48
197.528	42.15
197.747	-7
197.966	-39.76
198.185	9.39
198.404	-15.19
198.623	76.97
198.842	38.06
199.062	56.49
199.281	81.07
199.5	19.63
199.719	-13.14
199.938	5.29
200.157	-23.38
200.376	46.25
200.595	105.64
200.814	40.11
201.033	-7
201.252	83.11
201.471	-7
201.69	74.92
201.909	52.39
202.128	17.58
202.347	-2.9
202.566	115.88
202.785	5.29
203.004	74.92
203.223	40.11
203.442	64.68
203.661	70.83
203.879	21.67
204.098	38.06
204.317	76.97
204.536	-17.24
204.755	52.39
204.974	36.01
205.193	44.2
205.411	21.67
205.63	-23.38
205.849	31.91
206.068	89.26
206.287	-7
206.505	21.67
206.724	81.07
206.943	-41.81
207.162	23.72
207.381	33.96
207.599	56.49
207.818	-7
208.037	46.25
208.255	3.24
208.474	42.15
208.693	111.78
208.911	74.92
209.13	11.43
209.349	33.96
209.567	19.63
209.786	25.77
210.005	-0.85
210.223	68.78
210.442	21.67
210.661	15.53
210.879	66.73
211.098	56.49
211.316	11.43
211.535	64.68
211.753	21.67
211.972	81.07
212.191	-23.38
212.409	19.63
212.628	21.67
212.846	50.35
213.065	29.87
213.283	68.78
213.502	15.53
213.72	64.68
213.938	11.43
214.157	66.73
214.375	-31.57
214.594	44.2
214.812	107.69
215.031	-21.33
215.249	52.39
215.467	27.82
215.686	68.78
215.904	-19.29
216.122	-9.05
216.341	3.24
216.559	15.53
216.778	17.58
216.996	79.02
217.214	50.35
217.432	15.53
217.651	21.67
217.869	13.48
218.087	19.63
218.306	33.96
218.524	64.68
218.742	91.31
218.96	54.44
219.179	-21.33
219.397	33.96
219.615	-4.95
219.833	56.49
220.051	40.11
220.27	-15.19
220.488	29.87
220.706	11.43
220.924	-7
221.142	54.44
221.36	72.87
221.578	9.39
221.796	-17.24
222.015	25.77
222.233	7.34
222.451	15.53
222.669	38.06
222.887	23.72
223.105	1.19
223.323	7.34
223.541	21.67
223.759	38.06
223.977	38.06
224.195	42.15
224.413	46.25
224.631	89.26
224.849	-11.09
225.067	3.24
225.285	70.83
225.503	27.82
225.721	27.82
225.939	-33.62
226.157	15.53
226.375	62.63
226.592	-4.95
226.81	-64.34
227.028	70.83
227.246	91.31
227.464	54.44
227.682	132.26
227.9	58.54
228.117	-50
228.335	15.53
228.553	25.77
228.771	7.34
228.989	99.5
229.206	72.87
229.424	33.96
229.642	-39.76
229.86	3.24
230.077	85.16
230.295	42.15
230.513	50.35
230.731	-17.24
230.948	19.63
231.166	54.44
231.384	3.24
231.601	9.39
231.819	-31.57
232.037	31.91
232.254	50.35
232.472	52.39
232.689	38.06
232.907	9.39
233.125	-37.72
233.342	68.78
233.56	-7
233.777	105.64
233.995	70.83
234.213	62.63
234.43	21.67
234.648	62.63
234.865	19.63
235.083	-29.52
235.3	-7
235.518	52.39
235.735	58.54
235.953	38.06
236.17	56.49
236.388	-7
236.605	21.67
236.822	40.11
237.04	5.29
237.257	60.59
237.475	21.67
237.692	38.06
237.909	-25.43
238.127	19.63
238.344	11.43
238.562	62.63
238.779	42.15
238.996	70.83
239.214	23.72
239.431	-21.33
239.648	64.68
239.865	76.97
240.083	50.35
240.3	85.16
240.517	29.87
240.735	70.83
240.952	36.01
241.169	111.78
241.386	31.91
241.603	17.58
241.821	15.53
242.038	42.15
242.255	36.01
242.472	93.35
242.689	48.3
242.907	-7
243.124	-17.24
243.341	5.29
243.558	-27.48
243.775	19.63
243.992	50.35
244.209	48.3
244.426	-0.85
244.643	72.87
244.86	5.29
245.078	25.77
245.295	72.87
245.512	-7
245.729	5.29
245.946	9.39
246.163	38.06
246.38	72.87
246.597	27.82
246.814	38.06
247.031	3.24
247.248	29.87
247.464	17.58
247.681	52.39
247.898	17.58
248.115	33.96
248.332	17.58
248.549	17.58
248.766	56.49
248.983	85.16
249.2	-62.29
249.417	31.91
249.633	31.91
249.85	-0.85
250.067	50.35
250.284	46.25
250.501	72.87
250.717	7.34
250.934	60.59
251.151	29.87
251.368	33.96
251.585	3.24
251.801	31.91
252.018	15.53
252.235	36.01
252.451	-2.9
252.668	-7
252.885	52.39
253.102	62.63
253.318	52.39
253.535	11.43
253.752	58.54
253.968	-23.38
254.185	1.19
254.401	21.67
254.618	83.11
254.835	68.78
255.051	42.15
255.268	27.82
255.484	44.2
255.701	68.78
255.917	31.91
256.134	21.67
256.351	83.11
256.567	-13.14
256.784	50.35
257	40.11
257.217	68.78
257.433	9.39
257.65	-13.14
257.866	58.54
258.082	5.29
258.299	-37.72
258.515	56.49
258.732	58.54
258.948	54.44
259.165	19.63
259.381	15.53
259.597	-13.14
259.814	7.34
260.03	64.68
260.246	103.59
260.463	54.44
260.679	31.91
260.895	-41.81
261.112	21.67
261.328	-27.48
261.544	105.64
261.761	60.59
261.977	-7
262.193	21.67
262.409	-25.43
262.626	19.63
262.842	54.44
263.058	-21.33
263.274	3.24
263.49	52.39
263.707	40.11
263.923	76.97
264.139	-15.19
264.355	-4.95
264.571	58.54
264.787	5.29
265.004	142.5
265.22	13.48
265.436	27.82
265.652	-13.14
265.868	25.77
266.084	7.34
266.3	-25.43
266.516	11.43
266.732	44.2
266.948	-21.33
267.164	-23.38
267.38	7.34
267.596	87.21
267.812	-7
268.028	72.87
268.244	15.53
268.46	31.91
268.676	-21.33
268.892	29.87
269.108	7.34
269.324	66.73
269.54	17.58
269.756	7.34
269.972	3.24
270.188	46.25
270.403	-19.29
270.619	-4.95
270.835	-23.38
271.051	31.91
271.267	25.77
271.483	21.67
271.698	21.67
271.914	31.91
272.13	5.29
272.346	1.19
272.562	46.25
272.777	124.07
272.993	-13.14
273.209	-29.52
273.425	25.77
273.64	21.67
273.856	38.06
274.072	44.2
274.287	31.91
274.503	5.29
274.719	50.35
274.934	-7
275.15	7.34
275.366	74.92
275.581	74.92
275.797	66.73
276.012	56.49
276.228	15.53
276.444	60.59
276.659	148.65
276.875	38.06
277.09	-9.05
277.306	40.11
277.521	25.77
277.737	29.87
277.952	9.39
278.168	-7
278.383	66.73
278.599	-11.09
278.814	81.07
279.03	-2.9
279.245	46.25
279.461	9.39
279.676	19.63
279.892	-13.14
280.107	81.07
280.322	52.39
280.538	15.53
280.753	31.91
280.969	33.96
281.184	19.63
281.399	76.97
281.615	-7
281.83	68.78
282.045	9.39
282.26	-45.91
282.476	23.72
282.691	1.19
282.906	5.29
283.122	60.59
283.337	48.3
283.552	-4.95
283.767	23.72
283.983	54.44
284.198	-21.33
284.413	27.82
284.628	50.35
284.843	-7
285.058	11.43
285.274	66.73
285.489	27.82
285.704	54.44
285.919	105.64
286.134	44.2
286.349	54.44
286.564	13.48
286.779	11.43
286.995	115.88
287.21	-43.86
287.425	-2.9
287.64	101.55
287.855	7.34
288.07	-52.05
288.285	-7
288.5	29.87
288.715	83.11
288.93	79.02
289.145	72.87
289.36	99.5
289.575	74.92
289.79	-0.85
290.004	36.01
290.219	56.49
290.434	42.15
290.649	17.58
290.864	56.49
291.079	3.24
291.294	60.59
291.509	13.48
291.724	50.35
291.938	-23.38
292.153	50.35
292.368	17.58
292.583	31.91
292.798	25.77
293.012	64.68
293.227	7.34
293.442	76.97
293.657	87.21
293.871	48.3
294.086	103.59
294.301	27.82
294.516	23.72
294.73	97.45
294.945	36.01
295.16	15.53
295.374	1.19
295.589	15.53
295.804	48.3
296.018	-7
296.233	68.78
296.447	72.87
296.662	107.69
296.877	40.11
297.091	11.43
297.306	79.02
297.52	117.93
297.735	50.35
297.949	76.97
298.164	87.21
298.378	54.44
298.593	15.53
298.807	-70.48
299.022	17.58
299.236	11.43
299.451	-2.9
299.665	79.02
299.88	97.45
300.094	-2.9
300.309	31.91
300.523	46.25
300.737	66.73
300.952	36.01
301.166	48.3
301.381	50.35
301.595	48.3
301.809	81.07
302.024	97.45
302.238	25.77
302.452	50.35
302.667	50.35
302.881	9.39
303.095	40.11
303.309	83.11
303.524	-0.85
303.738	93.35
303.952	11.43
304.166	79.02
304.381	52.39
304.595	87.21
304.809	21.67
305.023	66.73
305.237	58.54
305.452	76.97
305.666	91.31
305.88	42.15
306.094	33.96
306.308	97.45
306.522	48.3
306.736	72.87
306.95	81.07
307.164	58.54
307.379	5.29
307.593	13.48
307.807	25.77
308.021	83.11
308.235	50.35
308.449	44.2
308.663	-7
308.877	95.4
309.091	9.39
309.305	48.3
309.519	81.07
309.733	38.06
309.947	25.77
310.161	15.53
310.374	5.29
310.588	36.01
310.802	3.24
311.016	93.35
311.23	19.63
311.444	48.3
311.658	5.29
311.872	-17.24
312.085	13.48
312.299	-23.38
312.513	56.49
312.727	1.19
312.941	-33.62
313.154	-2.9
313.368	113.83
313.582	79.02
313.796	50.35
314.009	54.44
314.223	19.63
314.437	60.59
314.651	56.49
314.864	17.58
315.078	9.39
315.292	87.21
315.505	79.02
315.719	52.39
315.933	40.11
316.146	9.39
316.36	42.15
316.573	7.34
316.787	17.58
317.001	31.91
317.214	99.5
317.428	119.98
317.641	-25.43
317.855	-13.14
318.068	23.72
318.282	-0.85
318.495	27.82
318.709	52.39
318.922	107.69
319.136	56.49
319.349	-4.95
319.563	38.06
319.776	15.53
319.99	40.11
320.203	105.64
320.417	-31.57
320.63	93.35
320.843	60.59
321.057	25.77
321.27	17.58
321.483	42.15
321.697	138.41
321.91	21.67
322.124	27.82
322.337	31.91
322.55	-2.9
322.763	-4.95
322.977	15.53
323.19	7.34
323.403	29.87
323.617	44.2
323.83	33.96
324.043	13.48
324.256	83.11
324.469	3.24
324.683	99.5
324.896	50.35
325.109	66.73
325.322	40.11
325.535	79.02
325.748	36.01
325.962	-19.29
326.175	42.15
326.388	105.64
326.601	33.96
326.814	-39.76
327.027	5.29
327.24	31.91
327.453	-52.05
327.666	115.88
327.879	99.5
328.092	52.39
328.305	-0.85
328.518	-11.09
328.731	60.59
328.944	58.54
329.157	44.2
329.37	31.91
329.583	79.02
329.796	54.44
330.009	9.39
330.222	91.31
330.435	29.87
330.648	56.49
330.861	1.19
331.073	13.48
331.286	-0.85
331.499	48.3
331.712	1.19
331.925	122.02
332.138	31.91
332.35	79.02
332.563	-13.14
332.776	58.54
332.989	-0.85
333.202	29.87
333.414	46.25
333.627	46.25
333.84	40.11
334.053	7.34
334.265	5.29
334.478	17.58
334.691	9.39
334.903	33.96
335.116	-23.38
335.329	31.91
335.541	-11.09
335.754	87.21
335.966	83.11
336.179	70.83
336.392	27.82
336.604	60.59
336.817	-31.57
337.029	40.11
337.242	5.29
337.454	58.54
337.667	40.11
337.88	50.35
338.092	-19.29
338.305	48.3
338.517	-9.05
338.729	62.63
338.942	46.25
339.154	-13.14
339.367	13.48
339.579	50.35
339.792	-7
340.004	31.91
340.217	15.53
340.429	5.29
340.641	62.63
340.854	56.49
341.066	83.11
341.278	13.48
341.491	119.98
341.703	79.02
341.915	64.68
342.128	5.29
342.34	46.25
342.552	60.59
342.764	66.73
342.977	11.43
343.189	48.3
343.401	-27.48
343.613	42.15
343.826	74.92
344.038	56.49
344.25	3.24
344.462	48.3
344.674	17.58
344.886	62.63
345.099	42.15
345.311	64.68
345.523	60.59
345.735	68.78
345.947	93.35
346.159	97.45
346.371	132.26
346.583	113.83
346.795	107.69
347.007	56.49
347.219	40.11
347.431	42.15
347.643	23.72
347.855	58.54
348.067	-23.38
348.279	21.67
348.491	9.39
348.703	31.91
348.915	87.21
349.127	-2.9
349.339	76.97
349.551	38.06
349.763	11.43
349.975	-2.9
350.187	5.29
350.399	19.63
350.61	85.16
350.822	17.58
351.034	7.34
351.246	15.53
351.458	25.77
351.669	21.67
351.881	25.77
352.093	62.63
352.305	56.49
352.517	11.43
352.728	52.39
352.94	-0.85
353.152	40.11
353.363	33.96
353.575	-50
353.787	83.11
353.999	101.55
354.21	-29.52
354.422	91.31
354.633	76.97
354.845	-66.39
355.057	56.49
355.268	17.58
355.48	89.26
355.692	68.78
355.903	58.54
356.115	-9.05
356.326	31.91
356.538	42.15
356.749	40.11
356.961	64.68
357.172	27.82
357.384	-4.95
357.595	99.5
357.807	9.39
358.018	72.87
358.23	79.02
358.441	42.15
358.653	13.48
358.864	9.39
359.075	101.55
359.287	11.43
359.498	52.39
359.709	93.35
359.921	97.45
360.132	13.48
360.344	79.02
360.555	19.63
360.766	54.44
360.977	1.19
361.189	50.35
361.4	19.63
361.611	62.63
361.823	-54.1
362.034	70.83
362.245	52.39
362.456	79.02
362.667	21.67
362.879	48.3
363.09	15.53
363.301	-15.19
363.512	136.36
363.723	95.4
363.935	-0.85
364.146	36.01
364.357	23.72
364.568	1.19
364.779	70.83
364.99	72.87
365.201	36.01
365.412	79.02
365.623	-29.52
365.834	-54.1
366.045	48.3
366.256	23.72
366.467	5.29
366.678	15.53
366.889	-31.57
367.1	72.87
367.311	64.68
367.522	95.4
367.733	-9.05
367.944	46.25
368.155	25.77
368.366	58.54
368.577	9.39
368.788	56.49
368.999	17.58
369.209	99.5
369.42	42.15
369.631	91.31
369.842	111.78
370.053	58.54
370.264	72.87
370.474	42.15
370.685	29.87
370.896	31.91
371.107	83.11
371.317	-2.9
371.528	46.25
371.739	40.11
371.95	105.64
372.16	11.43
372.371	-68.44
372.582	76.97
372.792	50.35
373.003	13.48
373.214	44.2
373.424	105.64
373.635	23.72
373.846	-2.9
374.056	54.44
374.267	56.49
374.477	144.55
374.688	7.34
374.898	46.25
375.109	42.15
375.319	5.29
375.53	42.15
375.74	46.25
375.951	42.15
376.161	11.43
376.372	93.35
376.582	31.91
376.793	66.73
377.003	46.25
377.214	56.49
377.424	19.63
377.635	52.39
377.845	-43.86
378.055	126.12
378.266	97.45
378.476	56.49
378.686	-58.2
378.897	58.54
379.107	31.91
379.317	56.49
379.528	54.44
379.738	25.77
379.948	48.3
380.158	21.67
380.369	52.39
380.579	3.24
380.789	56.49
380.999	17.58
381.21	87.21
381.42	44.2
381.63	13.48
381.84	58.54
382.05	60.59
382.261	64.68
382.471	60.59
382.681	-0.85
382.891	132.26
383.101	1.19
383.311	9.39
383.521	62.63
383.731	40.11
383.941	74.92
384.151	56.49
384.361	27.82
384.571	46.25
384.781	64.68
384.991	70.83
385.201	1.19
385.411	25.77
385.621	103.59
385.831	27.82
386.041	52.39
386.251	36.01
386.461	44.2
386.671	31.91
386.881	95.4
387.091	68.78
387.301	42.15
387.511	5.29
387.72	-7
387.93	58.54
388.14	1.19
388.35	52.39
388.56	74.92
388.769	38.06
388.979	33.96
389.189	66.73
389.399	79.02
389.609	132.26
389.818	23.72
390.028	23.72
390.238	-17.24
390.447	60.59
390.657	-9.05
390.867	38.06
391.076	29.87
391.286	60.59
391.496	122.02
391.705	68.78
391.915	50.35
392.125	15.53
392.334	85.16
392.544	99.5
392.753	66.73
392.963	38.06
393.172	81.07
393.382	95.4
393.591	68.78
393.801	-11.09
394.01	42.15
394.22	74.92
394.429	46.25
394.639	66.73
394.848	66.73
395.058	-7
395.267	19.63
395.477	9.39
395.686	62.63
395.895	89.26
396.105	13.48
396.314	91.31
396.524	132.26
396.733	138.41
396.942	81.07
397.152	89.26
397.361	42.15
397.57	56.49
397.78	113.83
397.989	58.54
398.198	40.11
398.407	5.29
398.617	74.92
398.826	128.17
399.035	99.5
399.244	38.06
399.453	111.78
399.663	76.97
399.872	62.63
400.081	70.83
400.29	74.92
400.499	97.45
400.708	97.45
400.917	66.73
401.127	85.16
401.336	-21.33
401.545	113.83
401.754	54.44
401.963	66.73
402.172	56.49
402.381	85.16
402.59	70.83
402.799	130.22
403.008	58.54
403.217	48.3
403.426	56.49
403.635	72.87
403.844	29.87
404.053	52.39
404.262	48.3
404.471	79.02
404.68	105.64
404.888	132.26
405.097	54.44
405.306	76.97
405.515	109.74
405.724	83.11
405.933	58.54
406.142	42.15
406.35	72.87
406.559	48.3
406.768	111.78
406.977	105.64
407.185	146.6
407.394	97.45
407.603	128.17
407.812	46.25
408.02	117.93
408.229	87.21
408.438	97.45
408.646	72.87
408.855	83.11
409.064	124.07
409.272	134.31
409.481	177.32
409.69	134.31
409.898	152.74
410.107	117.93
410.315	158.89
410.524	197.8
410.733	150.7
410.941	124.07
411.15	169.13
411.358	144.55
411.567	173.22
411.775	212.14
411.984	208.04
412.192	253.09
412.401	216.23
412.609	271.53
412.818	210.09
413.026	265.38
413.234	269.48
413.443	230.57
413.651	232.62
413.86	279.72
414.068	255.14
414.276	251.05
414.485	300.2
414.693	326.82
414.901	281.77
415.11	310.44
415.318	279.72
415.526	302.25
415.734	341.16
415.943	255.14
416.151	332.97
416.359	355.49
416.567	320.68
416.776	355.49
416.984	373.92
417.192	459.94
417.4	406.69
417.608	418.98
417.817	384.16
418.025	541.86
418.233	474.28
418.441	539.81
418.649	523.43
418.857	550.05
419.065	593.06
419.273	578.72
419.481	562.34
419.689	593.06
419.897	634.02
420.105	552.1
420.313	732.32
420.521	750.75
420.729	742.56
420.937	660.64
421.145	715.94
421.353	746.66
421.561	838.81
421.769	773.28
421.977	890.01
422.185	847.01
422.393	924.83
422.601	941.21
422.809	941.21
423.017	1084.57
423.224	1008.8
423.432	1082.52
423.64	1039.51
423.848	998.56
424.056	1094.81
424.263	1141.91
424.471	1252.5
424.679	1266.84
424.887	1283.22
425.094	1248.41
425.302	1281.18
425.51	1410.2
425.718	1420.44
425.925	1383.57
426.133	1356.95
426.341	1535.12
426.548	1668.24
426.756	1588.37
426.964	1614.99
427.171	1643.67
427.379	1668.24
427.586	1809.55
427.794	1789.07
428.001	1866.89
428.209	2153.61
428.417	2004.11
428.624	1959.05
428.832	2094.22
429.039	2034.83
429.247	2110.6
429.454	2317.45
429.662	2376.84
429.869	2260.1
430.076	2522.24
430.284	2235.53
430.491	2448.52
430.699	2528.39
430.906	2598.02
431.114	2575.49
431.321	2733.18
431.528	2751.62
431.736	2915.45
431.943	3007.61
432.15	2968.7
432.358	2929.79
432.565	3224.7
432.772	3185.79
432.979	3306.62
433.187	3284.09
433.394	3370.1
433.601	3681.39
433.808	3597.43
434.016	3624.05
434.223	3802.22
434.43	3935.34
434.637	3964.01
434.844	4105.32
435.052	4301.93
435.259	4215.91
435.466	4150.38
435.673	4228.2
435.88	4398.18
436.087	4635.75
436.294	4727.91
436.501	4627.56
436.708	4691.04
436.915	4901.98
437.122	5049.44
437.329	4922.46
437.537	5176.41
437.743	5338.2
437.95	5221.47
438.157	5553.24
438.364	5741.65
438.571	5710.93
438.778	5780.56
438.985	6239.31
439.192	5913.68
439.399	6192.2
439.606	6083.66
439.813	6405.19
440.02	6790.21
440.227	6685.76
440.433	6562.89
440.64	6878.27
440.847	6677.57
441.054	6886.47
441.261	7304.25
441.467	7287.87
441.674	7208
441.881	7658.55
442.088	7693.37
442.294	7724.08
442.501	7840.82
442.708	7982.13
442.914	8313.9
443.121	8709.16
443.328	8401.96
443.534	8895.52
443.741	8909.86
443.948	8721.45
444.154	9360.41
444.361	9362.46
444.568	9141.28
444.774	9288.73
444.981	9389.08
445.187	9550.87
445.394	10271.76
445.6	9942.03
445.807	10820.61
446.013	10349.58
446.22	10634.25
446.426	10951.68
446.633	11047.94
446.839	11607.03
447.046	11000.83
447.252	11498.49
447.459	11877.37
447.665	11625.47
447.871	12024.82
448.078	12692.46
448.284	12061.68
448.491	12411.89
448.697	12901.35
448.903	13018.08
449.11	13034.47
449.316	13054.95
449.522	13196.26
449.728	13489.12
449.935	13474.78
450.141	13640.67
450.347	13994.97
450.553	13358.05
450.76	13650.91
450.966	13988.82
451.172	13769.69
451.378	14291.92
451.584	13906.9
451.791	14353.36
451.997	14150.61
452.203	14451.66
452.409	14498.77
452.615	14435.28
452.821	13902.81
453.027	13614.04
453.233	14451.66
453.44	13874.13
453.646	13835.22
453.852	14019.54
454.058	14232.53
454.264	13911
454.47	14156.75
454.676	13630.43
454.882	14218.19
455.088	13054.95
455.294	13333.47
455.5	13427.68
455.705	13532.12
455.911	12874.73
456.117	12561.39
456.323	12389.36
456.529	11815.93
456.735	12469.23
456.941	11858.93
457.147	11828.21
457.352	11504.64
457.558	11328.51
457.764	11412.48
457.97	10943.49
458.176	10857.48
458.381	11013.12
458.587	10155.02
458.793	10499.08
458.999	9798.68
459.204	10566.67
459.41	10333.2
459.616	9663.51
459.821	9585.69
460.027	9438.23
460.233	9212.96
460.438	8928.29
460.644	9139.23
460.85	8563.75
461.055	8229.93
461.261	8557.61
461.466	7961.65
461.672	7558.2
461.878	8176.69
462.083	7713.84
462.289	7390.27
462.494	7267.39
462.7	7124.03
462.905	6960.19
463.111	7220.28
463.316	7322.68
463.522	7095.36
463.727	7052.35
463.932	6984.77
464.138	6841.41
464.343	6941.76
464.549	6765.64
464.754	6964.29
464.959	7052.35
465.165	6859.84
465.37	6581.32
465.575	6464.58
465.781	6863.94
465.986	6902.85
466.191	6423.62
466.397	6405.19
466.602	6284.36
466.807	6310.99
467.012	6304.84
467.218	6282.31
467.423	5946.45
467.628	6229.07
467.833	6480.97
468.038	6310.99
468.244	6065.23
468.449	6194.25
468.654	6235.21
468.859	6132.81
469.064	6014.03
469.269	5801.04
469.474	5938.26
469.679	5872.72
469.885	5842
470.09	5790.8
470.295	5905.49
470.5	5674.07
470.705	5594.2
470.91	5569.62
