Data from USB4F104151__222__14-00-15-943.txt Node

Date: Thu Mar 13 14:00:15 EDT 2025
User: louis
Spectrometer: USB4F10415
Trigger mode: 4
Integration Time (sec): 1.000000E-2
Scans to average: 1
Electric dark correction enabled: true
Nonlinearity correction enabled: false
Boxcar width: 0
XAxis mode: Wavelengths
Number of Pixels in Spectrum: 3648
>>>>>Begin Spectral Data<<<<<
178.204	-30.21
178.424	-30.21
178.644	-30.21
178.864	-7.68
179.084	-67.07
179.304	8.7
179.524	2.56
179.744	-56.83
179.964	51.71
180.184	12.8
180.404	-1.54
180.624	-11.78
180.844	-60.93
181.064	-5.63
181.283	33.28
181.503	-13.82
181.723	41.47
181.943	16.9
182.163	18.94
182.383	0.51
182.602	37.38
182.822	29.18
183.042	33.28
183.262	0.51
183.482	8.7
183.701	72.19
183.921	6.66
184.141	64
184.361	-19.97
184.58	45.57
184.8	20.99
185.02	-7.68
185.239	78.33
185.459	55.81
185.679	37.38
185.898	14.85
186.118	-26.11
186.338	27.14
186.557	4.61
186.777	29.18
186.997	-42.5
187.216	-3.58
187.436	20.99
187.655	86.53
187.875	119.29
188.095	82.43
188.314	23.04
188.534	86.53
188.753	37.38
188.973	-38.4
189.192	25.09
189.412	49.66
189.631	14.85
189.851	90.62
190.07	27.14
190.29	23.04
190.509	6.66
190.729	37.38
190.948	-7.68
191.168	76.29
191.387	78.33
191.607	-69.12
191.826	70.14
192.045	12.8
192.265	59.9
192.484	64
192.704	-7.68
192.923	49.66
193.142	27.14
193.362	53.76
193.581	76.29
193.8	102.91
194.02	125.44
194.239	8.7
194.458	-11.78
194.678	25.09
194.897	86.53
195.116	0.51
195.335	-15.87
195.555	-5.63
195.774	33.28
195.993	-15.87
196.212	49.66
196.432	53.76
196.651	64
196.87	47.62
197.089	59.9
197.308	-3.58
197.528	-13.82
197.747	51.71
197.966	-7.68
198.185	6.66
198.404	61.95
198.623	33.28
198.842	78.33
199.062	-32.26
199.281	8.7
199.5	6.66
199.719	8.7
199.938	29.18
200.157	70.14
200.376	16.9
200.595	76.29
200.814	-17.92
201.033	53.76
201.252	16.9
201.471	31.23
201.69	20.99
201.909	29.18
202.128	-1.54
202.347	-15.87
202.566	57.86
202.785	70.14
203.004	-7.68
203.223	47.62
203.442	-9.73
203.661	6.66
203.879	25.09
204.098	39.42
204.317	-26.11
204.536	154.11
204.755	90.62
204.974	47.62
205.193	47.62
205.411	47.62
205.63	-32.26
205.849	-1.54
206.068	72.19
206.287	78.33
206.505	53.76
206.724	51.71
206.943	45.57
207.162	84.48
207.381	37.38
207.599	20.99
207.818	107.01
208.037	29.18
208.255	-11.78
208.474	88.57
208.693	80.38
208.911	29.18
209.13	53.76
209.349	16.9
209.567	18.94
209.786	53.76
210.005	39.42
210.223	53.76
210.442	-5.63
210.661	20.99
210.879	-15.87
211.098	66.05
211.316	0.51
211.535	-1.54
211.753	23.04
211.972	37.38
212.191	14.85
212.409	-40.45
212.628	29.18
212.846	45.57
213.065	12.8
213.283	41.47
213.502	8.7
213.72	86.53
213.938	66.05
214.157	16.9
214.375	0.51
214.594	31.23
214.812	37.38
215.031	-5.63
215.249	59.9
215.467	-19.97
215.686	33.28
215.904	-15.87
216.122	160.25
216.341	82.43
216.559	74.24
216.778	29.18
216.996	-7.68
217.214	47.62
217.432	-11.78
217.651	14.85
217.869	-11.78
218.087	49.66
218.306	10.75
218.524	68.09
218.742	31.23
218.96	16.9
219.179	-7.68
219.397	39.42
219.615	53.76
219.833	104.96
220.051	12.8
220.27	80.38
220.488	66.05
220.706	86.53
220.924	31.23
221.142	78.33
221.36	94.72
221.578	23.04
221.796	25.09
222.015	18.94
222.233	29.18
222.451	78.33
222.669	4.61
222.887	90.62
223.105	57.86
223.323	4.61
223.541	102.91
223.759	156.16
223.977	31.23
224.195	66.05
224.413	31.23
224.631	29.18
224.849	86.53
225.067	14.85
225.285	61.95
225.503	2.56
225.721	16.9
225.939	33.28
226.157	16.9
226.375	78.33
226.592	-11.78
226.81	-9.73
227.028	4.61
227.246	74.24
227.464	-5.63
227.682	55.81
227.9	37.38
228.117	20.99
228.335	66.05
228.553	92.67
228.771	18.94
228.989	-54.78
229.206	37.38
229.424	72.19
229.642	-1.54
229.86	45.57
230.077	51.71
230.295	29.18
230.513	20.99
230.731	29.18
230.948	53.76
231.166	41.47
231.384	20.99
231.601	78.33
231.819	47.62
232.037	10.75
232.254	-9.73
232.472	-3.58
232.689	53.76
232.907	16.9
233.125	43.52
233.342	27.14
233.56	70.14
233.777	66.05
233.995	47.62
234.213	88.57
234.43	23.04
234.648	14.85
234.865	92.67
235.083	-19.97
235.3	-11.78
235.518	-7.68
235.735	72.19
235.953	68.09
236.17	35.33
236.388	-19.97
236.605	41.47
236.822	20.99
237.04	-30.21
237.257	59.9
237.475	4.61
237.692	64
237.909	0.51
238.127	53.76
238.344	27.14
238.562	125.44
238.779	16.9
238.996	35.33
239.214	33.28
239.431	86.53
239.648	-22.02
239.865	64
240.083	6.66
240.3	70.14
240.517	39.42
240.735	104.96
240.952	53.76
241.169	-11.78
241.386	70.14
241.603	20.99
241.821	-17.92
242.038	31.23
242.255	-42.5
242.472	2.56
242.689	43.52
242.907	10.75
243.124	-1.54
243.341	41.47
243.558	-7.68
243.775	74.24
243.992	72.19
244.209	57.86
244.426	64
244.643	66.05
244.86	-30.21
245.078	6.66
245.295	80.38
245.512	53.76
245.729	4.61
245.946	-7.68
246.163	23.04
246.38	27.14
246.597	43.52
246.814	94.72
247.031	-7.68
247.248	-17.92
247.464	37.38
247.681	6.66
247.898	25.09
248.115	49.66
248.332	102.91
248.549	86.53
248.766	27.14
248.983	-19.97
249.2	80.38
249.417	82.43
249.633	96.77
249.85	23.04
250.067	-54.78
250.284	33.28
250.501	64
250.717	-24.06
250.934	-13.82
251.151	86.53
251.368	-34.3
251.585	72.19
251.801	-15.87
252.018	80.38
252.235	-1.54
252.451	45.57
252.668	70.14
252.885	20.99
253.102	-11.78
253.318	41.47
253.535	-7.68
253.752	12.8
253.968	31.23
254.185	-30.21
254.401	43.52
254.618	31.23
254.835	45.57
255.051	47.62
255.268	6.66
255.484	37.38
255.701	-9.73
255.917	61.95
256.134	-7.68
256.351	-5.63
256.567	0.51
256.784	-3.58
257	12.8
257.217	6.66
257.433	-7.68
257.65	2.56
257.866	14.85
258.082	6.66
258.299	0.51
258.515	35.33
258.732	96.77
258.948	-17.92
259.165	20.99
259.381	113.15
259.597	-9.73
259.814	41.47
260.03	64
260.246	76.29
260.463	45.57
260.679	43.52
260.895	14.85
261.112	-5.63
261.328	2.56
261.544	61.95
261.761	23.04
261.977	49.66
262.193	-7.68
262.409	61.95
262.626	37.38
262.842	41.47
263.058	-36.35
263.274	8.7
263.49	57.86
263.707	29.18
263.923	33.28
264.139	-11.78
264.355	0.51
264.571	55.81
264.787	-5.63
265.004	102.91
265.22	57.86
265.436	20.99
265.652	33.28
265.868	37.38
266.084	23.04
266.3	61.95
266.516	-42.5
266.732	12.8
266.948	29.18
267.164	25.09
267.38	37.38
267.596	78.33
267.812	119.29
268.028	102.91
268.244	25.09
268.46	4.61
268.676	39.42
268.892	43.52
269.108	47.62
269.324	90.62
269.54	20.99
269.756	96.77
269.972	27.14
270.188	-1.54
270.403	41.47
270.619	33.28
270.835	20.99
271.051	41.47
271.267	45.57
271.483	-77.31
271.698	49.66
271.914	45.57
272.13	29.18
272.346	29.18
272.562	16.9
272.777	47.62
272.993	14.85
273.209	104.96
273.425	23.04
273.64	80.38
273.856	102.91
274.072	61.95
274.287	66.05
274.503	92.67
274.719	86.53
274.934	6.66
275.15	-1.54
275.366	2.56
275.581	29.18
275.797	82.43
276.012	82.43
276.228	37.38
276.444	-26.11
276.659	86.53
276.875	80.38
277.09	96.77
277.306	55.81
277.521	51.71
277.737	23.04
277.952	70.14
278.168	37.38
278.383	29.18
278.599	20.99
278.814	14.85
279.03	-19.97
279.245	29.18
279.461	41.47
279.676	-22.02
279.892	12.8
280.107	8.7
280.322	49.66
280.538	72.19
280.753	20.99
280.969	107.01
281.184	-3.58
281.399	43.52
281.615	31.23
281.83	23.04
282.045	12.8
282.26	57.86
282.476	18.94
282.691	82.43
282.906	64
283.122	23.04
283.337	-50.69
283.552	18.94
283.767	78.33
283.983	57.86
284.198	35.33
284.413	39.42
284.628	-7.68
284.843	59.9
285.058	-34.3
285.274	2.56
285.489	18.94
285.704	96.77
285.919	-19.97
286.134	14.85
286.349	23.04
286.564	12.8
286.779	10.75
286.995	72.19
287.21	72.19
287.425	47.62
287.64	33.28
287.855	59.9
288.07	29.18
288.285	6.66
288.5	41.47
288.715	86.53
288.93	57.86
289.145	51.71
289.36	78.33
289.575	57.86
289.79	100.86
290.004	23.04
290.219	37.38
290.434	64
290.649	-26.11
290.864	37.38
291.079	98.81
291.294	4.61
291.509	31.23
291.724	78.33
291.938	59.9
292.153	53.76
292.368	66.05
292.583	10.75
292.798	-9.73
293.012	55.81
293.227	107.01
293.442	31.23
293.657	49.66
293.871	27.14
294.086	31.23
294.301	45.57
294.516	37.38
294.73	39.42
294.945	18.94
295.16	86.53
295.374	100.86
295.589	72.19
295.804	49.66
296.018	88.57
296.233	88.57
296.447	37.38
296.662	20.99
296.877	-9.73
297.091	10.75
297.306	64
297.52	47.62
297.735	51.71
297.949	-11.78
298.164	47.62
298.378	57.86
298.593	27.14
298.807	2.56
299.022	49.66
299.236	12.8
299.451	-32.26
299.665	55.81
299.88	-19.97
300.094	47.62
300.309	35.33
300.523	33.28
300.737	20.99
300.952	37.38
301.166	94.72
301.381	-19.97
301.595	-30.21
301.809	64
302.024	86.53
302.238	47.62
302.452	37.38
302.667	29.18
302.881	49.66
303.095	12.8
303.309	12.8
303.524	45.57
303.738	53.76
303.952	8.7
304.166	49.66
304.381	-52.74
304.595	29.18
304.809	-1.54
305.023	53.76
305.237	25.09
305.452	20.99
305.666	84.48
305.88	117.25
306.094	-32.26
306.308	61.95
306.522	61.95
306.736	45.57
306.95	-17.92
307.164	100.86
307.379	86.53
307.593	47.62
307.807	-19.97
308.021	57.86
308.235	4.61
308.449	12.8
308.663	80.38
308.877	78.33
309.091	25.09
309.305	-7.68
309.519	-19.97
309.733	102.91
309.947	47.62
310.161	98.81
310.374	64
310.588	53.76
310.802	23.04
311.016	109.05
311.23	8.7
311.444	20.99
311.658	-30.21
311.872	98.81
312.085	47.62
312.299	43.52
312.513	43.52
312.727	27.14
312.941	-17.92
313.154	55.81
313.368	70.14
313.582	119.29
313.796	-85.5
314.009	70.14
314.223	14.85
314.437	80.38
314.651	70.14
314.864	53.76
315.078	18.94
315.292	53.76
315.505	33.28
315.719	39.42
315.933	82.43
316.146	74.24
316.36	14.85
316.573	31.23
316.787	57.86
317.001	39.42
317.214	6.66
317.428	96.77
317.641	-50.69
317.855	61.95
318.068	64
318.282	76.29
318.495	66.05
318.709	104.96
318.922	66.05
319.136	57.86
319.349	53.76
319.563	127.49
319.776	59.9
319.99	78.33
320.203	-7.68
320.417	45.57
320.63	70.14
320.843	18.94
321.057	45.57
321.27	23.04
321.483	96.77
321.697	78.33
321.91	47.62
322.124	55.81
322.337	78.33
322.55	90.62
322.763	68.09
322.977	31.23
323.19	45.57
323.403	37.38
323.617	45.57
323.83	86.53
324.043	76.29
324.256	49.66
324.469	70.14
324.683	88.57
324.896	66.05
325.109	72.19
325.322	61.95
325.535	-7.68
325.748	88.57
325.962	39.42
326.175	41.47
326.388	51.71
326.601	43.52
326.814	43.52
327.027	-11.78
327.24	119.29
327.453	80.38
327.666	18.94
327.879	-13.82
328.092	-9.73
328.305	12.8
328.518	61.95
328.731	37.38
328.944	6.66
329.157	70.14
329.37	53.76
329.583	64
329.796	68.09
330.009	51.71
330.222	37.38
330.435	39.42
330.648	64
330.861	74.24
331.073	125.44
331.286	41.47
331.499	25.09
331.712	74.24
331.925	61.95
332.138	49.66
332.35	-26.11
332.563	8.7
332.776	76.29
332.989	37.38
333.202	80.38
333.414	55.81
333.627	64
333.84	51.71
334.053	80.38
334.265	45.57
334.478	-3.58
334.691	31.23
334.903	70.14
335.116	27.14
335.329	78.33
335.541	96.77
335.754	127.49
335.966	0.51
336.179	78.33
336.392	68.09
336.604	49.66
336.817	86.53
337.029	80.38
337.242	86.53
337.454	78.33
337.667	39.42
337.88	35.33
338.092	18.94
338.305	107.01
338.517	20.99
338.729	78.33
338.942	78.33
339.154	74.24
339.367	33.28
339.579	78.33
339.792	66.05
340.004	-9.73
340.217	-11.78
340.429	104.96
340.641	80.38
340.854	55.81
341.066	14.85
341.278	74.24
341.491	57.86
341.703	14.85
341.915	92.67
342.128	121.34
342.34	100.86
342.552	-28.16
342.764	37.38
342.977	29.18
343.189	33.28
343.401	43.52
343.613	39.42
343.826	82.43
344.038	23.04
344.25	45.57
344.462	45.57
344.674	49.66
344.886	66.05
345.099	86.53
345.311	82.43
345.523	61.95
345.735	53.76
345.947	76.29
346.159	14.85
346.371	86.53
346.583	57.86
346.795	61.95
347.007	78.33
347.219	20.99
347.431	37.38
347.643	139.77
347.855	39.42
348.067	2.56
348.279	-19.97
348.491	80.38
348.703	-3.58
348.915	104.96
349.127	-9.73
349.339	88.57
349.551	-24.06
349.763	31.23
349.975	43.52
350.187	39.42
350.399	27.14
350.61	88.57
350.822	47.62
351.034	35.33
351.246	-15.87
351.458	57.86
351.669	4.61
351.881	88.57
352.093	80.38
352.305	51.71
352.517	33.28
352.728	86.53
352.94	49.66
353.152	88.57
353.363	145.92
353.575	94.72
353.787	-17.92
353.999	64
354.21	80.38
354.422	82.43
354.633	37.38
354.845	45.57
355.057	-1.54
355.268	-19.97
355.48	57.86
355.692	31.23
355.903	57.86
356.115	70.14
356.326	78.33
356.538	127.49
356.749	43.52
356.961	51.71
357.172	23.04
357.384	64
357.595	72.19
357.807	61.95
358.018	4.61
358.23	57.86
358.441	41.47
358.653	102.91
358.864	35.33
359.075	37.38
359.287	43.52
359.498	53.76
359.709	78.33
359.921	107.01
360.132	27.14
360.344	164.35
360.555	35.33
360.766	88.57
360.977	45.57
361.189	20.99
361.4	47.62
361.611	104.96
361.823	53.76
362.034	33.28
362.245	113.15
362.456	86.53
362.667	41.47
362.879	74.24
363.09	102.91
363.301	70.14
363.512	61.95
363.723	107.01
363.935	51.71
364.146	57.86
364.357	98.81
364.568	66.05
364.779	115.2
364.99	90.62
365.201	8.7
365.412	64
365.623	90.62
365.834	70.14
366.045	74.24
366.256	-32.26
366.467	31.23
366.678	61.95
366.889	41.47
367.1	4.61
367.311	72.19
367.522	14.85
367.733	72.19
367.944	82.43
368.155	84.48
368.366	61.95
368.577	23.04
368.788	31.23
368.999	-52.74
369.209	37.38
369.42	-7.68
369.631	80.38
369.842	111.1
370.053	27.14
370.264	43.52
370.474	43.52
370.685	160.25
370.896	57.86
371.107	20.99
371.317	31.23
371.528	41.47
371.739	102.91
371.95	102.91
372.16	12.8
372.371	-1.54
372.582	45.57
372.792	70.14
373.003	53.76
373.214	55.81
373.424	41.47
373.635	43.52
373.846	80.38
374.056	90.62
374.267	70.14
374.477	76.29
374.688	90.62
374.898	45.57
375.109	39.42
375.319	98.81
375.53	119.29
375.74	61.95
375.951	59.9
376.161	78.33
376.372	102.91
376.582	61.95
376.793	45.57
377.003	51.71
377.214	84.48
377.424	57.86
377.635	82.43
377.845	66.05
378.055	107.01
378.266	90.62
378.476	72.19
378.686	64
378.897	66.05
379.107	61.95
379.317	31.23
379.528	49.66
379.738	57.86
379.948	45.57
380.158	51.71
380.369	37.38
380.579	76.29
380.789	78.33
380.999	70.14
381.21	82.43
381.42	104.96
381.63	64
381.84	64
382.05	39.42
382.261	29.18
382.471	57.86
382.681	12.8
382.891	68.09
383.101	96.77
383.311	-24.06
383.521	78.33
383.731	141.82
383.941	78.33
384.151	43.52
384.361	119.29
384.571	100.86
384.781	119.29
384.991	100.86
385.201	96.77
385.411	94.72
385.621	76.29
385.831	23.04
386.041	-9.73
386.251	8.7
386.461	102.91
386.671	113.15
386.881	90.62
387.091	64
387.301	39.42
387.511	61.95
387.72	92.67
387.93	107.01
388.14	41.47
388.35	96.77
388.56	64
388.769	90.62
388.979	98.81
389.189	33.28
389.399	94.72
389.609	29.18
389.818	61.95
390.028	70.14
390.238	135.68
390.447	72.19
390.657	123.39
390.867	-17.92
391.076	59.9
391.286	113.15
391.496	145.92
391.705	41.47
391.915	68.09
392.125	64
392.334	72.19
392.544	72.19
392.753	4.61
392.963	59.9
393.172	150.01
393.382	57.86
393.591	59.9
393.801	61.95
394.01	135.68
394.22	104.96
394.429	139.77
394.639	104.96
394.848	64
395.058	57.86
395.267	53.76
395.477	188.93
395.686	68.09
395.895	96.77
396.105	195.07
396.314	131.58
396.524	121.34
396.733	100.86
396.942	84.48
397.152	115.2
397.361	90.62
397.57	59.9
397.78	160.25
397.989	102.91
398.198	164.35
398.407	94.72
398.617	117.25
398.826	94.72
399.035	88.57
399.244	193.02
399.453	72.19
399.663	195.07
399.872	123.39
400.081	76.29
400.29	107.01
400.499	168.45
400.708	188.93
400.917	131.58
401.127	174.59
401.336	137.73
401.545	172.54
401.754	168.45
401.963	129.53
402.172	96.77
402.381	125.44
402.59	80.38
402.799	115.2
403.008	111.1
403.217	176.64
403.426	131.58
403.635	117.25
403.844	86.53
404.053	213.5
404.262	145.92
404.471	195.07
404.68	166.4
404.888	156.16
405.097	104.96
405.306	199.16
405.515	256.51
405.724	143.87
405.933	197.12
406.142	203.26
406.35	199.16
406.559	209.4
406.768	213.5
406.977	176.64
407.185	256.51
407.394	289.28
407.603	188.93
407.812	315.9
408.02	258.56
408.229	217.6
408.438	293.37
408.646	227.84
408.855	229.88
409.064	242.17
409.272	369.15
409.481	332.28
409.69	291.32
409.898	375.29
410.107	346.62
410.315	340.47
410.524	274.94
410.733	291.32
410.941	311.8
411.15	313.85
411.358	332.28
411.567	375.29
411.775	383.48
411.984	457.21
412.192	395.77
412.401	442.87
412.609	516.6
412.818	438.78
413.026	477.69
413.234	545.27
413.443	512.5
413.651	473.59
413.86	502.26
414.068	655.86
414.276	655.86
414.485	633.33
414.693	582.14
414.901	709.11
415.11	694.77
415.318	578.04
415.526	737.78
415.734	692.73
415.943	758.26
416.151	823.8
416.359	791.03
416.567	905.71
416.776	918
416.984	895.47
417.192	940.53
417.4	963.06
417.608	1022.45
417.817	1044.98
418.025	1118.7
418.233	1055.22
418.441	1139.18
418.649	1188.33
418.857	1200.62
419.065	1210.86
419.273	1270.25
419.481	1386.99
419.689	1429.99
419.897	1397.23
420.105	1440.23
420.313	1429.99
420.521	1589.74
420.729	1618.41
420.937	1612.26
421.145	1720.81
421.353	1827.3
421.561	1993.19
421.769	1839.59
421.977	2048.48
422.185	2066.91
422.393	2183.65
422.601	2079.2
422.809	2077.15
423.017	2114.02
423.224	2324.96
423.432	2351.58
423.64	2464.22
423.848	2646.49
424.056	2537.95
424.263	2742.74
424.471	2861.52
424.679	2808.28
424.887	3092.94
425.094	3117.52
425.302	3135.95
425.51	3242.45
425.718	3115.47
425.925	3314.13
426.133	3400.14
426.341	3557.83
426.548	3738.05
426.756	3762.63
426.964	3809.73
427.171	4096.45
427.379	4114.88
427.586	4121.03
427.794	4276.67
428.001	4565.43
428.209	4700.6
428.417	4637.11
428.624	5206.45
428.832	4987.32
429.039	4919.73
429.247	4934.07
429.454	5386.67
429.662	5810.6
429.869	5411.25
430.076	5716.39
430.284	5728.68
430.491	5919.14
430.699	6238.62
430.906	6089.12
431.114	6304.16
431.321	6668.7
431.528	6637.98
431.736	7041.43
431.943	7510.41
432.15	7090.58
432.358	7395.73
432.565	7514.51
432.772	7772.55
432.979	8006.02
433.187	8198.53
433.394	8249.73
433.601	8728.95
433.808	8837.5
434.016	8757.63
434.223	9363.83
434.43	9752.94
434.637	9251.19
434.844	10064.23
435.052	10363.23
435.259	10244.45
435.466	10094.95
435.673	10131.81
435.88	10785.12
436.087	11415.89
436.294	11342.16
436.501	10998.1
436.708	11219.28
436.915	11702.61
437.122	12177.73
437.329	11923.79
437.537	12675.39
437.743	12863.8
437.95	12599.62
438.157	13529.39
438.364	13498.67
438.571	13650.22
438.778	13785.39
438.985	15259.93
439.192	14403.88
439.399	15163.67
439.606	14661.92
439.813	15675.66
440.02	16496.9
440.227	16089.35
440.433	16052.49
440.64	16609.54
440.847	16353.54
441.054	16800
441.261	17754.35
441.467	17539.32
441.674	18098.41
441.881	18559.2
442.088	18546.92
442.294	18145.52
442.501	19169.5
442.708	19237.08
442.914	20062.41
443.121	21176.51
443.328	20435.14
443.534	21848.24
443.741	21219.52
443.948	20943.04
444.154	22421.67
444.361	22155.44
444.568	22358.19
444.774	22505.64
444.981	22900.9
445.187	23167.13
445.394	24322.19
445.6	24283.28
445.807	26421.36
446.013	25294.97
446.22	26019.95
446.426	26820.71
446.633	26835.05
446.839	27820.12
447.046	26564.71
447.252	28192.85
447.459	28037.2
447.665	28170.32
447.871	29616.19
448.078	30447.66
448.284	29272.13
448.491	29835.32
448.697	30863.4
448.903	31584.29
449.11	31574.05
449.316	30896.17
449.522	31924.25
449.728	32546.83
449.935	32376.85
450.141	32669.71
450.347	33409.03
450.553	32405.52
450.76	32944.14
450.966	33730.56
451.172	33511.42
451.378	34457.59
451.584	33544.19
451.791	34662.38
451.997	34334.71
452.203	35160.04
452.409	34586.61
452.615	34635.76
452.821	33435.65
453.027	33136.65
453.233	34678.77
453.44	33282.05
453.646	33755.13
453.852	33990.65
454.058	34484.21
454.264	33177.61
454.47	34238.45
454.676	33294.34
454.882	34349.04
455.088	31361.06
455.294	32133.14
455.5	32192.53
455.705	32450.58
455.911	31361.06
456.117	30742.57
456.323	30412.85
456.529	28459.09
456.735	29956.15
456.941	29046.85
457.147	28475.47
457.352	27803.74
457.558	27779.16
457.764	27877.46
457.97	27220.06
458.176	26255.47
458.381	26607.72
458.587	25319.55
458.793	25100.42
458.999	24058
459.204	25632.89
459.41	24909.96
459.616	23615.64
459.821	23296.16
460.027	23429.27
460.233	22757.54
460.438	21551.29
460.644	22028.46
460.85	21051.58
461.055	20461.77
461.261	20777.15
461.466	19046.62
461.672	18497.77
461.878	19970.26
462.083	18415.85
462.289	18020.59
462.494	18145.52
462.7	17156.35
462.905	16625.92
463.111	17514.74
463.316	17543.41
463.522	16855.29
463.727	17119.48
463.932	16914.69
464.138	16910.59
464.343	16632.07
464.549	16437.51
464.754	17205.5
464.959	16886.01
465.165	16957.69
465.37	16304.39
465.575	15714.58
465.781	16435.46
465.986	16204.04
466.191	15749.39
466.397	15472.92
466.602	14692.64
466.807	15483.16
467.012	15325.46
467.218	15169.82
467.423	14885.15
467.628	15020.31
467.833	15544.59
468.038	15202.58
468.244	15048.99
468.449	15153.43
