Data from USB4F104151__195__13-59-26-928.txt Node

Date: Thu Mar 13 13:59:26 EDT 2025
User: louis
Spectrometer: USB4F10415
Trigger mode: 4
Integration Time (sec): 1.000000E-2
Scans to average: 1
Electric dark correction enabled: true
Nonlinearity correction enabled: false
Boxcar width: 0
XAxis mode: Wavelengths
Number of Pixels in Spectrum: 3648
>>>>>Begin Spectral Data<<<<<
178.204	35.33
178.424	35.33
178.644	35.33
178.864	-67.07
179.084	-26.11
179.304	14.85
179.524	-13.82
179.744	31.23
179.964	39.42
180.184	-1.54
180.404	-17.92
180.624	-38.4
180.844	53.76
181.064	-19.97
181.283	-1.54
181.503	-42.5
181.723	-3.58
181.943	-11.78
182.163	0.51
182.383	16.9
182.602	20.99
182.822	80.38
183.042	45.57
183.262	31.23
183.482	16.9
183.701	0.51
183.921	20.99
184.141	78.33
184.361	100.86
184.58	-3.58
184.8	45.57
185.02	10.75
185.239	8.7
185.459	49.66
185.679	55.81
185.898	0.51
186.118	25.09
186.338	27.14
186.557	100.86
186.777	72.19
186.997	25.09
187.216	70.14
187.436	64
187.655	66.05
187.875	49.66
188.095	-42.5
188.314	-32.26
188.534	70.14
188.753	64
188.973	82.43
189.192	31.23
189.412	98.81
189.631	111.1
189.851	8.7
190.07	49.66
190.29	39.42
190.509	-34.3
190.729	39.42
190.948	61.95
191.168	61.95
191.387	129.53
191.607	16.9
191.826	0.51
192.045	33.28
192.265	53.76
192.484	6.66
192.704	4.61
192.923	57.86
193.142	43.52
193.362	35.33
193.581	61.95
193.8	72.19
194.02	45.57
194.239	35.33
194.458	-1.54
194.678	-19.97
194.897	53.76
195.116	-44.54
195.335	25.09
195.555	-15.87
195.774	23.04
195.993	18.94
196.212	14.85
196.432	12.8
196.651	70.14
196.87	98.81
197.089	111.1
197.308	27.14
197.528	115.2
197.747	98.81
197.966	-13.82
198.185	41.47
198.404	16.9
198.623	55.81
198.842	78.33
199.062	31.23
199.281	88.57
199.5	31.23
199.719	-5.63
199.938	94.72
200.157	76.29
200.376	57.86
200.595	6.66
200.814	33.28
201.033	8.7
201.252	41.47
201.471	-11.78
201.69	-34.3
201.909	88.57
202.128	10.75
202.347	12.8
202.566	-3.58
202.785	39.42
203.004	10.75
203.223	16.9
203.442	10.75
203.661	-17.92
203.879	-17.92
204.098	72.19
204.317	61.95
204.536	43.52
204.755	88.57
204.974	10.75
205.193	25.09
205.411	113.15
205.63	-19.97
205.849	-3.58
206.068	-67.07
206.287	41.47
206.505	27.14
206.724	94.72
206.943	14.85
207.162	55.81
207.381	-62.98
207.599	41.47
207.818	53.76
208.037	-1.54
208.255	70.14
208.474	29.18
208.693	16.9
208.911	18.94
209.13	20.99
209.349	53.76
209.567	47.62
209.786	-30.21
210.005	-1.54
210.223	27.14
210.442	10.75
210.661	8.7
210.879	-44.54
211.098	74.24
211.316	90.62
211.535	72.19
211.753	-15.87
211.972	14.85
212.191	59.9
212.409	45.57
212.628	92.67
212.846	14.85
213.065	-7.68
213.283	59.9
213.502	68.09
213.72	68.09
213.938	90.62
214.157	10.75
214.375	45.57
214.594	12.8
214.812	86.53
215.031	-1.54
215.249	86.53
215.467	39.42
215.686	51.71
215.904	23.04
216.122	6.66
216.341	31.23
216.559	23.04
216.778	23.04
216.996	53.76
217.214	4.61
217.432	12.8
217.651	-28.16
217.869	-13.82
218.087	107.01
218.306	-13.82
218.524	51.71
218.742	45.57
218.96	70.14
219.179	-19.97
219.397	70.14
219.615	88.57
219.833	37.38
220.051	66.05
220.27	78.33
220.488	72.19
220.706	61.95
220.924	-3.58
221.142	35.33
221.36	16.9
221.578	102.91
221.796	-26.11
222.015	78.33
222.233	-11.78
222.451	127.49
222.669	29.18
222.887	-58.88
223.105	53.76
223.323	61.95
223.541	51.71
223.759	61.95
223.977	2.56
224.195	23.04
224.413	72.19
224.631	80.38
224.849	6.66
225.067	92.67
225.285	8.7
225.503	37.38
225.721	-28.16
225.939	-19.97
226.157	80.38
226.375	66.05
226.592	-34.3
226.81	57.86
227.028	12.8
227.246	64
227.464	-1.54
227.682	20.99
227.9	59.9
228.117	68.09
228.335	47.62
228.553	4.61
228.771	2.56
228.989	53.76
229.206	82.43
229.424	37.38
229.642	-9.73
229.86	-5.63
230.077	49.66
230.295	70.14
230.513	29.18
230.731	74.24
230.948	14.85
231.166	86.53
231.384	6.66
231.601	41.47
231.819	29.18
232.037	47.62
232.254	16.9
232.472	12.8
232.689	59.9
232.907	-34.3
233.125	66.05
233.342	4.61
233.56	-13.82
233.777	37.38
233.995	14.85
234.213	-11.78
234.43	12.8
234.648	88.57
234.865	55.81
235.083	82.43
235.3	59.9
235.518	84.48
235.735	20.99
235.953	25.09
236.17	-34.3
236.388	14.85
236.605	45.57
236.822	45.57
237.04	86.53
237.257	66.05
237.475	-13.82
237.692	82.43
237.909	51.71
238.127	-9.73
238.344	4.61
238.562	55.81
238.779	29.18
238.996	8.7
239.214	53.76
239.431	-11.78
239.648	10.75
239.865	92.67
240.083	41.47
240.3	41.47
240.517	33.28
240.735	14.85
240.952	33.28
241.169	35.33
241.386	74.24
241.603	45.57
241.821	33.28
242.038	25.09
242.255	-11.78
242.472	100.86
242.689	27.14
242.907	51.71
243.124	-5.63
243.341	-3.58
243.558	64
243.775	8.7
243.992	4.61
244.209	16.9
244.426	20.99
244.643	70.14
244.86	33.28
245.078	45.57
245.295	45.57
245.512	96.77
245.729	16.9
245.946	29.18
246.163	61.95
246.38	-44.54
246.597	80.38
246.814	-3.58
247.031	8.7
247.248	-48.64
247.464	55.81
247.681	55.81
247.898	61.95
248.115	27.14
248.332	4.61
248.549	78.33
248.766	49.66
248.983	0.51
249.2	72.19
249.417	70.14
249.633	35.33
249.85	70.14
250.067	47.62
250.284	-30.21
250.501	80.38
250.717	66.05
250.934	14.85
251.151	-65.02
251.368	20.99
251.585	14.85
251.801	45.57
252.018	33.28
252.235	6.66
252.451	131.58
252.668	25.09
252.885	70.14
253.102	39.42
253.318	23.04
253.535	8.7
253.752	-69.12
253.968	47.62
254.185	16.9
254.401	57.86
254.618	80.38
254.835	-3.58
255.051	49.66
255.268	113.15
255.484	86.53
255.701	51.71
255.917	31.23
256.134	57.86
256.351	31.23
256.567	45.57
256.784	98.81
257	6.66
257.217	68.09
257.433	80.38
257.65	66.05
257.866	82.43
258.082	43.52
258.299	72.19
258.515	135.68
258.732	25.09
258.948	12.8
259.165	-19.97
259.381	10.75
259.597	41.47
259.814	45.57
260.03	119.29
260.246	57.86
260.463	80.38
260.679	55.81
260.895	94.72
261.112	127.49
261.328	-28.16
261.544	41.47
261.761	72.19
261.977	39.42
262.193	0.51
262.409	10.75
262.626	55.81
262.842	96.77
263.058	37.38
263.274	64
263.49	43.52
263.707	35.33
263.923	43.52
264.139	78.33
264.355	49.66
264.571	0.51
264.787	-52.74
265.004	61.95
265.22	31.23
265.436	23.04
265.652	25.09
265.868	0.51
266.084	10.75
266.3	61.95
266.516	61.95
266.732	35.33
266.948	104.96
267.164	8.7
267.38	31.23
267.596	37.38
267.812	-11.78
268.028	102.91
268.244	53.76
268.46	-11.78
268.676	25.09
268.892	119.29
269.108	29.18
269.324	16.9
269.54	25.09
269.756	70.14
269.972	121.34
270.188	96.77
270.403	35.33
270.619	80.38
270.835	88.57
271.051	70.14
271.267	104.96
271.483	57.86
271.698	78.33
271.914	39.42
272.13	29.18
272.346	49.66
272.562	59.9
272.777	47.62
272.993	10.75
273.209	14.85
273.425	113.15
273.64	-32.26
273.856	49.66
274.072	53.76
274.287	82.43
274.503	37.38
274.719	72.19
274.934	82.43
275.15	45.57
275.366	53.76
275.581	78.33
275.797	51.71
276.012	59.9
276.228	-15.87
276.444	29.18
276.659	37.38
276.875	-7.68
277.09	59.9
277.306	41.47
277.521	43.52
277.737	-13.82
277.952	14.85
278.168	59.9
278.383	25.09
278.599	20.99
278.814	-1.54
279.03	25.09
279.245	4.61
279.461	80.38
279.676	66.05
279.892	29.18
280.107	55.81
280.322	2.56
280.538	78.33
280.753	49.66
280.969	61.95
281.184	12.8
281.399	29.18
281.615	29.18
281.83	25.09
282.045	6.66
282.26	39.42
282.476	41.47
282.691	64
282.906	104.96
283.122	29.18
283.337	41.47
283.552	111.1
283.767	90.62
283.983	80.38
284.198	76.29
284.413	150.01
284.628	27.14
284.843	-9.73
285.058	29.18
285.274	37.38
285.489	61.95
285.704	27.14
285.919	102.91
286.134	109.05
286.349	47.62
286.564	70.14
286.779	70.14
286.995	37.38
287.21	86.53
287.425	74.24
287.64	80.38
287.855	82.43
288.07	45.57
288.285	29.18
288.5	8.7
288.715	37.38
288.93	-3.58
289.145	76.29
289.36	27.14
289.575	76.29
289.79	80.38
290.004	31.23
290.219	16.9
290.434	18.94
290.649	70.14
290.864	47.62
291.079	18.94
291.294	66.05
291.509	78.33
291.724	59.9
291.938	14.85
292.153	61.95
292.368	31.23
292.583	25.09
292.798	25.09
293.012	86.53
293.227	39.42
293.442	12.8
293.657	59.9
293.871	55.81
294.086	39.42
294.301	94.72
294.516	57.86
294.73	39.42
294.945	64
295.16	-13.82
295.374	35.33
295.589	-3.58
295.804	66.05
296.018	84.48
296.233	49.66
296.447	82.43
296.662	53.76
296.877	25.09
297.091	123.39
297.306	41.47
297.52	-11.78
297.735	-40.45
297.949	86.53
298.164	37.38
298.378	70.14
298.593	66.05
298.807	20.99
299.022	94.72
299.236	57.86
299.451	23.04
299.665	-11.78
299.88	45.57
300.094	-3.58
300.309	20.99
300.523	57.86
300.737	33.28
300.952	68.09
301.166	35.33
301.381	-5.63
301.595	107.01
301.809	47.62
302.024	57.86
302.238	53.76
302.452	45.57
302.667	119.29
302.881	72.19
303.095	0.51
303.309	123.39
303.524	70.14
303.738	41.47
303.952	6.66
304.166	31.23
304.381	10.75
304.595	31.23
304.809	-19.97
305.023	45.57
305.237	8.7
305.452	59.9
305.666	96.77
305.88	119.29
306.094	2.56
306.308	16.9
306.522	96.77
306.736	-17.92
306.95	23.04
307.164	20.99
307.379	39.42
307.593	104.96
307.807	82.43
308.021	113.15
308.235	57.86
308.449	53.76
308.663	92.67
308.877	80.38
309.091	41.47
309.305	70.14
309.519	-11.78
309.733	117.25
309.947	20.99
310.161	119.29
310.374	-7.68
310.588	45.57
310.802	113.15
311.016	-38.4
311.23	68.09
311.444	20.99
311.658	33.28
311.872	41.47
312.085	133.63
312.299	76.29
312.513	8.7
312.727	109.05
312.941	57.86
313.154	25.09
313.368	31.23
313.582	25.09
313.796	98.81
314.009	55.81
314.223	39.42
314.437	84.48
314.651	14.85
314.864	88.57
315.078	72.19
315.292	53.76
315.505	8.7
315.719	-44.54
315.933	74.24
316.146	43.52
316.36	29.18
316.573	25.09
316.787	47.62
317.001	61.95
317.214	53.76
317.428	-9.73
317.641	115.2
317.855	16.9
318.068	76.29
318.282	-1.54
318.495	76.29
318.709	25.09
318.922	14.85
319.136	102.91
319.349	12.8
319.563	39.42
319.776	86.53
319.99	86.53
320.203	47.62
320.417	51.71
320.63	82.43
320.843	55.81
321.057	33.28
321.27	70.14
321.483	84.48
321.697	78.33
321.91	31.23
322.124	84.48
322.337	53.76
322.55	78.33
322.763	82.43
322.977	102.91
323.19	35.33
323.403	25.09
323.617	23.04
323.83	102.91
324.043	10.75
324.256	47.62
324.469	-5.63
324.683	139.77
324.896	27.14
325.109	33.28
325.322	49.66
325.535	47.62
325.748	139.77
325.962	94.72
326.175	16.9
326.388	94.72
326.601	78.33
326.814	18.94
327.027	57.86
327.24	53.76
327.453	49.66
327.666	53.76
327.879	49.66
328.092	-24.06
328.305	2.56
328.518	20.99
328.731	-9.73
328.944	33.28
329.157	92.67
329.37	29.18
329.583	23.04
329.796	88.57
330.009	6.66
330.222	90.62
330.435	55.81
330.648	57.86
330.861	117.25
331.073	23.04
331.286	76.29
331.499	70.14
331.712	53.76
331.925	29.18
332.138	23.04
332.35	-32.26
332.563	107.01
332.776	74.24
332.989	12.8
333.202	6.66
333.414	70.14
333.627	6.66
333.84	25.09
334.053	49.66
334.265	78.33
334.478	96.77
334.691	68.09
334.903	23.04
335.116	59.9
335.329	0.51
335.541	61.95
335.754	104.96
335.966	53.76
336.179	100.86
336.392	45.57
336.604	64
336.817	78.33
337.029	37.38
337.242	66.05
337.454	-44.54
337.667	64
337.88	59.9
338.092	86.53
338.305	27.14
338.517	-19.97
338.729	92.67
338.942	66.05
339.154	53.76
339.367	80.38
339.579	49.66
339.792	88.57
340.004	45.57
340.217	72.19
340.429	76.29
340.641	6.66
340.854	27.14
341.066	23.04
341.278	16.9
341.491	88.57
341.703	55.81
341.915	12.8
342.128	29.18
342.34	6.66
342.552	64
342.764	66.05
342.977	-1.54
343.189	64
343.401	55.81
343.613	27.14
343.826	119.29
344.038	64
344.25	121.34
344.462	78.33
344.674	12.8
344.886	70.14
345.099	47.62
345.311	31.23
345.523	49.66
345.735	-38.4
345.947	61.95
346.159	31.23
346.371	-30.21
346.583	39.42
346.795	49.66
347.007	6.66
347.219	90.62
347.431	80.38
347.643	49.66
347.855	-24.06
348.067	29.18
348.279	45.57
348.491	82.43
348.703	100.86
348.915	72.19
349.127	39.42
349.339	49.66
349.551	39.42
349.763	68.09
349.975	31.23
350.187	51.71
350.399	72.19
350.61	129.53
350.822	51.71
351.034	86.53
351.246	-48.64
351.458	8.7
351.669	4.61
351.881	45.57
352.093	104.96
352.305	51.71
352.517	55.81
352.728	29.18
352.94	94.72
353.152	68.09
353.363	53.76
353.575	84.48
353.787	113.15
353.999	70.14
354.21	102.91
354.422	74.24
354.633	86.53
354.845	111.1
355.057	43.52
355.268	47.62
355.48	80.38
355.692	31.23
355.903	41.47
356.115	94.72
356.326	96.77
356.538	33.28
356.749	96.77
356.961	8.7
357.172	107.01
357.384	88.57
357.595	59.9
357.807	61.95
358.018	55.81
358.23	29.18
358.441	27.14
358.653	88.57
358.864	33.28
359.075	43.52
359.287	64
359.498	111.1
359.709	47.62
359.921	125.44
360.132	8.7
360.344	61.95
360.555	47.62
360.766	72.19
360.977	27.14
361.189	137.73
361.4	59.9
361.611	92.67
361.823	64
362.034	96.77
362.245	31.23
362.456	111.1
362.667	90.62
362.879	86.53
363.09	72.19
363.301	-44.54
363.512	57.86
363.723	23.04
363.935	35.33
364.146	45.57
364.357	78.33
364.568	90.62
364.779	8.7
364.99	70.14
365.201	-3.58
365.412	72.19
365.623	51.71
365.834	68.09
366.045	86.53
366.256	47.62
366.467	2.56
366.678	70.14
366.889	55.81
367.1	80.38
367.311	45.57
367.522	107.01
367.733	117.25
367.944	86.53
368.155	150.01
368.366	27.14
368.577	61.95
368.788	45.57
368.999	78.33
369.209	102.91
369.42	145.92
369.631	39.42
369.842	133.63
370.053	8.7
370.264	80.38
370.474	117.25
370.685	31.23
370.896	109.05
371.107	53.76
371.317	111.1
371.528	59.9
371.739	45.57
371.95	119.29
372.16	119.29
372.371	68.09
372.582	129.53
372.792	61.95
373.003	39.42
373.214	-15.87
373.424	29.18
373.635	113.15
373.846	82.43
374.056	47.62
374.267	125.44
374.477	86.53
374.688	119.29
374.898	51.71
375.109	70.14
375.319	57.86
375.53	35.33
375.74	31.23
375.951	29.18
376.161	104.96
376.372	127.49
376.582	29.18
376.793	80.38
377.003	-7.68
377.214	45.57
377.424	82.43
377.635	57.86
377.845	31.23
378.055	61.95
378.266	14.85
378.476	166.4
378.686	4.61
378.897	135.68
379.107	37.38
379.317	41.47
379.528	45.57
379.738	117.25
379.948	-9.73
380.158	82.43
380.369	64
380.579	76.29
380.789	35.33
380.999	76.29
381.21	-1.54
381.42	82.43
381.63	78.33
381.84	115.2
382.05	100.86
382.261	107.01
382.471	59.9
382.681	59.9
382.891	107.01
383.101	66.05
383.311	37.38
383.521	76.29
383.731	59.9
383.941	66.05
384.151	80.38
384.361	72.19
384.571	25.09
384.781	94.72
384.991	92.67
385.201	121.34
385.411	-24.06
385.621	168.45
385.831	78.33
386.041	121.34
386.251	98.81
386.461	66.05
386.671	47.62
386.881	80.38
387.091	39.42
387.301	164.35
387.511	82.43
387.72	96.77
387.93	131.58
388.14	98.81
388.35	111.1
388.56	92.67
388.769	78.33
388.979	102.91
389.189	49.66
389.399	59.9
389.609	59.9
389.818	80.38
390.028	98.81
390.238	45.57
390.447	70.14
390.657	137.73
390.867	43.52
391.076	78.33
391.286	51.71
391.496	70.14
391.705	131.58
391.915	104.96
392.125	39.42
392.334	88.57
392.544	113.15
392.753	64
392.963	57.86
393.172	96.77
393.382	53.76
393.591	195.07
393.801	72.19
394.01	111.1
394.22	127.49
394.429	47.62
394.639	107.01
394.848	107.01
395.058	145.92
395.267	49.66
395.477	74.24
395.686	104.96
395.895	66.05
396.105	90.62
396.314	156.16
396.524	92.67
396.733	125.44
396.942	107.01
397.152	100.86
397.361	80.38
397.57	145.92
397.78	94.72
397.989	270.84
398.198	129.53
398.407	111.1
398.617	123.39
398.826	123.39
399.035	119.29
399.244	143.87
399.453	-17.92
399.663	102.91
399.872	66.05
400.081	150.01
400.29	82.43
400.499	129.53
400.708	154.11
400.917	70.14
401.127	158.21
401.336	115.2
401.545	111.1
401.754	39.42
401.963	152.06
402.172	113.15
402.381	86.53
402.59	131.58
402.799	164.35
403.008	162.3
403.217	98.81
403.426	43.52
403.635	78.33
403.844	119.29
404.053	193.02
404.262	119.29
404.471	193.02
404.68	184.83
404.888	127.49
405.097	193.02
405.306	145.92
405.515	207.36
405.724	186.88
405.933	127.49
406.142	225.79
406.35	225.79
406.559	233.98
406.768	188.93
406.977	158.21
407.185	199.16
407.394	279.04
407.603	213.5
407.812	303.61
408.02	324.09
408.229	272.89
408.438	305.66
408.646	244.22
408.855	217.6
409.064	287.23
409.272	350.71
409.481	311.8
409.69	326.14
409.898	322.04
410.107	326.14
410.315	328.19
410.524	373.24
410.733	412.15
410.941	344.57
411.15	383.48
411.358	342.52
411.567	397.82
411.775	524.79
411.984	408.06
412.192	471.54
412.401	516.6
412.609	383.48
412.818	512.5
413.026	524.79
413.234	567.8
413.443	639.48
413.651	563.7
413.86	643.57
414.068	575.99
414.276	692.73
414.485	664.05
414.693	662.01
414.901	664.05
415.11	717.3
415.318	819.7
415.526	827.89
415.734	831.99
415.943	758.26
416.151	915.95
416.359	879.09
416.567	885.23
416.776	946.67
416.984	1057.26
417.192	1061.36
417.4	971.25
417.608	1014.26
417.817	1053.17
418.025	1145.33
418.233	1280.49
418.441	1214.96
418.649	1315.31
418.857	1323.5
419.065	1370.6
419.273	1358.32
419.481	1319.4
419.689	1559.02
419.897	1632.74
420.105	1565.16
420.313	1604.07
420.521	1593.83
420.729	1649.13
420.937	1712.61
421.145	1845.73
421.353	1835.49
421.561	1978.85
421.769	2003.43
421.977	2195.93
422.185	2089.44
422.393	2251.23
422.601	2367.96
422.809	2306.52
423.017	2353.63
423.224	2415.07
423.432	2580.95
423.64	2587.1
423.848	2943.44
424.056	2595.29
424.263	3084.75
424.471	2939.35
424.679	3097.04
424.887	3156.43
425.094	3267.02
425.302	3256.78
425.51	3297.74
425.718	3367.37
425.925	3520.97
426.133	3555.79
426.341	3832.26
426.548	4069.83
426.756	4116.93
426.964	4166.08
427.171	4293.05
427.379	4469.18
427.586	4469.18
427.794	4624.83
428.001	4821.43
428.209	5149.11
428.417	5065.14
428.624	5441.96
428.832	5327.28
429.039	5267.89
429.247	5282.22
429.454	5728.68
429.662	6224.29
429.869	5591.47
430.076	6199.71
430.284	5906.85
430.491	6316.45
430.699	6541.72
430.906	6789.53
431.114	6730.14
431.321	7039.38
431.528	7059.86
431.736	7481.74
431.943	7917.96
432.15	7645.58
432.358	7823.75
432.565	8159.62
432.772	8190.34
432.979	8579.45
433.187	8831.35
433.394	8849.78
433.601	9425.26
433.808	9214.32
434.016	9396.59
434.223	9623.92
434.43	10191.2
434.637	9912.68
434.844	10654.05
435.052	10846.55
435.259	10699.1
435.466	10871.13
435.673	10811.74
435.88	11573.58
436.087	12056.9
436.294	11915.59
436.501	11805
436.708	12114.25
436.915	12685.63
437.122	12966.2
437.329	13113.66
437.537	13586.74
437.743	13429.04
437.95	13543.73
438.157	14022.95
438.364	14795.04
438.571	14684.45
438.778	14823.71
438.985	16087.31
439.192	15386.9
439.399	16075.02
439.606	15597.84
439.813	16742.66
440.02	17522.93
440.227	17228.03
440.433	17006.84
440.64	17611
440.847	17598.71
441.054	18010.35
441.261	18972.89
441.467	18915.55
441.674	19323.1
441.881	20027.6
442.088	19994.83
442.294	19638.48
442.501	20220.11
442.708	20478.15
442.914	21422.27
443.121	22436.01
443.328	21719.22
443.534	23171.23
443.741	22556.84
443.948	22284.46
444.154	23777.43
444.361	24121.49
444.568	23896.21
444.774	24168.59
444.981	24115.34
445.187	25036.93
445.394	25739.38
445.6	25757.81
445.807	28153.94
446.013	26939.49
446.22	27562.08
446.426	28328.02
446.633	28471.37
446.839	29704.25
447.046	28801.1
447.252	29986.87
447.459	30269.49
447.665	29925.43
447.871	31186.98
448.078	32653.33
448.284	31100.97
448.491	32006.17
448.697	33085.45
448.903	33441.79
449.11	33845.24
449.316	33189.89
449.522	33955.83
449.728	34807.79
449.935	34965.48
450.141	34916.33
450.347	35674.08
450.553	34390
450.76	34947.05
450.966	36163.54
451.172	35661.79
451.378	36624.34
451.584	36098.01
451.791	37046.22
451.997	37023.69
452.203	37189.58
452.409	37590.98
452.615	36868.05
452.821	35569.63
453.027	35225.57
453.233	37183.43
453.44	35473.38
453.646	36202.46
453.852	36575.19
454.058	36515.79
454.264	35723.23
454.47	36212.7
454.676	35348.45
454.882	36782.03
455.088	33826.81
455.294	33914.87
455.5	34594.8
455.705	34932.71
455.911	33251.33
456.117	32882.7
456.323	32514.06
456.529	30871.59
456.735	32296.98
456.941	31047.72
457.147	30896.17
457.352	30132.28
457.558	29657.15
457.764	29642.81
457.97	29220.93
458.176	28489.81
458.381	28299.34
458.587	26880.1
458.793	27093.09
458.999	25751.67
459.204	27531.36
459.41	26927.21
459.616	25016.45
459.821	24991.87
460.027	25045.12
460.233	24557.71
460.438	23324.83
460.644	23711.89
460.85	22726.82
461.055	21833.91
461.261	22149.29
461.466	20508.87
461.672	19796.18
461.878	21287.1
462.083	19843.28
462.289	19648.72
462.494	19245.27
462.7	18272.49
462.905	18092.27
463.111	18501.86
463.316	18702.56
463.522	18340.07
463.727	18370.79
463.932	18204.91
464.138	18055.4
464.343	18059.5
464.549	17588.47
464.754	18088.17
464.959	18274.54
465.165	17971.44
465.37	17103.1
465.575	16867.58
465.781	17436.92
465.986	17529.08
466.191	16881.92
466.397	16724.22
466.602	15966.48
466.807	16306.44
467.012	16621.83
467.218	16494.85
467.423	16097.55
467.628	16154.89
467.833	17334.52
468.038	16509.19
468.244	15657.23
