Data from USB4F104151__47__13-53-23-618.txt Node

Date: Thu Mar 13 13:53:23 EDT 2025
User: louis
Spectrometer: USB4F10415
Trigger mode: 4
Integration Time (sec): 1.000000E-2
Scans to average: 1
Electric dark correction enabled: true
Nonlinearity correction enabled: false
Boxcar width: 0
XAxis mode: Wavelengths
Number of Pixels in Spectrum: 3648
>>>>>Begin Spectral Data<<<<<
178.204	-127.14
178.424	-127.14
178.644	-127.14
178.864	-43.18
179.084	-59.56
179.304	34.64
179.524	-30.89
179.744	-51.37
179.964	14.17
180.184	-12.46
180.404	-39.08
180.624	26.45
180.844	36.69
181.064	-37.03
181.283	77.65
181.503	5.97
181.723	-24.75
181.943	28.5
182.163	77.65
182.383	-43.18
182.602	51.03
182.822	57.17
183.042	18.26
183.262	-8.36
183.482	36.69
183.701	-18.6
183.921	61.27
184.141	-0.17
184.361	12.12
184.58	1.88
184.8	-53.42
185.02	-28.84
185.239	-32.94
185.459	-14.51
185.679	65.36
185.898	-6.31
186.118	-0.17
186.338	-8.36
186.557	24.4
186.777	-0.17
186.997	1.88
187.216	-26.79
187.436	61.27
187.655	1.88
187.875	26.45
188.095	69.46
188.314	8.02
188.534	18.26
188.753	26.45
188.973	3.93
189.192	34.64
189.412	-16.55
189.631	-6.31
189.851	-8.36
190.07	46.93
190.29	5.97
190.509	16.21
190.729	-18.6
190.948	-16.55
191.168	96.08
191.387	40.79
191.607	73.56
191.826	-16.55
192.045	44.88
192.265	1.88
192.484	16.21
192.704	-2.22
192.923	55.12
193.142	24.4
193.362	-20.65
193.581	8.02
193.8	-51.37
194.02	44.88
194.239	-80.04
194.458	16.21
194.678	-55.47
194.897	12.12
195.116	110.42
195.335	42.84
195.555	18.26
195.774	-51.37
195.993	-26.79
196.212	38.74
196.432	-73.9
196.651	-49.32
196.87	1.88
197.089	5.97
197.308	-22.7
197.528	42.84
197.747	-55.47
197.966	12.12
198.185	55.12
198.404	73.56
198.623	-2.22
198.842	-39.08
199.062	-6.31
199.281	-10.41
199.5	-14.51
199.719	65.36
199.938	-12.46
200.157	55.12
200.376	-80.04
200.595	-37.03
200.814	22.36
201.033	28.5
201.252	-6.31
201.471	73.56
201.69	-14.51
201.909	-28.84
202.128	-24.75
202.347	46.93
202.566	14.17
202.785	-2.22
203.004	48.98
203.223	38.74
203.442	-2.22
203.661	16.21
203.879	30.55
204.098	85.84
204.317	26.45
204.536	18.26
204.755	-6.31
204.974	-47.27
205.193	-14.51
205.411	102.23
205.63	-53.42
205.849	22.36
206.068	1.88
206.287	32.6
206.505	-63.66
206.724	-8.36
206.943	-4.27
207.162	-8.36
207.381	-32.94
207.599	3.93
207.818	14.17
208.037	30.55
208.255	12.12
208.474	-34.99
208.693	46.93
208.911	65.36
209.13	55.12
209.349	63.32
209.567	46.93
209.786	89.94
210.005	-18.6
210.223	36.69
210.442	53.08
210.661	14.17
210.879	8.02
211.098	44.88
211.316	-8.36
211.535	-28.84
211.753	22.36
211.972	53.08
212.191	-12.46
212.409	-57.51
212.628	-10.41
212.846	-6.31
213.065	-43.18
213.283	53.08
213.502	1.88
213.72	-6.31
213.938	18.26
214.157	-6.31
214.375	3.93
214.594	36.69
214.812	3.93
215.031	65.36
215.249	-6.31
215.467	-8.36
215.686	46.93
215.904	24.4
216.122	38.74
216.341	38.74
216.559	-49.32
216.778	-0.17
216.996	12.12
217.214	24.4
217.432	-2.22
217.651	8.02
217.869	-39.08
218.087	-20.65
218.306	-24.75
218.524	-12.46
218.742	-30.89
218.96	44.88
219.179	5.97
219.397	53.08
219.615	79.7
219.833	16.21
220.051	28.5
220.27	36.69
220.488	-6.31
220.706	75.6
220.924	12.12
221.142	55.12
221.36	16.21
221.578	-22.7
221.796	-12.46
222.015	38.74
222.233	3.93
222.451	32.6
222.669	30.55
222.887	61.27
223.105	77.65
223.323	28.5
223.541	28.5
223.759	20.31
223.977	36.69
224.195	8.02
224.413	-71.85
224.631	30.55
224.849	5.97
225.067	46.93
225.285	69.46
225.503	-69.8
225.721	-6.31
225.939	12.12
226.157	-8.36
226.375	83.8
226.592	-2.22
226.81	32.6
227.028	10.07
227.246	3.93
227.464	-8.36
227.682	34.64
227.9	20.31
228.117	-2.22
228.335	36.69
228.553	-2.22
228.771	77.65
228.989	55.12
229.206	30.55
229.424	-26.79
229.642	-28.84
229.86	8.02
230.077	22.36
230.295	77.65
230.513	-20.65
230.731	51.03
230.948	-10.41
231.166	-55.47
231.384	-30.89
231.601	22.36
231.819	-86.19
232.037	-16.55
232.254	-12.46
232.472	46.93
232.689	-24.75
232.907	30.55
233.125	87.89
233.342	89.94
233.56	3.93
233.777	-75.95
233.995	42.84
234.213	48.98
234.43	-2.22
234.648	22.36
234.865	1.88
235.083	1.88
235.3	-63.66
235.518	-0.17
235.735	36.69
235.953	48.98
236.17	-57.51
236.388	-4.27
236.605	10.07
236.822	-41.13
237.04	106.32
237.257	-45.23
237.475	22.36
237.692	8.02
237.909	-2.22
238.127	12.12
238.344	26.45
238.562	28.5
238.779	10.07
238.996	-24.75
239.214	10.07
239.431	-2.22
239.648	-41.13
239.865	79.7
240.083	53.08
240.3	42.84
240.517	-4.27
240.735	-10.41
240.952	32.6
241.169	51.03
241.386	8.02
241.603	-6.31
241.821	8.02
242.038	63.32
242.255	48.98
242.472	10.07
242.689	42.84
242.907	-37.03
243.124	94.04
243.341	-8.36
243.558	91.99
243.775	42.84
243.992	-37.03
244.209	59.22
244.426	71.51
244.643	34.64
244.86	51.03
245.078	22.36
245.295	32.6
245.512	32.6
245.729	-37.03
245.946	16.21
246.163	-2.22
246.38	38.74
246.597	-16.55
246.814	-16.55
247.031	-49.32
247.248	48.98
247.464	24.4
247.681	-0.17
247.898	18.26
248.115	16.21
248.332	-2.22
248.549	-16.55
248.766	-2.22
248.983	8.02
249.2	36.69
249.417	5.97
249.633	14.17
249.85	59.22
250.067	-18.6
250.284	12.12
250.501	87.89
250.717	-28.84
250.934	-86.19
251.151	30.55
251.368	36.69
251.585	8.02
251.801	32.6
252.018	40.79
252.235	87.89
252.451	-4.27
252.668	-34.99
252.885	3.93
253.102	32.6
253.318	20.31
253.535	-30.89
253.752	-59.56
253.968	14.17
254.185	12.12
254.401	-30.89
254.618	20.31
254.835	55.12
255.051	-26.79
255.268	-49.32
255.484	48.98
255.701	36.69
255.917	51.03
256.134	-14.51
256.351	48.98
256.567	46.93
256.784	26.45
257	44.88
257.217	38.74
257.433	46.93
257.65	24.4
257.866	16.21
258.082	24.4
258.299	26.45
258.515	-18.6
258.732	24.4
258.948	-37.03
259.165	-22.7
259.381	85.84
259.597	-24.75
259.814	59.22
260.03	51.03
260.246	46.93
260.463	48.98
260.679	5.97
260.895	-6.31
261.112	8.02
261.328	34.64
261.544	1.88
261.761	46.93
261.977	16.21
262.193	22.36
262.409	26.45
262.626	65.36
262.842	16.21
263.058	34.64
263.274	34.64
263.49	-6.31
263.707	26.45
263.923	-6.31
264.139	-8.36
264.355	-2.22
264.571	22.36
264.787	-16.55
265.004	59.22
265.22	51.03
265.436	30.55
265.652	36.69
265.868	30.55
266.084	-6.31
266.3	34.64
266.516	-26.79
266.732	61.27
266.948	18.26
267.164	48.98
267.38	-16.55
267.596	-4.27
267.812	-0.17
268.028	65.36
268.244	-12.46
268.46	-12.46
268.676	-8.36
268.892	5.97
269.108	44.88
269.324	10.07
269.54	57.17
269.756	48.98
269.972	-55.47
270.188	3.93
270.403	-43.18
270.619	36.69
270.835	53.08
271.051	-24.75
271.267	-18.6
271.483	48.98
271.698	14.17
271.914	30.55
272.13	30.55
272.346	14.17
272.562	-39.08
272.777	48.98
272.993	5.97
273.209	40.79
273.425	57.17
273.64	14.17
273.856	10.07
274.072	63.32
274.287	-6.31
274.503	91.99
274.719	3.93
274.934	-39.08
275.15	-4.27
275.366	85.84
275.581	-10.41
275.797	10.07
276.012	-26.79
276.228	18.26
276.444	20.31
276.659	53.08
276.875	67.41
277.09	10.07
277.306	-0.17
277.521	-16.55
277.737	-8.36
277.952	65.36
278.168	-53.42
278.383	69.46
278.599	89.94
278.814	10.07
279.03	8.02
279.245	55.12
279.461	87.89
279.676	44.88
279.892	36.69
280.107	-4.27
280.322	-22.7
280.538	5.97
280.753	22.36
280.969	-12.46
281.184	57.17
281.399	40.79
281.615	-4.27
281.83	20.31
282.045	3.93
282.26	-55.47
282.476	38.74
282.691	16.21
282.906	5.97
283.122	26.45
283.337	-80.04
283.552	71.51
283.767	38.74
283.983	38.74
284.198	12.12
284.413	-22.7
284.628	-39.08
284.843	36.69
285.058	108.37
285.274	-4.27
285.489	-6.31
285.704	18.26
285.919	36.69
286.134	51.03
286.349	-12.46
286.564	73.56
286.779	22.36
286.995	14.17
287.21	-22.7
287.425	98.13
287.64	-57.51
287.855	46.93
288.07	24.4
288.285	42.84
288.5	-8.36
288.715	28.5
288.93	3.93
289.145	42.84
289.36	-6.31
289.575	51.03
289.79	10.07
290.004	-12.46
290.219	-14.51
290.434	-0.17
290.649	36.69
290.864	1.88
291.079	-26.79
291.294	16.21
291.509	-0.17
291.724	14.17
291.938	-6.31
292.153	-10.41
292.368	67.41
292.583	85.84
292.798	46.93
293.012	36.69
293.227	36.69
293.442	73.56
293.657	38.74
293.871	12.12
294.086	-12.46
294.301	128.85
294.516	20.31
294.73	26.45
294.945	85.84
295.16	75.6
295.374	48.98
295.589	-43.18
295.804	8.02
296.018	16.21
296.233	32.6
296.447	55.12
296.662	-6.31
296.877	-59.56
297.091	51.03
297.306	42.84
297.52	-28.84
297.735	-0.17
297.949	-22.7
298.164	77.65
298.378	-41.13
298.593	-10.41
298.807	8.02
299.022	26.45
299.236	40.79
299.451	-4.27
299.665	26.45
299.88	34.64
300.094	36.69
300.309	67.41
300.523	34.64
300.737	26.45
300.952	46.93
301.166	-8.36
301.381	16.21
301.595	-45.23
301.809	10.07
302.024	8.02
302.238	34.64
302.452	-16.55
302.667	40.79
302.881	-12.46
303.095	40.79
303.309	8.02
303.524	81.75
303.738	55.12
303.952	36.69
304.166	77.65
304.381	48.98
304.595	102.23
304.809	28.5
305.023	81.75
305.237	12.12
305.452	-57.51
305.666	20.31
305.88	16.21
306.094	-18.6
306.308	14.17
306.522	153.43
306.736	20.31
306.95	10.07
307.164	14.17
307.379	36.69
307.593	5.97
307.807	53.08
308.021	26.45
308.235	24.4
308.449	-4.27
308.663	10.07
308.877	-14.51
309.091	102.23
309.305	36.69
309.519	-24.75
309.733	1.88
309.947	-37.03
310.161	73.56
310.374	28.5
310.588	5.97
310.802	1.88
311.016	79.7
311.23	71.51
311.444	-18.6
311.658	89.94
311.872	79.7
312.085	79.7
312.299	-0.17
312.513	-61.61
312.727	-41.13
312.941	-4.27
313.154	38.74
313.368	28.5
313.582	30.55
313.796	-8.36
314.009	-6.31
314.223	32.6
314.437	65.36
314.651	-63.66
314.864	-6.31
315.078	22.36
315.292	16.21
315.505	26.45
315.719	10.07
315.933	53.08
316.146	-6.31
316.36	-6.31
316.573	-34.99
316.787	-12.46
317.001	36.69
317.214	-8.36
317.428	51.03
317.641	40.79
317.855	-6.31
318.068	12.12
318.282	53.08
318.495	46.93
318.709	20.31
318.922	26.45
319.136	83.8
319.349	-2.22
319.563	71.51
319.776	8.02
319.99	51.03
320.203	-10.41
320.417	69.46
320.63	20.31
320.843	32.6
321.057	24.4
321.27	81.75
321.483	8.02
321.697	22.36
321.91	-20.65
322.124	-4.27
322.337	51.03
322.55	38.74
322.763	83.8
322.977	24.4
323.19	24.4
323.403	5.97
323.617	-28.84
323.83	104.28
324.043	48.98
324.256	16.21
324.469	-39.08
324.683	-63.66
324.896	8.02
325.109	59.22
325.322	-32.94
325.535	3.93
325.748	-30.89
325.962	-0.17
326.175	46.93
326.388	26.45
326.601	48.98
326.814	-0.17
327.027	38.74
327.24	-22.7
327.453	53.08
327.666	81.75
327.879	20.31
328.092	79.7
328.305	36.69
328.518	67.41
328.731	30.55
328.944	51.03
329.157	20.31
329.37	40.79
329.583	26.45
329.796	22.36
330.009	-20.65
330.222	30.55
330.435	-16.55
330.648	5.97
330.861	46.93
331.073	28.5
331.286	-14.51
331.499	53.08
331.712	5.97
331.925	18.26
332.138	-6.31
332.35	59.22
332.563	10.07
332.776	55.12
332.989	20.31
333.202	79.7
333.414	16.21
333.627	51.03
333.84	118.61
334.053	32.6
334.265	1.88
334.478	85.84
334.691	-20.65
334.903	59.22
335.116	-18.6
335.329	77.65
335.541	10.07
335.754	-10.41
335.966	38.74
336.179	48.98
336.392	24.4
336.604	-45.23
336.817	-8.36
337.029	12.12
337.242	-18.6
337.454	22.36
337.667	48.98
337.88	55.12
338.092	-45.23
338.305	96.08
338.517	14.17
338.729	-16.55
338.942	61.27
339.154	-77.99
339.367	16.21
339.579	104.28
339.792	36.69
340.004	61.27
340.217	-22.7
340.429	89.94
340.641	44.88
340.854	59.22
341.066	10.07
341.278	12.12
341.491	81.75
341.703	77.65
341.915	16.21
342.128	36.69
342.34	8.02
342.552	63.32
342.764	14.17
342.977	16.21
343.189	28.5
343.401	36.69
343.613	22.36
343.826	12.12
344.038	24.4
344.25	-65.71
344.462	67.41
344.674	-49.32
344.886	-47.27
345.099	-8.36
345.311	1.88
345.523	-0.17
345.735	51.03
345.947	-8.36
346.159	51.03
346.371	81.75
346.583	55.12
346.795	-55.47
347.007	-34.99
347.219	38.74
347.431	3.93
347.643	57.17
347.855	30.55
348.067	65.36
348.279	18.26
348.491	-49.32
348.703	-26.79
348.915	-8.36
349.127	59.22
349.339	24.4
349.551	46.93
349.763	34.64
349.975	77.65
350.187	28.5
350.399	71.51
350.61	71.51
350.822	8.02
351.034	26.45
351.246	16.21
351.458	-10.41
351.669	61.27
351.881	28.5
352.093	32.6
352.305	67.41
352.517	-16.55
352.728	42.84
352.94	-6.31
353.152	-55.47
353.363	20.31
353.575	79.7
353.787	63.32
353.999	-24.75
354.21	26.45
354.422	-8.36
354.633	124.76
354.845	34.64
355.057	-47.27
355.268	55.12
355.48	-14.51
355.692	32.6
355.903	46.93
356.115	22.36
356.326	77.65
356.538	8.02
356.749	46.93
356.961	55.12
357.172	73.56
357.384	-57.51
357.595	51.03
357.807	-61.61
358.018	77.65
358.23	40.79
358.441	102.23
358.653	100.18
358.864	-8.36
359.075	28.5
359.287	46.93
359.498	63.32
359.709	89.94
359.921	3.93
360.132	55.12
360.344	10.07
360.555	5.97
360.766	61.27
360.977	-0.17
361.189	12.12
361.4	-45.23
361.611	18.26
361.823	5.97
362.034	3.93
362.245	24.4
362.456	-14.51
362.667	38.74
362.879	77.65
363.09	55.12
363.301	8.02
363.512	59.22
363.723	14.17
363.935	44.88
364.146	10.07
364.357	36.69
364.568	40.79
364.779	46.93
364.99	-30.89
365.201	24.4
365.412	79.7
365.623	51.03
365.834	-4.27
366.045	-30.89
366.256	51.03
366.467	-4.27
366.678	-22.7
366.889	-39.08
367.1	118.61
367.311	8.02
367.522	28.5
367.733	-10.41
367.944	-22.7
368.155	1.88
368.366	75.6
368.577	34.64
368.788	67.41
368.999	5.97
369.209	61.27
369.42	75.6
369.631	40.79
369.842	-14.51
370.053	59.22
370.264	32.6
370.474	-4.27
370.685	53.08
370.896	44.88
371.107	1.88
371.317	16.21
371.528	44.88
371.739	77.65
371.95	48.98
372.16	12.12
372.371	42.84
372.582	98.13
372.792	55.12
373.003	-37.03
373.214	-2.22
373.424	5.97
373.635	-12.46
373.846	-12.46
374.056	65.36
374.267	38.74
374.477	40.79
374.688	59.22
374.898	28.5
375.109	28.5
375.319	71.51
375.53	83.8
375.74	20.31
375.951	1.88
376.161	59.22
376.372	73.56
376.582	-32.94
376.793	-39.08
377.003	26.45
377.214	12.12
377.424	24.4
377.635	-24.75
377.845	-0.17
378.055	44.88
378.266	-0.17
378.476	55.12
378.686	48.98
378.897	5.97
379.107	48.98
379.317	73.56
379.528	5.97
379.738	-10.41
379.948	55.12
380.158	-65.71
380.369	3.93
380.579	71.51
380.789	-30.89
380.999	22.36
381.21	59.22
381.42	38.74
381.63	26.45
381.84	73.56
382.05	16.21
382.261	-26.79
382.471	30.55
382.681	38.74
382.891	22.36
383.101	53.08
383.311	30.55
383.521	57.17
383.731	-4.27
383.941	42.84
384.151	116.56
384.361	8.02
384.571	-8.36
384.781	83.8
384.991	-4.27
385.201	12.12
385.411	69.46
385.621	-6.31
385.831	46.93
386.041	14.17
386.251	130.9
386.461	83.8
386.671	20.31
386.881	53.08
387.091	42.84
387.301	42.84
387.511	1.88
387.72	5.97
387.93	59.22
388.14	48.98
388.35	-4.27
388.56	20.31
388.769	46.93
388.979	36.69
389.189	63.32
389.399	48.98
389.609	10.07
389.818	81.75
390.028	42.84
390.238	67.41
390.447	20.31
390.657	18.26
390.867	5.97
391.076	5.97
391.286	75.6
391.496	18.26
391.705	5.97
391.915	42.84
392.125	28.5
392.334	16.21
392.544	32.6
392.753	71.51
392.963	118.61
393.172	48.98
393.382	30.55
393.591	137.04
393.801	28.5
394.01	44.88
394.22	36.69
394.429	126.8
394.639	-28.84
394.848	18.26
395.058	26.45
395.267	10.07
395.477	-4.27
395.686	36.69
395.895	61.27
396.105	85.84
396.314	-4.27
396.524	149.33
396.733	30.55
396.942	77.65
397.152	8.02
397.361	61.27
397.57	102.23
397.78	79.7
397.989	69.46
398.198	3.93
398.407	83.8
398.617	81.75
398.826	65.36
399.035	77.65
399.244	67.41
399.453	98.13
399.663	-2.22
399.872	55.12
400.081	-0.17
400.29	53.08
400.499	75.6
400.708	81.75
400.917	87.89
401.127	77.65
401.336	51.03
401.545	128.85
401.754	63.32
401.963	44.88
402.172	94.04
402.381	8.02
402.59	91.99
402.799	36.69
403.008	26.45
403.217	73.56
403.426	59.22
403.635	106.32
403.844	77.65
404.053	48.98
404.262	184.15
404.471	69.46
404.68	100.18
404.888	83.8
405.097	79.7
405.306	48.98
405.515	79.7
405.724	114.52
405.933	75.6
406.142	139.09
406.35	128.85
406.559	141.14
406.768	153.43
406.977	194.39
407.185	38.74
407.394	81.75
407.603	61.27
407.812	139.09
408.02	83.8
408.229	118.61
408.438	46.93
408.646	94.04
408.855	149.33
409.064	184.15
409.272	151.38
409.481	157.52
409.69	104.28
409.898	153.43
410.107	175.95
410.315	151.38
410.524	178
410.733	149.33
410.941	118.61
411.15	212.82
411.358	175.95
411.567	264.02
411.775	231.25
411.984	249.68
412.192	288.59
412.401	204.63
412.609	208.72
412.818	261.97
413.026	247.63
413.234	335.7
413.443	264.02
413.651	339.79
413.86	282.45
414.068	403.28
414.276	354.13
414.485	378.7
414.693	388.94
414.901	448.33
415.11	462.67
415.318	309.07
415.526	444.24
415.734	436.05
415.943	431.95
416.151	507.73
416.359	499.53
416.567	485.2
416.776	472.91
416.984	524.11
417.192	587.6
417.4	515.92
417.608	444.24
417.817	575.31
418.025	571.21
418.233	591.69
418.441	667.47
418.649	657.23
418.857	737.1
419.065	649.04
419.273	685.9
419.481	784.2
419.689	767.82
419.897	839.5
420.105	886.6
420.313	909.13
420.521	849.74
420.729	919.37
420.937	886.6
421.145	925.51
421.353	1003.33
421.561	1038.15
421.769	1175.36
421.977	1075.01
422.185	1085.25
422.393	1232.71
422.601	1197.89
422.809	1314.63
423.017	1328.96
423.224	1333.06
423.432	1316.67
423.64	1449.79
423.848	1472.32
424.056	1587.01
424.263	1541.95
424.471	1580.86
424.679	1507.13
424.887	1769.27
425.094	1865.53
425.302	1734.46
425.51	1754.94
425.718	1947.45
425.925	1816.38
426.133	1910.58
426.341	2049.85
426.548	2135.86
426.756	2148.15
426.964	2193.2
427.171	2273.07
427.379	2279.22
427.586	2344.75
427.794	2455.34
428.001	2539.31
428.209	2774.83
428.417	2578.22
428.624	2953
428.832	2750.25
429.039	2678.57
429.247	2953
429.454	3106.6
429.662	3421.99
429.869	3165.99
430.076	3295.01
430.284	3256.1
430.491	3438.37
430.699	3508
430.906	3569.44
431.114	3671.84
431.321	3796.76
431.528	3933.98
431.736	3841.82
431.943	4097.81
432.15	4171.54
432.358	4048.66
432.565	4480.78
432.772	4456.21
432.979	4474.64
433.187	4579.09
433.394	4753.16
433.601	4968.2
433.808	4978.44
434.016	5046.02
434.223	5236.49
434.43	5469.95
434.637	5418.75
434.844	5748.48
435.052	5762.81
435.259	5764.86
435.466	5756.67
435.673	5758.72
435.88	6139.64
436.087	6364.92
436.294	6463.22
436.501	6303.48
436.708	6450.93
436.915	6659.82
437.122	6930.16
437.329	6938.35
437.537	7298.79
437.743	7354.09
437.95	7218.92
438.157	7702.24
438.364	7874.27
438.571	8007.39
438.778	7855.84
438.985	8855.25
439.192	8394.45
439.399	8605.39
439.606	8570.58
439.813	8812.24
440.02	9408.2
440.227	9236.17
440.433	9340.61
440.64	9408.2
440.847	9289.42
441.054	9688.77
441.261	10286.78
441.467	9897.66
441.674	10335.93
441.881	10694.32
442.088	10727.09
442.294	10647.22
442.501	10835.63
442.708	11097.77
442.914	11423.4
443.121	12086.94
443.328	11726.5
443.534	12658.32
443.741	12351.13
443.948	12093.08
444.154	13194.89
444.361	12646.04
444.568	13041.29
444.774	13086.35
444.981	13198.99
445.187	13354.63
445.394	13559.43
445.6	13954.69
445.807	15181.42
446.013	14548.6
446.22	14642.81
446.426	15498.86
446.633	15523.43
446.839	15935.07
447.046	15195.76
447.252	16170.59
447.459	16195.17
447.665	16150.11
447.871	16950.87
448.078	17606.22
448.284	16682.58
448.491	17299.02
448.697	17817.16
448.903	17980.99
449.11	18226.75
449.316	17718.85
449.522	18132.54
449.728	18689.59
449.935	18677.3
450.141	18705.98
450.347	19217.97
450.553	18785.85
450.76	18665.02
450.966	19469.87
451.172	19090.99
451.378	19576.36
451.584	19367.47
451.791	19775.02
451.997	19584.55
452.203	20053.54
452.409	19899.94
452.615	19803.69
452.821	19265.07
453.027	18923.06
453.233	19662.38
453.44	19152.43
453.646	19078.71
453.852	19400.24
454.058	19465.77
454.264	18806.33
454.47	19664.43
454.676	18843.19
454.882	19531.31
455.088	17919.56
455.294	18112.06
455.5	18327.1
455.705	18603.58
455.911	17935.94
456.117	17215.05
456.323	17112.66
456.529	16025.18
456.735	16694.87
456.941	16598.62
457.147	16305.76
457.352	15595.11
457.558	15597.16
457.764	15371.88
457.97	15158.89
458.176	14786.16
458.381	14923.38
458.587	14259.84
458.793	14190.2
458.999	13641.35
459.204	14044.8
459.41	13940.35
459.616	13235.85
459.821	13264.52
460.027	12994.19
460.233	12664.47
460.438	11923.1
460.644	12250.78
460.85	11681.44
461.055	11511.46
461.261	11441.83
461.466	10747.57
461.672	10036.92
461.878	10866.35
462.083	10344.12
462.289	10051.26
462.494	9955.01
462.7	9629.38
462.905	9338.57
463.111	9467.59
463.316	9877.18
463.522	9471.68
463.727	9449.16
463.932	9670.34
464.138	9404.1
464.343	9434.82
464.549	9092.81
464.754	9531.08
464.959	9340.61
465.165	9346.76
465.37	8922.83
465.575	8623.83
465.781	9180.87
465.986	9254.6
466.191	8652.5
466.397	8707.79
466.602	8298.2
466.807	8326.87
467.012	8503
467.218	8650.45
467.423	8365.78
467.628	8201.94
467.833	8578.77
468.038	8376.02
468.244	8097.5
468.449	8761.04
468.654	8232.66
468.859	8464.08
469.064	8363.73
