Data from USB4F104151__193__13-59-26-021.txt Node

Date: Thu Mar 13 13:59:26 EDT 2025
User: louis
Spectrometer: USB4F10415
Trigger mode: 4
Integration Time (sec): 1.000000E-2
Scans to average: 1
Electric dark correction enabled: true
Nonlinearity correction enabled: false
Boxcar width: 0
XAxis mode: Wavelengths
Number of Pixels in Spectrum: 3648
>>>>>Begin Spectral Data<<<<<
178.204	29.7
178.424	29.7
178.644	29.7
178.864	-17.41
179.084	-117.76
179.304	13.31
179.524	7.17
179.744	11.26
179.964	-11.26
180.184	-21.5
180.404	37.89
180.624	-23.55
180.844	29.7
181.064	-23.55
181.283	-46.08
181.503	52.22
181.723	-25.6
181.943	31.74
182.163	76.8
182.383	-11.26
182.602	7.17
182.822	23.55
183.042	5.12
183.262	58.37
183.482	37.89
183.701	19.46
183.921	76.8
184.141	-15.36
184.361	37.89
184.58	27.65
184.8	-27.65
185.02	-11.26
185.239	31.74
185.459	-1.02
185.679	35.84
185.898	-62.46
186.118	78.85
186.338	15.36
186.557	21.5
186.777	23.55
186.997	-39.94
187.216	-31.74
187.436	72.7
187.655	-15.36
187.875	33.79
188.095	-19.46
188.314	76.8
188.534	91.13
188.753	35.84
188.973	56.32
189.192	66.56
189.412	58.37
189.631	25.6
189.851	15.36
190.07	-5.12
190.29	48.13
190.509	54.27
190.729	46.08
190.948	62.46
191.168	54.27
191.387	29.7
191.607	52.22
191.826	39.94
192.045	19.46
192.265	15.36
192.484	19.46
192.704	27.65
192.923	13.31
193.142	5.12
193.362	52.22
193.581	13.31
193.8	-3.07
194.02	-41.98
194.239	-5.12
194.458	58.37
194.678	21.5
194.897	-1.02
195.116	-46.08
195.335	19.46
195.555	44.03
195.774	-9.22
195.993	48.13
196.212	82.94
196.432	-9.22
196.651	84.99
196.87	70.65
197.089	78.85
197.308	-23.55
197.528	66.56
197.747	-25.6
197.966	13.31
198.185	64.51
198.404	-27.65
198.623	72.7
198.842	72.7
199.062	39.94
199.281	31.74
199.5	-35.84
199.719	54.27
199.938	37.89
200.157	99.33
200.376	111.61
200.595	80.89
200.814	35.84
201.033	15.36
201.252	9.22
201.471	52.22
201.69	78.85
201.909	39.94
202.128	62.46
202.347	23.55
202.566	50.18
202.785	50.18
203.004	-35.84
203.223	70.65
203.442	13.31
203.661	52.22
203.879	-33.79
204.098	56.32
204.317	27.65
204.536	23.55
204.755	29.7
204.974	60.42
205.193	23.55
205.411	107.52
205.63	105.47
205.849	17.41
206.068	39.94
206.287	-1.02
206.505	1.02
206.724	29.7
206.943	70.65
207.162	35.84
207.381	-13.31
207.599	33.79
207.818	13.31
208.037	80.89
208.255	3.07
208.474	37.89
208.693	19.46
208.911	25.6
209.13	13.31
209.349	76.8
209.567	62.46
209.786	58.37
210.005	33.79
210.223	13.31
210.442	72.7
210.661	95.23
210.879	60.42
211.098	7.17
211.316	89.09
211.535	35.84
211.753	15.36
211.972	89.09
212.191	80.89
212.409	17.41
212.628	-29.7
212.846	7.17
213.065	72.7
213.283	54.27
213.502	95.23
213.72	-5.12
213.938	103.42
214.157	101.37
214.375	58.37
214.594	25.6
214.812	68.61
215.031	70.65
215.249	5.12
215.467	111.61
215.686	46.08
215.904	80.89
216.122	19.46
216.341	68.61
216.559	-9.22
216.778	33.79
216.996	31.74
217.214	-37.89
217.432	33.79
217.651	13.31
217.869	52.22
218.087	44.03
218.306	-5.12
218.524	-7.17
218.742	-44.03
218.96	80.89
219.179	54.27
219.397	39.94
219.615	64.51
219.833	117.76
220.051	99.33
220.27	-9.22
220.488	78.85
220.706	5.12
220.924	-1.02
221.142	35.84
221.36	35.84
221.578	54.27
221.796	66.56
222.015	19.46
222.233	-15.36
222.451	89.09
222.669	-27.65
222.887	82.94
223.105	7.17
223.323	33.79
223.541	29.7
223.759	46.08
223.977	48.13
224.195	37.89
224.413	93.18
224.631	56.32
224.849	44.03
225.067	46.08
225.285	-29.7
225.503	35.84
225.721	37.89
225.939	15.36
226.157	13.31
226.375	29.7
226.592	41.98
226.81	50.18
227.028	-46.08
227.246	105.47
227.464	-3.07
227.682	101.37
227.9	1.02
228.117	-3.07
228.335	64.51
228.553	87.04
228.771	80.89
228.989	87.04
229.206	-11.26
229.424	66.56
229.642	7.17
229.86	46.08
230.077	23.55
230.295	103.42
230.513	-15.36
230.731	58.37
230.948	37.89
231.166	23.55
231.384	68.61
231.601	13.31
231.819	25.6
232.037	25.6
232.254	-9.22
232.472	27.65
232.689	29.7
232.907	97.28
233.125	9.22
233.342	78.85
233.56	19.46
233.777	-7.17
233.995	29.7
234.213	37.89
234.43	70.65
234.648	48.13
234.865	80.89
235.083	-19.46
235.3	5.12
235.518	-9.22
235.735	-9.22
235.953	56.32
236.17	39.94
236.388	60.42
236.605	41.98
236.822	54.27
237.04	27.65
237.257	115.71
237.475	11.26
237.692	41.98
237.909	27.65
238.127	27.65
238.344	-27.65
238.562	54.27
238.779	64.51
238.996	-11.26
239.214	-17.41
239.431	46.08
239.648	25.6
239.865	11.26
240.083	76.8
240.3	-3.07
240.517	-66.56
240.735	103.42
240.952	119.81
241.169	19.46
241.386	107.52
241.603	13.31
241.821	74.75
242.038	115.71
242.255	3.07
242.472	33.79
242.689	37.89
242.907	87.04
243.124	95.23
243.341	25.6
243.558	13.31
243.775	62.46
243.992	35.84
244.209	72.7
244.426	29.7
244.643	54.27
244.86	31.74
245.078	44.03
245.295	70.65
245.512	13.31
245.729	23.55
245.946	78.85
246.163	29.7
246.38	44.03
246.597	7.17
246.814	23.55
247.031	78.85
247.248	39.94
247.464	99.33
247.681	72.7
247.898	109.57
248.115	46.08
248.332	-39.94
248.549	74.75
248.766	66.56
248.983	33.79
249.2	-17.41
249.417	-31.74
249.633	76.8
249.85	66.56
250.067	37.89
250.284	44.03
250.501	48.13
250.717	109.57
250.934	66.56
251.151	-25.6
251.368	93.18
251.585	7.17
251.801	31.74
252.018	58.37
252.235	66.56
252.451	44.03
252.668	76.8
252.885	91.13
253.102	37.89
253.318	41.98
253.535	72.7
253.752	54.27
253.968	-3.07
254.185	41.98
254.401	-11.26
254.618	27.65
254.835	19.46
255.051	37.89
255.268	3.07
255.484	70.65
255.701	-19.46
255.917	58.37
256.134	-27.65
256.351	37.89
256.567	27.65
256.784	15.36
257	-11.26
257.217	64.51
257.433	101.37
257.65	54.27
257.866	50.18
258.082	-21.5
258.299	31.74
258.515	37.89
258.732	-1.02
258.948	21.5
259.165	33.79
259.381	101.37
259.597	64.51
259.814	-11.26
260.03	-25.6
260.246	56.32
260.463	46.08
260.679	35.84
260.895	5.12
261.112	-41.98
261.328	76.8
261.544	95.23
261.761	101.37
261.977	29.7
262.193	84.99
262.409	74.75
262.626	5.12
262.842	7.17
263.058	82.94
263.274	27.65
263.49	62.46
263.707	62.46
263.923	76.8
264.139	50.18
264.355	60.42
264.571	-1.02
264.787	39.94
265.004	39.94
265.22	48.13
265.436	64.51
265.652	46.08
265.868	89.09
266.084	19.46
266.3	-15.36
266.516	27.65
266.732	70.65
266.948	54.27
267.164	54.27
267.38	11.26
267.596	46.08
267.812	21.5
268.028	105.47
268.244	-27.65
268.46	48.13
268.676	56.32
268.892	35.84
269.108	41.98
269.324	-19.46
269.54	80.89
269.756	39.94
269.972	23.55
270.188	1.02
270.403	33.79
270.619	105.47
270.835	25.6
271.051	-1.02
271.267	62.46
271.483	-1.02
271.698	80.89
271.914	5.12
272.13	-70.65
272.346	87.04
272.562	5.12
272.777	17.41
272.993	46.08
273.209	66.56
273.425	-7.17
273.64	31.74
273.856	-39.94
274.072	54.27
274.287	52.22
274.503	80.89
274.719	9.22
274.934	62.46
275.15	46.08
275.366	50.18
275.581	7.17
275.797	68.61
276.012	54.27
276.228	60.42
276.444	84.99
276.659	103.42
276.875	35.84
277.09	72.7
277.306	50.18
277.521	-11.26
277.737	-25.6
277.952	84.99
278.168	17.41
278.383	105.47
278.599	60.42
278.814	37.89
279.03	54.27
279.245	99.33
279.461	27.65
279.676	62.46
279.892	5.12
280.107	103.42
280.322	39.94
280.538	111.61
280.753	-11.26
280.969	101.37
281.184	3.07
281.399	37.89
281.615	23.55
281.83	37.89
282.045	72.7
282.26	-5.12
282.476	35.84
282.691	111.61
282.906	39.94
283.122	78.85
283.337	1.02
283.552	41.98
283.767	15.36
283.983	70.65
284.198	-11.26
284.413	54.27
284.628	105.47
284.843	-23.55
285.058	37.89
285.274	105.47
285.489	-21.5
285.704	-31.74
285.919	-1.02
286.134	39.94
286.349	78.85
286.564	50.18
286.779	41.98
286.995	78.85
287.21	66.56
287.425	50.18
287.64	-37.89
287.855	103.42
288.07	21.5
288.285	33.79
288.5	70.65
288.715	103.42
288.93	-23.55
289.145	46.08
289.36	-37.89
289.575	17.41
289.79	46.08
290.004	5.12
290.219	66.56
290.434	-5.12
290.649	54.27
290.864	70.65
291.079	52.22
291.294	87.04
291.509	84.99
291.724	25.6
291.938	-25.6
292.153	-9.22
292.368	46.08
292.583	91.13
292.798	97.28
293.012	46.08
293.227	119.81
293.442	107.52
293.657	25.6
293.871	-3.07
294.086	70.65
294.301	-19.46
294.516	17.41
294.73	95.23
294.945	-1.02
295.16	76.8
295.374	62.46
295.589	1.02
295.804	58.37
296.018	144.38
296.233	33.79
296.447	56.32
296.662	25.6
296.877	50.18
297.091	39.94
297.306	-60.42
297.52	31.74
297.735	-17.41
297.949	3.07
298.164	84.99
298.378	50.18
298.593	72.7
298.807	78.85
299.022	87.04
299.236	95.23
299.451	33.79
299.665	15.36
299.88	91.13
300.094	93.18
300.309	41.98
300.523	105.47
300.737	21.5
300.952	58.37
301.166	44.03
301.381	72.7
301.595	46.08
301.809	66.56
302.024	17.41
302.238	41.98
302.452	128
302.667	29.7
302.881	41.98
303.095	78.85
303.309	101.37
303.524	39.94
303.738	64.51
303.952	3.07
304.166	72.7
304.381	7.17
304.595	48.13
304.809	29.7
305.023	84.99
305.237	50.18
305.452	48.13
305.666	93.18
305.88	84.99
306.094	89.09
306.308	66.56
306.522	-25.6
306.736	39.94
306.95	78.85
307.164	-9.22
307.379	138.24
307.593	62.46
307.807	128
308.021	41.98
308.235	52.22
308.449	25.6
308.663	48.13
308.877	39.94
309.091	7.17
309.305	39.94
309.519	66.56
309.733	76.8
309.947	41.98
310.161	66.56
310.374	72.7
310.588	66.56
310.802	3.07
311.016	44.03
311.23	70.65
311.444	82.94
311.658	9.22
311.872	68.61
312.085	78.85
312.299	41.98
312.513	17.41
312.727	62.46
312.941	3.07
313.154	111.61
313.368	164.86
313.582	23.55
313.796	48.13
314.009	-13.31
314.223	76.8
314.437	70.65
314.651	1.02
314.864	5.12
315.078	-13.31
315.292	70.65
315.505	5.12
315.719	56.32
315.933	41.98
316.146	48.13
316.36	19.46
316.573	21.5
316.787	15.36
317.001	62.46
317.214	46.08
317.428	37.89
317.641	56.32
317.855	27.65
318.068	17.41
318.282	111.61
318.495	19.46
318.709	64.51
318.922	39.94
319.136	119.81
319.349	62.46
319.563	70.65
319.776	21.5
319.99	-11.26
320.203	-7.17
320.417	64.51
320.63	66.56
320.843	76.8
321.057	-11.26
321.27	130.05
321.483	54.27
321.697	95.23
321.91	41.98
322.124	41.98
322.337	11.26
322.55	17.41
322.763	119.81
322.977	46.08
323.19	15.36
323.403	25.6
323.617	-7.17
323.83	48.13
324.043	50.18
324.256	113.66
324.469	-31.74
324.683	64.51
324.896	1.02
325.109	99.33
325.322	74.75
325.535	82.94
325.748	80.89
325.962	37.89
326.175	29.7
326.388	91.13
326.601	99.33
326.814	72.7
327.027	58.37
327.24	76.8
327.453	117.76
327.666	37.89
327.879	29.7
328.092	37.89
328.305	72.7
328.518	-11.26
328.731	123.9
328.944	-3.07
329.157	66.56
329.37	21.5
329.583	-3.07
329.796	37.89
330.009	58.37
330.222	25.6
330.435	136.19
330.648	29.7
330.861	113.66
331.073	111.61
331.286	99.33
331.499	-5.12
331.712	-60.42
331.925	39.94
332.138	95.23
332.35	21.5
332.563	99.33
332.776	50.18
332.989	54.27
333.202	-3.07
333.414	56.32
333.627	82.94
333.84	70.65
334.053	64.51
334.265	15.36
334.478	107.52
334.691	84.99
334.903	144.38
335.116	39.94
335.329	44.03
335.541	35.84
335.754	64.51
335.966	44.03
336.179	21.5
336.392	-13.31
336.604	7.17
336.817	72.7
337.029	60.42
337.242	56.32
337.454	68.61
337.667	29.7
337.88	37.89
338.092	91.13
338.305	56.32
338.517	-27.65
338.729	74.75
338.942	52.22
339.154	58.37
339.367	89.09
339.579	148.48
339.792	15.36
340.004	62.46
340.217	9.22
340.429	37.89
340.641	60.42
340.854	109.57
341.066	25.6
341.278	56.32
341.491	97.28
341.703	111.61
341.915	50.18
342.128	89.09
342.34	41.98
342.552	78.85
342.764	33.79
342.977	78.85
343.189	56.32
343.401	50.18
343.613	72.7
343.826	39.94
344.038	87.04
344.25	29.7
344.462	-19.46
344.674	56.32
344.886	19.46
345.099	74.75
345.311	82.94
345.523	74.75
345.735	9.22
345.947	78.85
346.159	72.7
346.371	115.71
346.583	37.89
346.795	35.84
347.007	21.5
347.219	58.37
347.431	56.32
347.643	91.13
347.855	39.94
348.067	91.13
348.279	48.13
348.491	62.46
348.703	95.23
348.915	82.94
349.127	7.17
349.339	54.27
349.551	95.23
349.763	99.33
349.975	11.26
350.187	46.08
350.399	17.41
350.61	99.33
350.822	70.65
351.034	33.79
351.246	-11.26
351.458	144.38
351.669	115.71
351.881	78.85
352.093	44.03
352.305	115.71
352.517	130.05
352.728	56.32
352.94	-15.36
353.152	54.27
353.363	-1.02
353.575	50.18
353.787	48.13
353.999	54.27
354.21	103.42
354.422	66.56
354.633	46.08
354.845	91.13
355.057	52.22
355.268	54.27
355.48	39.94
355.692	33.79
355.903	64.51
356.115	52.22
356.326	15.36
356.538	87.04
356.749	48.13
356.961	33.79
357.172	50.18
357.384	-11.26
357.595	54.27
357.807	74.75
358.018	37.89
358.23	82.94
358.441	23.55
358.653	72.7
358.864	84.99
359.075	87.04
359.287	21.5
359.498	119.81
359.709	23.55
359.921	78.85
360.132	66.56
360.344	56.32
360.555	64.51
360.766	70.65
360.977	58.37
361.189	64.51
361.4	132.09
361.611	123.9
361.823	121.85
362.034	74.75
362.245	70.65
362.456	31.74
362.667	111.61
362.879	9.22
363.09	121.85
363.301	64.51
363.512	37.89
363.723	-29.7
363.935	62.46
364.146	111.61
364.357	-23.55
364.568	56.32
364.779	50.18
364.99	99.33
365.201	35.84
365.412	95.23
365.623	39.94
365.834	56.32
366.045	78.85
366.256	78.85
366.467	56.32
366.678	132.09
366.889	27.65
367.1	66.56
367.311	70.65
367.522	-7.17
367.733	-9.22
367.944	33.79
368.155	121.85
368.366	62.46
368.577	111.61
368.788	64.51
368.999	54.27
369.209	89.09
369.42	199.68
369.631	119.81
369.842	46.08
370.053	68.61
370.264	52.22
370.474	95.23
370.685	33.79
370.896	89.09
371.107	91.13
371.317	103.42
371.528	105.47
371.739	76.8
371.95	46.08
372.16	46.08
372.371	-21.5
372.582	52.22
372.792	60.42
373.003	89.09
373.214	17.41
373.424	160.77
373.635	13.31
373.846	87.04
374.056	62.46
374.267	103.42
374.477	72.7
374.688	33.79
374.898	66.56
375.109	72.7
375.319	-60.42
375.53	27.65
375.74	41.98
375.951	23.55
376.161	54.27
376.372	76.8
376.582	44.03
376.793	89.09
377.003	54.27
377.214	95.23
377.424	46.08
377.635	82.94
377.845	107.52
378.055	74.75
378.266	48.13
378.476	27.65
378.686	105.47
378.897	60.42
379.107	115.71
379.317	80.89
379.528	82.94
379.738	58.37
379.948	117.76
380.158	56.32
380.369	89.09
380.579	80.89
380.789	62.46
380.999	93.18
381.21	54.27
381.42	111.61
381.63	33.79
381.84	89.09
382.05	113.66
382.261	60.42
382.471	111.61
382.681	160.77
382.891	99.33
383.101	82.94
383.311	41.98
383.521	48.13
383.731	99.33
383.941	39.94
384.151	80.89
384.361	76.8
384.571	91.13
384.781	82.94
384.991	82.94
385.201	103.42
385.411	48.13
385.621	103.42
385.831	7.17
386.041	29.7
386.251	142.33
386.461	56.32
386.671	99.33
386.881	80.89
387.091	99.33
387.301	46.08
387.511	41.98
387.72	168.96
387.93	87.04
388.14	76.8
388.35	140.29
388.56	74.75
388.769	78.85
388.979	109.57
389.189	29.7
389.399	125.95
389.609	103.42
389.818	82.94
390.028	125.95
390.238	60.42
390.447	60.42
390.657	44.03
390.867	130.05
391.076	119.81
391.286	52.22
391.496	39.94
391.705	62.46
391.915	82.94
392.125	87.04
392.334	95.23
392.544	54.27
392.753	29.7
392.963	140.29
393.172	68.61
393.382	99.33
393.591	35.84
393.801	128
394.01	119.81
394.22	78.85
394.429	70.65
394.639	95.23
394.848	164.86
395.058	119.81
395.267	117.76
395.477	105.47
395.686	95.23
395.895	72.7
396.105	177.15
396.314	89.09
396.524	46.08
396.733	66.56
396.942	89.09
397.152	15.36
397.361	89.09
397.57	84.99
397.78	146.43
397.989	89.09
398.198	107.52
398.407	121.85
398.617	64.51
398.826	52.22
399.035	84.99
399.244	99.33
399.453	70.65
399.663	138.24
399.872	78.85
400.081	56.32
400.29	70.65
400.499	142.33
400.708	142.33
400.917	113.66
401.127	144.38
401.336	70.65
401.545	140.29
401.754	138.24
401.963	162.81
402.172	160.77
402.381	99.33
402.59	136.19
402.799	148.48
403.008	177.15
403.217	152.57
403.426	193.53
403.635	146.43
403.844	113.66
404.053	189.44
404.262	177.15
404.471	128
404.68	189.44
404.888	158.72
405.097	95.23
405.306	199.68
405.515	193.53
405.724	125.95
405.933	191.49
406.142	177.15
406.35	183.29
406.559	193.53
406.768	291.84
406.977	271.36
407.185	234.49
407.394	242.68
407.603	216.06
407.812	257.02
408.02	306.17
408.229	277.5
408.438	222.2
408.646	285.69
408.855	289.79
409.064	347.13
409.272	285.69
409.481	283.64
409.69	293.88
409.898	302.08
410.107	383.99
410.315	322.56
410.524	343.03
410.733	465.91
410.941	386.04
411.15	390.14
411.358	381.95
411.567	416.76
411.775	439.29
411.984	441.34
412.192	502.78
412.401	394.23
412.609	490.49
412.818	502.78
413.026	519.16
413.234	549.88
413.443	492.54
413.651	547.83
413.86	623.61
414.068	619.51
414.276	691.19
414.485	646.13
414.693	726
414.901	748.53
415.11	719.86
415.318	760.82
415.526	879.6
415.734	836.6
415.943	828.4
416.151	799.73
416.359	895.99
416.567	908.27
416.776	1018.86
416.984	992.24
417.192	1053.68
417.4	1022.96
417.608	998.38
417.817	1151.98
418.025	1223.66
418.233	1149.93
418.441	1248.24
418.649	1293.29
418.857	1317.87
419.065	1317.87
419.273	1379.31
419.481	1379.31
419.689	1463.27
419.897	1551.34
420.105	1612.78
420.313	1602.54
420.521	1684.45
420.729	1678.31
420.937	1754.09
421.145	1893.35
421.353	1838.05
421.561	1991.65
421.769	2036.7
421.977	2102.24
422.185	2085.86
422.393	2266.08
422.601	2307.04
422.809	2438.11
423.017	2352.09
423.224	2415.58
423.432	2522.07
423.64	2513.88
423.848	2747.35
424.056	2685.91
424.263	2954.19
424.471	2962.39
424.679	3005.39
424.887	3169.23
425.094	3195.86
425.302	3279.82
425.51	3560.39
425.718	3529.67
425.925	3513.29
426.133	3701.7
426.341	3810.25
426.548	4078.53
426.756	4029.38
426.964	3931.08
427.171	4199.36
427.379	4408.25
427.586	4582.33
427.794	4600.76
428.001	4897.72
428.209	5045.17
428.417	5016.5
428.624	5280.69
428.832	5194.67
429.039	5235.63
429.247	5309.36
429.454	5718.95
429.662	6204.32
429.869	5741.48
430.076	6433.69
430.284	5987.24
430.491	6220.71
430.699	6708.12
430.906	6744.99
431.114	6781.85
431.321	7046.04
431.528	7205.78
431.736	7687.05
431.943	7773.07
432.15	7654.28
432.358	7852.94
432.565	8196.99
432.772	8196.99
432.979	8551.29
433.187	8625.02
433.394	8768.38
433.601	9304.95
433.808	9184.12
434.016	9315.19
434.223	9720.68
434.43	10019.69
434.637	9976.68
434.844	10529.63
435.052	10916.7
435.259	10840.92
435.466	11072.34
435.673	10670.94
435.88	11414.35
436.087	12090.18
436.294	11875.15
436.501	12016.46
436.708	11995.98
436.915	12505.92
437.122	13153.08
437.329	12886.84
437.537	13421.36
437.743	13744.94
437.95	13435.7
438.157	14197.54
438.364	14695.2
438.571	14598.95
438.778	14803.74
438.985	16116.49
439.192	15532.82
439.399	16050.96
439.606	15579.92
439.813	16745.22
440.02	17601.27
440.227	17388.28
440.433	16986.88
440.64	17726.19
440.847	17568.5
441.054	17801.97
441.261	18928.35
441.467	18662.12
441.674	19342.04
441.881	20071.12
442.088	19813.07
442.294	20056.78
442.501	20380.36
442.708	20726.47
442.914	21312.19
443.121	22629.03
443.328	21631.67
443.534	23726.74
443.741	22428.33
443.948	22379.18
444.154	24115.86
444.361	23904.92
444.568	23839.38
444.774	23730.84
444.981	24263.31
445.187	25150.08
445.394	25889.4
445.6	25686.65
445.807	28576.33
446.013	26632.81
446.22	27630.17
446.426	28406.35
446.633	28410.45
446.839	29729.34
447.046	28555.85
447.252	30278.19
447.459	29942.33
447.665	29741.63
447.871	31326.75
448.078	32598.54
448.284	31068.71
448.491	31756.83
448.697	33286.66
448.903	33335.81
449.11	33788.41
449.316	33268.23
449.522	33657.34
449.728	34961.9
449.935	35113.45
450.141	34988.52
450.347	35840.48
450.553	34853.36
450.76	35088.87
450.966	36254.17
451.172	35770.85
451.378	36862.41
451.584	35899.87
451.791	36592.08
451.997	36903.37
452.203	37472.71
452.409	37409.22
452.615	37171.66
452.821	35611.1
453.027	35189.22
453.233	37048.78
453.44	35613.15
453.646	35994.07
453.852	36389.33
454.058	37085.64
454.264	35889.63
454.47	36344.28
454.676	35441.12
454.882	37020.11
455.088	33356.29
455.294	34097.66
455.5	34712.05
455.705	34961.9
455.911	33212.93
456.117	32995.85
456.323	32625.17
456.529	30790.19
456.735	32113.17
456.941	31273.51
457.147	30726.7
457.352	30048.82
457.558	29536.83
457.764	29452.86
457.97	29024.84
458.176	28234.32
458.381	28318.29
458.587	27017.83
458.793	27140.71
458.999	25873.01
459.204	27707.99
459.41	26866.28
459.616	24992.39
459.821	25176.7
460.027	24951.43
460.233	24877.7
460.438	23493.27
460.644	23720.6
460.85	22270.64
461.055	22033.07
461.261	22225.58
461.466	20542.15
461.672	19768.02
461.878	21369.53
462.083	19825.36
462.289	19565.27
462.494	19301.08
462.7	18285.29
462.905	18014.96
463.111	18535.14
463.316	18647.78
463.522	18119.4
463.727	18381.54
463.932	18152.17
464.138	18133.74
464.343	18248.43
464.549	17574.64
464.754	18139.88
464.959	18148.08
465.165	18203.37
465.37	17283.83
465.575	16495.36
465.781	17607.41
465.986	17570.55
466.191	17056.51
466.397	16677.63
466.602	16038.67
466.807	16462.6
467.012	16540.42
467.218	16251.66
467.423	16108.3
467.628	16347.91
