Data from USB4F104151__9__13-52-13-885.txt Node

Date: Thu Mar 13 13:52:13 EDT 2025
User: louis
Spectrometer: USB4F10415
Trigger mode: 4
Integration Time (sec): 1.000000E-2
Scans to average: 1
Electric dark correction enabled: true
Nonlinearity correction enabled: false
Boxcar width: 0
XAxis mode: Wavelengths
Number of Pixels in Spectrum: 3648
>>>>>Begin Spectral Data<<<<<
178.204	-34.3
178.424	-34.3
178.644	-34.3
178.864	4.61
179.084	-38.4
179.304	16.9
179.524	-17.92
179.744	12.8
179.964	-1.54
180.184	-13.82
180.404	12.8
180.624	66.05
180.844	10.75
181.064	-3.58
181.283	-28.16
181.503	-26.11
181.723	-28.16
181.943	-46.59
182.163	-42.5
182.383	0.51
182.602	-69.12
182.822	43.52
183.042	47.62
183.262	-26.11
183.482	25.09
183.701	4.61
183.921	78.33
184.141	18.94
184.361	18.94
184.58	-19.97
184.8	33.28
185.02	6.66
185.239	-11.78
185.459	72.19
185.679	-3.58
185.898	-32.26
186.118	61.95
186.338	14.85
186.557	-60.93
186.777	10.75
186.997	-22.02
187.216	4.61
187.436	16.9
187.655	0.51
187.875	27.14
188.095	49.66
188.314	31.23
188.534	43.52
188.753	-50.69
188.973	-3.58
189.192	-1.54
189.412	20.99
189.631	14.85
189.851	39.42
190.07	10.75
190.29	-48.64
190.509	-3.58
190.729	45.57
190.948	88.57
191.168	82.43
191.387	92.67
191.607	18.94
191.826	49.66
192.045	4.61
192.265	-28.16
192.484	53.76
192.704	20.99
192.923	14.85
193.142	29.18
193.362	111.1
193.581	66.05
193.8	-24.06
194.02	-24.06
194.239	29.18
194.458	55.81
194.678	-7.68
194.897	6.66
195.116	14.85
195.335	66.05
195.555	119.29
195.774	-32.26
195.993	20.99
196.212	55.81
196.432	-42.5
196.651	10.75
196.87	20.99
197.089	31.23
197.308	80.38
197.528	72.19
197.747	33.28
197.966	-5.63
198.185	39.42
198.404	47.62
198.623	76.29
198.842	23.04
199.062	0.51
199.281	14.85
199.5	-13.82
199.719	39.42
199.938	-15.87
200.157	76.29
200.376	70.14
200.595	72.19
200.814	8.7
201.033	-52.74
201.252	-11.78
201.471	72.19
201.69	-48.64
201.909	4.61
202.128	-48.64
202.347	-1.54
202.566	20.99
202.785	57.86
203.004	-3.58
203.223	96.77
203.442	-11.78
203.661	-48.64
203.879	-7.68
204.098	16.9
204.317	-7.68
204.536	96.77
204.755	57.86
204.974	92.67
205.193	0.51
205.411	-24.06
205.63	-24.06
205.849	35.33
206.068	47.62
206.287	-9.73
206.505	66.05
206.724	4.61
206.943	-26.11
207.162	45.57
207.381	-17.92
207.599	47.62
207.818	0.51
208.037	20.99
208.255	-56.83
208.474	10.75
208.693	-3.58
208.911	35.33
209.13	53.76
209.349	49.66
209.567	80.38
209.786	-32.26
210.005	68.09
210.223	45.57
210.442	-5.63
210.661	57.86
210.879	25.09
211.098	16.9
211.316	25.09
211.535	43.52
211.753	-62.98
211.972	80.38
212.191	45.57
212.409	51.71
212.628	14.85
212.846	-17.92
213.065	55.81
213.283	20.99
213.502	0.51
213.72	51.71
213.938	64
214.157	-54.78
214.375	31.23
214.594	16.9
214.812	14.85
215.031	74.24
215.249	41.47
215.467	2.56
215.686	-19.97
215.904	31.23
216.122	29.18
216.341	90.62
216.559	-36.35
216.778	8.7
216.996	61.95
217.214	6.66
217.432	-62.98
217.651	4.61
217.869	-56.83
218.087	47.62
218.306	39.42
218.524	0.51
218.742	-40.45
218.96	41.47
219.179	27.14
219.397	16.9
219.615	4.61
219.833	16.9
220.051	14.85
220.27	35.33
220.488	16.9
220.706	-44.54
220.924	-28.16
221.142	-52.74
221.36	-9.73
221.578	-30.21
221.796	-5.63
222.015	2.56
222.233	-17.92
222.451	47.62
222.669	-11.78
222.887	55.81
223.105	-73.21
223.323	88.57
223.541	47.62
223.759	29.18
223.977	49.66
224.195	33.28
224.413	37.38
224.631	37.38
224.849	-15.87
225.067	14.85
225.285	37.38
225.503	-44.54
225.721	-19.97
225.939	104.96
226.157	45.57
226.375	96.77
226.592	0.51
226.81	29.18
227.028	-28.16
227.246	66.05
227.464	-44.54
227.682	-28.16
227.9	39.42
228.117	53.76
228.335	53.76
228.553	10.75
228.771	43.52
228.989	4.61
229.206	55.81
229.424	66.05
229.642	-1.54
229.86	-30.21
230.077	33.28
230.295	23.04
230.513	64
230.731	12.8
230.948	64
231.166	23.04
231.384	23.04
231.601	8.7
231.819	8.7
232.037	12.8
232.254	23.04
232.472	49.66
232.689	51.71
232.907	39.42
233.125	-28.16
233.342	23.04
233.56	2.56
233.777	-58.88
233.995	23.04
234.213	29.18
234.43	-11.78
234.648	66.05
234.865	39.42
235.083	14.85
235.3	64
235.518	59.9
235.735	76.29
235.953	23.04
236.17	47.62
236.388	-1.54
236.605	66.05
236.822	35.33
237.04	49.66
237.257	-7.68
237.475	66.05
237.692	55.81
237.909	31.23
238.127	-24.06
238.344	49.66
238.562	107.01
238.779	61.95
238.996	0.51
239.214	20.99
239.431	20.99
239.648	53.76
239.865	86.53
240.083	80.38
240.3	-3.58
240.517	72.19
240.735	16.9
240.952	45.57
241.169	-13.82
241.386	4.61
241.603	78.33
241.821	-11.78
242.038	64
242.255	37.38
242.472	4.61
242.689	10.75
242.907	8.7
243.124	92.67
243.341	4.61
243.558	-24.06
243.775	55.81
243.992	20.99
244.209	-22.02
244.426	72.19
244.643	-32.26
244.86	-5.63
245.078	25.09
245.295	29.18
245.512	33.28
245.729	27.14
245.946	49.66
246.163	37.38
246.38	70.14
246.597	16.9
246.814	64
247.031	74.24
247.248	27.14
247.464	-19.97
247.681	12.8
247.898	-42.5
248.115	78.33
248.332	55.81
248.549	35.33
248.766	35.33
248.983	18.94
249.2	127.49
249.417	66.05
249.633	76.29
249.85	-26.11
250.067	-50.69
250.284	6.66
250.501	51.71
250.717	64
250.934	-58.88
251.151	61.95
251.368	-1.54
251.585	96.77
251.801	-1.54
252.018	18.94
252.235	2.56
252.451	-19.97
252.668	25.09
252.885	-44.54
253.102	39.42
253.318	49.66
253.535	-42.5
253.752	4.61
253.968	55.81
254.185	68.09
254.401	23.04
254.618	61.95
254.835	39.42
255.051	68.09
255.268	39.42
255.484	37.38
255.701	31.23
255.917	61.95
256.134	12.8
256.351	-3.58
256.567	6.66
256.784	96.77
257	-26.11
257.217	23.04
257.433	49.66
257.65	94.72
257.866	29.18
258.082	-60.93
258.299	10.75
258.515	49.66
258.732	-19.97
258.948	-50.69
259.165	88.57
259.381	64
259.597	-11.78
259.814	6.66
260.03	43.52
260.246	47.62
260.463	10.75
260.679	96.77
260.895	59.9
261.112	90.62
261.328	96.77
261.544	-1.54
261.761	129.53
261.977	61.95
262.193	-13.82
262.409	25.09
262.626	-3.58
262.842	41.47
263.058	12.8
263.274	25.09
263.49	-77.31
263.707	-26.11
263.923	27.14
264.139	27.14
264.355	-62.98
264.571	98.81
264.787	31.23
265.004	43.52
265.22	53.76
265.436	43.52
265.652	23.04
265.868	25.09
266.084	96.77
266.3	29.18
266.516	41.47
266.732	-54.78
266.948	72.19
267.164	-24.06
267.38	27.14
267.596	90.62
267.812	18.94
268.028	66.05
268.244	-5.63
268.46	90.62
268.676	-67.07
268.892	-26.11
269.108	-89.6
269.324	23.04
269.54	35.33
269.756	35.33
269.972	43.52
270.188	-26.11
270.403	51.71
270.619	156.16
270.835	33.28
271.051	25.09
271.267	-11.78
271.483	14.85
271.698	-5.63
271.914	-3.58
272.13	18.94
272.346	23.04
272.562	-17.92
272.777	0.51
272.993	2.56
273.209	16.9
273.425	-36.35
273.64	4.61
273.856	33.28
274.072	107.01
274.287	47.62
274.503	16.9
274.719	66.05
274.934	41.47
275.15	-3.58
275.366	-32.26
275.581	-15.87
275.797	-11.78
276.012	6.66
276.228	-38.4
276.444	-40.45
276.659	76.29
276.875	49.66
277.09	-28.16
277.306	45.57
277.521	90.62
277.737	27.14
277.952	-26.11
278.168	61.95
278.383	102.91
278.599	-44.54
278.814	82.43
279.03	6.66
279.245	20.99
279.461	-9.73
279.676	-22.02
279.892	-40.45
280.107	-1.54
280.322	23.04
280.538	-5.63
280.753	8.7
280.969	8.7
281.184	-3.58
281.399	57.86
281.615	2.56
281.83	37.38
282.045	-19.97
282.26	14.85
282.476	0.51
282.691	47.62
282.906	-48.64
283.122	-7.68
283.337	27.14
283.552	70.14
283.767	25.09
283.983	45.57
284.198	8.7
284.413	4.61
284.628	-19.97
284.843	31.23
285.058	33.28
285.274	68.09
285.489	39.42
285.704	35.33
285.919	55.81
286.134	-13.82
286.349	-13.82
286.564	0.51
286.779	47.62
286.995	-19.97
287.21	0.51
287.425	33.28
287.64	-60.93
287.855	-19.97
288.07	-42.5
288.285	23.04
288.5	-1.54
288.715	61.95
288.93	2.56
289.145	18.94
289.36	51.71
289.575	64
289.79	-9.73
290.004	16.9
290.219	-71.17
290.434	-52.74
290.649	27.14
290.864	35.33
291.079	-24.06
291.294	55.81
291.509	-1.54
291.724	-11.78
291.938	49.66
292.153	41.47
292.368	37.38
292.583	27.14
292.798	80.38
293.012	74.24
293.227	16.9
293.442	53.76
293.657	2.56
293.871	-11.78
294.086	43.52
294.301	47.62
294.516	0.51
294.73	107.01
294.945	-3.58
295.16	76.29
295.374	27.14
295.589	64
295.804	2.56
296.018	-17.92
296.233	70.14
296.447	-11.78
296.662	33.28
296.877	70.14
297.091	66.05
297.306	-3.58
297.52	45.57
297.735	23.04
297.949	64
298.164	33.28
298.378	35.33
298.593	33.28
298.807	16.9
299.022	10.75
299.236	33.28
299.451	72.19
299.665	59.9
299.88	59.9
300.094	-32.26
300.309	29.18
300.523	-24.06
300.737	37.38
300.952	-15.87
301.166	53.76
301.381	43.52
301.595	127.49
301.809	23.04
302.024	33.28
302.238	2.56
302.452	37.38
302.667	37.38
302.881	33.28
303.095	59.9
303.309	20.99
303.524	49.66
303.738	35.33
303.952	33.28
304.166	0.51
304.381	-19.97
304.595	74.24
304.809	0.51
305.023	29.18
305.237	-28.16
305.452	18.94
305.666	25.09
305.88	37.38
306.094	12.8
306.308	27.14
306.522	-5.63
306.736	0.51
306.95	-1.54
307.164	16.9
307.379	-5.63
307.593	61.95
307.807	45.57
308.021	84.48
308.235	59.9
308.449	49.66
308.663	16.9
308.877	37.38
309.091	47.62
309.305	45.57
309.519	57.86
309.733	70.14
309.947	8.7
310.161	47.62
310.374	-5.63
310.588	88.57
310.802	8.7
311.016	72.19
311.23	57.86
311.444	10.75
311.658	51.71
311.872	0.51
312.085	35.33
312.299	18.94
312.513	41.47
312.727	92.67
312.941	-28.16
313.154	113.15
313.368	-28.16
313.582	0.51
313.796	92.67
314.009	12.8
314.223	47.62
314.437	8.7
314.651	-13.82
314.864	41.47
315.078	16.9
315.292	18.94
315.505	45.57
315.719	29.18
315.933	2.56
316.146	14.85
316.36	29.18
316.573	33.28
316.787	-46.59
317.001	-22.02
317.214	16.9
317.428	59.9
317.641	-44.54
317.855	129.53
318.068	14.85
318.282	-9.73
318.495	4.61
318.709	37.38
318.922	-1.54
319.136	84.48
319.349	33.28
319.563	23.04
319.776	70.14
319.99	-48.64
320.203	-11.78
320.417	0.51
320.63	121.34
320.843	10.75
321.057	-5.63
321.27	-7.68
321.483	8.7
321.697	98.81
321.91	-9.73
322.124	104.96
322.337	-9.73
322.55	43.52
322.763	-13.82
322.977	25.09
323.19	47.62
323.403	2.56
323.617	23.04
323.83	35.33
324.043	20.99
324.256	16.9
324.469	31.23
324.683	121.34
324.896	94.72
325.109	12.8
325.322	113.15
325.535	-3.58
325.748	53.76
325.962	70.14
326.175	2.56
326.388	66.05
326.601	47.62
326.814	-1.54
327.027	6.66
327.24	51.71
327.453	-54.78
327.666	20.99
327.879	64
328.092	25.09
328.305	-32.26
328.518	-30.21
328.731	8.7
328.944	39.42
329.157	6.66
329.37	39.42
329.583	-5.63
329.796	57.86
330.009	49.66
330.222	25.09
330.435	59.9
330.648	-13.82
330.861	-13.82
331.073	37.38
331.286	25.09
331.499	-44.54
331.712	-22.02
331.925	49.66
332.138	10.75
332.35	33.28
332.563	16.9
332.776	27.14
332.989	-17.92
333.202	20.99
333.414	35.33
333.627	-15.87
333.84	-22.02
334.053	45.57
334.265	-13.82
334.478	66.05
334.691	-22.02
334.903	33.28
335.116	18.94
335.329	18.94
335.541	2.56
335.754	-46.59
335.966	49.66
336.179	10.75
336.392	23.04
336.604	12.8
336.817	16.9
337.029	43.52
337.242	35.33
337.454	86.53
337.667	-85.5
337.88	20.99
338.092	6.66
338.305	55.81
338.517	27.14
338.729	8.7
338.942	23.04
339.154	-67.07
339.367	-38.4
339.579	37.38
339.792	-77.31
340.004	68.09
340.217	33.28
340.429	-34.3
340.641	-9.73
340.854	61.95
341.066	4.61
341.278	84.48
341.491	29.18
341.703	18.94
341.915	41.47
342.128	39.42
342.34	-3.58
342.552	39.42
342.764	39.42
342.977	96.77
343.189	14.85
343.401	12.8
343.613	25.09
343.826	-17.92
344.038	25.09
344.25	16.9
344.462	12.8
344.674	16.9
344.886	14.85
345.099	27.14
345.311	25.09
345.523	66.05
345.735	4.61
345.947	84.48
346.159	8.7
346.371	80.38
346.583	6.66
346.795	90.62
347.007	-60.93
347.219	98.81
347.431	61.95
347.643	86.53
347.855	43.52
348.067	53.76
348.279	20.99
348.491	88.57
348.703	4.61
348.915	-15.87
349.127	76.29
349.339	-9.73
349.551	-19.97
349.763	66.05
349.975	107.01
350.187	8.7
350.399	61.95
350.61	41.47
350.822	49.66
351.034	57.86
351.246	49.66
351.458	78.33
351.669	-30.21
351.881	-30.21
352.093	72.19
352.305	-38.4
352.517	-30.21
352.728	39.42
352.94	23.04
353.152	47.62
353.363	107.01
353.575	61.95
353.787	-19.97
353.999	35.33
354.21	68.09
354.422	66.05
354.633	-3.58
354.845	14.85
355.057	20.99
355.268	-30.21
355.48	88.57
355.692	68.09
355.903	25.09
356.115	27.14
356.326	-9.73
356.538	-7.68
356.749	51.71
356.961	29.18
357.172	-7.68
357.384	16.9
357.595	88.57
357.807	47.62
358.018	41.47
358.23	-19.97
358.441	127.49
358.653	0.51
358.864	39.42
359.075	113.15
359.287	68.09
359.498	31.23
359.709	-52.74
359.921	31.23
360.132	59.9
360.344	41.47
360.555	-17.92
360.766	-11.78
360.977	31.23
361.189	64
361.4	37.38
361.611	-5.63
361.823	57.86
362.034	31.23
362.245	-5.63
362.456	-22.02
362.667	20.99
362.879	53.76
363.09	37.38
363.301	6.66
363.512	-9.73
363.723	18.94
363.935	86.53
364.146	31.23
364.357	18.94
364.568	18.94
364.779	53.76
364.99	43.52
365.201	-79.36
365.412	-5.63
365.623	66.05
365.834	70.14
366.045	68.09
366.256	-5.63
366.467	29.18
366.678	37.38
366.889	-5.63
367.1	-1.54
367.311	33.28
367.522	-30.21
367.733	-5.63
367.944	27.14
368.155	29.18
368.366	-19.97
368.577	-24.06
368.788	74.24
368.999	-7.68
369.209	102.91
369.42	12.8
369.631	27.14
369.842	8.7
370.053	-36.35
370.264	-3.58
370.474	43.52
370.685	39.42
370.896	39.42
371.107	64
371.317	37.38
371.528	43.52
371.739	86.53
371.95	6.66
372.16	-22.02
372.371	31.23
372.582	4.61
372.792	33.28
373.003	20.99
373.214	20.99
373.424	37.38
373.635	31.23
373.846	-36.35
374.056	-19.97
374.267	14.85
374.477	41.47
374.688	45.57
374.898	23.04
375.109	41.47
375.319	64
375.53	47.62
375.74	16.9
375.951	45.57
376.161	-13.82
376.372	43.52
376.582	-30.21
376.793	12.8
377.003	64
377.214	-7.68
377.424	-36.35
377.635	61.95
377.845	10.75
378.055	43.52
378.266	-11.78
378.476	88.57
378.686	-11.78
378.897	25.09
379.107	74.24
379.317	72.19
379.528	49.66
379.738	4.61
379.948	111.1
380.158	70.14
380.369	23.04
380.579	2.56
380.789	53.76
380.999	41.47
381.21	61.95
381.42	23.04
381.63	0.51
381.84	31.23
382.05	74.24
382.261	90.62
382.471	51.71
382.681	16.9
382.891	29.18
383.101	117.25
383.311	74.24
383.521	-30.21
383.731	111.1
383.941	20.99
384.151	41.47
384.361	27.14
384.571	35.33
384.781	31.23
384.991	-11.78
385.201	53.76
385.411	-24.06
385.621	2.56
385.831	35.33
386.041	68.09
386.251	-11.78
386.461	14.85
386.671	8.7
386.881	-7.68
387.091	12.8
387.301	37.38
387.511	53.76
387.72	29.18
387.93	84.48
388.14	45.57
388.35	45.57
388.56	55.81
388.769	27.14
388.979	-19.97
389.189	33.28
389.399	47.62
389.609	31.23
389.818	12.8
390.028	-22.02
390.238	92.67
390.447	-40.45
390.657	66.05
390.867	119.29
391.076	33.28
391.286	78.33
391.496	78.33
391.705	25.09
391.915	51.71
392.125	84.48
392.334	10.75
392.544	31.23
392.753	18.94
392.963	18.94
393.172	41.47
393.382	-44.54
393.591	51.71
393.801	49.66
394.01	61.95
394.22	64
394.429	25.09
394.639	2.56
394.848	78.33
395.058	49.66
395.267	43.52
395.477	104.96
395.686	66.05
395.895	41.47
396.105	88.57
396.314	33.28
396.524	109.05
396.733	43.52
396.942	39.42
397.152	33.28
397.361	61.95
397.57	59.9
397.78	41.47
397.989	16.9
398.198	139.77
398.407	4.61
398.617	66.05
398.826	78.33
399.035	23.04
399.244	117.25
399.453	49.66
399.663	12.8
399.872	61.95
400.081	47.62
400.29	133.63
400.499	20.99
400.708	90.62
400.917	68.09
401.127	94.72
401.336	92.67
401.545	92.67
401.754	41.47
401.963	82.43
402.172	74.24
402.381	37.38
402.59	111.1
402.799	10.75
403.008	-1.54
403.217	53.76
403.426	8.7
403.635	64
403.844	70.14
404.053	150.01
404.262	29.18
404.471	8.7
404.68	94.72
404.888	57.86
405.097	119.29
405.306	31.23
405.515	84.48
405.724	41.47
405.933	18.94
406.142	-3.58
406.35	72.19
406.559	92.67
406.768	51.71
406.977	2.56
407.185	29.18
407.394	127.49
407.603	96.77
407.812	109.05
408.02	72.19
408.229	113.15
408.438	33.28
408.646	150.01
408.855	10.75
409.064	137.73
409.272	135.68
409.481	160.25
409.69	72.19
409.898	90.62
410.107	84.48
410.315	236.03
410.524	197.12
410.733	6.66
410.941	96.77
411.15	115.2
411.358	68.09
411.567	115.2
411.775	188.93
411.984	158.21
412.192	174.59
412.401	135.68
412.609	176.64
412.818	258.56
413.026	262.65
413.234	217.6
413.443	119.29
413.651	184.83
413.86	141.82
414.068	211.45
414.276	188.93
414.485	246.27
414.693	311.8
414.901	295.42
415.11	266.75
415.318	143.87
415.526	223.74
415.734	199.16
415.943	233.98
416.151	254.46
416.359	223.74
416.567	309.76
416.776	252.41
416.984	227.84
417.192	315.9
417.4	295.42
417.608	233.98
417.817	248.32
418.025	338.43
418.233	401.91
418.441	340.47
418.649	307.71
418.857	420.35
419.065	432.63
419.273	383.48
419.481	393.72
419.689	473.59
419.897	449.02
420.105	449.02
420.313	496.12
420.521	518.65
420.729	537.08
420.937	506.36
421.145	608.76
421.353	588.28
421.561	551.42
421.769	555.51
421.977	715.25
422.185	580.09
422.393	684.53
422.601	717.3
422.809	696.82
423.017	639.48
423.224	754.16
423.432	834.04
423.64	881.14
423.848	891.38
424.056	879.09
424.263	872.95
424.471	948.72
424.679	856.56
424.887	983.54
425.094	922.1
425.302	942.58
425.51	928.24
425.718	1008.11
425.925	1020.4
426.133	1157.61
426.341	1098.22
426.548	1176.05
426.756	1174
426.964	1217.01
427.171	1272.3
427.379	1417.71
427.586	1298.92
427.794	1411.56
428.001	1395.18
428.209	1473
428.417	1384.94
428.624	1520.1
428.832	1645.03
429.039	1438.19
429.247	1550.82
429.454	1749.48
429.662	1755.62
429.869	1677.8
430.076	1800.68
430.284	1679.85
430.491	1825.25
430.699	1901.03
430.906	1829.35
431.114	2079.2
431.321	1954.27
431.528	2101.73
431.736	2193.89
431.943	2253.28
432.15	2243.04
432.358	2386.4
432.565	2449.88
432.772	2531.8
432.979	2484.7
433.187	2451.93
433.394	2564.57
433.601	2681.3
433.808	2675.16
434.016	2714.07
434.223	2806.23
434.43	3076.56
434.637	2910.68
434.844	3099.09
435.052	3101.14
435.259	3150.29
435.466	3154.38
435.673	3170.77
435.88	3371.47
436.087	3537.35
436.294	3674.57
436.501	3535.31
436.708	3545.55
436.915	3658.18
437.122	3828.17
437.329	3877.32
437.537	3871.17
437.743	4012.48
437.95	4030.91
438.157	4192.7
438.364	4243.9
438.571	4299.2
438.778	4385.21
438.985	4538.81
439.192	4501.95
439.399	4651.45
439.606	4643.26
439.813	4929.97
440.02	5106.1
440.227	5001.65
440.433	5128.63
440.64	5185.97
440.847	5237.17
441.054	5237.17
441.261	5575.08
441.467	5532.08
441.674	5691.82
441.881	5857.7
442.088	5781.93
442.294	5902.76
442.501	5913
442.708	6220.19
442.914	6293.92
443.121	6617.5
443.328	6470.05
443.534	6840.73
443.741	6617.5
443.948	6599.07
444.154	7057.81
444.361	6906.26
444.568	7188.88
444.774	7078.29
444.981	7324.05
445.187	7559.56
445.394	7625.1
445.6	7487.89
445.807	8231.3
446.013	7833.99
446.22	7985.54
446.426	8419.71
446.633	8384.9
446.839	8665.47
447.046	8454.53
447.252	8800.63
447.459	8661.37
447.665	8782.2
447.871	9240.95
448.078	9642.35
448.284	9220.47
448.491	9462.13
448.697	9757.04
448.903	9924.97
449.11	10133.86
449.316	9791.85
449.522	9814.38
449.728	10144.1
449.935	10332.51
450.141	10123.62
450.347	10568.03
450.553	10236.26
450.76	10035.56
450.966	10649.95
451.172	10561.89
451.378	10774.88
451.584	10535.26
451.791	10750.3
451.997	10838.36
452.203	11241.81
452.409	11252.05
452.615	10795.36
452.821	10512.74
453.027	10402.15
453.233	10783.07
453.44	10467.68
453.646	10555.74
453.852	10787.16
454.058	10848.6
454.264	10254.69
454.47	10756.44
454.676	10322.27
454.882	10643.81
455.088	9875.82
455.294	9865.58
455.5	10064.23
455.705	10287.46
455.911	9574.77
456.117	9482.61
456.323	9380.21
456.529	8786.3
456.735	9345.39
456.941	9054.58
457.147	9009.53
457.352	8585.6
457.558	8589.69
457.764	8595.84
457.97	8307.07
458.176	8176
458.381	8251.78
458.587	7727.5
458.793	7723.4
458.999	7258.51
459.204	8073.6
459.41	7715.21
459.616	7168.4
459.821	7408.01
460.027	7274.9
460.233	6902.17
460.438	6660.51
460.644	6893.97
460.85	6287.78
461.055	6384.03
461.261	6318.5
461.466	5824.94
461.672	5802.41
461.878	6201.76
462.083	5790.12
462.289	5527.98
462.494	5536.17
462.7	5214.64
462.905	5171.63
463.111	5425.58
463.316	5374.38
463.522	5274.03
463.727	5333.42
463.932	5335.47
464.138	5364.14
464.343	5179.82
464.549	5138.87
464.754	5192.11
464.959	5145.01
465.165	5216.69
465.37	4899.25
465.575	4954.55
465.781	4948.4
465.986	5044.66
466.191	4921.78
466.397	4817.33
466.602	4522.43
466.807	4620.73
467.012	4716.98
467.218	4759.99
467.423	4551.1
467.628	4626.87
467.833	4948.4
468.038	4671.93
468.244	4583.87
468.449	4690.36
468.654	4610.49
468.859	4602.3
469.064	4633.02
469.269	4428.22
469.474	4387.26
469.679	4487.61
469.885	4446.65
470.09	4403.64
470.295	4516.28
470.5	4104.64
470.705	4307.39
470.91	4264.38
471.115	4157.89
471.32	4213.18
