Data from USB4F104151__272__14-02-20-119.txt Node

Date: Thu Mar 13 14:02:20 EDT 2025
User: louis
Spectrometer: USB4F10415
Trigger mode: 4
Integration Time (sec): 1.000000E-2
Scans to average: 1
Electric dark correction enabled: true
Nonlinearity correction enabled: false
Boxcar width: 0
XAxis mode: Wavelengths
Number of Pixels in Spectrum: 3648
>>>>>Begin Spectral Data<<<<<
178.204	-53.59
178.424	-53.59
178.644	-53.59
178.864	-82.26
179.084	-139.6
179.304	-16.73
179.524	-22.87
179.744	-12.63
179.964	16.04
180.184	-35.16
180.404	-6.49
180.624	-45.4
180.844	67.24
181.064	52.91
181.283	-76.12
181.503	42.67
181.723	36.52
181.943	-61.78
182.163	44.71
182.383	16.04
182.602	44.71
182.822	5.8
183.042	20.14
183.262	20.14
183.482	1.71
183.701	-8.53
183.921	34.47
184.141	-16.73
184.361	89.77
184.58	30.38
184.8	-14.68
185.02	34.47
185.239	-10.58
185.459	-65.88
185.679	143.02
185.898	-10.58
186.118	-41.3
186.338	-20.82
186.557	48.81
186.777	13.99
186.997	11.95
187.216	44.71
187.436	-26.96
187.655	-59.73
187.875	28.33
188.095	87.72
188.314	13.99
188.534	-35.16
188.753	13.99
188.973	40.62
189.192	3.75
189.412	-0.34
189.631	-4.44
189.851	-49.49
190.07	13.99
190.29	-2.39
190.509	38.57
190.729	36.52
190.948	79.53
191.168	54.95
191.387	22.19
191.607	7.85
191.826	20.14
192.045	52.91
192.265	36.52
192.484	-69.97
192.704	-29.01
192.923	-16.73
193.142	79.53
193.362	11.95
193.581	85.67
193.8	3.75
194.02	48.81
194.239	57
194.458	-41.3
194.678	-51.54
194.897	-6.49
195.116	48.81
195.335	65.19
195.555	36.52
195.774	-10.58
195.993	71.34
196.212	-41.3
196.432	-41.3
196.651	48.81
196.87	81.58
197.089	97.96
197.308	57
197.528	18.09
197.747	32.43
197.966	-4.44
198.185	-16.73
198.404	1.71
198.623	22.19
198.842	-37.2
199.062	-78.16
199.281	79.53
199.5	30.38
199.719	-18.77
199.938	30.38
200.157	9.9
200.376	42.67
200.595	28.33
200.814	52.91
201.033	34.47
201.252	20.14
201.471	52.91
201.69	102.06
201.909	-10.58
202.128	-43.35
202.347	9.9
202.566	65.19
202.785	1.71
203.004	-12.63
203.223	69.29
203.442	5.8
203.661	44.71
203.879	42.67
204.098	63.15
204.317	-26.96
204.536	22.19
204.755	5.8
204.974	63.15
205.193	44.71
205.411	-4.44
205.63	50.86
205.849	42.67
206.068	3.75
206.287	30.38
206.505	104.11
206.724	28.33
206.943	38.57
207.162	57
207.381	-4.44
207.599	40.62
207.818	-33.11
208.037	91.82
208.255	-26.96
208.474	79.53
208.693	3.75
208.911	11.95
209.13	48.81
209.349	57
209.567	-69.97
209.786	59.05
210.005	46.76
210.223	-51.54
210.442	-0.34
210.661	28.33
210.879	40.62
211.098	34.47
211.316	50.86
211.535	32.43
211.753	-0.34
211.972	-20.82
212.191	-16.73
212.409	120.49
212.628	52.91
212.846	5.8
213.065	28.33
213.283	-10.58
213.502	-31.06
213.72	13.99
213.938	-0.34
214.157	46.76
214.375	38.57
214.594	-24.92
214.812	26.28
215.031	-49.49
215.249	16.04
215.467	61.1
215.686	20.14
215.904	-51.54
216.122	3.75
216.341	-2.39
216.559	73.39
216.778	44.71
216.996	-18.77
217.214	38.57
217.432	32.43
217.651	11.95
217.869	38.57
218.087	16.04
218.306	-24.92
218.524	44.71
218.742	-4.44
218.96	-53.59
219.179	24.23
219.397	100.01
219.615	42.67
219.833	61.1
220.051	-4.44
220.27	-33.11
220.488	-78.16
220.706	69.29
220.924	-12.63
221.142	-4.44
221.36	22.19
221.578	5.8
221.796	-33.11
222.015	-4.44
222.233	20.14
222.451	-35.16
222.669	30.38
222.887	48.81
223.105	7.85
223.323	-8.53
223.541	-8.53
223.759	30.38
223.977	-39.25
224.195	24.23
224.413	-10.58
224.631	-41.3
224.849	-4.44
225.067	5.8
225.285	-61.78
225.503	-4.44
225.721	16.04
225.939	-8.53
226.157	65.19
226.375	-0.34
226.592	16.04
226.81	-10.58
227.028	-35.16
227.246	7.85
227.464	50.86
227.682	38.57
227.9	9.9
228.117	34.47
228.335	28.33
228.553	-45.4
228.771	40.62
228.989	59.05
229.206	-8.53
229.424	106.15
229.642	22.19
229.86	75.43
230.077	-51.54
230.295	-35.16
230.513	32.43
230.731	87.72
230.948	69.29
231.166	16.04
231.384	-4.44
231.601	-18.77
231.819	1.71
232.037	-4.44
232.254	-45.4
232.472	-4.44
232.689	-29.01
232.907	32.43
233.125	-55.64
233.342	32.43
233.56	-0.34
233.777	-33.11
233.995	-29.01
234.213	5.8
234.43	52.91
234.648	34.47
234.865	79.53
235.083	-4.44
235.3	-16.73
235.518	-10.58
235.735	-8.53
235.953	20.14
236.17	5.8
236.388	104.11
236.605	-4.44
236.822	-33.11
237.04	1.71
237.257	59.05
237.475	-2.39
237.692	71.34
237.909	-8.53
238.127	-8.53
238.344	1.71
238.562	11.95
238.779	-14.68
238.996	5.8
239.214	24.23
239.431	22.19
239.648	30.38
239.865	-35.16
240.083	-12.63
240.3	85.67
240.517	-41.3
240.735	-24.92
240.952	-29.01
241.169	11.95
241.386	-35.16
241.603	5.8
241.821	-12.63
242.038	-18.77
242.255	13.99
242.472	44.71
242.689	-43.35
242.907	7.85
243.124	20.14
243.341	42.67
243.558	-24.92
243.775	-2.39
243.992	-8.53
244.209	-2.39
244.426	46.76
244.643	24.23
244.86	40.62
245.078	85.67
245.295	3.75
245.512	-12.63
245.729	36.52
245.946	30.38
246.163	36.52
246.38	54.95
246.597	5.8
246.814	-4.44
247.031	24.23
247.248	-26.96
247.464	65.19
247.681	16.04
247.898	-4.44
248.115	57
248.332	18.09
248.549	24.23
248.766	3.75
248.983	36.52
249.2	40.62
249.417	7.85
249.633	28.33
249.85	3.75
250.067	-12.63
250.284	42.67
250.501	52.91
250.717	26.28
250.934	-12.63
251.151	11.95
251.368	18.09
251.585	-61.78
251.801	46.76
252.018	-67.92
252.235	73.39
252.451	59.05
252.668	30.38
252.885	-4.44
253.102	36.52
253.318	40.62
253.535	-22.87
253.752	30.38
253.968	-49.49
254.185	-37.2
254.401	30.38
254.618	9.9
254.835	36.52
255.051	89.77
255.268	20.14
255.484	40.62
255.701	-20.82
255.917	67.24
256.134	-20.82
256.351	52.91
256.567	-4.44
256.784	46.76
257	-37.2
257.217	28.33
257.433	-39.25
257.65	-18.77
257.866	7.85
258.082	46.76
258.299	28.33
258.515	-45.4
258.732	16.04
258.948	-26.96
259.165	13.99
259.381	-0.34
259.597	54.95
259.814	20.14
260.03	-22.87
260.246	13.99
260.463	73.39
260.679	77.48
260.895	-8.53
261.112	30.38
261.328	40.62
261.544	20.14
261.761	13.99
261.977	-22.87
262.193	22.19
262.409	26.28
262.626	-53.59
262.842	-16.73
263.058	-12.63
263.274	38.57
263.49	1.71
263.707	65.19
263.923	13.99
264.139	81.58
264.355	-4.44
264.571	16.04
264.787	-29.01
265.004	30.38
265.22	-65.88
265.436	22.19
265.652	-20.82
265.868	73.39
266.084	11.95
266.3	-20.82
266.516	-31.06
266.732	-51.54
266.948	81.58
267.164	-39.25
267.38	-43.35
267.596	50.86
267.812	38.57
268.028	-4.44
268.244	44.71
268.46	44.71
268.676	-12.63
268.892	32.43
269.108	36.52
269.324	-24.92
269.54	5.8
269.756	5.8
269.972	38.57
270.188	11.95
270.403	38.57
270.619	50.86
270.835	13.99
271.051	46.76
271.267	54.95
271.483	-16.73
271.698	42.67
271.914	85.67
272.13	-2.39
272.346	20.14
272.562	-24.92
272.777	87.72
272.993	16.04
273.209	18.09
273.425	79.53
273.64	5.8
273.856	65.19
274.072	38.57
274.287	48.81
274.503	61.1
274.719	22.19
274.934	57
275.15	-0.34
275.366	-4.44
275.581	48.81
275.797	20.14
276.012	-24.92
276.228	11.95
276.444	-31.06
276.659	87.72
276.875	-59.73
277.09	50.86
277.306	87.72
277.521	36.52
277.737	-78.16
277.952	-6.49
278.168	-53.59
278.383	-12.63
278.599	-12.63
278.814	-41.3
279.03	110.25
279.245	-2.39
279.461	42.67
279.676	18.09
279.892	30.38
280.107	24.23
280.322	63.15
280.538	67.24
280.753	5.8
280.969	26.28
281.184	-43.35
281.399	93.87
281.615	3.75
281.83	20.14
282.045	38.57
282.26	-20.82
282.476	69.29
282.691	57
282.906	3.75
283.122	-24.92
283.337	-29.01
283.552	52.91
283.767	11.95
283.983	54.95
284.198	-24.92
284.413	38.57
284.628	-14.68
284.843	26.28
285.058	22.19
285.274	32.43
285.489	-53.59
285.704	44.71
285.919	5.8
286.134	52.91
286.349	-29.01
286.564	65.19
286.779	48.81
286.995	-43.35
287.21	9.9
287.425	40.62
287.64	13.99
287.855	-10.58
288.07	28.33
288.285	59.05
288.5	57
288.715	24.23
288.93	61.1
289.145	-4.44
289.36	61.1
289.575	36.52
289.79	16.04
290.004	42.67
290.219	3.75
290.434	-37.2
290.649	9.9
290.864	63.15
291.079	7.85
291.294	-22.87
291.509	42.67
291.724	1.71
291.938	36.52
292.153	3.75
292.368	65.19
292.583	5.8
292.798	69.29
293.012	13.99
293.227	59.05
293.442	11.95
293.657	40.62
293.871	-18.77
294.086	22.19
294.301	40.62
294.516	18.09
294.73	32.43
294.945	26.28
295.16	61.1
295.374	54.95
295.589	32.43
295.804	-41.3
296.018	85.67
296.233	52.91
296.447	22.19
296.662	16.04
296.877	95.91
297.091	11.95
297.306	100.01
297.52	30.38
297.735	32.43
297.949	-4.44
298.164	85.67
298.378	-33.11
298.593	-20.82
298.807	69.29
299.022	-31.06
299.236	7.85
299.451	-4.44
299.665	57
299.88	75.43
300.094	-14.68
300.309	48.81
300.523	-10.58
300.737	13.99
300.952	11.95
301.166	38.57
301.381	36.52
301.595	38.57
301.809	20.14
302.024	-18.77
302.238	24.23
302.452	61.1
302.667	-41.3
302.881	102.06
303.095	-31.06
303.309	59.05
303.524	7.85
303.738	22.19
303.952	-18.77
304.166	22.19
304.381	22.19
304.595	11.95
304.809	65.19
305.023	69.29
305.237	63.15
305.452	54.95
305.666	-0.34
305.88	16.04
306.094	110.25
306.308	24.23
306.522	-61.78
306.736	44.71
306.95	38.57
307.164	89.77
307.379	5.8
307.593	50.86
307.807	77.48
308.021	30.38
308.235	40.62
308.449	54.95
308.663	-37.2
308.877	28.33
309.091	9.9
309.305	-14.68
309.519	-26.96
309.733	69.29
309.947	11.95
310.161	30.38
310.374	63.15
310.588	-14.68
310.802	34.47
311.016	52.91
311.23	34.47
311.444	16.04
311.658	26.28
311.872	75.43
312.085	13.99
312.299	26.28
312.513	-10.58
312.727	3.75
312.941	34.47
313.154	13.99
313.368	11.95
313.582	38.57
313.796	13.99
314.009	11.95
314.223	-0.34
314.437	36.52
314.651	16.04
314.864	50.86
315.078	32.43
315.292	20.14
315.505	-37.2
315.719	20.14
315.933	91.82
316.146	-2.39
316.36	-20.82
316.573	112.3
316.787	44.71
317.001	-20.82
317.214	-0.34
317.428	63.15
317.641	3.75
317.855	71.34
318.068	-29.01
318.282	50.86
318.495	18.09
318.709	7.85
318.922	57
319.136	69.29
319.349	95.91
319.563	-43.35
319.776	-20.82
319.99	63.15
320.203	18.09
320.417	7.85
320.63	-12.63
320.843	79.53
321.057	5.8
321.27	20.14
321.483	-12.63
321.697	91.82
321.91	81.58
322.124	-8.53
322.337	7.85
322.55	46.76
322.763	-10.58
322.977	32.43
323.19	16.04
323.403	106.15
323.617	32.43
323.83	61.1
324.043	-26.96
324.256	44.71
324.469	48.81
324.683	20.14
324.896	-22.87
325.109	-14.68
325.322	38.57
325.535	22.19
325.748	95.91
325.962	24.23
326.175	67.24
326.388	32.43
326.601	59.05
326.814	73.39
327.027	48.81
327.24	54.95
327.453	24.23
327.666	18.09
327.879	52.91
328.092	52.91
328.305	-22.87
328.518	69.29
328.731	-12.63
328.944	22.19
329.157	52.91
329.37	-4.44
329.583	9.9
329.796	71.34
330.009	-61.78
330.222	75.43
330.435	48.81
330.648	16.04
330.861	50.86
331.073	65.19
331.286	65.19
331.499	-16.73
331.712	40.62
331.925	-33.11
332.138	-4.44
332.35	79.53
332.563	38.57
332.776	71.34
332.989	34.47
333.202	11.95
333.414	22.19
333.627	20.14
333.84	42.67
334.053	97.96
334.265	57
334.478	-35.16
334.691	9.9
334.903	-29.01
335.116	3.75
335.329	75.43
335.541	77.48
335.754	-26.96
335.966	3.75
336.179	16.04
336.392	16.04
336.604	11.95
336.817	16.04
337.029	7.85
337.242	57
337.454	-10.58
337.667	24.23
337.88	73.39
338.092	52.91
338.305	-37.2
338.517	-0.34
338.729	7.85
338.942	102.06
339.154	81.58
339.367	1.71
339.579	1.71
339.792	22.19
340.004	32.43
340.217	11.95
340.429	61.1
340.641	40.62
340.854	110.25
341.066	-4.44
341.278	97.96
341.491	-8.53
341.703	71.34
341.915	-29.01
342.128	85.67
342.34	5.8
342.552	30.38
342.764	20.14
342.977	38.57
343.189	-43.35
343.401	-29.01
343.613	48.81
343.826	-24.92
344.038	28.33
344.25	104.11
344.462	44.71
344.674	108.2
344.886	-39.25
345.099	95.91
345.311	-33.11
345.523	28.33
345.735	-10.58
345.947	87.72
346.159	-2.39
346.371	3.75
346.583	26.28
346.795	40.62
347.007	32.43
347.219	-16.73
347.431	16.04
347.643	54.95
347.855	-20.82
348.067	28.33
348.279	24.23
348.491	77.48
348.703	61.1
348.915	-2.39
349.127	-12.63
349.339	1.71
349.551	-14.68
349.763	79.53
349.975	59.05
350.187	61.1
350.399	48.81
350.61	36.52
350.822	46.76
351.034	67.24
351.246	13.99
351.458	-10.58
351.669	7.85
351.881	97.96
352.093	81.58
352.305	-4.44
352.517	36.52
352.728	18.09
352.94	11.95
353.152	61.1
353.363	-22.87
353.575	-4.44
353.787	18.09
353.999	50.86
354.21	50.86
354.422	-51.54
354.633	89.77
354.845	42.67
355.057	85.67
355.268	83.63
355.48	-29.01
355.692	69.29
355.903	20.14
356.115	-16.73
356.326	42.67
356.538	-35.16
356.749	24.23
356.961	77.48
357.172	-49.49
357.384	34.47
357.595	67.24
357.807	75.43
358.018	-0.34
358.23	36.52
358.441	20.14
358.653	73.39
358.864	57
359.075	28.33
359.287	69.29
359.498	48.81
359.709	91.82
359.921	13.99
360.132	-29.01
360.344	63.15
360.555	-10.58
360.766	81.58
360.977	36.52
361.189	50.86
361.4	30.38
361.611	7.85
361.823	48.81
362.034	46.76
362.245	-29.01
362.456	36.52
362.667	16.04
362.879	11.95
363.09	7.85
363.301	20.14
363.512	38.57
363.723	69.29
363.935	54.95
364.146	50.86
364.357	-18.77
364.568	38.57
364.779	28.33
364.99	81.58
365.201	44.71
365.412	44.71
365.623	44.71
365.834	-16.73
366.045	24.23
366.256	-6.49
366.467	65.19
366.678	71.34
366.889	28.33
367.1	-14.68
367.311	1.71
367.522	-14.68
367.733	79.53
367.944	7.85
368.155	63.15
368.366	9.9
368.577	67.24
368.788	73.39
368.999	11.95
369.209	7.85
369.42	85.67
369.631	48.81
369.842	108.2
370.053	77.48
370.264	59.05
370.474	38.57
370.685	11.95
370.896	32.43
371.107	20.14
371.317	34.47
371.528	30.38
371.739	83.63
371.95	-2.39
372.16	30.38
372.371	108.2
372.582	20.14
372.792	93.87
373.003	57
373.214	32.43
373.424	-20.82
373.635	69.29
373.846	126.63
374.056	7.85
374.267	71.34
374.477	118.44
374.688	3.75
374.898	69.29
375.109	1.71
375.319	42.67
375.53	75.43
375.74	91.82
375.951	52.91
376.161	30.38
376.372	54.95
376.582	16.04
376.793	100.01
377.003	-24.92
377.214	36.52
377.424	120.49
377.635	71.34
377.845	95.91
378.055	-14.68
378.266	7.85
378.476	65.19
378.686	65.19
378.897	-2.39
379.107	59.05
379.317	91.82
379.528	11.95
379.738	36.52
379.948	5.8
380.158	65.19
380.369	-26.96
380.579	-0.34
380.789	5.8
380.999	-43.35
381.21	5.8
381.42	65.19
381.63	46.76
381.84	42.67
382.05	71.34
382.261	16.04
382.471	77.48
382.681	61.1
382.891	93.87
383.101	20.14
383.311	67.24
383.521	3.75
383.731	11.95
383.941	44.71
384.151	65.19
384.361	16.04
384.571	48.81
384.781	44.71
384.991	46.76
385.201	-16.73
385.411	28.33
385.621	28.33
385.831	34.47
386.041	69.29
386.251	52.91
386.461	130.73
386.671	69.29
386.881	73.39
387.091	81.58
387.301	16.04
387.511	-12.63
387.72	100.01
387.93	20.14
388.14	24.23
388.35	89.77
388.56	67.24
388.769	63.15
388.979	54.95
389.189	48.81
389.399	11.95
389.609	-10.58
389.818	28.33
390.028	32.43
390.238	36.52
390.447	-51.54
390.657	69.29
390.867	42.67
391.076	85.67
391.286	-45.4
391.496	136.87
391.705	40.62
391.915	87.72
392.125	26.28
392.334	87.72
392.544	110.25
392.753	159.4
392.963	59.05
393.172	7.85
393.382	36.52
393.591	44.71
393.801	100.01
394.01	85.67
394.22	136.87
394.429	36.52
394.639	48.81
394.848	112.3
395.058	116.39
395.267	102.06
395.477	106.15
395.686	85.67
395.895	85.67
396.105	89.77
396.314	-18.77
396.524	20.14
396.733	71.34
396.942	11.95
397.152	110.25
397.361	-39.25
397.57	83.63
397.78	54.95
397.989	85.67
398.198	143.02
398.407	126.63
398.617	44.71
398.826	81.58
399.035	28.33
399.244	36.52
399.453	38.57
399.663	69.29
399.872	173.74
400.081	85.67
400.29	95.91
400.499	38.57
400.708	128.68
400.917	77.48
401.127	186.02
401.336	143.02
401.545	87.72
401.754	134.82
401.963	183.98
402.172	173.74
402.381	44.71
402.59	175.78
402.799	71.34
403.008	202.41
403.217	110.25
403.426	44.71
403.635	126.63
403.844	175.78
404.053	202.41
404.262	93.87
404.471	157.35
404.68	175.78
404.888	112.3
405.097	151.21
405.306	175.78
405.515	153.26
405.724	138.92
405.933	204.46
406.142	200.36
406.35	192.17
406.559	194.22
406.768	208.55
406.977	249.51
407.185	274.09
407.394	229.03
407.603	194.22
407.812	206.5
408.02	226.98
408.229	345.77
408.438	196.26
408.646	245.41
408.855	190.12
409.064	304.81
409.272	282.28
409.481	274.09
409.69	255.65
409.898	267.94
410.107	290.47
410.315	368.29
410.524	411.3
410.733	356.01
410.941	374.44
411.15	392.87
411.358	323.24
411.567	532.13
411.775	403.11
411.984	437.92
412.192	478.88
412.401	487.08
412.609	487.08
412.818	517.79
413.026	585.38
413.234	503.46
413.443	620.19
413.651	620.19
413.86	614.05
414.068	636.58
414.276	700.06
414.485	757.41
414.693	720.54
414.901	804.51
415.11	800.41
415.318	771.74
415.526	804.51
415.734	841.37
415.943	831.13
416.151	929.44
416.359	951.96
416.567	970.4
416.776	962.2
416.984	1037.98
417.192	1011.36
417.4	1085.08
417.608	984.73
417.817	1134.23
418.025	1146.52
418.233	1281.69
418.441	1343.13
418.649	1332.89
418.857	1414.81
419.065	1488.53
419.273	1472.15
419.481	1517.2
419.689	1619.6
419.897	1674.9
420.105	1769.1
420.313	1685.14
420.521	1797.78
420.729	1810.06
420.937	1867.41
421.145	2031.24
421.353	2002.57
421.561	2057.87
421.769	2227.85
421.977	2307.72
422.185	2346.63
422.393	2360.97
422.601	2600.58
422.809	2451.08
423.017	2567.81
423.224	2727.55
423.432	2682.5
423.64	2692.74
423.848	3001.98
424.056	2850.43
424.263	3288.7
424.471	3124.86
424.679	3157.63
424.887	3423.86
425.094	3450.49
425.302	3554.93
425.51	3573.36
425.718	3862.13
425.925	3747.44
426.133	3968.62
426.341	4148.84
426.548	4357.74
426.756	4284.01
426.964	4568.68
427.171	4712.03
427.379	4812.39
427.586	4820.58
427.794	5011.04
428.001	5287.51
428.209	5477.98
428.417	5412.44
428.624	5754.45
428.832	5811.79
429.039	5512.79
429.247	5600.85
429.454	6358.6
429.662	6647.37
429.869	6387.27
430.076	6739.52
430.284	6684.23
430.491	6880.83
430.699	7245.37
430.906	6975.04
431.114	7263.8
431.321	7575.1
431.528	7937.59
431.736	8171.05
431.943	8597.03
432.15	8345.13
432.358	8293.93
432.565	8990.24
432.772	8904.23
432.979	9426.46
433.187	9395.74
433.394	9516.57
433.601	10386.96
433.808	10169.87
434.016	10290.7
434.223	10638.86
434.43	11234.82
434.637	10927.62
434.844	11488.76
435.052	11793.91
435.259	11802.1
435.466	11773.43
435.673	11908.6
435.88	12408.3
436.087	13231.58
436.294	13118.95
436.501	13065.7
436.708	13319.65
436.915	13700.57
437.122	14290.38
437.329	14108.12
437.537	14616.01
437.743	14964.17
437.95	14644.68
438.157	15603.13
438.364	15904.18
438.571	16135.6
438.778	16043.45
438.985	17720.73
439.192	16643.5
439.399	17198.5
439.606	16876.97
439.813	17984.92
440.02	19010.95
440.227	18714
440.433	18791.82
440.64	18963.85
440.847	18988.42
441.054	19254.66
441.261	20716.91
441.467	20352.37
441.674	21198.18
441.881	21720.42
442.088	21597.54
442.294	21402.98
442.501	21783.9
442.708	22351.19
442.914	23381.32
443.121	24343.86
443.328	23682.37
443.534	25146.67
443.741	24665.39
443.948	24087.87
444.154	26098.97
444.361	25939.23
444.568	25931.04
444.774	26039.58
444.981	26170.65
445.187	27161.87
445.394	28308.73
445.6	27952.38
445.807	30330.08
446.013	28986.61
446.22	30020.83
446.426	31089.87
446.633	31298.77
446.839	32097.47
447.046	30735.57
447.252	32947.38
447.459	32658.62
447.665	32265.41
447.871	33698.98
448.078	35249.3
448.284	33565.87
448.491	34567.32
448.697	35734.67
448.903	36383.87
449.11	36525.18
449.316	35904.65
449.522	36252.8
449.728	37467.25
449.935	37948.52
450.141	37778.54
450.347	38552.67
450.553	37620.84
450.76	37995.62
450.966	39179.35
451.172	38483.04
451.378	39658.57
451.584	38526.05
451.791	39640.14
451.997	39636.05
452.203	40475.71
452.409	40156.23
452.615	39844.94
452.821	38386.78
453.027	37776.49
453.233	40215.62
453.44	38571.1
453.646	38687.84
453.852	38952.02
454.058	39296.08
454.264	38311.01
454.47	39302.23
454.676	38085.73
454.882	39650.38
455.088	36297.86
455.294	36635.77
455.5	37000.31
455.705	37307.51
455.911	35990.66
456.117	35179.67
456.323	34827.42
456.529	32871.61
456.735	34653.34
456.941	33641.64
457.147	33045.68
457.352	31929.54
457.558	31902.92
457.764	31669.45
457.97	30907.6
458.176	30510.3
458.381	30487.77
458.587	29072.62
458.793	29082.86
458.999	27815.17
459.204	29506.79
459.41	28935.41
459.616	26940.69
459.821	26819.86
460.027	26596.63
460.233	26375.45
460.438	25017.64
460.644	25136.43
460.85	23944.51
461.055	23354.69
461.261	23854.4
461.466	21589.35
461.672	21263.72
461.878	22879.57
462.083	21253.48
462.289	20839.79
462.494	20764.01
462.7	19580.29
462.905	19195.27
463.111	19881.34
463.316	19959.16
463.522	19903.87
463.727	19436.93
463.932	19467.65
464.138	19475.84
464.343	19621.25
464.549	18918.79
464.754	19334.53
464.959	19494.27
465.165	19010.95
465.37	18242.96
465.575	17907.1
465.781	18867.59
465.986	18750.86
466.191	17999.26
466.397	17737.12
466.602	16756.14
466.807	17417.63
467.012	17620.38
467.218	17425.82
467.423	17188.26
