Data from USB4F104151__181__13-59-05-270.txt Node

Date: Thu Mar 13 13:59:05 EDT 2025
User: louis
Spectrometer: USB4F10415
Trigger mode: 4
Integration Time (sec): 1.000000E-2
Scans to average: 1
Electric dark correction enabled: true
Nonlinearity correction enabled: false
Boxcar width: 0
XAxis mode: Wavelengths
Number of Pixels in Spectrum: 3648
>>>>>Begin Spectral Data<<<<<
178.204	-17.07
178.424	-17.07
178.644	-17.07
178.864	-41.64
179.084	-55.98
179.304	17.75
179.524	77.14
179.744	3.41
179.964	-27.31
180.184	3.41
180.404	11.61
180.624	23.89
180.844	-53.93
181.064	25.94
181.283	-21.16
181.503	-10.92
181.723	-49.83
181.943	-12.97
182.163	58.71
182.383	17.75
182.602	83.28
182.822	58.71
183.042	32.08
183.262	7.51
183.482	75.09
183.701	19.8
183.921	-25.26
184.141	48.47
184.361	-2.73
184.58	19.8
184.8	17.75
185.02	15.7
185.239	7.51
185.459	40.28
185.679	83.28
185.898	7.51
186.118	89.43
186.338	-17.07
186.557	58.71
186.777	54.61
186.997	7.51
187.216	89.43
187.436	-6.83
187.655	54.61
187.875	23.89
188.095	27.99
188.314	83.28
188.534	21.85
188.753	89.43
188.973	38.23
189.192	15.7
189.412	11.61
189.631	89.43
189.851	15.7
190.07	1.37
190.29	19.8
190.509	36.18
190.729	1.37
190.948	25.94
191.168	95.57
191.387	73.04
191.607	23.89
191.826	73.04
192.045	1.37
192.265	56.66
192.484	11.61
192.704	-0.68
192.923	-17.07
193.142	42.32
193.362	58.71
193.581	99.67
193.8	42.32
194.02	32.08
194.239	27.99
194.458	48.47
194.678	-10.92
194.897	-19.11
195.116	25.94
195.335	9.56
195.555	-29.35
195.774	-2.73
195.993	3.41
196.212	-4.78
196.432	32.08
196.651	79.19
196.87	-10.92
197.089	-2.73
197.308	44.37
197.528	56.66
197.747	79.19
197.966	-51.88
198.185	-6.83
198.404	32.08
198.623	3.41
198.842	79.19
199.062	32.08
199.281	83.28
199.5	17.75
199.719	79.19
199.938	32.08
200.157	75.09
200.376	34.13
200.595	3.41
200.814	30.04
201.033	15.7
201.252	64.85
201.471	48.47
201.69	-8.87
201.909	25.94
202.128	54.61
202.347	19.8
202.566	85.33
202.785	-33.45
203.004	46.42
203.223	58.71
203.442	21.85
203.661	44.37
203.879	93.52
204.098	32.08
204.317	9.56
204.536	-37.55
204.755	48.47
204.974	23.89
205.193	32.08
205.411	93.52
205.63	11.61
205.849	-4.78
206.068	25.94
206.287	46.42
206.505	-31.4
206.724	-19.11
206.943	36.18
207.162	19.8
207.381	44.37
207.599	52.56
207.818	-49.83
208.037	46.42
208.255	5.46
208.474	7.51
208.693	-8.87
208.911	50.52
209.13	50.52
209.349	21.85
209.567	7.51
209.786	118.1
210.005	138.58
210.223	75.09
210.442	-0.68
210.661	75.09
210.879	75.09
211.098	-41.64
211.316	50.52
211.535	27.99
211.753	5.46
211.972	116.05
212.191	81.24
212.409	58.71
212.628	58.71
212.846	-35.5
213.065	-15.02
213.283	9.56
213.502	75.09
213.72	7.51
213.938	23.89
214.157	36.18
214.375	-43.69
214.594	7.51
214.812	34.13
215.031	17.75
215.249	58.71
215.467	36.18
215.686	-31.4
215.904	23.89
216.122	-33.45
216.341	64.85
216.559	-8.87
216.778	64.85
216.996	32.08
217.214	50.52
217.432	48.47
217.651	-25.26
217.869	21.85
218.087	50.52
218.306	-35.5
218.524	105.81
218.742	-4.78
218.96	66.9
219.179	85.33
219.397	48.47
219.615	54.61
219.833	23.89
220.051	-31.4
220.27	56.66
220.488	81.24
220.706	30.04
220.924	-2.73
221.142	-23.21
221.36	17.75
221.578	54.61
221.796	11.61
222.015	93.52
222.233	3.41
222.451	48.47
222.669	64.85
222.887	32.08
223.105	30.04
223.323	32.08
223.541	19.8
223.759	36.18
223.977	34.13
224.195	19.8
224.413	17.75
224.631	48.47
224.849	50.52
225.067	85.33
225.285	-10.92
225.503	32.08
225.721	9.56
225.939	52.56
226.157	-8.87
226.375	83.28
226.592	46.42
226.81	-23.21
227.028	83.28
227.246	83.28
227.464	40.28
227.682	-41.64
227.9	27.99
228.117	64.85
228.335	42.32
228.553	11.61
228.771	27.99
228.989	36.18
229.206	56.66
229.424	40.28
229.642	-10.92
229.86	46.42
230.077	77.14
230.295	58.71
230.513	42.32
230.731	-17.07
230.948	36.18
231.166	11.61
231.384	60.76
231.601	15.7
231.819	60.76
232.037	48.47
232.254	7.51
232.472	5.46
232.689	66.9
232.907	52.56
233.125	36.18
233.342	93.52
233.56	-17.07
233.777	50.52
233.995	-19.11
234.213	85.33
234.43	7.51
234.648	23.89
234.865	44.37
235.083	40.28
235.3	58.71
235.518	-6.83
235.735	54.61
235.953	116.05
236.17	-10.92
236.388	54.61
236.605	34.13
236.822	36.18
237.04	21.85
237.257	13.65
237.475	19.8
237.692	-6.83
237.909	38.23
238.127	17.75
238.344	5.46
238.562	85.33
238.779	75.09
238.996	-0.68
239.214	40.28
239.431	42.32
239.648	3.41
239.865	38.23
240.083	23.89
240.3	64.85
240.517	11.61
240.735	97.62
240.952	48.47
241.169	42.32
241.386	-8.87
241.603	-4.78
241.821	-15.02
242.038	25.94
242.255	-4.78
242.472	62.8
242.689	73.04
242.907	34.13
243.124	13.65
243.341	-31.4
243.558	-49.83
243.775	-8.87
243.992	-6.83
244.209	3.41
244.426	62.8
244.643	23.89
244.86	21.85
245.078	-33.45
245.295	19.8
245.512	91.48
245.729	-8.87
245.946	-4.78
246.163	44.37
246.38	-19.11
246.597	9.56
246.814	-4.78
247.031	73.04
247.248	62.8
247.464	138.58
247.681	54.61
247.898	91.48
248.115	48.47
248.332	11.61
248.549	81.24
248.766	36.18
248.983	56.66
249.2	62.8
249.417	60.76
249.633	15.7
249.85	-29.35
250.067	-2.73
250.284	25.94
250.501	-4.78
250.717	38.23
250.934	25.94
251.151	-45.74
251.368	50.52
251.585	21.85
251.801	38.23
252.018	-23.21
252.235	48.47
252.451	-15.02
252.668	17.75
252.885	36.18
253.102	85.33
253.318	105.81
253.535	42.32
253.752	13.65
253.968	44.37
254.185	30.04
254.401	-41.64
254.618	17.75
254.835	23.89
255.051	71
255.268	85.33
255.484	81.24
255.701	34.13
255.917	97.62
256.134	19.8
256.351	79.19
256.567	19.8
256.784	40.28
257	58.71
257.217	58.71
257.433	109.91
257.65	42.32
257.866	120.15
258.082	-27.31
258.299	40.28
258.515	116.05
258.732	32.08
258.948	68.95
259.165	9.56
259.381	25.94
259.597	50.52
259.814	7.51
260.03	-10.92
260.246	81.24
260.463	58.71
260.679	40.28
260.895	50.52
261.112	66.9
261.328	23.89
261.544	32.08
261.761	50.52
261.977	17.75
262.193	13.65
262.409	-0.68
262.626	3.41
262.842	75.09
263.058	19.8
263.274	75.09
263.49	25.94
263.707	91.48
263.923	68.95
264.139	73.04
264.355	23.89
264.571	-6.83
264.787	60.76
265.004	-0.68
265.22	46.42
265.436	17.75
265.652	15.7
265.868	87.38
266.084	64.85
266.3	79.19
266.516	15.7
266.732	19.8
266.948	-6.83
267.164	19.8
267.38	56.66
267.596	23.89
267.812	114
268.028	-15.02
268.244	83.28
268.46	21.85
268.676	9.56
268.892	30.04
269.108	34.13
269.324	42.32
269.54	40.28
269.756	89.43
269.972	-4.78
270.188	3.41
270.403	15.7
270.619	34.13
270.835	54.61
271.051	32.08
271.267	40.28
271.483	64.85
271.698	36.18
271.914	34.13
272.13	25.94
272.346	7.51
272.562	32.08
272.777	44.37
272.993	32.08
273.209	56.66
273.425	-8.87
273.64	48.47
273.856	-12.97
274.072	23.89
274.287	1.37
274.503	36.18
274.719	7.51
274.934	44.37
275.15	50.52
275.366	58.71
275.581	38.23
275.797	42.32
276.012	64.85
276.228	56.66
276.444	48.47
276.659	7.51
276.875	3.41
277.09	-2.73
277.306	-0.68
277.521	44.37
277.737	56.66
277.952	50.52
278.168	73.04
278.383	34.13
278.599	27.99
278.814	97.62
279.03	75.09
279.245	-6.83
279.461	-35.5
279.676	42.32
279.892	36.18
280.107	75.09
280.322	66.9
280.538	21.85
280.753	5.46
280.969	32.08
281.184	7.51
281.399	85.33
281.615	48.47
281.83	48.47
282.045	42.32
282.26	73.04
282.476	34.13
282.691	50.52
282.906	-55.98
283.122	17.75
283.337	36.18
283.552	-4.78
283.767	30.04
283.983	116.05
284.198	21.85
284.413	30.04
284.628	38.23
284.843	30.04
285.058	52.56
285.274	32.08
285.489	89.43
285.704	66.9
285.919	23.89
286.134	1.37
286.349	-8.87
286.564	-12.97
286.779	52.56
286.995	27.99
287.21	-25.26
287.425	75.09
287.64	-15.02
287.855	122.2
288.07	27.99
288.285	15.7
288.5	50.52
288.715	97.62
288.93	64.85
289.145	66.9
289.36	-10.92
289.575	19.8
289.79	68.95
290.004	9.56
290.219	64.85
290.434	40.28
290.649	85.33
290.864	3.41
291.079	64.85
291.294	40.28
291.509	3.41
291.724	-31.4
291.938	179.54
292.153	54.61
292.368	66.9
292.583	73.04
292.798	73.04
293.012	118.1
293.227	27.99
293.442	-2.73
293.657	21.85
293.871	122.2
294.086	15.7
294.301	52.56
294.516	103.76
294.73	21.85
294.945	34.13
295.16	97.62
295.374	27.99
295.589	101.72
295.804	52.56
296.018	19.8
296.233	89.43
296.447	23.89
296.662	-0.68
296.877	38.23
297.091	71
297.306	40.28
297.52	9.56
297.735	60.76
297.949	73.04
298.164	91.48
298.378	-15.02
298.593	38.23
298.807	19.8
299.022	-49.83
299.236	105.81
299.451	32.08
299.665	64.85
299.88	66.9
300.094	85.33
300.309	89.43
300.523	42.32
300.737	-4.78
300.952	54.61
301.166	58.71
301.381	15.7
301.595	40.28
301.809	68.95
302.024	34.13
302.238	68.95
302.452	32.08
302.667	62.8
302.881	85.33
303.095	56.66
303.309	19.8
303.524	38.23
303.738	23.89
303.952	54.61
304.166	32.08
304.381	101.72
304.595	75.09
304.809	38.23
305.023	42.32
305.237	58.71
305.452	30.04
305.666	44.37
305.88	40.28
306.094	9.56
306.308	-6.83
306.522	87.38
306.736	75.09
306.95	66.9
307.164	5.46
307.379	3.41
307.593	99.67
307.807	50.52
308.021	87.38
308.235	95.57
308.449	32.08
308.663	62.8
308.877	93.52
309.091	107.86
309.305	62.8
309.519	103.76
309.733	81.24
309.947	11.61
310.161	-33.45
310.374	58.71
310.588	21.85
310.802	19.8
311.016	71
311.23	23.89
311.444	40.28
311.658	23.89
311.872	42.32
312.085	34.13
312.299	40.28
312.513	-51.88
312.727	83.28
312.941	58.71
313.154	85.33
313.368	50.52
313.582	60.76
313.796	-8.87
314.009	68.95
314.223	83.28
314.437	48.47
314.651	56.66
314.864	32.08
315.078	58.71
315.292	71
315.505	68.95
315.719	50.52
315.933	105.81
316.146	58.71
316.36	23.89
316.573	34.13
316.787	75.09
317.001	-31.4
317.214	32.08
317.428	60.76
317.641	40.28
317.855	64.85
318.068	56.66
318.282	68.95
318.495	32.08
318.709	58.71
318.922	-23.21
319.136	87.38
319.349	17.75
319.563	56.66
319.776	42.32
319.99	134.48
320.203	19.8
320.417	9.56
320.63	97.62
320.843	128.34
321.057	5.46
321.27	19.8
321.483	3.41
321.697	-17.07
321.91	1.37
322.124	64.85
322.337	7.51
322.55	40.28
322.763	34.13
322.977	-0.68
323.19	64.85
323.403	-6.83
323.617	44.37
323.83	73.04
324.043	73.04
324.256	5.46
324.469	11.61
324.683	64.85
324.896	-10.92
325.109	27.99
325.322	62.8
325.535	79.19
325.748	52.56
325.962	25.94
326.175	85.33
326.388	46.42
326.601	5.46
326.814	52.56
327.027	71
327.24	48.47
327.453	23.89
327.666	71
327.879	17.75
328.092	23.89
328.305	-0.68
328.518	34.13
328.731	-39.59
328.944	-39.59
329.157	-12.97
329.37	81.24
329.583	103.76
329.796	27.99
330.009	34.13
330.222	89.43
330.435	50.52
330.648	36.18
330.861	11.61
331.073	50.52
331.286	132.44
331.499	52.56
331.712	44.37
331.925	32.08
332.138	52.56
332.35	23.89
332.563	23.89
332.776	56.66
332.989	64.85
333.202	1.37
333.414	68.95
333.627	36.18
333.84	-19.11
334.053	68.95
334.265	48.47
334.478	56.66
334.691	66.9
334.903	85.33
335.116	25.94
335.329	91.48
335.541	75.09
335.754	36.18
335.966	13.65
336.179	17.75
336.392	93.52
336.604	99.67
336.817	-6.83
337.029	77.14
337.242	146.77
337.454	-4.78
337.667	36.18
337.88	3.41
338.092	36.18
338.305	83.28
338.517	54.61
338.729	167.25
338.942	66.9
339.154	13.65
339.367	71
339.579	89.43
339.792	34.13
340.004	-2.73
340.217	32.08
340.429	25.94
340.641	58.71
340.854	64.85
341.066	42.32
341.278	62.8
341.491	68.95
341.703	34.13
341.915	50.52
342.128	89.43
342.34	34.13
342.552	118.1
342.764	44.37
342.977	-19.11
343.189	-0.68
343.401	71
343.613	75.09
343.826	91.48
344.038	77.14
344.25	42.32
344.462	73.04
344.674	50.52
344.886	50.52
345.099	58.71
345.311	36.18
345.523	52.56
345.735	5.46
345.947	66.9
346.159	68.95
346.371	75.09
346.583	130.39
346.795	109.91
347.007	40.28
347.219	118.1
347.431	13.65
347.643	25.94
347.855	30.04
348.067	13.65
348.279	52.56
348.491	89.43
348.703	91.48
348.915	62.8
349.127	-6.83
349.339	68.95
349.551	36.18
349.763	105.81
349.975	40.28
350.187	40.28
350.399	58.71
350.61	46.42
350.822	109.91
351.034	25.94
351.246	36.18
351.458	81.24
351.669	60.76
351.881	-15.02
352.093	64.85
352.305	50.52
352.517	48.47
352.728	81.24
352.94	36.18
353.152	48.47
353.363	50.52
353.575	36.18
353.787	48.47
353.999	17.75
354.21	71
354.422	62.8
354.633	130.39
354.845	64.85
355.057	81.24
355.268	128.34
355.48	19.8
355.692	99.67
355.903	81.24
356.115	36.18
356.326	-23.21
356.538	130.39
356.749	19.8
356.961	54.61
357.172	73.04
357.384	36.18
357.595	116.05
357.807	34.13
358.018	40.28
358.23	91.48
358.441	44.37
358.653	60.76
358.864	62.8
359.075	23.89
359.287	91.48
359.498	-6.83
359.709	15.7
359.921	21.85
360.132	42.32
360.344	21.85
360.555	32.08
360.766	77.14
360.977	32.08
361.189	122.2
361.4	7.51
361.611	89.43
361.823	91.48
362.034	109.91
362.245	52.56
362.456	66.9
362.667	99.67
362.879	38.23
363.09	32.08
363.301	42.32
363.512	1.37
363.723	48.47
363.935	58.71
364.146	75.09
364.357	-19.11
364.568	17.75
364.779	56.66
364.99	58.71
365.201	13.65
365.412	83.28
365.623	85.33
365.834	48.47
366.045	60.76
366.256	93.52
366.467	73.04
366.678	21.85
366.889	5.46
367.1	73.04
367.311	21.85
367.522	64.85
367.733	7.51
367.944	44.37
368.155	58.71
368.366	32.08
368.577	71
368.788	126.29
368.999	85.33
369.209	40.28
369.42	97.62
369.631	85.33
369.842	99.67
370.053	71
370.264	52.56
370.474	38.23
370.685	66.9
370.896	73.04
371.107	30.04
371.317	27.99
371.528	99.67
371.739	-43.69
371.95	40.28
372.16	50.52
372.371	15.7
372.582	58.71
372.792	118.1
373.003	107.86
373.214	64.85
373.424	114
373.635	101.72
373.846	87.38
374.056	50.52
374.267	60.76
374.477	91.48
374.688	66.9
374.898	38.23
375.109	91.48
375.319	64.85
375.53	34.13
375.74	93.52
375.951	93.52
376.161	50.52
376.372	1.37
376.582	27.99
376.793	27.99
377.003	111.96
377.214	73.04
377.424	118.1
377.635	93.52
377.845	36.18
378.055	66.9
378.266	85.33
378.476	140.63
378.686	1.37
378.897	77.14
379.107	48.47
379.317	42.32
379.528	23.89
379.738	44.37
379.948	5.46
380.158	146.77
380.369	11.61
380.579	27.99
380.789	52.56
380.999	64.85
381.21	46.42
381.42	85.33
381.63	77.14
381.84	44.37
382.05	-8.87
382.261	105.81
382.471	52.56
382.681	54.61
382.891	40.28
383.101	81.24
383.311	34.13
383.521	68.95
383.731	32.08
383.941	126.29
384.151	60.76
384.361	73.04
384.571	25.94
384.781	56.66
384.991	54.61
385.201	148.82
385.411	124.24
385.621	36.18
385.831	54.61
386.041	91.48
386.251	-4.78
386.461	40.28
386.671	15.7
386.881	73.04
387.091	64.85
387.301	95.57
387.511	-35.5
387.72	54.61
387.93	42.32
388.14	85.33
388.35	44.37
388.56	64.85
388.769	87.38
388.979	91.48
389.189	38.23
389.399	48.47
389.609	68.95
389.818	85.33
390.028	91.48
390.238	71
390.447	81.24
390.657	138.58
390.867	11.61
391.076	56.66
391.286	81.24
391.496	66.9
391.705	81.24
391.915	52.56
392.125	71
392.334	122.2
392.544	124.24
392.753	122.2
392.963	107.86
393.172	52.56
393.382	66.9
393.591	81.24
393.801	38.23
394.01	116.05
394.22	77.14
394.429	54.61
394.639	52.56
394.848	159.06
395.058	81.24
395.267	83.28
395.477	111.96
395.686	103.76
395.895	118.1
396.105	126.29
396.314	46.42
396.524	64.85
396.733	93.52
396.942	77.14
397.152	52.56
397.361	64.85
397.57	56.66
397.78	79.19
397.989	124.24
398.198	150.87
398.407	97.62
398.617	77.14
398.826	62.8
399.035	93.52
399.244	171.35
399.453	167.25
399.663	89.43
399.872	99.67
400.081	83.28
400.29	120.15
400.499	150.87
400.708	116.05
400.917	138.58
401.127	105.81
401.336	101.72
401.545	111.96
401.754	122.2
401.963	81.24
402.172	122.2
402.381	111.96
402.59	85.33
402.799	114
403.008	91.48
403.217	169.3
403.426	148.82
403.635	140.63
403.844	101.72
404.053	109.91
404.262	81.24
404.471	130.39
404.68	165.2
404.888	142.68
405.097	163.15
405.306	97.62
405.515	111.96
405.724	183.63
405.933	169.3
406.142	148.82
406.35	175.44
406.559	193.87
406.768	191.83
406.977	234.83
407.185	255.31
407.394	142.68
407.603	177.49
407.812	193.87
408.02	230.74
408.229	234.83
408.438	220.5
408.646	259.41
408.855	286.03
409.064	302.42
409.272	228.69
409.481	255.31
409.69	310.61
409.898	296.27
410.107	290.13
410.315	335.18
410.524	345.42
410.733	386.38
410.941	357.71
411.15	384.34
411.358	386.38
411.567	431.44
411.775	410.96
411.984	392.53
412.192	421.2
412.401	427.34
412.609	456.01
412.818	499.02
413.026	496.97
413.234	456.01
413.443	525.65
413.651	482.64
413.86	539.98
414.068	603.47
414.276	646.48
414.485	531.79
414.693	599.37
414.901	632.14
415.11	752.97
415.318	611.66
415.526	664.91
415.734	740.68
415.943	742.73
416.151	767.31
416.359	765.26
416.567	775.5
416.776	894.28
416.984	945.48
417.192	902.47
417.4	836.94
417.608	875.85
417.817	996.68
418.025	1008.97
418.233	1074.5
418.441	1017.16
418.649	1031.49
418.857	1152.32
419.065	1301.83
419.273	1127.75
419.481	1269.06
419.689	1287.49
419.897	1393.98
420.105	1363.26
420.313	1385.79
420.521	1375.55
420.729	1580.35
420.937	1576.25
421.145	1740.09
421.353	1647.93
421.561	1756.47
421.769	1735.99
421.977	1854.78
422.185	1783.1
422.393	1903.93
422.601	2147.64
422.809	2000.18
423.017	2182.45
423.224	2137.4
423.432	2227.51
423.64	2133.3
423.848	2448.69
424.056	2424.11
424.263	2538.8
424.471	2641.2
424.679	2704.68
424.887	2907.43
425.094	2878.76
425.302	2880.81
425.51	2940.2
425.718	2927.91
425.925	3188
426.133	3163.43
426.341	3446.05
426.548	3480.86
426.756	3487.01
426.964	3595.55
427.171	3822.88
427.379	3941.66
427.586	3857.69
427.794	4021.53
428.001	4238.61
428.209	4334.87
428.417	4252.95
428.624	4603.15
428.832	4572.43
429.039	4687.12
429.247	4668.69
429.454	5201.16
429.662	5469.44
429.869	4988.17
430.076	5522.69
430.284	5225.73
430.491	5526.78
430.699	5620.99
430.906	5881.08
431.114	5876.99
431.321	6262.01
431.528	6399.22
431.736	6644.98
431.943	7011.56
432.15	6636.78
432.358	6823.15
432.565	7101.67
432.772	7034.09
432.979	7539.94
433.187	7740.64
433.394	7644.38
433.601	8185.05
433.808	8226.01
434.016	8137.95
434.223	8408.28
434.43	8793.3
434.637	8666.32
434.844	9372.87
435.052	9385.16
435.259	9602.24
435.466	9258.18
435.673	9462.98
435.88	10079.42
436.087	10499.25
436.294	10689.71
436.501	10380.47
436.708	10503.35
436.915	10876.08
437.122	11336.87
437.329	11353.26
437.537	11605.16
437.743	11957.41
437.95	11873.44
438.157	12579.99
438.364	13008.01
438.571	12690.58
438.778	12850.32
438.985	13859.97
439.192	13624.45
439.399	13898.88
439.606	13505.67
439.813	14638.2
440.02	15344.75
440.227	14957.68
440.433	14931.06
440.64	15705.19
440.847	15148.14
441.054	15709.29
441.261	16534.62
441.467	16469.08
441.674	16970.83
441.881	17345.61
442.088	17300.56
442.294	17300.56
442.501	17513.55
442.708	18050.11
442.914	19055.67
443.121	19594.28
443.328	19004.47
443.534	20159.52
443.741	19692.58
443.948	19518.51
444.154	21077.01
444.361	20628.51
444.568	21046.29
444.774	21031.96
444.981	21146.64
445.187	21863.43
445.394	23192.56
445.6	22354.94
445.807	24435.68
446.013	23880.68
446.22	24032.23
446.426	24970.2
446.633	25496.53
446.839	26029
447.046	24849.37
447.252	26082.25
447.459	26325.96
447.665	26049.48
447.871	27335.6
448.078	28631.97
448.284	27001.79
448.491	28027.82
448.697	28717.98
448.903	29782.93
449.11	29676.43
449.316	29088.67
449.522	29692.82
449.728	30790.53
449.935	30659.46
450.141	30524.29
450.347	31433.59
450.553	30710.66
450.76	31103.87
450.966	31869.81
451.172	31452.02
451.378	32101.23
451.584	31902.57
451.791	32170.86
451.997	32545.64
452.203	33143.64
452.409	32732
452.615	32545.64
452.821	31716.21
453.027	31144.83
453.233	33074.01
453.44	31529.84
453.646	31712.11
453.852	31964.01
454.058	32707.43
454.264	31468.41
454.47	32326.5
454.676	31501.17
454.882	32713.57
455.088	29547.41
455.294	30272.39
455.5	30528.39
455.705	31130.49
455.911	29758.35
456.117	29205.4
456.323	28664.74
456.529	27308.98
456.735	28853.15
456.941	27726.77
457.147	27493.3
457.352	26581.95
457.558	26141.64
457.764	26078.15
457.97	25785.29
458.176	25144.28
458.381	25199.57
458.587	24212.45
458.793	24017.89
458.999	22860.79
459.204	24304.61
459.41	23399.41
459.616	22211.59
459.821	22078.47
460.027	22090.76
460.233	21500.94
460.438	20749.34
460.644	20749.34
460.85	20034.6
461.055	19534.89
461.261	19625
461.466	18269.25
461.672	17517.64
461.878	18785.33
462.083	17579.08
462.289	17278.03
462.494	17118.29
462.7	16577.62
462.905	16000.1
463.111	16632.92
463.316	16483.42
463.522	16075.87
463.727	16249.95
463.932	16157.79
464.138	15977.57
464.343	16036.96
464.549	15500.39
464.754	16354.4
464.959	16055.39
465.165	15735.91
465.37	15242.35
465.575	14824.56
465.781	15656.04
465.986	15653.99
466.191	15049.84
466.397	14705.78
466.602	13896.83
466.807	14652.53
467.012	14443.64
467.218	14539.9
467.423	14281.85
467.628	14414.97
467.833	14828.66
468.038	14244.99
468.244	14083.2
468.449	14634.1
468.654	14296.19
468.859	13993.09
