Data from USB4F104151__183__13-59-06-270.txt Node

Date: Thu Mar 13 13:59:06 EDT 2025
User: louis
Spectrometer: USB4F10415
Trigger mode: 4
Integration Time (sec): 1.000000E-2
Scans to average: 1
Electric dark correction enabled: true
Nonlinearity correction enabled: false
Boxcar width: 0
XAxis mode: Wavelengths
Number of Pixels in Spectrum: 3648
>>>>>Begin Spectral Data<<<<<
178.204	-1.37
178.424	-1.37
178.644	-1.37
178.864	10.92
179.084	-30.04
179.304	10.92
179.524	17.07
179.744	2.73
179.964	27.31
180.184	19.11
180.404	-46.42
180.624	-5.46
180.844	4.78
181.064	6.83
181.283	-48.47
181.503	-1.37
181.723	12.97
181.943	21.16
182.163	62.12
182.383	10.92
182.602	45.74
182.822	-3.41
183.042	-3.41
183.262	-11.61
183.482	0.68
183.701	31.4
183.921	68.27
184.141	6.83
184.361	29.35
184.58	21.16
184.8	19.11
185.02	-17.75
185.239	27.31
185.459	39.59
185.679	0.68
185.898	-23.89
186.118	76.46
186.338	17.07
186.557	17.07
186.777	19.11
186.997	33.45
187.216	-32.08
187.436	12.97
187.655	19.11
187.875	49.83
188.095	15.02
188.314	41.64
188.534	31.4
188.753	49.83
188.973	12.97
189.192	35.5
189.412	25.26
189.631	47.79
189.851	8.87
190.07	12.97
190.29	60.07
190.509	-13.65
190.729	66.22
190.948	66.22
191.168	66.22
191.387	-32.08
191.607	66.22
191.826	17.07
192.045	66.22
192.265	-38.23
192.484	49.83
192.704	-13.65
192.923	25.26
193.142	72.36
193.362	-11.61
193.581	58.03
193.8	-71
194.02	53.93
194.239	76.46
194.458	74.41
194.678	21.16
194.897	21.16
195.116	-25.94
195.335	41.64
195.555	53.93
195.774	55.98
195.993	43.69
196.212	98.99
196.432	58.03
196.651	92.84
196.87	-7.51
197.089	84.65
197.308	-11.61
197.528	55.98
197.747	-9.56
197.966	49.83
198.185	-7.51
198.404	82.6
198.623	49.83
198.842	4.78
199.062	29.35
199.281	2.73
199.5	41.64
199.719	49.83
199.938	25.26
200.157	4.78
200.376	86.7
200.595	51.88
200.814	12.97
201.033	51.88
201.252	27.31
201.471	82.6
201.69	90.79
201.909	12.97
202.128	29.35
202.347	35.5
202.566	-23.89
202.785	31.4
203.004	53.93
203.223	101.03
203.442	-32.08
203.661	47.79
203.879	58.03
204.098	47.79
204.317	39.59
204.536	117.42
204.755	-17.75
204.974	51.88
205.193	27.31
205.411	-11.61
205.63	66.22
205.849	15.02
206.068	-7.51
206.287	68.27
206.505	92.84
206.724	33.45
206.943	25.26
207.162	51.88
207.381	43.69
207.599	-42.32
207.818	8.87
208.037	19.11
208.255	35.5
208.474	60.07
208.693	2.73
208.911	64.17
209.13	103.08
209.349	-5.46
209.567	76.46
209.786	92.84
210.005	86.7
210.223	31.4
210.442	-15.7
210.661	27.31
210.879	64.17
211.098	31.4
211.316	58.03
211.535	88.75
211.753	86.7
211.972	51.88
212.191	-17.75
212.409	53.93
212.628	-25.94
212.846	-3.41
213.065	86.7
213.283	76.46
213.502	-21.85
213.72	-34.13
213.938	29.35
214.157	25.26
214.375	41.64
214.594	68.27
214.812	74.41
215.031	68.27
215.249	-42.32
215.467	29.35
215.686	-27.99
215.904	74.41
216.122	19.11
216.341	107.18
216.559	-5.46
216.778	90.79
216.996	12.97
217.214	-7.51
217.432	41.64
217.651	107.18
217.869	60.07
218.087	58.03
218.306	-17.75
218.524	49.83
218.742	-7.51
218.96	58.03
219.179	45.74
219.397	49.83
219.615	64.17
219.833	43.69
220.051	-30.04
220.27	37.55
220.488	-7.51
220.706	4.78
220.924	62.12
221.142	43.69
221.36	-15.7
221.578	58.03
221.796	82.6
222.015	66.22
222.233	84.65
222.451	105.13
222.669	17.07
222.887	51.88
223.105	84.65
223.323	60.07
223.541	51.88
223.759	-27.99
223.977	58.03
224.195	60.07
224.413	19.11
224.631	58.03
224.849	8.87
225.067	92.84
225.285	58.03
225.503	17.07
225.721	6.83
225.939	66.22
226.157	10.92
226.375	111.27
226.592	-11.61
226.81	111.27
227.028	-34.13
227.246	31.4
227.464	-3.41
227.682	21.16
227.9	-3.41
228.117	17.07
228.335	17.07
228.553	51.88
228.771	107.18
228.989	86.7
229.206	23.21
229.424	-21.85
229.642	0.68
229.86	62.12
230.077	-5.46
230.295	51.88
230.513	39.59
230.731	74.41
230.948	23.21
231.166	66.22
231.384	-36.18
231.601	55.98
231.819	88.75
232.037	39.59
232.254	37.55
232.472	8.87
232.689	-11.61
232.907	35.5
233.125	12.97
233.342	90.79
233.56	94.89
233.777	-9.56
233.995	51.88
234.213	88.75
234.43	21.16
234.648	78.51
234.865	94.89
235.083	90.79
235.3	-36.18
235.518	35.5
235.735	74.41
235.953	58.03
236.17	43.69
236.388	41.64
236.605	39.59
236.822	78.51
237.04	25.26
237.257	62.12
237.475	55.98
237.692	135.85
237.909	19.11
238.127	78.51
238.344	25.26
238.562	131.75
238.779	33.45
238.996	39.59
239.214	-30.04
239.431	45.74
239.648	-44.37
239.865	37.55
240.083	43.69
240.3	49.83
240.517	-17.75
240.735	62.12
240.952	-7.51
241.169	37.55
241.386	82.6
241.603	-21.85
241.821	-38.23
242.038	60.07
242.255	47.79
242.472	60.07
242.689	25.26
242.907	76.46
243.124	8.87
243.341	45.74
243.558	53.93
243.775	43.69
243.992	127.66
244.209	125.61
244.426	90.79
244.643	19.11
244.86	29.35
245.078	31.4
245.295	2.73
245.512	47.79
245.729	23.21
245.946	123.56
246.163	-15.7
246.38	51.88
246.597	25.26
246.814	41.64
247.031	43.69
247.248	74.41
247.464	43.69
247.681	6.83
247.898	15.02
248.115	2.73
248.332	41.64
248.549	64.17
248.766	55.98
248.983	94.89
249.2	92.84
249.417	117.42
249.633	2.73
249.85	84.65
250.067	68.27
250.284	17.07
250.501	6.83
250.717	76.46
250.934	60.07
251.151	19.11
251.368	-7.51
251.585	70.31
251.801	64.17
252.018	10.92
252.235	82.6
252.451	76.46
252.668	19.11
252.885	111.27
253.102	-30.04
253.318	27.31
253.535	-1.37
253.752	60.07
253.968	-27.99
254.185	41.64
254.401	-13.65
254.618	35.5
254.835	0.68
255.051	74.41
255.268	58.03
255.484	74.41
255.701	49.83
255.917	111.27
256.134	39.59
256.351	55.98
256.567	94.89
256.784	58.03
257	21.16
257.217	33.45
257.433	72.36
257.65	58.03
257.866	115.37
258.082	60.07
258.299	-9.56
258.515	55.98
258.732	121.51
258.948	49.83
259.165	111.27
259.381	84.65
259.597	51.88
259.814	21.16
260.03	-17.75
260.246	-19.8
260.463	2.73
260.679	101.03
260.895	76.46
261.112	82.6
261.328	8.87
261.544	25.26
261.761	-9.56
261.977	19.11
262.193	101.03
262.409	64.17
262.626	25.26
262.842	-19.8
263.058	35.5
263.274	17.07
263.49	-1.37
263.707	53.93
263.923	-5.46
264.139	55.98
264.355	49.83
264.571	92.84
264.787	2.73
265.004	49.83
265.22	-3.41
265.436	39.59
265.652	60.07
265.868	19.11
266.084	17.07
266.3	74.41
266.516	62.12
266.732	68.27
266.948	33.45
267.164	35.5
267.38	76.46
267.596	35.5
267.812	58.03
268.028	72.36
268.244	-5.46
268.46	80.55
268.676	25.26
268.892	-15.7
269.108	78.51
269.324	21.16
269.54	23.21
269.756	39.59
269.972	51.88
270.188	51.88
270.403	64.17
270.619	49.83
270.835	21.16
271.051	58.03
271.267	-1.37
271.483	58.03
271.698	37.55
271.914	58.03
272.13	51.88
272.346	60.07
272.562	4.78
272.777	49.83
272.993	45.74
273.209	90.79
273.425	55.98
273.64	113.32
273.856	8.87
274.072	58.03
274.287	72.36
274.503	76.46
274.719	10.92
274.934	141.99
275.15	35.5
275.366	43.69
275.581	43.69
275.797	72.36
276.012	25.26
276.228	68.27
276.444	82.6
276.659	49.83
276.875	27.31
277.09	58.03
277.306	-3.41
277.521	31.4
277.737	55.98
277.952	33.45
278.168	12.97
278.383	86.7
278.599	66.22
278.814	74.41
279.03	68.27
279.245	37.55
279.461	33.45
279.676	4.78
279.892	76.46
280.107	43.69
280.322	41.64
280.538	35.5
280.753	41.64
280.969	-36.18
281.184	76.46
281.399	-1.37
281.615	23.21
281.83	90.79
282.045	64.17
282.26	12.97
282.476	27.31
282.691	35.5
282.906	90.79
283.122	96.94
283.337	39.59
283.552	51.88
283.767	17.07
283.983	121.51
284.198	47.79
284.413	39.59
284.628	39.59
284.843	35.5
285.058	-27.99
285.274	37.55
285.489	33.45
285.704	17.07
285.919	105.13
286.134	12.97
286.349	35.5
286.564	49.83
286.779	113.32
286.995	21.16
287.21	62.12
287.425	45.74
287.64	23.21
287.855	23.21
288.07	25.26
288.285	45.74
288.5	72.36
288.715	66.22
288.93	19.11
289.145	43.69
289.36	-3.41
289.575	35.5
289.79	109.23
290.004	78.51
290.219	49.83
290.434	96.94
290.649	25.26
290.864	109.23
291.079	-56.66
291.294	51.88
291.509	70.31
291.724	35.5
291.938	62.12
292.153	64.17
292.368	4.78
292.583	-13.65
292.798	12.97
293.012	49.83
293.227	39.59
293.442	8.87
293.657	4.78
293.871	41.64
294.086	90.79
294.301	43.69
294.516	25.26
294.73	60.07
294.945	55.98
295.16	43.69
295.374	41.64
295.589	41.64
295.804	39.59
296.018	62.12
296.233	53.93
296.447	-7.51
296.662	27.31
296.877	12.97
297.091	39.59
297.306	27.31
297.52	131.75
297.735	55.98
297.949	-1.37
298.164	60.07
298.378	53.93
298.593	41.64
298.807	49.83
299.022	-7.51
299.236	49.83
299.451	103.08
299.665	-5.46
299.88	62.12
300.094	6.83
300.309	15.02
300.523	25.26
300.737	27.31
300.952	127.66
301.166	41.64
301.381	111.27
301.595	41.64
301.809	43.69
302.024	10.92
302.238	135.85
302.452	41.64
302.667	51.88
302.881	43.69
303.095	25.26
303.309	76.46
303.524	-44.37
303.738	-11.61
303.952	41.64
304.166	45.74
304.381	2.73
304.595	72.36
304.809	107.18
305.023	125.61
305.237	10.92
305.452	-23.89
305.666	58.03
305.88	-19.8
306.094	27.31
306.308	80.55
306.522	12.97
306.736	119.46
306.95	68.27
307.164	78.51
307.379	10.92
307.593	96.94
307.807	21.16
308.021	25.26
308.235	-1.37
308.449	60.07
308.663	41.64
308.877	66.22
309.091	58.03
309.305	51.88
309.519	49.83
309.733	10.92
309.947	39.59
310.161	8.87
310.374	64.17
310.588	45.74
310.802	-50.52
311.016	47.79
311.23	115.37
311.444	27.31
311.658	33.45
311.872	86.7
312.085	-30.04
312.299	60.07
312.513	47.79
312.727	82.6
312.941	68.27
313.154	23.21
313.368	31.4
313.582	74.41
313.796	31.4
314.009	64.17
314.223	23.21
314.437	35.5
314.651	17.07
314.864	43.69
315.078	45.74
315.292	37.55
315.505	12.97
315.719	23.21
315.933	62.12
316.146	8.87
316.36	76.46
316.573	53.93
316.787	31.4
317.001	-11.61
317.214	43.69
317.428	35.5
317.641	17.07
317.855	2.73
318.068	43.69
318.282	43.69
318.495	80.55
318.709	43.69
318.922	58.03
319.136	96.94
319.349	58.03
319.563	33.45
319.776	103.08
319.99	98.99
320.203	88.75
320.417	33.45
320.63	19.11
320.843	127.66
321.057	23.21
321.27	-7.51
321.483	76.46
321.697	25.26
321.91	31.4
322.124	51.88
322.337	60.07
322.55	41.64
322.763	55.98
322.977	35.5
323.19	-42.32
323.403	78.51
323.617	66.22
323.83	98.99
324.043	109.23
324.256	60.07
324.469	19.11
324.683	70.31
324.896	45.74
325.109	19.11
325.322	0.68
325.535	111.27
325.748	94.89
325.962	-5.46
326.175	68.27
326.388	107.18
326.601	76.46
326.814	55.98
327.027	68.27
327.24	98.99
327.453	66.22
327.666	39.59
327.879	51.88
328.092	25.26
328.305	113.32
328.518	33.45
328.731	127.66
328.944	90.79
329.157	25.26
329.37	53.93
329.583	31.4
329.796	-15.7
330.009	17.07
330.222	133.8
330.435	35.5
330.648	86.7
330.861	74.41
331.073	86.7
331.286	86.7
331.499	33.45
331.712	21.16
331.925	10.92
332.138	29.35
332.35	21.16
332.563	15.02
332.776	123.56
332.989	-5.46
333.202	35.5
333.414	53.93
333.627	84.65
333.84	90.79
334.053	25.26
334.265	21.16
334.478	25.26
334.691	25.26
334.903	96.94
335.116	12.97
335.329	90.79
335.541	80.55
335.754	43.69
335.966	4.78
336.179	49.83
336.392	51.88
336.604	66.22
336.817	37.55
337.029	2.73
337.242	6.83
337.454	35.5
337.667	35.5
337.88	68.27
338.092	96.94
338.305	41.64
338.517	10.92
338.729	41.64
338.942	35.5
339.154	27.31
339.367	60.07
339.579	62.12
339.792	15.02
340.004	60.07
340.217	70.31
340.429	74.41
340.641	74.41
340.854	58.03
341.066	-11.61
341.278	80.55
341.491	111.27
341.703	66.22
341.915	-5.46
342.128	4.78
342.34	27.31
342.552	35.5
342.764	90.79
342.977	4.78
343.189	78.51
343.401	45.74
343.613	10.92
343.826	105.13
344.038	70.31
344.25	47.79
344.462	105.13
344.674	55.98
344.886	74.41
345.099	-5.46
345.311	45.74
345.523	70.31
345.735	78.51
345.947	0.68
346.159	96.94
346.371	90.79
346.583	53.93
346.795	55.98
347.007	60.07
347.219	41.64
347.431	94.89
347.643	133.8
347.855	74.41
348.067	58.03
348.279	-27.99
348.491	25.26
348.703	94.89
348.915	98.99
349.127	0.68
349.339	107.18
349.551	31.4
349.763	78.51
349.975	39.59
350.187	58.03
350.399	25.26
350.61	-21.85
350.822	53.93
351.034	-23.89
351.246	109.23
351.458	-27.99
351.669	39.59
351.881	103.08
352.093	84.65
352.305	41.64
352.517	123.56
352.728	98.99
352.94	43.69
353.152	92.84
353.363	64.17
353.575	58.03
353.787	43.69
353.999	84.65
354.21	-5.46
354.422	88.75
354.633	-40.28
354.845	6.83
355.057	41.64
355.268	-19.8
355.48	19.11
355.692	-13.65
355.903	27.31
356.115	41.64
356.326	-15.7
356.538	82.6
356.749	19.11
356.961	107.18
357.172	58.03
357.384	43.69
357.595	66.22
357.807	119.46
358.018	8.87
358.23	125.61
358.441	49.83
358.653	58.03
358.864	0.68
359.075	72.36
359.287	19.11
359.498	55.98
359.709	49.83
359.921	86.7
360.132	-44.37
360.344	74.41
360.555	58.03
360.766	74.41
360.977	45.74
361.189	70.31
361.4	4.78
361.611	82.6
361.823	66.22
362.034	76.46
362.245	19.11
362.456	-7.51
362.667	58.03
362.879	90.79
363.09	33.45
363.301	98.99
363.512	12.97
363.723	129.7
363.935	33.45
364.146	51.88
364.357	76.46
364.568	49.83
364.779	68.27
364.99	47.79
365.201	6.83
365.412	51.88
365.623	64.17
365.834	80.55
366.045	74.41
366.256	37.55
366.467	70.31
366.678	35.5
366.889	78.51
367.1	90.79
367.311	90.79
367.522	15.02
367.733	35.5
367.944	82.6
368.155	-7.51
368.366	43.69
368.577	35.5
368.788	15.02
368.999	88.75
369.209	103.08
369.42	90.79
369.631	105.13
369.842	141.99
370.053	111.27
370.264	-13.65
370.474	98.99
370.685	49.83
370.896	0.68
371.107	60.07
371.317	115.37
371.528	76.46
371.739	51.88
371.95	23.21
372.16	64.17
372.371	92.84
372.582	41.64
372.792	115.37
373.003	70.31
373.214	41.64
373.424	72.36
373.635	10.92
373.846	117.42
374.056	74.41
374.267	78.51
374.477	94.89
374.688	47.79
374.898	70.31
375.109	33.45
375.319	37.55
375.53	12.97
375.74	117.42
375.951	23.21
376.161	68.27
376.372	58.03
376.582	58.03
376.793	172.71
377.003	82.6
377.214	0.68
377.424	74.41
377.635	72.36
377.845	29.35
378.055	74.41
378.266	76.46
378.476	101.03
378.686	84.65
378.897	107.18
379.107	60.07
379.317	129.7
379.528	19.11
379.738	96.94
379.948	76.46
380.158	51.88
380.369	82.6
380.579	62.12
380.789	25.26
380.999	58.03
381.21	37.55
381.42	15.02
381.63	115.37
381.84	33.45
382.05	58.03
382.261	21.16
382.471	-7.51
382.681	58.03
382.891	115.37
383.101	66.22
383.311	-27.99
383.521	66.22
383.731	68.27
383.941	74.41
384.151	21.16
384.361	103.08
384.571	49.83
384.781	64.17
384.991	131.75
385.201	119.46
385.411	39.59
385.621	70.31
385.831	12.97
386.041	37.55
386.251	90.79
386.461	139.94
386.671	131.75
386.881	107.18
387.091	66.22
387.301	25.26
387.511	19.11
387.72	68.27
387.93	121.51
388.14	31.4
388.35	131.75
388.56	90.79
388.769	72.36
388.979	107.18
389.189	10.92
389.399	84.65
389.609	148.14
389.818	115.37
390.028	41.64
390.238	35.5
390.447	90.79
390.657	137.9
390.867	15.02
391.076	45.74
391.286	86.7
391.496	49.83
391.705	82.6
391.915	107.18
392.125	148.14
392.334	98.99
392.544	109.23
392.753	131.75
392.963	101.03
393.172	90.79
393.382	123.56
393.591	117.42
393.801	123.56
394.01	144.04
394.22	127.66
394.429	115.37
394.639	-40.28
394.848	80.55
395.058	109.23
395.267	92.84
395.477	78.51
395.686	111.27
395.895	139.94
396.105	123.56
396.314	189.1
396.524	98.99
396.733	107.18
396.942	21.16
397.152	6.83
397.361	156.33
397.57	37.55
397.78	43.69
397.989	139.94
398.198	78.51
398.407	60.07
398.617	131.75
398.826	70.31
399.035	64.17
399.244	119.46
399.453	8.87
399.663	107.18
399.872	139.94
400.081	117.42
400.29	119.46
400.499	115.37
400.708	131.75
400.917	133.8
401.127	133.8
401.336	178.86
401.545	90.79
401.754	101.03
401.963	98.99
402.172	121.51
402.381	135.85
402.59	98.99
402.799	105.13
403.008	109.23
403.217	176.81
403.426	154.28
403.635	135.85
403.844	96.94
404.053	103.08
404.262	127.66
404.471	185
404.68	172.71
404.888	150.18
405.097	86.7
405.306	139.94
405.515	178.86
405.724	207.53
405.933	240.3
406.142	160.42
406.35	205.48
406.559	160.42
406.768	135.85
406.977	211.62
407.185	193.19
407.394	199.34
407.603	217.77
407.812	178.86
408.02	174.76
408.229	209.58
408.438	266.92
408.646	256.68
408.855	258.73
409.064	240.3
409.272	160.42
409.481	205.48
409.69	297.64
409.898	258.73
410.107	373.41
410.315	322.21
410.524	324.26
410.733	262.82
410.941	275.11
411.15	402.08
411.358	414.37
411.567	418.47
411.775	344.74
411.984	387.75
412.192	447.14
412.401	402.08
412.609	479.91
412.818	461.48
413.026	451.24
413.234	484
413.443	567.97
413.651	565.92
413.86	471.72
414.068	555.68
414.276	514.72
414.485	594.59
414.693	502.43
414.901	664.22
415.11	643.74
415.318	703.14
415.526	694.94
415.734	750.24
415.943	764.58
416.151	778.91
416.359	713.38
416.567	828.06
416.776	819.87
416.984	805.53
417.192	907.93
417.4	887.45
417.608	862.88
417.817	965.28
418.025	1047.19
418.233	1053.34
418.441	1059.48
418.649	1141.4
418.857	1135.26
419.065	1190.55
419.273	1215.13
419.481	1307.29
419.689	1350.29
419.897	1274.52
420.105	1385.11
420.313	1471.12
420.521	1464.98
420.729	1544.85
420.937	1610.39
421.145	1692.3
421.353	1630.87
421.561	1739.41
421.769	1866.38
421.977	1809.04
422.185	1835.66
422.393	1837.71
422.601	2105.99
422.809	2087.56
423.017	2032.27
423.224	2122.38
423.432	2114.19
423.64	2259.59
423.848	2366.09
424.056	2419.33
424.263	2419.33
424.471	2538.12
424.679	2615.94
424.887	2806.4
425.094	2929.28
425.302	2880.13
425.51	2974.33
425.718	3037.82
425.925	3113.6
426.133	3267.19
426.341	3293.82
426.548	3437.17
426.756	3615.35
426.964	3465.85
427.171	3578.48
427.379	3889.78
427.586	3842.67
427.794	3990.13
428.001	4172.4
428.209	4432.49
428.417	4379.24
428.624	4674.15
428.832	4622.95
429.039	4500.07
429.247	4481.64
429.454	5112.41
429.662	5485.14
429.869	5044.83
430.076	5479
430.284	5427.8
430.491	5591.64
430.699	5761.62
430.906	5630.55
431.114	5784.15
431.321	6042.19
431.528	6085.2
431.736	6791.75
431.943	6758.98
432.15	6666.82
432.358	6605.38
432.565	7103.04
432.772	7068.22
432.979	7496.25
433.187	7608.89
433.394	7346.75
433.601	8202.8
433.808	8151.6
434.016	8174.13
434.223	8509.99
434.43	8813.09
434.637	8981.03
434.844	9464.35
435.052	9480.73
435.259	9480.73
435.466	9497.11
435.673	9503.26
435.88	9845.27
436.087	10408.46
436.294	10496.52
436.501	10340.88
436.708	10609.16
436.915	10863.11
437.122	11323.9
437.329	11182.59
437.537	11862.52
437.743	11803.13
437.95	11960.82
438.157	12607.98
438.364	12784.1
438.571	12698.09
438.778	13017.57
438.985	13990.36
439.192	13492.7
439.399	13896.15
439.606	13820.38
439.813	14246.35
440.02	15045.06
440.227	14965.19
440.433	14870.98
440.64	15323.58
440.847	15139.27
441.054	15593.92
441.261	16570.8
441.467	16513.45
441.674	16871.85
441.881	17451.42
442.088	17375.65
442.294	16935.34
442.501	17611.17
442.708	18090.39
442.914	18674.06
443.121	19790.2
443.328	19239.3
443.534	20298.1
443.741	19788.16
443.948	19331.46
444.154	20902.25
444.361	20439.41
444.568	21014.89
444.774	20873.58
444.981	21080.42
445.187	21805.41
445.394	22483.28
445.6	22419.8
445.807	24604.98
446.013	23427.4
446.22	24039.74
446.426	24799.54
446.633	24801.58
446.839	25839.9
447.046	24918.32
447.252	26210.59
447.459	26513.69
447.665	26245.4
447.871	27482.38
448.078	28500.22
448.284	27228.43
448.491	28111.1
448.697	28989.68
448.903	29497.58
449.11	29620.45
449.316	29327.6
449.522	29583.59
449.728	30286.04
449.935	30472.41
450.141	30439.64
450.347	31242.45
450.553	30380.25
450.76	30574.81
450.966	31924.42
451.172	31305.93
451.378	31965.38
451.584	31699.14
451.791	32192.7
451.997	32327.87
452.203	32936.12
452.409	32364.73
452.615	32809.14
452.821	31373.52
453.027	30986.45
453.233	32942.26
453.44	31385.8
453.646	32055.49
453.852	32069.83
454.058	32499.9
454.264	31037.65
454.47	32397.5
454.676	31301.84
454.882	32405.69
455.088	29475.05
455.294	30304.48
455.5	30521.56
455.705	30472.41
455.911	29507.82
456.117	29194.48
456.323	28619
456.529	27181.32
456.735	28494.07
456.941	27750.66
457.147	27212.04
457.352	26247.45
457.558	26056.99
457.764	26188.06
457.97	25706.79
458.176	25024.81
458.381	24957.23
458.587	23978.3
458.793	23820.61
458.999	22552.91
459.204	24103.23
459.41	23664.96
459.616	22040.92
459.821	22059.35
460.027	21983.58
460.233	21686.62
460.438	20394.36
460.644	20627.82
460.85	19833.21
461.055	19394.95
461.261	19472.77
461.466	17904.03
461.672	17510.82
461.878	18727.31
462.083	17424.8
462.289	16986.54
462.494	17193.38
462.7	16497.07
462.905	16021.94
463.111	16402.86
463.316	16564.65
463.522	16294.32
463.727	16069.05
463.932	16298.42
464.138	15880.63
464.343	16376.24
464.549	15485.37
464.754	15886.78
464.959	16187.83
465.165	15563.2
465.37	15157.7
465.575	14821.83
465.781	15344.06
465.986	15714.75
466.191	14868.94
466.397	14606.8
466.602	13660.63
466.807	14645.71
467.012	14539.21
467.218	14455.25
467.423	14356.94
467.628	14428.62
467.833	15063.49
