Data from USB4F104151__104__13-54-44-748.txt Node

Date: Thu Mar 13 13:54:44 EDT 2025
User: louis
Spectrometer: USB4F10415
Trigger mode: 4
Integration Time (sec): 1.000000E-2
Scans to average: 1
Electric dark correction enabled: true
Nonlinearity correction enabled: false
Boxcar width: 0
XAxis mode: Wavelengths
Number of Pixels in Spectrum: 3648
>>>>>Begin Spectral Data<<<<<
178.204	35.33
178.424	35.33
178.644	35.33
178.864	-93.69
179.084	-77.31
179.304	33.28
179.524	-24.06
179.744	-28.16
179.964	-32.26
180.184	10.75
180.404	4.61
180.624	16.9
180.844	-19.97
181.064	-28.16
181.283	-5.63
181.503	49.66
181.723	23.04
181.943	43.52
182.163	35.33
182.383	-65.02
182.602	45.57
182.822	-36.35
183.042	-15.87
183.262	-42.5
183.482	35.33
183.701	-11.78
183.921	-5.63
184.141	6.66
184.361	-32.26
184.58	-3.58
184.8	-15.87
185.02	-1.54
185.239	27.14
185.459	-19.97
185.679	37.38
185.898	35.33
186.118	6.66
186.338	-40.45
186.557	68.09
186.777	-44.54
186.997	51.71
187.216	29.18
187.436	68.09
187.655	98.81
187.875	-26.11
188.095	39.42
188.314	31.23
188.534	6.66
188.753	37.38
188.973	53.76
189.192	-3.58
189.412	33.28
189.631	-34.3
189.851	51.71
190.07	111.1
190.29	-46.59
190.509	-22.02
190.729	27.14
190.948	31.23
191.168	33.28
191.387	37.38
191.607	57.86
191.826	-1.54
192.045	64
192.265	31.23
192.484	-19.97
192.704	70.14
192.923	0.51
193.142	10.75
193.362	-69.12
193.581	68.09
193.8	-34.3
194.02	20.99
194.239	14.85
194.458	74.24
194.678	-7.68
194.897	20.99
195.116	-1.54
195.335	80.38
195.555	12.8
195.774	35.33
195.993	43.52
196.212	6.66
196.432	23.04
196.651	-30.21
196.87	-44.54
197.089	-36.35
197.308	12.8
197.528	-95.74
197.747	-1.54
197.966	-34.3
198.185	35.33
198.404	53.76
198.623	-44.54
198.842	16.9
199.062	64
199.281	92.67
199.5	-60.93
199.719	8.7
199.938	-15.87
200.157	-3.58
200.376	78.33
200.595	-15.87
200.814	-19.97
201.033	-32.26
201.252	10.75
201.471	18.94
201.69	25.09
201.909	98.81
202.128	-1.54
202.347	41.47
202.566	20.99
202.785	-5.63
203.004	2.56
203.223	80.38
203.442	41.47
203.661	23.04
203.879	45.57
204.098	31.23
204.317	-36.35
204.536	64
204.755	0.51
204.974	29.18
205.193	-30.21
205.411	-1.54
205.63	-30.21
205.849	4.61
206.068	-34.3
206.287	-9.73
206.505	31.23
206.724	41.47
206.943	-50.69
207.162	12.8
207.381	-3.58
207.599	55.81
207.818	-65.02
208.037	2.56
208.255	-75.26
208.474	61.95
208.693	8.7
208.911	47.62
209.13	-46.59
209.349	14.85
209.567	45.57
209.786	31.23
210.005	45.57
210.223	8.7
210.442	-3.58
210.661	10.75
210.879	-81.41
211.098	23.04
211.316	31.23
211.535	111.1
211.753	-81.41
211.972	37.38
212.191	-1.54
212.409	-3.58
212.628	43.52
212.846	-9.73
213.065	29.18
213.283	68.09
213.502	-56.83
213.72	14.85
213.938	-34.3
214.157	-13.82
214.375	41.47
214.594	-32.26
214.812	-9.73
215.031	10.75
215.249	23.04
215.467	2.56
215.686	12.8
215.904	6.66
216.122	45.57
216.341	-3.58
216.559	-11.78
216.778	25.09
216.996	-48.64
217.214	47.62
217.432	-34.3
217.651	-58.88
217.869	51.71
218.087	57.86
218.306	4.61
218.524	23.04
218.742	-60.93
218.96	-19.97
219.179	68.09
219.397	25.09
219.615	29.18
219.833	-1.54
220.051	80.38
220.27	37.38
220.488	-13.82
220.706	-26.11
220.924	16.9
221.142	2.56
221.36	-19.97
221.578	12.8
221.796	-36.35
222.015	31.23
222.233	4.61
222.451	29.18
222.669	-50.69
222.887	-28.16
223.105	8.7
223.323	-22.02
223.541	-95.74
223.759	-11.78
223.977	-26.11
224.195	86.53
224.413	72.19
224.631	45.57
224.849	-19.97
225.067	18.94
225.285	20.99
225.503	39.42
225.721	20.99
225.939	16.9
226.157	33.28
226.375	29.18
226.592	-40.45
226.81	29.18
227.028	31.23
227.246	6.66
227.464	16.9
227.682	49.66
227.9	-22.02
228.117	-17.92
228.335	10.75
228.553	25.09
228.771	-11.78
228.989	70.14
229.206	-5.63
229.424	-22.02
229.642	10.75
229.86	27.14
230.077	-42.5
230.295	27.14
230.513	29.18
230.731	41.47
230.948	27.14
231.166	-34.3
231.384	-15.87
231.601	29.18
231.819	88.57
232.037	23.04
232.254	10.75
232.472	59.9
232.689	6.66
232.907	-15.87
233.125	27.14
233.342	33.28
233.56	-73.21
233.777	-19.97
233.995	29.18
234.213	4.61
234.43	113.15
234.648	14.85
234.865	-30.21
235.083	-1.54
235.3	35.33
235.518	0.51
235.735	8.7
235.953	20.99
236.17	-15.87
236.388	-62.98
236.605	49.66
236.822	-7.68
237.04	-1.54
237.257	78.33
237.475	4.61
237.692	29.18
237.909	16.9
238.127	-42.5
238.344	86.53
238.562	23.04
238.779	2.56
238.996	-28.16
239.214	-5.63
239.431	-34.3
239.648	-34.3
239.865	41.47
240.083	51.71
240.3	-1.54
240.517	29.18
240.735	-19.97
240.952	41.47
241.169	10.75
241.386	-19.97
241.603	47.62
241.821	-17.92
242.038	23.04
242.255	20.99
242.472	29.18
242.689	12.8
242.907	37.38
243.124	23.04
243.341	25.09
243.558	-17.92
243.775	-44.54
243.992	-1.54
244.209	14.85
244.426	-3.58
244.643	-1.54
244.86	2.56
245.078	29.18
245.295	-9.73
245.512	72.19
245.729	-22.02
245.946	-40.45
246.163	-11.78
246.38	27.14
246.597	8.7
246.814	92.67
247.031	-1.54
247.248	8.7
247.464	33.28
247.681	-1.54
247.898	-17.92
248.115	14.85
248.332	-11.78
248.549	55.81
248.766	35.33
248.983	29.18
249.2	20.99
249.417	43.52
249.633	-3.58
249.85	25.09
250.067	8.7
250.284	-3.58
250.501	-9.73
250.717	39.42
250.934	14.85
251.151	-44.54
251.368	-15.87
251.585	41.47
251.801	-3.58
252.018	0.51
252.235	-19.97
252.451	31.23
252.668	-62.98
252.885	90.62
253.102	-11.78
253.318	27.14
253.535	27.14
253.752	-52.74
253.968	10.75
254.185	-22.02
254.401	-1.54
254.618	12.8
254.835	25.09
255.051	90.62
255.268	51.71
255.484	-9.73
255.701	-1.54
255.917	94.72
256.134	-1.54
256.351	31.23
256.567	-7.68
256.784	-28.16
257	-5.63
257.217	27.14
257.433	45.57
257.65	115.2
257.866	-7.68
258.082	-1.54
258.299	-42.5
258.515	25.09
258.732	-19.97
258.948	51.71
259.165	6.66
259.381	80.38
259.597	45.57
259.814	0.51
260.03	-11.78
260.246	2.56
260.463	-26.11
260.679	27.14
260.895	29.18
261.112	-1.54
261.328	-58.88
261.544	53.76
261.761	29.18
261.977	39.42
262.193	-34.3
262.409	33.28
262.626	-3.58
262.842	64
263.058	2.56
263.274	59.9
263.49	-19.97
263.707	27.14
263.923	4.61
264.139	-3.58
264.355	-1.54
264.571	-11.78
264.787	29.18
265.004	45.57
265.22	66.05
265.436	-26.11
265.652	-75.26
265.868	2.56
266.084	-15.87
266.3	-15.87
266.516	-38.4
266.732	20.99
266.948	53.76
267.164	-1.54
267.38	37.38
267.596	39.42
267.812	57.86
268.028	-7.68
268.244	-7.68
268.46	53.76
268.676	-50.69
268.892	8.7
269.108	-11.78
269.324	25.09
269.54	-28.16
269.756	-13.82
269.972	88.57
270.188	-1.54
270.403	0.51
270.619	8.7
270.835	-15.87
271.051	49.66
271.267	4.61
271.483	59.9
271.698	25.09
271.914	25.09
272.13	-36.35
272.346	64
272.562	33.28
272.777	55.81
272.993	41.47
273.209	4.61
273.425	-101.89
273.64	102.91
273.856	37.38
274.072	61.95
274.287	35.33
274.503	43.52
274.719	29.18
274.934	18.94
275.15	-9.73
275.366	66.05
275.581	14.85
275.797	-19.97
276.012	47.62
276.228	49.66
276.444	53.76
276.659	16.9
276.875	-7.68
277.09	12.8
277.306	14.85
277.521	6.66
277.737	-5.63
277.952	41.47
278.168	33.28
278.383	16.9
278.599	-11.78
278.814	107.01
279.03	37.38
279.245	-34.3
279.461	-5.63
279.676	6.66
279.892	4.61
280.107	12.8
280.322	-3.58
280.538	-32.26
280.753	-1.54
280.969	27.14
281.184	-3.58
281.399	33.28
281.615	31.23
281.83	47.62
282.045	-26.11
282.26	25.09
282.476	68.09
282.691	104.96
282.906	-11.78
283.122	23.04
283.337	-67.07
283.552	-13.82
283.767	31.23
283.983	27.14
284.198	-15.87
284.413	-19.97
284.628	-46.59
284.843	-19.97
285.058	-95.74
285.274	27.14
285.489	-36.35
285.704	53.76
285.919	6.66
286.134	-11.78
286.349	37.38
286.564	96.77
286.779	45.57
286.995	27.14
287.21	35.33
287.425	-34.3
287.64	-22.02
287.855	43.52
288.07	-9.73
288.285	45.57
288.5	39.42
288.715	94.72
288.93	20.99
289.145	31.23
289.36	-60.93
289.575	37.38
289.79	31.23
290.004	45.57
290.219	70.14
290.434	27.14
290.649	39.42
290.864	18.94
291.079	-17.92
291.294	-7.68
291.509	8.7
291.724	-34.3
291.938	-3.58
292.153	-1.54
292.368	-15.87
292.583	-15.87
292.798	51.71
293.012	37.38
293.227	16.9
293.442	-67.07
293.657	47.62
293.871	-19.97
294.086	37.38
294.301	39.42
294.516	2.56
294.73	39.42
294.945	8.7
295.16	-13.82
295.374	6.66
295.589	33.28
295.804	14.85
296.018	2.56
296.233	4.61
296.447	45.57
296.662	-3.58
296.877	59.9
297.091	-13.82
297.306	47.62
297.52	-44.54
297.735	-13.82
297.949	61.95
298.164	57.86
298.378	-1.54
298.593	8.7
298.807	-24.06
299.022	14.85
299.236	4.61
299.451	10.75
299.665	4.61
299.88	-26.11
300.094	45.57
300.309	10.75
300.523	-44.54
300.737	45.57
300.952	0.51
301.166	59.9
301.381	0.51
301.595	2.56
301.809	31.23
302.024	16.9
302.238	-9.73
302.452	-52.74
302.667	-9.73
302.881	-3.58
303.095	78.33
303.309	-40.45
303.524	2.56
303.738	37.38
303.952	8.7
304.166	33.28
304.381	14.85
304.595	41.47
304.809	16.9
305.023	31.23
305.237	59.9
305.452	51.71
305.666	41.47
305.88	45.57
306.094	-15.87
306.308	51.71
306.522	20.99
306.736	90.62
306.95	29.18
307.164	14.85
307.379	6.66
307.593	53.76
307.807	66.05
308.021	12.8
308.235	61.95
308.449	61.95
308.663	74.24
308.877	31.23
309.091	31.23
309.305	-30.21
309.519	10.75
309.733	25.09
309.947	2.56
310.161	-34.3
310.374	10.75
310.588	86.53
310.802	-28.16
311.016	31.23
311.23	51.71
311.444	2.56
311.658	49.66
311.872	-17.92
312.085	55.81
312.299	55.81
312.513	8.7
312.727	57.86
312.941	35.33
313.154	29.18
313.368	-24.06
313.582	-28.16
313.796	94.72
314.009	-40.45
314.223	61.95
314.437	-36.35
314.651	-77.31
314.864	14.85
315.078	6.66
315.292	37.38
315.505	33.28
315.719	74.24
315.933	61.95
316.146	66.05
316.36	2.56
316.573	90.62
316.787	37.38
317.001	2.56
317.214	-9.73
317.428	-24.06
317.641	53.76
317.855	70.14
318.068	25.09
318.282	39.42
318.495	45.57
318.709	43.52
318.922	45.57
319.136	47.62
319.349	51.71
319.563	20.99
319.776	94.72
319.99	39.42
320.203	20.99
320.417	-11.78
320.63	35.33
320.843	-24.06
321.057	78.33
321.27	20.99
321.483	45.57
321.697	12.8
321.91	39.42
322.124	29.18
322.337	51.71
322.55	33.28
322.763	94.72
322.977	-52.74
323.19	-1.54
323.403	6.66
323.617	12.8
323.83	-22.02
324.043	-26.11
324.256	43.52
324.469	53.76
324.683	12.8
324.896	-1.54
325.109	90.62
325.322	-17.92
325.535	14.85
325.748	-22.02
325.962	41.47
326.175	-36.35
326.388	-9.73
326.601	80.38
326.814	-22.02
327.027	0.51
327.24	39.42
327.453	-9.73
327.666	80.38
327.879	70.14
328.092	14.85
328.305	31.23
328.518	2.56
328.731	53.76
328.944	47.62
329.157	-9.73
329.37	-9.73
329.583	33.28
329.796	27.14
330.009	4.61
330.222	43.52
330.435	23.04
330.648	10.75
330.861	16.9
331.073	-58.88
331.286	64
331.499	-32.26
331.712	6.66
331.925	-17.92
332.138	74.24
332.35	-32.26
332.563	23.04
332.776	-19.97
332.989	-3.58
333.202	61.95
333.414	-5.63
333.627	39.42
333.84	66.05
334.053	-15.87
334.265	-44.54
334.478	8.7
334.691	0.51
334.903	41.47
335.116	55.81
335.329	41.47
335.541	0.51
335.754	43.52
335.966	53.76
336.179	23.04
336.392	33.28
336.604	-1.54
336.817	94.72
337.029	27.14
337.242	37.38
337.454	-13.82
337.667	53.76
337.88	14.85
338.092	76.29
338.305	10.75
338.517	12.8
338.729	102.91
338.942	29.18
339.154	-19.97
339.367	57.86
339.579	14.85
339.792	68.09
340.004	25.09
340.217	49.66
340.429	51.71
340.641	29.18
340.854	2.56
341.066	33.28
341.278	25.09
341.491	10.75
341.703	16.9
341.915	-46.59
342.128	90.62
342.34	-79.36
342.552	57.86
342.764	-1.54
342.977	27.14
343.189	10.75
343.401	57.86
343.613	-5.63
343.826	113.15
344.038	18.94
344.25	55.81
344.462	37.38
344.674	31.23
344.886	-40.45
345.099	-11.78
345.311	-3.58
345.523	25.09
345.735	-11.78
345.947	76.29
346.159	96.77
346.371	18.94
346.583	-7.68
346.795	29.18
347.007	-5.63
347.219	-17.92
347.431	-30.21
347.643	41.47
347.855	102.91
348.067	4.61
348.279	-73.21
348.491	29.18
348.703	66.05
348.915	66.05
349.127	4.61
349.339	4.61
349.551	37.38
349.763	6.66
349.975	-22.02
350.187	119.29
350.399	72.19
350.61	-26.11
350.822	6.66
351.034	39.42
351.246	72.19
351.458	-58.88
351.669	20.99
351.881	47.62
352.093	70.14
352.305	-19.97
352.517	-60.93
352.728	55.81
352.94	-11.78
353.152	72.19
353.363	76.29
353.575	-7.68
353.787	-54.78
353.999	-32.26
354.21	55.81
354.422	4.61
354.633	37.38
354.845	-38.4
355.057	41.47
355.268	-5.63
355.48	27.14
355.692	57.86
355.903	-44.54
356.115	2.56
356.326	78.33
356.538	49.66
356.749	43.52
356.961	82.43
357.172	31.23
357.384	8.7
357.595	35.33
357.807	96.77
358.018	-24.06
358.23	16.9
358.441	68.09
358.653	12.8
358.864	-1.54
359.075	84.48
359.287	37.38
359.498	51.71
359.709	10.75
359.921	-1.54
360.132	4.61
360.344	51.71
360.555	14.85
360.766	-11.78
360.977	8.7
361.189	70.14
361.4	-15.87
361.611	94.72
361.823	90.62
362.034	0.51
362.245	37.38
362.456	29.18
362.667	2.56
362.879	-7.68
363.09	31.23
363.301	2.56
363.512	57.86
363.723	-22.02
363.935	68.09
364.146	39.42
364.357	66.05
364.568	88.57
364.779	27.14
364.99	23.04
365.201	10.75
365.412	27.14
365.623	68.09
365.834	33.28
366.045	27.14
366.256	59.9
366.467	2.56
366.678	8.7
366.889	6.66
367.1	72.19
367.311	-34.3
367.522	-30.21
367.733	59.9
367.944	82.43
368.155	39.42
368.366	90.62
368.577	33.28
368.788	66.05
368.999	-58.88
369.209	10.75
369.42	-17.92
369.631	16.9
369.842	-38.4
370.053	49.66
370.264	27.14
370.474	45.57
370.685	53.76
370.896	84.48
371.107	2.56
371.317	39.42
371.528	47.62
371.739	-5.63
371.95	27.14
372.16	-67.07
372.371	18.94
372.582	82.43
372.792	29.18
373.003	18.94
373.214	29.18
373.424	-3.58
373.635	33.28
373.846	45.57
374.056	68.09
374.267	4.61
374.477	41.47
374.688	29.18
374.898	18.94
375.109	-24.06
375.319	45.57
375.53	57.86
375.74	88.57
375.951	68.09
376.161	-38.4
376.372	14.85
376.582	-19.97
376.793	51.71
377.003	10.75
377.214	-56.83
377.424	6.66
377.635	4.61
377.845	4.61
378.055	41.47
378.266	29.18
378.476	-15.87
378.686	18.94
378.897	6.66
379.107	-54.78
379.317	129.53
379.528	8.7
379.738	39.42
379.948	14.85
380.158	14.85
380.369	133.63
380.579	137.73
380.789	4.61
380.999	80.38
381.21	-19.97
381.42	88.57
381.63	-26.11
381.84	86.53
382.05	4.61
382.261	64
382.471	23.04
382.681	-13.82
382.891	78.33
383.101	94.72
383.311	37.38
383.521	51.71
383.731	37.38
383.941	16.9
384.151	90.62
384.361	64
384.571	20.99
384.781	41.47
384.991	94.72
385.201	35.33
385.411	10.75
385.621	27.14
385.831	-11.78
386.041	66.05
386.251	158.21
386.461	51.71
386.671	31.23
386.881	0.51
387.091	29.18
387.301	23.04
387.511	59.9
387.72	14.85
387.93	8.7
388.14	47.62
388.35	-3.58
388.56	29.18
388.769	4.61
388.979	41.47
389.189	20.99
389.399	12.8
389.609	61.95
389.818	27.14
390.028	20.99
390.238	-15.87
390.447	29.18
390.657	104.96
390.867	72.19
391.076	2.56
391.286	125.44
391.496	23.04
391.705	-1.54
391.915	14.85
392.125	27.14
392.334	51.71
392.544	82.43
392.753	0.51
392.963	84.48
393.172	57.86
393.382	-81.41
393.591	16.9
393.801	37.38
394.01	162.3
394.22	57.86
394.429	59.9
394.639	76.29
394.848	47.62
395.058	39.42
395.267	45.57
395.477	37.38
395.686	35.33
395.895	109.05
396.105	61.95
396.314	104.96
396.524	66.05
396.733	25.09
396.942	59.9
397.152	64
397.361	66.05
397.57	43.52
397.78	55.81
397.989	64
398.198	115.2
398.407	-13.82
398.617	107.01
398.826	121.34
399.035	104.96
399.244	55.81
399.453	82.43
399.663	107.01
399.872	2.56
400.081	117.25
400.29	41.47
400.499	57.86
400.708	55.81
400.917	80.38
401.127	111.1
401.336	8.7
401.545	102.91
401.754	31.23
401.963	125.44
402.172	55.81
402.381	33.28
402.59	61.95
402.799	41.47
403.008	96.77
403.217	31.23
403.426	76.29
403.635	23.04
403.844	147.97
404.053	78.33
404.262	72.19
404.471	45.57
404.68	76.29
404.888	94.72
405.097	41.47
405.306	80.38
405.515	104.96
405.724	14.85
405.933	90.62
406.142	70.14
406.35	162.3
406.559	141.82
406.768	139.77
406.977	147.97
407.185	100.86
407.394	174.59
407.603	70.14
407.812	94.72
408.02	125.44
408.229	145.92
408.438	154.11
408.646	137.73
408.855	147.97
409.064	168.45
409.272	123.39
409.481	123.39
409.69	150.01
409.898	207.36
410.107	244.22
410.315	160.25
410.524	197.12
410.733	162.3
410.941	201.21
411.15	215.55
411.358	217.6
411.567	270.84
411.775	279.04
411.984	287.23
412.192	209.4
412.401	285.18
412.609	199.16
412.818	289.28
413.026	256.51
413.234	332.28
413.443	272.89
413.651	305.66
413.86	322.04
414.068	424.44
414.276	436.73
414.485	340.47
414.693	356.86
414.901	340.47
415.11	469.5
415.318	391.67
415.526	395.77
415.734	553.46
415.943	475.64
416.151	449.02
416.359	530.94
416.567	549.37
416.776	512.5
416.984	619
417.192	578.04
417.4	655.86
417.608	631.29
417.817	575.99
418.025	629.24
418.233	711.16
418.441	776.69
418.649	694.77
418.857	745.97
419.065	858.61
419.273	754.16
419.481	803.32
419.689	895.47
419.897	961.01
420.105	854.51
420.313	881.14
420.521	1022.45
420.729	1016.3
420.937	999.92
421.145	1004.02
421.353	1130.99
421.561	1186.29
421.769	1151.47
421.977	1270.25
422.185	1198.57
422.393	1429.99
422.601	1382.89
422.809	1417.71
423.017	1417.71
423.224	1399.27
423.432	1456.62
423.64	1505.77
423.848	1591.78
424.056	1698.28
424.263	1761.77
424.471	1761.77
424.679	1772
424.887	1888.74
425.094	1925.6
425.302	1935.84
425.51	1905.12
425.718	2075.1
425.925	2236.89
426.133	2247.13
426.341	2335.2
426.548	2386.4
426.756	2298.33
426.964	2417.12
427.171	2494.94
427.379	2699.73
427.586	2486.75
427.794	2787.8
428.001	2902.48
428.209	3002.83
428.417	2877.91
428.624	3125.71
428.832	3119.57
429.039	3148.24
429.247	3230.16
429.454	3400.14
429.662	3520.97
429.869	3498.44
430.076	3678.66
430.284	3568.07
430.491	3748.29
430.699	3903.94
430.906	3936.71
431.114	3989.96
431.321	4243.9
431.528	4299.2
431.736	4532.67
431.943	4551.1
432.15	4516.28
432.358	4600.25
432.565	4968.88
432.772	4841.91
432.979	5099.95
433.187	5179.82
433.394	5206.45
433.601	5470.64
433.808	5468.59
434.016	5568.94
434.223	5849.51
434.43	6171.04
434.637	5960.1
434.844	6455.71
435.052	6441.37
435.259	6496.67
435.466	6431.13
435.673	6422.94
435.88	6777.24
436.087	7197.07
436.294	7373.2
436.501	7111.06
436.708	7303.57
436.915	7403.92
437.122	7958.92
437.329	7780.75
437.537	8112.52
437.743	8196.48
437.95	8094.08
438.157	8624.51
438.364	8931.7
438.571	8923.51
438.778	8954.23
438.985	9556.33
439.192	9357.68
439.399	9523.57
439.606	9286
439.813	9939.3
440.02	10652
440.227	10348.9
440.433	10185.06
440.64	10508.64
440.847	10578.27
441.054	10723.68
441.261	11348.31
441.467	11213.14
441.674	11467.09
441.881	11907.4
442.088	11995.46
442.294	11970.89
442.501	12249.41
442.708	12503.36
442.914	12812.6
443.121	13398.32
443.328	12816.7
443.534	14045.48
443.741	13660.46
443.948	13222.2
444.154	14545.19
444.361	14137.64
444.568	14336.29
444.774	14385.44
444.981	14616.86
445.187	14965.02
445.394	15589.65
445.6	15622.42
445.807	16740.61
446.013	16199.94
446.22	16480.52
446.426	17164.54
446.633	17242.36
446.839	18047.21
447.046	17008.89
447.252	18002.16
447.459	17877.23
447.665	17897.71
447.871	18807.01
448.078	19509.46
448.284	18413.8
448.491	19073.24
448.697	19644.63
448.903	20334.79
449.11	20119.76
449.316	19787.99
449.522	20099.28
449.728	20650.18
449.935	20744.39
450.141	20865.22
450.347	21606.58
450.553	20682.95
450.76	20947.14
450.966	21854.39
451.172	21340.35
451.378	22053.04
451.584	21391.55
451.791	22313.13
451.997	21932.21
452.203	22401.19
452.409	22255.79
452.615	22243.5
452.821	21442.74
453.027	21000.38
453.233	22085.81
453.44	21205.18
453.646	21821.62
453.852	21991.6
454.058	21883.06
454.264	21612.73
454.47	21862.58
454.676	21274.81
454.882	21993.65
455.088	20228.3
455.294	20445.38
455.5	20615.37
455.705	20588.74
455.911	19828.95
456.117	19671.25
456.323	19278.04
456.529	18235.63
456.735	19249.37
456.941	18786.53
457.147	18376.94
457.352	17625.33
457.558	17479.93
457.764	17309.94
457.97	17133.82
458.176	16886.01
458.381	16787.71
458.587	15898.89
458.793	16097.55
458.999	15116.57
459.204	16496.9
459.41	15829.26
459.616	14809.37
459.821	14725.41
460.027	14942.49
460.233	14360.87
460.438	13693.23
460.644	14213.42
460.85	13349.17
461.055	12906.81
461.261	12929.34
461.466	12005.7
461.672	11759.95
461.878	12794.17
462.083	11434.32
462.289	11536.72
462.494	11368.79
462.7	10867.03
462.905	10594.65
463.111	10881.37
463.316	10998.1
463.522	10635.61
463.727	10731.87
463.932	10692.96
464.138	10660.19
464.343	10824.03
464.549	10467.68
464.754	10826.07
464.959	10668.38
465.165	10703.2
465.37	10043.75
465.575	10023.27
465.781	10162.53
465.986	10371.43
466.191	9939.3
466.397	9650.54
466.602	9279.86
466.807	9412.98
467.012	9636.2
467.218	9501.04
467.423	9472.37
467.628	9707.88
467.833	10066.28
468.038	9650.54
468.244	9306.48
468.449	9617.77
468.654	9283.95
468.859	9236.85
