Data from USB4F104151__94__13-54-33-430.txt Node

Date: Thu Mar 13 13:54:33 EDT 2025
User: louis
Spectrometer: USB4F10415
Trigger mode: 4
Integration Time (sec): 1.000000E-2
Scans to average: 1
Electric dark correction enabled: true
Nonlinearity correction enabled: false
Boxcar width: 0
XAxis mode: Wavelengths
Number of Pixels in Spectrum: 3648
>>>>>Begin Spectral Data<<<<<
178.204	-16.38
178.424	-16.38
178.644	-16.38
178.864	-79.87
179.084	2.05
179.304	-26.62
179.524	30.72
179.744	28.67
179.964	-6.14
180.184	-12.29
180.404	18.43
180.624	-38.91
180.844	-6.14
181.064	-45.06
181.283	6.14
181.503	38.91
181.723	12.29
181.943	16.38
182.163	36.86
182.383	51.2
182.602	34.82
182.822	26.62
183.042	55.3
183.262	88.06
183.482	59.39
183.701	34.82
183.921	96.25
184.141	0
184.361	-24.58
184.58	20.48
184.8	10.24
185.02	-22.53
185.239	30.72
185.459	77.82
185.679	94.21
185.898	12.29
186.118	116.73
186.338	-8.19
186.557	-2.05
186.777	22.53
186.997	86.01
187.216	-10.24
187.436	43.01
187.655	79.87
187.875	-8.19
188.095	0
188.314	122.88
188.534	77.82
188.753	61.44
188.973	8.19
189.192	75.77
189.412	-18.43
189.631	-22.53
189.851	-16.38
190.07	77.82
190.29	4.1
190.509	36.86
190.729	24.58
190.948	83.97
191.168	40.96
191.387	57.34
191.607	28.67
191.826	-8.19
192.045	51.2
192.265	-16.38
192.484	-26.62
192.704	0
192.923	-34.82
193.142	96.25
193.362	49.15
193.581	141.31
193.8	-43.01
194.02	30.72
194.239	73.73
194.458	-16.38
194.678	-88.06
194.897	10.24
195.116	-28.67
195.335	18.43
195.555	47.1
195.774	-4.1
195.993	53.25
196.212	0
196.432	-10.24
196.651	16.38
196.87	-8.19
197.089	24.58
197.308	79.87
197.528	61.44
197.747	4.1
197.966	-2.05
198.185	61.44
198.404	-4.1
198.623	6.14
198.842	94.21
199.062	40.96
199.281	98.3
199.5	45.06
199.719	2.05
199.938	102.4
200.157	26.62
200.376	65.54
200.595	4.1
200.814	2.05
201.033	53.25
201.252	71.68
201.471	47.1
201.69	86.01
201.909	-16.38
202.128	88.06
202.347	22.53
202.566	-12.29
202.785	61.44
203.004	30.72
203.223	81.92
203.442	12.29
203.661	8.19
203.879	-26.62
204.098	-28.67
204.317	-38.91
204.536	24.58
204.755	38.91
204.974	28.67
205.193	67.58
205.411	36.86
205.63	40.96
205.849	38.91
206.068	59.39
206.287	14.34
206.505	6.14
206.724	38.91
206.943	-6.14
207.162	18.43
207.381	73.73
207.599	34.82
207.818	59.39
208.037	63.49
208.255	61.44
208.474	12.29
208.693	53.25
208.911	20.48
209.13	51.2
209.349	28.67
209.567	71.68
209.786	53.25
210.005	24.58
210.223	8.19
210.442	36.86
210.661	20.48
210.879	32.77
211.098	36.86
211.316	38.91
211.535	28.67
211.753	-12.29
211.972	38.91
212.191	18.43
212.409	36.86
212.628	36.86
212.846	28.67
213.065	51.2
213.283	-28.67
213.502	16.38
213.72	30.72
213.938	-2.05
214.157	20.48
214.375	38.91
214.594	43.01
214.812	12.29
215.031	77.82
215.249	34.82
215.467	38.91
215.686	-2.05
215.904	88.06
216.122	45.06
216.341	-12.29
216.559	-26.62
216.778	51.2
216.996	75.77
217.214	45.06
217.432	43.01
217.651	53.25
217.869	135.17
218.087	53.25
218.306	28.67
218.524	40.96
218.742	49.15
218.96	43.01
219.179	69.63
219.397	59.39
219.615	98.3
219.833	55.3
220.051	51.2
220.27	-18.43
220.488	88.06
220.706	67.58
220.924	-30.72
221.142	-36.86
221.36	36.86
221.578	100.35
221.796	24.58
222.015	53.25
222.233	2.05
222.451	40.96
222.669	-18.43
222.887	32.77
223.105	45.06
223.323	43.01
223.541	47.1
223.759	47.1
223.977	-38.91
224.195	133.12
224.413	43.01
224.631	55.3
224.849	-14.34
225.067	30.72
225.285	86.01
225.503	20.48
225.721	-6.14
225.939	77.82
226.157	47.1
226.375	83.97
226.592	26.62
226.81	38.91
227.028	16.38
227.246	24.58
227.464	67.58
227.682	-45.06
227.9	-16.38
228.117	-16.38
228.335	-34.82
228.553	26.62
228.771	-14.34
228.989	-30.72
229.206	8.19
229.424	38.91
229.642	-38.91
229.86	86.01
230.077	45.06
230.295	61.44
230.513	-38.91
230.731	94.21
230.948	86.01
231.166	20.48
231.384	-18.43
231.601	79.87
231.819	28.67
232.037	8.19
232.254	-32.77
232.472	43.01
232.689	24.58
232.907	38.91
233.125	96.25
233.342	92.16
233.56	-61.44
233.777	45.06
233.995	-6.14
234.213	36.86
234.43	98.3
234.648	83.97
234.865	-79.87
235.083	40.96
235.3	4.1
235.518	67.58
235.735	-10.24
235.953	-10.24
236.17	6.14
236.388	22.53
236.605	47.1
236.822	36.86
237.04	55.3
237.257	65.54
237.475	53.25
237.692	92.16
237.909	28.67
238.127	26.62
238.344	47.1
238.562	94.21
238.779	106.49
238.996	-10.24
239.214	65.54
239.431	-49.15
239.648	47.1
239.865	51.2
240.083	-12.29
240.3	40.96
240.517	28.67
240.735	110.59
240.952	77.82
241.169	59.39
241.386	-4.1
241.603	28.67
241.821	45.06
242.038	24.58
242.255	43.01
242.472	18.43
242.689	-8.19
242.907	14.34
243.124	6.14
243.341	22.53
243.558	-38.91
243.775	-4.1
243.992	32.77
244.209	77.82
244.426	32.77
244.643	-14.34
244.86	49.15
245.078	65.54
245.295	38.91
245.512	34.82
245.729	-28.67
245.946	67.58
246.163	6.14
246.38	81.92
246.597	65.54
246.814	83.97
247.031	77.82
247.248	57.34
247.464	18.43
247.681	38.91
247.898	16.38
248.115	114.69
248.332	10.24
248.549	110.59
248.766	88.06
248.983	96.25
249.2	45.06
249.417	43.01
249.633	53.25
249.85	20.48
250.067	79.87
250.284	69.63
250.501	83.97
250.717	81.92
250.934	8.19
251.151	28.67
251.368	2.05
251.585	-10.24
251.801	102.4
252.018	57.34
252.235	59.39
252.451	45.06
252.668	43.01
252.885	36.86
253.102	83.97
253.318	10.24
253.535	63.49
253.752	61.44
253.968	2.05
254.185	71.68
254.401	-20.48
254.618	-4.1
254.835	98.3
255.051	73.73
255.268	81.92
255.484	69.63
255.701	-10.24
255.917	12.29
256.134	53.25
256.351	32.77
256.567	45.06
256.784	92.16
257	71.68
257.217	-4.1
257.433	47.1
257.65	30.72
257.866	12.29
258.082	38.91
258.299	-32.77
258.515	53.25
258.732	38.91
258.948	45.06
259.165	61.44
259.381	28.67
259.597	63.49
259.814	94.21
260.03	59.39
260.246	26.62
260.463	43.01
260.679	24.58
260.895	0
261.112	47.1
261.328	10.24
261.544	51.2
261.761	110.59
261.977	8.19
262.193	-28.67
262.409	69.63
262.626	30.72
262.842	-4.1
263.058	112.64
263.274	108.54
263.49	-12.29
263.707	51.2
263.923	-18.43
264.139	69.63
264.355	51.2
264.571	36.86
264.787	-2.05
265.004	71.68
265.22	59.39
265.436	0
265.652	83.97
265.868	-30.72
266.084	55.3
266.3	63.49
266.516	8.19
266.732	151.55
266.948	18.43
267.164	-16.38
267.38	26.62
267.596	26.62
267.812	26.62
268.028	-4.1
268.244	32.77
268.46	55.3
268.676	53.25
268.892	34.82
269.108	32.77
269.324	0
269.54	36.86
269.756	-4.1
269.972	16.38
270.188	34.82
270.403	86.01
270.619	14.34
270.835	34.82
271.051	-20.48
271.267	6.14
271.483	110.59
271.698	-2.05
271.914	28.67
272.13	59.39
272.346	47.1
272.562	30.72
272.777	55.3
272.993	32.77
273.209	26.62
273.425	24.58
273.64	-30.72
273.856	-6.14
274.072	22.53
274.287	4.1
274.503	47.1
274.719	112.64
274.934	110.59
275.15	-16.38
275.366	-22.53
275.581	51.2
275.797	83.97
276.012	4.1
276.228	-26.62
276.444	79.87
276.659	100.35
276.875	0
277.09	67.58
277.306	59.39
277.521	20.48
277.737	-26.62
277.952	65.54
278.168	65.54
278.383	26.62
278.599	-65.54
278.814	55.3
279.03	-16.38
279.245	-26.62
279.461	94.21
279.676	90.11
279.892	-16.38
280.107	0
280.322	22.53
280.538	34.82
280.753	28.67
280.969	12.29
281.184	30.72
281.399	86.01
281.615	4.1
281.83	10.24
282.045	-16.38
282.26	-12.29
282.476	-28.67
282.691	14.34
282.906	18.43
283.122	24.58
283.337	51.2
283.552	24.58
283.767	32.77
283.983	174.08
284.198	-2.05
284.413	30.72
284.628	2.05
284.843	-4.1
285.058	28.67
285.274	65.54
285.489	-55.3
285.704	38.91
285.919	77.82
286.134	32.77
286.349	106.49
286.564	20.48
286.779	-8.19
286.995	-10.24
287.21	71.68
287.425	51.2
287.64	63.49
287.855	24.58
288.07	38.91
288.285	131.07
288.5	69.63
288.715	47.1
288.93	-36.86
289.145	47.1
289.36	34.82
289.575	75.77
289.79	61.44
290.004	28.67
290.219	51.2
290.434	92.16
290.649	75.77
290.864	-14.34
291.079	-14.34
291.294	26.62
291.509	6.14
291.724	20.48
291.938	28.67
292.153	55.3
292.368	20.48
292.583	94.21
292.798	16.38
293.012	30.72
293.227	2.05
293.442	77.82
293.657	24.58
293.871	16.38
294.086	51.2
294.301	47.1
294.516	-14.34
294.73	53.25
294.945	8.19
295.16	18.43
295.374	-75.77
295.589	55.3
295.804	55.3
296.018	43.01
296.233	51.2
296.447	45.06
296.662	38.91
296.877	73.73
297.091	79.87
297.306	81.92
297.52	6.14
297.735	-16.38
297.949	75.77
298.164	10.24
298.378	-20.48
298.593	40.96
298.807	55.3
299.022	-61.44
299.236	106.49
299.451	75.77
299.665	14.34
299.88	-10.24
300.094	36.86
300.309	-4.1
300.523	26.62
300.737	120.83
300.952	-4.1
301.166	86.01
301.381	12.29
301.595	-10.24
301.809	22.53
302.024	53.25
302.238	18.43
302.452	38.91
302.667	34.82
302.881	2.05
303.095	75.77
303.309	59.39
303.524	16.38
303.738	90.11
303.952	63.49
304.166	20.48
304.381	47.1
304.595	86.01
304.809	65.54
305.023	45.06
305.237	69.63
305.452	10.24
305.666	43.01
305.88	108.54
306.094	47.1
306.308	71.68
306.522	55.3
306.736	120.83
306.95	86.01
307.164	75.77
307.379	12.29
307.593	-10.24
307.807	71.68
308.021	90.11
308.235	65.54
308.449	38.91
308.663	36.86
308.877	75.77
309.091	-40.96
309.305	40.96
309.519	-24.58
309.733	18.43
309.947	2.05
310.161	112.64
310.374	20.48
310.588	81.92
310.802	-24.58
311.016	43.01
311.23	26.62
311.444	-8.19
311.658	32.77
311.872	96.25
312.085	2.05
312.299	92.16
312.513	4.1
312.727	-20.48
312.941	65.54
313.154	-20.48
313.368	77.82
313.582	61.44
313.796	24.58
314.009	81.92
314.223	-38.91
314.437	67.58
314.651	24.58
314.864	38.91
315.078	61.44
315.292	90.11
315.505	-43.01
315.719	92.16
315.933	63.49
316.146	88.06
316.36	34.82
316.573	10.24
316.787	86.01
317.001	71.68
317.214	12.29
317.428	36.86
317.641	4.1
317.855	-4.1
318.068	2.05
318.282	18.43
318.495	51.2
318.709	92.16
318.922	24.58
319.136	45.06
319.349	77.82
319.563	34.82
319.776	28.67
319.99	51.2
320.203	14.34
320.417	10.24
320.63	0
320.843	14.34
321.057	83.97
321.27	-2.05
321.483	-34.82
321.697	88.06
321.91	45.06
322.124	28.67
322.337	61.44
322.55	8.19
322.763	34.82
322.977	10.24
323.19	83.97
323.403	92.16
323.617	57.34
323.83	116.73
324.043	38.91
324.256	86.01
324.469	69.63
324.683	14.34
324.896	28.67
325.109	12.29
325.322	34.82
325.535	12.29
325.748	51.2
325.962	61.44
326.175	24.58
326.388	38.91
326.601	40.96
326.814	4.1
327.027	47.1
327.24	126.97
327.453	-28.67
327.666	8.19
327.879	86.01
328.092	28.67
328.305	75.77
328.518	-4.1
328.731	22.53
328.944	86.01
329.157	32.77
329.37	49.15
329.583	6.14
329.796	159.74
330.009	65.54
330.222	88.06
330.435	47.1
330.648	36.86
330.861	4.1
331.073	49.15
331.286	34.82
331.499	61.44
331.712	47.1
331.925	24.58
332.138	-16.38
332.35	18.43
332.563	53.25
332.776	55.3
332.989	-36.86
333.202	69.63
333.414	-18.43
333.627	61.44
333.84	83.97
334.053	-28.67
334.265	36.86
334.478	34.82
334.691	67.58
334.903	96.25
335.116	-14.34
335.329	57.34
335.541	51.2
335.754	43.01
335.966	-18.43
336.179	26.62
336.392	-14.34
336.604	61.44
336.817	59.39
337.029	61.44
337.242	-67.58
337.454	14.34
337.667	-16.38
337.88	38.91
338.092	43.01
338.305	-20.48
338.517	-10.24
338.729	-59.39
338.942	55.3
339.154	47.1
339.367	38.91
339.579	-30.72
339.792	-8.19
340.004	43.01
340.217	36.86
340.429	26.62
340.641	-18.43
340.854	71.68
341.066	94.21
341.278	26.62
341.491	81.92
341.703	40.96
341.915	32.77
342.128	22.53
342.34	40.96
342.552	-6.14
342.764	12.29
342.977	108.54
343.189	-20.48
343.401	98.3
343.613	2.05
343.826	88.06
344.038	63.49
344.25	61.44
344.462	36.86
344.674	49.15
344.886	92.16
345.099	120.83
345.311	149.5
345.523	81.92
345.735	51.2
345.947	16.38
346.159	-4.1
346.371	71.68
346.583	32.77
346.795	59.39
347.007	18.43
347.219	-30.72
347.431	-8.19
347.643	69.63
347.855	86.01
348.067	12.29
348.279	30.72
348.491	51.2
348.703	10.24
348.915	65.54
349.127	90.11
349.339	71.68
349.551	18.43
349.763	126.97
349.975	18.43
350.187	2.05
350.399	14.34
350.61	108.54
350.822	98.3
351.034	45.06
351.246	53.25
351.458	77.82
351.669	65.54
351.881	-22.53
352.093	51.2
352.305	4.1
352.517	36.86
352.728	22.53
352.94	-4.1
353.152	47.1
353.363	98.3
353.575	18.43
353.787	22.53
353.999	16.38
354.21	90.11
354.422	129.02
354.633	36.86
354.845	49.15
355.057	20.48
355.268	100.35
355.48	-26.62
355.692	40.96
355.903	-43.01
356.115	8.19
356.326	20.48
356.538	30.72
356.749	73.73
356.961	137.21
357.172	-16.38
357.384	59.39
357.595	38.91
357.807	34.82
358.018	83.97
358.23	49.15
358.441	118.78
358.653	12.29
358.864	22.53
359.075	-24.58
359.287	30.72
359.498	94.21
359.709	28.67
359.921	57.34
360.132	65.54
360.344	67.58
360.555	63.49
360.766	71.68
360.977	28.67
361.189	32.77
361.4	36.86
361.611	38.91
361.823	2.05
362.034	43.01
362.245	81.92
362.456	18.43
362.667	98.3
362.879	47.1
363.09	2.05
363.301	28.67
363.512	59.39
363.723	32.77
363.935	24.58
364.146	96.25
364.357	108.54
364.568	43.01
364.779	-20.48
364.99	106.49
365.201	47.1
365.412	102.4
365.623	174.08
365.834	59.39
366.045	83.97
366.256	114.69
366.467	57.34
366.678	34.82
366.889	38.91
367.1	71.68
367.311	112.64
367.522	-45.06
367.733	32.77
367.944	51.2
368.155	26.62
368.366	118.78
368.577	38.91
368.788	45.06
368.999	4.1
369.209	20.48
369.42	36.86
369.631	18.43
369.842	94.21
370.053	-53.25
370.264	98.3
370.474	-28.67
370.685	45.06
370.896	4.1
371.107	43.01
371.317	40.96
371.528	59.39
371.739	122.88
371.95	88.06
372.16	83.97
372.371	45.06
372.582	53.25
372.792	51.2
373.003	51.2
373.214	61.44
373.424	75.77
373.635	24.58
373.846	65.54
374.056	14.34
374.267	59.39
374.477	94.21
374.688	57.34
374.898	30.72
375.109	38.91
375.319	63.49
375.53	86.01
375.74	38.91
375.951	45.06
376.161	12.29
376.372	110.59
376.582	47.1
376.793	38.91
377.003	86.01
377.214	51.2
377.424	26.62
377.635	-6.14
377.845	36.86
378.055	112.64
378.266	-4.1
378.476	65.54
378.686	79.87
378.897	51.2
379.107	71.68
379.317	4.1
379.528	79.87
379.738	61.44
379.948	28.67
380.158	-8.19
380.369	-18.43
380.579	-47.1
380.789	32.77
380.999	34.82
381.21	65.54
381.42	55.3
381.63	8.19
381.84	129.02
382.05	47.1
382.261	16.38
382.471	67.58
382.681	28.67
382.891	75.77
383.101	-6.14
383.311	14.34
383.521	26.62
383.731	-53.25
383.941	59.39
384.151	65.54
384.361	30.72
384.571	30.72
384.781	59.39
384.991	47.1
385.201	-6.14
385.411	45.06
385.621	67.58
385.831	67.58
386.041	34.82
386.251	30.72
386.461	108.54
386.671	-30.72
386.881	2.05
387.091	45.06
387.301	30.72
387.511	-63.49
387.72	30.72
387.93	100.35
388.14	57.34
388.35	-28.67
388.56	77.82
388.769	-8.19
388.979	79.87
389.189	86.01
389.399	116.73
389.609	73.73
389.818	149.5
390.028	83.97
390.238	40.96
390.447	-2.05
390.657	61.44
390.867	137.21
391.076	26.62
391.286	57.34
391.496	6.14
391.705	137.21
391.915	45.06
392.125	96.25
392.334	-16.38
392.544	90.11
392.753	47.1
392.963	108.54
393.172	24.58
393.382	139.26
393.591	20.48
393.801	106.49
394.01	96.25
394.22	75.77
394.429	49.15
394.639	51.2
394.848	34.82
395.058	24.58
395.267	65.54
395.477	-4.1
395.686	61.44
395.895	129.02
396.105	108.54
396.314	61.44
396.524	81.92
396.733	73.73
396.942	77.82
397.152	12.29
397.361	55.3
397.57	94.21
397.78	22.53
397.989	-20.48
398.198	145.41
398.407	96.25
398.617	86.01
398.826	-2.05
399.035	110.59
399.244	43.01
399.453	110.59
399.663	55.3
399.872	57.34
400.081	51.2
400.29	92.16
400.499	57.34
400.708	141.31
400.917	153.6
401.127	120.83
401.336	61.44
401.545	124.93
401.754	108.54
401.963	114.69
402.172	-30.72
402.381	73.73
402.59	43.01
402.799	102.4
403.008	96.25
403.217	43.01
403.426	108.54
403.635	118.78
403.844	81.92
404.053	133.12
404.262	61.44
404.471	141.31
404.68	147.45
404.888	92.16
405.097	98.3
405.306	86.01
405.515	145.41
405.724	45.06
405.933	122.88
406.142	65.54
406.35	59.39
406.559	157.69
406.768	83.97
406.977	126.97
407.185	73.73
407.394	112.64
407.603	153.6
407.812	176.13
408.02	165.89
408.229	98.3
408.438	161.79
408.646	126.97
408.855	118.78
409.064	126.97
409.272	178.17
409.481	172.03
409.69	155.65
409.898	149.5
410.107	151.55
410.315	188.41
410.524	155.65
410.733	190.46
410.941	192.51
411.15	137.21
411.358	251.9
411.567	180.22
411.775	182.27
411.984	192.51
412.192	178.17
412.401	210.94
412.609	206.84
412.818	219.13
413.026	346.11
413.234	182.27
413.443	339.96
413.651	237.56
413.86	212.99
414.068	303.1
414.276	327.67
414.485	309.24
414.693	305.15
414.901	329.72
415.11	366.59
415.318	313.34
415.526	331.77
415.734	442.36
415.943	354.3
416.151	413.69
416.359	438.27
416.567	374.78
416.776	393.21
416.984	475.13
417.192	464.89
417.4	481.27
417.608	434.17
417.817	579.58
418.025	522.23
418.233	532.47
418.441	540.66
418.649	624.63
418.857	684.02
419.065	589.82
419.273	618.49
419.481	624.63
419.689	673.78
419.897	684.02
420.105	696.31
420.313	724.98
420.521	784.37
420.729	749.56
420.937	819.19
421.145	792.56
421.353	790.52
421.561	878.58
421.769	915.44
421.977	1030.13
422.185	911.35
422.393	1015.79
422.601	1069.04
422.809	1142.77
423.017	1128.43
423.224	1103.86
423.432	1136.62
423.64	1150.96
423.848	1294.32
424.056	1298.41
424.263	1222.64
424.471	1292.27
424.679	1372.14
424.887	1447.91
425.094	1464.3
425.302	1452.01
425.51	1492.97
425.718	1558.5
425.925	1437.67
426.133	1589.22
426.341	1632.23
426.548	1843.17
426.756	1755.11
426.964	1875.94
427.171	1888.23
427.379	2058.21
427.586	2033.63
427.794	2029.54
428.001	2207.71
428.209	2224.09
428.417	2228.19
428.624	2389.98
428.832	2308.06
429.039	2336.73
429.247	2314.2
429.454	2496.47
429.662	2764.76
429.869	2590.68
430.076	2772.95
430.284	2676.7
430.491	2768.85
430.699	3028.95
430.906	2885.59
431.114	2990.03
431.321	2969.55
431.528	3110.86
431.736	3241.93
431.943	3561.42
432.15	3426.25
432.358	3413.96
432.565	3571.66
432.772	3672.01
432.979	3758.02
433.187	3880.9
433.394	3792.84
433.601	4104.13
433.808	4097.99
434.016	4153.28
434.223	4220.86
434.43	4593.59
434.637	4360.13
434.844	4577.21
435.052	4751.29
435.259	4671.42
435.466	4804.53
435.673	4798.39
435.88	5179.31
436.087	5248.94
436.294	5412.78
436.501	5177.27
436.708	5341.1
436.915	5564.33
437.122	5756.84
437.329	5918.63
437.537	6016.93
437.743	5918.63
437.95	5885.86
438.157	6258.59
438.364	6528.92
438.571	6553.5
438.778	6447.01
438.985	7061.4
439.192	6891.41
439.399	7155.6
439.606	6737.82
439.813	7280.53
440.02	7876.49
440.227	7778.19
440.433	7569.29
440.64	7745.42
440.847	7593.87
441.054	7745.42
441.261	8378.24
441.467	8224.64
441.674	8638.33
441.881	8787.83
442.088	8832.89
442.294	8949.62
442.501	8943.48
442.708	9056.12
442.914	9326.45
443.121	9764.72
443.328	9494.38
443.534	10303.33
443.741	10106.73
443.948	9881.45
444.154	10655.58
444.361	10696.54
444.568	10542.94
444.774	10544.99
444.981	10633.05
445.187	10788.7
445.394	11280.21
445.6	11265.88
445.807	12240.71
446.013	11964.23
446.22	12007.24
446.426	12222.28
446.633	12693.31
446.839	13139.77
447.046	12715.84
447.252	13223.73
447.459	13080.38
447.665	13125.43
447.871	13518.64
448.078	14313.25
448.284	13731.63
448.491	14208.81
448.697	14491.43
448.903	14829.34
449.11	14812.96
449.316	14589.73
449.522	14841.63
449.728	15415.06
449.935	15441.68
450.141	15296.28
450.347	15800.08
450.553	15185.69
450.76	15507.22
450.966	16027.4
451.172	15636.24
451.378	16037.64
451.584	15556.37
451.791	16080.65
451.997	16066.31
452.203	16242.44
452.409	16258.82
452.615	16156.43
452.821	15855.37
453.027	15288.09
453.233	16191.24
453.44	15339.29
453.646	15810.32
453.852	15793.93
454.058	16049.93
454.264	15187.74
454.47	16025.36
454.676	15181.59
454.882	15886.09
455.088	14464.8
455.294	14858.01
455.5	14880.54
455.705	14946.08
455.911	14339.88
456.117	14110.5
456.323	13977.39
456.529	13066.04
456.735	13743.92
456.941	13182.77
457.147	13209.4
457.352	12414.79
457.558	12543.81
457.764	12592.96
457.97	12207.94
458.176	11990.86
458.381	12029.77
458.587	11421.52
458.793	11519.82
458.999	10786.65
459.204	11528.02
459.41	11446.1
459.616	10626.91
459.821	10776.41
460.027	10547.04
460.233	10348.39
460.438	9795.43
460.644	9969.51
460.85	9465.71
461.055	9475.95
461.261	9516.91
461.466	8685.44
461.672	8480.64
461.878	8861.56
462.083	8275.84
462.289	8353.66
462.494	8216.45
462.7	7827.34
462.905	7671.69
463.111	7849.86
463.316	7745.42
463.522	7819.14
463.727	7878.54
463.932	7778.19
464.138	7497.61
464.343	7712.65
464.549	7540.62
464.754	7845.77
464.959	7753.61
465.165	7833.48
465.37	7460.75
465.575	7231.38
465.781	7360.4
465.986	7499.66
466.191	7155.6
466.397	7155.6
466.602	6659.99
466.807	6938.52
467.012	7133.08
467.218	6977.43
467.423	6907.8
467.628	6922.13
467.833	7221.14
468.038	6930.33
468.244	6686.62
468.449	6807.45
468.654	6727.58
468.859	6776.73
469.064	6717.34
469.269	6545.31
469.474	6569.88
469.679	6680.47
469.885	6404
