Data from USB4F104151__0__13-51-55-928.txt Node

Date: Thu Mar 13 13:51:55 EDT 2025
User: louis
Spectrometer: USB4F10415
Trigger mode: 4
Integration Time (sec): 1.000000E-2
Scans to average: 1
Electric dark correction enabled: true
Nonlinearity correction enabled: false
Boxcar width: 0
XAxis mode: Wavelengths
Number of Pixels in Spectrum: 3648
>>>>>Begin Spectral Data<<<<<
178.204	-99.5
178.424	-99.5
178.644	-99.5
178.864	-117.93
179.084	-113.83
179.304	17.24
179.524	33.62
179.744	4.95
179.964	-31.91
180.184	-46.25
180.404	0.85
180.624	15.19
180.844	-1.19
181.064	-52.39
181.283	0.85
181.503	23.38
181.723	35.67
181.943	-29.87
182.163	80.72
182.383	29.52
182.602	21.33
182.822	33.62
183.042	-66.73
183.262	39.76
183.482	9.05
183.701	-1.19
183.921	-25.77
184.141	27.48
184.361	33.62
184.58	-21.67
184.8	-7.34
185.02	11.09
185.239	21.33
185.459	9.05
185.679	23.38
185.898	-1.19
186.118	-9.39
186.338	13.14
186.557	68.44
186.777	7
186.997	43.86
187.216	0.85
187.436	-7.34
187.655	41.81
187.875	-42.15
188.095	-9.39
188.314	29.52
188.534	31.57
188.753	-11.43
188.973	0.85
189.192	-5.29
189.412	-15.53
189.631	-1.19
189.851	-17.58
190.07	-23.72
190.29	-5.29
190.509	7
190.729	76.63
190.948	23.38
191.168	9.05
191.387	23.38
191.607	37.72
191.826	60.24
192.045	-46.25
192.265	70.48
192.484	52.05
192.704	-17.58
192.923	-9.39
193.142	19.29
193.362	58.2
193.581	-1.19
193.8	41.81
194.02	90.96
194.239	-19.63
194.458	-19.63
194.678	-21.67
194.897	29.52
195.116	-9.39
195.335	19.29
195.555	-25.77
195.774	27.48
195.993	60.24
196.212	-46.25
196.432	43.86
196.651	-38.06
196.87	17.24
197.089	4.95
197.308	-23.72
197.528	25.43
197.747	-40.11
197.966	9.05
198.185	35.67
198.404	56.15
198.623	-62.63
198.842	58.2
199.062	62.29
199.281	-19.63
199.5	-17.58
199.719	-7.34
199.938	-21.67
200.157	27.48
200.376	62.29
200.595	-23.72
200.814	-11.43
201.033	13.14
201.252	27.48
201.471	-31.91
201.69	27.48
201.909	19.29
202.128	27.48
202.347	19.29
202.566	19.29
202.785	-36.01
203.004	-9.39
203.223	31.57
203.442	-38.06
203.661	-46.25
203.879	-11.43
204.098	2.9
204.317	56.15
204.536	52.05
204.755	39.76
204.974	4.95
205.193	45.91
205.411	60.24
205.63	11.09
205.849	29.52
206.068	-5.29
206.287	11.09
206.505	19.29
206.724	-5.29
206.943	23.38
207.162	-15.53
207.381	31.57
207.599	-5.29
207.818	-48.3
208.037	62.29
208.255	-1.19
208.474	58.2
208.693	60.24
208.911	23.38
209.13	95.06
209.349	-25.77
209.567	-46.25
209.786	78.68
210.005	2.9
210.223	9.05
210.442	4.95
210.661	21.33
210.879	-50.35
211.098	-23.72
211.316	9.05
211.535	-56.49
211.753	0.85
211.972	41.81
212.191	13.14
212.409	35.67
212.628	-87.21
212.846	60.24
213.065	9.05
213.283	-33.96
213.502	-40.11
213.72	15.19
213.938	-9.39
214.157	11.09
214.375	47.96
214.594	21.33
214.812	19.29
215.031	-33.96
215.249	-50.35
215.467	29.52
215.686	-31.91
215.904	13.14
216.122	-33.96
216.341	47.96
216.559	39.76
216.778	47.96
216.996	25.43
217.214	-25.77
217.432	-48.3
217.651	66.39
217.869	31.57
218.087	-29.87
218.306	-50.35
218.524	60.24
218.742	-44.2
218.96	113.49
219.179	-46.25
219.397	39.76
219.615	13.14
219.833	-58.54
220.051	-68.78
220.27	95.06
220.488	29.52
220.706	4.95
220.924	9.05
221.142	2.9
221.36	35.67
221.578	66.39
221.796	-17.58
222.015	15.19
222.233	66.39
222.451	-23.72
222.669	-29.87
222.887	-3.24
223.105	-42.15
223.323	-46.25
223.541	-1.19
223.759	-29.87
223.977	68.44
224.195	56.15
224.413	23.38
224.631	-7.34
224.849	-3.24
225.067	33.62
225.285	68.44
225.503	29.52
225.721	0.85
225.939	37.72
226.157	39.76
226.375	4.95
226.592	-66.73
226.81	13.14
227.028	-13.48
227.246	52.05
227.464	68.44
227.682	-23.72
227.9	11.09
228.117	31.57
228.335	-11.43
228.553	-31.91
228.771	97.11
228.989	35.67
229.206	21.33
229.424	-11.43
229.642	-36.01
229.86	2.9
230.077	58.2
230.295	-15.53
230.513	-17.58
230.731	9.05
230.948	23.38
231.166	-19.63
231.384	11.09
231.601	72.53
231.819	-29.87
232.037	27.48
232.254	-36.01
232.472	-11.43
232.689	-38.06
232.907	50
233.125	74.58
233.342	-7.34
233.56	52.05
233.777	72.53
233.995	-15.53
234.213	58.2
234.43	-56.49
234.648	-5.29
234.865	11.09
235.083	25.43
235.3	29.52
235.518	-9.39
235.735	-150.7
235.953	17.24
236.17	11.09
236.388	54.1
236.605	-40.11
236.822	41.81
237.04	7
237.257	-9.39
237.475	47.96
237.692	-1.19
237.909	-15.53
238.127	47.96
238.344	21.33
238.562	50
238.779	52.05
238.996	41.81
239.214	7
239.431	-11.43
239.648	-5.29
239.865	-38.06
240.083	76.63
240.3	25.43
240.517	37.72
240.735	66.39
240.952	-50.35
241.169	-13.48
241.386	4.95
241.603	-11.43
241.821	13.14
242.038	15.19
242.255	31.57
242.472	-9.39
242.689	-9.39
242.907	88.92
243.124	-42.15
243.341	-42.15
243.558	-21.67
243.775	17.24
243.992	11.09
244.209	-60.59
244.426	-38.06
244.643	80.72
244.86	-33.96
245.078	29.52
245.295	41.81
245.512	99.16
245.729	2.9
245.946	35.67
246.163	-56.49
246.38	41.81
246.597	-29.87
246.814	33.62
247.031	-58.54
247.248	-54.44
247.464	56.15
247.681	21.33
247.898	58.2
248.115	-15.53
248.332	-23.72
248.549	-21.67
248.766	-27.82
248.983	39.76
249.2	-11.43
249.417	0.85
249.633	74.58
249.85	11.09
250.067	47.96
250.284	15.19
250.501	13.14
250.717	-3.24
250.934	21.33
251.151	9.05
251.368	27.48
251.585	21.33
251.801	43.86
252.018	29.52
252.235	-29.87
252.451	-62.63
252.668	-38.06
252.885	54.1
253.102	-29.87
253.318	9.05
253.535	-33.96
253.752	37.72
253.968	52.05
254.185	-68.78
254.401	43.86
254.618	64.34
254.835	-7.34
255.051	-3.24
255.268	-13.48
255.484	9.05
255.701	-36.01
255.917	43.86
256.134	-19.63
256.351	80.72
256.567	25.43
256.784	-66.73
257	-13.48
257.217	90.96
257.433	78.68
257.65	39.76
257.866	-1.19
258.082	-9.39
258.299	-13.48
258.515	-25.77
258.732	11.09
258.948	31.57
259.165	33.62
259.381	27.48
259.597	13.14
259.814	27.48
260.03	21.33
260.246	0.85
260.463	54.1
260.679	25.43
260.895	82.77
261.112	43.86
261.328	4.95
261.544	2.9
261.761	35.67
261.977	9.05
262.193	9.05
262.409	-9.39
262.626	43.86
262.842	15.19
263.058	2.9
263.274	0.85
263.49	-25.77
263.707	39.76
263.923	-11.43
264.139	-9.39
264.355	-48.3
264.571	50
264.787	31.57
265.004	7
265.22	54.1
265.436	-33.96
265.652	-17.58
265.868	27.48
266.084	-1.19
266.3	19.29
266.516	27.48
266.732	-40.11
266.948	2.9
267.164	101.2
267.38	21.33
267.596	39.76
267.812	25.43
268.028	23.38
268.244	45.91
268.46	66.39
268.676	9.05
268.892	4.95
269.108	-11.43
269.324	-19.63
269.54	-50.35
269.756	90.96
269.972	-1.19
270.188	13.14
270.403	-9.39
270.619	39.76
270.835	93.01
271.051	2.9
271.267	-91.31
271.483	17.24
271.698	2.9
271.914	37.72
272.13	29.52
272.346	-5.29
272.562	19.29
272.777	7
272.993	13.14
273.209	29.52
273.425	80.72
273.64	-40.11
273.856	70.48
274.072	4.95
274.287	-40.11
274.503	50
274.719	11.09
274.934	43.86
275.15	7
275.366	66.39
275.581	9.05
275.797	19.29
276.012	76.63
276.228	70.48
276.444	-50.35
276.659	-29.87
276.875	13.14
277.09	-9.39
277.306	9.05
277.521	-19.63
277.737	35.67
277.952	41.81
278.168	-21.67
278.383	-7.34
278.599	-5.29
278.814	9.05
279.03	-25.77
279.245	39.76
279.461	78.68
279.676	82.77
279.892	-15.53
280.107	-7.34
280.322	9.05
280.538	-25.77
280.753	19.29
280.969	-33.96
281.184	-9.39
281.399	23.38
281.615	-31.91
281.83	54.1
282.045	-7.34
282.26	93.01
282.476	-7.34
282.691	27.48
282.906	23.38
283.122	21.33
283.337	-48.3
283.552	74.58
283.767	60.24
283.983	-13.48
284.198	4.95
284.413	-23.72
284.628	33.62
284.843	27.48
285.058	35.67
285.274	25.43
285.489	-40.11
285.704	66.39
285.919	-1.19
286.134	41.81
286.349	37.72
286.564	-25.77
286.779	76.63
286.995	-9.39
287.21	-52.39
287.425	-5.29
287.64	-79.02
287.855	27.48
288.07	54.1
288.285	-17.58
288.5	68.44
288.715	27.48
288.93	74.58
289.145	11.09
289.36	-9.39
289.575	88.92
289.79	19.29
290.004	-3.24
290.219	21.33
290.434	39.76
290.649	-19.63
290.864	70.48
291.079	9.05
291.294	17.24
291.509	-33.96
291.724	109.4
291.938	-17.58
292.153	41.81
292.368	-33.96
292.583	43.86
292.798	52.05
293.012	58.2
293.227	43.86
293.442	27.48
293.657	33.62
293.871	-3.24
294.086	27.48
294.301	27.48
294.516	2.9
294.73	39.76
294.945	7
295.16	41.81
295.374	-5.29
295.589	-5.29
295.804	31.57
296.018	35.67
296.233	13.14
296.447	-19.63
296.662	0.85
296.877	-15.53
297.091	-21.67
297.306	60.24
297.52	7
297.735	84.82
297.949	-3.24
298.164	41.81
298.378	-36.01
298.593	31.57
298.807	52.05
299.022	52.05
299.236	29.52
299.451	52.05
299.665	35.67
299.88	37.72
300.094	33.62
300.309	19.29
300.523	-11.43
300.737	68.44
300.952	-7.34
301.166	58.2
301.381	47.96
301.595	-9.39
301.809	9.05
302.024	-38.06
302.238	-3.24
302.452	2.9
302.667	56.15
302.881	72.53
303.095	21.33
303.309	52.05
303.524	45.91
303.738	-1.19
303.952	-3.24
304.166	37.72
304.381	11.09
304.595	-27.82
304.809	58.2
305.023	25.43
305.237	9.05
305.452	-29.87
305.666	-60.59
305.88	68.44
306.094	27.48
306.308	35.67
306.522	35.67
306.736	88.92
306.95	-27.82
307.164	-33.96
307.379	-3.24
307.593	-21.67
307.807	35.67
308.021	-23.72
308.235	41.81
308.449	25.43
308.663	27.48
308.877	29.52
309.091	-5.29
309.305	39.76
309.519	-17.58
309.733	-17.58
309.947	-64.68
310.161	15.19
310.374	27.48
310.588	-42.15
310.802	2.9
311.016	103.25
311.23	21.33
311.444	54.1
311.658	-9.39
311.872	23.38
312.085	64.34
312.299	33.62
312.513	29.52
312.727	37.72
312.941	74.58
313.154	17.24
313.368	45.91
313.582	13.14
313.796	31.57
314.009	-52.39
314.223	62.29
314.437	19.29
314.651	33.62
314.864	7
315.078	2.9
315.292	23.38
315.505	-44.2
315.719	-48.3
315.933	29.52
316.146	-31.91
316.36	-1.19
316.573	68.44
316.787	4.95
317.001	-17.58
317.214	2.9
317.428	-5.29
317.641	-50.35
317.855	-27.82
318.068	-17.58
318.282	35.67
318.495	-23.72
318.709	41.81
318.922	43.86
319.136	29.52
319.349	76.63
319.563	23.38
319.776	23.38
319.99	37.72
320.203	109.4
320.417	-21.67
320.63	-27.82
320.843	43.86
321.057	4.95
321.27	37.72
321.483	-19.63
321.697	-31.91
321.91	-9.39
322.124	-17.58
322.337	13.14
322.55	17.24
322.763	54.1
322.977	62.29
323.19	-33.96
323.403	21.33
323.617	-46.25
323.83	60.24
324.043	95.06
324.256	80.72
324.469	39.76
324.683	52.05
324.896	9.05
325.109	7
325.322	-17.58
325.535	58.2
325.748	-1.19
325.962	45.91
326.175	33.62
326.388	0.85
326.601	58.2
326.814	-17.58
327.027	60.24
327.24	93.01
327.453	-58.54
327.666	99.16
327.879	47.96
328.092	64.34
328.305	17.24
328.518	52.05
328.731	76.63
328.944	9.05
329.157	19.29
329.37	-5.29
329.583	-52.39
329.796	52.05
330.009	-52.39
330.222	35.67
330.435	52.05
330.648	25.43
330.861	15.19
331.073	-23.72
331.286	35.67
331.499	-3.24
331.712	35.67
331.925	-27.82
332.138	-5.29
332.35	58.2
332.563	-13.48
332.776	33.62
332.989	-1.19
333.202	80.72
333.414	11.09
333.627	37.72
333.84	23.38
334.053	41.81
334.265	-74.92
334.478	7
334.691	-21.67
334.903	35.67
335.116	90.96
335.329	50
335.541	17.24
335.754	35.67
335.966	27.48
336.179	-21.67
336.392	62.29
336.604	31.57
336.817	-23.72
337.029	-5.29
337.242	37.72
337.454	35.67
337.667	4.95
337.88	-11.43
338.092	43.86
338.305	74.58
338.517	-27.82
338.729	35.67
338.942	15.19
339.154	23.38
339.367	9.05
339.579	-33.96
339.792	11.09
340.004	17.24
340.217	17.24
340.429	-29.87
340.641	-21.67
340.854	19.29
341.066	-58.54
341.278	-23.72
341.491	93.01
341.703	-21.67
341.915	9.05
342.128	88.92
342.34	-27.82
342.552	29.52
342.764	-27.82
342.977	56.15
343.189	25.43
343.401	47.96
343.613	62.29
343.826	7
344.038	-70.83
344.25	25.43
344.462	64.34
344.674	-23.72
344.886	-7.34
345.099	21.33
345.311	15.19
345.523	33.62
345.735	39.76
345.947	84.82
346.159	-48.3
346.371	52.05
346.583	45.91
346.795	50
347.007	37.72
347.219	99.16
347.431	-48.3
347.643	-17.58
347.855	13.14
348.067	-11.43
348.279	-17.58
348.491	-13.48
348.703	15.19
348.915	105.3
349.127	-52.39
349.339	99.16
349.551	23.38
349.763	4.95
349.975	15.19
350.187	50
350.399	-11.43
350.61	-29.87
350.822	21.33
351.034	60.24
351.246	9.05
351.458	23.38
351.669	50
351.881	21.33
352.093	29.52
352.305	56.15
352.517	19.29
352.728	19.29
352.94	82.77
353.152	37.72
353.363	2.9
353.575	56.15
353.787	41.81
353.999	84.82
354.21	-29.87
354.422	72.53
354.633	0.85
354.845	2.9
355.057	80.72
355.268	68.44
355.48	13.14
355.692	-13.48
355.903	31.57
356.115	31.57
356.326	9.05
356.538	37.72
356.749	4.95
356.961	13.14
357.172	45.91
357.384	99.16
357.595	-76.97
357.807	47.96
358.018	23.38
358.23	17.24
358.441	60.24
358.653	19.29
358.864	23.38
359.075	-33.96
359.287	84.82
359.498	31.57
359.709	23.38
359.921	31.57
360.132	-5.29
360.344	4.95
360.555	-13.48
360.766	52.05
360.977	23.38
361.189	35.67
361.4	-1.19
361.611	-23.72
361.823	50
362.034	2.9
362.245	31.57
362.456	39.76
362.667	-3.24
362.879	-56.49
363.09	-29.87
363.301	56.15
363.512	-38.06
363.723	15.19
363.935	-27.82
364.146	-21.67
364.357	74.58
364.568	27.48
364.779	-15.53
364.99	70.48
365.201	-29.87
365.412	39.76
365.623	7
365.834	33.62
366.045	70.48
366.256	62.29
366.467	68.44
366.678	95.06
366.889	9.05
367.1	50
367.311	13.14
367.522	33.62
367.733	45.91
367.944	62.29
368.155	21.33
368.366	39.76
368.577	37.72
368.788	47.96
368.999	86.87
369.209	27.48
369.42	80.72
369.631	29.52
369.842	103.25
370.053	60.24
370.264	-1.19
370.474	41.81
370.685	41.81
370.896	43.86
371.107	47.96
371.317	47.96
371.528	33.62
371.739	35.67
371.95	-54.44
372.16	72.53
372.371	97.11
372.582	52.05
372.792	33.62
373.003	27.48
373.214	31.57
373.424	4.95
373.635	54.1
373.846	17.24
374.056	-29.87
374.267	93.01
374.477	-38.06
374.688	29.52
374.898	-23.72
375.109	66.39
375.319	37.72
375.53	58.2
375.74	-29.87
375.951	82.77
376.161	109.4
376.372	74.58
376.582	72.53
376.793	-48.3
377.003	54.1
377.214	88.92
377.424	33.62
377.635	35.67
377.845	27.48
378.055	13.14
378.266	11.09
378.476	19.29
378.686	56.15
378.897	7
379.107	80.72
379.317	76.63
379.528	29.52
379.738	15.19
379.948	60.24
380.158	37.72
380.369	-38.06
380.579	56.15
380.789	58.2
380.999	113.49
381.21	76.63
381.42	78.68
381.63	33.62
381.84	50
382.05	39.76
382.261	50
382.471	62.29
382.681	68.44
382.891	29.52
383.101	9.05
383.311	-17.58
383.521	86.87
383.731	35.67
383.941	58.2
384.151	-21.67
384.361	78.68
384.571	-33.96
384.781	-19.63
384.991	121.68
385.201	76.63
385.411	58.2
385.621	119.64
385.831	64.34
386.041	54.1
386.251	45.91
386.461	80.72
386.671	82.77
386.881	-9.39
387.091	50
387.301	21.33
387.511	60.24
387.72	95.06
387.93	70.48
388.14	47.96
388.35	4.95
388.56	-23.72
388.769	39.76
388.979	43.86
389.189	84.82
389.399	-27.82
389.609	68.44
389.818	31.57
390.028	66.39
390.238	64.34
390.447	41.81
390.657	-27.82
390.867	4.95
391.076	-42.15
391.286	15.19
391.496	68.44
391.705	93.01
391.915	121.68
392.125	-1.19
392.334	101.2
392.544	64.34
392.753	78.68
392.963	84.82
393.172	47.96
393.382	41.81
393.591	60.24
393.801	50
394.01	52.05
394.22	119.64
394.429	62.29
394.639	95.06
394.848	72.53
395.058	72.53
395.267	72.53
395.477	13.14
395.686	64.34
395.895	-21.67
396.105	103.25
396.314	82.77
396.524	72.53
396.733	62.29
396.942	35.67
397.152	97.11
397.361	62.29
397.57	86.87
397.78	56.15
397.989	23.38
398.198	29.52
398.407	23.38
398.617	74.58
398.826	23.38
399.035	93.01
399.244	41.81
399.453	70.48
399.663	39.76
399.872	117.59
400.081	84.82
400.29	101.2
400.499	13.14
400.708	99.16
400.917	68.44
401.127	88.92
401.336	25.43
401.545	41.81
401.754	103.25
401.963	107.35
402.172	90.96
402.381	56.15
402.59	152.4
402.799	37.72
403.008	95.06
403.217	156.5
403.426	93.01
403.635	156.5
403.844	11.09
404.053	103.25
404.262	136.02
404.471	144.21
404.68	103.25
404.888	109.4
405.097	111.44
405.306	170.83
405.515	150.36
405.724	95.06
405.933	179.03
406.142	142.16
406.35	97.11
406.559	185.17
406.768	105.3
406.977	125.78
407.185	162.64
407.394	133.97
407.603	219.99
407.812	119.64
408.02	172.88
408.229	119.64
408.438	193.36
408.646	154.45
408.855	199.51
409.064	183.12
409.272	224.08
409.481	228.18
409.69	197.46
409.898	207.7
410.107	242.51
410.315	230.23
410.524	291.66
410.733	265.04
410.941	267.09
411.15	289.62
411.358	246.61
411.567	334.67
411.775	283.47
411.984	248.66
412.192	330.58
412.401	361.3
412.609	373.58
412.818	445.26
413.026	398.16
413.234	414.54
413.443	439.12
413.651	371.54
413.86	412.5
414.068	535.37
414.276	473.93
414.485	500.56
414.693	459.6
414.901	602.96
415.11	516.94
415.318	555.85
415.526	641.87
415.734	615.24
415.943	691.02
416.151	658.25
416.359	648.01
416.567	676.68
416.776	791.37
416.984	799.56
417.192	766.79
417.4	820.04
417.608	834.38
417.817	838.47
418.025	854.86
418.233	875.34
418.441	963.4
418.649	1049.41
418.857	1024.84
419.065	1145.67
419.273	1030.98
419.481	1123.14
419.689	1139.52
419.897	1248.07
420.105	1243.97
420.313	1250.11
420.521	1274.69
420.729	1372.99
420.937	1442.62
421.145	1379.14
421.353	1516.35
421.561	1542.97
421.769	1575.74
421.977	1624.89
422.185	1651.52
422.393	1659.71
422.601	1893.18
422.809	1966.9
423.017	1946.42
423.224	1993.53
423.432	2067.25
423.64	2165.56
423.848	2272.05
424.056	2183.99
424.263	2415.41
424.471	2409.26
424.679	2382.64
424.887	2468.66
425.094	2476.85
425.302	2532.14
425.51	2679.6
425.718	2669.36
425.925	2857.77
426.133	2861.87
426.341	3062.57
426.548	3126.05
426.756	3293.99
426.964	3283.75
427.171	3394.34
427.379	3486.5
427.586	3603.23
427.794	3816.22
428.001	3828.51
428.209	4070.17
428.417	3920.67
428.624	4240.15
428.832	4215.57
429.039	4170.52
429.247	4234
429.454	4707.09
429.662	4907.79
429.869	4610.83
430.076	5032.71
430.284	4864.78
430.491	5004.04
430.699	5354.24
430.906	5362.44
431.114	5464.83
431.321	5638.91
431.528	5722.88
431.736	6077.18
431.943	6376.18
432.15	6322.93
432.358	6247.16
432.565	6468.34
432.772	6568.69
432.979	6943.47
433.187	7076.59
433.394	7019.24
433.601	7445.22
433.808	7363.3
434.016	7539.43
434.223	7815.9
434.43	8372.95
434.637	8278.74
434.844	8458.96
435.052	8850.13
435.259	8846.03
435.466	8870.61
435.673	8819.41
435.88	9454.28
436.087	9755.33
436.294	9796.29
436.501	9521.86
436.708	9820.86
436.915	10111.68
437.122	10730.16
437.329	10541.75
437.537	10967.73
437.743	10957.49
437.95	11088.56
438.157	11760.29
438.364	11895.46
438.571	11899.55
438.778	11858.59
438.985	13124.24
439.192	12757.65
439.399	12872.34
439.606	12677.78
439.813	13462.15
440.02	14256.76
440.227	14103.17
440.433	13773.44
440.64	14551.67
440.847	14353.02
441.054	14873.2
441.261	15524.46
441.467	15178.35
441.674	15655.53
441.881	16284.25
442.088	16042.59
442.294	16249.44
442.501	16210.53
442.708	17181.26
442.914	17424.97
443.121	18127.42
443.328	17719.88
443.534	18704.95
443.741	18725.43
443.948	18188.86
444.154	19452.46
444.361	19546.67
444.568	19440.17
444.774	19630.63
444.981	19556.91
445.187	20312.61
445.394	21406.22
445.6	20986.39
445.807	23024.12
446.013	22157.83
446.22	22766.07
446.426	23456.24
446.633	23472.62
446.839	24236.52
447.046	23407.09
447.252	24621.53
447.459	24715.74
447.665	24377.83
447.871	25305.56
448.078	26814.91
448.284	25360.85
448.491	26341.83
448.697	27036.09
448.903	27357.62
449.11	27505.07
449.316	26915.26
449.522	27857.32
449.728	28154.28
449.935	28719.52
450.141	28488.1
450.347	29059.48
450.553	28264.87
450.76	28383.65
450.966	29426.07
451.172	29196.7
451.378	29886.86
451.584	29342.1
451.791	30075.27
451.997	29987.21
452.203	30343.56
452.409	30364.04
452.615	30331.27
452.821	28987.8
453.027	28916.12
453.233	30605.7
453.44	29004.19
453.646	29419.92
453.852	29344.15
454.058	29897.1
454.264	29151.64
454.47	29704.59
454.676	28942.75
454.882	29741.46
455.088	27312.56
455.294	27822.51
455.5	28041.64
455.705	28332.45
455.911	27204.02
456.117	26485.19
456.323	26243.52
456.529	24797.66
456.735	25823.69
456.941	25221.59
457.147	24904.15
457.352	24142.31
457.558	23650.8
457.764	23771.63
457.97	23177.72
458.176	22622.72
458.381	22768.12
458.587	21750.28
458.793	21740.04
458.999	20558.36
459.204	21760.52
459.41	21336.59
459.616	20023.84
459.821	19878.44
460.027	19690.02
460.233	19411.5
460.438	18235.97
460.644	18799.16
460.85	17861.19
461.055	17668.68
461.261	17465.93
461.466	16116.32
461.672	15700.58
461.878	17019.47
462.083	16089.7
462.289	15491.69
462.494	15327.85
462.7	14654.07
462.905	14224
463.111	14838.39
463.316	14678.65
463.522	14533.24
463.727	14228.09
463.932	14393.98
464.138	14490.23
464.343	14434.94
464.549	14004.86
464.754	14434.94
464.959	14228.09
465.165	14348.92
465.37	13652.61
465.575	13359.75
465.781	13712
465.986	13953.66
466.191	13456.01
466.397	13111.95
466.602	12720.79
466.807	12894.86
467.012	12874.38
467.218	12892.82
467.423	12671.64
467.628	12753.55
467.833	13527.69
468.038	12921.49
468.244	12552.85
