Data from USB4F104151__280__14-02-26-018.txt Node

Date: Thu Mar 13 14:02:26 EDT 2025
User: louis
Spectrometer: USB4F10415
Trigger mode: 4
Integration Time (sec): 1.000000E-2
Scans to average: 1
Electric dark correction enabled: true
Nonlinearity correction enabled: false
Boxcar width: 0
XAxis mode: Wavelengths
Number of Pixels in Spectrum: 3648
>>>>>Begin Spectral Data<<<<<
178.204	-63.66
178.424	-63.66
178.644	-63.66
178.864	-106.67
179.084	-61.61
179.304	16.21
179.524	44.88
179.744	1.88
179.964	8.02
180.184	-18.6
180.404	-43.18
180.624	12.12
180.844	10.07
181.064	-30.89
181.283	44.88
181.503	-20.65
181.723	-24.75
181.943	5.97
182.163	46.93
182.383	10.07
182.602	59.22
182.822	24.4
183.042	-2.22
183.262	48.98
183.482	104.28
183.701	38.74
183.921	69.46
184.141	-0.17
184.361	-8.36
184.58	65.36
184.8	46.93
185.02	18.26
185.239	22.36
185.459	38.74
185.679	67.41
185.898	34.64
186.118	34.64
186.338	77.65
186.557	-0.17
186.777	3.93
186.997	38.74
187.216	1.88
187.436	5.97
187.655	-34.99
187.875	8.02
188.095	12.12
188.314	42.84
188.534	30.55
188.753	36.69
188.973	-55.47
189.192	59.22
189.412	112.47
189.631	8.02
189.851	-2.22
190.07	5.97
190.29	34.64
190.509	5.97
190.729	32.6
190.948	3.93
191.168	59.22
191.387	44.88
191.607	38.74
191.826	46.93
192.045	5.97
192.265	3.93
192.484	10.07
192.704	28.5
192.923	-2.22
193.142	48.98
193.362	-12.46
193.581	-6.31
193.8	-22.7
194.02	28.5
194.239	-26.79
194.458	18.26
194.678	24.4
194.897	42.84
195.116	-63.66
195.335	69.46
195.555	-4.27
195.774	65.36
195.993	53.08
196.212	46.93
196.432	67.41
196.651	42.84
196.87	-32.94
197.089	42.84
197.308	71.51
197.528	12.12
197.747	-30.89
197.966	77.65
198.185	61.27
198.404	-10.41
198.623	83.8
198.842	14.17
199.062	51.03
199.281	67.41
199.5	53.08
199.719	20.31
199.938	57.17
200.157	5.97
200.376	65.36
200.595	26.45
200.814	18.26
201.033	73.56
201.252	71.51
201.471	-51.37
201.69	-2.22
201.909	-18.6
202.128	3.93
202.347	16.21
202.566	75.6
202.785	30.55
203.004	26.45
203.223	63.32
203.442	91.99
203.661	77.65
203.879	12.12
204.098	10.07
204.317	-28.84
204.536	94.04
204.755	34.64
204.974	81.75
205.193	-10.41
205.411	20.31
205.63	8.02
205.849	69.46
206.068	10.07
206.287	18.26
206.505	98.13
206.724	71.51
206.943	10.07
207.162	-51.37
207.381	3.93
207.599	69.46
207.818	5.97
208.037	3.93
208.255	83.8
208.474	63.32
208.693	71.51
208.911	59.22
209.13	55.12
209.349	75.6
209.567	-4.27
209.786	-30.89
210.005	18.26
210.223	34.64
210.442	108.37
210.661	44.88
210.879	24.4
211.098	42.84
211.316	3.93
211.535	96.08
211.753	18.26
211.972	98.13
212.191	38.74
212.409	16.21
212.628	71.51
212.846	-53.42
213.065	36.69
213.283	42.84
213.502	-12.46
213.72	38.74
213.938	1.88
214.157	100.18
214.375	53.08
214.594	-30.89
214.812	-0.17
215.031	40.79
215.249	34.64
215.467	-39.08
215.686	22.36
215.904	75.6
216.122	-39.08
216.341	26.45
216.559	5.97
216.778	-34.99
216.996	38.74
217.214	44.88
217.432	-37.03
217.651	83.8
217.869	44.88
218.087	3.93
218.306	57.17
218.524	91.99
218.742	32.6
218.96	-20.65
219.179	3.93
219.397	71.51
219.615	59.22
219.833	22.36
220.051	38.74
220.27	77.65
220.488	26.45
220.706	118.61
220.924	32.6
221.142	42.84
221.36	108.37
221.578	34.64
221.796	-63.66
222.015	44.88
222.233	1.88
222.451	-12.46
222.669	-22.7
222.887	48.98
223.105	48.98
223.323	12.12
223.541	59.22
223.759	26.45
223.977	59.22
224.195	67.41
224.413	42.84
224.631	59.22
224.849	57.17
225.067	71.51
225.285	44.88
225.503	-22.7
225.721	3.93
225.939	38.74
226.157	87.89
226.375	85.84
226.592	26.45
226.81	36.69
227.028	1.88
227.246	12.12
227.464	-6.31
227.682	28.5
227.9	44.88
228.117	94.04
228.335	-24.75
228.553	44.88
228.771	59.22
228.989	28.5
229.206	40.79
229.424	34.64
229.642	36.69
229.86	77.65
230.077	12.12
230.295	5.97
230.513	3.93
230.731	28.5
230.948	26.45
231.166	51.03
231.384	40.79
231.601	-39.08
231.819	67.41
232.037	-30.89
232.254	8.02
232.472	59.22
232.689	-20.65
232.907	18.26
233.125	46.93
233.342	22.36
233.56	26.45
233.777	22.36
233.995	14.17
234.213	75.6
234.43	14.17
234.648	10.07
234.865	-4.27
235.083	71.51
235.3	5.97
235.518	36.69
235.735	14.17
235.953	12.12
236.17	-34.99
236.388	-24.75
236.605	-20.65
236.822	-47.27
237.04	135
237.257	36.69
237.475	-53.42
237.692	18.26
237.909	42.84
238.127	36.69
238.344	91.99
238.562	67.41
238.779	42.84
238.996	-26.79
239.214	87.89
239.431	87.89
239.648	-4.27
239.865	51.03
240.083	-61.61
240.3	28.5
240.517	1.88
240.735	61.27
240.952	71.51
241.169	79.7
241.386	69.46
241.603	-14.51
241.821	53.08
242.038	91.99
242.255	81.75
242.472	83.8
242.689	46.93
242.907	108.37
243.124	34.64
243.341	36.69
243.558	18.26
243.775	1.88
243.992	10.07
244.209	83.8
244.426	26.45
244.643	-10.41
244.86	53.08
245.078	91.99
245.295	71.51
245.512	51.03
245.729	36.69
245.946	34.64
246.163	36.69
246.38	46.93
246.597	1.88
246.814	28.5
247.031	-57.51
247.248	75.6
247.464	34.64
247.681	42.84
247.898	65.36
248.115	44.88
248.332	26.45
248.549	65.36
248.766	22.36
248.983	28.5
249.2	38.74
249.417	36.69
249.633	-14.51
249.85	71.51
250.067	-18.6
250.284	26.45
250.501	71.51
250.717	94.04
250.934	67.41
251.151	51.03
251.368	-6.31
251.585	12.12
251.801	26.45
252.018	16.21
252.235	46.93
252.451	34.64
252.668	-6.31
252.885	5.97
253.102	96.08
253.318	79.7
253.535	32.6
253.752	-14.51
253.968	26.45
254.185	16.21
254.401	18.26
254.618	57.17
254.835	71.51
255.051	18.26
255.268	61.27
255.484	55.12
255.701	48.98
255.917	36.69
256.134	-20.65
256.351	18.26
256.567	67.41
256.784	53.08
257	-8.36
257.217	-10.41
257.433	-28.84
257.65	42.84
257.866	83.8
258.082	30.55
258.299	10.07
258.515	-8.36
258.732	59.22
258.948	34.64
259.165	55.12
259.381	14.17
259.597	32.6
259.814	18.26
260.03	42.84
260.246	30.55
260.463	-6.31
260.679	-22.7
260.895	28.5
261.112	38.74
261.328	40.79
261.544	12.12
261.761	42.84
261.977	112.47
262.193	26.45
262.409	89.94
262.626	48.98
262.842	100.18
263.058	44.88
263.274	38.74
263.49	38.74
263.707	59.22
263.923	59.22
264.139	1.88
264.355	34.64
264.571	48.98
264.787	77.65
265.004	12.12
265.22	75.6
265.436	51.03
265.652	16.21
265.868	18.26
266.084	46.93
266.3	59.22
266.516	38.74
266.732	36.69
266.948	-2.22
267.164	14.17
267.38	48.98
267.596	-12.46
267.812	61.27
268.028	67.41
268.244	12.12
268.46	18.26
268.676	18.26
268.892	48.98
269.108	42.84
269.324	-20.65
269.54	16.21
269.756	3.93
269.972	57.17
270.188	-22.7
270.403	-14.51
270.619	42.84
270.835	42.84
271.051	77.65
271.267	-4.27
271.483	91.99
271.698	1.88
271.914	59.22
272.13	44.88
272.346	-0.17
272.562	61.27
272.777	16.21
272.993	71.51
273.209	59.22
273.425	5.97
273.64	69.46
273.856	73.56
274.072	87.89
274.287	-4.27
274.503	-28.84
274.719	44.88
274.934	40.79
275.15	8.02
275.366	14.17
275.581	18.26
275.797	91.99
276.012	34.64
276.228	112.47
276.444	83.8
276.659	10.07
276.875	63.32
277.09	22.36
277.306	12.12
277.521	63.32
277.737	51.03
277.952	77.65
278.168	3.93
278.383	83.8
278.599	-0.17
278.814	63.32
279.03	40.79
279.245	26.45
279.461	26.45
279.676	42.84
279.892	-24.75
280.107	51.03
280.322	16.21
280.538	67.41
280.753	-14.51
280.969	-4.27
281.184	102.23
281.399	46.93
281.615	36.69
281.83	18.26
282.045	-6.31
282.26	100.18
282.476	-20.65
282.691	-22.7
282.906	-37.03
283.122	26.45
283.337	87.89
283.552	91.99
283.767	26.45
283.983	112.47
284.198	-32.94
284.413	91.99
284.628	5.97
284.843	44.88
285.058	28.5
285.274	73.56
285.489	51.03
285.704	73.56
285.919	-4.27
286.134	-59.56
286.349	87.89
286.564	59.22
286.779	79.7
286.995	57.17
287.21	-6.31
287.425	44.88
287.64	53.08
287.855	12.12
288.07	116.56
288.285	10.07
288.5	-26.79
288.715	55.12
288.93	20.31
289.145	94.04
289.36	12.12
289.575	22.36
289.79	18.26
290.004	-69.8
290.219	38.74
290.434	57.17
290.649	40.79
290.864	38.74
291.079	-24.75
291.294	69.46
291.509	118.61
291.724	79.7
291.938	34.64
292.153	18.26
292.368	12.12
292.583	-28.84
292.798	8.02
293.012	38.74
293.227	61.27
293.442	55.12
293.657	30.55
293.871	108.37
294.086	5.97
294.301	108.37
294.516	59.22
294.73	34.64
294.945	67.41
295.16	51.03
295.374	12.12
295.589	30.55
295.804	36.69
296.018	48.98
296.233	63.32
296.447	42.84
296.662	1.88
296.877	-16.55
297.091	28.5
297.306	34.64
297.52	34.64
297.735	10.07
297.949	14.17
298.164	24.4
298.378	-34.99
298.593	-30.89
298.807	-2.22
299.022	38.74
299.236	79.7
299.451	98.13
299.665	110.42
299.88	77.65
300.094	69.46
300.309	20.31
300.523	20.31
300.737	20.31
300.952	38.74
301.166	46.93
301.381	-51.37
301.595	12.12
301.809	-59.56
302.024	-37.03
302.238	20.31
302.452	10.07
302.667	34.64
302.881	42.84
303.095	44.88
303.309	63.32
303.524	77.65
303.738	53.08
303.952	-10.41
304.166	-22.7
304.381	65.36
304.595	20.31
304.809	-14.51
305.023	71.51
305.237	44.88
305.452	-12.46
305.666	55.12
305.88	108.37
306.094	73.56
306.308	81.75
306.522	73.56
306.736	18.26
306.95	-12.46
307.164	10.07
307.379	8.02
307.593	63.32
307.807	-0.17
308.021	51.03
308.235	-61.61
308.449	10.07
308.663	79.7
308.877	14.17
309.091	-10.41
309.305	-2.22
309.519	16.21
309.733	30.55
309.947	-69.8
310.161	69.46
310.374	44.88
310.588	36.69
310.802	-2.22
311.016	14.17
311.23	20.31
311.444	26.45
311.658	24.4
311.872	44.88
312.085	75.6
312.299	124.76
312.513	8.02
312.727	94.04
312.941	-0.17
313.154	30.55
313.368	34.64
313.582	77.65
313.796	100.18
314.009	61.27
314.223	40.79
314.437	83.8
314.651	71.51
314.864	53.08
315.078	42.84
315.292	20.31
315.505	108.37
315.719	46.93
315.933	59.22
316.146	38.74
316.36	42.84
316.573	71.51
316.787	28.5
317.001	55.12
317.214	79.7
317.428	44.88
317.641	28.5
317.855	67.41
318.068	40.79
318.282	22.36
318.495	61.27
318.709	10.07
318.922	20.31
319.136	34.64
319.349	34.64
319.563	-2.22
319.776	18.26
319.99	46.93
320.203	-28.84
320.417	81.75
320.63	51.03
320.843	91.99
321.057	42.84
321.27	48.98
321.483	26.45
321.697	83.8
321.91	79.7
322.124	34.64
322.337	-14.51
322.55	81.75
322.763	-37.03
322.977	3.93
323.19	42.84
323.403	34.64
323.617	1.88
323.83	18.26
324.043	73.56
324.256	69.46
324.469	114.52
324.683	34.64
324.896	61.27
325.109	128.85
325.322	14.17
325.535	28.5
325.748	10.07
325.962	67.41
326.175	42.84
326.388	28.5
326.601	59.22
326.814	24.4
327.027	28.5
327.24	36.69
327.453	-8.36
327.666	143.19
327.879	73.56
328.092	79.7
328.305	46.93
328.518	67.41
328.731	44.88
328.944	59.22
329.157	38.74
329.37	-10.41
329.583	53.08
329.796	77.65
330.009	-22.7
330.222	53.08
330.435	34.64
330.648	20.31
330.861	83.8
331.073	51.03
331.286	-26.79
331.499	89.94
331.712	14.17
331.925	77.65
332.138	51.03
332.35	63.32
332.563	40.79
332.776	24.4
332.989	10.07
333.202	55.12
333.414	36.69
333.627	-32.94
333.84	-4.27
334.053	63.32
334.265	40.79
334.478	51.03
334.691	75.6
334.903	77.65
335.116	96.08
335.329	36.69
335.541	-30.89
335.754	10.07
335.966	36.69
336.179	-51.37
336.392	73.56
336.604	30.55
336.817	-18.6
337.029	79.7
337.242	26.45
337.454	57.17
337.667	-2.22
337.88	55.12
338.092	-2.22
338.305	-12.46
338.517	77.65
338.729	96.08
338.942	63.32
339.154	69.46
339.367	48.98
339.579	-30.89
339.792	36.69
340.004	85.84
340.217	1.88
340.429	51.03
340.641	63.32
340.854	55.12
341.066	5.97
341.278	63.32
341.491	36.69
341.703	83.8
341.915	91.99
342.128	28.5
342.34	26.45
342.552	30.55
342.764	-22.7
342.977	51.03
343.189	91.99
343.401	59.22
343.613	-28.84
343.826	124.76
344.038	8.02
344.25	20.31
344.462	108.37
344.674	26.45
344.886	-26.79
345.099	130.9
345.311	20.31
345.523	22.36
345.735	104.28
345.947	38.74
346.159	-53.42
346.371	53.08
346.583	85.84
346.795	96.08
347.007	-22.7
347.219	81.75
347.431	61.27
347.643	100.18
347.855	55.12
348.067	96.08
348.279	5.97
348.491	120.66
348.703	42.84
348.915	5.97
349.127	5.97
349.339	83.8
349.551	69.46
349.763	75.6
349.975	48.98
350.187	77.65
350.399	57.17
350.61	89.94
350.822	5.97
351.034	30.55
351.246	79.7
351.458	126.8
351.669	120.66
351.881	61.27
352.093	18.26
352.305	63.32
352.517	42.84
352.728	67.41
352.94	46.93
353.152	12.12
353.363	36.69
353.575	-22.7
353.787	3.93
353.999	83.8
354.21	91.99
354.422	69.46
354.633	16.21
354.845	3.93
355.057	-30.89
355.268	40.79
355.48	-14.51
355.692	-6.31
355.903	51.03
356.115	42.84
356.326	34.64
356.538	135
356.749	44.88
356.961	65.36
357.172	87.89
357.384	26.45
357.595	55.12
357.807	79.7
358.018	40.79
358.23	51.03
358.441	106.32
358.653	110.42
358.864	1.88
359.075	42.84
359.287	51.03
359.498	75.6
359.709	55.12
359.921	26.45
360.132	-43.18
360.344	83.8
360.555	38.74
360.766	44.88
360.977	63.32
361.189	118.61
361.4	147.28
361.611	75.6
361.823	59.22
362.034	24.4
362.245	91.99
362.456	-26.79
362.667	69.46
362.879	61.27
363.09	55.12
363.301	75.6
363.512	67.41
363.723	51.03
363.935	46.93
364.146	46.93
364.357	40.79
364.568	12.12
364.779	42.84
364.99	73.56
365.201	67.41
365.412	63.32
365.623	-6.31
365.834	20.31
366.045	61.27
366.256	102.23
366.467	12.12
366.678	22.36
366.889	59.22
367.1	12.12
367.311	44.88
367.522	51.03
367.733	10.07
367.944	91.99
368.155	57.17
368.366	77.65
368.577	-10.41
368.788	63.32
368.999	59.22
369.209	69.46
369.42	75.6
369.631	38.74
369.842	44.88
370.053	44.88
370.264	-37.03
370.474	26.45
370.685	71.51
370.896	14.17
371.107	104.28
371.317	128.85
371.528	28.5
371.739	26.45
371.95	12.12
372.16	42.84
372.371	-0.17
372.582	83.8
372.792	34.64
373.003	63.32
373.214	51.03
373.424	71.51
373.635	14.17
373.846	91.99
374.056	42.84
374.267	77.65
374.477	104.28
374.688	26.45
374.898	118.61
375.109	28.5
375.319	96.08
375.53	108.37
375.74	-0.17
375.951	44.88
376.161	59.22
376.372	87.89
376.582	1.88
376.793	42.84
377.003	36.69
377.214	75.6
377.424	77.65
377.635	91.99
377.845	46.93
378.055	100.18
378.266	124.76
378.476	3.93
378.686	59.22
378.897	51.03
379.107	89.94
379.317	30.55
379.528	104.28
379.738	145.24
379.948	46.93
380.158	63.32
380.369	20.31
380.579	135
380.789	91.99
380.999	34.64
381.21	46.93
381.42	124.76
381.63	22.36
381.84	44.88
382.05	5.97
382.261	91.99
382.471	106.32
382.681	75.6
382.891	14.17
383.101	16.21
383.311	8.02
383.521	65.36
383.731	22.36
383.941	55.12
384.151	38.74
384.361	44.88
384.571	69.46
384.781	100.18
384.991	83.8
385.201	-4.27
385.411	59.22
385.621	30.55
385.831	69.46
386.041	51.03
386.251	34.64
386.461	53.08
386.671	65.36
386.881	108.37
387.091	14.17
387.301	102.23
387.511	102.23
387.72	83.8
387.93	-14.51
388.14	12.12
388.35	75.6
388.56	30.55
388.769	-0.17
388.979	96.08
389.189	36.69
389.399	59.22
389.609	102.23
389.818	-24.75
390.028	46.93
390.238	135
390.447	48.98
390.657	61.27
390.867	91.99
391.076	81.75
391.286	81.75
391.496	36.69
391.705	59.22
391.915	159.57
392.125	94.04
392.334	24.4
392.544	120.66
392.753	67.41
392.963	55.12
393.172	36.69
393.382	85.84
393.591	106.32
393.801	32.6
394.01	126.8
394.22	141.14
394.429	79.7
394.639	102.23
394.848	77.65
395.058	61.27
395.267	55.12
395.477	100.18
395.686	28.5
395.895	91.99
396.105	59.22
396.314	55.12
396.524	96.08
396.733	132.95
396.942	106.32
397.152	34.64
397.361	159.57
397.57	81.75
397.78	77.65
397.989	116.56
398.198	120.66
398.407	63.32
398.617	165.71
398.826	81.75
399.035	71.51
399.244	94.04
399.453	157.52
399.663	71.51
399.872	182.1
400.081	1.88
400.29	61.27
400.499	69.46
400.708	108.37
400.917	61.27
401.127	55.12
401.336	40.79
401.545	149.33
401.754	132.95
401.963	100.18
402.172	42.84
402.381	81.75
402.59	132.95
402.799	135
403.008	124.76
403.217	118.61
403.426	112.47
403.635	149.33
403.844	169.81
404.053	165.71
404.262	124.76
404.471	110.42
404.68	110.42
404.888	102.23
405.097	135
405.306	157.52
405.515	155.47
405.724	126.8
405.933	141.14
406.142	126.8
406.35	106.32
406.559	192.34
406.768	216.91
406.977	225.11
407.185	159.57
407.394	137.04
407.603	192.34
407.812	163.67
408.02	175.95
408.229	214.87
408.438	218.96
408.646	157.52
408.855	192.34
409.064	192.34
409.272	249.68
409.481	311.12
409.69	304.98
409.898	218.96
410.107	280.4
410.315	288.59
410.524	278.35
410.733	386.9
410.941	335.7
411.15	278.35
411.358	444.24
411.567	501.58
411.775	333.65
411.984	386.9
412.192	358.22
412.401	419.66
412.609	395.09
412.818	446.29
413.026	399.18
413.234	393.04
413.443	503.63
413.651	411.47
413.86	515.92
414.068	487.25
414.276	542.54
414.485	522.06
414.693	515.92
414.901	542.54
415.11	567.12
415.318	575.31
415.526	661.32
415.734	651.08
415.943	583.5
416.151	689.99
416.359	706.38
416.567	753.48
416.776	677.71
416.984	804.68
417.192	845.64
417.4	765.77
417.608	888.65
417.817	870.22
418.025	931.66
418.233	1085.25
418.441	923.46
418.649	972.61
418.857	1068.87
419.065	1158.98
419.273	1083.2
419.481	1234.75
419.689	1206.08
419.897	1183.56
420.105	1288
420.313	1222.47
420.521	1396.54
420.729	1324.87
420.937	1374.02
421.145	1408.83
421.353	1568.57
421.561	1673.02
421.769	1683.26
421.977	1783.61
422.185	1748.79
422.393	1763.13
422.601	1988.41
422.809	1890.1
423.017	2021.17
423.224	1980.22
423.432	2142
423.64	2074.42
423.848	2193.2
424.056	2172.72
424.263	2297.65
424.471	2432.82
424.679	2430.77
424.887	2574.13
425.094	2723.63
425.302	2639.66
425.51	2715.44
425.718	2905.9
425.925	2926.38
426.133	2996.01
426.341	3157.8
426.548	3325.73
426.756	3378.98
426.964	3301.15
427.171	3551.01
427.379	3639.07
427.586	3720.99
427.794	3753.76
428.001	3921.69
428.209	4237.08
428.417	4052.76
428.624	4269.84
428.832	4265.75
429.039	4204.31
429.247	4415.25
429.454	4665.1
429.662	4980.49
429.869	4761.36
430.076	5027.59
430.284	4910.86
430.491	5138.18
430.699	5426.95
430.906	5314.31
431.114	5420.8
431.321	5654.27
431.528	5861.12
431.736	6049.53
431.943	6450.93
432.15	6233.85
432.358	6287.09
432.565	6610.67
432.772	6596.34
432.979	6852.33
433.187	7096.04
433.394	7050.99
433.601	7636.7
433.808	7702.24
434.016	7374.56
434.223	7843.55
434.43	8238.81
434.637	8066.78
434.844	8646.35
435.052	8695.5
435.259	8715.98
435.466	8847.05
435.673	8900.3
435.88	9354.95
436.087	9828.03
436.294	9797.31
436.501	9653.95
436.708	9791.17
436.915	10204.86
437.122	10575.54
437.329	10559.16
437.537	10895.02
437.743	11196.07
437.95	10913.45
438.157	11431.59
438.364	12091.04
438.571	11976.35
438.778	11853.47
438.985	13043.34
439.192	12418.71
439.399	13067.92
439.606	12725.91
439.813	13643.4
440.02	14214.78
440.227	13870.72
440.433	13854.34
440.64	14128.77
440.847	14102.14
441.054	14501.5
441.261	15480.43
441.467	15453.8
441.674	15736.42
441.881	16113.25
442.088	16158.3
442.294	16201.31
442.501	16254.56
442.708	16574.04
442.914	17546.83
443.121	18193.98
443.328	17743.43
443.534	18644.54
443.741	18228.8
443.948	17958.47
444.154	19445.29
444.361	19383.85
444.568	19250.74
444.774	19396.14
444.981	19945
445.187	20137.51
445.394	21169.68
445.6	20897.3
445.807	22984.18
446.013	21638.67
446.22	22269.44
446.426	23066.1
446.633	23180.79
446.839	24149.48
447.046	23121.4
447.252	24692.19
447.459	24581.6
447.665	24040.93
447.871	25511.38
448.078	26596.8
448.284	25189.84
448.491	25830.86
448.697	26627.52
448.903	27063.74
449.11	27563.44
449.316	26750.4
449.522	27628.98
449.728	28349.86
449.935	28593.57
450.141	28462.5
450.347	28831.13
450.553	27887.02
450.76	28568.99
450.966	29711.76
451.172	29210.01
451.378	29945.23
451.584	28947.87
451.791	29990.28
451.997	29625.75
452.203	30295.43
452.409	30508.42
452.615	30035.34
452.821	28710.3
453.027	29080.99
453.233	30037.39
453.44	28992.92
453.646	29248.92
453.852	29339.03
454.058	30309.77
454.264	28839.33
454.47	29523.35
454.676	28755.36
454.882	29838.73
455.088	27448.75
455.294	27620.78
455.5	28059.05
455.705	28798.37
455.911	27207.09
456.117	26754.49
456.323	26353.09
456.529	25294.29
456.735	25994.7
456.941	25499.09
457.147	24923.61
457.352	24030.69
457.558	24096.23
457.764	24212.96
457.97	23389.68
458.176	23154.16
458.381	23395.82
458.587	21843.46
458.793	21874.18
458.999	20729.37
459.204	22287.87
459.41	21736.97
459.616	20231.71
459.821	20168.23
460.027	20287.01
460.233	19609.13
460.438	18740.79
460.644	19027.51
460.85	18128.45
461.055	17835.59
461.261	17806.92
461.466	16539.22
461.672	15924.83
461.878	17223.25
462.083	16096.86
462.289	15740.52
462.494	15717.99
462.7	14704.24
462.905	14597.75
463.111	14722.68
463.316	15124.08
463.522	14726.77
463.727	14663.29
463.932	14839.41
464.138	14550.65
464.343	14714.48
464.549	14075.52
464.754	14720.63
464.959	14554.74
465.165	14556.79
465.37	13751.94
465.575	13411.98
465.781	13926.02
465.986	13997.7
466.191	13674.12
466.397	13334.15
466.602	12709.52
466.807	13203.08
467.012	13176.46
467.218	12994.19
467.423	12906.13
467.628	12994.19
467.833	13364.87
468.038	12844.69
468.244	12713.62
