Data from USB4F104151__223__14-00-16-422.txt Node

Date: Thu Mar 13 14:00:16 EDT 2025
User: louis
Spectrometer: USB4F10415
Trigger mode: 4
Integration Time (sec): 1.000000E-2
Scans to average: 1
Electric dark correction enabled: true
Nonlinearity correction enabled: false
Boxcar width: 0
XAxis mode: Wavelengths
Number of Pixels in Spectrum: 3648
>>>>>Begin Spectral Data<<<<<
178.204	-9.39
178.424	-9.39
178.644	-9.39
178.864	-3.24
179.084	-44.2
179.304	80.72
179.524	21.33
179.744	-15.53
179.964	21.33
180.184	9.05
180.404	29.52
180.624	41.81
180.844	-19.63
181.064	-99.5
181.283	-50.35
181.503	4.95
181.723	-23.72
181.943	-5.29
182.163	-17.58
182.383	68.44
182.602	-25.77
182.822	54.1
183.042	27.48
183.262	-25.77
183.482	9.05
183.701	70.48
183.921	27.48
184.141	70.48
184.361	-15.53
184.58	2.9
184.8	-17.58
185.02	15.19
185.239	74.58
185.459	-50.35
185.679	-29.87
185.898	39.76
186.118	78.68
186.338	66.39
186.557	95.06
186.777	-9.39
186.997	19.29
187.216	29.52
187.436	56.15
187.655	11.09
187.875	9.05
188.095	-19.63
188.314	60.24
188.534	23.38
188.753	-23.72
188.973	-11.43
189.192	56.15
189.412	43.86
189.631	50
189.851	35.67
190.07	27.48
190.29	-15.53
190.509	-29.87
190.729	-25.77
190.948	58.2
191.168	90.96
191.387	9.05
191.607	47.96
191.826	39.76
192.045	-23.72
192.265	19.29
192.484	2.9
192.704	33.62
192.923	25.43
193.142	64.34
193.362	88.92
193.581	-19.63
193.8	-7.34
194.02	66.39
194.239	41.81
194.458	35.67
194.678	62.29
194.897	7
195.116	35.67
195.335	25.43
195.555	-33.96
195.774	-11.43
195.993	15.19
196.212	31.57
196.432	-76.97
196.651	47.96
196.87	-9.39
197.089	-25.77
197.308	43.86
197.528	-36.01
197.747	-21.67
197.966	-19.63
198.185	19.29
198.404	-64.68
198.623	17.24
198.842	27.48
199.062	29.52
199.281	95.06
199.5	4.95
199.719	31.57
199.938	15.19
200.157	-23.72
200.376	29.52
200.595	7
200.814	-52.39
201.033	-17.58
201.252	64.34
201.471	80.72
201.69	58.2
201.909	-3.24
202.128	19.29
202.347	60.24
202.566	9.05
202.785	15.19
203.004	27.48
203.223	88.92
203.442	-21.67
203.661	2.9
203.879	0.85
204.098	41.81
204.317	-1.19
204.536	-9.39
204.755	7
204.974	17.24
205.193	123.73
205.411	17.24
205.63	-56.49
205.849	60.24
206.068	31.57
206.287	58.2
206.505	-48.3
206.724	-17.58
206.943	45.91
207.162	-33.96
207.381	35.67
207.599	13.14
207.818	2.9
208.037	29.52
208.255	-7.34
208.474	25.43
208.693	-33.96
208.911	13.14
209.13	56.15
209.349	17.24
209.567	7
209.786	76.63
210.005	101.2
210.223	35.67
210.442	-1.19
210.661	33.62
210.879	-17.58
211.098	-50.35
211.316	-25.77
211.535	29.52
211.753	-5.29
211.972	74.58
212.191	43.86
212.409	25.43
212.628	-19.63
212.846	-44.2
213.065	-44.2
213.283	15.19
213.502	-15.53
213.72	25.43
213.938	41.81
214.157	-13.48
214.375	41.81
214.594	-3.24
214.812	21.33
215.031	23.38
215.249	-27.82
215.467	47.96
215.686	-36.01
215.904	64.34
216.122	35.67
216.341	47.96
216.559	11.09
216.778	-5.29
216.996	-33.96
217.214	33.62
217.432	31.57
217.651	-33.96
217.869	11.09
218.087	7
218.306	15.19
218.524	-23.72
218.742	43.86
218.96	27.48
219.179	31.57
219.397	-25.77
219.615	33.62
219.833	23.38
220.051	-21.67
220.27	-7.34
220.488	-38.06
220.706	-33.96
220.924	13.14
221.142	27.48
221.36	-21.67
221.578	-68.78
221.796	7
222.015	13.14
222.233	2.9
222.451	88.92
222.669	23.38
222.887	-48.3
223.105	25.43
223.323	70.48
223.541	15.19
223.759	-31.91
223.977	50
224.195	35.67
224.413	-5.29
224.631	7
224.849	-19.63
225.067	99.16
225.285	-48.3
225.503	-9.39
225.721	-58.54
225.939	-11.43
226.157	56.15
226.375	27.48
226.592	45.91
226.81	17.24
227.028	43.86
227.246	52.05
227.464	29.52
227.682	21.33
227.9	15.19
228.117	43.86
228.335	70.48
228.553	97.11
228.771	17.24
228.989	-7.34
229.206	35.67
229.424	41.81
229.642	-3.24
229.86	15.19
230.077	41.81
230.295	41.81
230.513	-15.53
230.731	0.85
230.948	21.33
231.166	33.62
231.384	-11.43
231.601	35.67
231.819	39.76
232.037	-13.48
232.254	-5.29
232.472	-27.82
232.689	-5.29
232.907	45.91
233.125	45.91
233.342	21.33
233.56	62.29
233.777	54.1
233.995	60.24
234.213	-19.63
234.43	35.67
234.648	-5.29
234.865	7
235.083	25.43
235.3	0.85
235.518	0.85
235.735	56.15
235.953	45.91
236.17	4.95
236.388	11.09
236.605	-21.67
236.822	-7.34
237.04	-7.34
237.257	66.39
237.475	0.85
237.692	62.29
237.909	15.19
238.127	45.91
238.344	58.2
238.562	7
238.779	15.19
238.996	15.19
239.214	11.09
239.431	25.43
239.648	35.67
239.865	74.58
240.083	-27.82
240.3	39.76
240.517	21.33
240.735	-1.19
240.952	11.09
241.169	80.72
241.386	27.48
241.603	60.24
241.821	-17.58
242.038	27.48
242.255	-13.48
242.472	4.95
242.689	-5.29
242.907	68.44
243.124	-38.06
243.341	39.76
243.558	35.67
243.775	-21.67
243.992	60.24
244.209	43.86
244.426	58.2
244.643	50
244.86	45.91
245.078	82.77
245.295	23.38
245.512	-9.39
245.729	23.38
245.946	-1.19
246.163	-5.29
246.38	39.76
246.597	17.24
246.814	17.24
247.031	84.82
247.248	-23.72
247.464	33.62
247.681	62.29
247.898	78.68
248.115	66.39
248.332	-33.96
248.549	47.96
248.766	7
248.983	50
249.2	13.14
249.417	50
249.633	7
249.85	19.29
250.067	31.57
250.284	0.85
250.501	-64.68
250.717	-15.53
250.934	43.86
251.151	-7.34
251.368	9.05
251.585	-1.19
251.801	-1.19
252.018	56.15
252.235	2.9
252.451	80.72
252.668	-99.5
252.885	58.2
253.102	13.14
253.318	31.57
253.535	52.05
253.752	-33.96
253.968	27.48
254.185	17.24
254.401	39.76
254.618	35.67
254.835	52.05
255.051	-7.34
255.268	9.05
255.484	2.9
255.701	-52.39
255.917	35.67
256.134	43.86
256.351	25.43
256.567	-19.63
256.784	37.72
257	58.2
257.217	2.9
257.433	39.76
257.65	64.34
257.866	-17.58
258.082	29.52
258.299	-9.39
258.515	21.33
258.732	-5.29
258.948	-3.24
259.165	7
259.381	19.29
259.597	-11.43
259.814	-9.39
260.03	47.96
260.246	-25.77
260.463	15.19
260.679	62.29
260.895	-9.39
261.112	-33.96
261.328	-9.39
261.544	2.9
261.761	39.76
261.977	-1.19
262.193	35.67
262.409	-9.39
262.626	11.09
262.842	-9.39
263.058	25.43
263.274	-9.39
263.49	25.43
263.707	-25.77
263.923	31.57
264.139	9.05
264.355	90.96
264.571	-1.19
264.787	-25.77
265.004	82.77
265.22	50
265.436	-42.15
265.652	-17.58
265.868	31.57
266.084	29.52
266.3	64.34
266.516	-27.82
266.732	-9.39
266.948	-33.96
267.164	39.76
267.38	23.38
267.596	17.24
267.812	50
268.028	17.24
268.244	95.06
268.46	-19.63
268.676	43.86
268.892	13.14
269.108	13.14
269.324	60.24
269.54	11.09
269.756	86.87
269.972	11.09
270.188	29.52
270.403	4.95
270.619	54.1
270.835	-29.87
271.051	109.4
271.267	11.09
271.483	-50.35
271.698	-7.34
271.914	66.39
272.13	33.62
272.346	15.19
272.562	93.01
272.777	13.14
272.993	29.52
273.209	-1.19
273.425	23.38
273.64	4.95
273.856	52.05
274.072	107.35
274.287	58.2
274.503	60.24
274.719	41.81
274.934	68.44
275.15	-21.67
275.366	-3.24
275.581	-33.96
275.797	23.38
276.012	43.86
276.228	7
276.444	58.2
276.659	-1.19
276.875	60.24
277.09	9.05
277.306	-23.72
277.521	105.3
277.737	27.48
277.952	56.15
278.168	47.96
278.383	-97.45
278.599	52.05
278.814	41.81
279.03	64.34
279.245	54.1
279.461	-25.77
279.676	56.15
279.892	-1.19
280.107	72.53
280.322	-7.34
280.538	-62.63
280.753	64.34
280.969	82.77
281.184	29.52
281.399	31.57
281.615	41.81
281.83	66.39
282.045	13.14
282.26	43.86
282.476	37.72
282.691	27.48
282.906	-38.06
283.122	97.11
283.337	-33.96
283.552	123.73
283.767	41.81
283.983	0.85
284.198	-27.82
284.413	-17.58
284.628	23.38
284.843	-13.48
285.058	19.29
285.274	74.58
285.489	-3.24
285.704	23.38
285.919	-9.39
286.134	117.59
286.349	-17.58
286.564	27.48
286.779	15.19
286.995	31.57
287.21	-25.77
287.425	0.85
287.64	0.85
287.855	21.33
288.07	41.81
288.285	-9.39
288.5	50
288.715	0.85
288.93	31.57
289.145	56.15
289.36	33.62
289.575	-9.39
289.79	7
290.004	-23.72
290.219	35.67
290.434	0.85
290.649	-17.58
290.864	33.62
291.079	37.72
291.294	29.52
291.509	27.48
291.724	84.82
291.938	-15.53
292.153	62.29
292.368	-44.2
292.583	23.38
292.798	-38.06
293.012	-7.34
293.227	41.81
293.442	-74.92
293.657	39.76
293.871	47.96
294.086	64.34
294.301	27.48
294.516	27.48
294.73	56.15
294.945	60.24
295.16	2.9
295.374	-31.91
295.589	2.9
295.804	39.76
296.018	-17.58
296.233	11.09
296.447	64.34
296.662	7
296.877	64.34
297.091	-36.01
297.306	64.34
297.52	43.86
297.735	9.05
297.949	50
298.164	17.24
298.378	21.33
298.593	64.34
298.807	-5.29
299.022	107.35
299.236	82.77
299.451	88.92
299.665	-5.29
299.88	-25.77
300.094	78.68
300.309	23.38
300.523	54.1
300.737	11.09
300.952	-1.19
301.166	19.29
301.381	74.58
301.595	29.52
301.809	-50.35
302.024	-38.06
302.238	7
302.452	45.91
302.667	-83.11
302.881	50
303.095	43.86
303.309	-17.58
303.524	-42.15
303.738	15.19
303.952	11.09
304.166	15.19
304.381	11.09
304.595	31.57
304.809	41.81
305.023	33.62
305.237	33.62
305.452	-9.39
305.666	31.57
305.88	60.24
306.094	29.52
306.308	17.24
306.522	90.96
306.736	35.67
306.95	68.44
307.164	-7.34
307.379	7
307.593	-17.58
307.807	31.57
308.021	13.14
308.235	25.43
308.449	-15.53
308.663	66.39
308.877	88.92
309.091	23.38
309.305	43.86
309.519	72.53
309.733	62.29
309.947	43.86
310.161	66.39
310.374	50
310.588	15.19
310.802	105.3
311.016	29.52
311.23	13.14
311.444	-33.96
311.658	54.1
311.872	74.58
312.085	82.77
312.299	43.86
312.513	82.77
312.727	47.96
312.941	13.14
313.154	-48.3
313.368	-17.58
313.582	35.67
313.796	31.57
314.009	29.52
314.223	41.81
314.437	11.09
314.651	13.14
314.864	66.39
315.078	31.57
315.292	45.91
315.505	45.91
315.719	-19.63
315.933	29.52
316.146	7
316.36	23.38
316.573	47.96
316.787	11.09
317.001	58.2
317.214	31.57
317.428	-19.63
317.641	2.9
317.855	-3.24
318.068	4.95
318.282	13.14
318.495	60.24
318.709	72.53
318.922	72.53
319.136	56.15
319.349	70.48
319.563	60.24
319.776	19.29
319.99	-13.48
320.203	-21.67
320.417	66.39
320.63	66.39
320.843	-7.34
321.057	19.29
321.27	50
321.483	54.1
321.697	111.44
321.91	11.09
322.124	66.39
322.337	2.9
322.55	11.09
322.763	-15.53
322.977	19.29
323.19	25.43
323.403	25.43
323.617	35.67
323.83	2.9
324.043	-25.77
324.256	105.3
324.469	37.72
324.683	13.14
324.896	47.96
325.109	50
325.322	60.24
325.535	39.76
325.748	23.38
325.962	52.05
326.175	45.91
326.388	-5.29
326.601	72.53
326.814	39.76
327.027	50
327.24	136.02
327.453	56.15
327.666	15.19
327.879	-17.58
328.092	64.34
328.305	-3.24
328.518	-17.58
328.731	25.43
328.944	60.24
329.157	82.77
329.37	93.01
329.583	52.05
329.796	39.76
330.009	-38.06
330.222	80.72
330.435	47.96
330.648	2.9
330.861	27.48
331.073	52.05
331.286	21.33
331.499	7
331.712	-3.24
331.925	41.81
332.138	64.34
332.35	56.15
332.563	52.05
332.776	41.81
332.989	11.09
333.202	47.96
333.414	35.67
333.627	-25.77
333.84	88.92
334.053	50
334.265	-25.77
334.478	60.24
334.691	27.48
334.903	90.96
335.116	-36.01
335.329	7
335.541	31.57
335.754	19.29
335.966	68.44
336.179	15.19
336.392	52.05
336.604	23.38
336.817	52.05
337.029	4.95
337.242	62.29
337.454	33.62
337.667	9.05
337.88	109.4
338.092	33.62
338.305	-1.19
338.517	41.81
338.729	-9.39
338.942	21.33
339.154	41.81
339.367	80.72
339.579	-1.19
339.792	95.06
340.004	-3.24
340.217	11.09
340.429	45.91
340.641	-17.58
340.854	-1.19
341.066	41.81
341.278	80.72
341.491	47.96
341.703	90.96
341.915	27.48
342.128	45.91
342.34	43.86
342.552	72.53
342.764	103.25
342.977	72.53
343.189	41.81
343.401	64.34
343.613	-5.29
343.826	33.62
344.038	-7.34
344.25	17.24
344.462	7
344.674	105.3
344.886	-17.58
345.099	19.29
345.311	-36.01
345.523	76.63
345.735	58.2
345.947	88.92
346.159	52.05
346.371	-38.06
346.583	88.92
346.795	39.76
347.007	56.15
347.219	62.29
347.431	-1.19
347.643	9.05
347.855	62.29
348.067	47.96
348.279	7
348.491	70.48
348.703	45.91
348.915	31.57
349.127	17.24
349.339	-15.53
349.551	-9.39
349.763	23.38
349.975	74.58
350.187	27.48
350.399	19.29
350.61	7
350.822	19.29
351.034	21.33
351.246	19.29
351.458	56.15
351.669	17.24
351.881	2.9
352.093	25.43
352.305	11.09
352.517	35.67
352.728	64.34
352.94	78.68
353.152	78.68
353.363	62.29
353.575	54.1
353.787	60.24
353.999	31.57
354.21	50
354.422	60.24
354.633	21.33
354.845	72.53
355.057	35.67
355.268	47.96
355.48	-23.72
355.692	47.96
355.903	-40.11
356.115	52.05
356.326	-9.39
356.538	17.24
356.749	0.85
356.961	95.06
357.172	-60.59
357.384	15.19
357.595	39.76
357.807	39.76
358.018	-15.53
358.23	47.96
358.441	-9.39
358.653	64.34
358.864	74.58
359.075	7
359.287	27.48
359.498	21.33
359.709	-1.19
359.921	39.76
360.132	13.14
360.344	64.34
360.555	39.76
360.766	-33.96
360.977	4.95
361.189	105.3
361.4	21.33
361.611	56.15
361.823	121.68
362.034	15.19
362.245	84.82
362.456	2.9
362.667	80.72
362.879	-48.3
363.09	39.76
363.301	84.82
363.512	43.86
363.723	27.48
363.935	29.52
364.146	7
364.357	-9.39
364.568	88.92
364.779	11.09
364.99	9.05
365.201	43.86
365.412	66.39
365.623	64.34
365.834	58.2
366.045	17.24
366.256	37.72
366.467	-13.48
366.678	76.63
366.889	84.82
367.1	50
367.311	60.24
367.522	23.38
367.733	54.1
367.944	54.1
368.155	-38.06
368.366	50
368.577	11.09
368.788	-15.53
368.999	-1.19
369.209	15.19
369.42	15.19
369.631	64.34
369.842	76.63
370.053	54.1
370.264	43.86
370.474	11.09
370.685	56.15
370.896	15.19
371.107	95.06
371.317	70.48
371.528	35.67
371.739	60.24
371.95	23.38
372.16	11.09
372.371	23.38
372.582	33.62
372.792	56.15
373.003	68.44
373.214	-11.43
373.424	86.87
373.635	72.53
373.846	60.24
374.056	88.92
374.267	60.24
374.477	39.76
374.688	99.16
374.898	23.38
375.109	74.58
375.319	56.15
375.53	74.58
375.74	47.96
375.951	-38.06
376.161	82.77
376.372	72.53
376.582	78.68
376.793	62.29
377.003	133.97
377.214	66.39
377.424	33.62
377.635	33.62
377.845	47.96
378.055	72.53
378.266	103.25
378.476	60.24
378.686	68.44
378.897	39.76
379.107	66.39
379.317	47.96
379.528	76.63
379.738	-9.39
379.948	58.2
380.158	99.16
380.369	68.44
380.579	90.96
380.789	60.24
380.999	86.87
381.21	72.53
381.42	-33.96
381.63	47.96
381.84	66.39
382.05	17.24
382.261	31.57
382.471	113.49
382.681	111.44
382.891	23.38
383.101	105.3
383.311	0.85
383.521	-9.39
383.731	52.05
383.941	133.97
384.151	-11.43
384.361	115.54
384.571	72.53
384.781	93.01
384.991	50
385.201	0.85
385.411	-33.96
385.621	64.34
385.831	60.24
386.041	76.63
386.251	84.82
386.461	66.39
386.671	64.34
386.881	31.57
387.091	72.53
387.301	113.49
387.511	58.2
387.72	7
387.93	41.81
388.14	50
388.35	82.77
388.56	4.95
388.769	50
388.979	117.59
389.189	64.34
389.399	47.96
389.609	-19.63
389.818	86.87
390.028	31.57
390.238	33.62
390.447	82.77
390.657	107.35
390.867	25.43
391.076	131.92
391.286	43.86
391.496	52.05
391.705	76.63
391.915	50
392.125	39.76
392.334	121.68
392.544	72.53
392.753	41.81
392.963	47.96
393.172	170.83
393.382	74.58
393.591	86.87
393.801	37.72
394.01	109.4
394.22	86.87
394.429	101.2
394.639	88.92
394.848	82.77
395.058	19.29
395.267	70.48
395.477	60.24
395.686	148.31
395.895	101.2
396.105	90.96
396.314	13.14
396.524	80.72
396.733	78.68
396.942	146.26
397.152	39.76
397.361	37.72
397.57	64.34
397.78	101.2
397.989	88.92
398.198	105.3
398.407	70.48
398.617	56.15
398.826	58.2
399.035	88.92
399.244	99.16
399.453	119.64
399.663	72.53
399.872	117.59
400.081	160.59
400.29	133.97
400.499	15.19
400.708	35.67
400.917	113.49
401.127	97.11
401.336	111.44
401.545	129.88
401.754	60.24
401.963	111.44
402.172	78.68
402.381	125.78
402.59	187.22
402.799	174.93
403.008	86.87
403.217	82.77
403.426	174.93
403.635	84.82
403.844	125.78
404.053	133.97
404.262	162.64
404.471	109.4
404.68	62.29
404.888	185.17
405.097	101.2
405.306	170.83
405.515	76.63
405.724	74.58
405.933	181.07
406.142	185.17
406.35	240.47
406.559	179.03
406.768	117.59
406.977	236.37
407.185	160.59
407.394	285.52
407.603	158.55
407.812	252.75
408.02	254.8
408.229	162.64
408.438	166.74
408.646	246.61
408.855	183.12
409.064	265.04
409.272	197.46
409.481	228.18
409.69	226.13
409.898	224.08
410.107	314.19
410.315	396.11
410.524	330.58
410.733	269.14
410.941	379.73
411.15	346.96
411.358	424.78
411.567	346.96
411.775	439.12
411.984	402.26
412.192	441.17
412.401	473.93
412.609	435.02
412.818	457.55
413.026	547.66
413.234	514.89
413.443	514.89
413.651	506.7
413.86	506.7
414.068	490.32
414.276	525.13
414.485	576.33
414.693	600.91
414.901	641.87
415.11	625.48
415.318	686.92
415.526	697.16
415.734	731.98
415.943	746.31
416.151	844.62
416.359	764.75
416.567	789.32
416.776	852.81
416.984	942.92
417.192	901.96
417.4	957.25
417.608	961.35
417.817	983.88
418.025	1069.89
418.233	1139.52
418.441	1151.81
418.649	1155.91
418.857	1194.82
419.065	1254.21
419.273	1268.55
419.481	1276.74
419.689	1362.75
419.897	1356.61
420.105	1426.24
420.313	1497.92
420.521	1481.53
420.729	1504.06
420.937	1600.32
421.145	1731.39
421.353	1762.11
421.561	1887.03
421.769	1979.19
421.977	1960.76
422.185	1942.33
422.393	2038.58
422.601	2241.33
422.809	2231.09
423.017	2138.93
423.224	2300.72
423.432	2495.28
423.64	2329.39
423.848	2644.78
424.056	2646.83
424.263	2652.97
424.471	2796.33
424.679	2677.55
424.887	2970.41
425.094	3078.95
425.302	3009.32
425.51	3103.53
425.718	3138.34
425.925	3382.05
426.133	3445.54
426.341	3554.08
426.548	3674.91
426.756	3728.16
426.964	3873.56
427.171	4045.59
427.379	4012.82
427.586	4240.15
427.794	4412.18
428.001	4543.25
428.209	4754.19
428.417	4715.28
428.624	4993.8
428.832	4981.51
429.039	5018.38
429.247	4973.32
429.454	5335.81
429.662	5802.75
429.869	5370.63
430.076	5860.09
430.284	5479.17
430.491	5948.15
430.699	6308.6
430.906	6308.6
431.114	6261.49
431.321	6640.37
431.528	6603.5
431.736	7117.54
431.943	7322.34
432.15	7224.04
432.358	7318.25
432.565	7641.82
432.772	7701.22
432.979	7955.16
433.187	8008.41
433.394	8039.13
433.601	8659.67
433.808	8862.41
434.016	8682.19
434.223	9188.04
434.43	9646.79
434.637	9429.7
434.844	10019.52
435.052	10326.71
435.259	10132.15
435.466	10322.62
435.673	10099.39
435.88	10814.13
436.087	11289.26
436.294	11094.7
436.501	10904.24
436.708	11387.56
436.915	11532.97
437.122	12241.56
437.329	12401.3
437.537	12411.54
437.743	12622.48
437.95	12587.67
438.157	13193.87
438.364	13699.72
438.571	13820.55
438.778	13820.55
438.985	15233.64
439.192	14512.76
439.399	15032.94
439.606	14654.07
439.813	15551.08
440.02	16439.9
440.227	16251.49
440.433	15891.04
440.64	16613.98
440.847	16482.91
441.054	16779.86
441.261	17699.4
441.467	17668.68
441.674	18149.95
441.881	18588.22
442.088	18448.96
442.294	18553.4
442.501	18885.17
442.708	19251.76
442.914	20073
443.121	20783.64
443.328	20128.29
443.534	21588.49
443.741	21174.8
443.948	20900.37
444.154	22366.72
444.361	22258.18
444.568	22465.02
444.774	22196.74
444.981	22641.15
445.187	23441.9
445.394	24484.32
445.6	23982.57
445.807	26505.66
446.013	25287.12
446.22	25725.39
446.426	26458.56
446.633	26812.86
446.839	27623.86
447.046	26640.83
447.252	27836.84
447.459	28146.09
447.665	28053.93
447.871	29049.24
448.078	30351.75
448.284	28899.74
448.491	29729.17
448.697	30685.57
448.903	31469.94
449.11	31383.93
449.316	31097.21
449.522	31590.77
449.728	32438.63
449.935	32571.75
450.141	32942.43
450.347	33538.39
450.553	32270.7
450.76	33003.87
450.966	34091.34
451.172	33562.97
451.378	34373.96
451.584	33509.72
451.791	34269.51
451.997	34455.88
452.203	35051.84
452.409	34908.48
452.615	34595.14
452.821	32930.14
453.027	32952.67
453.233	34515.27
453.44	33452.37
453.646	33423.7
453.852	33794.39
454.058	34488.65
454.264	32991.58
454.47	33962.32
454.676	33018.21
454.882	34357.58
455.088	31379.83
455.294	31639.92
455.5	32340.33
455.705	32563.56
455.911	31293.82
456.117	30790.02
456.323	30269.83
456.529	28656.03
456.735	29993.36
456.941	28969.37
457.147	28639.65
457.352	27840.94
457.558	27230.65
457.764	27681.2
457.97	27023.8
458.176	26466.75
458.381	26264
458.587	25094.61
458.793	25330.13
458.999	23945.7
459.204	25704.91
459.41	24521.18
459.616	23304.69
459.821	23435.76
460.027	23138.8
460.233	22641.15
460.438	21592.59
460.644	22069.76
460.85	20953.62
461.055	20320.8
461.261	20486.68
461.466	19003.96
461.672	18467.39
461.878	19798.57
462.083	18965.04
462.289	18162.24
462.494	17984.07
462.7	17076.82
462.905	16921.17
463.111	17427.02
463.316	17361.48
463.522	17001.04
463.727	17214.03
463.932	17140.3
464.138	16970.32
464.343	17089.1
464.549	16605.78
464.754	16853.59
464.959	16896.6
465.165	16865.88
465.37	15977.06
465.575	15520.36
465.781	16233.05
465.986	16435.8
466.191	15628.9
466.397	15241.84
466.602	14891.63
466.807	15454.83
467.012	15442.54
467.218	15178.35
467.423	15215.21
467.628	15096.43
467.833	15712.87
468.038	15254.12
468.244	14869.11
468.449	15225.45
468.654	14867.06
468.859	14979.7
469.064	14547.58
469.269	14072.45
