Data from USB4F104151__111__13-54-55-867.txt Node

Date: Thu Mar 13 13:54:55 EDT 2025
User: louis
Spectrometer: USB4F10415
Trigger mode: 4
Integration Time (sec): 1.000000E-2
Scans to average: 1
Electric dark correction enabled: true
Nonlinearity correction enabled: false
Boxcar width: 0
XAxis mode: Wavelengths
Number of Pixels in Spectrum: 3648
>>>>>Begin Spectral Data<<<<<
178.204	-0.51
178.424	-0.51
178.644	-0.51
178.864	-31.23
179.084	24.06
179.304	-0.51
179.524	-33.28
179.744	-31.23
179.964	-10.75
180.184	-20.99
180.404	52.74
180.624	58.88
180.844	19.97
181.064	-49.66
181.283	24.06
181.503	-27.14
181.723	17.92
181.943	-12.8
182.163	3.58
182.383	3.58
182.602	24.06
182.822	-8.7
183.042	32.26
183.262	-14.85
183.482	-37.38
183.701	-16.9
183.921	-41.47
184.141	-0.51
184.361	36.35
184.58	77.31
184.8	-10.75
185.02	11.78
185.239	65.02
185.459	-72.19
185.679	-4.61
185.898	-47.62
186.118	46.59
186.338	3.58
186.557	32.26
186.777	13.82
186.997	-37.38
187.216	38.4
187.436	48.64
187.655	-4.61
187.875	17.92
188.095	-31.23
188.314	75.26
188.534	11.78
188.753	-61.95
188.973	19.97
189.192	19.97
189.412	7.68
189.631	95.74
189.851	52.74
190.07	13.82
190.29	40.45
190.509	-43.52
190.729	-0.51
190.948	-49.66
191.168	26.11
191.387	28.16
191.607	-10.75
191.826	73.21
192.045	87.55
192.265	9.73
192.484	5.63
192.704	36.35
192.923	91.65
193.142	67.07
193.362	28.16
193.581	-0.51
193.8	-29.18
194.02	48.64
194.239	-10.75
194.458	-53.76
194.678	-16.9
194.897	17.92
195.116	-16.9
195.335	-10.75
195.555	60.93
195.774	-29.18
195.993	28.16
196.212	13.82
196.432	30.21
196.651	56.83
196.87	48.64
197.089	103.93
197.308	97.79
197.528	-31.23
197.747	13.82
197.966	42.5
198.185	58.88
198.404	32.26
198.623	7.68
198.842	26.11
199.062	19.97
199.281	-14.85
199.5	-4.61
199.719	-4.61
199.938	-2.56
200.157	38.4
200.376	13.82
200.595	52.74
200.814	-14.85
201.033	9.73
201.252	40.45
201.471	48.64
201.69	54.78
201.909	-6.66
202.128	9.73
202.347	54.78
202.566	-23.04
202.785	34.3
203.004	15.87
203.223	75.26
203.442	-59.9
203.661	34.3
203.879	1.54
204.098	36.35
204.317	-35.33
204.536	85.5
204.755	1.54
204.974	-8.7
205.193	-51.71
205.411	48.64
205.63	38.4
205.849	83.45
206.068	60.93
206.287	13.82
206.505	5.63
206.724	30.21
206.943	-16.9
207.162	30.21
207.381	-66.05
207.599	50.69
207.818	40.45
208.037	-10.75
208.255	-12.8
208.474	60.93
208.693	-59.9
208.911	38.4
209.13	34.3
209.349	-20.99
209.567	-29.18
209.786	34.3
210.005	-10.75
210.223	108.03
210.442	17.92
210.661	56.83
210.879	-0.51
211.098	-4.61
211.316	40.45
211.535	112.13
211.753	-4.61
211.972	48.64
212.191	-96.77
212.409	62.98
212.628	17.92
212.846	3.58
213.065	15.87
213.283	17.92
213.502	19.97
213.72	54.78
213.938	-0.51
214.157	65.02
214.375	26.11
214.594	50.69
214.812	-8.7
215.031	-59.9
215.249	9.73
215.467	-14.85
215.686	26.11
215.904	110.08
216.122	-12.8
216.341	42.5
216.559	24.06
216.778	32.26
216.996	-2.56
217.214	50.69
217.432	5.63
217.651	13.82
217.869	-23.04
218.087	-16.9
218.306	-14.85
218.524	101.89
218.742	-23.04
218.96	-16.9
219.179	65.02
219.397	-18.94
219.615	40.45
219.833	17.92
220.051	-18.94
220.27	65.02
220.488	-57.86
220.706	11.78
220.924	17.92
221.142	26.11
221.36	73.21
221.578	15.87
221.796	44.54
222.015	5.63
222.233	-31.23
222.451	44.54
222.669	26.11
222.887	13.82
223.105	-18.94
223.323	11.78
223.541	-37.38
223.759	34.3
223.977	77.31
224.195	87.55
224.413	15.87
224.631	46.59
224.849	-35.33
225.067	3.58
225.285	87.55
225.503	48.64
225.721	-23.04
225.939	-25.09
226.157	26.11
226.375	48.64
226.592	34.3
226.81	-8.7
227.028	-10.75
227.246	1.54
227.464	5.63
227.682	1.54
227.9	38.4
228.117	-2.56
228.335	-23.04
228.553	-8.7
228.771	99.84
228.989	-2.56
229.206	15.87
229.424	-16.9
229.642	-4.61
229.86	-14.85
230.077	13.82
230.295	-10.75
230.513	9.73
230.731	52.74
230.948	54.78
231.166	19.97
231.384	-27.14
231.601	30.21
231.819	-14.85
232.037	-51.71
232.254	-6.66
232.472	-14.85
232.689	-16.9
232.907	-20.99
233.125	-12.8
233.342	46.59
233.56	-18.94
233.777	54.78
233.995	32.26
234.213	7.68
234.43	91.65
234.648	38.4
234.865	17.92
235.083	17.92
235.3	-8.7
235.518	108.03
235.735	11.78
235.953	-39.42
236.17	56.83
236.388	-2.56
236.605	17.92
236.822	73.21
237.04	5.63
237.257	11.78
237.475	26.11
237.692	48.64
237.909	44.54
238.127	83.45
238.344	-14.85
238.562	1.54
238.779	-18.94
238.996	-4.61
239.214	58.88
239.431	71.17
239.648	-14.85
239.865	11.78
240.083	3.58
240.3	71.17
240.517	81.41
240.735	38.4
240.952	26.11
241.169	-25.09
241.386	-23.04
241.603	-4.61
241.821	24.06
242.038	26.11
242.255	54.78
242.472	17.92
242.689	-14.85
242.907	34.3
243.124	22.02
243.341	-0.51
243.558	-10.75
243.775	-16.9
243.992	56.83
244.209	19.97
244.426	36.35
244.643	77.31
244.86	-41.47
245.078	24.06
245.295	91.65
245.512	7.68
245.729	-25.09
245.946	36.35
246.163	-2.56
246.38	26.11
246.597	-4.61
246.814	75.26
247.031	38.4
247.248	13.82
247.464	56.83
247.681	-20.99
247.898	48.64
248.115	-20.99
248.332	32.26
248.549	54.78
248.766	52.74
248.983	30.21
249.2	-14.85
249.417	83.45
249.633	58.88
249.85	73.21
250.067	7.68
250.284	-12.8
250.501	17.92
250.717	11.78
250.934	-20.99
251.151	-18.94
251.368	24.06
251.585	36.35
251.801	7.68
252.018	40.45
252.235	-20.99
252.451	54.78
252.668	-16.9
252.885	-74.24
253.102	-12.8
253.318	56.83
253.535	46.59
253.752	5.63
253.968	26.11
254.185	30.21
254.401	89.6
254.618	1.54
254.835	28.16
255.051	-14.85
255.268	71.17
255.484	-14.85
255.701	60.93
255.917	30.21
256.134	22.02
256.351	40.45
256.567	1.54
256.784	28.16
257	-64
257.217	81.41
257.433	69.12
257.65	-12.8
257.866	52.74
258.082	62.98
258.299	-8.7
258.515	30.21
258.732	24.06
258.948	-14.85
259.165	75.26
259.381	-37.38
259.597	-12.8
259.814	48.64
260.03	-31.23
260.246	17.92
260.463	1.54
260.679	-0.51
260.895	-31.23
261.112	79.36
261.328	-8.7
261.544	-31.23
261.761	75.26
261.977	-4.61
262.193	32.26
262.409	50.69
262.626	-8.7
262.842	13.82
263.058	-76.29
263.274	40.45
263.49	44.54
263.707	105.98
263.923	-16.9
264.139	69.12
264.355	-31.23
264.571	77.31
264.787	-18.94
265.004	67.07
265.22	75.26
265.436	52.74
265.652	-8.7
265.868	42.5
266.084	22.02
266.3	34.3
266.516	56.83
266.732	17.92
266.948	22.02
267.164	-12.8
267.38	67.07
267.596	15.87
267.812	75.26
268.028	144.89
268.244	32.26
268.46	77.31
268.676	7.68
268.892	-6.66
269.108	-6.66
269.324	-4.61
269.54	22.02
269.756	36.35
269.972	19.97
270.188	103.93
270.403	-2.56
270.619	11.78
270.835	-57.86
271.051	26.11
271.267	-18.94
271.483	46.59
271.698	-16.9
271.914	38.4
272.13	24.06
272.346	1.54
272.562	11.78
272.777	108.03
272.993	-16.9
273.209	17.92
273.425	-0.51
273.64	65.02
273.856	40.45
274.072	26.11
274.287	50.69
274.503	1.54
274.719	15.87
274.934	22.02
275.15	30.21
275.366	13.82
275.581	46.59
275.797	11.78
276.012	1.54
276.228	9.73
276.444	-6.66
276.659	60.93
276.875	69.12
277.09	67.07
277.306	-45.57
277.521	-12.8
277.737	50.69
277.952	34.3
278.168	3.58
278.383	17.92
278.599	17.92
278.814	5.63
279.03	69.12
279.245	-8.7
279.461	5.63
279.676	65.02
279.892	-27.14
280.107	40.45
280.322	-35.33
280.538	19.97
280.753	5.63
280.969	40.45
281.184	-18.94
281.399	5.63
281.615	36.35
281.83	48.64
282.045	7.68
282.26	-0.51
282.476	26.11
282.691	60.93
282.906	26.11
283.122	44.54
283.337	32.26
283.552	-4.61
283.767	7.68
283.983	105.98
284.198	73.21
284.413	5.63
284.628	54.78
284.843	40.45
285.058	54.78
285.274	7.68
285.489	13.82
285.704	36.35
285.919	46.59
286.134	77.31
286.349	52.74
286.564	24.06
286.779	65.02
286.995	26.11
287.21	-64
287.425	50.69
287.64	28.16
287.855	38.4
288.07	-29.18
288.285	34.3
288.5	-4.61
288.715	85.5
288.93	-41.47
289.145	19.97
289.36	83.45
289.575	17.92
289.79	56.83
290.004	24.06
290.219	26.11
290.434	67.07
290.649	15.87
290.864	36.35
291.079	-33.28
291.294	28.16
291.509	1.54
291.724	-8.7
291.938	36.35
292.153	73.21
292.368	-20.99
292.583	42.5
292.798	-29.18
293.012	48.64
293.227	42.5
293.442	26.11
293.657	36.35
293.871	30.21
294.086	-14.85
294.301	42.5
294.516	36.35
294.73	32.26
294.945	26.11
295.16	42.5
295.374	132.61
295.589	-33.28
295.804	-8.7
296.018	73.21
296.233	34.3
296.447	128.51
296.662	5.63
296.877	28.16
297.091	22.02
297.306	65.02
297.52	3.58
297.735	7.68
297.949	11.78
298.164	44.54
298.378	81.41
298.593	-10.75
298.807	17.92
299.022	75.26
299.236	60.93
299.451	-53.76
299.665	-12.8
299.88	11.78
300.094	54.78
300.309	-2.56
300.523	-14.85
300.737	-10.75
300.952	79.36
301.166	-25.09
301.381	-0.51
301.595	38.4
301.809	11.78
302.024	71.17
302.238	-64
302.452	17.92
302.667	-23.04
302.881	-33.28
303.095	13.82
303.309	-14.85
303.524	22.02
303.738	-20.99
303.952	-0.51
304.166	26.11
304.381	7.68
304.595	-4.61
304.809	-51.71
305.023	17.92
305.237	52.74
305.452	-20.99
305.666	50.69
305.88	-2.56
306.094	114.17
306.308	48.64
306.522	48.64
306.736	13.82
306.95	32.26
307.164	-18.94
307.379	-53.76
307.593	85.5
307.807	7.68
308.021	-10.75
308.235	-12.8
308.449	19.97
308.663	112.13
308.877	34.3
309.091	19.97
309.305	67.07
309.519	77.31
309.733	52.74
309.947	22.02
310.161	-20.99
310.374	9.73
310.588	-6.66
310.802	28.16
311.016	-6.66
311.23	38.4
311.444	17.92
311.658	17.92
311.872	7.68
312.085	-10.75
312.299	11.78
312.513	11.78
312.727	56.83
312.941	34.3
313.154	5.63
313.368	7.68
313.582	42.5
313.796	-0.51
314.009	9.73
314.223	15.87
314.437	-8.7
314.651	65.02
314.864	9.73
315.078	-27.14
315.292	30.21
315.505	54.78
315.719	62.98
315.933	50.69
316.146	62.98
316.36	11.78
316.573	28.16
316.787	5.63
317.001	42.5
317.214	38.4
317.428	73.21
317.641	24.06
317.855	77.31
318.068	-27.14
318.282	40.45
318.495	19.97
318.709	48.64
318.922	5.63
319.136	34.3
319.349	28.16
319.563	60.93
319.776	54.78
319.99	-12.8
320.203	17.92
320.417	15.87
320.63	44.54
320.843	83.45
321.057	46.59
321.27	19.97
321.483	32.26
321.697	1.54
321.91	-0.51
322.124	24.06
322.337	19.97
322.55	30.21
322.763	75.26
322.977	71.17
323.19	-6.66
323.403	73.21
323.617	19.97
323.83	38.4
324.043	38.4
324.256	-12.8
324.469	81.41
324.683	69.12
324.896	1.54
325.109	40.45
325.322	-70.14
325.535	79.36
325.748	97.79
325.962	58.88
326.175	1.54
326.388	19.97
326.601	-4.61
326.814	52.74
327.027	-45.57
327.24	-20.99
327.453	-25.09
327.666	34.3
327.879	-29.18
328.092	73.21
328.305	-0.51
328.518	62.98
328.731	13.82
328.944	-12.8
329.157	-8.7
329.37	40.45
329.583	40.45
329.796	17.92
330.009	40.45
330.222	69.12
330.435	62.98
330.648	30.21
330.861	-45.57
331.073	75.26
331.286	26.11
331.499	13.82
331.712	32.26
331.925	7.68
332.138	52.74
332.35	48.64
332.563	48.64
332.776	42.5
332.989	83.45
333.202	42.5
333.414	-45.57
333.627	-25.09
333.84	-8.7
334.053	50.69
334.265	-4.61
334.478	17.92
334.691	77.31
334.903	44.54
335.116	-12.8
335.329	26.11
335.541	101.89
335.754	56.83
335.966	7.68
336.179	-12.8
336.392	99.84
336.604	36.35
336.817	11.78
337.029	48.64
337.242	-4.61
337.454	-57.86
337.667	-33.28
337.88	67.07
338.092	54.78
338.305	17.92
338.517	-16.9
338.729	58.88
338.942	89.6
339.154	22.02
339.367	9.73
339.579	114.17
339.792	-12.8
340.004	54.78
340.217	42.5
340.429	97.79
340.641	-18.94
340.854	34.3
341.066	5.63
341.278	30.21
341.491	44.54
341.703	-16.9
341.915	-16.9
342.128	120.32
342.34	93.69
342.552	22.02
342.764	28.16
342.977	40.45
343.189	11.78
343.401	38.4
343.613	17.92
343.826	67.07
344.038	36.35
344.25	97.79
344.462	36.35
344.674	65.02
344.886	69.12
345.099	-23.04
345.311	-70.14
345.523	24.06
345.735	3.58
345.947	71.17
346.159	34.3
346.371	17.92
346.583	-10.75
346.795	85.5
347.007	65.02
347.219	44.54
347.431	-20.99
347.643	-29.18
347.855	103.93
348.067	56.83
348.279	22.02
348.491	32.26
348.703	1.54
348.915	-0.51
349.127	52.74
349.339	75.26
349.551	65.02
349.763	-8.7
349.975	56.83
350.187	48.64
350.399	58.88
350.61	-2.56
350.822	50.69
351.034	17.92
351.246	32.26
351.458	15.87
351.669	46.59
351.881	60.93
352.093	48.64
352.305	58.88
352.517	5.63
352.728	-18.94
352.94	-10.75
353.152	17.92
353.363	-25.09
353.575	93.69
353.787	87.55
353.999	13.82
354.21	40.45
354.422	38.4
354.633	13.82
354.845	69.12
355.057	28.16
355.268	3.58
355.48	19.97
355.692	7.68
355.903	-23.04
356.115	7.68
356.326	7.68
356.538	56.83
356.749	1.54
356.961	-4.61
357.172	1.54
357.384	130.56
357.595	89.6
357.807	19.97
358.018	-39.42
358.23	58.88
358.441	-4.61
358.653	-20.99
358.864	22.02
359.075	40.45
359.287	60.93
359.498	-8.7
359.709	40.45
359.921	-8.7
360.132	56.83
360.344	120.32
360.555	34.3
360.766	73.21
360.977	19.97
361.189	60.93
361.4	26.11
361.611	34.3
361.823	67.07
362.034	-10.75
362.245	-41.47
362.456	38.4
362.667	110.08
362.879	87.55
363.09	13.82
363.301	26.11
363.512	89.6
363.723	60.93
363.935	42.5
364.146	-0.51
364.357	-18.94
364.568	1.54
364.779	65.02
364.99	-0.51
365.201	46.59
365.412	93.69
365.623	85.5
365.834	9.73
366.045	40.45
366.256	85.5
366.467	3.58
366.678	9.73
366.889	3.58
367.1	54.78
367.311	-2.56
367.522	-12.8
367.733	-55.81
367.944	3.58
368.155	-39.42
368.366	79.36
368.577	73.21
368.788	-10.75
368.999	38.4
369.209	-4.61
369.42	42.5
369.631	73.21
369.842	-31.23
370.053	101.89
370.264	75.26
370.474	3.58
370.685	112.13
370.896	15.87
371.107	126.46
371.317	-2.56
371.528	34.3
371.739	67.07
371.95	91.65
372.16	60.93
372.371	-35.33
372.582	36.35
372.792	110.08
373.003	60.93
373.214	9.73
373.424	48.64
373.635	69.12
373.846	75.26
374.056	-27.14
374.267	13.82
374.477	-23.04
374.688	46.59
374.898	54.78
375.109	-18.94
375.319	1.54
375.53	36.35
375.74	11.78
375.951	28.16
376.161	34.3
376.372	77.31
376.582	22.02
376.793	65.02
377.003	40.45
377.214	-2.56
377.424	17.92
377.635	110.08
377.845	-10.75
378.055	95.74
378.266	38.4
378.476	5.63
378.686	48.64
378.897	46.59
379.107	34.3
379.317	65.02
379.528	52.74
379.738	83.45
379.948	28.16
380.158	60.93
380.369	110.08
380.579	85.5
380.789	46.59
380.999	9.73
381.21	56.83
381.42	56.83
381.63	95.74
381.84	1.54
382.05	34.3
382.261	38.4
382.471	52.74
382.681	44.54
382.891	48.64
383.101	50.69
383.311	-10.75
383.521	24.06
383.731	75.26
383.941	24.06
384.151	11.78
384.361	28.16
384.571	38.4
384.781	48.64
384.991	85.5
385.201	-23.04
385.411	58.88
385.621	-16.9
385.831	26.11
386.041	46.59
386.251	36.35
386.461	48.64
386.671	30.21
386.881	42.5
387.091	-6.66
387.301	28.16
387.511	30.21
387.72	36.35
387.93	65.02
388.14	99.84
388.35	13.82
388.56	40.45
388.769	17.92
388.979	5.63
389.189	32.26
389.399	83.45
389.609	110.08
389.818	108.03
390.028	-2.56
390.238	69.12
390.447	87.55
390.657	46.59
390.867	-12.8
391.076	81.41
391.286	89.6
391.496	26.11
391.705	101.89
391.915	60.93
392.125	54.78
392.334	11.78
392.544	38.4
392.753	22.02
392.963	3.58
393.172	50.69
393.382	13.82
393.591	116.22
393.801	24.06
394.01	93.69
394.22	48.64
394.429	42.5
394.639	44.54
394.848	60.93
395.058	52.74
395.267	52.74
395.477	-6.66
395.686	81.41
395.895	44.54
396.105	34.3
396.314	67.07
396.524	40.45
396.733	7.68
396.942	114.17
397.152	101.89
397.361	87.55
397.57	79.36
397.78	83.45
397.989	87.55
398.198	69.12
398.407	77.31
398.617	130.56
398.826	54.78
399.035	24.06
399.244	42.5
399.453	85.5
399.663	95.74
399.872	32.26
400.081	128.51
400.29	54.78
400.499	87.55
400.708	89.6
400.917	48.64
401.127	71.17
401.336	56.83
401.545	95.74
401.754	95.74
401.963	38.4
402.172	101.89
402.381	97.79
402.59	110.08
402.799	132.61
403.008	105.98
403.217	67.07
403.426	97.79
403.635	97.79
403.844	103.93
404.053	93.69
404.262	110.08
404.471	87.55
404.68	73.21
404.888	81.41
405.097	67.07
405.306	71.17
405.515	79.36
405.724	169.47
405.933	128.51
406.142	179.71
406.35	136.7
406.559	167.42
406.768	146.94
406.977	83.45
407.185	183.81
407.394	118.27
407.603	148.99
407.812	148.99
408.02	177.66
408.229	173.57
408.438	177.66
408.646	155.13
408.855	128.51
409.064	196.09
409.272	169.47
409.481	210.43
409.69	175.61
409.898	237.05
410.107	237.05
410.315	235
410.524	226.81
410.733	198.14
410.941	185.85
411.15	267.77
411.358	298.49
411.567	308.73
411.775	296.44
411.984	361.98
412.192	241.15
412.401	376.31
412.609	304.64
412.818	427.51
413.026	400.89
413.234	292.35
413.443	407.03
413.651	402.94
413.86	474.62
414.068	370.17
414.276	392.7
414.485	474.62
414.693	427.51
414.901	484.86
415.11	495.1
415.318	501.24
415.526	482.81
415.734	478.71
415.943	521.72
416.151	593.4
416.359	566.78
416.567	581.11
416.776	710.13
416.984	701.94
417.192	663.03
417.4	706.04
417.608	736.76
417.817	679.41
418.025	802.29
418.233	769.52
418.441	812.53
418.649	804.34
418.857	865.78
419.065	959.99
419.273	902.64
419.481	951.79
419.689	1025.52
419.897	1080.82
420.105	1058.29
420.313	1134.06
420.521	1084.91
420.729	1150.45
420.937	1271.28
421.145	1232.37
421.353	1267.18
421.561	1371.63
421.769	1406.44
421.977	1406.44
422.185	1361.39
422.393	1496.55
422.601	1609.19
422.809	1633.77
423.017	1578.47
423.224	1635.82
423.432	1760.74
423.64	1770.98
423.848	1951.2
424.056	1955.3
424.263	2012.64
424.471	2033.12
424.679	2063.84
424.887	2246.11
425.094	2186.72
425.302	2088.42
425.51	2274.78
425.718	2373.08
425.925	2467.29
426.133	2573.78
426.341	2604.5
426.548	2690.52
426.756	2764.25
426.964	2799.06
427.171	2977.23
427.379	2979.28
427.586	3077.59
427.794	3186.13
428.001	3282.38
428.209	3429.84
428.417	3489.23
428.624	3646.92
428.832	3601.87
429.039	3505.61
429.247	3716.55
429.454	3931.59
429.662	4208.06
429.869	4085.19
430.076	4142.53
430.284	4179.39
430.491	4285.89
430.699	4574.65
430.906	4576.7
431.114	4558.27
431.321	4744.63
431.528	4857.27
431.736	5180.85
431.943	5365.17
432.15	5291.44
432.358	5303.73
432.565	5627.31
432.772	5547.44
432.979	5944.74
433.187	5813.67
433.394	6104.48
433.601	6376.86
433.808	6354.34
434.016	6483.36
434.223	6714.78
434.43	7105.94
434.637	7101.84
434.844	7396.75
435.052	7462.29
435.259	7439.76
435.466	7474.57
435.673	7433.61
435.88	7867.78
436.087	8273.28
436.294	8351.1
436.501	8123.78
436.708	8367.49
436.915	8672.64
437.122	8996.21
437.329	8904.06
437.537	9475.44
437.743	9475.44
437.95	9319.79
438.157	9846.12
438.364	10184.04
438.571	10247.52
438.778	10233.19
438.985	11246.93
439.192	10628.45
439.399	11025.75
439.606	10857.82
439.813	11449.68
440.02	12211.53
440.227	11781.45
440.433	11728.21
440.64	12277.06
440.847	12305.73
441.054	12205.38
441.261	13071.67
441.467	13049.14
441.674	13251.89
441.881	13663.54
442.088	13677.87
442.294	13526.32
442.501	13843.76
442.708	14167.34
442.914	14716.19
443.121	15271.19
443.328	14910.75
443.534	16071.95
443.741	15586.58
443.948	15426.84
444.154	16803.07
444.361	16301.32
444.568	16452.87
444.774	16596.23
444.981	16893.18
445.187	17421.56
445.394	17925.36
445.6	17814.77
445.807	19164.38
446.013	18629.86
446.22	18752.74
446.426	19674.32
446.633	19711.19
446.839	20186.32
447.046	19315.93
447.252	20569.29
447.459	20724.93
447.665	20675.78
447.871	21640.37
448.078	22584.49
448.284	21284.03
448.491	21630.13
448.697	22707.37
448.903	23190.69
449.11	23274.65
449.316	22750.37
449.522	23278.75
449.728	23874.71
449.935	23962.77
450.141	24325.26
450.347	24646.79
450.553	23870.61
450.76	23868.56
450.966	24841.35
451.172	24534.15
451.378	24892.55
451.584	24863.88
451.791	25425.02
451.997	25152.64
452.203	25619.58
452.409	25484.41
452.615	25539.71
452.821	24165.52
453.027	24190.09
453.233	25324.67
453.44	24908.93
453.646	24878.21
453.852	24863.88
454.058	25158.78
454.264	24370.32
454.47	24872.07
454.676	24136.85
454.882	25300.09
455.088	22998.18
455.294	23317.66
455.5	23415.96
455.705	23850.13
455.911	22801.57
456.117	22279.34
456.323	22222
456.529	20759.75
456.735	21718.2
456.941	21298.36
457.147	21120.19
457.352	20292.81
457.558	20083.92
457.764	20169.93
457.97	19588.31
458.176	19475.67
458.381	19377.37
458.587	18476.26
458.793	18705.63
458.999	17366.26
459.204	18808.03
459.41	18078.96
459.616	17169.66
459.821	16964.86
460.027	17163.51
460.233	16375.05
460.438	15924.49
460.644	15727.89
460.85	15256.86
461.055	15011.1
461.261	15072.54
461.466	13712.69
461.672	13468.98
461.878	14427.43
462.083	13532.47
462.289	13184.31
462.494	12864.83
462.7	12457.28
462.905	11924.81
463.111	12453.19
463.316	12684.61
463.522	12164.42
463.727	12395.84
463.932	12412.23
464.138	12164.42
464.343	12115.27
464.549	12107.08
464.754	12539.2
464.959	12244.29
465.165	12150.09
465.37	11560.27
465.575	11470.16
465.781	11826.51
465.986	11814.22
466.191	11357.52
466.397	11265.36
466.602	10546.53
466.807	11015.51
467.012	11201.88
467.218	10952.02
467.423	10949.98
467.628	10958.17
467.833	11474.26
468.038	10970.46
468.244	10704.22
468.449	11033.94
