Data from USB4F104151__191__13-59-25-108.txt Node

Date: Thu Mar 13 13:59:25 EDT 2025
User: louis
Spectrometer: USB4F10415
Trigger mode: 4
Integration Time (sec): 1.000000E-2
Scans to average: 1
Electric dark correction enabled: true
Nonlinearity correction enabled: false
Boxcar width: 0
XAxis mode: Wavelengths
Number of Pixels in Spectrum: 3648
>>>>>Begin Spectral Data<<<<<
178.204	-21.67
178.424	-21.67
178.644	-21.67
178.864	0.85
179.084	-33.96
179.304	0.85
179.524	43.86
179.744	19.29
179.964	9.05
180.184	-42.15
180.404	23.38
180.624	39.76
180.844	25.43
181.064	-64.68
181.283	-23.72
181.503	-5.29
181.723	-25.77
181.943	7
182.163	11.09
182.383	68.44
182.602	78.68
182.822	66.39
183.042	41.81
183.262	9.05
183.482	109.4
183.701	84.82
183.921	23.38
184.141	11.09
184.361	64.34
184.58	58.2
184.8	43.86
185.02	-11.43
185.239	72.53
185.459	-42.15
185.679	43.86
185.898	88.92
186.118	4.95
186.338	45.91
186.557	21.33
186.777	15.19
186.997	56.15
187.216	19.29
187.436	103.25
187.655	35.67
187.875	78.68
188.095	-27.82
188.314	62.29
188.534	0.85
188.753	93.01
188.973	-42.15
189.192	-52.39
189.412	52.05
189.631	-40.11
189.851	-50.35
190.07	101.2
190.29	0.85
190.509	11.09
190.729	39.76
190.948	70.48
191.168	86.87
191.387	-15.53
191.607	-66.73
191.826	33.62
192.045	4.95
192.265	31.57
192.484	-1.19
192.704	74.58
192.923	-15.53
193.142	50
193.362	50
193.581	80.72
193.8	60.24
194.02	41.81
194.239	-7.34
194.458	54.1
194.678	33.62
194.897	-25.77
195.116	35.67
195.335	13.14
195.555	62.29
195.774	58.2
195.993	37.72
196.212	74.58
196.432	-13.48
196.651	47.96
196.87	21.33
197.089	58.2
197.308	23.38
197.528	72.53
197.747	23.38
197.966	19.29
198.185	-13.48
198.404	17.24
198.623	72.53
198.842	13.14
199.062	56.15
199.281	76.63
199.5	-3.24
199.719	15.19
199.938	35.67
200.157	29.52
200.376	31.57
200.595	2.9
200.814	62.29
201.033	25.43
201.252	50
201.471	21.33
201.69	-9.39
201.909	11.09
202.128	66.39
202.347	54.1
202.566	86.87
202.785	52.05
203.004	27.48
203.223	90.96
203.442	29.52
203.661	17.24
203.879	68.44
204.098	62.29
204.317	-38.06
204.536	121.68
204.755	11.09
204.974	2.9
205.193	-5.29
205.411	31.57
205.63	-23.72
205.849	19.29
206.068	31.57
206.287	109.4
206.505	105.3
206.724	50
206.943	39.76
207.162	37.72
207.381	56.15
207.599	56.15
207.818	21.33
208.037	74.58
208.255	84.82
208.474	58.2
208.693	64.34
208.911	-38.06
209.13	78.68
209.349	-36.01
209.567	37.72
209.786	41.81
210.005	-17.58
210.223	68.44
210.442	25.43
210.661	70.48
210.879	13.14
211.098	97.11
211.316	-7.34
211.535	27.48
211.753	-54.44
211.972	-19.63
212.191	-3.24
212.409	11.09
212.628	-97.45
212.846	50
213.065	-83.11
213.283	35.67
213.502	7
213.72	-9.39
213.938	15.19
214.157	29.52
214.375	60.24
214.594	7
214.812	-48.3
215.031	9.05
215.249	80.72
215.467	-9.39
215.686	37.72
215.904	39.76
216.122	23.38
216.341	72.53
216.559	-40.11
216.778	56.15
216.996	27.48
217.214	90.96
217.432	76.63
217.651	27.48
217.869	35.67
218.087	25.43
218.306	-36.01
218.524	7
218.742	13.14
218.96	95.06
219.179	-42.15
219.397	29.52
219.615	52.05
219.833	13.14
220.051	-31.91
220.27	72.53
220.488	13.14
220.706	54.1
220.924	47.96
221.142	35.67
221.36	-31.91
221.578	29.52
221.796	13.14
222.015	-13.48
222.233	84.82
222.451	35.67
222.669	9.05
222.887	47.96
223.105	45.91
223.323	-17.58
223.541	35.67
223.759	76.63
223.977	23.38
224.195	29.52
224.413	47.96
224.631	66.39
224.849	37.72
225.067	43.86
225.285	-56.49
225.503	0.85
225.721	15.19
225.939	37.72
226.157	13.14
226.375	13.14
226.592	-21.67
226.81	47.96
227.028	72.53
227.246	29.52
227.464	-7.34
227.682	58.2
227.9	-21.67
228.117	99.16
228.335	9.05
228.553	21.33
228.771	-23.72
228.989	-15.53
229.206	25.43
229.424	-48.3
229.642	-7.34
229.86	70.48
230.077	2.9
230.295	54.1
230.513	47.96
230.731	39.76
230.948	-25.77
231.166	31.57
231.384	25.43
231.601	-17.58
231.819	17.24
232.037	-11.43
232.254	148.31
232.472	54.1
232.689	35.67
232.907	45.91
233.125	-31.91
233.342	7
233.56	11.09
233.777	45.91
233.995	41.81
234.213	17.24
234.43	82.77
234.648	64.34
234.865	-50.35
235.083	33.62
235.3	27.48
235.518	121.68
235.735	76.63
235.953	60.24
236.17	-13.48
236.388	54.1
236.605	15.19
236.822	78.68
237.04	70.48
237.257	33.62
237.475	72.53
237.692	60.24
237.909	31.57
238.127	33.62
238.344	29.52
238.562	86.87
238.779	68.44
238.996	74.58
239.214	13.14
239.431	41.81
239.648	56.15
239.865	9.05
240.083	43.86
240.3	31.57
240.517	-19.63
240.735	93.01
240.952	23.38
241.169	17.24
241.386	35.67
241.603	2.9
241.821	-3.24
242.038	2.9
242.255	109.4
242.472	29.52
242.689	9.05
242.907	82.77
243.124	45.91
243.341	7
243.558	52.05
243.775	-5.29
243.992	70.48
244.209	88.92
244.426	37.72
244.643	99.16
244.86	15.19
245.078	70.48
245.295	31.57
245.512	52.05
245.729	-11.43
245.946	11.09
246.163	31.57
246.38	84.82
246.597	33.62
246.814	-9.39
247.031	119.64
247.248	21.33
247.464	-11.43
247.681	60.24
247.898	52.05
248.115	45.91
248.332	50
248.549	74.58
248.766	50
248.983	76.63
249.2	39.76
249.417	107.35
249.633	97.11
249.85	107.35
250.067	-7.34
250.284	27.48
250.501	70.48
250.717	95.06
250.934	11.09
251.151	-25.77
251.368	-36.01
251.585	66.39
251.801	47.96
252.018	97.11
252.235	66.39
252.451	50
252.668	25.43
252.885	0.85
253.102	37.72
253.318	101.2
253.535	72.53
253.752	66.39
253.968	84.82
254.185	105.3
254.401	-3.24
254.618	86.87
254.835	4.95
255.051	35.67
255.268	2.9
255.484	41.81
255.701	25.43
255.917	50
256.134	23.38
256.351	80.72
256.567	80.72
256.784	52.05
257	37.72
257.217	50
257.433	56.15
257.65	56.15
257.866	31.57
258.082	7
258.299	-44.2
258.515	56.15
258.732	15.19
258.948	76.63
259.165	119.64
259.381	74.58
259.597	58.2
259.814	45.91
260.03	41.81
260.246	70.48
260.463	80.72
260.679	86.87
260.895	4.95
261.112	35.67
261.328	-36.01
261.544	29.52
261.761	-1.19
261.977	-7.34
262.193	70.48
262.409	72.53
262.626	76.63
262.842	66.39
263.058	25.43
263.274	43.86
263.49	41.81
263.707	80.72
263.923	-44.2
264.139	43.86
264.355	54.1
264.571	76.63
264.787	54.1
265.004	115.54
265.22	72.53
265.436	23.38
265.652	50
265.868	47.96
266.084	47.96
266.3	47.96
266.516	17.24
266.732	2.9
266.948	88.92
267.164	99.16
267.38	78.68
267.596	88.92
267.812	25.43
268.028	39.76
268.244	97.11
268.46	-3.24
268.676	21.33
268.892	45.91
269.108	9.05
269.324	39.76
269.54	4.95
269.756	21.33
269.972	2.9
270.188	-3.24
270.403	72.53
270.619	41.81
270.835	9.05
271.051	17.24
271.267	0.85
271.483	99.16
271.698	-11.43
271.914	0.85
272.13	2.9
272.346	2.9
272.562	45.91
272.777	17.24
272.993	27.48
273.209	52.05
273.425	15.19
273.64	-1.19
273.856	37.72
274.072	39.76
274.287	-44.2
274.503	84.82
274.719	13.14
274.934	39.76
275.15	-9.39
275.366	-1.19
275.581	27.48
275.797	72.53
276.012	56.15
276.228	86.87
276.444	25.43
276.659	50
276.875	-44.2
277.09	13.14
277.306	-25.77
277.521	62.29
277.737	-17.58
277.952	41.81
278.168	45.91
278.383	82.77
278.599	-15.53
278.814	47.96
279.03	9.05
279.245	93.01
279.461	47.96
279.676	23.38
279.892	37.72
280.107	-33.96
280.322	-15.53
280.538	123.73
280.753	62.29
280.969	25.43
281.184	95.06
281.399	52.05
281.615	4.95
281.83	70.48
282.045	29.52
282.26	119.64
282.476	62.29
282.691	99.16
282.906	84.82
283.122	29.52
283.337	27.48
283.552	39.76
283.767	45.91
283.983	-1.19
284.198	47.96
284.413	7
284.628	107.35
284.843	-9.39
285.058	39.76
285.274	80.72
285.489	47.96
285.704	31.57
285.919	27.48
286.134	93.01
286.349	31.57
286.564	-17.58
286.779	13.14
286.995	29.52
287.21	25.43
287.425	72.53
287.64	90.96
287.855	68.44
288.07	37.72
288.285	-31.91
288.5	15.19
288.715	62.29
288.93	82.77
289.145	56.15
289.36	103.25
289.575	21.33
289.79	56.15
290.004	99.16
290.219	25.43
290.434	-5.29
290.649	-64.68
290.864	13.14
291.079	54.1
291.294	39.76
291.509	19.29
291.724	9.05
291.938	31.57
292.153	105.3
292.368	-1.19
292.583	47.96
292.798	-42.15
293.012	35.67
293.227	52.05
293.442	93.01
293.657	41.81
293.871	58.2
294.086	25.43
294.301	70.48
294.516	93.01
294.73	-19.63
294.945	-3.24
295.16	35.67
295.374	56.15
295.589	56.15
295.804	27.48
296.018	52.05
296.233	-17.58
296.447	11.09
296.662	-36.01
296.877	80.72
297.091	86.87
297.306	15.19
297.52	4.95
297.735	64.34
297.949	15.19
298.164	111.44
298.378	97.11
298.593	-5.29
298.807	105.3
299.022	15.19
299.236	68.44
299.451	41.81
299.665	60.24
299.88	58.2
300.094	101.2
300.309	133.97
300.523	41.81
300.737	-1.19
300.952	88.92
301.166	39.76
301.381	-46.25
301.595	37.72
301.809	21.33
302.024	-7.34
302.238	39.76
302.452	152.4
302.667	-9.39
302.881	107.35
303.095	127.83
303.309	2.9
303.524	70.48
303.738	-33.96
303.952	-42.15
304.166	21.33
304.381	15.19
304.595	56.15
304.809	27.48
305.023	56.15
305.237	66.39
305.452	47.96
305.666	11.09
305.88	78.68
306.094	47.96
306.308	31.57
306.522	13.14
306.736	101.2
306.95	9.05
307.164	11.09
307.379	95.06
307.593	68.44
307.807	74.58
308.021	64.34
308.235	95.06
308.449	29.52
308.663	17.24
308.877	54.1
309.091	-29.87
309.305	2.9
309.519	25.43
309.733	86.87
309.947	-3.24
310.161	103.25
310.374	58.2
310.588	-9.39
310.802	45.91
311.016	95.06
311.23	93.01
311.444	37.72
311.658	45.91
311.872	93.01
312.085	-21.67
312.299	76.63
312.513	45.91
312.727	95.06
312.941	56.15
313.154	41.81
313.368	-33.96
313.582	86.87
313.796	45.91
314.009	13.14
314.223	35.67
314.437	41.81
314.651	11.09
314.864	4.95
315.078	31.57
315.292	41.81
315.505	41.81
315.719	21.33
315.933	21.33
316.146	56.15
316.36	-25.77
316.573	64.34
316.787	2.9
317.001	-5.29
317.214	27.48
317.428	117.59
317.641	50
317.855	68.44
318.068	56.15
318.282	68.44
318.495	66.39
318.709	56.15
318.922	70.48
319.136	43.86
319.349	29.52
319.563	13.14
319.776	25.43
319.99	74.58
320.203	29.52
320.417	52.05
320.63	47.96
320.843	82.77
321.057	88.92
321.27	70.48
321.483	58.2
321.697	103.25
321.91	54.1
322.124	103.25
322.337	13.14
322.55	56.15
322.763	47.96
322.977	66.39
323.19	62.29
323.403	68.44
323.617	78.68
323.83	119.64
324.043	39.76
324.256	140.12
324.469	-36.01
324.683	90.96
324.896	78.68
325.109	72.53
325.322	-15.53
325.535	103.25
325.748	50
325.962	97.11
326.175	66.39
326.388	70.48
326.601	19.29
326.814	-17.58
327.027	78.68
327.24	45.91
327.453	47.96
327.666	70.48
327.879	15.19
328.092	62.29
328.305	21.33
328.518	35.67
328.731	105.3
328.944	50
329.157	2.9
329.37	23.38
329.583	66.39
329.796	97.11
330.009	29.52
330.222	39.76
330.435	2.9
330.648	62.29
330.861	109.4
331.073	97.11
331.286	47.96
331.499	56.15
331.712	76.63
331.925	95.06
332.138	54.1
332.35	13.14
332.563	60.24
332.776	86.87
332.989	152.4
333.202	78.68
333.414	19.29
333.627	74.58
333.84	50
334.053	97.11
334.265	15.19
334.478	-40.11
334.691	-64.68
334.903	90.96
335.116	43.86
335.329	103.25
335.541	60.24
335.754	127.83
335.966	39.76
336.179	35.67
336.392	72.53
336.604	105.3
336.817	119.64
337.029	84.82
337.242	105.3
337.454	82.77
337.667	9.05
337.88	80.72
338.092	70.48
338.305	101.2
338.517	-1.19
338.729	62.29
338.942	11.09
339.154	17.24
339.367	33.62
339.579	37.72
339.792	62.29
340.004	41.81
340.217	29.52
340.429	50
340.641	37.72
340.854	25.43
341.066	54.1
341.278	33.62
341.491	64.34
341.703	66.39
341.915	23.38
342.128	-17.58
342.34	90.96
342.552	-7.34
342.764	56.15
342.977	47.96
343.189	37.72
343.401	115.54
343.613	25.43
343.826	113.49
344.038	39.76
344.25	7
344.462	82.77
344.674	76.63
344.886	127.83
345.099	68.44
345.311	95.06
345.523	72.53
345.735	78.68
345.947	58.2
346.159	76.63
346.371	136.02
346.583	-15.53
346.795	119.64
347.007	72.53
347.219	68.44
347.431	70.48
347.643	58.2
347.855	66.39
348.067	78.68
348.279	39.76
348.491	13.14
348.703	66.39
348.915	31.57
349.127	82.77
349.339	117.59
349.551	66.39
349.763	35.67
349.975	45.91
350.187	80.72
350.399	45.91
350.61	78.68
350.822	78.68
351.034	15.19
351.246	76.63
351.458	78.68
351.669	70.48
351.881	93.01
352.093	88.92
352.305	56.15
352.517	-1.19
352.728	60.24
352.94	-1.19
353.152	-56.49
353.363	66.39
353.575	86.87
353.787	54.1
353.999	113.49
354.21	80.72
354.422	50
354.633	70.48
354.845	54.1
355.057	54.1
355.268	43.86
355.48	72.53
355.692	111.44
355.903	109.4
356.115	21.33
356.326	70.48
356.538	25.43
356.749	121.68
356.961	97.11
357.172	66.39
357.384	64.34
357.595	37.72
357.807	39.76
358.018	45.91
358.23	74.58
358.441	50
358.653	68.44
358.864	21.33
359.075	72.53
359.287	29.52
359.498	39.76
359.709	13.14
359.921	43.86
360.132	37.72
360.344	103.25
360.555	13.14
360.766	93.01
360.977	95.06
361.189	95.06
361.4	35.67
361.611	64.34
361.823	82.77
362.034	54.1
362.245	2.9
362.456	64.34
362.667	43.86
362.879	97.11
363.09	9.05
363.301	76.63
363.512	21.33
363.723	111.44
363.935	41.81
364.146	80.72
364.357	15.19
364.568	95.06
364.779	33.62
364.99	127.83
365.201	117.59
365.412	86.87
365.623	56.15
365.834	86.87
366.045	90.96
366.256	127.83
366.467	43.86
366.678	23.38
366.889	129.88
367.1	2.9
367.311	0.85
367.522	56.15
367.733	66.39
367.944	187.22
368.155	56.15
368.366	74.58
368.577	99.16
368.788	109.4
368.999	11.09
369.209	76.63
369.42	84.82
369.631	90.96
369.842	109.4
370.053	56.15
370.264	68.44
370.474	52.05
370.685	66.39
370.896	97.11
371.107	33.62
371.317	31.57
371.528	-1.19
371.739	64.34
371.95	35.67
372.16	70.48
372.371	31.57
372.582	95.06
372.792	84.82
373.003	54.1
373.214	121.68
373.424	111.44
373.635	-13.48
373.846	45.91
374.056	86.87
374.267	35.67
374.477	21.33
374.688	50
374.898	60.24
375.109	129.88
375.319	19.29
375.53	25.43
375.74	37.72
375.951	93.01
376.161	111.44
376.372	17.24
376.582	23.38
376.793	113.49
377.003	-1.19
377.214	37.72
377.424	117.59
377.635	136.02
377.845	70.48
378.055	146.26
378.266	86.87
378.476	101.2
378.686	88.92
378.897	84.82
379.107	52.05
379.317	117.59
379.528	7
379.738	43.86
379.948	109.4
380.158	29.52
380.369	93.01
380.579	19.29
380.789	43.86
380.999	84.82
381.21	78.68
381.42	111.44
381.63	82.77
381.84	27.48
382.05	9.05
382.261	21.33
382.471	103.25
382.681	95.06
382.891	86.87
383.101	43.86
383.311	99.16
383.521	95.06
383.731	62.29
383.941	37.72
384.151	50
384.361	88.92
384.571	103.25
384.781	58.2
384.991	37.72
385.201	133.97
385.411	78.68
385.621	56.15
385.831	4.95
386.041	97.11
386.251	95.06
386.461	117.59
386.671	0.85
386.881	54.1
387.091	0.85
387.301	82.77
387.511	68.44
387.72	129.88
387.93	105.3
388.14	64.34
388.35	88.92
388.56	37.72
388.769	62.29
388.979	105.3
389.189	29.52
389.399	119.64
389.609	99.16
389.818	166.74
390.028	101.2
390.238	70.48
390.447	41.81
390.657	111.44
390.867	99.16
391.076	84.82
391.286	76.63
391.496	33.62
391.705	103.25
391.915	117.59
392.125	107.35
392.334	68.44
392.544	50
392.753	138.07
392.963	66.39
393.172	78.68
393.382	101.2
393.591	111.44
393.801	62.29
394.01	50
394.22	93.01
394.429	136.02
394.639	68.44
394.848	101.2
395.058	144.21
395.267	111.44
395.477	74.58
395.686	78.68
395.895	125.78
396.105	172.88
396.314	62.29
396.524	86.87
396.733	119.64
396.942	121.68
397.152	115.54
397.361	41.81
397.57	78.68
397.78	127.83
397.989	90.96
398.198	119.64
398.407	133.97
398.617	64.34
398.826	105.3
399.035	45.91
399.244	82.77
399.453	93.01
399.663	181.07
399.872	166.74
400.081	109.4
400.29	160.59
400.499	160.59
400.708	168.79
400.917	97.11
401.127	191.31
401.336	148.31
401.545	93.01
401.754	105.3
401.963	187.22
402.172	140.12
402.381	119.64
402.59	111.44
402.799	129.88
403.008	187.22
403.217	148.31
403.426	127.83
403.635	154.45
403.844	156.5
404.053	129.88
404.262	140.12
404.471	133.97
404.68	107.35
404.888	119.64
405.097	199.51
405.306	121.68
405.515	113.49
405.724	203.6
405.933	222.03
406.142	234.32
406.35	250.71
406.559	129.88
406.768	217.94
406.977	215.89
407.185	265.04
407.394	209.75
407.603	222.03
407.812	217.94
408.02	226.13
408.229	205.65
408.438	262.99
408.646	283.47
408.855	279.38
409.064	226.13
409.272	308.05
409.481	344.91
409.69	265.04
409.898	344.91
410.107	406.35
410.315	295.76
410.524	367.44
410.733	330.58
410.941	432.97
411.15	383.82
411.358	416.59
411.567	461.65
411.775	428.88
411.984	459.6
412.192	426.83
412.401	547.66
412.609	527.18
412.818	543.57
413.026	510.8
413.234	574.28
413.443	535.37
413.651	621.39
413.86	529.23
414.068	705.35
414.276	666.44
414.485	566.09
414.693	676.68
414.901	719.69
415.11	740.17
415.318	762.7
415.526	729.93
415.734	803.66
415.943	779.08
416.151	883.53
416.359	895.82
416.567	871.24
416.776	904.01
416.984	951.11
417.192	1018.69
417.4	1047.37
417.608	1047.37
417.817	1096.52
418.025	1114.95
418.233	1186.63
418.441	1227.59
418.649	1342.27
418.857	1364.8
419.065	1332.03
419.273	1372.99
419.481	1385.28
419.689	1473.34
419.897	1446.72
420.105	1575.74
420.313	1692.48
420.521	1672
420.729	1801.02
420.937	1856.31
421.145	1915.7
421.353	1962.81
421.561	1948.47
421.769	2032.44
421.977	2145.08
422.185	2057.01
422.393	2220.85
422.601	2431.79
422.809	2245.43
423.017	2345.78
423.224	2437.94
423.432	2552.62
423.64	2614.06
423.848	2878.25
424.056	2667.31
424.263	2874.15
424.471	2943.78
424.679	3019.56
424.887	3283.75
425.094	3175.2
425.302	3402.53
425.51	3377.95
425.718	3541.79
425.925	3650.33
426.133	3658.53
426.341	3861.27
426.548	4033.3
426.756	4090.65
426.964	4117.27
427.171	4330.26
427.379	4463.38
427.586	4578.06
427.794	4641.55
428.001	4907.79
428.209	5153.54
428.417	5024.52
428.624	5313.28
428.832	5268.23
429.039	5298.95
429.247	5165.83
429.454	5806.84
429.662	6030.07
429.869	5829.37
430.076	6157.05
430.284	5862.14
430.491	6218.49
430.699	6634.22
430.906	6695.66
431.114	6822.64
431.321	7107.3
431.528	7021.29
431.736	7389.92
431.943	7854.81
432.15	7592.67
432.358	7723.74
432.565	8262.36
432.772	8157.91
432.979	8659.67
433.187	8870.61
433.394	8878.8
433.601	9310.92
433.808	9624.26
434.016	9415.37
434.223	9691.84
434.43	10257.08
434.637	10136.25
434.844	10844.85
435.052	10982.06
435.259	10857.14
435.466	11174.57
435.673	10922.67
435.88	11506.34
436.087	12182.17
436.294	11963.04
436.501	11680.42
436.708	12053.15
436.915	12642.96
437.122	13140.62
437.329	13267.59
437.537	13410.95
437.743	13781.64
437.95	13558.41
438.157	14289.53
438.364	14791.28
438.571	14760.56
438.778	14910.07
438.985	16183.9
439.192	15489.64
439.399	16147.04
439.606	15698.53
439.813	16861.78
440.02	17599.05
440.227	17136.21
440.433	17103.44
440.64	17629.77
440.847	17539.66
441.054	18080.32
441.261	18901.56
441.467	18905.65
441.674	19286.58
441.881	19849.77
442.088	19923.49
442.294	19853.86
442.501	20091.43
442.708	20656.67
442.914	21520.91
443.121	22317.57
443.328	21672.46
443.534	23366.13
443.741	22399.49
443.948	22393.34
444.154	24406.5
444.361	23874.03
444.568	23640.56
444.774	23888.36
444.981	24121.83
445.187	25004.5
445.394	26122.69
445.6	25821.64
445.807	28180.9
446.013	27038.14
446.22	27736.49
446.426	28586.4
446.633	28594.59
446.839	29862.29
447.046	28774.81
447.252	29972.88
447.459	30263.69
447.665	30167.43
447.871	31392.12
448.078	32754.02
448.284	30910.85
448.491	31631.73
448.697	33347.93
448.903	33825.11
449.11	33968.46
449.316	33261.91
449.522	33909.07
449.728	34861.38
449.935	35045.69
450.141	34793.79
450.347	35844.4
450.553	34838.85
450.76	35367.23
450.966	36456.75
451.172	35662.13
451.378	37001.5
451.584	35934.51
451.791	36935.97
451.997	36559.14
452.203	37460.25
452.409	37296.41
452.615	37478.68
452.821	35828.02
453.027	35393.85
453.233	37089.57
453.44	36118.83
453.646	36362.54
453.852	36260.14
454.058	36974.88
454.264	35737.91
454.47	36516.14
454.676	35615.03
454.882	36587.82
455.088	33827.15
455.294	34246.99
455.5	34677.06
455.705	35123.52
455.911	33411.42
456.117	33016.16
456.323	32616.8
456.529	31000.96
456.735	32158.06
456.941	31613.3
457.147	30704
457.352	29798.8
457.558	29469.08
457.764	29616.53
457.97	29129.11
458.176	28414.37
458.381	28561.83
458.587	26997.18
458.793	27367.86
458.999	25709.01
459.204	27746.73
459.41	26833.34
459.616	25006.55
459.821	25108.95
460.027	24961.5
460.233	24259.04
460.438	23534.06
460.644	23661.04
460.85	22090.24
461.055	22145.54
461.261	22045.19
461.466	20558.36
461.672	19823.14
461.878	21203.47
462.083	19989.03
462.289	19407.41
462.494	19292.72
462.7	18713.14
462.905	17896
463.111	18424.38
463.316	18870.84
463.522	18559.55
463.727	18420.28
463.932	18530.87
464.138	18453.05
464.343	18149.95
464.549	17764.93
464.754	18231.87
464.959	18094.66
465.165	18162.24
465.37	17209.93
465.575	16886.36
465.781	17637.96
465.986	17715.78
466.191	16996.95
466.397	16560.73
466.602	15870.56
466.807	16562.78
467.012	16298.59
467.218	16290.4
467.423	16101.98
467.628	16235.1
467.833	16900.69
468.038	16355.93
468.244	15841.89
468.449	16261.73
