Data from USB4F104151__246__14-01-19-736.txt Node

Date: Thu Mar 13 14:01:19 EDT 2025
User: louis
Spectrometer: USB4F10415
Trigger mode: 4
Integration Time (sec): 1.000000E-2
Scans to average: 1
Electric dark correction enabled: true
Nonlinearity correction enabled: false
Boxcar width: 0
XAxis mode: Wavelengths
Number of Pixels in Spectrum: 3648
>>>>>Begin Spectral Data<<<<<
178.204	-33.45
178.424	-33.45
178.644	-33.45
178.864	-12.97
179.084	-55.98
179.304	36.18
179.524	40.28
179.744	-47.79
179.964	15.7
180.184	17.75
180.404	-17.07
180.624	-66.22
180.844	44.37
181.064	11.61
181.283	21.85
181.503	-0.68
181.723	-55.98
181.943	-37.55
182.163	19.8
182.383	79.19
182.602	-25.26
182.822	62.8
183.042	13.65
183.262	-25.26
183.482	21.85
183.701	21.85
183.921	-12.97
184.141	-45.74
184.361	13.65
184.58	71
184.8	50.52
185.02	-8.87
185.239	36.18
185.459	-51.88
185.679	32.08
185.898	-37.55
186.118	1.37
186.338	-45.74
186.557	9.56
186.777	-29.35
186.997	77.14
187.216	32.08
187.436	-33.45
187.655	3.41
187.875	21.85
188.095	77.14
188.314	32.08
188.534	-23.21
188.753	44.37
188.973	-92.84
189.192	60.76
189.412	95.57
189.631	44.37
189.851	11.61
190.07	30.04
190.29	81.24
190.509	15.7
190.729	-96.94
190.948	34.13
191.168	75.09
191.387	-2.73
191.607	-17.07
191.826	5.46
192.045	-31.4
192.265	-19.11
192.484	-27.31
192.704	5.46
192.923	13.65
193.142	48.47
193.362	-53.93
193.581	-10.92
193.8	85.33
194.02	7.51
194.239	44.37
194.458	-37.55
194.678	-4.78
194.897	42.32
195.116	11.61
195.335	-35.5
195.555	30.04
195.774	-12.97
195.993	5.46
196.212	32.08
196.432	-47.79
196.651	-2.73
196.87	13.65
197.089	93.52
197.308	52.56
197.528	11.61
197.747	-35.5
197.966	-33.45
198.185	128.34
198.404	-4.78
198.623	60.76
198.842	-8.87
199.062	-12.97
199.281	77.14
199.5	-21.16
199.719	-47.79
199.938	25.94
200.157	15.7
200.376	-4.78
200.595	44.37
200.814	5.46
201.033	11.61
201.252	3.41
201.471	-10.92
201.69	-6.83
201.909	73.04
202.128	-12.97
202.347	38.23
202.566	-35.5
202.785	-45.74
203.004	-0.68
203.223	-33.45
203.442	46.42
203.661	-66.22
203.879	11.61
204.098	42.32
204.317	-84.65
204.536	-12.97
204.755	85.33
204.974	11.61
205.193	3.41
205.411	17.75
205.63	-37.55
205.849	-23.21
206.068	9.56
206.287	3.41
206.505	27.99
206.724	40.28
206.943	79.19
207.162	19.8
207.381	-58.03
207.599	-25.26
207.818	-23.21
208.037	-4.78
208.255	1.37
208.474	64.85
208.693	52.56
208.911	48.47
209.13	-21.16
209.349	-2.73
209.567	15.7
209.786	-58.03
210.005	11.61
210.223	54.61
210.442	-55.98
210.661	-2.73
210.879	75.09
211.098	-2.73
211.316	-55.98
211.535	9.56
211.753	42.32
211.972	13.65
212.191	-15.02
212.409	60.76
212.628	-53.93
212.846	60.76
213.065	-35.5
213.283	-4.78
213.502	32.08
213.72	-37.55
213.938	21.85
214.157	36.18
214.375	5.46
214.594	27.99
214.812	54.61
215.031	-53.93
215.249	71
215.467	36.18
215.686	3.41
215.904	-17.07
216.122	-37.55
216.341	71
216.559	-4.78
216.778	56.66
216.996	19.8
217.214	-37.55
217.432	-64.17
217.651	46.42
217.869	-60.07
218.087	17.75
218.306	68.95
218.524	-35.5
218.742	60.76
218.96	-25.26
219.179	66.9
219.397	56.66
219.615	21.85
219.833	44.37
220.051	27.99
220.27	-25.26
220.488	60.76
220.706	5.46
220.924	-31.4
221.142	-10.92
221.36	36.18
221.578	34.13
221.796	-10.92
222.015	19.8
222.233	-12.97
222.451	-49.83
222.669	-12.97
222.887	-2.73
223.105	-25.26
223.323	73.04
223.541	-43.69
223.759	13.65
223.977	-29.35
224.195	7.51
224.413	27.99
224.631	21.85
224.849	64.85
225.067	32.08
225.285	7.51
225.503	19.8
225.721	-55.98
225.939	-43.69
226.157	-45.74
226.375	38.23
226.592	66.9
226.81	-43.69
227.028	-4.78
227.246	62.8
227.464	-29.35
227.682	-27.31
227.9	-31.4
228.117	21.85
228.335	17.75
228.553	7.51
228.771	36.18
228.989	48.47
229.206	-8.87
229.424	-6.83
229.642	9.56
229.86	60.76
230.077	11.61
230.295	52.56
230.513	-58.03
230.731	13.65
230.948	21.85
231.166	38.23
231.384	-29.35
231.601	71
231.819	19.8
232.037	-35.5
232.254	-37.55
232.472	-39.59
232.689	-21.16
232.907	5.46
233.125	-74.41
233.342	19.8
233.56	17.75
233.777	89.43
233.995	52.56
234.213	-29.35
234.43	42.32
234.648	9.56
234.865	1.37
235.083	-4.78
235.3	-29.35
235.518	-2.73
235.735	60.76
235.953	71
236.17	44.37
236.388	38.23
236.605	38.23
236.822	50.52
237.04	36.18
237.257	36.18
237.475	-21.16
237.692	42.32
237.909	-31.4
238.127	60.76
238.344	-8.87
238.562	64.85
238.779	46.42
238.996	52.56
239.214	-4.78
239.431	-12.97
239.648	-2.73
239.865	-4.78
240.083	30.04
240.3	44.37
240.517	-37.55
240.735	19.8
240.952	-21.16
241.169	21.85
241.386	-8.87
241.603	-0.68
241.821	30.04
242.038	60.76
242.255	-0.68
242.472	19.8
242.689	44.37
242.907	-37.55
243.124	77.14
243.341	11.61
243.558	-60.07
243.775	3.41
243.992	19.8
244.209	1.37
244.426	-33.45
244.643	7.51
244.86	1.37
245.078	21.85
245.295	44.37
245.512	-33.45
245.729	23.89
245.946	3.41
246.163	-8.87
246.38	-4.78
246.597	27.99
246.814	97.62
247.031	-6.83
247.248	5.46
247.464	-21.16
247.681	19.8
247.898	1.37
248.115	-62.12
248.332	-29.35
248.549	-43.69
248.766	54.61
248.983	-43.69
249.2	19.8
249.417	44.37
249.633	5.46
249.85	13.65
250.067	15.7
250.284	54.61
250.501	-8.87
250.717	11.61
250.934	15.7
251.151	38.23
251.368	-17.07
251.585	-12.97
251.801	-12.97
252.018	15.7
252.235	40.28
252.451	17.75
252.668	-23.21
252.885	56.66
253.102	48.47
253.318	-37.55
253.535	-21.16
253.752	3.41
253.968	40.28
254.185	11.61
254.401	-53.93
254.618	32.08
254.835	46.42
255.051	68.95
255.268	5.46
255.484	30.04
255.701	7.51
255.917	109.91
256.134	40.28
256.351	-25.26
256.567	11.61
256.784	40.28
257	60.76
257.217	95.57
257.433	-27.31
257.65	66.9
257.866	91.48
258.082	-25.26
258.299	-17.07
258.515	11.61
258.732	-51.88
258.948	3.41
259.165	-43.69
259.381	-12.97
259.597	58.71
259.814	-51.88
260.03	46.42
260.246	54.61
260.463	5.46
260.679	25.94
260.895	19.8
261.112	-15.02
261.328	-27.31
261.544	54.61
261.761	46.42
261.977	27.99
262.193	-4.78
262.409	46.42
262.626	40.28
262.842	27.99
263.058	23.89
263.274	5.46
263.49	-27.31
263.707	19.8
263.923	19.8
264.139	-8.87
264.355	66.9
264.571	11.61
264.787	3.41
265.004	62.8
265.22	30.04
265.436	-10.92
265.652	-6.83
265.868	62.8
266.084	-64.17
266.3	3.41
266.516	32.08
266.732	-8.87
266.948	48.47
267.164	-43.69
267.38	52.56
267.596	60.76
267.812	32.08
268.028	85.33
268.244	25.94
268.46	19.8
268.676	-39.59
268.892	40.28
269.108	-35.5
269.324	-53.93
269.54	46.42
269.756	17.75
269.972	48.47
270.188	15.7
270.403	-19.11
270.619	-35.5
270.835	-45.74
271.051	27.99
271.267	-10.92
271.483	101.72
271.698	3.41
271.914	42.32
272.13	3.41
272.346	5.46
272.562	5.46
272.777	77.14
272.993	36.18
273.209	38.23
273.425	5.46
273.64	3.41
273.856	32.08
274.072	9.56
274.287	-27.31
274.503	-29.35
274.719	23.89
274.934	77.14
275.15	13.65
275.366	-21.16
275.581	-25.26
275.797	52.56
276.012	54.61
276.228	40.28
276.444	17.75
276.659	54.61
276.875	1.37
277.09	27.99
277.306	-33.45
277.521	-33.45
277.737	38.23
277.952	9.56
278.168	11.61
278.383	-4.78
278.599	81.24
278.814	56.66
279.03	34.13
279.245	68.95
279.461	-12.97
279.676	15.7
279.892	-21.16
280.107	46.42
280.322	-17.07
280.538	23.89
280.753	19.8
280.969	-33.45
281.184	-49.83
281.399	30.04
281.615	-39.59
281.83	34.13
282.045	11.61
282.26	-12.97
282.476	-19.11
282.691	101.72
282.906	77.14
283.122	27.99
283.337	21.85
283.552	-27.31
283.767	19.8
283.983	11.61
284.198	60.76
284.413	3.41
284.628	19.8
284.843	54.61
285.058	11.61
285.274	11.61
285.489	-19.11
285.704	95.57
285.919	-43.69
286.134	85.33
286.349	40.28
286.564	19.8
286.779	3.41
286.995	-17.07
287.21	11.61
287.425	11.61
287.64	60.76
287.855	85.33
288.07	-2.73
288.285	23.89
288.5	87.38
288.715	-17.07
288.93	-2.73
289.145	-41.64
289.36	60.76
289.575	5.46
289.79	30.04
290.004	-45.74
290.219	15.7
290.434	23.89
290.649	-53.93
290.864	-27.31
291.079	3.41
291.294	-2.73
291.509	21.85
291.724	-29.35
291.938	7.51
292.153	17.75
292.368	27.99
292.583	-0.68
292.798	44.37
293.012	-2.73
293.227	13.65
293.442	-33.45
293.657	60.76
293.871	-4.78
294.086	79.19
294.301	-10.92
294.516	15.7
294.73	30.04
294.945	27.99
295.16	68.95
295.374	68.95
295.589	5.46
295.804	-39.59
296.018	-21.16
296.233	44.37
296.447	5.46
296.662	21.85
296.877	62.8
297.091	-109.22
297.306	-0.68
297.52	7.51
297.735	62.8
297.949	-10.92
298.164	-92.84
298.378	3.41
298.593	-45.74
298.807	-17.07
299.022	-84.65
299.236	-25.26
299.451	44.37
299.665	-27.31
299.88	-2.73
300.094	85.33
300.309	36.18
300.523	44.37
300.737	-19.11
300.952	-19.11
301.166	44.37
301.381	-37.55
301.595	25.94
301.809	-41.64
302.024	-12.97
302.238	27.99
302.452	-0.68
302.667	85.33
302.881	40.28
303.095	81.24
303.309	7.51
303.524	15.7
303.738	32.08
303.952	-41.64
304.166	-19.11
304.381	-60.07
304.595	-37.55
304.809	-17.07
305.023	-2.73
305.237	68.95
305.452	54.61
305.666	-19.11
305.88	7.51
306.094	52.56
306.308	-27.31
306.522	27.99
306.736	3.41
306.95	15.7
307.164	38.23
307.379	62.8
307.593	-29.35
307.807	87.38
308.021	54.61
308.235	19.8
308.449	-68.27
308.663	38.23
308.877	30.04
309.091	32.08
309.305	21.85
309.519	-4.78
309.733	32.08
309.947	-12.97
310.161	71
310.374	27.99
310.588	11.61
310.802	19.8
311.016	13.65
311.23	-21.16
311.444	85.33
311.658	-21.16
311.872	13.65
312.085	54.61
312.299	38.23
312.513	23.89
312.727	40.28
312.941	-35.5
313.154	54.61
313.368	97.62
313.582	25.94
313.796	54.61
314.009	23.89
314.223	54.61
314.437	-68.27
314.651	66.9
314.864	62.8
315.078	34.13
315.292	-27.31
315.505	-31.4
315.719	5.46
315.933	-58.03
316.146	77.14
316.36	21.85
316.573	48.47
316.787	5.46
317.001	48.47
317.214	44.37
317.428	21.85
317.641	-12.97
317.855	-19.11
318.068	13.65
318.282	64.85
318.495	73.04
318.709	27.99
318.922	5.46
319.136	-12.97
319.349	46.42
319.563	42.32
319.776	109.91
319.99	7.51
320.203	-6.83
320.417	27.99
320.63	46.42
320.843	38.23
321.057	13.65
321.27	23.89
321.483	32.08
321.697	1.37
321.91	-72.36
322.124	-27.31
322.337	-37.55
322.55	-33.45
322.763	-2.73
322.977	85.33
323.19	19.8
323.403	19.8
323.617	-39.59
323.83	42.32
324.043	19.8
324.256	-12.97
324.469	44.37
324.683	15.7
324.896	-25.26
325.109	38.23
325.322	44.37
325.535	-4.78
325.748	75.09
325.962	-12.97
326.175	-10.92
326.388	58.71
326.601	38.23
326.814	13.65
327.027	-25.26
327.24	42.32
327.453	-4.78
327.666	-6.83
327.879	15.7
328.092	48.47
328.305	-17.07
328.518	21.85
328.731	54.61
328.944	30.04
329.157	13.65
329.37	30.04
329.583	56.66
329.796	21.85
330.009	-27.31
330.222	-12.97
330.435	36.18
330.648	-17.07
330.861	15.7
331.073	27.99
331.286	-8.87
331.499	23.89
331.712	32.08
331.925	-10.92
332.138	17.75
332.35	32.08
332.563	60.76
332.776	79.19
332.989	56.66
333.202	-21.16
333.414	64.85
333.627	21.85
333.84	1.37
334.053	-10.92
334.265	-10.92
334.478	-12.97
334.691	5.46
334.903	42.32
335.116	11.61
335.329	15.7
335.541	36.18
335.754	1.37
335.966	3.41
336.179	-4.78
336.392	25.94
336.604	101.72
336.817	44.37
337.029	-21.16
337.242	-17.07
337.454	-4.78
337.667	3.41
337.88	5.46
338.092	5.46
338.305	85.33
338.517	56.66
338.729	-21.16
338.942	19.8
339.154	5.46
339.367	27.99
339.579	-6.83
339.792	50.52
340.004	25.94
340.217	32.08
340.429	-4.78
340.641	-17.07
340.854	48.47
341.066	27.99
341.278	21.85
341.491	30.04
341.703	-31.4
341.915	15.7
342.128	-21.16
342.34	23.89
342.552	23.89
342.764	64.85
342.977	-51.88
343.189	-51.88
343.401	101.72
343.613	-39.59
343.826	-31.4
344.038	62.8
344.25	19.8
344.462	-19.11
344.674	77.14
344.886	11.61
345.099	-17.07
345.311	13.65
345.523	-8.87
345.735	73.04
345.947	-2.73
346.159	-53.93
346.371	11.61
346.583	38.23
346.795	13.65
347.007	23.89
347.219	103.76
347.431	-15.02
347.643	52.56
347.855	13.65
348.067	32.08
348.279	15.7
348.491	79.19
348.703	3.41
348.915	38.23
349.127	64.85
349.339	-37.55
349.551	3.41
349.763	-37.55
349.975	-21.16
350.187	81.24
350.399	-15.02
350.61	1.37
350.822	-33.45
351.034	-10.92
351.246	-17.07
351.458	11.61
351.669	5.46
351.881	-12.97
352.093	87.38
352.305	48.47
352.517	7.51
352.728	46.42
352.94	40.28
353.152	42.32
353.363	19.8
353.575	60.76
353.787	13.65
353.999	9.56
354.21	19.8
354.422	-2.73
354.633	-35.5
354.845	21.85
355.057	7.51
355.268	-8.87
355.48	-10.92
355.692	38.23
355.903	38.23
356.115	46.42
356.326	15.7
356.538	27.99
356.749	36.18
356.961	52.56
357.172	38.23
357.384	-4.78
357.595	5.46
357.807	-0.68
358.018	13.65
358.23	5.46
358.441	-29.35
358.653	54.61
358.864	-90.79
359.075	3.41
359.287	7.51
359.498	30.04
359.709	-27.31
359.921	-31.4
360.132	44.37
360.344	48.47
360.555	13.65
360.766	-23.21
360.977	46.42
361.189	89.43
361.4	3.41
361.611	-21.16
361.823	64.85
362.034	50.52
362.245	21.85
362.456	34.13
362.667	3.41
362.879	44.37
363.09	52.56
363.301	27.99
363.512	-35.5
363.723	21.85
363.935	-60.07
364.146	64.85
364.357	-4.78
364.568	23.89
364.779	-0.68
364.99	1.37
365.201	19.8
365.412	60.76
365.623	-62.12
365.834	7.51
366.045	103.76
366.256	40.28
366.467	27.99
366.678	64.85
366.889	-21.16
367.1	21.85
367.311	-19.11
367.522	56.66
367.733	64.85
367.944	27.99
368.155	11.61
368.366	5.46
368.577	3.41
368.788	3.41
368.999	5.46
369.209	44.37
369.42	11.61
369.631	54.61
369.842	11.61
370.053	-17.07
370.264	36.18
370.474	81.24
370.685	-6.83
370.896	3.41
371.107	7.51
371.317	77.14
371.528	7.51
371.739	50.52
371.95	5.46
372.16	-15.02
372.371	44.37
372.582	7.51
372.792	68.95
373.003	73.04
373.214	-31.4
373.424	-6.83
373.635	32.08
373.846	11.61
374.056	7.51
374.267	-49.83
374.477	-78.51
374.688	54.61
374.898	3.41
375.109	36.18
375.319	75.09
375.53	1.37
375.74	-17.07
375.951	-2.73
376.161	15.7
376.372	71
376.582	77.14
376.793	30.04
377.003	85.33
377.214	-6.83
377.424	3.41
377.635	27.99
377.845	-25.26
378.055	32.08
378.266	-25.26
378.476	-8.87
378.686	23.89
378.897	48.47
379.107	15.7
379.317	68.95
379.528	1.37
379.738	7.51
379.948	27.99
380.158	42.32
380.369	60.76
380.579	3.41
380.789	15.7
380.999	50.52
381.21	-4.78
381.42	30.04
381.63	-29.35
381.84	52.56
382.05	77.14
382.261	150.87
382.471	-6.83
382.681	97.62
382.891	-12.97
383.101	56.66
383.311	19.8
383.521	54.61
383.731	50.52
383.941	40.28
384.151	13.65
384.361	73.04
384.571	-8.87
384.781	93.52
384.991	36.18
385.201	-23.21
385.411	-25.26
385.621	27.99
385.831	77.14
386.041	21.85
386.251	34.13
386.461	116.05
386.671	-17.07
386.881	109.91
387.091	19.8
387.301	40.28
387.511	-12.97
387.72	-15.02
387.93	-0.68
388.14	146.77
388.35	52.56
388.56	62.8
388.769	52.56
388.979	54.61
389.189	-23.21
389.399	-10.92
389.609	7.51
389.818	62.8
390.028	7.51
390.238	46.42
390.447	-4.78
390.657	68.95
390.867	48.47
391.076	46.42
391.286	-21.16
391.496	44.37
391.705	-21.16
391.915	58.71
392.125	44.37
392.334	-25.26
392.544	23.89
392.753	89.43
392.963	56.66
393.172	71
393.382	-29.35
393.591	128.34
393.801	19.8
394.01	68.95
394.22	27.99
394.429	48.47
394.639	-19.11
394.848	99.67
395.058	103.76
395.267	52.56
395.477	27.99
395.686	46.42
395.895	44.37
396.105	71
396.314	46.42
396.524	62.8
396.733	105.81
396.942	93.52
397.152	17.75
397.361	142.68
397.57	3.41
397.78	142.68
397.989	87.38
398.198	81.24
398.407	48.47
398.617	-15.02
398.826	15.7
399.035	34.13
399.244	60.76
399.453	60.76
399.663	15.7
399.872	97.62
400.081	52.56
400.29	52.56
400.499	36.18
400.708	-2.73
400.917	87.38
401.127	107.86
401.336	85.33
401.545	120.15
401.754	60.76
401.963	66.9
402.172	27.99
402.381	46.42
402.59	-4.78
402.799	89.43
403.008	-25.26
403.217	62.8
403.426	132.44
403.635	44.37
403.844	154.96
404.053	36.18
404.262	15.7
404.471	116.05
404.68	128.34
404.888	89.43
405.097	105.81
405.306	64.85
405.515	52.56
405.724	130.39
405.933	109.91
406.142	163.15
406.35	85.33
406.559	27.99
406.768	122.2
406.977	93.52
407.185	114
407.394	163.15
407.603	52.56
407.812	105.81
408.02	122.2
408.229	111.96
408.438	52.56
408.646	114
408.855	71
409.064	122.2
409.272	191.83
409.481	136.53
409.69	167.25
409.898	177.49
410.107	62.8
410.315	138.58
410.524	150.87
410.733	208.21
410.941	208.21
411.15	159.06
411.358	232.79
411.567	257.36
411.775	238.93
411.984	245.07
412.192	210.26
412.401	224.59
412.609	238.93
412.818	234.83
413.026	283.99
413.234	349.52
413.443	208.21
413.651	263.51
413.86	314.7
414.068	378.19
414.276	382.29
414.485	384.34
414.693	275.79
414.901	443.73
415.11	347.47
415.318	441.68
415.526	494.93
415.734	384.34
415.943	378.19
416.151	486.73
416.359	458.06
416.567	496.97
416.776	480.59
416.984	558.41
417.192	554.32
417.4	603.47
417.608	496.97
417.817	478.54
418.025	609.61
418.233	628.04
418.441	613.71
418.649	724.3
418.857	650.57
419.065	742.73
419.273	716.11
419.481	691.53
419.689	810.31
419.897	836.94
420.105	814.41
420.313	857.42
420.521	881.99
420.729	920.9
420.937	894.28
421.145	1008.97
421.353	988.49
421.561	1119.56
421.769	1154.37
421.977	1097.03
422.185	1178.95
422.393	1189.19
422.601	1289.54
422.809	1211.71
423.017	1240.39
423.224	1203.52
423.432	1420.61
423.64	1449.28
423.848	1473.85
424.056	1545.53
424.263	1596.73
424.471	1584.45
424.679	1545.53
424.887	1836.35
425.094	1754.43
425.302	1774.91
425.51	1799.48
425.718	1879.35
425.925	1908.02
426.133	1959.22
426.341	2028.85
426.548	2229.56
426.756	2106.68
426.964	2231.6
427.171	2278.71
427.379	2432.3
427.586	2424.11
427.794	2448.69
428.001	2587.95
428.209	2727.21
428.417	2633.01
428.624	2837.8
428.832	3007.78
429.039	2854.19
429.247	2819.37
429.454	3085.61
429.662	3243.3
429.869	3087.65
430.076	3372.32
430.284	3271.97
430.491	3274.02
430.699	3573.02
430.906	3484.96
431.114	3564.83
431.321	3708.19
431.528	3835.16
431.736	3980.57
431.943	4252.95
432.15	4109.59
432.358	4082.97
432.565	4431.12
432.772	4447.51
432.979	4689.17
433.187	4562.19
433.394	4644.11
433.601	5012.74
433.808	5025.03
434.016	5102.86
434.223	5246.21
434.43	5506.31
434.637	5418.24
434.844	5702.91
435.052	5805.31
435.259	5840.12
435.466	5891.32
435.673	5786.88
435.88	6198.52
436.087	6354.16
436.294	6423.8
436.501	6333.68
436.708	6360.31
436.915	6687.98
437.122	7044.33
437.329	7015.66
437.537	7202.02
437.743	7380.2
437.95	7208.17
438.157	7630.05
438.364	7722.21
438.571	7687.39
438.778	8060.12
438.985	8617.17
439.192	8465.62
439.399	8557.78
439.606	8389.85
439.813	8875.21
440.02	9520.32
440.227	9243.85
440.433	9051.34
440.64	9452.74
440.847	9346.25
441.054	9661.63
441.261	10368.18
441.467	10237.11
441.674	10415.29
441.881	10738.87
442.088	10726.58
442.294	10620.08
442.501	10562.74
442.708	11062.44
442.914	11410.6
443.121	11836.58
443.328	11644.07
443.534	12739.73
443.741	12072.09
443.948	11984.03
444.154	12848.27
444.361	12690.58
444.568	12803.22
444.774	12770.45
444.981	13018.25
445.187	13384.84
445.394	13804.67
445.6	14011.52
445.807	15158.38
446.013	14441.59
446.22	14668.92
446.426	15381.61
446.633	15502.44
446.839	16002.15
447.046	15199.34
447.252	16184.41
447.459	16018.53
447.665	16002.15
447.871	16768.09
448.078	17421.39
448.284	16616.54
448.491	17216.59
448.697	17392.72
448.903	17925.19
449.11	18220.1
449.316	17974.34
449.522	18261.05
449.728	18633.78
449.935	18785.33
450.141	18971.7
450.347	19274.8
450.553	18619.45
450.76	18949.17
450.966	19399.73
451.172	19258.42
451.378	19997.73
451.584	19311.66
451.791	19588.14
451.997	19940.39
452.203	20153.38
452.409	20194.34
452.615	19940.39
452.821	19205.17
453.027	19100.72
453.233	19794.98
453.44	19313.71
453.646	19272.75
453.852	19653.67
454.058	19606.57
454.264	19426.35
454.47	19590.19
454.676	19160.11
454.882	19579.95
455.088	17970.24
455.294	18416.7
455.5	18828.34
455.705	18988.08
455.911	17855.56
456.117	17566.79
456.323	17570.89
456.529	16485.47
456.735	17331.28
456.941	16559.19
457.147	16426.07
457.352	16082.02
457.558	15797.35
457.764	15950.95
457.97	15643.75
458.176	15123.57
458.381	15189.1
458.587	14249.08
458.793	14546.04
458.999	13796.48
459.204	14611.57
459.41	14564.47
459.616	13452.42
459.821	13495.43
460.027	13425.8
460.233	13079.69
460.438	12481.69
460.644	12608.66
460.85	12102.81
461.055	11912.35
461.261	11746.47
461.466	11089.07
461.672	10552.5
461.878	11328.68
462.083	10808.5
462.289	10439.86
462.494	10343.61
462.7	10026.17
462.905	9542.85
463.111	9761.98
463.316	10001.6
463.522	9622.72
463.727	9868.48
463.932	9745.6
464.138	9739.46
464.343	9807.04
464.549	9465.03
464.754	9733.31
464.959	9643.2
465.165	9417.93
465.37	9215.18
465.575	8903.89
465.781	9381.06
465.986	9309.38
466.191	9075.91
466.397	8910.03
466.602	8502.48
466.807	8869.07
467.012	8774.86
467.218	8694.99
467.423	8568.02
467.628	8748.24
467.833	9034.96
468.038	8643.79
468.244	8641.75
468.449	8645.84
