Data from USB4F104151__59__13-53-36-516.txt Node

Date: Thu Mar 13 13:53:36 EDT 2025
User: louis
Spectrometer: USB4F10415
Trigger mode: 4
Integration Time (sec): 1.000000E-2
Scans to average: 1
Electric dark correction enabled: true
Nonlinearity correction enabled: false
Boxcar width: 0
XAxis mode: Wavelengths
Number of Pixels in Spectrum: 3648
>>>>>Begin Spectral Data<<<<<
178.204	-21.5
178.424	-21.5
178.644	-21.5
178.864	-1.02
179.084	-70.65
179.304	-87.04
179.524	-54.27
179.744	13.31
179.964	107.52
180.184	105.47
180.404	25.6
180.624	-35.84
180.844	11.26
181.064	-19.46
181.283	-15.36
181.503	-50.18
181.723	-1.02
181.943	7.17
182.163	111.61
182.383	1.02
182.602	29.7
182.822	78.85
183.042	-25.6
183.262	-31.74
183.482	68.61
183.701	-9.22
183.921	80.89
184.141	39.94
184.361	31.74
184.58	68.61
184.8	58.37
185.02	58.37
185.239	37.89
185.459	-21.5
185.679	35.84
185.898	82.94
186.118	60.42
186.338	-1.02
186.557	50.18
186.777	101.37
186.997	27.65
187.216	15.36
187.436	117.76
187.655	50.18
187.875	64.51
188.095	41.98
188.314	76.8
188.534	62.46
188.753	68.61
188.973	-3.07
189.192	84.99
189.412	84.99
189.631	-23.55
189.851	17.41
190.07	33.79
190.29	-7.17
190.509	-25.6
190.729	5.12
190.948	99.33
191.168	99.33
191.387	78.85
191.607	9.22
191.826	76.8
192.045	95.23
192.265	13.31
192.484	64.51
192.704	64.51
192.923	15.36
193.142	52.22
193.362	39.94
193.581	23.55
193.8	111.61
194.02	13.31
194.239	78.85
194.458	70.65
194.678	62.46
194.897	52.22
195.116	29.7
195.335	48.13
195.555	64.51
195.774	64.51
195.993	125.95
196.212	7.17
196.432	60.42
196.651	74.75
196.87	39.94
197.089	74.75
197.308	33.79
197.528	60.42
197.747	35.84
197.966	99.33
198.185	68.61
198.404	19.46
198.623	-15.36
198.842	7.17
199.062	72.7
199.281	68.61
199.5	95.23
199.719	15.36
199.938	17.41
200.157	-7.17
200.376	64.51
200.595	80.89
200.814	-23.55
201.033	48.13
201.252	7.17
201.471	52.22
201.69	58.37
201.909	70.65
202.128	35.84
202.347	52.22
202.566	7.17
202.785	48.13
203.004	52.22
203.223	99.33
203.442	29.7
203.661	80.89
203.879	109.57
204.098	7.17
204.317	11.26
204.536	27.65
204.755	27.65
204.974	29.7
205.193	21.5
205.411	60.42
205.63	11.26
205.849	29.7
206.068	-7.17
206.287	50.18
206.505	60.42
206.724	105.47
206.943	74.75
207.162	62.46
207.381	1.02
207.599	97.28
207.818	5.12
208.037	62.46
208.255	72.7
208.474	37.89
208.693	9.22
208.911	62.46
209.13	91.13
209.349	119.81
209.567	54.27
209.786	101.37
210.005	-5.12
210.223	3.07
210.442	39.94
210.661	-39.94
210.879	39.94
211.098	107.52
211.316	91.13
211.535	41.98
211.753	-50.18
211.972	78.85
212.191	50.18
212.409	-31.74
212.628	64.51
212.846	-13.31
213.065	19.46
213.283	31.74
213.502	27.65
213.72	109.57
213.938	54.27
214.157	54.27
214.375	37.89
214.594	37.89
214.812	33.79
215.031	84.99
215.249	9.22
215.467	68.61
215.686	62.46
215.904	68.61
216.122	64.51
216.341	46.08
216.559	93.18
216.778	64.51
216.996	19.46
217.214	132.09
217.432	56.32
217.651	50.18
217.869	52.22
218.087	35.84
218.306	33.79
218.524	109.57
218.742	46.08
218.96	-11.26
219.179	58.37
219.397	64.51
219.615	-3.07
219.833	17.41
220.051	44.03
220.27	19.46
220.488	-9.22
220.706	78.85
220.924	-9.22
221.142	74.75
221.36	44.03
221.578	50.18
221.796	33.79
222.015	5.12
222.233	84.99
222.451	39.94
222.669	82.94
222.887	128
223.105	93.18
223.323	76.8
223.541	23.55
223.759	41.98
223.977	84.99
224.195	87.04
224.413	27.65
224.631	37.89
224.849	33.79
225.067	1.02
225.285	48.13
225.503	101.37
225.721	-7.17
225.939	70.65
226.157	74.75
226.375	101.37
226.592	84.99
226.81	19.46
227.028	62.46
227.246	37.89
227.464	58.37
227.682	89.09
227.9	39.94
228.117	68.61
228.335	76.8
228.553	37.89
228.771	115.71
228.989	60.42
229.206	17.41
229.424	78.85
229.642	31.74
229.86	1.02
230.077	31.74
230.295	-7.17
230.513	37.89
230.731	82.94
230.948	68.61
231.166	-3.07
231.384	44.03
231.601	50.18
231.819	-5.12
232.037	-29.7
232.254	-31.74
232.472	91.13
232.689	105.47
232.907	72.7
233.125	52.22
233.342	41.98
233.56	113.66
233.777	-5.12
233.995	97.28
234.213	68.61
234.43	56.32
234.648	27.65
234.865	72.7
235.083	78.85
235.3	3.07
235.518	46.08
235.735	1.02
235.953	64.51
236.17	-3.07
236.388	84.99
236.605	23.55
236.822	50.18
237.04	-60.42
237.257	113.66
237.475	35.84
237.692	31.74
237.909	56.32
238.127	-15.36
238.344	107.52
238.562	144.38
238.779	119.81
238.996	17.41
239.214	46.08
239.431	78.85
239.648	52.22
239.865	56.32
240.083	107.52
240.3	60.42
240.517	76.8
240.735	70.65
240.952	52.22
241.169	64.51
241.386	80.89
241.603	64.51
241.821	41.98
242.038	-5.12
242.255	95.23
242.472	-17.41
242.689	-15.36
242.907	64.51
243.124	56.32
243.341	60.42
243.558	35.84
243.775	44.03
243.992	9.22
244.209	46.08
244.426	95.23
244.643	21.5
244.86	66.56
245.078	95.23
245.295	-29.7
245.512	89.09
245.729	62.46
245.946	-31.74
246.163	64.51
246.38	31.74
246.597	48.13
246.814	60.42
247.031	50.18
247.248	56.32
247.464	93.18
247.681	99.33
247.898	3.07
248.115	46.08
248.332	62.46
248.549	25.6
248.766	46.08
248.983	9.22
249.2	-35.84
249.417	41.98
249.633	33.79
249.85	103.42
250.067	-21.5
250.284	31.74
250.501	46.08
250.717	44.03
250.934	62.46
251.151	103.42
251.368	64.51
251.585	80.89
251.801	39.94
252.018	56.32
252.235	37.89
252.451	27.65
252.668	39.94
252.885	39.94
253.102	99.33
253.318	89.09
253.535	78.85
253.752	62.46
253.968	35.84
254.185	138.24
254.401	21.5
254.618	84.99
254.835	60.42
255.051	19.46
255.268	7.17
255.484	105.47
255.701	62.46
255.917	119.81
256.134	35.84
256.351	33.79
256.567	64.51
256.784	70.65
257	68.61
257.217	50.18
257.433	13.31
257.65	35.84
257.866	97.28
258.082	60.42
258.299	52.22
258.515	11.26
258.732	39.94
258.948	15.36
259.165	27.65
259.381	37.89
259.597	84.99
259.814	1.02
260.03	5.12
260.246	50.18
260.463	11.26
260.679	52.22
260.895	52.22
261.112	-9.22
261.328	123.9
261.544	66.56
261.761	25.6
261.977	68.61
262.193	31.74
262.409	99.33
262.626	91.13
262.842	84.99
263.058	25.6
263.274	82.94
263.49	54.27
263.707	72.7
263.923	17.41
264.139	13.31
264.355	74.75
264.571	39.94
264.787	21.5
265.004	115.71
265.22	-19.46
265.436	50.18
265.652	58.37
265.868	58.37
266.084	23.55
266.3	76.8
266.516	11.26
266.732	60.42
266.948	78.85
267.164	41.98
267.38	5.12
267.596	62.46
267.812	134.14
268.028	74.75
268.244	39.94
268.46	27.65
268.676	33.79
268.892	27.65
269.108	82.94
269.324	17.41
269.54	27.65
269.756	9.22
269.972	56.32
270.188	72.7
270.403	101.37
270.619	33.79
270.835	-3.07
271.051	39.94
271.267	70.65
271.483	105.47
271.698	15.36
271.914	33.79
272.13	89.09
272.346	-11.26
272.562	50.18
272.777	17.41
272.993	107.52
273.209	-15.36
273.425	95.23
273.64	-11.26
273.856	76.8
274.072	91.13
274.287	50.18
274.503	44.03
274.719	101.37
274.934	58.37
275.15	44.03
275.366	-7.17
275.581	25.6
275.797	87.04
276.012	23.55
276.228	99.33
276.444	68.61
276.659	31.74
276.875	105.47
277.09	97.28
277.306	44.03
277.521	11.26
277.737	52.22
277.952	84.99
278.168	37.89
278.383	82.94
278.599	23.55
278.814	50.18
279.03	72.7
279.245	72.7
279.461	74.75
279.676	66.56
279.892	17.41
280.107	31.74
280.322	37.89
280.538	7.17
280.753	46.08
280.969	115.71
281.184	70.65
281.399	89.09
281.615	33.79
281.83	29.7
282.045	37.89
282.26	56.32
282.476	76.8
282.691	35.84
282.906	31.74
283.122	15.36
283.337	15.36
283.552	41.98
283.767	84.99
283.983	80.89
284.198	33.79
284.413	93.18
284.628	-13.31
284.843	41.98
285.058	13.31
285.274	35.84
285.489	23.55
285.704	11.26
285.919	-39.94
286.134	54.27
286.349	62.46
286.564	39.94
286.779	3.07
286.995	89.09
287.21	58.37
287.425	115.71
287.64	21.5
287.855	33.79
288.07	13.31
288.285	-9.22
288.5	-9.22
288.715	64.51
288.93	82.94
289.145	48.13
289.36	89.09
289.575	64.51
289.79	37.89
290.004	27.65
290.219	52.22
290.434	-25.6
290.649	105.47
290.864	29.7
291.079	31.74
291.294	95.23
291.509	44.03
291.724	60.42
291.938	-29.7
292.153	5.12
292.368	80.89
292.583	148.48
292.798	35.84
293.012	93.18
293.227	46.08
293.442	50.18
293.657	31.74
293.871	150.53
294.086	11.26
294.301	-11.26
294.516	97.28
294.73	105.47
294.945	87.04
295.16	123.9
295.374	68.61
295.589	97.28
295.804	-7.17
296.018	-13.31
296.233	115.71
296.447	113.66
296.662	-56.32
296.877	7.17
297.091	62.46
297.306	80.89
297.52	37.89
297.735	37.89
297.949	39.94
298.164	54.27
298.378	25.6
298.593	50.18
298.807	52.22
299.022	27.65
299.236	113.66
299.451	76.8
299.665	74.75
299.88	44.03
300.094	70.65
300.309	70.65
300.523	99.33
300.737	103.42
300.952	-9.22
301.166	95.23
301.381	-5.12
301.595	50.18
301.809	11.26
302.024	46.08
302.238	99.33
302.452	115.71
302.667	58.37
302.881	82.94
303.095	105.47
303.309	72.7
303.524	54.27
303.738	46.08
303.952	27.65
304.166	52.22
304.381	64.51
304.595	117.76
304.809	39.94
305.023	134.14
305.237	41.98
305.452	1.02
305.666	78.85
305.88	46.08
306.094	-1.02
306.308	19.46
306.522	52.22
306.736	46.08
306.95	95.23
307.164	78.85
307.379	33.79
307.593	74.75
307.807	64.51
308.021	115.71
308.235	-1.02
308.449	37.89
308.663	7.17
308.877	62.46
309.091	52.22
309.305	46.08
309.519	99.33
309.733	58.37
309.947	80.89
310.161	29.7
310.374	82.94
310.588	107.52
310.802	35.84
311.016	107.52
311.23	91.13
311.444	31.74
311.658	41.98
311.872	121.85
312.085	15.36
312.299	91.13
312.513	35.84
312.727	37.89
312.941	105.47
313.154	89.09
313.368	107.52
313.582	78.85
313.796	17.41
314.009	111.61
314.223	82.94
314.437	66.56
314.651	103.42
314.864	-19.46
315.078	95.23
315.292	39.94
315.505	17.41
315.719	103.42
315.933	64.51
316.146	105.47
316.36	62.46
316.573	101.37
316.787	134.14
317.001	-1.02
317.214	78.85
317.428	121.85
317.641	66.56
317.855	5.12
318.068	35.84
318.282	74.75
318.495	62.46
318.709	27.65
318.922	27.65
319.136	78.85
319.349	99.33
319.563	35.84
319.776	60.42
319.99	68.61
320.203	44.03
320.417	50.18
320.63	58.37
320.843	107.52
321.057	97.28
321.27	78.85
321.483	29.7
321.697	54.27
321.91	-5.12
322.124	64.51
322.337	52.22
322.55	44.03
322.763	93.18
322.977	168.96
323.19	-21.5
323.403	48.13
323.617	58.37
323.83	56.32
324.043	113.66
324.256	9.22
324.469	82.94
324.683	46.08
324.896	115.71
325.109	52.22
325.322	89.09
325.535	-7.17
325.748	52.22
325.962	93.18
326.175	105.47
326.388	52.22
326.601	11.26
326.814	29.7
327.027	72.7
327.24	56.32
327.453	17.41
327.666	125.95
327.879	-35.84
328.092	60.42
328.305	101.37
328.518	82.94
328.731	64.51
328.944	87.04
329.157	3.07
329.37	48.13
329.583	93.18
329.796	66.56
330.009	117.76
330.222	70.65
330.435	125.95
330.648	84.99
330.861	60.42
331.073	119.81
331.286	84.99
331.499	78.85
331.712	101.37
331.925	115.71
332.138	117.76
332.35	91.13
332.563	89.09
332.776	44.03
332.989	99.33
333.202	58.37
333.414	80.89
333.627	29.7
333.84	46.08
334.053	60.42
334.265	3.07
334.478	-23.55
334.691	48.13
334.903	72.7
335.116	7.17
335.329	74.75
335.541	58.37
335.754	27.65
335.966	48.13
336.179	68.61
336.392	78.85
336.604	66.56
336.817	9.22
337.029	97.28
337.242	29.7
337.454	76.8
337.667	82.94
337.88	74.75
338.092	46.08
338.305	25.6
338.517	103.42
338.729	54.27
338.942	56.32
339.154	89.09
339.367	54.27
339.579	-9.22
339.792	17.41
340.004	84.99
340.217	64.51
340.429	39.94
340.641	5.12
340.854	56.32
341.066	19.46
341.278	113.66
341.491	68.61
341.703	44.03
341.915	21.5
342.128	97.28
342.34	50.18
342.552	19.46
342.764	-5.12
342.977	39.94
343.189	27.65
343.401	52.22
343.613	87.04
343.826	52.22
344.038	103.42
344.25	97.28
344.462	72.7
344.674	39.94
344.886	31.74
345.099	84.99
345.311	107.52
345.523	68.61
345.735	27.65
345.947	60.42
346.159	68.61
346.371	35.84
346.583	74.75
346.795	101.37
347.007	33.79
347.219	68.61
347.431	62.46
347.643	50.18
347.855	66.56
348.067	103.42
348.279	70.65
348.491	132.09
348.703	62.46
348.915	50.18
349.127	7.17
349.339	99.33
349.551	68.61
349.763	5.12
349.975	70.65
350.187	48.13
350.399	115.71
350.61	29.7
350.822	52.22
351.034	105.47
351.246	60.42
351.458	148.48
351.669	46.08
351.881	-15.36
352.093	130.05
352.305	19.46
352.517	-1.02
352.728	54.27
352.94	84.99
353.152	62.46
353.363	23.55
353.575	93.18
353.787	68.61
353.999	23.55
354.21	48.13
354.422	56.32
354.633	70.65
354.845	82.94
355.057	33.79
355.268	11.26
355.48	52.22
355.692	91.13
355.903	80.89
356.115	107.52
356.326	39.94
356.538	58.37
356.749	76.8
356.961	82.94
357.172	-15.36
357.384	60.42
357.595	91.13
357.807	115.71
358.018	-17.41
358.23	56.32
358.441	52.22
358.653	138.24
358.864	109.57
359.075	146.43
359.287	54.27
359.498	119.81
359.709	99.33
359.921	13.31
360.132	99.33
360.344	91.13
360.555	-19.46
360.766	97.28
360.977	41.98
361.189	158.72
361.4	23.55
361.611	128
361.823	80.89
362.034	95.23
362.245	33.79
362.456	111.61
362.667	72.7
362.879	109.57
363.09	23.55
363.301	58.37
363.512	23.55
363.723	21.5
363.935	62.46
364.146	39.94
364.357	82.94
364.568	39.94
364.779	50.18
364.99	101.37
365.201	99.33
365.412	107.52
365.623	48.13
365.834	97.28
366.045	80.89
366.256	140.29
366.467	78.85
366.678	23.55
366.889	37.89
367.1	1.02
367.311	50.18
367.522	54.27
367.733	72.7
367.944	37.89
368.155	-11.26
368.366	84.99
368.577	80.89
368.788	130.05
368.999	41.98
369.209	23.55
369.42	164.86
369.631	66.56
369.842	17.41
370.053	113.66
370.264	74.75
370.474	84.99
370.685	11.26
370.896	101.37
371.107	62.46
371.317	82.94
371.528	70.65
371.739	68.61
371.95	29.7
372.16	-25.6
372.371	41.98
372.582	23.55
372.792	87.04
373.003	115.71
373.214	76.8
373.424	60.42
373.635	58.37
373.846	50.18
374.056	76.8
374.267	80.89
374.477	101.37
374.688	105.47
374.898	56.32
375.109	80.89
375.319	74.75
375.53	95.23
375.74	140.29
375.951	66.56
376.161	144.38
376.372	125.95
376.582	-1.02
376.793	107.52
377.003	117.76
377.214	72.7
377.424	72.7
377.635	52.22
377.845	21.5
378.055	95.23
378.266	117.76
378.476	19.46
378.686	52.22
378.897	121.85
379.107	21.5
379.317	70.65
379.528	31.74
379.738	121.85
379.948	82.94
380.158	33.79
380.369	-7.17
380.579	35.84
380.789	60.42
380.999	35.84
381.21	84.99
381.42	70.65
381.63	54.27
381.84	17.41
382.05	60.42
382.261	50.18
382.471	25.6
382.681	62.46
382.891	87.04
383.101	13.31
383.311	46.08
383.521	50.18
383.731	99.33
383.941	80.89
384.151	68.61
384.361	37.89
384.571	80.89
384.781	84.99
384.991	121.85
385.201	84.99
385.411	89.09
385.621	76.8
385.831	105.47
386.041	58.37
386.251	70.65
386.461	60.42
386.671	80.89
386.881	29.7
387.091	33.79
387.301	76.8
387.511	1.02
387.72	117.76
387.93	134.14
388.14	44.03
388.35	107.52
388.56	89.09
388.769	74.75
388.979	44.03
389.189	44.03
389.399	29.7
389.609	70.65
389.818	93.18
390.028	60.42
390.238	109.57
390.447	80.89
390.657	119.81
390.867	89.09
391.076	44.03
391.286	17.41
391.496	58.37
391.705	46.08
391.915	134.14
392.125	54.27
392.334	93.18
392.544	39.94
392.753	72.7
392.963	93.18
393.172	130.05
393.382	111.61
393.591	91.13
393.801	142.33
394.01	136.19
394.22	21.5
394.429	93.18
394.639	121.85
394.848	140.29
395.058	70.65
395.267	146.43
395.477	46.08
395.686	56.32
395.895	87.04
396.105	93.18
396.314	150.53
396.524	121.85
396.733	66.56
396.942	60.42
397.152	80.89
397.361	60.42
397.57	46.08
397.78	39.94
397.989	82.94
398.198	187.39
398.407	105.47
398.617	97.28
398.826	87.04
399.035	93.18
399.244	121.85
399.453	115.71
399.663	146.43
399.872	58.37
400.081	134.14
400.29	134.14
400.499	66.56
400.708	183.29
400.917	138.24
401.127	103.42
401.336	115.71
401.545	138.24
401.754	89.09
401.963	132.09
402.172	158.72
402.381	144.38
402.59	140.29
402.799	181.25
403.008	84.99
403.217	113.66
403.426	125.95
403.635	173.05
403.844	123.9
404.053	132.09
404.262	56.32
404.471	101.37
404.68	68.61
404.888	175.1
405.097	89.09
405.306	168.96
405.515	130.05
405.724	171.01
405.933	168.96
406.142	162.81
406.35	160.77
406.559	150.53
406.768	128
406.977	203.77
407.185	185.34
407.394	164.86
407.603	195.58
407.812	189.44
408.02	123.9
408.229	166.91
408.438	224.25
408.646	152.57
408.855	177.15
409.064	273.4
409.272	228.35
409.481	185.34
409.69	220.16
409.898	181.25
410.107	281.6
410.315	224.25
410.524	242.68
410.733	275.45
410.941	236.54
411.15	318.46
411.358	304.12
411.567	332.79
411.775	326.65
411.984	291.84
412.192	285.69
412.401	343.03
412.609	334.84
412.818	365.56
413.026	326.65
413.234	377.85
413.443	336.89
413.651	402.43
413.86	414.71
414.068	447.48
414.276	463.86
414.485	517.11
414.693	414.71
414.901	504.82
415.11	486.39
415.318	553.98
415.526	467.96
415.734	551.93
415.943	578.55
416.151	541.69
416.359	551.93
416.567	590.84
416.776	650.23
416.984	654.33
417.192	670.71
417.4	738.29
417.608	687.09
417.817	742.39
418.025	848.88
418.233	791.54
418.441	846.84
418.649	840.69
418.857	834.55
419.065	867.31
419.273	938.99
419.481	953.33
419.689	1012.72
419.897	1055.73
420.105	1108.98
420.313	1027.06
420.521	1190.89
420.729	1156.08
420.937	1125.36
421.145	1164.27
421.353	1221.61
421.561	1313.77
421.769	1381.35
421.977	1369.07
422.185	1319.92
422.393	1471.47
422.601	1584.1
422.809	1551.34
423.017	1573.86
423.224	1623.02
423.432	1618.92
423.64	1727.46
423.848	1827.81
424.056	1803.24
424.263	1915.87
424.471	1936.35
424.679	1903.59
424.887	2092
425.094	2001.89
425.302	2034.66
425.51	2235.36
425.718	2311.13
425.925	2182.11
426.133	2339.8
426.341	2558.94
426.548	2563.03
426.756	2614.23
426.964	2661.34
427.171	2726.87
427.379	2859.99
427.586	2835.41
427.794	3009.49
428.001	3066.83
428.209	3253.2
428.417	3232.72
428.624	3343.31
428.832	3306.45
429.039	3484.62
429.247	3410.89
429.454	3777.48
429.662	3980.23
429.869	3630.02
430.076	4074.43
430.284	3795.91
430.491	4015.04
430.699	4355.01
430.906	4402.11
431.114	4412.35
431.321	4373.44
431.528	4631.48
431.736	4883.38
431.943	5114.8
432.15	5043.12
432.358	5153.71
432.565	5215.15
432.772	5292.98
432.979	5579.69
433.187	5647.27
433.394	5551.02
433.601	6003.62
433.808	6089.64
434.016	5983.14
434.223	6224.8
434.43	6523.8
434.637	6548.38
434.844	6980.5
435.052	6998.93
435.259	6941.59
435.466	7134.1
435.673	6966.17
435.88	7631.76
436.087	7906.18
436.294	7795.59
436.501	7779.21
436.708	7857.03
436.915	8203.14
437.122	8586.11
437.329	8366.98
437.537	8702.84
437.743	8721.27
437.95	8727.42
438.157	9235.32
438.364	9352.05
438.571	9552.75
438.778	9753.45
438.985	10400.61
439.192	10072.93
439.399	10423.14
439.606	10048.36
439.813	10734.43
440.02	11406.16
440.227	10875.74
440.433	10967.9
440.64	11418.45
440.847	11246.42
441.054	11641.68
441.261	12219.21
441.467	12049.22
441.674	12516.16
441.881	12901.18
442.088	12804.92
442.294	12804.92
442.501	12956.47
442.708	13482.8
442.914	13974.31
443.121	14660.38
443.328	14080.81
443.534	15119.13
443.741	14938.91
443.948	14529.31
444.154	15610.64
444.361	15354.65
444.568	15479.57
444.774	15299.35
444.981	15698.7
445.187	16255.75
445.394	16876.29
445.6	16804.61
445.807	18541.29
446.013	17691.38
446.22	17787.63
446.426	18514.66
446.633	18580.2
446.839	19202.78
447.046	18518.76
447.252	19358.42
447.459	19682
447.665	19634.9
447.871	20513.48
448.078	21199.55
448.284	20202.19
448.491	20755.14
448.697	21375.67
448.903	21875.38
449.11	21889.71
449.316	21727.92
449.522	21938.87
449.728	22766.24
449.935	22485.67
450.141	22723.24
450.347	23192.22
450.553	22672.04
450.76	22643.37
450.966	23548.57
451.172	22749.86
451.378	23700.12
451.584	23493.27
451.791	23753.37
451.997	23724.69
452.203	24277.65
452.409	24179.34
452.615	24035.99
452.821	23122.59
453.027	23122.59
453.233	23954.07
453.44	23102.11
453.646	23397.02
453.852	23548.57
454.058	23939.73
454.264	22981.28
454.47	23065.25
454.676	22928.03
454.882	23620.25
455.088	21529.27
455.294	21916.34
455.5	22538.92
455.705	22379.18
455.911	21400.25
456.117	21291.71
456.323	21056.19
456.529	19352.28
456.735	20568.77
456.941	20173.52
457.147	19636.95
457.352	19235.55
457.558	18598.63
457.764	18682.59
457.97	18481.89
458.176	18127.6
458.381	18207.47
458.587	17236.73
458.793	17158.91
458.999	16409.35
459.204	17560.31
459.41	16763.65
459.616	15915.79
459.821	16106.25
460.027	15639.31
460.233	15340.31
460.438	14844.7
460.644	15049.5
460.85	14248.74
461.055	13904.68
461.261	14084.91
461.466	12970.81
461.672	12727.1
461.878	13556.53
462.083	12712.77
462.289	12430.15
462.494	12159.81
462.7	11596.62
462.905	11637.58
463.111	11826
463.316	11639.63
463.522	11641.68
463.727	11647.82
463.932	11795.28
464.138	11524.94
464.343	11639.63
464.549	11078.49
464.754	11492.18
464.959	11488.08
465.165	11420.5
465.37	10910.55
465.575	10707.8
465.781	11105.11
465.986	11215.7
466.191	10838.87
466.397	10611.55
466.602	9988.97
466.807	10498.91
467.012	10316.64
467.218	10142.57
467.423	10111.85
467.628	10161
467.833	10664.8
