Data from USB4F104151__225__14-00-17-322.txt Node

Date: Thu Mar 13 14:00:17 EDT 2025
User: louis
Spectrometer: USB4F10415
Trigger mode: 4
Integration Time (sec): 1.000000E-2
Scans to average: 1
Electric dark correction enabled: true
Nonlinearity correction enabled: false
Boxcar width: 0
XAxis mode: Wavelengths
Number of Pixels in Spectrum: 3648
>>>>>Begin Spectral Data<<<<<
178.204	-127.83
178.424	-127.83
178.644	-127.83
178.864	-97.11
179.084	-103.25
179.304	-29.52
179.524	-64.34
179.744	-17.24
179.964	21.67
180.184	36.01
180.404	-19.29
180.624	-41.81
180.844	58.54
181.064	50.35
181.283	31.91
181.503	-17.24
181.723	-9.05
181.943	-4.95
182.163	19.63
182.383	50.35
182.602	66.73
182.822	-4.95
183.042	13.48
183.262	-25.43
183.482	-19.29
183.701	-29.52
183.921	-7
184.141	-19.29
184.361	25.77
184.58	48.3
184.8	9.39
185.02	-37.72
185.239	68.78
185.459	-0.85
185.679	-39.76
185.898	-47.96
186.118	54.44
186.338	-35.67
186.557	17.58
186.777	-47.96
186.997	25.77
187.216	29.87
187.436	58.54
187.655	-62.29
187.875	62.63
188.095	-52.05
188.314	-43.86
188.534	93.35
188.753	36.01
188.973	13.48
189.192	38.06
189.412	-4.95
189.631	25.77
189.851	-41.81
190.07	-2.9
190.29	-13.14
190.509	-4.95
190.729	42.15
190.948	9.39
191.168	70.83
191.387	3.24
191.607	-68.44
191.826	-13.14
192.045	-45.91
192.265	132.26
192.484	-15.19
192.704	-2.9
192.923	-35.67
193.142	-31.57
193.362	-15.19
193.581	25.77
193.8	-78.68
194.02	46.25
194.239	-25.43
194.458	52.39
194.678	-29.52
194.897	-29.52
195.116	-17.24
195.335	-35.67
195.555	9.39
195.774	23.72
195.993	-4.95
196.212	7.34
196.432	11.43
196.651	19.63
196.87	1.19
197.089	46.25
197.308	3.24
197.528	1.19
197.747	19.63
197.966	3.24
198.185	-47.96
198.404	13.48
198.623	-60.24
198.842	-13.14
199.062	-23.38
199.281	-19.29
199.5	-19.29
199.719	-21.33
199.938	11.43
200.157	46.25
200.376	3.24
200.595	-23.38
200.814	-7
201.033	58.54
201.252	40.11
201.471	79.02
201.69	-21.33
201.909	3.24
202.128	31.91
202.347	48.3
202.566	9.39
202.785	-68.44
203.004	1.19
203.223	27.82
203.442	19.63
203.661	-56.15
203.879	87.21
204.098	-0.85
204.317	44.2
204.536	36.01
204.755	-11.09
204.974	1.19
205.193	-27.48
205.411	17.58
205.63	-31.57
205.849	9.39
206.068	58.54
206.287	-60.24
206.505	-15.19
206.724	-2.9
206.943	-29.52
207.162	-19.29
207.381	-7
207.599	-56.15
207.818	3.24
208.037	58.54
208.255	42.15
208.474	31.91
208.693	-54.1
208.911	1.19
209.13	13.48
209.349	11.43
209.567	33.96
209.786	38.06
210.005	60.59
210.223	-0.85
210.442	-27.48
210.661	19.63
210.879	-11.09
211.098	-7
211.316	70.83
211.535	17.58
211.753	38.06
211.972	48.3
212.191	-13.14
212.409	25.77
212.628	17.58
212.846	-19.29
213.065	-13.14
213.283	79.02
213.502	-9.05
213.72	1.19
213.938	1.19
214.157	17.58
214.375	23.72
214.594	7.34
214.812	9.39
215.031	3.24
215.249	-27.48
215.467	25.77
215.686	17.58
215.904	17.58
216.122	-7
216.341	-7
216.559	42.15
216.778	-13.14
216.996	36.01
217.214	25.77
217.432	-0.85
217.651	42.15
217.869	-76.63
218.087	9.39
218.306	19.63
218.524	36.01
218.742	-52.05
218.96	48.3
219.179	-52.05
219.397	9.39
219.615	60.59
219.833	25.77
220.051	25.77
220.27	-11.09
220.488	3.24
220.706	79.02
220.924	-47.96
221.142	21.67
221.36	-25.43
221.578	-68.44
221.796	-33.62
222.015	9.39
222.233	19.63
222.451	19.63
222.669	-13.14
222.887	31.91
223.105	62.63
223.323	46.25
223.541	-19.29
223.759	58.54
223.977	-15.19
224.195	29.87
224.413	50.35
224.631	-52.05
224.849	3.24
225.067	68.78
225.285	-13.14
225.503	11.43
225.721	-23.38
225.939	-7
226.157	11.43
226.375	58.54
226.592	-2.9
226.81	85.16
227.028	36.01
227.246	3.24
227.464	11.43
227.682	3.24
227.9	25.77
228.117	42.15
228.335	66.73
228.553	-13.14
228.771	13.48
228.989	42.15
229.206	3.24
229.424	-7
229.642	1.19
229.86	42.15
230.077	52.39
230.295	33.96
230.513	-31.57
230.731	9.39
230.948	-41.81
231.166	1.19
231.384	-72.53
231.601	29.87
231.819	9.39
232.037	29.87
232.254	-21.33
232.472	40.11
232.689	99.5
232.907	99.5
233.125	-41.81
233.342	27.82
233.56	-11.09
233.777	-56.15
233.995	3.24
234.213	-4.95
234.43	31.91
234.648	-13.14
234.865	21.67
235.083	9.39
235.3	-7
235.518	46.25
235.735	-25.43
235.953	25.77
236.17	21.67
236.388	64.68
236.605	23.72
236.822	52.39
237.04	9.39
237.257	-31.57
237.475	25.77
237.692	25.77
237.909	33.96
238.127	-2.9
238.344	-17.24
238.562	36.01
238.779	-64.34
238.996	-11.09
239.214	-2.9
239.431	66.73
239.648	-41.81
239.865	-31.57
240.083	52.39
240.3	-78.68
240.517	-33.62
240.735	87.21
240.952	29.87
241.169	44.2
241.386	-88.92
241.603	15.53
241.821	-9.05
242.038	70.83
242.255	-47.96
242.472	-11.09
242.689	3.24
242.907	50.35
243.124	-19.29
243.341	25.77
243.558	-2.9
243.775	25.77
243.992	-4.95
244.209	-11.09
244.426	56.49
244.643	19.63
244.86	-13.14
245.078	9.39
245.295	13.48
245.512	36.01
245.729	15.53
245.946	19.63
246.163	-9.05
246.38	21.67
246.597	-4.95
246.814	3.24
247.031	1.19
247.248	21.67
247.464	21.67
247.681	33.96
247.898	13.48
248.115	13.48
248.332	-25.43
248.549	128.17
248.766	13.48
248.983	-2.9
249.2	31.91
249.417	33.96
249.633	-35.67
249.85	40.11
250.067	91.31
250.284	48.3
250.501	-13.14
250.717	1.19
250.934	-107.35
251.151	62.63
251.368	-47.96
251.585	68.78
251.801	58.54
252.018	33.96
252.235	1.19
252.451	44.2
252.668	33.96
252.885	-0.85
253.102	7.34
253.318	-70.48
253.535	5.29
253.752	-19.29
253.968	-15.19
254.185	44.2
254.401	3.24
254.618	23.72
254.835	-90.96
255.051	38.06
255.268	-39.76
255.484	36.01
255.701	-11.09
255.917	7.34
256.134	-31.57
256.351	79.02
256.567	48.3
256.784	103.59
257	-7
257.217	25.77
257.433	58.54
257.65	70.83
257.866	-2.9
258.082	-54.1
258.299	13.48
258.515	-19.29
258.732	-29.52
258.948	-21.33
259.165	-41.81
259.381	58.54
259.597	9.39
259.814	29.87
260.03	-13.14
260.246	-23.38
260.463	46.25
260.679	101.55
260.895	5.29
261.112	-4.95
261.328	-78.68
261.544	-80.72
261.761	66.73
261.977	66.73
262.193	11.43
262.409	9.39
262.626	42.15
262.842	13.48
263.058	-15.19
263.274	72.87
263.49	42.15
263.707	9.39
263.923	-27.48
264.139	7.34
264.355	19.63
264.571	42.15
264.787	48.3
265.004	-72.53
265.22	-80.72
265.436	5.29
265.652	9.39
265.868	52.39
266.084	29.87
266.3	54.44
266.516	1.19
266.732	46.25
266.948	-2.9
267.164	3.24
267.38	-31.57
267.596	11.43
267.812	27.82
268.028	13.48
268.244	-7
268.46	-7
268.676	-11.09
268.892	-31.57
269.108	-19.29
269.324	17.58
269.54	62.63
269.756	5.29
269.972	-11.09
270.188	19.63
270.403	50.35
270.619	27.82
270.835	58.54
271.051	7.34
271.267	-47.96
271.483	-33.62
271.698	-27.48
271.914	31.91
272.13	-0.85
272.346	-39.76
272.562	11.43
272.777	29.87
272.993	5.29
273.209	-72.53
273.425	50.35
273.64	-39.76
273.856	50.35
274.072	-2.9
274.287	83.11
274.503	7.34
274.719	-60.24
274.934	-19.29
275.15	7.34
275.366	50.35
275.581	-54.1
275.797	-4.95
276.012	-0.85
276.228	46.25
276.444	-4.95
276.659	64.68
276.875	13.48
277.09	46.25
277.306	-19.29
277.521	91.31
277.737	-29.52
277.952	17.58
278.168	42.15
278.383	-4.95
278.599	74.92
278.814	17.58
279.03	38.06
279.245	-7
279.461	52.39
279.676	-70.48
279.892	-101.2
280.107	1.19
280.322	17.58
280.538	1.19
280.753	-0.85
280.969	79.02
281.184	13.48
281.399	27.82
281.615	-21.33
281.83	17.58
282.045	-19.29
282.26	-31.57
282.476	13.48
282.691	42.15
282.906	17.58
283.122	48.3
283.337	38.06
283.552	42.15
283.767	25.77
283.983	-11.09
284.198	17.58
284.413	36.01
284.628	-45.91
284.843	60.59
285.058	1.19
285.274	29.87
285.489	-39.76
285.704	-13.14
285.919	-64.34
286.134	-11.09
286.349	-39.76
286.564	36.01
286.779	83.11
286.995	50.35
287.21	-7
287.425	25.77
287.64	36.01
287.855	17.58
288.07	-56.15
288.285	85.16
288.5	21.67
288.715	-23.38
288.93	27.82
289.145	-39.76
289.36	17.58
289.575	17.58
289.79	-21.33
290.004	15.53
290.219	15.53
290.434	58.54
290.649	-37.72
290.864	50.35
291.079	42.15
291.294	64.68
291.509	48.3
291.724	-0.85
291.938	5.29
292.153	42.15
292.368	5.29
292.583	-7
292.798	-4.95
293.012	-29.52
293.227	76.97
293.442	3.24
293.657	33.96
293.871	-11.09
294.086	21.67
294.301	74.92
294.516	64.68
294.73	3.24
294.945	44.2
295.16	19.63
295.374	11.43
295.589	44.2
295.804	9.39
296.018	27.82
296.233	-47.96
296.447	19.63
296.662	25.77
296.877	70.83
297.091	-4.95
297.306	31.91
297.52	15.53
297.735	56.49
297.949	33.96
298.164	95.4
298.378	7.34
298.593	64.68
298.807	-7
299.022	42.15
299.236	42.15
299.451	-31.57
299.665	23.72
299.88	33.96
300.094	-58.2
300.309	103.59
300.523	44.2
300.737	-11.09
300.952	33.96
301.166	33.96
301.381	23.72
301.595	126.12
301.809	-7
302.024	-27.48
302.238	-23.38
302.452	142.5
302.667	-27.48
302.881	5.29
303.095	62.63
303.309	38.06
303.524	17.58
303.738	-29.52
303.952	-2.9
304.166	1.19
304.381	-56.15
304.595	74.92
304.809	11.43
305.023	-21.33
305.237	-13.14
305.452	27.82
305.666	-0.85
305.88	56.49
306.094	5.29
306.308	58.54
306.522	25.77
306.736	11.43
306.95	17.58
307.164	70.83
307.379	-7
307.593	70.83
307.807	36.01
308.021	-25.43
308.235	79.02
308.449	11.43
308.663	76.97
308.877	17.58
309.091	44.2
309.305	95.4
309.519	52.39
309.733	-70.48
309.947	-25.43
310.161	19.63
310.374	13.48
310.588	21.67
310.802	-4.95
311.016	-13.14
311.23	-4.95
311.444	-64.34
311.658	58.54
311.872	-15.19
312.085	-2.9
312.299	31.91
312.513	33.96
312.727	52.39
312.941	-54.1
313.154	48.3
313.368	52.39
313.582	44.2
313.796	33.96
314.009	23.72
314.223	27.82
314.437	87.21
314.651	3.24
314.864	13.48
315.078	-31.57
315.292	9.39
315.505	-56.15
315.719	-7
315.933	38.06
316.146	62.63
316.36	-15.19
316.573	-7
316.787	17.58
317.001	17.58
317.214	46.25
317.428	25.77
317.641	36.01
317.855	58.54
318.068	68.78
318.282	-4.95
318.495	9.39
318.709	-4.95
318.922	-27.48
319.136	15.53
319.349	99.5
319.563	52.39
319.776	-29.52
319.99	66.73
320.203	-45.91
320.417	-13.14
320.63	38.06
320.843	-7
321.057	-101.2
321.27	42.15
321.483	-23.38
321.697	23.72
321.91	11.43
322.124	25.77
322.337	11.43
322.55	36.01
322.763	60.59
322.977	58.54
323.19	-15.19
323.403	23.72
323.617	21.67
323.83	62.63
324.043	9.39
324.256	21.67
324.469	74.92
324.683	23.72
324.896	31.91
325.109	-21.33
325.322	72.87
325.535	62.63
325.748	42.15
325.962	33.96
326.175	29.87
326.388	29.87
326.601	23.72
326.814	1.19
327.027	5.29
327.24	95.4
327.453	3.24
327.666	29.87
327.879	52.39
328.092	44.2
328.305	25.77
328.518	13.48
328.731	-31.57
328.944	52.39
329.157	9.39
329.37	42.15
329.583	66.73
329.796	74.92
330.009	38.06
330.222	19.63
330.435	5.29
330.648	-23.38
330.861	-25.43
331.073	48.3
331.286	58.54
331.499	-11.09
331.712	33.96
331.925	50.35
332.138	9.39
332.35	27.82
332.563	44.2
332.776	105.64
332.989	1.19
333.202	33.96
333.414	-47.96
333.627	42.15
333.84	19.63
334.053	70.83
334.265	1.19
334.478	38.06
334.691	54.44
334.903	31.91
335.116	33.96
335.329	-21.33
335.541	-88.92
335.754	13.48
335.966	-15.19
336.179	27.82
336.392	42.15
336.604	-7
336.817	60.59
337.029	95.4
337.242	15.53
337.454	-2.9
337.667	-21.33
337.88	-39.76
338.092	105.64
338.305	91.31
338.517	-15.19
338.729	89.26
338.942	5.29
339.154	68.78
339.367	3.24
339.579	-13.14
339.792	23.72
340.004	54.44
340.217	29.87
340.429	5.29
340.641	52.39
340.854	50.35
341.066	38.06
341.278	62.63
341.491	76.97
341.703	-15.19
341.915	29.87
342.128	19.63
342.34	54.44
342.552	5.29
342.764	15.53
342.977	-31.57
343.189	54.44
343.401	38.06
343.613	40.11
343.826	36.01
344.038	-78.68
344.25	74.92
344.462	-0.85
344.674	1.19
344.886	105.64
345.099	101.55
345.311	15.53
345.523	-7
345.735	-37.72
345.947	38.06
346.159	44.2
346.371	42.15
346.583	50.35
346.795	132.26
347.007	-64.34
347.219	44.2
347.431	-0.85
347.643	44.2
347.855	62.63
348.067	19.63
348.279	76.97
348.491	89.26
348.703	13.48
348.915	-27.48
349.127	62.63
349.339	13.48
349.551	-99.16
349.763	15.53
349.975	42.15
350.187	1.19
350.399	52.39
350.61	50.35
350.822	-19.29
351.034	-0.85
351.246	27.82
351.458	17.58
351.669	17.58
351.881	11.43
352.093	29.87
352.305	115.88
352.517	31.91
352.728	99.5
352.94	76.97
353.152	33.96
353.363	-0.85
353.575	-15.19
353.787	85.16
353.999	87.21
354.21	-27.48
354.422	25.77
354.633	36.01
354.845	11.43
355.057	42.15
355.268	62.63
355.48	-23.38
355.692	-23.38
355.903	58.54
356.115	-15.19
356.326	83.11
356.538	-15.19
356.749	81.07
356.961	27.82
357.172	33.96
357.384	23.72
357.595	17.58
357.807	40.11
358.018	15.53
358.23	-2.9
358.441	36.01
358.653	11.43
358.864	3.24
359.075	93.35
359.287	68.78
359.498	62.63
359.709	44.2
359.921	-7
360.132	21.67
360.344	1.19
360.555	21.67
360.766	101.55
360.977	89.26
361.189	91.31
361.4	33.96
361.611	60.59
361.823	56.49
362.034	31.91
362.245	-47.96
362.456	-29.52
362.667	-27.48
362.879	1.19
363.09	42.15
363.301	42.15
363.512	44.2
363.723	70.83
363.935	81.07
364.146	21.67
364.357	76.97
364.568	70.83
364.779	9.39
364.99	9.39
365.201	-4.95
365.412	31.91
365.623	44.2
365.834	29.87
366.045	-7
366.256	-2.9
366.467	40.11
366.678	23.72
366.889	52.39
367.1	5.29
367.311	105.64
367.522	66.73
367.733	11.43
367.944	72.87
368.155	38.06
368.366	52.39
368.577	19.63
368.788	58.54
368.999	-62.29
369.209	-31.57
369.42	70.83
369.631	62.63
369.842	-54.1
370.053	29.87
370.264	-4.95
370.474	-47.96
370.685	58.54
370.896	52.39
371.107	23.72
371.317	60.59
371.528	23.72
371.739	33.96
371.95	52.39
372.16	74.92
372.371	1.19
372.582	23.72
372.792	15.53
373.003	44.2
373.214	17.58
373.424	19.63
373.635	33.96
373.846	122.02
374.056	15.53
374.267	36.01
374.477	-7
374.688	-2.9
374.898	44.2
375.109	89.26
375.319	-56.15
375.53	44.2
375.74	85.16
375.951	68.78
376.161	1.19
376.372	44.2
376.582	9.39
376.793	52.39
377.003	79.02
377.214	85.16
377.424	64.68
377.635	-15.19
377.845	-11.09
378.055	87.21
378.266	62.63
378.476	42.15
378.686	-11.09
378.897	19.63
379.107	91.31
379.317	87.21
379.528	58.54
379.738	74.92
379.948	-31.57
380.158	-7
380.369	15.53
380.579	-25.43
380.789	40.11
380.999	40.11
381.21	58.54
381.42	56.49
381.63	-13.14
381.84	31.91
382.05	68.78
382.261	25.77
382.471	97.45
382.681	52.39
382.891	50.35
383.101	33.96
383.311	25.77
383.521	25.77
383.731	23.72
383.941	-2.9
384.151	3.24
384.361	33.96
384.571	89.26
384.781	76.97
384.991	52.39
385.201	-19.29
385.411	60.59
385.621	83.11
385.831	70.83
386.041	17.58
386.251	60.59
386.461	13.48
386.671	93.35
386.881	126.12
387.091	36.01
387.301	93.35
387.511	25.77
387.72	60.59
387.93	7.34
388.14	17.58
388.35	29.87
388.56	42.15
388.769	9.39
388.979	56.49
389.189	60.59
389.399	79.02
389.609	-29.52
389.818	48.3
390.028	68.78
390.238	81.07
390.447	97.45
390.657	50.35
390.867	46.25
391.076	33.96
391.286	64.68
391.496	46.25
391.705	-15.19
391.915	66.73
392.125	7.34
392.334	81.07
392.544	68.78
392.753	27.82
392.963	31.91
393.172	62.63
393.382	66.73
393.591	21.67
393.801	66.73
394.01	56.49
394.22	74.92
394.429	27.82
394.639	93.35
394.848	122.02
395.058	50.35
395.267	111.78
395.477	81.07
395.686	146.6
395.895	97.45
396.105	99.5
396.314	140.46
396.524	38.06
396.733	95.4
396.942	85.16
397.152	42.15
397.361	107.69
397.57	54.44
397.78	25.77
397.989	115.88
398.198	134.31
398.407	11.43
398.617	52.39
398.826	46.25
399.035	87.21
399.244	72.87
399.453	46.25
399.663	107.69
399.872	136.36
400.081	50.35
400.29	113.83
400.499	105.64
400.708	87.21
400.917	140.46
401.127	144.55
401.336	117.93
401.545	144.55
401.754	19.63
401.963	156.84
402.172	99.5
402.381	87.21
402.59	119.98
402.799	134.31
403.008	111.78
403.217	72.87
403.426	148.65
403.635	128.17
403.844	160.94
404.053	138.41
404.262	158.89
404.471	115.88
404.68	83.11
404.888	76.97
405.097	138.41
405.306	132.26
405.515	148.65
405.724	101.55
405.933	238.76
406.142	122.02
406.35	115.88
406.559	144.55
406.768	162.98
406.977	212.14
407.185	226.47
407.394	193.7
407.603	175.27
407.812	216.23
408.02	126.12
408.229	224.42
408.438	189.61
408.646	251.05
408.855	150.7
409.064	119.98
409.272	279.72
409.481	246.95
409.69	279.72
409.898	238.76
410.107	285.86
410.315	269.48
410.524	251.05
410.733	255.14
410.941	398.5
411.15	470.18
411.358	400.55
411.567	339.11
411.775	461.99
411.984	408.74
412.192	359.59
412.401	386.21
412.609	431.27
412.818	435.36
413.026	474.28
413.234	517.28
413.443	541.86
413.651	529.57
413.86	517.28
414.068	552.1
414.276	580.77
414.485	550.05
414.693	687.26
414.901	679.07
415.11	603.3
415.318	660.64
415.526	679.07
415.734	746.66
415.943	722.08
416.151	756.9
416.359	713.89
416.567	773.28
416.776	912.54
416.984	912.54
417.192	922.78
417.4	941.21
417.608	881.82
417.817	1014.94
418.025	1012.89
418.233	1082.52
418.441	1080.47
418.649	1152.15
418.857	1260.7
419.065	1215.64
419.273	1164.44
419.481	1262.74
419.689	1361.05
419.897	1438.87
420.105	1490.07
420.313	1375.38
420.521	1598.61
420.729	1569.94
420.937	1658
421.145	1705.1
421.353	1729.68
421.561	1930.38
421.769	1946.76
421.977	1940.62
422.185	1909.9
422.393	2094.22
422.601	2137.23
422.809	2210.95
423.017	2184.33
423.224	2278.54
423.432	2331.78
423.64	2354.31
423.848	2614.4
424.056	2475.14
424.263	2745.47
424.471	2765.95
424.679	2753.66
424.887	2927.74
425.094	2952.32
425.302	2937.98
425.51	3277.94
425.718	3318.9
425.925	3261.56
426.133	3337.34
426.341	3540.08
426.548	3753.07
426.756	3740.79
426.964	3728.5
427.171	3988.59
427.379	4191.34
427.586	4179.05
427.794	4148.33
428.001	4531.3
428.209	4602.98
428.417	4654.18
428.624	4830.3
428.832	4983.9
429.039	4912.22
429.247	4881.5
429.454	5465.18
429.662	5958.74
429.869	5301.34
430.076	5762.13
430.284	5590.1
430.491	5825.62
430.699	6198.35
430.906	6208.59
431.114	6247.5
431.321	6509.64
431.528	6550.6
431.736	6966.34
431.943	7226.43
432.15	7124.03
432.358	7236.67
432.565	7564.34
432.772	7654.45
432.979	8045.62
433.187	8016.94
433.394	8066.1
433.601	8610.86
433.808	8741.93
434.016	8703.01
434.223	8963.11
434.43	9647.13
434.637	9475.1
434.844	10064.91
435.052	9968.66
435.259	10114.06
435.466	10155.02
435.673	10220.56
435.88	10787.85
436.087	11209.73
436.294	11344.89
436.501	11035.65
436.708	11430.91
436.915	11760.63
437.122	12278.77
437.329	12256.24
437.537	12518.38
437.743	12831.72
437.95	12762.09
438.157	13288.42
438.364	13585.37
438.571	13689.82
438.778	13788.12
438.985	14883.78
439.192	14445.52
439.399	14726.09
439.606	14736.33
439.813	15401.92
440.02	16626.6
440.227	15776.7
440.433	15940.54
440.64	16532.4
440.847	16415.66
441.054	16599.98
441.261	17669.02
441.467	17494.94
441.674	17824.67
441.881	18807.69
442.088	18170.77
442.294	18615.18
442.501	19035.02
442.708	19501.95
442.914	20196.21
443.121	20835.18
443.328	20259.7
443.534	21996.38
443.741	21164.9
443.948	20808.56
444.154	22436.69
444.361	21973.85
444.568	22365.01
444.774	22166.36
444.981	22614.87
445.187	23305.03
445.394	24099.64
445.6	24103.74
445.807	26444.57
446.013	25146.15
446.22	25621.28
446.426	26546.97
446.633	26733.33
446.839	27861.76
447.046	26647.32
447.252	28254.97
447.459	28107.52
447.665	27935.49
447.871	28979.95
448.078	30272.22
448.284	29025.01
448.491	29919.97
448.697	30786.26
448.903	31488.71
449.11	31333.07
449.316	31253.2
449.522	31767.24
449.728	32312
449.935	32596.67
450.141	32715.45
450.347	32965.3
450.553	32510.65
450.76	32848.57
450.966	33694.38
451.172	33100.47
451.378	34249.38
451.584	33569.45
451.791	34167.46
451.997	34083.49
452.203	34826.9
452.409	34620.06
452.615	34427.55
452.821	33454.76
453.027	33004.21
453.233	34878.1
453.44	33350.32
453.646	33837.73
453.852	33655.47
454.058	34386.59
454.264	33043.12
454.47	33946.28
454.676	33260.21
454.882	33952.42
455.088	31105.74
455.294	31775.43
455.5	32180.93
455.705	32541.37
455.911	31097.55
456.117	30548.7
456.323	29983.46
456.529	28867.31
456.735	29838.05
456.941	29213.42
457.147	28812.02
457.352	27507.46
457.558	27663.11
457.764	27570.95
457.97	27101.97
458.176	26399.51
458.381	26168.09
458.587	25217.83
458.793	25250.6
458.999	23784.26
459.204	25570.08
459.41	24955.69
459.616	23319.37
459.821	23165.77
460.027	23282.5
460.233	22645.59
460.438	21527.39
460.644	21611.36
460.85	21031.79
461.055	20593.52
461.261	20290.42
461.466	18932.62
461.672	18350.99
461.878	19665.79
462.083	18262.93
462.289	17974.17
462.494	18004.89
462.7	17187.75
462.905	16790.44
463.111	17249.19
463.316	17388.45
463.522	17146.79
463.727	17089.45
463.932	17017.77
464.138	16860.07
464.343	16954.28
464.549	16518.06
464.754	17068.97
464.959	16845.74
465.165	16759.72
465.37	16149.43
465.575	15633.34
465.781	16114.61
465.986	16544.69
466.191	15840.18
466.397	15547.33
466.602	14701.51
466.807	15061.96
467.012	15334.34
467.218	15270.85
467.423	15029.19
467.628	14883.78
467.833	15444.93
468.038	15188.93
