Data from USB4F104151__148__13-58-23-435.txt Node

Date: Thu Mar 13 13:58:23 EDT 2025
User: louis
Spectrometer: USB4F10415
Trigger mode: 4
Integration Time (sec): 1.000000E-2
Scans to average: 1
Electric dark correction enabled: true
Nonlinearity correction enabled: false
Boxcar width: 0
XAxis mode: Wavelengths
Number of Pixels in Spectrum: 3648
>>>>>Begin Spectral Data<<<<<
178.204	-55.81
178.424	-55.81
178.644	-55.81
178.864	11.78
179.084	-27.14
179.304	-90.62
179.524	7.68
179.744	24.06
179.964	28.16
180.184	-45.57
180.404	26.11
180.624	22.02
180.844	1.54
181.064	11.78
181.283	15.87
181.503	-10.75
181.723	9.73
181.943	-72.19
182.163	19.97
182.383	3.58
182.602	5.63
182.822	-23.04
183.042	48.64
183.262	-0.51
183.482	7.68
183.701	-18.94
183.921	11.78
184.141	-2.56
184.361	48.64
184.58	75.26
184.8	26.11
185.02	-6.66
185.239	91.65
185.459	-0.51
185.679	32.26
185.898	56.83
186.118	3.58
186.338	24.06
186.557	-6.66
186.777	-66.05
186.997	40.45
187.216	19.97
187.436	9.73
187.655	-12.8
187.875	28.16
188.095	36.35
188.314	-23.04
188.534	71.17
188.753	50.69
188.973	24.06
189.192	52.74
189.412	17.92
189.631	24.06
189.851	-33.28
190.07	42.5
190.29	-25.09
190.509	40.45
190.729	-53.76
190.948	103.93
191.168	30.21
191.387	26.11
191.607	26.11
191.826	3.58
192.045	-0.51
192.265	32.26
192.484	24.06
192.704	24.06
192.923	-86.53
193.142	-20.99
193.362	32.26
193.581	50.69
193.8	50.69
194.02	91.65
194.239	1.54
194.458	-33.28
194.678	-86.53
194.897	-6.66
195.116	-16.9
195.335	32.26
195.555	60.93
195.774	75.26
195.993	-6.66
196.212	19.97
196.432	-90.62
196.651	48.64
196.87	42.5
197.089	19.97
197.308	-12.8
197.528	15.87
197.747	3.58
197.966	30.21
198.185	40.45
198.404	56.83
198.623	56.83
198.842	30.21
199.062	-0.51
199.281	11.78
199.5	-57.86
199.719	48.64
199.938	11.78
200.157	42.5
200.376	11.78
200.595	-4.61
200.814	65.02
201.033	42.5
201.252	3.58
201.471	67.07
201.69	34.3
201.909	52.74
202.128	-4.61
202.347	-16.9
202.566	-51.71
202.785	65.02
203.004	-41.47
203.223	58.88
203.442	3.58
203.661	73.21
203.879	-6.66
204.098	52.74
204.317	34.3
204.536	28.16
204.755	-8.7
204.974	67.07
205.193	17.92
205.411	58.88
205.63	32.26
205.849	40.45
206.068	13.82
206.287	19.97
206.505	1.54
206.724	7.68
206.943	-16.9
207.162	60.93
207.381	-41.47
207.599	22.02
207.818	-33.28
208.037	-29.18
208.255	15.87
208.474	11.78
208.693	-47.62
208.911	58.88
209.13	28.16
209.349	-72.19
209.567	7.68
209.786	-8.7
210.005	-47.62
210.223	-33.28
210.442	38.4
210.661	1.54
210.879	36.35
211.098	73.21
211.316	36.35
211.535	87.55
211.753	40.45
211.972	-6.66
212.191	50.69
212.409	40.45
212.628	28.16
212.846	-33.28
213.065	1.54
213.283	67.07
213.502	36.35
213.72	-0.51
213.938	30.21
214.157	40.45
214.375	60.93
214.594	-27.14
214.812	11.78
215.031	85.5
215.249	19.97
215.467	-4.61
215.686	91.65
215.904	93.69
216.122	77.31
216.341	34.3
216.559	1.54
216.778	24.06
216.996	38.4
217.214	9.73
217.432	-35.33
217.651	-6.66
217.869	7.68
218.087	-6.66
218.306	36.35
218.524	48.64
218.742	-29.18
218.96	62.98
219.179	30.21
219.397	52.74
219.615	75.26
219.833	34.3
220.051	-16.9
220.27	65.02
220.488	46.59
220.706	17.92
220.924	15.87
221.142	24.06
221.36	30.21
221.578	24.06
221.796	-41.47
222.015	42.5
222.233	11.78
222.451	-37.38
222.669	-6.66
222.887	89.6
223.105	-23.04
223.323	48.64
223.541	56.83
223.759	15.87
223.977	1.54
224.195	34.3
224.413	-12.8
224.631	1.54
224.849	30.21
225.067	-39.42
225.285	-8.7
225.503	89.6
225.721	-31.23
225.939	28.16
226.157	52.74
226.375	99.84
226.592	-41.47
226.81	-33.28
227.028	3.58
227.246	15.87
227.464	58.88
227.682	-12.8
227.9	-35.33
228.117	28.16
228.335	19.97
228.553	-29.18
228.771	7.68
228.989	58.88
229.206	40.45
229.424	17.92
229.642	67.07
229.86	28.16
230.077	-6.66
230.295	36.35
230.513	93.69
230.731	-10.75
230.948	9.73
231.166	54.78
231.384	19.97
231.601	-16.9
231.819	-49.66
232.037	60.93
232.254	69.12
232.472	9.73
232.689	-57.86
232.907	-0.51
233.125	-6.66
233.342	-27.14
233.56	-14.85
233.777	81.41
233.995	-20.99
234.213	26.11
234.43	44.54
234.648	3.58
234.865	19.97
235.083	17.92
235.3	69.12
235.518	24.06
235.735	-20.99
235.953	9.73
236.17	19.97
236.388	40.45
236.605	15.87
236.822	75.26
237.04	44.54
237.257	75.26
237.475	17.92
237.692	40.45
237.909	26.11
238.127	58.88
238.344	17.92
238.562	15.87
238.779	17.92
238.996	38.4
239.214	32.26
239.431	75.26
239.648	-2.56
239.865	-0.51
240.083	-6.66
240.3	67.07
240.517	5.63
240.735	89.6
240.952	-20.99
241.169	3.58
241.386	17.92
241.603	-88.57
241.821	28.16
242.038	-37.38
242.255	62.98
242.472	-55.81
242.689	36.35
242.907	118.27
243.124	7.68
243.341	32.26
243.558	7.68
243.775	42.5
243.992	-51.71
244.209	34.3
244.426	24.06
244.643	13.82
244.86	32.26
245.078	36.35
245.295	-0.51
245.512	24.06
245.729	-33.28
245.946	11.78
246.163	-4.61
246.38	11.78
246.597	73.21
246.814	22.02
247.031	24.06
247.248	13.82
247.464	-100.86
247.681	-6.66
247.898	69.12
248.115	30.21
248.332	62.98
248.549	32.26
248.766	50.69
248.983	-2.56
249.2	52.74
249.417	28.16
249.633	67.07
249.85	24.06
250.067	60.93
250.284	15.87
250.501	1.54
250.717	-10.75
250.934	-4.61
251.151	58.88
251.368	38.4
251.585	91.65
251.801	50.69
252.018	-68.09
252.235	22.02
252.451	81.41
252.668	26.11
252.885	-16.9
253.102	83.45
253.318	40.45
253.535	36.35
253.752	77.31
253.968	-14.85
254.185	73.21
254.401	-4.61
254.618	46.59
254.835	36.35
255.051	30.21
255.268	81.41
255.484	-4.61
255.701	-55.81
255.917	7.68
256.134	22.02
256.351	22.02
256.567	-25.09
256.784	28.16
257	28.16
257.217	26.11
257.433	-16.9
257.65	97.79
257.866	22.02
258.082	32.26
258.299	-6.66
258.515	42.5
258.732	38.4
258.948	48.64
259.165	93.69
259.381	58.88
259.597	32.26
259.814	65.02
260.03	-6.66
260.246	44.54
260.463	-35.33
260.679	22.02
260.895	3.58
261.112	-61.95
261.328	32.26
261.544	26.11
261.761	24.06
261.977	93.69
262.193	-49.66
262.409	17.92
262.626	-23.04
262.842	26.11
263.058	-39.42
263.274	-20.99
263.49	65.02
263.707	-0.51
263.923	26.11
264.139	-6.66
264.355	38.4
264.571	24.06
264.787	-25.09
265.004	54.78
265.22	1.54
265.436	15.87
265.652	9.73
265.868	15.87
266.084	-12.8
266.3	19.97
266.516	34.3
266.732	44.54
266.948	36.35
267.164	34.3
267.38	19.97
267.596	5.63
267.812	7.68
268.028	7.68
268.244	52.74
268.46	32.26
268.676	46.59
268.892	54.78
269.108	-37.38
269.324	81.41
269.54	-33.28
269.756	128.51
269.972	19.97
270.188	-41.47
270.403	-2.56
270.619	114.17
270.835	99.84
271.051	48.64
271.267	34.3
271.483	1.54
271.698	48.64
271.914	7.68
272.13	26.11
272.346	9.73
272.562	-29.18
272.777	48.64
272.993	69.12
273.209	-37.38
273.425	26.11
273.64	1.54
273.856	-12.8
274.072	3.58
274.287	77.31
274.503	38.4
274.719	13.82
274.934	-4.61
275.15	1.54
275.366	42.5
275.581	1.54
275.797	38.4
276.012	15.87
276.228	17.92
276.444	71.17
276.659	58.88
276.875	40.45
277.09	87.55
277.306	-0.51
277.521	34.3
277.737	62.98
277.952	50.69
278.168	65.02
278.383	22.02
278.599	-12.8
278.814	22.02
279.03	34.3
279.245	15.87
279.461	83.45
279.676	-12.8
279.892	81.41
280.107	-4.61
280.322	32.26
280.538	-10.75
280.753	22.02
280.969	36.35
281.184	48.64
281.399	40.45
281.615	28.16
281.83	62.98
282.045	36.35
282.26	-16.9
282.476	32.26
282.691	58.88
282.906	-16.9
283.122	40.45
283.337	-10.75
283.552	5.63
283.767	-45.57
283.983	34.3
284.198	-12.8
284.413	67.07
284.628	54.78
284.843	52.74
285.058	60.93
285.274	36.35
285.489	11.78
285.704	-4.61
285.919	19.97
286.134	103.93
286.349	11.78
286.564	89.6
286.779	62.98
286.995	3.58
287.21	13.82
287.425	26.11
287.64	9.73
287.855	-14.85
288.07	5.63
288.285	75.26
288.5	-12.8
288.715	-14.85
288.93	19.97
289.145	65.02
289.36	-12.8
289.575	114.17
289.79	-8.7
290.004	38.4
290.219	22.02
290.434	-16.9
290.649	-16.9
290.864	-25.09
291.079	52.74
291.294	69.12
291.509	42.5
291.724	36.35
291.938	-45.57
292.153	42.5
292.368	24.06
292.583	50.69
292.798	11.78
293.012	73.21
293.227	42.5
293.442	-23.04
293.657	19.97
293.871	42.5
294.086	19.97
294.301	15.87
294.516	5.63
294.73	15.87
294.945	-25.09
295.16	5.63
295.374	77.31
295.589	-8.7
295.804	65.02
296.018	62.98
296.233	87.55
296.447	60.93
296.662	36.35
296.877	19.97
297.091	26.11
297.306	-12.8
297.52	7.68
297.735	52.74
297.949	77.31
298.164	-8.7
298.378	36.35
298.593	-0.51
298.807	13.82
299.022	9.73
299.236	48.64
299.451	17.92
299.665	-47.62
299.88	56.83
300.094	-16.9
300.309	34.3
300.523	69.12
300.737	58.88
300.952	108.03
301.166	-2.56
301.381	-18.94
301.595	-70.14
301.809	7.68
302.024	-23.04
302.238	-27.14
302.452	11.78
302.667	24.06
302.881	73.21
303.095	56.83
303.309	32.26
303.524	46.59
303.738	5.63
303.952	-14.85
304.166	46.59
304.381	17.92
304.595	83.45
304.809	32.26
305.023	7.68
305.237	-64
305.452	50.69
305.666	24.06
305.88	34.3
306.094	17.92
306.308	-10.75
306.522	46.59
306.736	58.88
306.95	-4.61
307.164	24.06
307.379	22.02
307.593	28.16
307.807	-47.62
308.021	11.78
308.235	58.88
308.449	-23.04
308.663	26.11
308.877	89.6
309.091	-2.56
309.305	26.11
309.519	-37.38
309.733	-6.66
309.947	-31.23
310.161	42.5
310.374	62.98
310.588	30.21
310.802	75.26
311.016	105.98
311.23	3.58
311.444	-14.85
311.658	-55.81
311.872	85.5
312.085	32.26
312.299	56.83
312.513	54.78
312.727	87.55
312.941	-6.66
313.154	-37.38
313.368	-0.51
313.582	58.88
313.796	65.02
314.009	101.89
314.223	48.64
314.437	40.45
314.651	58.88
314.864	-8.7
315.078	22.02
315.292	24.06
315.505	48.64
315.719	56.83
315.933	-0.51
316.146	11.78
316.36	40.45
316.573	15.87
316.787	3.58
317.001	67.07
317.214	7.68
317.428	42.5
317.641	-16.9
317.855	22.02
318.068	62.98
318.282	46.59
318.495	17.92
318.709	44.54
318.922	-2.56
319.136	48.64
319.349	60.93
319.563	52.74
319.776	3.58
319.99	52.74
320.203	99.84
320.417	-18.94
320.63	85.5
320.843	9.73
321.057	-4.61
321.27	-49.66
321.483	30.21
321.697	65.02
321.91	17.92
322.124	32.26
322.337	-31.23
322.55	65.02
322.763	73.21
322.977	-14.85
323.19	-45.57
323.403	81.41
323.617	42.5
323.83	-8.7
324.043	3.58
324.256	7.68
324.469	15.87
324.683	36.35
324.896	30.21
325.109	19.97
325.322	40.45
325.535	132.61
325.748	5.63
325.962	71.17
326.175	-47.62
326.388	-57.86
326.601	65.02
326.814	77.31
327.027	40.45
327.24	38.4
327.453	-14.85
327.666	32.26
327.879	42.5
328.092	-4.61
328.305	-16.9
328.518	124.41
328.731	77.31
328.944	65.02
329.157	83.45
329.37	-8.7
329.583	22.02
329.796	77.31
330.009	58.88
330.222	81.41
330.435	65.02
330.648	73.21
330.861	7.68
331.073	-59.9
331.286	7.68
331.499	32.26
331.712	-23.04
331.925	-55.81
332.138	87.55
332.35	44.54
332.563	15.87
332.776	48.64
332.989	15.87
333.202	56.83
333.414	22.02
333.627	24.06
333.84	30.21
334.053	-8.7
334.265	48.64
334.478	28.16
334.691	34.3
334.903	19.97
335.116	9.73
335.329	81.41
335.541	-31.23
335.754	56.83
335.966	22.02
336.179	32.26
336.392	36.35
336.604	24.06
336.817	15.87
337.029	19.97
337.242	17.92
337.454	15.87
337.667	60.93
337.88	83.45
338.092	56.83
338.305	73.21
338.517	50.69
338.729	-0.51
338.942	65.02
339.154	93.69
339.367	5.63
339.579	19.97
339.792	79.36
340.004	32.26
340.217	34.3
340.429	120.32
340.641	-18.94
340.854	13.82
341.066	42.5
341.278	42.5
341.491	58.88
341.703	24.06
341.915	-2.56
342.128	46.59
342.34	9.73
342.552	75.26
342.764	-33.28
342.977	56.83
343.189	32.26
343.401	34.3
343.613	42.5
343.826	60.93
344.038	-0.51
344.25	62.98
344.462	-47.62
344.674	110.08
344.886	22.02
345.099	-12.8
345.311	7.68
345.523	108.03
345.735	40.45
345.947	67.07
346.159	-37.38
346.371	34.3
346.583	46.59
346.795	77.31
347.007	1.54
347.219	65.02
347.431	34.3
347.643	3.58
347.855	144.89
348.067	87.55
348.279	34.3
348.491	13.82
348.703	60.93
348.915	48.64
349.127	1.54
349.339	-16.9
349.551	60.93
349.763	9.73
349.975	52.74
350.187	11.78
350.399	38.4
350.61	34.3
350.822	26.11
351.034	22.02
351.246	24.06
351.458	56.83
351.669	26.11
351.881	89.6
352.093	48.64
352.305	-2.56
352.517	34.3
352.728	132.61
352.94	93.69
353.152	1.54
353.363	71.17
353.575	32.26
353.787	54.78
353.999	114.17
354.21	1.54
354.422	5.63
354.633	50.69
354.845	54.78
355.057	112.13
355.268	-45.57
355.48	89.6
355.692	13.82
355.903	22.02
356.115	91.65
356.326	13.82
356.538	65.02
356.749	28.16
356.961	34.3
357.172	17.92
357.384	26.11
357.595	112.13
357.807	91.65
358.018	3.58
358.23	48.64
358.441	71.17
358.653	97.79
358.864	11.78
359.075	60.93
359.287	38.4
359.498	58.88
359.709	11.78
359.921	7.68
360.132	34.3
360.344	-4.61
360.555	24.06
360.766	52.74
360.977	-43.52
361.189	56.83
361.4	22.02
361.611	36.35
361.823	11.78
362.034	81.41
362.245	3.58
362.456	17.92
362.667	58.88
362.879	17.92
363.09	54.78
363.301	97.79
363.512	103.93
363.723	54.78
363.935	36.35
364.146	28.16
364.357	52.74
364.568	36.35
364.779	11.78
364.99	46.59
365.201	24.06
365.412	36.35
365.623	148.99
365.834	17.92
366.045	48.64
366.256	69.12
366.467	38.4
366.678	95.74
366.889	19.97
367.1	36.35
367.311	69.12
367.522	75.26
367.733	56.83
367.944	9.73
368.155	-29.18
368.366	50.69
368.577	67.07
368.788	-25.09
368.999	7.68
369.209	60.93
369.42	40.45
369.631	46.59
369.842	65.02
370.053	-20.99
370.264	-16.9
370.474	3.58
370.685	9.73
370.896	28.16
371.107	103.93
371.317	9.73
371.528	46.59
371.739	-25.09
371.95	-4.61
372.16	114.17
372.371	30.21
372.582	46.59
372.792	93.69
373.003	89.6
373.214	-14.85
373.424	60.93
373.635	9.73
373.846	52.74
374.056	40.45
374.267	105.98
374.477	5.63
374.688	11.78
374.898	54.78
375.109	22.02
375.319	105.98
375.53	40.45
375.74	-6.66
375.951	65.02
376.161	73.21
376.372	62.98
376.582	-16.9
376.793	28.16
377.003	103.93
377.214	-6.66
377.424	-23.04
377.635	7.68
377.845	32.26
378.055	1.54
378.266	15.87
378.476	54.78
378.686	34.3
378.897	91.65
379.107	36.35
379.317	81.41
379.528	19.97
379.738	81.41
379.948	40.45
380.158	-6.66
380.369	67.07
380.579	24.06
380.789	-37.38
380.999	58.88
381.21	-41.47
381.42	34.3
381.63	-8.7
381.84	17.92
382.05	24.06
382.261	50.69
382.471	75.26
382.681	75.26
382.891	40.45
383.101	24.06
383.311	32.26
383.521	40.45
383.731	-12.8
383.941	101.89
384.151	44.54
384.361	-29.18
384.571	65.02
384.781	108.03
384.991	132.61
385.201	73.21
385.411	46.59
385.621	38.4
385.831	75.26
386.041	73.21
386.251	17.92
386.461	101.89
386.671	13.82
386.881	99.84
387.091	-41.47
387.301	48.64
387.511	15.87
387.72	95.74
387.93	71.17
388.14	-0.51
388.35	67.07
388.56	75.26
388.769	-2.56
388.979	56.83
389.189	7.68
389.399	101.89
389.609	54.78
389.818	81.41
390.028	81.41
390.238	1.54
390.447	32.26
390.657	89.6
390.867	95.74
391.076	-4.61
391.286	60.93
391.496	36.35
391.705	46.59
391.915	24.06
392.125	-0.51
392.334	24.06
392.544	40.45
392.753	19.97
392.963	85.5
393.172	81.41
393.382	-25.09
393.591	75.26
393.801	58.88
394.01	138.75
394.22	67.07
394.429	73.21
394.639	22.02
394.848	183.81
395.058	42.5
395.267	38.4
395.477	77.31
395.686	87.55
395.895	40.45
396.105	75.26
396.314	85.5
396.524	40.45
396.733	79.36
396.942	93.69
397.152	9.73
397.361	118.27
397.57	65.02
397.78	130.56
397.989	128.51
398.198	75.26
398.407	60.93
398.617	110.08
398.826	34.3
399.035	42.5
399.244	-25.09
399.453	36.35
399.663	69.12
399.872	132.61
400.081	83.45
400.29	136.7
400.499	79.36
400.708	128.51
400.917	103.93
401.127	140.8
401.336	15.87
401.545	105.98
401.754	40.45
401.963	124.41
402.172	87.55
402.381	110.08
402.59	151.04
402.799	52.74
403.008	112.13
403.217	62.98
403.426	95.74
403.635	116.22
403.844	124.41
404.053	48.64
404.262	81.41
404.471	130.56
404.68	89.6
404.888	42.5
405.097	144.89
405.306	91.65
405.515	126.46
405.724	165.37
405.933	153.09
406.142	181.76
406.35	157.18
406.559	116.22
406.768	138.75
406.977	146.94
407.185	132.61
407.394	118.27
407.603	169.47
407.812	163.33
408.02	148.99
408.229	134.65
408.438	179.71
408.646	169.47
408.855	208.38
409.064	173.57
409.272	167.42
409.481	208.38
409.69	230.91
409.898	294.4
410.107	255.48
410.315	204.28
410.524	165.37
410.733	259.58
410.941	214.52
411.15	271.87
411.358	298.49
411.567	288.25
411.775	230.91
411.984	288.25
412.192	273.92
412.401	290.3
412.609	310.78
412.818	357.88
413.026	304.64
413.234	329.21
413.443	308.73
413.651	392.7
413.86	392.7
414.068	468.47
414.276	462.33
414.485	454.14
414.693	441.85
414.901	513.53
415.11	507.38
415.318	474.62
415.526	495.1
415.734	550.39
415.943	534.01
416.151	605.69
416.359	640.5
416.567	650.74
416.776	648.69
416.984	634.36
417.192	660.98
417.4	714.23
417.608	683.51
417.817	796.15
418.025	722.42
418.233	777.72
418.441	816.63
418.649	806.39
418.857	908.79
419.065	919.03
419.273	933.36
419.481	892.4
419.689	1158.64
419.897	1009.14
420.105	1002.99
420.313	1203.69
420.521	1062.38
420.729	1107.44
420.937	1101.3
421.145	1295.85
421.353	1228.27
421.561	1334.76
421.769	1398.25
421.977	1486.31
422.185	1336.81
422.393	1588.71
422.601	1703.4
422.809	1641.96
423.017	1691.11
423.224	1625.58
423.432	1918.43
423.64	1725.93
423.848	1949.15
424.056	1920.48
424.263	2039.26
424.471	2022.88
424.679	2069.98
424.887	2131.42
425.094	2262.49
425.302	2268.64
425.51	2274.78
425.718	2438.62
425.925	2256.35
426.133	2463.19
426.341	2622.94
426.548	2813.4
426.756	2758.1
426.964	2768.34
427.171	2985.43
427.379	2973.14
427.586	2979.28
427.794	3165.65
428.001	3435.98
428.209	3501.51
428.417	3442.12
428.624	3767.75
428.832	3634.63
429.039	3677.64
429.247	3771.85
429.454	4093.38
429.662	4279.74
429.869	4027.84
430.076	4396.48
430.284	4152.77
430.491	4416.96
430.699	4548.03
430.906	4500.92
431.114	4609.47
431.321	4740.54
431.528	4863.41
431.736	5219.76
431.943	5504.43
432.15	5297.58
432.358	5408.17
432.565	5545.39
432.772	5670.31
432.979	5879.21
433.187	5764.52
433.394	5979.56
433.601	6438.3
433.808	6454.69
434.016	6270.37
434.223	6641.05
434.43	7144.85
434.637	6819.22
434.844	7320.98
435.052	7327.12
435.259	7589.26
435.466	7636.36
435.673	7517.58
435.88	7951.75
436.087	8510.85
436.294	8416.64
436.501	8125.83
436.708	8410.5
436.915	8756.6
437.122	9012.6
437.329	8889.72
437.537	9463.15
437.743	9248.11
437.95	9477.49
438.157	9856.36
438.364	10057.06
438.571	10022.25
438.778	10349.92
438.985	11160.92
439.192	10573.15
439.399	11087.19
439.606	10849.63
439.813	11378
440.02	12002.63
440.227	11656.53
440.433	11545.94
440.64	12166.47
440.847	12275.01
441.054	12350.79
441.261	13086.01
441.467	13014.33
441.674	13288.76
441.881	13894.96
442.088	13522.23
442.294	13522.23
442.501	13849.9
442.708	14310.69
442.914	14705.95
443.121	15097.11
443.328	14822.69
443.534	15990.03
443.741	15473.94
443.948	15248.66
444.154	16545.03
444.361	16520.45
444.568	16700.67
444.774	16309.51
444.981	16590.08
445.187	17188.09
445.394	17808.62
445.6	17546.48
445.807	19397.85
446.013	18484.45
446.22	19033.31
446.426	19752.15
446.633	19758.29
446.839	20346.06
447.046	19580.12
447.252	20542.66
447.459	20462.79
447.665	20577.48
447.871	21337.27
448.078	22396.07
448.284	21333.18
448.491	21824.69
448.697	22772.9
448.903	23268.51
449.11	23286.94
449.316	22983.84
449.522	23299.23
449.728	23561.37
449.935	23962.77
450.141	23944.34
450.347	24327.31
450.553	23583.9
450.76	23966.87
450.966	24992.9
451.172	24386.7
451.378	25025.67
451.584	24468.62
451.791	24816.77
451.997	24867.97
452.203	25566.33
452.409	25551.99
452.615	25177.22
452.821	24212.62
453.027	24091.79
453.233	25242.75
453.44	24372.36
453.646	24366.22
453.852	24636.55
454.058	24935.56
454.264	24401.04
454.47	24781.96
454.676	23917.72
454.882	24849.54
455.088	22709.41
455.294	23035.04
455.5	23295.13
455.705	23411.87
455.911	22502.57
456.117	22189.23
456.323	21937.33
456.529	20778.18
456.735	21511.35
456.941	21120.19
457.147	20509.9
457.352	19868.88
457.558	19813.59
457.764	19827.92
457.97	19717.33
458.176	19254.49
458.381	19162.33
458.587	17915.12
458.793	18095.34
458.999	17210.62
459.204	18502.89
459.41	17884.4
459.616	16628.99
459.821	16577.8
460.027	16553.22
460.233	16436.49
460.438	15496.47
460.644	16026.89
460.85	15097.11
461.055	14685.47
461.261	14632.22
461.466	13493.55
461.672	13339.96
461.878	14413.09
462.083	13294.9
462.289	13086.01
462.494	12864.83
462.7	12444.99
462.905	11740.49
463.111	12444.99
463.316	12373.32
463.522	12111.18
463.727	12100.94
463.932	12172.61
464.138	11984.2
464.343	11937.1
464.549	12002.63
464.754	12168.52
464.959	12096.84
465.165	11992.39
465.37	11478.35
465.575	11353.43
465.781	11586.9
465.986	11580.75
466.191	11316.56
466.397	11289.94
466.602	10663.26
466.807	11253.08
467.012	11128.15
467.218	10909.02
467.423	10771.8
467.628	10732.89
467.833	11371.86
468.038	10966.36
468.244	10734.94
468.449	11066.71
468.654	10724.7
