Data from USB4F104151__85__13-54-24-811.txt Node

Date: Thu Mar 13 13:54:24 EDT 2025
User: louis
Spectrometer: USB4F10415
Trigger mode: 4
Integration Time (sec): 1.000000E-2
Scans to average: 1
Electric dark correction enabled: true
Nonlinearity correction enabled: false
Boxcar width: 0
XAxis mode: Wavelengths
Number of Pixels in Spectrum: 3648
>>>>>Begin Spectral Data<<<<<
178.204	-37.55
178.424	-37.55
178.644	-37.55
178.864	-90.79
179.084	27.99
179.304	-29.35
179.524	25.94
179.744	-15.02
179.964	3.41
180.184	-4.78
180.404	-31.4
180.624	-0.68
180.844	32.08
181.064	-4.78
181.283	-39.59
181.503	40.28
181.723	23.89
181.943	-45.74
182.163	30.04
182.383	7.51
182.602	-2.73
182.822	11.61
183.042	40.28
183.262	-41.64
183.482	-43.69
183.701	-31.4
183.921	-41.64
184.141	-29.35
184.361	9.56
184.58	32.08
184.8	83.28
185.02	-23.21
185.239	64.85
185.459	32.08
185.679	32.08
185.898	-80.55
186.118	77.14
186.338	-23.21
186.557	-10.92
186.777	56.66
186.997	-19.11
187.216	64.85
187.436	-10.92
187.655	21.85
187.875	52.56
188.095	3.41
188.314	64.85
188.534	13.65
188.753	21.85
188.973	101.72
189.192	56.66
189.412	-6.83
189.631	60.76
189.851	-12.97
190.07	27.99
190.29	25.94
190.509	-6.83
190.729	-10.92
190.948	58.71
191.168	40.28
191.387	44.37
191.607	21.85
191.826	62.8
192.045	23.89
192.265	11.61
192.484	-45.74
192.704	17.75
192.923	50.52
193.142	48.47
193.362	66.9
193.581	-23.21
193.8	17.75
194.02	-19.11
194.239	38.23
194.458	66.9
194.678	21.85
194.897	73.04
195.116	79.19
195.335	-12.97
195.555	30.04
195.774	54.61
195.993	-15.02
196.212	-25.26
196.432	23.89
196.651	50.52
196.87	9.56
197.089	77.14
197.308	-6.83
197.528	17.75
197.747	-45.74
197.966	7.51
198.185	42.32
198.404	21.85
198.623	19.8
198.842	23.89
199.062	1.37
199.281	-47.79
199.5	40.28
199.719	56.66
199.938	17.75
200.157	54.61
200.376	15.7
200.595	23.89
200.814	-10.92
201.033	42.32
201.252	58.71
201.471	-37.55
201.69	42.32
201.909	19.8
202.128	9.56
202.347	27.99
202.566	42.32
202.785	44.37
203.004	-49.83
203.223	81.24
203.442	-12.97
203.661	11.61
203.879	91.48
204.098	75.09
204.317	-6.83
204.536	40.28
204.755	44.37
204.974	7.51
205.193	27.99
205.411	77.14
205.63	3.41
205.849	3.41
206.068	23.89
206.287	62.8
206.505	89.43
206.724	25.94
206.943	5.46
207.162	42.32
207.381	-12.97
207.599	38.23
207.818	60.76
208.037	52.56
208.255	44.37
208.474	85.33
208.693	-23.21
208.911	44.37
209.13	15.7
209.349	44.37
209.567	19.8
209.786	19.8
210.005	1.37
210.223	-12.97
210.442	-45.74
210.661	32.08
210.879	15.7
211.098	38.23
211.316	42.32
211.535	11.61
211.753	-21.16
211.972	34.13
212.191	9.56
212.409	-15.02
212.628	124.24
212.846	27.99
213.065	64.85
213.283	89.43
213.502	-39.59
213.72	17.75
213.938	50.52
214.157	73.04
214.375	46.42
214.594	32.08
214.812	105.81
215.031	13.65
215.249	34.13
215.467	-45.74
215.686	13.65
215.904	56.66
216.122	-41.64
216.341	66.9
216.559	15.7
216.778	87.38
216.996	-6.83
217.214	-6.83
217.432	9.56
217.651	32.08
217.869	-39.59
218.087	34.13
218.306	-10.92
218.524	32.08
218.742	-19.11
218.96	-2.73
219.179	50.52
219.397	46.42
219.615	-23.21
219.833	5.46
220.051	3.41
220.27	48.47
220.488	-4.78
220.706	89.43
220.924	48.47
221.142	56.66
221.36	13.65
221.578	-23.21
221.796	25.94
222.015	30.04
222.233	13.65
222.451	60.76
222.669	17.75
222.887	-15.02
223.105	-31.4
223.323	3.41
223.541	19.8
223.759	114
223.977	23.89
224.195	54.61
224.413	42.32
224.631	91.48
224.849	-23.21
225.067	21.85
225.285	56.66
225.503	3.41
225.721	38.23
225.939	19.8
226.157	3.41
226.375	13.65
226.592	-4.78
226.81	-39.59
227.028	114
227.246	52.56
227.464	66.9
227.682	-21.16
227.9	-21.16
228.117	120.15
228.335	66.9
228.553	54.61
228.771	9.56
228.989	40.28
229.206	48.47
229.424	97.62
229.642	13.65
229.86	-80.55
230.077	27.99
230.295	13.65
230.513	-43.69
230.731	107.86
230.948	36.18
231.166	30.04
231.384	-27.31
231.601	85.33
231.819	30.04
232.037	7.51
232.254	40.28
232.472	79.19
232.689	60.76
232.907	-12.97
233.125	13.65
233.342	-6.83
233.56	66.9
233.777	40.28
233.995	27.99
234.213	25.94
234.43	66.9
234.648	3.41
234.865	60.76
235.083	19.8
235.3	48.47
235.518	48.47
235.735	5.46
235.953	9.56
236.17	30.04
236.388	7.51
236.605	3.41
236.822	81.24
237.04	27.99
237.257	40.28
237.475	-64.17
237.692	5.46
237.909	101.72
238.127	122.2
238.344	-2.73
238.562	44.37
238.779	89.43
238.996	-8.87
239.214	7.51
239.431	5.46
239.648	-17.07
239.865	30.04
240.083	42.32
240.3	-2.73
240.517	-10.92
240.735	77.14
240.952	15.7
241.169	-19.11
241.386	15.7
241.603	64.85
241.821	42.32
242.038	21.85
242.255	15.7
242.472	25.94
242.689	-41.64
242.907	66.9
243.124	30.04
243.341	38.23
243.558	44.37
243.775	-33.45
243.992	25.94
244.209	21.85
244.426	21.85
244.643	7.51
244.86	23.89
245.078	17.75
245.295	19.8
245.512	-0.68
245.729	-6.83
245.946	-10.92
246.163	-6.83
246.38	64.85
246.597	-8.87
246.814	21.85
247.031	30.04
247.248	19.8
247.464	19.8
247.681	34.13
247.898	13.65
248.115	17.75
248.332	56.66
248.549	103.76
248.766	23.89
248.983	40.28
249.2	36.18
249.417	21.85
249.633	-12.97
249.85	71
250.067	1.37
250.284	7.51
250.501	-23.21
250.717	1.37
250.934	30.04
251.151	66.9
251.368	40.28
251.585	27.99
251.801	-4.78
252.018	-31.4
252.235	42.32
252.451	17.75
252.668	68.95
252.885	83.28
253.102	-8.87
253.318	-4.78
253.535	-27.31
253.752	-19.11
253.968	13.65
254.185	25.94
254.401	11.61
254.618	15.7
254.835	-45.74
255.051	68.95
255.268	32.08
255.484	7.51
255.701	-15.02
255.917	7.51
256.134	9.56
256.351	77.14
256.567	3.41
256.784	48.47
257	85.33
257.217	66.9
257.433	34.13
257.65	93.52
257.866	27.99
258.082	-19.11
258.299	32.08
258.515	19.8
258.732	1.37
258.948	68.95
259.165	30.04
259.381	11.61
259.597	17.75
259.814	42.32
260.03	-17.07
260.246	48.47
260.463	-8.87
260.679	-4.78
260.895	34.13
261.112	130.39
261.328	62.8
261.544	93.52
261.761	7.51
261.977	34.13
262.193	5.46
262.409	-4.78
262.626	-58.03
262.842	101.72
263.058	-10.92
263.274	34.13
263.49	52.56
263.707	-39.59
263.923	27.99
264.139	-2.73
264.355	40.28
264.571	85.33
264.787	-25.26
265.004	68.95
265.22	5.46
265.436	-17.07
265.652	-27.31
265.868	32.08
266.084	62.8
266.3	38.23
266.516	91.48
266.732	30.04
266.948	50.52
267.164	19.8
267.38	7.51
267.596	36.18
267.812	56.66
268.028	44.37
268.244	19.8
268.46	19.8
268.676	-4.78
268.892	27.99
269.108	-15.02
269.324	-21.16
269.54	5.46
269.756	1.37
269.972	-0.68
270.188	71
270.403	36.18
270.619	32.08
270.835	11.61
271.051	-6.83
271.267	91.48
271.483	25.94
271.698	54.61
271.914	99.67
272.13	1.37
272.346	56.66
272.562	40.28
272.777	62.8
272.993	-2.73
273.209	9.56
273.425	48.47
273.64	64.85
273.856	15.7
274.072	-8.87
274.287	-6.83
274.503	-6.83
274.719	30.04
274.934	-4.78
275.15	-17.07
275.366	91.48
275.581	64.85
275.797	42.32
276.012	38.23
276.228	30.04
276.444	40.28
276.659	48.47
276.875	-21.16
277.09	40.28
277.306	42.32
277.521	50.52
277.737	60.76
277.952	-19.11
278.168	7.51
278.383	7.51
278.599	71
278.814	87.38
279.03	25.94
279.245	60.76
279.461	52.56
279.676	99.67
279.892	27.99
280.107	-21.16
280.322	7.51
280.538	95.57
280.753	23.89
280.969	34.13
281.184	3.41
281.399	11.61
281.615	30.04
281.83	-62.12
282.045	-27.31
282.26	13.65
282.476	-23.21
282.691	36.18
282.906	1.37
283.122	103.76
283.337	-35.5
283.552	89.43
283.767	-33.45
283.983	42.32
284.198	-23.21
284.413	17.75
284.628	66.9
284.843	-6.83
285.058	17.75
285.274	9.56
285.489	-66.22
285.704	34.13
285.919	60.76
286.134	44.37
286.349	95.57
286.564	-27.31
286.779	36.18
286.995	21.85
287.21	-19.11
287.425	56.66
287.64	83.28
287.855	71
288.07	-0.68
288.285	-23.21
288.5	9.56
288.715	93.52
288.93	-0.68
289.145	-12.97
289.36	50.52
289.575	7.51
289.79	50.52
290.004	77.14
290.219	-0.68
290.434	25.94
290.649	73.04
290.864	38.23
291.079	56.66
291.294	-35.5
291.509	40.28
291.724	77.14
291.938	-0.68
292.153	30.04
292.368	-27.31
292.583	34.13
292.798	95.57
293.012	97.62
293.227	34.13
293.442	87.38
293.657	15.7
293.871	56.66
294.086	32.08
294.301	-4.78
294.516	75.09
294.73	-31.4
294.945	56.66
295.16	19.8
295.374	75.09
295.589	71
295.804	27.99
296.018	-25.26
296.233	23.89
296.447	54.61
296.662	23.89
296.877	25.94
297.091	-37.55
297.306	27.99
297.52	-27.31
297.735	-25.26
297.949	-25.26
298.164	52.56
298.378	17.75
298.593	9.56
298.807	54.61
299.022	97.62
299.236	46.42
299.451	-8.87
299.665	7.51
299.88	-12.97
300.094	1.37
300.309	-21.16
300.523	23.89
300.737	60.76
300.952	38.23
301.166	23.89
301.381	40.28
301.595	38.23
301.809	19.8
302.024	97.62
302.238	27.99
302.452	-0.68
302.667	11.61
302.881	11.61
303.095	64.85
303.309	89.43
303.524	9.56
303.738	-25.26
303.952	-12.97
304.166	-6.83
304.381	40.28
304.595	50.52
304.809	-10.92
305.023	13.65
305.237	-15.02
305.452	75.09
305.666	-37.55
305.88	15.7
306.094	-15.02
306.308	-21.16
306.522	-12.97
306.736	5.46
306.95	25.94
307.164	-23.21
307.379	38.23
307.593	50.52
307.807	17.75
308.021	13.65
308.235	-8.87
308.449	21.85
308.663	-45.74
308.877	23.89
309.091	68.95
309.305	40.28
309.519	40.28
309.733	3.41
309.947	-10.92
310.161	17.75
310.374	15.7
310.588	1.37
310.802	-23.21
311.016	60.76
311.23	66.9
311.444	25.94
311.658	-0.68
311.872	46.42
312.085	27.99
312.299	-39.59
312.513	-10.92
312.727	13.65
312.941	30.04
313.154	75.09
313.368	50.52
313.582	30.04
313.796	19.8
314.009	-25.26
314.223	23.89
314.437	38.23
314.651	30.04
314.864	103.76
315.078	-76.46
315.292	118.1
315.505	34.13
315.719	42.32
315.933	21.85
316.146	30.04
316.36	40.28
316.573	56.66
316.787	13.65
317.001	15.7
317.214	60.76
317.428	34.13
317.641	34.13
317.855	7.51
318.068	19.8
318.282	32.08
318.495	64.85
318.709	81.24
318.922	27.99
319.136	56.66
319.349	-23.21
319.563	-47.79
319.776	-23.21
319.99	-2.73
320.203	-8.87
320.417	44.37
320.63	21.85
320.843	75.09
321.057	19.8
321.27	17.75
321.483	-2.73
321.697	42.32
321.91	-15.02
322.124	7.51
322.337	87.38
322.55	40.28
322.763	-15.02
322.977	-33.45
323.19	40.28
323.403	-55.98
323.617	-6.83
323.83	34.13
324.043	30.04
324.256	-12.97
324.469	30.04
324.683	87.38
324.896	-8.87
325.109	54.61
325.322	-21.16
325.535	40.28
325.748	56.66
325.962	48.47
326.175	50.52
326.388	38.23
326.601	54.61
326.814	48.47
327.027	38.23
327.24	44.37
327.453	1.37
327.666	48.47
327.879	64.85
328.092	58.71
328.305	48.47
328.518	46.42
328.731	3.41
328.944	34.13
329.157	-25.26
329.37	36.18
329.583	42.32
329.796	46.42
330.009	-41.64
330.222	122.2
330.435	30.04
330.648	77.14
330.861	25.94
331.073	87.38
331.286	34.13
331.499	25.94
331.712	-25.26
331.925	52.56
332.138	32.08
332.35	52.56
332.563	42.32
332.776	15.7
332.989	30.04
333.202	9.56
333.414	32.08
333.627	165.2
333.84	56.66
334.053	50.52
334.265	3.41
334.478	1.37
334.691	50.52
334.903	25.94
335.116	-19.11
335.329	52.56
335.541	9.56
335.754	11.61
335.966	-12.97
336.179	46.42
336.392	27.99
336.604	107.86
336.817	5.46
337.029	-6.83
337.242	21.85
337.454	-33.45
337.667	73.04
337.88	42.32
338.092	32.08
338.305	42.32
338.517	-10.92
338.729	111.96
338.942	64.85
339.154	46.42
339.367	-53.93
339.579	-10.92
339.792	-25.26
340.004	46.42
340.217	11.61
340.429	9.56
340.641	-27.31
340.854	17.75
341.066	46.42
341.278	64.85
341.491	48.47
341.703	34.13
341.915	13.65
342.128	46.42
342.34	21.85
342.552	9.56
342.764	-0.68
342.977	17.75
343.189	30.04
343.401	64.85
343.613	-25.26
343.826	21.85
344.038	3.41
344.25	50.52
344.462	40.28
344.674	23.89
344.886	-10.92
345.099	-10.92
345.311	71
345.523	42.32
345.735	-12.97
345.947	17.75
346.159	54.61
346.371	-17.07
346.583	40.28
346.795	34.13
347.007	9.56
347.219	62.8
347.431	-27.31
347.643	81.24
347.855	38.23
348.067	-21.16
348.279	3.41
348.491	19.8
348.703	73.04
348.915	21.85
349.127	7.51
349.339	25.94
349.551	87.38
349.763	7.51
349.975	13.65
350.187	58.71
350.399	60.76
350.61	46.42
350.822	-41.64
351.034	114
351.246	77.14
351.458	66.9
351.669	30.04
351.881	68.95
352.093	5.46
352.305	1.37
352.517	32.08
352.728	56.66
352.94	3.41
353.152	19.8
353.363	-33.45
353.575	87.38
353.787	21.85
353.999	36.18
354.21	40.28
354.422	40.28
354.633	7.51
354.845	32.08
355.057	5.46
355.268	1.37
355.48	83.28
355.692	71
355.903	62.8
356.115	-58.03
356.326	48.47
356.538	71
356.749	3.41
356.961	19.8
357.172	13.65
357.384	3.41
357.595	34.13
357.807	66.9
358.018	-23.21
358.23	91.48
358.441	-6.83
358.653	9.56
358.864	1.37
359.075	73.04
359.287	-23.21
359.498	42.32
359.709	23.89
359.921	9.56
360.132	3.41
360.344	46.42
360.555	7.51
360.766	34.13
360.977	40.28
361.189	42.32
361.4	5.46
361.611	27.99
361.823	32.08
362.034	27.99
362.245	27.99
362.456	66.9
362.667	32.08
362.879	66.9
363.09	25.94
363.301	120.15
363.512	44.37
363.723	23.89
363.935	30.04
364.146	7.51
364.357	116.05
364.568	42.32
364.779	-62.12
364.99	60.76
365.201	-23.21
365.412	77.14
365.623	9.56
365.834	44.37
366.045	27.99
366.256	58.71
366.467	40.28
366.678	5.46
366.889	40.28
367.1	46.42
367.311	-17.07
367.522	46.42
367.733	62.8
367.944	73.04
368.155	46.42
368.366	7.51
368.577	58.71
368.788	54.61
368.999	34.13
369.209	15.7
369.42	46.42
369.631	62.8
369.842	54.61
370.053	81.24
370.264	56.66
370.474	-25.26
370.685	-35.5
370.896	19.8
371.107	42.32
371.317	34.13
371.528	42.32
371.739	46.42
371.95	32.08
372.16	30.04
372.371	-2.73
372.582	54.61
372.792	5.46
373.003	21.85
373.214	42.32
373.424	66.9
373.635	52.56
373.846	73.04
374.056	13.65
374.267	38.23
374.477	38.23
374.688	-19.11
374.898	19.8
375.109	11.61
375.319	52.56
375.53	48.47
375.74	13.65
375.951	97.62
376.161	21.85
376.372	3.41
376.582	44.37
376.793	27.99
377.003	64.85
377.214	5.46
377.424	83.28
377.635	-10.92
377.845	38.23
378.055	-4.78
378.266	15.7
378.476	19.8
378.686	17.75
378.897	-39.59
379.107	36.18
379.317	27.99
379.528	-2.73
379.738	1.37
379.948	-25.26
380.158	34.13
380.369	11.61
380.579	46.42
380.789	30.04
380.999	-6.83
381.21	75.09
381.42	105.81
381.63	19.8
381.84	25.94
382.05	27.99
382.261	52.56
382.471	-12.97
382.681	-23.21
382.891	60.76
383.101	116.05
383.311	-0.68
383.521	30.04
383.731	75.09
383.941	25.94
384.151	44.37
384.361	40.28
384.571	50.52
384.781	15.7
384.991	9.56
385.201	99.67
385.411	46.42
385.621	93.52
385.831	38.23
386.041	95.57
386.251	-15.02
386.461	73.04
386.671	73.04
386.881	36.18
387.091	79.19
387.301	40.28
387.511	66.9
387.72	-6.83
387.93	54.61
388.14	73.04
388.35	64.85
388.56	9.56
388.769	-33.45
388.979	-60.07
389.189	-12.97
389.399	-41.64
389.609	81.24
389.818	103.76
390.028	79.19
390.238	15.7
390.447	126.29
390.657	58.71
390.867	42.32
391.076	64.85
391.286	42.32
391.496	9.56
391.705	38.23
391.915	56.66
392.125	58.71
392.334	9.56
392.544	-0.68
392.753	89.43
392.963	-33.45
393.172	42.32
393.382	56.66
393.591	19.8
393.801	79.19
394.01	124.24
394.22	95.57
394.429	68.95
394.639	54.61
394.848	46.42
395.058	25.94
395.267	81.24
395.477	93.52
395.686	21.85
395.895	60.76
396.105	30.04
396.314	56.66
396.524	17.75
396.733	54.61
396.942	40.28
397.152	21.85
397.361	13.65
397.57	89.43
397.78	40.28
397.989	81.24
398.198	-12.97
398.407	44.37
398.617	56.66
398.826	7.51
399.035	64.85
399.244	161.11
399.453	89.43
399.663	83.28
399.872	91.48
400.081	64.85
400.29	56.66
400.499	23.89
400.708	-0.68
400.917	50.52
401.127	79.19
401.336	126.29
401.545	109.91
401.754	87.38
401.963	56.66
402.172	85.33
402.381	85.33
402.59	1.37
402.799	101.72
403.008	95.57
403.217	52.56
403.426	23.89
403.635	154.96
403.844	40.28
404.053	93.52
404.262	89.43
404.471	97.62
404.68	34.13
404.888	97.62
405.097	46.42
405.306	83.28
405.515	93.52
405.724	85.33
405.933	66.9
406.142	111.96
406.35	60.76
406.559	66.9
406.768	52.56
406.977	89.43
407.185	77.14
407.394	150.87
407.603	83.28
407.812	116.05
408.02	111.96
408.229	99.67
408.438	140.63
408.646	128.34
408.855	124.24
409.064	161.11
409.272	146.77
409.481	134.48
409.69	132.44
409.898	103.76
410.107	167.25
410.315	247.12
410.524	173.39
410.733	97.62
410.941	120.15
411.15	197.97
411.358	191.83
411.567	140.63
411.775	238.93
411.984	142.68
412.192	161.11
412.401	200.02
412.609	171.35
412.818	177.49
413.026	189.78
413.234	218.45
413.443	210.26
413.651	220.5
413.86	238.93
414.068	214.35
414.276	212.31
414.485	290.13
414.693	271.7
414.901	277.84
415.11	279.89
415.318	320.85
415.526	329.04
415.734	363.86
415.943	335.18
416.151	388.43
416.359	378.19
416.567	345.42
416.776	431.44
416.984	384.34
417.192	474.45
417.4	472.4
417.608	429.39
417.817	482.64
418.025	427.34
418.233	558.41
418.441	476.49
418.649	558.41
418.857	511.31
419.065	599.37
419.273	546.13
419.481	613.71
419.689	640.33
419.897	681.29
420.105	685.39
420.313	679.24
420.521	709.96
420.729	671.05
420.937	730.44
421.145	744.78
421.353	783.69
421.561	820.55
421.769	714.06
421.977	892.23
422.185	879.94
422.393	1004.87
422.601	976.2
422.809	929.1
423.017	961.86
423.224	918.86
423.432	1097.03
423.64	1023.3
423.848	1166.66
424.056	1115.46
424.263	1183.04
424.471	1174.85
424.679	1213.76
424.887	1316.16
425.094	1293.63
425.302	1432.9
425.51	1432.9
425.718	1441.09
425.925	1500.48
426.133	1531.2
426.341	1619.26
426.548	1717.56
426.756	1721.66
426.964	1682.75
427.171	1879.35
427.379	1930.55
427.586	1914.17
427.794	1830.2
428.001	1985.85
428.209	2184.5
428.417	2102.58
428.624	2125.11
428.832	2209.08
429.039	2139.44
429.247	2247.99
429.454	2514.22
429.662	2602.29
429.869	2456.88
430.076	2581.81
430.284	2516.27
430.491	2686.25
430.699	2737.45
430.906	2755.88
431.114	2757.93
431.321	2837.8
431.528	2962.73
431.736	3167.53
431.943	3347.75
432.15	3235.11
432.358	3321.12
432.565	3282.21
432.772	3274.02
432.979	3601.69
433.187	3747.1
433.394	3556.64
433.601	3915.03
433.808	3763.48
434.016	3896.6
434.223	3972.38
434.43	4230.42
434.637	4277.52
434.844	4371.73
435.052	4578.58
435.259	4476.18
435.466	4455.7
435.673	4597.01
435.88	4701.45
436.087	5078.28
436.294	4979.98
436.501	4893.96
436.708	4988.17
436.915	5160.2
437.122	5371.14
437.329	5385.48
437.537	5461.25
437.743	5684.48
437.95	5659.9
438.157	5860.6
438.364	6188.28
438.571	6208.76
438.778	6157.56
438.985	6661.36
439.192	6376.69
439.399	6513.91
439.606	6464.75
439.813	6724.85
440.02	7152.87
440.227	7120.1
440.433	7070.95
440.64	7232.74
440.847	7292.13
441.054	7480.55
441.261	7931.1
441.467	7890.14
441.674	7806.17
441.881	8307.93
442.088	8209.62
442.294	8092.89
442.501	8338.65
442.708	8406.23
442.914	8848.59
443.121	9221.32
443.328	9075.91
443.534	9487.56
443.741	9454.79
443.948	9399.49
444.154	9784.51
444.361	9671.87
444.568	9927.87
444.774	9921.73
444.981	9981.12
445.187	10284.22
445.394	10732.72
445.6	10781.87
445.807	11633.83
446.013	11044.01
446.22	11326.63
446.426	11877.54
446.633	11830.43
446.839	12250.27
447.046	11861.15
447.252	12362.9
447.459	12780.69
447.665	12627.09
447.871	12702.87
448.078	13249.68
448.284	12897.42
448.491	13120.65
448.697	13628.55
448.903	14070.91
449.11	14089.34
449.316	13716.61
449.522	14036.1
449.728	14402.68
449.935	14320.76
450.141	14650.49
450.347	14832.75
450.553	14247.04
450.76	14476.41
450.966	14967.92
451.172	14795.89
451.378	15117.42
451.584	14947.44
451.791	15029.36
451.997	15072.37
452.203	15246.44
452.409	15449.19
452.615	15342.7
452.821	14742.64
453.027	14785.65
453.233	15473.77
453.44	14871.67
453.646	15025.26
453.852	15039.6
454.058	15264.88
454.264	14648.44
454.47	15088.75
454.676	14580.85
454.882	15080.56
455.088	13661.32
455.294	14331
455.5	14230.65
455.705	14281.85
455.911	13837.44
456.117	13741.19
456.323	13309.07
456.529	12663.96
456.735	13343.88
456.941	12633.24
457.147	12516.5
457.352	12246.17
457.558	12201.12
457.764	12143.77
457.97	11760.8
458.176	11660.45
458.381	11953.31
458.587	11150.51
458.793	10923.18
458.999	10482.87
459.204	11269.29
459.41	10886.32
459.616	10093.76
459.821	10292.41
460.027	10140.86
460.233	9956.54
460.438	9510.08
460.644	9485.51
460.85	9092.3
461.055	8875.21
461.261	9049.29
461.466	8338.65
461.672	8209.62
461.878	8625.36
462.083	8158.42
462.289	8025.31
462.494	7824.61
462.7	7634.14
462.905	7398.63
463.111	7673.06
463.316	7720.16
463.522	7419.11
463.727	7687.39
463.932	7263.46
464.138	7308.52
464.343	7269.61
464.549	6976.75
464.754	7570.66
464.959	7300.33
465.165	7431.4
465.37	6999.27
465.575	6792.43
465.781	7173.35
465.986	7300.33
466.191	7038.19
466.397	6591.73
466.602	6503.67
466.807	6733.04
467.012	6614.26
467.218	6647.02
467.423	6735.09
467.628	6620.4
467.833	6800.62
468.038	6638.83
468.244	6581.49
468.449	6747.37
468.654	6442.23
468.859	6454.51
469.064	6460.66
469.269	6208.76
469.474	6282.49
469.679	6370.55
469.885	6182.14
470.09	6245.62
