Data from USB4F104151__199__13-59-41-326.txt Node

Date: Thu Mar 13 13:59:41 EDT 2025
User: louis
Spectrometer: USB4F10415
Trigger mode: 4
Integration Time (sec): 1.000000E-2
Scans to average: 1
Electric dark correction enabled: true
Nonlinearity correction enabled: false
Boxcar width: 0
XAxis mode: Wavelengths
Number of Pixels in Spectrum: 3648
>>>>>Begin Spectral Data<<<<<
178.204	-11.43
178.424	-11.43
178.644	-11.43
178.864	7
179.084	-7.34
179.304	-5.29
179.524	-25.77
179.744	-17.58
179.964	-17.58
180.184	45.91
180.404	-29.87
180.624	-70.83
180.844	9.05
181.064	-9.39
181.283	11.09
181.503	64.34
181.723	45.91
181.943	0.85
182.163	62.29
182.383	29.52
182.602	-7.34
182.822	23.38
183.042	19.29
183.262	9.05
183.482	35.67
183.701	-46.25
183.921	-11.43
184.141	9.05
184.361	33.62
184.58	64.34
184.8	-13.48
185.02	-66.73
185.239	31.57
185.459	23.38
185.679	64.34
185.898	19.29
186.118	88.92
186.338	23.38
186.557	33.62
186.777	52.05
186.997	-33.96
187.216	-25.77
187.436	35.67
187.655	-29.87
187.875	90.96
188.095	-25.77
188.314	7
188.534	54.1
188.753	45.91
188.973	-5.29
189.192	56.15
189.412	47.96
189.631	2.9
189.851	60.24
190.07	56.15
190.29	-29.87
190.509	31.57
190.729	-7.34
190.948	72.53
191.168	45.91
191.387	-7.34
191.607	41.81
191.826	66.39
192.045	47.96
192.265	15.19
192.484	60.24
192.704	64.34
192.923	15.19
193.142	25.43
193.362	-5.29
193.581	103.25
193.8	15.19
194.02	39.76
194.239	7
194.458	43.86
194.678	-17.58
194.897	31.57
195.116	27.48
195.335	-46.25
195.555	47.96
195.774	-29.87
195.993	47.96
196.212	-15.53
196.432	7
196.651	-19.63
196.87	54.1
197.089	66.39
197.308	21.33
197.528	41.81
197.747	45.91
197.966	50
198.185	54.1
198.404	2.9
198.623	50
198.842	95.06
199.062	31.57
199.281	-15.53
199.5	-5.29
199.719	66.39
199.938	41.81
200.157	72.53
200.376	21.33
200.595	43.86
200.814	54.1
201.033	41.81
201.252	74.58
201.471	11.09
201.69	50
201.909	23.38
202.128	0.85
202.347	43.86
202.566	2.9
202.785	47.96
203.004	-21.67
203.223	25.43
203.442	105.3
203.661	-13.48
203.879	15.19
204.098	-70.83
204.317	58.2
204.536	103.25
204.755	37.72
204.974	-23.72
205.193	15.19
205.411	66.39
205.63	43.86
205.849	39.76
206.068	80.72
206.287	74.58
206.505	-3.24
206.724	9.05
206.943	131.92
207.162	72.53
207.381	-1.19
207.599	43.86
207.818	-40.11
208.037	54.1
208.255	19.29
208.474	19.29
208.693	105.3
208.911	17.24
209.13	43.86
209.349	7
209.567	58.2
209.786	62.29
210.005	37.72
210.223	64.34
210.442	-11.43
210.661	4.95
210.879	95.06
211.098	-27.82
211.316	31.57
211.535	0.85
211.753	43.86
211.972	60.24
212.191	-27.82
212.409	13.14
212.628	56.15
212.846	19.29
213.065	0.85
213.283	88.92
213.502	33.62
213.72	56.15
213.938	76.63
214.157	11.09
214.375	58.2
214.594	17.24
214.812	56.15
215.031	52.05
215.249	82.77
215.467	72.53
215.686	50
215.904	58.2
216.122	43.86
216.341	54.1
216.559	-9.39
216.778	0.85
216.996	-5.29
217.214	80.72
217.432	82.77
217.651	90.96
217.869	15.19
218.087	74.58
218.306	-9.39
218.524	47.96
218.742	45.91
218.96	0.85
219.179	-29.87
219.397	29.52
219.615	39.76
219.833	23.38
220.051	43.86
220.27	-29.87
220.488	68.44
220.706	47.96
220.924	90.96
221.142	74.58
221.36	-40.11
221.578	27.48
221.796	9.05
222.015	31.57
222.233	23.38
222.451	101.2
222.669	25.43
222.887	99.16
223.105	35.67
223.323	97.11
223.541	-9.39
223.759	15.19
223.977	54.1
224.195	25.43
224.413	86.87
224.631	115.54
224.849	-19.63
225.067	103.25
225.285	78.68
225.503	15.19
225.721	0.85
225.939	-44.2
226.157	64.34
226.375	74.58
226.592	-38.06
226.81	31.57
227.028	97.11
227.246	66.39
227.464	27.48
227.682	-1.19
227.9	97.11
228.117	23.38
228.335	19.29
228.553	86.87
228.771	138.07
228.989	74.58
229.206	29.52
229.424	78.68
229.642	-5.29
229.86	-7.34
230.077	47.96
230.295	33.62
230.513	60.24
230.731	70.48
230.948	-1.19
231.166	60.24
231.384	-5.29
231.601	50
231.819	43.86
232.037	39.76
232.254	52.05
232.472	39.76
232.689	2.9
232.907	86.87
233.125	23.38
233.342	66.39
233.56	60.24
233.777	58.2
233.995	68.44
234.213	68.44
234.43	64.34
234.648	9.05
234.865	27.48
235.083	56.15
235.3	68.44
235.518	107.35
235.735	68.44
235.953	66.39
236.17	2.9
236.388	17.24
236.605	-33.96
236.822	119.64
237.04	103.25
237.257	105.3
237.475	-9.39
237.692	78.68
237.909	66.39
238.127	-5.29
238.344	45.91
238.562	127.83
238.779	72.53
238.996	66.39
239.214	25.43
239.431	80.72
239.648	84.82
239.865	88.92
240.083	64.34
240.3	62.29
240.517	45.91
240.735	72.53
240.952	60.24
241.169	41.81
241.386	74.58
241.603	-21.67
241.821	68.44
242.038	47.96
242.255	70.48
242.472	62.29
242.689	15.19
242.907	146.26
243.124	33.62
243.341	37.72
243.558	23.38
243.775	25.43
243.992	-11.43
244.209	56.15
244.426	76.63
244.643	45.91
244.86	-7.34
245.078	76.63
245.295	-31.91
245.512	27.48
245.729	2.9
245.946	47.96
246.163	43.86
246.38	-29.87
246.597	74.58
246.814	66.39
247.031	-1.19
247.248	60.24
247.464	70.48
247.681	23.38
247.898	56.15
248.115	99.16
248.332	-5.29
248.549	93.01
248.766	64.34
248.983	43.86
249.2	27.48
249.417	88.92
249.633	70.48
249.85	64.34
250.067	80.72
250.284	47.96
250.501	35.67
250.717	129.88
250.934	-1.19
251.151	52.05
251.368	43.86
251.585	68.44
251.801	31.57
252.018	9.05
252.235	64.34
252.451	39.76
252.668	9.05
252.885	82.77
253.102	27.48
253.318	107.35
253.535	74.58
253.752	9.05
253.968	76.63
254.185	82.77
254.401	47.96
254.618	90.96
254.835	41.81
255.051	111.44
255.268	74.58
255.484	47.96
255.701	35.67
255.917	41.81
256.134	15.19
256.351	47.96
256.567	68.44
256.784	35.67
257	45.91
257.217	105.3
257.433	64.34
257.65	4.95
257.866	119.64
258.082	21.33
258.299	35.67
258.515	31.57
258.732	66.39
258.948	58.2
259.165	19.29
259.381	23.38
259.597	19.29
259.814	64.34
260.03	47.96
260.246	50
260.463	74.58
260.679	60.24
260.895	60.24
261.112	27.48
261.328	7
261.544	31.57
261.761	54.1
261.977	72.53
262.193	-56.49
262.409	27.48
262.626	70.48
262.842	37.72
263.058	64.34
263.274	25.43
263.49	105.3
263.707	80.72
263.923	45.91
264.139	21.33
264.355	27.48
264.571	-27.82
264.787	58.2
265.004	82.77
265.22	39.76
265.436	-17.58
265.652	82.77
265.868	41.81
266.084	29.52
266.3	-1.19
266.516	19.29
266.732	76.63
266.948	64.34
267.164	58.2
267.38	33.62
267.596	80.72
267.812	105.3
268.028	-13.48
268.244	84.82
268.46	52.05
268.676	107.35
268.892	52.05
269.108	58.2
269.324	17.24
269.54	23.38
269.756	80.72
269.972	9.05
270.188	117.59
270.403	99.16
270.619	-9.39
270.835	80.72
271.051	4.95
271.267	25.43
271.483	76.63
271.698	-66.73
271.914	45.91
272.13	47.96
272.346	47.96
272.562	72.53
272.777	62.29
272.993	68.44
273.209	66.39
273.425	37.72
273.64	138.07
273.856	-27.82
274.072	105.3
274.287	-5.29
274.503	50
274.719	9.05
274.934	39.76
275.15	-9.39
275.366	58.2
275.581	50
275.797	-40.11
276.012	4.95
276.228	101.2
276.444	43.86
276.659	82.77
276.875	64.34
277.09	103.25
277.306	11.09
277.521	17.24
277.737	31.57
277.952	90.96
278.168	78.68
278.383	17.24
278.599	105.3
278.814	84.82
279.03	66.39
279.245	117.59
279.461	60.24
279.676	74.58
279.892	2.9
280.107	80.72
280.322	68.44
280.538	35.67
280.753	68.44
280.969	7
281.184	76.63
281.399	35.67
281.615	27.48
281.83	82.77
282.045	88.92
282.26	47.96
282.476	29.52
282.691	105.3
282.906	-27.82
283.122	15.19
283.337	21.33
283.552	2.9
283.767	88.92
283.983	-56.49
284.198	52.05
284.413	39.76
284.628	113.49
284.843	15.19
285.058	11.09
285.274	33.62
285.489	-15.53
285.704	70.48
285.919	33.62
286.134	33.62
286.349	41.81
286.564	23.38
286.779	4.95
286.995	82.77
287.21	25.43
287.425	47.96
287.64	27.48
287.855	72.53
288.07	25.43
288.285	7
288.5	50
288.715	84.82
288.93	76.63
289.145	76.63
289.36	25.43
289.575	35.67
289.79	54.1
290.004	2.9
290.219	133.97
290.434	-3.24
290.649	29.52
290.864	45.91
291.079	23.38
291.294	35.67
291.509	72.53
291.724	19.29
291.938	50
292.153	56.15
292.368	37.72
292.583	31.57
292.798	-3.24
293.012	84.82
293.227	74.58
293.442	54.1
293.657	27.48
293.871	80.72
294.086	21.33
294.301	19.29
294.516	86.87
294.73	27.48
294.945	45.91
295.16	27.48
295.374	80.72
295.589	-3.24
295.804	39.76
296.018	47.96
296.233	47.96
296.447	187.22
296.662	93.01
296.877	84.82
297.091	52.05
297.306	72.53
297.52	43.86
297.735	56.15
297.949	58.2
298.164	50
298.378	17.24
298.593	-7.34
298.807	95.06
299.022	33.62
299.236	123.73
299.451	64.34
299.665	15.19
299.88	43.86
300.094	21.33
300.309	66.39
300.523	86.87
300.737	39.76
300.952	86.87
301.166	52.05
301.381	60.24
301.595	31.57
301.809	13.14
302.024	-38.06
302.238	86.87
302.452	29.52
302.667	39.76
302.881	82.77
303.095	76.63
303.309	15.19
303.524	41.81
303.738	39.76
303.952	80.72
304.166	31.57
304.381	31.57
304.595	76.63
304.809	88.92
305.023	19.29
305.237	39.76
305.452	17.24
305.666	66.39
305.88	80.72
306.094	68.44
306.308	52.05
306.522	93.01
306.736	15.19
306.95	17.24
307.164	80.72
307.379	39.76
307.593	64.34
307.807	70.48
308.021	58.2
308.235	43.86
308.449	84.82
308.663	76.63
308.877	52.05
309.091	74.58
309.305	66.39
309.519	25.43
309.733	66.39
309.947	23.38
310.161	97.11
310.374	58.2
310.588	90.96
310.802	41.81
311.016	103.25
311.23	84.82
311.444	76.63
311.658	-7.34
311.872	50
312.085	47.96
312.299	64.34
312.513	25.43
312.727	39.76
312.941	47.96
313.154	33.62
313.368	97.11
313.582	52.05
313.796	47.96
314.009	50
314.223	119.64
314.437	47.96
314.651	103.25
314.864	74.58
315.078	-9.39
315.292	72.53
315.505	90.96
315.719	62.29
315.933	50
316.146	54.1
316.36	90.96
316.573	115.54
316.787	60.24
317.001	25.43
317.214	9.05
317.428	39.76
317.641	66.39
317.855	80.72
318.068	7
318.282	54.1
318.495	43.86
318.709	119.64
318.922	23.38
319.136	113.49
319.349	66.39
319.563	39.76
319.776	19.29
319.99	107.35
320.203	78.68
320.417	54.1
320.63	45.91
320.843	-17.58
321.057	39.76
321.27	90.96
321.483	31.57
321.697	31.57
321.91	-11.43
322.124	113.49
322.337	29.52
322.55	7
322.763	4.95
322.977	19.29
323.19	7
323.403	76.63
323.617	17.24
323.83	113.49
324.043	56.15
324.256	41.81
324.469	70.48
324.683	76.63
324.896	78.68
325.109	31.57
325.322	39.76
325.535	27.48
325.748	68.44
325.962	37.72
326.175	99.16
326.388	136.02
326.601	113.49
326.814	97.11
327.027	23.38
327.24	84.82
327.453	50
327.666	76.63
327.879	80.72
328.092	80.72
328.305	47.96
328.518	154.45
328.731	23.38
328.944	45.91
329.157	15.19
329.37	31.57
329.583	54.1
329.796	93.01
330.009	23.38
330.222	113.49
330.435	66.39
330.648	52.05
330.861	41.81
331.073	74.58
331.286	86.87
331.499	76.63
331.712	15.19
331.925	86.87
332.138	15.19
332.35	80.72
332.563	64.34
332.776	64.34
332.989	103.25
333.202	88.92
333.414	-25.77
333.627	23.38
333.84	25.43
334.053	70.48
334.265	111.44
334.478	50
334.691	9.05
334.903	113.49
335.116	39.76
335.329	47.96
335.541	86.87
335.754	52.05
335.966	86.87
336.179	107.35
336.392	56.15
336.604	72.53
336.817	2.9
337.029	39.76
337.242	64.34
337.454	47.96
337.667	119.64
337.88	101.2
338.092	39.76
338.305	72.53
338.517	60.24
338.729	39.76
338.942	95.06
339.154	58.2
339.367	54.1
339.579	97.11
339.792	0.85
340.004	43.86
340.217	82.77
340.429	68.44
340.641	47.96
340.854	0.85
341.066	146.26
341.278	154.45
341.491	35.67
341.703	90.96
341.915	35.67
342.128	52.05
342.34	33.62
342.552	76.63
342.764	93.01
342.977	72.53
343.189	60.24
343.401	33.62
343.613	68.44
343.826	185.17
344.038	29.52
344.25	60.24
344.462	111.44
344.674	74.58
344.886	35.67
345.099	0.85
345.311	25.43
345.523	97.11
345.735	41.81
345.947	56.15
346.159	9.05
346.371	105.3
346.583	15.19
346.795	60.24
347.007	86.87
347.219	33.62
347.431	70.48
347.643	72.53
347.855	97.11
348.067	52.05
348.279	95.06
348.491	127.83
348.703	23.38
348.915	80.72
349.127	121.68
349.339	60.24
349.551	27.48
349.763	82.77
349.975	142.16
350.187	39.76
350.399	-29.87
350.61	15.19
350.822	56.15
351.034	84.82
351.246	95.06
351.458	76.63
351.669	50
351.881	88.92
352.093	58.2
352.305	66.39
352.517	76.63
352.728	13.14
352.94	15.19
353.152	58.2
353.363	74.58
353.575	101.2
353.787	90.96
353.999	68.44
354.21	50
354.422	19.29
354.633	47.96
354.845	131.92
355.057	64.34
355.268	82.77
355.48	70.48
355.692	99.16
355.903	43.86
356.115	60.24
356.326	68.44
356.538	45.91
356.749	33.62
356.961	133.97
357.172	80.72
357.384	56.15
357.595	68.44
357.807	88.92
358.018	113.49
358.23	62.29
358.441	13.14
358.653	58.2
358.864	66.39
359.075	47.96
359.287	47.96
359.498	86.87
359.709	84.82
359.921	41.81
360.132	123.73
360.344	54.1
360.555	119.64
360.766	74.58
360.977	123.73
361.189	111.44
361.4	84.82
361.611	23.38
361.823	31.57
362.034	174.93
362.245	76.63
362.456	66.39
362.667	109.4
362.879	136.02
363.09	35.67
363.301	82.77
363.512	56.15
363.723	-7.34
363.935	33.62
364.146	58.2
364.357	123.73
364.568	70.48
364.779	97.11
364.99	56.15
365.201	52.05
365.412	-9.39
365.623	39.76
365.834	70.48
366.045	160.59
366.256	82.77
366.467	125.78
366.678	86.87
366.889	64.34
367.1	52.05
367.311	7
367.522	-29.87
367.733	70.48
367.944	58.2
368.155	54.1
368.366	107.35
368.577	64.34
368.788	131.92
368.999	58.2
369.209	146.26
369.42	23.38
369.631	99.16
369.842	70.48
370.053	68.44
370.264	62.29
370.474	50
370.685	78.68
370.896	105.3
371.107	99.16
371.317	76.63
371.528	68.44
371.739	113.49
371.95	76.63
372.16	13.14
372.371	70.48
372.582	138.07
372.792	93.01
373.003	41.81
373.214	138.07
373.424	68.44
373.635	-11.43
373.846	60.24
374.056	-3.24
374.267	127.83
374.477	62.29
374.688	64.34
374.898	15.19
375.109	0.85
375.319	93.01
375.53	33.62
375.74	78.68
375.951	76.63
376.161	64.34
376.372	88.92
376.582	60.24
376.793	119.64
377.003	19.29
377.214	47.96
377.424	86.87
377.635	123.73
377.845	93.01
378.055	23.38
378.266	39.76
378.476	111.44
378.686	86.87
378.897	80.72
379.107	17.24
379.317	7
379.528	90.96
379.738	90.96
379.948	72.53
380.158	111.44
380.369	90.96
380.579	25.43
380.789	68.44
380.999	80.72
381.21	90.96
381.42	97.11
381.63	35.67
381.84	86.87
382.05	181.07
382.261	107.35
382.471	80.72
382.681	50
382.891	88.92
383.101	60.24
383.311	21.33
383.521	113.49
383.731	88.92
383.941	84.82
384.151	50
384.361	64.34
384.571	195.41
384.781	107.35
384.991	58.2
385.201	121.68
385.411	19.29
385.621	99.16
385.831	64.34
386.041	39.76
386.251	105.3
386.461	74.58
386.671	-17.58
386.881	158.55
387.091	74.58
387.301	78.68
387.511	74.58
387.72	90.96
387.93	115.54
388.14	105.3
388.35	-11.43
388.56	148.31
388.769	138.07
388.979	58.2
389.189	39.76
389.399	64.34
389.609	86.87
389.818	142.16
390.028	107.35
390.238	54.1
390.447	111.44
390.657	117.59
390.867	146.26
391.076	113.49
391.286	58.2
391.496	41.81
391.705	133.97
391.915	129.88
392.125	68.44
392.334	123.73
392.544	113.49
392.753	37.72
392.963	62.29
393.172	152.4
393.382	58.2
393.591	88.92
393.801	64.34
394.01	80.72
394.22	99.16
394.429	166.74
394.639	129.88
394.848	62.29
395.058	107.35
395.267	70.48
395.477	41.81
395.686	88.92
395.895	129.88
396.105	158.55
396.314	150.36
396.524	129.88
396.733	197.46
396.942	168.79
397.152	160.59
397.361	66.39
397.57	101.2
397.78	162.64
397.989	125.78
398.198	129.88
398.407	101.2
398.617	152.4
398.826	166.74
399.035	146.26
399.244	146.26
399.453	109.4
399.663	215.89
399.872	172.88
400.081	146.26
400.29	136.02
400.499	78.68
400.708	148.31
400.917	187.22
401.127	154.45
401.336	80.72
401.545	158.55
401.754	115.54
401.963	52.05
402.172	80.72
402.381	131.92
402.59	119.64
402.799	179.03
403.008	189.27
403.217	203.6
403.426	199.51
403.635	123.73
403.844	136.02
404.053	172.88
404.262	172.88
404.471	211.79
404.68	148.31
404.888	240.47
405.097	195.41
405.306	260.95
405.515	172.88
405.724	168.79
405.933	222.03
406.142	199.51
406.35	199.51
406.559	213.84
406.768	199.51
406.977	297.81
407.185	287.57
407.394	238.42
407.603	269.14
407.812	297.81
408.02	279.38
408.229	289.62
408.438	283.47
408.646	277.33
408.855	308.05
409.064	367.44
409.272	318.29
409.481	338.77
409.69	353.1
409.898	346.96
410.107	402.26
410.315	443.21
410.524	375.63
410.733	367.44
410.941	484.17
411.15	406.35
411.358	432.97
411.567	473.93
411.775	482.13
411.984	461.65
412.192	523.09
412.401	510.8
412.609	541.52
412.818	564.04
413.026	557.9
413.234	539.47
413.443	629.58
413.651	660.3
413.86	697.16
414.068	723.79
414.276	750.41
414.485	723.79
414.693	826.18
414.901	820.04
415.11	820.04
415.318	807.75
415.526	897.86
415.734	834.38
415.943	850.76
416.151	934.73
416.359	998.21
416.567	953.16
416.776	1135.43
416.984	1196.87
417.192	1190.72
417.4	1239.87
417.608	1112.9
417.817	1243.97
418.025	1221.44
418.233	1344.32
418.441	1372.99
418.649	1375.04
418.857	1514.3
419.065	1540.93
419.273	1418.05
419.481	1553.21
419.689	1512.25
419.897	1710.91
420.105	1788.73
420.313	1739.58
420.521	1846.07
420.729	1911.61
420.937	1850.17
421.145	2032.44
421.353	2106.17
421.561	2222.9
421.769	2302.77
421.977	2308.91
422.185	2374.45
422.393	2409.26
422.601	2745.13
422.809	2571.05
423.017	2665.26
423.224	2736.94
423.432	2820.91
423.64	2833.19
423.848	3126.05
424.056	2982.7
424.263	3212.07
424.471	3177.25
424.679	3300.13
424.887	3640.09
425.094	3470.11
425.302	3711.77
425.51	3689.25
425.718	3781.4
425.925	3820.32
426.133	4025.11
426.341	4289.3
426.548	4455.19
426.756	4561.68
426.964	4481.81
427.171	4766.48
427.379	4786.96
427.586	5073.67
427.794	5186.31
428.001	5278.47
428.209	5438.21
428.417	5409.54
428.624	5913.34
428.832	5870.33
429.039	5954.3
429.247	5907.2
429.454	6527.73
429.662	6707.95
429.869	6511.35
430.076	6947.56
430.284	6492.91
430.491	6820.59
430.699	7289.57
430.906	7346.92
431.114	7310.05
431.321	7553.76
431.528	7715.55
431.736	8331.99
431.943	8624.85
432.15	8252.12
432.358	8669.91
432.565	9024.2
432.772	8858.32
432.979	9214.66
433.187	9544.39
433.394	9556.68
433.601	10326.71
433.808	10207.93
434.016	10283.7
434.223	10511.03
434.43	11276.97
434.637	11131.56
434.844	11686.56
435.052	12061.34
435.259	11797.15
435.466	12010.14
435.673	11944.61
435.88	12737.17
436.087	13363.85
436.294	13089.42
436.501	12800.66
436.708	13353.61
436.915	13527.69
437.122	14353.02
437.329	14307.96
437.537	14748.28
437.743	14953.07
437.95	14834.29
438.157	15473.26
438.364	16218.72
438.571	16071.26
438.778	16212.57
438.985	17678.92
439.192	17222.22
439.399	17539.66
439.606	17048.15
439.813	18205.25
440.02	19554.86
440.227	18815.54
440.433	18543.16
440.64	19329.58
440.847	19419.69
441.054	19522.09
441.261	21092.88
441.467	20781.59
441.674	21428.75
441.881	21903.88
442.088	22034.95
442.294	21895.69
442.501	22149.64
442.708	22669.82
442.914	23560.69
443.121	24576.48
443.328	23876.07
443.534	25823.69
443.741	24664.54
443.948	24664.54
444.154	26444.23
444.361	26278.34
444.568	26200.52
444.774	26407.36
444.981	26851.77
445.187	27351.48
445.394	28477.86
445.6	28092.84
445.807	30775.68
446.013	29331.86
446.22	29968.78
446.426	31166.84
446.633	31275.38
446.839	32346.47
447.046	31220.09
447.252	32868.7
447.459	33198.43
447.665	32856.42
447.871	34679.11
448.078	35549.49
448.284	34089.29
448.491	35258.68
448.697	36684.07
448.903	36909.35
449.11	37304.6
449.316	36630.82
449.522	37112.1
449.728	37773.59
449.935	38623.5
450.141	38711.56
450.347	39483.64
450.553	38156.56
450.76	38500.62
450.966	39805.17
451.172	39440.64
451.378	40294.64
451.584	39371
451.791	40745.19
451.997	40339.69
452.203	41083.11
452.409	40923.36
452.615	41597.15
452.821	39473.4
453.027	39278.85
453.233	41015.52
453.44	39776.5
453.646	39962.87
453.852	39846.13
454.058	40993
454.264	39428.35
454.47	40257.78
454.676	39342.33
454.882	40812.77
455.088	37194.01
455.294	37970.19
455.5	38344.97
455.705	38621.45
455.911	37253.4
456.117	36581.67
456.323	36045.1
456.529	33974.61
456.735	35666.23
456.941	34455.88
457.147	34492.74
457.352	33313.11
457.558	32969.05
457.764	33032.54
457.97	32151.91
458.176	31705.46
458.381	31891.82
458.587	30247.3
458.793	30017.93
458.999	28653.98
459.204	30531.97
459.41	29798.8
459.616	27959.72
459.821	27873.71
460.027	27806.13
460.233	26892.73
460.438	26051.02
460.644	26304.96
460.85	25043.42
461.055	24541.66
461.261	24664.54
461.466	22704.63
461.672	22073.86
461.878	23951.85
462.083	22278.66
462.289	21674.51
462.494	21336.59
462.7	20734.49
462.905	20156.96
463.111	20853.27
463.316	20695.58
463.522	20476.44
463.727	20632.09
463.932	20384.29
464.138	20404.77
464.343	20314.66
464.549	19800.62
464.754	20472.35
464.959	19954.21
465.165	19984.93
465.37	19202.61
465.575	18686.52
465.781	19362.35
465.986	19296.81
466.191	18674.23
466.397	18297.41
466.602	17408.59
466.807	18108.99
467.012	18217.54
467.218	18176.58
467.423	17926.72
467.628	18145.86
467.833	19020.34
468.038	18324.03
468.244	17709.64
