Data from USB4F104151__123__13-57-53-338.txt Node

Date: Thu Mar 13 13:57:53 EDT 2025
User: louis
Spectrometer: USB4F10415
Trigger mode: 4
Integration Time (sec): 1.000000E-2
Scans to average: 1
Electric dark correction enabled: true
Nonlinearity correction enabled: false
Boxcar width: 0
XAxis mode: Wavelengths
Number of Pixels in Spectrum: 3648
>>>>>Begin Spectral Data<<<<<
178.204	-44.2
178.424	-44.2
178.644	-44.2
178.864	-60.59
179.084	-83.11
179.304	-62.63
179.524	47.96
179.744	17.24
179.964	-7.34
180.184	4.95
180.404	72.53
180.624	-58.54
180.844	-7.34
181.064	-15.53
181.283	54.1
181.503	-1.19
181.723	-44.2
181.943	-11.43
182.163	-33.96
182.383	7
182.602	4.95
182.822	-19.63
183.042	19.29
183.262	13.14
183.482	-9.39
183.701	0.85
183.921	17.24
184.141	-50.35
184.361	-44.2
184.58	64.34
184.8	-25.77
185.02	-36.01
185.239	19.29
185.459	-60.59
185.679	-48.3
185.898	-48.3
186.118	11.09
186.338	-9.39
186.557	15.19
186.777	-7.34
186.997	-27.82
187.216	-56.49
187.436	37.72
187.655	-50.35
187.875	60.24
188.095	-1.19
188.314	41.81
188.534	-7.34
188.753	60.24
188.973	-17.58
189.192	25.43
189.412	-11.43
189.631	-29.87
189.851	0.85
190.07	-19.63
190.29	-15.53
190.509	-44.2
190.729	-46.25
190.948	41.81
191.168	11.09
191.387	-38.06
191.607	-72.87
191.826	-42.15
192.045	15.19
192.265	-62.63
192.484	-36.01
192.704	-64.68
192.923	-44.2
193.142	56.15
193.362	-40.11
193.581	0.85
193.8	-50.35
194.02	-1.19
194.239	-40.11
194.458	-60.59
194.678	33.62
194.897	35.67
195.116	-23.72
195.335	-25.77
195.555	-83.11
195.774	11.09
195.993	-29.87
196.212	-11.43
196.432	-109.74
196.651	37.72
196.87	-70.83
197.089	39.76
197.308	2.9
197.528	-52.39
197.747	-38.06
197.966	-13.48
198.185	27.48
198.404	-13.48
198.623	-27.82
198.842	72.53
199.062	15.19
199.281	-33.96
199.5	-58.54
199.719	-11.43
199.938	4.95
200.157	33.62
200.376	52.05
200.595	-21.67
200.814	25.43
201.033	33.62
201.252	-23.72
201.471	-27.82
201.69	-36.01
201.909	-52.39
202.128	47.96
202.347	2.9
202.566	47.96
202.785	-11.43
203.004	35.67
203.223	45.91
203.442	21.33
203.661	2.9
203.879	-9.39
204.098	74.58
204.317	-62.63
204.536	80.72
204.755	33.62
204.974	13.14
205.193	-74.92
205.411	0.85
205.63	-15.53
205.849	29.52
206.068	35.67
206.287	11.09
206.505	25.43
206.724	17.24
206.943	23.38
207.162	-62.63
207.381	25.43
207.599	13.14
207.818	23.38
208.037	2.9
208.255	-68.78
208.474	-19.63
208.693	-5.29
208.911	29.52
209.13	2.9
209.349	-9.39
209.567	-21.67
209.786	-48.3
210.005	-54.44
210.223	-21.67
210.442	97.11
210.661	9.05
210.879	2.9
211.098	15.19
211.316	33.62
211.535	37.72
211.753	-19.63
211.972	-23.72
212.191	29.52
212.409	17.24
212.628	-31.91
212.846	-9.39
213.065	-7.34
213.283	25.43
213.502	-46.25
213.72	41.81
213.938	17.24
214.157	-11.43
214.375	7
214.594	31.57
214.812	-7.34
215.031	25.43
215.249	-44.2
215.467	54.1
215.686	25.43
215.904	45.91
216.122	7
216.341	33.62
216.559	-50.35
216.778	9.05
216.996	-3.24
217.214	-23.72
217.432	-38.06
217.651	-31.91
217.869	11.09
218.087	17.24
218.306	7
218.524	23.38
218.742	-3.24
218.96	23.38
219.179	-23.72
219.397	-3.24
219.615	-13.48
219.833	27.48
220.051	19.29
220.27	64.34
220.488	45.91
220.706	-11.43
220.924	23.38
221.142	-9.39
221.36	-70.83
221.578	-13.48
221.796	4.95
222.015	4.95
222.233	39.76
222.451	84.82
222.669	-1.19
222.887	33.62
223.105	-42.15
223.323	-3.24
223.541	-48.3
223.759	-11.43
223.977	4.95
224.195	52.05
224.413	7
224.631	-25.77
224.849	-44.2
225.067	31.57
225.285	15.19
225.503	45.91
225.721	29.52
225.939	31.57
226.157	72.53
226.375	70.48
226.592	-52.39
226.81	9.05
227.028	15.19
227.246	-27.82
227.464	-89.26
227.682	-54.44
227.9	-3.24
228.117	23.38
228.335	-5.29
228.553	-27.82
228.771	101.2
228.989	-81.07
229.206	23.38
229.424	27.48
229.642	4.95
229.86	-36.01
230.077	25.43
230.295	-23.72
230.513	23.38
230.731	15.19
230.948	56.15
231.166	-5.29
231.384	-17.58
231.601	-64.68
231.819	11.09
232.037	-81.07
232.254	-58.54
232.472	21.33
232.689	54.1
232.907	43.86
233.125	11.09
233.342	-19.63
233.56	-46.25
233.777	31.57
233.995	-13.48
234.213	-58.54
234.43	-89.26
234.648	-83.11
234.865	-7.34
235.083	-33.96
235.3	-7.34
235.518	9.05
235.735	-38.06
235.953	99.16
236.17	-3.24
236.388	-3.24
236.605	0.85
236.822	-36.01
237.04	31.57
237.257	4.95
237.475	-17.58
237.692	72.53
237.909	13.14
238.127	-1.19
238.344	23.38
238.562	45.91
238.779	-25.77
238.996	35.67
239.214	-33.96
239.431	-25.77
239.648	33.62
239.865	-1.19
240.083	9.05
240.3	-1.19
240.517	-19.63
240.735	-36.01
240.952	-83.11
241.169	-19.63
241.386	-99.5
241.603	-29.87
241.821	-19.63
242.038	35.67
242.255	72.53
242.472	-3.24
242.689	-48.3
242.907	37.72
243.124	-15.53
243.341	-27.82
243.558	-62.63
243.775	43.86
243.992	-25.77
244.209	2.9
244.426	11.09
244.643	-3.24
244.86	-25.77
245.078	56.15
245.295	-19.63
245.512	25.43
245.729	-52.39
245.946	-50.35
246.163	-3.24
246.38	-3.24
246.597	-40.11
246.814	-76.97
247.031	39.76
247.248	-36.01
247.464	-44.2
247.681	33.62
247.898	-54.44
248.115	-33.96
248.332	-44.2
248.549	64.34
248.766	4.95
248.983	-23.72
249.2	88.92
249.417	9.05
249.633	-19.63
249.85	-33.96
250.067	-36.01
250.284	-72.87
250.501	29.52
250.717	50
250.934	13.14
251.151	-3.24
251.368	11.09
251.585	19.29
251.801	-23.72
252.018	-25.77
252.235	-1.19
252.451	-17.58
252.668	4.95
252.885	4.95
253.102	7
253.318	-23.72
253.535	-9.39
253.752	19.29
253.968	-17.58
254.185	-19.63
254.401	-42.15
254.618	11.09
254.835	-31.91
255.051	-19.63
255.268	4.95
255.484	17.24
255.701	7
255.917	35.67
256.134	29.52
256.351	-58.54
256.567	25.43
256.784	-19.63
257	-79.02
257.217	-29.87
257.433	17.24
257.65	-15.53
257.866	0.85
258.082	23.38
258.299	-19.63
258.515	41.81
258.732	-52.39
258.948	29.52
259.165	45.91
259.381	7
259.597	-1.19
259.814	105.3
260.03	-25.77
260.246	45.91
260.463	31.57
260.679	99.16
260.895	4.95
261.112	-29.87
261.328	15.19
261.544	29.52
261.761	13.14
261.977	37.72
262.193	-81.07
262.409	21.33
262.626	-38.06
262.842	-64.68
263.058	4.95
263.274	64.34
263.49	35.67
263.707	0.85
263.923	33.62
264.139	-27.82
264.355	23.38
264.571	47.96
264.787	-64.68
265.004	13.14
265.22	17.24
265.436	-21.67
265.652	-5.29
265.868	43.86
266.084	50
266.3	-17.58
266.516	37.72
266.732	4.95
266.948	9.05
267.164	70.48
267.38	31.57
267.596	17.24
267.812	76.63
268.028	7
268.244	-66.73
268.46	-9.39
268.676	0.85
268.892	-1.19
269.108	-29.87
269.324	-76.97
269.54	13.14
269.756	-9.39
269.972	-19.63
270.188	31.57
270.403	-3.24
270.619	17.24
270.835	-23.72
271.051	-21.67
271.267	-27.82
271.483	-62.63
271.698	7
271.914	39.76
272.13	4.95
272.346	84.82
272.562	13.14
272.777	-27.82
272.993	-40.11
273.209	-3.24
273.425	-66.73
273.64	-7.34
273.856	43.86
274.072	4.95
274.287	19.29
274.503	54.1
274.719	11.09
274.934	25.43
275.15	-52.39
275.366	0.85
275.581	-5.29
275.797	-1.19
276.012	64.34
276.228	-3.24
276.444	-11.43
276.659	50
276.875	-40.11
277.09	-1.19
277.306	21.33
277.521	21.33
277.737	-11.43
277.952	-31.91
278.168	23.38
278.383	-31.91
278.599	17.24
278.814	-25.77
279.03	-3.24
279.245	-17.58
279.461	39.76
279.676	-13.48
279.892	-46.25
280.107	101.2
280.322	50
280.538	0.85
280.753	-46.25
280.969	70.48
281.184	56.15
281.399	-3.24
281.615	70.48
281.83	-11.43
282.045	-25.77
282.26	21.33
282.476	-17.58
282.691	33.62
282.906	-31.91
283.122	39.76
283.337	0.85
283.552	-27.82
283.767	-15.53
283.983	-33.96
284.198	-17.58
284.413	-33.96
284.628	-40.11
284.843	9.05
285.058	52.05
285.274	-31.91
285.489	-52.39
285.704	21.33
285.919	-25.77
286.134	-40.11
286.349	-83.11
286.564	-44.2
286.779	-74.92
286.995	-5.29
287.21	2.9
287.425	-5.29
287.64	-85.16
287.855	-44.2
288.07	25.43
288.285	39.76
288.5	56.15
288.715	2.9
288.93	-52.39
289.145	97.11
289.36	-46.25
289.575	17.24
289.79	-11.43
290.004	-25.77
290.219	37.72
290.434	-15.53
290.649	-19.63
290.864	-19.63
291.079	35.67
291.294	-87.21
291.509	33.62
291.724	39.76
291.938	-33.96
292.153	15.19
292.368	-33.96
292.583	50
292.798	11.09
293.012	-36.01
293.227	13.14
293.442	-52.39
293.657	9.05
293.871	74.58
294.086	142.16
294.301	21.33
294.516	9.05
294.73	-3.24
294.945	-7.34
295.16	52.05
295.374	56.15
295.589	-9.39
295.804	2.9
296.018	-9.39
296.233	64.34
296.447	-3.24
296.662	21.33
296.877	-25.77
297.091	19.29
297.306	-29.87
297.52	-91.31
297.735	15.19
297.949	-7.34
298.164	21.33
298.378	29.52
298.593	-23.72
298.807	-103.59
299.022	-62.63
299.236	-29.87
299.451	39.76
299.665	-3.24
299.88	-101.55
300.094	-29.87
300.309	78.68
300.523	33.62
300.737	56.15
300.952	-29.87
301.166	0.85
301.381	43.86
301.595	25.43
301.809	27.48
302.024	-5.29
302.238	-42.15
302.452	-54.44
302.667	66.39
302.881	7
303.095	21.33
303.309	0.85
303.524	-17.58
303.738	-3.24
303.952	0.85
304.166	-3.24
304.381	-93.35
304.595	2.9
304.809	-1.19
305.023	-27.82
305.237	-13.48
305.452	29.52
305.666	9.05
305.88	47.96
306.094	54.1
306.308	-3.24
306.522	27.48
306.736	29.52
306.95	31.57
307.164	17.24
307.379	-19.63
307.593	35.67
307.807	2.9
308.021	45.91
308.235	4.95
308.449	-3.24
308.663	0.85
308.877	-74.92
309.091	37.72
309.305	35.67
309.519	-50.35
309.733	-50.35
309.947	7
310.161	-50.35
310.374	-42.15
310.588	64.34
310.802	23.38
311.016	23.38
311.23	29.52
311.444	-52.39
311.658	-7.34
311.872	47.96
312.085	2.9
312.299	-7.34
312.513	31.57
312.727	11.09
312.941	39.76
313.154	33.62
313.368	-19.63
313.582	37.72
313.796	43.86
314.009	27.48
314.223	-5.29
314.437	21.33
314.651	88.92
314.864	29.52
315.078	0.85
315.292	-60.59
315.505	-9.39
315.719	78.68
315.933	45.91
316.146	-17.58
316.36	-33.96
316.573	37.72
316.787	-5.29
317.001	17.24
317.214	-13.48
317.428	-23.72
317.641	-29.87
317.855	-9.39
318.068	47.96
318.282	86.87
318.495	-17.58
318.709	70.48
318.922	-15.53
319.136	11.09
319.349	7
319.563	-15.53
319.776	-27.82
319.99	-58.54
320.203	0.85
320.417	-1.19
320.63	27.48
320.843	45.91
321.057	-21.67
321.27	-15.53
321.483	21.33
321.697	4.95
321.91	-9.39
322.124	70.48
322.337	4.95
322.55	-81.07
322.763	37.72
322.977	25.43
323.19	-40.11
323.403	60.24
323.617	-58.54
323.83	-5.29
324.043	-15.53
324.256	0.85
324.469	-21.67
324.683	86.87
324.896	-23.72
325.109	13.14
325.322	9.05
325.535	-1.19
325.748	-1.19
325.962	-36.01
326.175	39.76
326.388	17.24
326.601	-42.15
326.814	-36.01
327.027	-68.78
327.24	33.62
327.453	-1.19
327.666	-7.34
327.879	72.53
328.092	7
328.305	25.43
328.518	29.52
328.731	13.14
328.944	-3.24
329.157	35.67
329.37	17.24
329.583	13.14
329.796	101.2
330.009	27.48
330.222	-52.39
330.435	31.57
330.648	-64.68
330.861	-1.19
331.073	58.2
331.286	33.62
331.499	-19.63
331.712	-15.53
331.925	84.82
332.138	62.29
332.35	17.24
332.563	-19.63
332.776	-5.29
332.989	72.53
333.202	23.38
333.414	-58.54
333.627	70.48
333.84	60.24
334.053	7
334.265	-40.11
334.478	86.87
334.691	9.05
334.903	21.33
335.116	7
335.329	13.14
335.541	-66.73
335.754	4.95
335.966	-44.2
336.179	-21.67
336.392	-15.53
336.604	-33.96
336.817	35.67
337.029	52.05
337.242	35.67
337.454	50
337.667	-13.48
337.88	-5.29
338.092	4.95
338.305	35.67
338.517	-48.3
338.729	39.76
338.942	4.95
339.154	-13.48
339.367	-50.35
339.579	103.25
339.792	-25.77
340.004	31.57
340.217	-19.63
340.429	21.33
340.641	37.72
340.854	25.43
341.066	0.85
341.278	23.38
341.491	66.39
341.703	7
341.915	-9.39
342.128	76.63
342.34	-36.01
342.552	-11.43
342.764	11.09
342.977	78.68
343.189	-33.96
343.401	17.24
343.613	-31.91
343.826	52.05
344.038	72.53
344.25	4.95
344.462	17.24
344.674	9.05
344.886	-15.53
345.099	-27.82
345.311	-48.3
345.523	-66.73
345.735	-64.68
345.947	-1.19
346.159	-36.01
346.371	2.9
346.583	64.34
346.795	23.38
347.007	56.15
347.219	33.62
347.431	-1.19
347.643	47.96
347.855	13.14
348.067	50
348.279	-11.43
348.491	4.95
348.703	54.1
348.915	39.76
349.127	-11.43
349.339	35.67
349.551	45.91
349.763	-9.39
349.975	64.34
350.187	70.48
350.399	41.81
350.61	37.72
350.822	-1.19
351.034	4.95
351.246	54.1
351.458	-25.77
351.669	-25.77
351.881	56.15
352.093	-9.39
352.305	82.77
352.517	21.33
352.728	7
352.94	45.91
353.152	4.95
353.363	-48.3
353.575	2.9
353.787	27.48
353.999	15.19
354.21	39.76
354.422	11.09
354.633	-13.48
354.845	-21.67
355.057	-44.2
355.268	25.43
355.48	21.33
355.692	-3.24
355.903	9.05
356.115	58.2
356.326	-7.34
356.538	31.57
356.749	70.48
356.961	-40.11
357.172	-15.53
357.384	2.9
357.595	-19.63
357.807	19.29
358.018	-9.39
358.23	21.33
358.441	-1.19
358.653	19.29
358.864	54.1
359.075	15.19
359.287	-19.63
359.498	-9.39
359.709	33.62
359.921	19.29
360.132	-13.48
360.344	27.48
360.555	7
360.766	21.33
360.977	-21.67
361.189	45.91
361.4	-68.78
361.611	23.38
361.823	41.81
362.034	37.72
362.245	-40.11
362.456	15.19
362.667	-50.35
362.879	-68.78
363.09	13.14
363.301	9.05
363.512	-42.15
363.723	-29.87
363.935	23.38
364.146	66.39
364.357	-5.29
364.568	-7.34
364.779	21.33
364.99	0.85
365.201	27.48
365.412	-7.34
365.623	43.86
365.834	41.81
366.045	43.86
366.256	37.72
366.467	-13.48
366.678	41.81
366.889	-46.25
367.1	25.43
367.311	13.14
367.522	-60.59
367.733	-3.24
367.944	-19.63
368.155	97.11
368.366	60.24
368.577	45.91
368.788	7
368.999	-3.24
369.209	62.29
369.42	-1.19
369.631	66.39
369.842	-46.25
370.053	-15.53
370.264	60.24
370.474	-38.06
370.685	17.24
370.896	11.09
371.107	9.05
371.317	11.09
371.528	37.72
371.739	35.67
371.95	-13.48
372.16	19.29
372.371	4.95
372.582	-25.77
372.792	7
373.003	62.29
373.214	101.2
373.424	-3.24
373.635	39.76
373.846	33.62
374.056	0.85
374.267	45.91
374.477	50
374.688	39.76
374.898	7
375.109	37.72
375.319	66.39
375.53	31.57
375.74	50
375.951	111.44
376.161	45.91
376.372	11.09
376.582	82.77
376.793	-15.53
377.003	-15.53
377.214	25.43
377.424	17.24
377.635	31.57
377.845	4.95
378.055	-7.34
378.266	-21.67
378.476	-27.82
378.686	-66.73
378.897	80.72
379.107	21.33
379.317	2.9
379.528	-62.63
379.738	45.91
379.948	105.3
380.158	29.52
380.369	-15.53
380.579	25.43
380.789	-5.29
380.999	9.05
381.21	29.52
381.42	43.86
381.63	39.76
381.84	41.81
382.05	17.24
382.261	9.05
382.471	56.15
382.681	41.81
382.891	0.85
383.101	76.63
383.311	56.15
383.521	-15.53
383.731	-27.82
383.941	54.1
384.151	54.1
384.361	-13.48
384.571	-74.92
384.781	21.33
384.991	2.9
385.201	43.86
385.411	29.52
385.621	2.9
385.831	-44.2
386.041	-36.01
386.251	0.85
386.461	47.96
386.671	86.87
386.881	15.19
387.091	-5.29
387.301	-11.43
387.511	9.05
387.72	23.38
387.93	45.91
388.14	47.96
388.35	25.43
388.56	-17.58
388.769	23.38
388.979	101.2
389.189	17.24
389.399	58.2
389.609	62.29
389.818	78.68
390.028	13.14
390.238	23.38
390.447	64.34
390.657	45.91
390.867	43.86
391.076	-29.87
391.286	13.14
391.496	41.81
391.705	-58.54
391.915	119.64
392.125	50
392.334	-5.29
392.544	23.38
392.753	47.96
392.963	23.38
393.172	62.29
393.382	58.2
393.591	82.77
393.801	56.15
394.01	31.57
394.22	109.4
394.429	88.92
394.639	23.38
394.848	21.33
395.058	105.3
395.267	9.05
395.477	23.38
395.686	-25.77
395.895	7
396.105	103.25
396.314	82.77
396.524	-38.06
396.733	-7.34
396.942	97.11
397.152	62.29
397.361	50
397.57	27.48
397.78	-3.24
397.989	-1.19
398.198	84.82
398.407	52.05
398.617	41.81
398.826	64.34
399.035	31.57
399.244	62.29
399.453	80.72
399.663	103.25
399.872	158.55
400.081	7
400.29	88.92
400.499	9.05
400.708	78.68
400.917	37.72
401.127	76.63
401.336	-36.01
401.545	146.26
401.754	113.49
401.963	107.35
402.172	109.4
402.381	4.95
402.59	66.39
402.799	35.67
403.008	70.48
403.217	60.24
403.426	62.29
403.635	58.2
403.844	95.06
404.053	129.88
404.262	86.87
404.471	113.49
404.68	47.96
404.888	78.68
405.097	50
405.306	129.88
405.515	121.68
405.724	105.3
405.933	148.31
406.142	105.3
406.35	115.54
406.559	138.07
406.768	179.03
406.977	209.75
407.185	187.22
407.394	160.59
407.603	148.31
407.812	164.69
408.02	136.02
408.229	142.16
408.438	138.07
408.646	154.45
408.855	148.31
409.064	197.46
409.272	107.35
409.481	217.94
409.69	246.61
409.898	244.56
410.107	273.23
410.315	318.29
410.524	291.66
410.733	283.47
410.941	312.14
411.15	248.66
411.358	310.1
411.567	262.99
411.775	324.43
411.984	361.3
412.192	328.53
412.401	293.71
412.609	367.44
412.818	369.49
413.026	430.93
413.234	394.06
413.443	428.88
413.651	416.59
413.86	422.73
414.068	504.65
414.276	445.26
414.485	514.89
414.693	451.41
414.901	576.33
415.11	564.04
415.318	549.71
415.526	570.19
415.734	510.8
415.943	631.63
416.151	695.11
416.359	678.73
416.567	648.01
416.776	695.11
416.984	660.3
417.192	746.31
417.4	762.7
417.608	672.59
417.817	787.27
418.025	924.49
418.233	832.33
418.441	904.01
418.649	983.88
418.857	928.58
419.065	963.4
419.273	1086.28
419.481	1016.65
419.689	1037.13
419.897	1153.86
420.105	1219.39
420.313	1200.96
420.521	1168.2
420.729	1258.31
420.937	1372.99
421.145	1540.93
421.353	1475.39
421.561	1432.38
421.769	1459.01
421.977	1643.32
422.185	1585.98
422.393	1712.96
422.601	1688.38
422.809	1815.35
423.017	1817.4
423.224	1919.8
423.432	2030.39
423.64	2009.91
423.848	1993.53
424.056	2173.75
424.263	2327.35
424.471	2282.29
424.679	2304.82
424.887	2386.74
425.094	2466.61
425.302	2519.85
425.51	2579.25
425.718	2724.65
425.925	2628.4
426.133	2863.91
426.341	2951.98
426.548	3025.7
426.756	3138.34
426.964	3205.92
427.171	3238.69
427.379	3435.3
427.586	3414.82
427.794	3416.87
428.001	3816.22
428.209	4004.63
428.417	3791.64
428.624	4156.18
428.832	4147.99
429.039	4086.55
429.247	4072.22
429.454	4510.48
429.662	4741.9
429.869	4584.21
430.076	4723.47
430.284	4518.67
430.491	4893.45
430.699	5149.45
430.906	5016.33
431.114	5194.5
431.321	5436.16
431.528	5464.83
431.736	5868.28
431.943	6138.62
432.15	5755.65
432.358	5888.76
432.565	6382.32
432.772	6175.48
432.979	6408.95
433.187	6681.33
433.394	6740.72
433.601	7185.13
433.808	7369.44
434.016	7275.24
434.223	7504.61
434.43	7944.92
434.637	7768.8
434.844	8229.59
435.052	8510.16
435.259	8434.39
435.466	8504.02
435.673	8534.74
435.88	8696.53
436.087	9437.89
436.294	9353.93
436.501	9304.78
436.708	9292.49
436.915	9654.98
437.122	10042.04
437.329	10146.49
437.537	10494.65
437.743	10566.32
437.95	10418.87
438.157	11162.28
438.364	11039.4
438.571	11145.9
438.778	11279.02
438.985	12339.87
439.192	11770.53
439.399	12464.79
439.606	12288.67
439.813	12874.38
440.02	13580.93
440.227	13374.09
440.433	13165.2
440.64	13570.69
440.847	13507.21
441.054	13896.32
441.261	14754.42
441.467	14410.36
441.674	14946.93
441.881	15493.74
442.088	15370.86
442.294	15483.5
442.501	15606.38
442.708	15981.15
442.914	16573.02
443.121	17156.69
443.328	16867.92
443.534	17760.84
443.741	17298
443.948	17427.02
444.154	18616.89
444.361	18457.15
444.568	18379.32
444.774	18618.94
444.981	18672.18
445.187	19132.98
445.394	20015.65
445.6	19730.98
445.807	21557.77
446.013	20951.57
446.22	21125.65
446.426	22049.28
446.633	22049.28
446.839	22819.32
447.046	21979.65
447.252	23325.17
447.459	23196.15
447.665	23226.87
447.871	24433.12
448.078	25018.84
448.284	24017.38
448.491	24637.92
448.697	25477.58
448.903	26190.28
449.11	26020.3
449.316	25704.91
449.522	26153.41
449.728	26638.78
449.935	26948.03
450.141	27109.82
450.347	27339.19
450.553	26661.31
450.76	27306.42
450.966	27845.04
451.172	27589.04
451.378	28103.08
451.584	27537.84
451.791	28389.8
451.997	28359.08
452.203	28791.2
452.409	28854.69
452.615	28905.88
452.821	27361.72
453.027	27312.56
453.233	28793.25
453.44	27482.55
453.646	27730.35
453.852	27496.88
454.058	28676.51
454.264	27197.88
454.47	28064.17
454.676	27316.66
454.882	28408.23
455.088	25981.38
455.294	26241.48
455.5	26724.8
455.705	26907.07
455.911	25856.46
456.117	24979.93
456.323	24984.02
456.529	23607.79
456.735	24840.67
456.941	23966.18
457.147	23597.55
457.352	22759.93
457.558	22868.47
457.764	22864.38
457.97	22278.66
458.176	21783.05
458.381	21793.29
458.587	20517.4
458.793	20830.74
458.999	19765.8
459.204	21066.26
459.41	20619.8
459.616	19116.59
459.821	19337.77
460.027	19374.64
460.233	18823.73
460.438	17928.77
460.644	17986.11
460.85	17334.86
461.055	16958.03
461.261	16716.37
461.466	15776.36
461.672	15143.53
461.878	16194.14
462.083	15415.91
462.289	14797.43
462.494	14674.55
462.7	14262.91
462.905	13712
463.111	14113.41
463.316	14103.17
463.522	13877.89
463.727	13965.95
463.932	14078.59
464.138	13890.18
464.343	14062.21
464.549	13507.21
464.754	13863.55
464.959	13761.16
465.165	13587.08
465.37	13275.79
465.575	12667.54
465.781	13349.51
465.986	13415.05
466.191	12987.02
466.397	12509.85
466.602	12012.19
466.807	12472.98
467.012	12460.7
467.218	12436.12
467.423	12122.78
467.628	12505.75
