Data from USB4F104151__117__13-55-01-886.txt Node

Date: Thu Mar 13 13:55:01 EDT 2025
User: louis
Spectrometer: USB4F10415
Trigger mode: 4
Integration Time (sec): 1.000000E-2
Scans to average: 1
Electric dark correction enabled: true
Nonlinearity correction enabled: false
Boxcar width: 0
XAxis mode: Wavelengths
Number of Pixels in Spectrum: 3648
>>>>>Begin Spectral Data<<<<<
178.204	-1.54
178.424	-1.54
178.644	-1.54
178.864	-69.12
179.084	-81.41
179.304	-5.63
179.524	10.75
179.744	23.04
179.964	14.85
180.184	-28.16
180.404	47.62
180.624	-11.78
180.844	-17.92
181.064	-28.16
181.283	16.9
181.503	-38.4
181.723	16.9
181.943	-46.59
182.163	88.57
182.383	59.9
182.602	12.8
182.822	27.14
183.042	33.28
183.262	74.24
183.482	4.61
183.701	74.24
183.921	18.94
184.141	0.51
184.361	35.33
184.58	70.14
184.8	-62.98
185.02	53.76
185.239	14.85
185.459	-95.74
185.679	29.18
185.898	37.38
186.118	-7.68
186.338	10.75
186.557	35.33
186.777	31.23
186.997	8.7
187.216	55.81
187.436	84.48
187.655	78.33
187.875	18.94
188.095	29.18
188.314	-9.73
188.534	76.29
188.753	-3.58
188.973	-17.92
189.192	70.14
189.412	-42.5
189.631	51.71
189.851	39.42
190.07	41.47
190.29	0.51
190.509	-11.78
190.729	-5.63
190.948	23.04
191.168	49.66
191.387	20.99
191.607	6.66
191.826	8.7
192.045	57.86
192.265	98.81
192.484	86.53
192.704	57.86
192.923	88.57
193.142	-36.35
193.362	-7.68
193.581	117.25
193.8	84.48
194.02	96.77
194.239	16.9
194.458	31.23
194.678	45.57
194.897	4.61
195.116	20.99
195.335	53.76
195.555	33.28
195.774	-22.02
195.993	-54.78
196.212	78.33
196.432	-32.26
196.651	41.47
196.87	33.28
197.089	33.28
197.308	18.94
197.528	47.62
197.747	53.76
197.966	43.52
198.185	16.9
198.404	-24.06
198.623	82.43
198.842	53.76
199.062	14.85
199.281	23.04
199.5	37.38
199.719	16.9
199.938	37.38
200.157	10.75
200.376	59.9
200.595	102.91
200.814	41.47
201.033	-5.63
201.252	16.9
201.471	8.7
201.69	41.47
201.909	14.85
202.128	-1.54
202.347	51.71
202.566	72.19
202.785	25.09
203.004	80.38
203.223	47.62
203.442	-34.3
203.661	12.8
203.879	-50.69
204.098	2.56
204.317	2.56
204.536	98.81
204.755	35.33
204.974	-42.5
205.193	29.18
205.411	59.9
205.63	-48.64
205.849	68.09
206.068	-26.11
206.287	43.52
206.505	47.62
206.724	131.58
206.943	53.76
207.162	74.24
207.381	39.42
207.599	6.66
207.818	2.56
208.037	35.33
208.255	0.51
208.474	16.9
208.693	10.75
208.911	-24.06
209.13	-36.35
209.349	6.66
209.567	-3.58
209.786	51.71
210.005	-3.58
210.223	43.52
210.442	-3.58
210.661	20.99
210.879	59.9
211.098	4.61
211.316	39.42
211.535	51.71
211.753	-38.4
211.972	45.57
212.191	33.28
212.409	6.66
212.628	37.38
212.846	16.9
213.065	16.9
213.283	64
213.502	-46.59
213.72	-54.78
213.938	12.8
214.157	-1.54
214.375	37.38
214.594	84.48
214.812	2.56
215.031	33.28
215.249	12.8
215.467	49.66
215.686	-24.06
215.904	82.43
216.122	-7.68
216.341	18.94
216.559	-13.82
216.778	43.52
216.996	51.71
217.214	37.38
217.432	-36.35
217.651	-28.16
217.869	4.61
218.087	2.56
218.306	53.76
218.524	33.28
218.742	-7.68
218.96	66.05
219.179	-9.73
219.397	-26.11
219.615	-38.4
219.833	14.85
220.051	-38.4
220.27	-40.45
220.488	57.86
220.706	55.81
220.924	-19.97
221.142	33.28
221.36	64
221.578	-11.78
221.796	68.09
222.015	4.61
222.233	2.56
222.451	139.77
222.669	-56.83
222.887	20.99
223.105	64
223.323	61.95
223.541	86.53
223.759	78.33
223.977	-11.78
224.195	78.33
224.413	-15.87
224.631	31.23
224.849	27.14
225.067	76.29
225.285	20.99
225.503	35.33
225.721	12.8
225.939	-15.87
226.157	33.28
226.375	47.62
226.592	-22.02
226.81	57.86
227.028	64
227.246	109.05
227.464	2.56
227.682	33.28
227.9	43.52
228.117	57.86
228.335	31.23
228.553	-15.87
228.771	41.47
228.989	25.09
229.206	51.71
229.424	72.19
229.642	-9.73
229.86	16.9
230.077	45.57
230.295	90.62
230.513	29.18
230.731	70.14
230.948	12.8
231.166	-19.97
231.384	-5.63
231.601	90.62
231.819	43.52
232.037	-38.4
232.254	47.62
232.472	33.28
232.689	16.9
232.907	37.38
233.125	-13.82
233.342	74.24
233.56	61.95
233.777	-24.06
233.995	25.09
234.213	88.57
234.43	74.24
234.648	-7.68
234.865	0.51
235.083	-19.97
235.3	8.7
235.518	45.57
235.735	-58.88
235.953	27.14
236.17	-3.58
236.388	-62.98
236.605	-15.87
236.822	37.38
237.04	76.29
237.257	78.33
237.475	14.85
237.692	47.62
237.909	49.66
238.127	45.57
238.344	61.95
238.562	31.23
238.779	-1.54
238.996	8.7
239.214	18.94
239.431	96.77
239.648	10.75
239.865	76.29
240.083	-46.59
240.3	57.86
240.517	2.56
240.735	41.47
240.952	51.71
241.169	27.14
241.386	47.62
241.603	-9.73
241.821	-24.06
242.038	8.7
242.255	20.99
242.472	27.14
242.689	12.8
242.907	78.33
243.124	8.7
243.341	33.28
243.558	-1.54
243.775	121.34
243.992	-11.78
244.209	39.42
244.426	27.14
244.643	25.09
244.86	-3.58
245.078	14.85
245.295	-22.02
245.512	49.66
245.729	31.23
245.946	57.86
246.163	33.28
246.38	-1.54
246.597	31.23
246.814	14.85
247.031	10.75
247.248	6.66
247.464	16.9
247.681	74.24
247.898	84.48
248.115	-69.12
248.332	-9.73
248.549	84.48
248.766	45.57
248.983	33.28
249.2	16.9
249.417	107.01
249.633	61.95
249.85	82.43
250.067	35.33
250.284	16.9
250.501	16.9
250.717	45.57
250.934	-34.3
251.151	35.33
251.368	-34.3
251.585	10.75
251.801	51.71
252.018	72.19
252.235	2.56
252.451	-7.68
252.668	16.9
252.885	94.72
253.102	35.33
253.318	33.28
253.535	10.75
253.752	12.8
253.968	61.95
254.185	35.33
254.401	31.23
254.618	57.86
254.835	45.57
255.051	12.8
255.268	-1.54
255.484	27.14
255.701	4.61
255.917	33.28
256.134	27.14
256.351	25.09
256.567	-24.06
256.784	27.14
257	-24.06
257.217	61.95
257.433	37.38
257.65	6.66
257.866	-1.54
258.082	39.42
258.299	29.18
258.515	-1.54
258.732	117.25
258.948	-15.87
259.165	39.42
259.381	49.66
259.597	43.52
259.814	39.42
260.03	47.62
260.246	-13.82
260.463	10.75
260.679	18.94
260.895	-7.68
261.112	92.67
261.328	51.71
261.544	23.04
261.761	8.7
261.977	33.28
262.193	2.56
262.409	82.43
262.626	61.95
262.842	88.57
263.058	20.99
263.274	80.38
263.49	88.57
263.707	66.05
263.923	18.94
264.139	47.62
264.355	33.28
264.571	90.62
264.787	20.99
265.004	68.09
265.22	8.7
265.436	-9.73
265.652	41.47
265.868	94.72
266.084	25.09
266.3	53.76
266.516	29.18
266.732	25.09
266.948	2.56
267.164	47.62
267.38	37.38
267.596	55.81
267.812	2.56
268.028	94.72
268.244	27.14
268.46	-11.78
268.676	2.56
268.892	27.14
269.108	39.42
269.324	-11.78
269.54	-5.63
269.756	-1.54
269.972	80.38
270.188	-28.16
270.403	-32.26
270.619	25.09
270.835	37.38
271.051	23.04
271.267	-19.97
271.483	14.85
271.698	-7.68
271.914	12.8
272.13	-13.82
272.346	70.14
272.562	39.42
272.777	51.71
272.993	49.66
273.209	23.04
273.425	12.8
273.64	137.73
273.856	-13.82
274.072	-42.5
274.287	74.24
274.503	-1.54
274.719	-85.5
274.934	57.86
275.15	-28.16
275.366	-15.87
275.581	8.7
275.797	8.7
276.012	-3.58
276.228	55.81
276.444	2.56
276.659	68.09
276.875	-13.82
277.09	43.52
277.306	4.61
277.521	64
277.737	111.1
277.952	-11.78
278.168	-7.68
278.383	-13.82
278.599	-54.78
278.814	100.86
279.03	41.47
279.245	-28.16
279.461	6.66
279.676	25.09
279.892	-11.78
280.107	-9.73
280.322	35.33
280.538	35.33
280.753	57.86
280.969	68.09
281.184	84.48
281.399	14.85
281.615	10.75
281.83	18.94
282.045	49.66
282.26	109.05
282.476	35.33
282.691	55.81
282.906	-1.54
283.122	94.72
283.337	-26.11
283.552	55.81
283.767	-34.3
283.983	70.14
284.198	6.66
284.413	31.23
284.628	6.66
284.843	-30.21
285.058	53.76
285.274	53.76
285.489	18.94
285.704	39.42
285.919	33.28
286.134	49.66
286.349	-81.41
286.564	-11.78
286.779	23.04
286.995	98.81
287.21	10.75
287.425	39.42
287.64	2.56
287.855	39.42
288.07	113.15
288.285	51.71
288.5	70.14
288.715	45.57
288.93	33.28
289.145	31.23
289.36	53.76
289.575	-17.92
289.79	70.14
290.004	-1.54
290.219	-1.54
290.434	123.39
290.649	4.61
290.864	33.28
291.079	35.33
291.294	-24.06
291.509	10.75
291.724	-15.87
291.938	-19.97
292.153	29.18
292.368	86.53
292.583	57.86
292.798	66.05
293.012	49.66
293.227	33.28
293.442	23.04
293.657	41.47
293.871	76.29
294.086	23.04
294.301	-3.58
294.516	8.7
294.73	31.23
294.945	-13.82
295.16	39.42
295.374	53.76
295.589	33.28
295.804	16.9
296.018	47.62
296.233	59.9
296.447	47.62
296.662	6.66
296.877	-34.3
297.091	27.14
297.306	41.47
297.52	47.62
297.735	33.28
297.949	41.47
298.164	45.57
298.378	23.04
298.593	35.33
298.807	27.14
299.022	-13.82
299.236	86.53
299.451	20.99
299.665	45.57
299.88	-5.63
300.094	55.81
300.309	111.1
300.523	111.1
300.737	-7.68
300.952	45.57
301.166	74.24
301.381	12.8
301.595	74.24
301.809	43.52
302.024	27.14
302.238	23.04
302.452	64
302.667	61.95
302.881	-9.73
303.095	31.23
303.309	94.72
303.524	-1.54
303.738	43.52
303.952	82.43
304.166	27.14
304.381	18.94
304.595	41.47
304.809	25.09
305.023	20.99
305.237	-9.73
305.452	68.09
305.666	-48.64
305.88	18.94
306.094	51.71
306.308	31.23
306.522	23.04
306.736	59.9
306.95	45.57
307.164	25.09
307.379	76.29
307.593	100.86
307.807	70.14
308.021	68.09
308.235	57.86
308.449	37.38
308.663	51.71
308.877	82.43
309.091	35.33
309.305	55.81
309.519	55.81
309.733	-44.54
309.947	20.99
310.161	43.52
310.374	6.66
310.588	111.1
310.802	-56.83
311.016	31.23
311.23	27.14
311.444	47.62
311.658	55.81
311.872	72.19
312.085	47.62
312.299	43.52
312.513	-81.41
312.727	18.94
312.941	8.7
313.154	-3.58
313.368	57.86
313.582	70.14
313.796	20.99
314.009	-9.73
314.223	25.09
314.437	55.81
314.651	66.05
314.864	-5.63
315.078	-7.68
315.292	55.81
315.505	66.05
315.719	100.86
315.933	82.43
316.146	53.76
316.36	12.8
316.573	23.04
316.787	-9.73
317.001	29.18
317.214	27.14
317.428	23.04
317.641	14.85
317.855	133.63
318.068	27.14
318.282	37.38
318.495	41.47
318.709	53.76
318.922	12.8
319.136	113.15
319.349	53.76
319.563	66.05
319.776	57.86
319.99	8.7
320.203	80.38
320.417	96.77
320.63	80.38
320.843	49.66
321.057	49.66
321.27	16.9
321.483	68.09
321.697	51.71
321.91	39.42
322.124	10.75
322.337	33.28
322.55	-40.45
322.763	35.33
322.977	64
323.19	-3.58
323.403	96.77
323.617	20.99
323.83	47.62
324.043	-40.45
324.256	14.85
324.469	53.76
324.683	51.71
324.896	14.85
325.109	43.52
325.322	-28.16
325.535	49.66
325.748	-19.97
325.962	-13.82
326.175	33.28
326.388	86.53
326.601	-19.97
326.814	-1.54
327.027	74.24
327.24	70.14
327.453	51.71
327.666	35.33
327.879	55.81
328.092	0.51
328.305	41.47
328.518	55.81
328.731	49.66
328.944	18.94
329.157	131.58
329.37	45.57
329.583	20.99
329.796	51.71
330.009	-52.74
330.222	84.48
330.435	-3.58
330.648	68.09
330.861	80.38
331.073	47.62
331.286	90.62
331.499	84.48
331.712	14.85
331.925	-7.68
332.138	-1.54
332.35	45.57
332.563	39.42
332.776	61.95
332.989	59.9
333.202	47.62
333.414	94.72
333.627	94.72
333.84	-30.21
334.053	82.43
334.265	84.48
334.478	23.04
334.691	-36.35
334.903	86.53
335.116	84.48
335.329	55.81
335.541	-17.92
335.754	86.53
335.966	-3.58
336.179	8.7
336.392	55.81
336.604	51.71
336.817	37.38
337.029	127.49
337.242	16.9
337.454	18.94
337.667	66.05
337.88	45.57
338.092	16.9
338.305	0.51
338.517	-42.5
338.729	107.01
338.942	94.72
339.154	76.29
339.367	64
339.579	51.71
339.792	102.91
340.004	61.95
340.217	35.33
340.429	37.38
340.641	96.77
340.854	-7.68
341.066	20.99
341.278	2.56
341.491	111.1
341.703	45.57
341.915	-75.26
342.128	37.38
342.34	78.33
342.552	59.9
342.764	-5.63
342.977	92.67
343.189	35.33
343.401	23.04
343.613	-54.78
343.826	31.23
344.038	31.23
344.25	82.43
344.462	57.86
344.674	10.75
344.886	29.18
345.099	61.95
345.311	10.75
345.523	49.66
345.735	-46.59
345.947	39.42
346.159	-1.54
346.371	-1.54
346.583	82.43
346.795	78.33
347.007	94.72
347.219	-22.02
347.431	41.47
347.643	51.71
347.855	-1.54
348.067	78.33
348.279	2.56
348.491	90.62
348.703	78.33
348.915	49.66
349.127	14.85
349.339	23.04
349.551	-22.02
349.763	66.05
349.975	57.86
350.187	76.29
350.399	39.42
350.61	43.52
350.822	31.23
351.034	51.71
351.246	33.28
351.458	35.33
351.669	27.14
351.881	82.43
352.093	27.14
352.305	31.23
352.517	74.24
352.728	76.29
352.94	29.18
353.152	47.62
353.363	0.51
353.575	84.48
353.787	29.18
353.999	59.9
354.21	88.57
354.422	27.14
354.633	-38.4
354.845	35.33
355.057	16.9
355.268	45.57
355.48	51.71
355.692	55.81
355.903	37.38
356.115	94.72
356.326	35.33
356.538	16.9
356.749	27.14
356.961	41.47
357.172	20.99
357.384	39.42
357.595	68.09
357.807	8.7
358.018	-1.54
358.23	76.29
358.441	78.33
358.653	31.23
358.864	-17.92
359.075	39.42
359.287	115.2
359.498	18.94
359.709	43.52
359.921	45.57
360.132	43.52
360.344	37.38
360.555	18.94
360.766	12.8
360.977	16.9
361.189	31.23
361.4	53.76
361.611	68.09
361.823	102.91
362.034	16.9
362.245	-22.02
362.456	27.14
362.667	61.95
362.879	43.52
363.09	59.9
363.301	96.77
363.512	80.38
363.723	29.18
363.935	-24.06
364.146	41.47
364.357	41.47
364.568	72.19
364.779	14.85
364.99	45.57
365.201	27.14
365.412	25.09
365.623	47.62
365.834	82.43
366.045	2.56
366.256	51.71
366.467	43.52
366.678	35.33
366.889	14.85
367.1	86.53
367.311	43.52
367.522	4.61
367.733	35.33
367.944	78.33
368.155	-1.54
368.366	64
368.577	74.24
368.788	88.57
368.999	90.62
369.209	57.86
369.42	27.14
369.631	8.7
369.842	84.48
370.053	-30.21
370.264	39.42
370.474	98.81
370.685	121.34
370.896	70.14
371.107	53.76
371.317	39.42
371.528	49.66
371.739	164.35
371.95	80.38
372.16	66.05
372.371	96.77
372.582	47.62
372.792	33.28
373.003	94.72
373.214	64
373.424	2.56
373.635	78.33
373.846	160.25
374.056	64
374.267	45.57
374.477	37.38
374.688	84.48
374.898	33.28
375.109	4.61
375.319	64
375.53	104.96
375.74	76.29
375.951	123.39
376.161	33.28
376.372	86.53
376.582	49.66
376.793	76.29
377.003	59.9
377.214	8.7
377.424	6.66
377.635	123.39
377.845	43.52
378.055	41.47
378.266	86.53
378.476	-5.63
378.686	59.9
378.897	137.73
379.107	59.9
379.317	94.72
379.528	-28.16
379.738	25.09
379.948	31.23
380.158	76.29
380.369	33.28
380.579	47.62
380.789	72.19
380.999	-9.73
381.21	88.57
381.42	51.71
381.63	-9.73
381.84	41.47
382.05	51.71
382.261	84.48
382.471	61.95
382.681	47.62
382.891	51.71
383.101	-19.97
383.311	20.99
383.521	123.39
383.731	61.95
383.941	57.86
384.151	61.95
384.361	68.09
384.571	90.62
384.781	100.86
384.991	14.85
385.201	18.94
385.411	104.96
385.621	29.18
385.831	45.57
386.041	86.53
386.251	74.24
386.461	78.33
386.671	27.14
386.881	86.53
387.091	33.28
387.301	88.57
387.511	113.15
387.72	92.67
387.93	84.48
388.14	98.81
388.35	57.86
388.56	59.9
388.769	117.25
388.979	160.25
389.189	70.14
389.399	125.44
389.609	-11.78
389.818	104.96
390.028	20.99
390.238	96.77
390.447	57.86
390.657	90.62
390.867	43.52
391.076	33.28
391.286	119.29
391.496	115.2
391.705	107.01
391.915	47.62
392.125	57.86
392.334	-5.63
392.544	84.48
392.753	96.77
392.963	47.62
393.172	55.81
393.382	104.96
393.591	59.9
393.801	51.71
394.01	4.61
394.22	35.33
394.429	2.56
394.639	55.81
394.848	139.77
395.058	57.86
395.267	80.38
395.477	88.57
395.686	78.33
395.895	107.01
396.105	61.95
396.314	102.91
396.524	68.09
396.733	131.58
396.942	35.33
397.152	84.48
397.361	74.24
397.57	160.25
397.78	111.1
397.989	117.25
398.198	133.63
398.407	111.1
398.617	29.18
398.826	88.57
399.035	150.01
399.244	152.06
399.453	117.25
399.663	31.23
399.872	92.67
400.081	70.14
400.29	176.64
400.499	82.43
400.708	145.92
400.917	72.19
401.127	141.82
401.336	166.4
401.545	100.86
401.754	150.01
401.963	78.33
402.172	147.97
402.381	141.82
402.59	156.16
402.799	121.34
403.008	113.15
403.217	205.31
403.426	195.07
403.635	82.43
403.844	174.59
404.053	125.44
404.262	111.1
404.471	129.53
404.68	139.77
404.888	164.35
405.097	94.72
405.306	184.83
405.515	178.69
405.724	107.01
405.933	227.84
406.142	117.25
406.35	96.77
406.559	205.31
406.768	238.08
406.977	238.08
407.185	150.01
407.394	252.41
407.603	231.93
407.812	190.97
408.02	223.74
408.229	117.25
408.438	240.12
408.646	227.84
408.855	307.71
409.064	246.27
409.272	297.47
409.481	313.85
409.69	287.23
409.898	348.67
410.107	266.75
410.315	320
410.524	250.36
410.733	424.44
410.941	373.24
411.15	424.44
411.358	387.58
411.567	377.34
411.775	375.29
411.984	408.06
412.192	393.72
412.401	401.91
412.609	457.21
412.818	467.45
413.026	461.3
413.234	524.79
413.443	569.85
413.651	508.41
413.86	467.45
414.068	616.95
414.276	582.14
414.485	582.14
414.693	608.76
414.901	672.25
415.11	682.49
415.318	674.29
415.526	741.88
415.734	727.54
415.943	680.44
416.151	739.83
416.359	840.18
416.567	834.04
416.776	864.75
416.984	883.19
417.192	963.06
417.4	993.78
417.608	889.33
417.817	991.73
418.025	1178.09
418.233	1161.71
418.441	989.68
418.649	1169.9
418.857	1237.49
419.065	1282.54
419.273	1262.06
419.481	1315.31
419.689	1386.99
419.897	1458.67
420.105	1417.71
420.313	1473
420.521	1608.17
420.729	1475.05
420.937	1645.03
421.145	1712.61
421.353	1718.76
421.561	1866.21
421.769	1808.87
421.977	1958.37
422.185	1896.93
422.393	2111.97
422.601	2361.82
422.809	2249.18
423.017	2169.31
423.224	2335.2
423.432	2310.62
423.64	2410.97
423.848	2679.26
424.056	2544.09
424.263	2726.36
424.471	2800.09
424.679	2763.22
424.887	3011.03
425.094	3049.94
425.302	3148.24
425.51	3205.58
425.718	3211.73
425.925	3428.81
426.133	3531.21
426.341	3709.38
426.548	3791.3
426.756	3729.86
426.964	3785.16
427.171	4047.3
427.379	4264.38
427.586	4291.01
427.794	4350.4
428.001	4626.87
428.209	4897.21
428.417	4600.25
428.624	5173.68
428.832	5026.23
429.039	5063.09
429.247	5005.75
429.454	5509.55
429.662	5953.96
429.869	5501.36
430.076	5806.5
430.284	5849.51
430.491	5951.91
430.699	6338.98
430.906	6195.62
431.114	6427.04
431.321	6597.02
431.528	6826.39
431.736	7066
431.943	7446.93
432.15	7037.33
432.358	7446.93
432.565	7729.55
432.772	7856.52
432.979	8126.85
433.187	8307.07
433.394	8176
433.601	8870.26
433.808	9038.2
434.016	9003.38
434.223	9236.85
434.43	9953.64
434.637	9730.41
434.844	10172.77
435.052	10389.86
435.259	10248.55
435.466	10459.49
435.673	10215.78
435.88	10887.51
436.087	11405.65
436.294	11493.71
436.501	11362.64
436.708	11663.69
436.915	11911.5
437.122	12398.91
437.329	12357.96
437.537	12923.19
437.743	13158.71
437.95	12874.04
438.157	13639.98
438.364	14045.48
438.571	13930.8
438.778	14338.34
438.985	15421.72
439.192	14862.62
439.399	15282.45
439.606	14915.87
439.813	15765.78
440.02	16791.81
440.227	16091.4
440.433	16548.1
440.64	17015.04
440.847	16636.16
441.054	17180.92
441.261	18118.89
441.467	18002.16
441.674	18450.66
441.881	19126.49
442.088	19046.62
442.294	18968.8
442.501	19228.89
442.708	19851.47
442.914	20478.15
443.121	21319.87
443.328	20932.8
443.534	21975.22
443.741	21653.69
443.948	21217.47
444.154	23058.59
444.361	22829.22
444.568	22835.36
444.774	23095.46
444.981	23199.9
445.187	23711.89
445.394	25004.16
445.6	24535.18
445.807	26923.11
446.013	25759.86
446.22	26105.97
446.426	27023.46
446.633	27613.27
446.839	28360.78
447.046	27140.19
447.252	28541
447.459	29007.94
447.665	28500.05
447.871	29489.21
448.078	31270.95
448.284	29655.1
448.491	30220.34
448.697	31397.92
448.903	32108.57
449.11	31905.82
449.316	31488.03
449.522	32296.98
449.728	32851.98
449.935	33488.9
450.141	33173.51
450.347	33675.26
450.553	33263.62
450.76	33458.18
450.966	34689.01
451.172	34109.43
451.378	34805.74
451.584	34156.53
451.791	34959.34
451.997	35033.07
452.203	35456.99
452.409	35583.97
452.615	35555.3
452.821	33738.75
453.027	33413.12
453.233	35579.87
453.44	34043.9
453.646	34322.42
453.852	34267.13
454.058	35114.98
454.264	34025.46
454.47	34732.01
454.676	34056.18
454.882	34826.22
455.088	31932.44
455.294	32395.28
455.5	32843.79
455.705	33417.22
455.911	32071.7
456.117	31555.61
456.323	30892.07
456.529	29167.68
456.735	30650.41
456.941	29554.75
457.147	29397.06
457.352	28332.11
457.558	27820.12
457.764	28125.27
457.97	27701.34
458.176	26859.62
458.381	27359.33
458.587	25786.49
458.793	25567.35
458.999	24559.75
459.204	26003.57
459.41	25409.66
459.616	23533.72
459.821	23754.9
460.027	23728.28
460.233	23195.81
460.438	21975.22
460.644	22186.16
460.85	21029.06
461.055	20826.31
461.261	20848.83
461.466	19204.31
461.672	18747.62
461.878	20211.92
462.083	18649.32
462.289	18639.08
462.494	18049.26
462.7	17307.9
462.905	17068.28
463.111	17606.9
463.316	17428.73
463.522	17064.19
463.727	17232.12
463.932	17078.52
464.138	16886.01
464.343	16703.75
464.549	16341.25
464.754	16832.77
464.959	17037.56
465.165	16613.63
465.37	16230.66
465.575	15632.66
465.781	16273.67
465.986	16732.42
466.191	15769.87
466.397	15311.13
466.602	14651.68
466.807	15253.78
467.012	15462.68
467.218	15440.15
467.423	15114.52
467.628	15042.84
467.833	15630.61
468.038	15132.95
468.244	14772.51
468.449	15438.1
