Data from USB4F104151__44__13-53-18-858.txt Node

Date: Thu Mar 13 13:53:18 EDT 2025
User: louis
Spectrometer: USB4F10415
Trigger mode: 4
Integration Time (sec): 1.000000E-2
Scans to average: 1
Electric dark correction enabled: true
Nonlinearity correction enabled: false
Boxcar width: 0
XAxis mode: Wavelengths
Number of Pixels in Spectrum: 3648
>>>>>Begin Spectral Data<<<<<
178.204	0
178.424	0
178.644	0
178.864	-43.01
179.084	-34.82
179.304	-47.1
179.524	28.67
179.744	-24.58
179.964	59.39
180.184	-2.05
180.404	-18.43
180.624	22.53
180.844	-4.1
181.064	-34.82
181.283	30.72
181.503	-43.01
181.723	32.77
181.943	57.34
182.163	47.1
182.383	28.67
182.602	4.1
182.822	22.53
183.042	28.67
183.262	-10.24
183.482	57.34
183.701	-2.05
183.921	8.19
184.141	24.58
184.361	-2.05
184.58	-38.91
184.8	20.48
185.02	-71.68
185.239	8.19
185.459	4.1
185.679	100.35
185.898	22.53
186.118	-6.14
186.338	6.14
186.557	-26.62
186.777	-65.53
186.997	81.92
187.216	-8.19
187.436	28.67
187.655	32.77
187.875	14.34
188.095	47.1
188.314	61.44
188.534	38.91
188.753	-6.14
188.973	6.14
189.192	69.63
189.412	22.53
189.631	-2.05
189.851	20.48
190.07	34.82
190.29	2.05
190.509	24.58
190.729	49.15
190.948	26.62
191.168	51.2
191.387	65.54
191.607	-71.68
191.826	36.86
192.045	-4.1
192.265	22.53
192.484	-8.19
192.704	12.29
192.923	-26.62
193.142	63.49
193.362	22.53
193.581	-12.29
193.8	22.53
194.02	16.38
194.239	36.86
194.458	-77.82
194.678	28.67
194.897	14.34
195.116	22.53
195.335	0
195.555	24.58
195.774	4.1
195.993	14.34
196.212	55.3
196.432	-14.34
196.651	57.34
196.87	38.91
197.089	100.35
197.308	30.72
197.528	30.72
197.747	-4.1
197.966	57.34
198.185	36.86
198.404	18.43
198.623	40.96
198.842	-2.05
199.062	-47.1
199.281	10.24
199.5	51.2
199.719	86.01
199.938	28.67
200.157	69.63
200.376	77.82
200.595	49.15
200.814	4.1
201.033	43.01
201.252	47.1
201.471	77.82
201.69	20.48
201.909	59.39
202.128	-14.34
202.347	18.43
202.566	-28.67
202.785	-10.24
203.004	0
203.223	59.39
203.442	63.49
203.661	28.67
203.879	-24.58
204.098	81.92
204.317	57.34
204.536	34.82
204.755	51.2
204.974	94.21
205.193	-16.38
205.411	53.25
205.63	-2.05
205.849	24.58
206.068	30.72
206.287	49.15
206.505	30.72
206.724	-20.48
206.943	14.34
207.162	24.58
207.381	20.48
207.599	43.01
207.818	43.01
208.037	90.11
208.255	-8.19
208.474	38.91
208.693	61.44
208.911	36.86
209.13	55.3
209.349	65.54
209.567	-55.3
209.786	71.68
210.005	-26.62
210.223	26.62
210.442	-49.15
210.661	55.3
210.879	4.1
211.098	51.2
211.316	47.1
211.535	43.01
211.753	34.82
211.972	8.19
212.191	38.91
212.409	43.01
212.628	55.3
212.846	34.82
213.065	4.1
213.283	-4.1
213.502	32.77
213.72	-16.38
213.938	30.72
214.157	-20.48
214.375	83.97
214.594	59.39
214.812	-8.19
215.031	-22.53
215.249	47.1
215.467	43.01
215.686	-2.05
215.904	49.15
216.122	24.58
216.341	28.67
216.559	90.11
216.778	4.1
216.996	14.34
217.214	12.29
217.432	20.48
217.651	-32.77
217.869	36.86
218.087	2.05
218.306	45.06
218.524	92.16
218.742	49.15
218.96	40.96
219.179	14.34
219.397	61.44
219.615	-22.53
219.833	-47.1
220.051	-2.05
220.27	73.73
220.488	14.34
220.706	81.92
220.924	-20.48
221.142	-6.14
221.36	-2.05
221.578	0
221.796	45.06
222.015	18.43
222.233	32.77
222.451	47.1
222.669	40.96
222.887	38.91
223.105	30.72
223.323	34.82
223.541	47.1
223.759	-8.19
223.977	57.34
224.195	100.35
224.413	73.73
224.631	6.14
224.849	34.82
225.067	96.25
225.285	49.15
225.503	4.1
225.721	-12.29
225.939	24.58
226.157	69.63
226.375	-10.24
226.592	-12.29
226.81	57.34
227.028	-12.29
227.246	40.96
227.464	-2.05
227.682	40.96
227.9	12.29
228.117	-2.05
228.335	0
228.553	18.43
228.771	4.1
228.989	28.67
229.206	43.01
229.424	-24.58
229.642	34.82
229.86	4.1
230.077	94.21
230.295	6.14
230.513	-16.38
230.731	22.53
230.948	-8.19
231.166	-28.67
231.384	-18.43
231.601	-30.72
231.819	30.72
232.037	-30.72
232.254	36.86
232.472	18.43
232.689	-47.1
232.907	16.38
233.125	22.53
233.342	-12.29
233.56	4.1
233.777	45.06
233.995	-26.62
234.213	-38.91
234.43	10.24
234.648	-2.05
234.865	32.77
235.083	83.97
235.3	16.38
235.518	34.82
235.735	-28.67
235.953	16.38
236.17	96.25
236.388	-12.29
236.605	10.24
236.822	47.1
237.04	6.14
237.257	51.2
237.475	26.62
237.692	10.24
237.909	92.16
238.127	49.15
238.344	26.62
238.562	-28.67
238.779	16.38
238.996	-8.19
239.214	26.62
239.431	110.59
239.648	55.3
239.865	26.62
240.083	24.58
240.3	12.29
240.517	40.96
240.735	81.92
240.952	-53.25
241.169	30.72
241.386	-57.34
241.603	18.43
241.821	47.1
242.038	57.34
242.255	-14.34
242.472	6.14
242.689	45.06
242.907	14.34
243.124	18.43
243.341	90.11
243.558	-14.34
243.775	-40.96
243.992	22.53
244.209	32.77
244.426	30.72
244.643	-51.2
244.86	-53.25
245.078	6.14
245.295	63.49
245.512	32.77
245.729	38.91
245.946	32.77
246.163	71.68
246.38	36.86
246.597	38.91
246.814	-4.1
247.031	10.24
247.248	18.43
247.464	6.14
247.681	-4.1
247.898	8.19
248.115	-30.72
248.332	-22.53
248.549	26.62
248.766	100.35
248.983	40.96
249.2	14.34
249.417	18.43
249.633	36.86
249.85	-86.01
250.067	16.38
250.284	-43.01
250.501	4.1
250.717	79.87
250.934	59.39
251.151	90.11
251.368	63.49
251.585	67.58
251.801	0
252.018	-22.53
252.235	38.91
252.451	22.53
252.668	6.14
252.885	77.82
253.102	34.82
253.318	30.72
253.535	-18.43
253.752	-6.14
253.968	79.87
254.185	36.86
254.401	-20.48
254.618	8.19
254.835	-28.67
255.051	38.91
255.268	-6.14
255.484	86.01
255.701	51.2
255.917	28.67
256.134	-61.44
256.351	73.73
256.567	67.58
256.784	71.68
257	-6.14
257.217	51.2
257.433	75.77
257.65	22.53
257.866	36.86
258.082	4.1
258.299	90.11
258.515	36.86
258.732	28.67
258.948	14.34
259.165	2.05
259.381	0
259.597	18.43
259.814	14.34
260.03	-2.05
260.246	12.29
260.463	-6.14
260.679	2.05
260.895	36.86
261.112	20.48
261.328	24.58
261.544	-14.34
261.761	94.21
261.977	-32.77
262.193	75.77
262.409	-34.82
262.626	71.68
262.842	-90.11
263.058	26.62
263.274	73.73
263.49	26.62
263.707	55.3
263.923	45.06
264.139	43.01
264.355	6.14
264.571	67.58
264.787	24.58
265.004	73.73
265.22	90.11
265.436	32.77
265.652	77.82
265.868	28.67
266.084	34.82
266.3	10.24
266.516	116.73
266.732	67.58
266.948	34.82
267.164	61.44
267.38	43.01
267.596	-71.68
267.812	28.67
268.028	-34.82
268.244	-18.43
268.46	45.06
268.676	-71.68
268.892	59.39
269.108	67.58
269.324	47.1
269.54	2.05
269.756	24.58
269.972	0
270.188	10.24
270.403	108.54
270.619	38.91
270.835	-40.96
271.051	63.49
271.267	22.53
271.483	47.1
271.698	40.96
271.914	10.24
272.13	-53.25
272.346	2.05
272.562	26.62
272.777	43.01
272.993	-38.91
273.209	96.25
273.425	73.73
273.64	-40.96
273.856	38.91
274.072	36.86
274.287	-61.44
274.503	53.25
274.719	34.82
274.934	73.73
275.15	8.19
275.366	-43.01
275.581	43.01
275.797	20.48
276.012	57.34
276.228	63.49
276.444	30.72
276.659	2.05
276.875	-32.77
277.09	57.34
277.306	22.53
277.521	73.73
277.737	18.43
277.952	32.77
278.168	-32.77
278.383	-63.49
278.599	36.86
278.814	65.54
279.03	-12.29
279.245	40.96
279.461	16.38
279.676	40.96
279.892	14.34
280.107	-40.96
280.322	-38.91
280.538	88.06
280.753	71.68
280.969	61.44
281.184	10.24
281.399	51.2
281.615	6.14
281.83	38.91
282.045	57.34
282.26	-38.91
282.476	18.43
282.691	55.3
282.906	-8.19
283.122	8.19
283.337	20.48
283.552	94.21
283.767	24.58
283.983	90.11
284.198	98.3
284.413	40.96
284.628	6.14
284.843	108.54
285.058	51.2
285.274	14.34
285.489	30.72
285.704	28.67
285.919	-34.82
286.134	-32.77
286.349	63.49
286.564	-4.1
286.779	34.82
286.995	47.1
287.21	-10.24
287.425	55.3
287.64	-18.43
287.855	14.34
288.07	-32.77
288.285	0
288.5	26.62
288.715	83.97
288.93	-26.62
289.145	51.2
289.36	45.06
289.575	-10.24
289.79	32.77
290.004	10.24
290.219	36.86
290.434	71.68
290.649	22.53
290.864	-18.43
291.079	-26.62
291.294	90.11
291.509	53.25
291.724	-4.1
291.938	43.01
292.153	38.91
292.368	69.63
292.583	43.01
292.798	-6.14
293.012	51.2
293.227	-2.05
293.442	86.01
293.657	10.24
293.871	20.48
294.086	20.48
294.301	18.43
294.516	-4.1
294.73	-57.34
294.945	43.01
295.16	69.63
295.374	28.67
295.589	67.58
295.804	153.6
296.018	63.49
296.233	-12.29
296.447	90.11
296.662	-10.24
296.877	61.44
297.091	57.34
297.306	36.86
297.52	-36.86
297.735	100.35
297.949	-14.34
298.164	8.19
298.378	0
298.593	45.06
298.807	14.34
299.022	43.01
299.236	6.14
299.451	18.43
299.665	2.05
299.88	38.91
300.094	16.38
300.309	-16.38
300.523	12.29
300.737	77.82
300.952	2.05
301.166	34.82
301.381	-22.53
301.595	28.67
301.809	53.25
302.024	86.01
302.238	10.24
302.452	-10.24
302.667	112.64
302.881	4.1
303.095	47.1
303.309	49.15
303.524	-22.53
303.738	92.16
303.952	-38.91
304.166	47.1
304.381	-4.1
304.595	51.2
304.809	20.48
305.023	8.19
305.237	0
305.452	43.01
305.666	-14.34
305.88	-20.48
306.094	36.86
306.308	57.34
306.522	90.11
306.736	34.82
306.95	0
307.164	10.24
307.379	36.86
307.593	26.62
307.807	10.24
308.021	2.05
308.235	43.01
308.449	53.25
308.663	6.14
308.877	45.06
309.091	10.24
309.305	16.38
309.519	77.82
309.733	92.16
309.947	-14.34
310.161	20.48
310.374	38.91
310.588	16.38
310.802	24.58
311.016	53.25
311.23	26.62
311.444	-4.1
311.658	-22.53
311.872	47.1
312.085	69.63
312.299	81.92
312.513	67.58
312.727	96.25
312.941	-8.19
313.154	34.82
313.368	100.35
313.582	2.05
313.796	53.25
314.009	96.25
314.223	34.82
314.437	77.82
314.651	43.01
314.864	67.58
315.078	73.73
315.292	16.38
315.505	14.34
315.719	53.25
315.933	-16.38
316.146	-14.34
316.36	6.14
316.573	53.25
316.787	34.82
317.001	151.55
317.214	24.58
317.428	69.63
317.641	20.48
317.855	32.77
318.068	32.77
318.282	38.91
318.495	14.34
318.709	77.82
318.922	67.58
319.136	61.44
319.349	55.3
319.563	69.63
319.776	118.78
319.99	26.62
320.203	18.43
320.417	38.91
320.63	8.19
320.843	6.14
321.057	59.39
321.27	2.05
321.483	32.77
321.697	24.58
321.91	-20.48
322.124	36.86
322.337	16.38
322.55	49.15
322.763	63.49
322.977	18.43
323.19	20.48
323.403	55.3
323.617	-26.62
323.83	18.43
324.043	40.96
324.256	14.34
324.469	-2.05
324.683	8.19
324.896	-2.05
325.109	61.44
325.322	34.82
325.535	40.96
325.748	-14.34
325.962	49.15
326.175	24.58
326.388	59.39
326.601	83.97
326.814	18.43
327.027	36.86
327.24	151.55
327.453	53.25
327.666	-28.67
327.879	-18.43
328.092	24.58
328.305	34.82
328.518	63.49
328.731	47.1
328.944	12.29
329.157	114.69
329.37	57.34
329.583	40.96
329.796	18.43
330.009	45.06
330.222	16.38
330.435	-16.38
330.648	94.21
330.861	69.63
331.073	43.01
331.286	94.21
331.499	32.77
331.712	61.44
331.925	22.53
332.138	57.34
332.35	47.1
332.563	-4.1
332.776	61.44
332.989	120.83
333.202	20.48
333.414	30.72
333.627	49.15
333.84	-51.2
334.053	75.77
334.265	51.2
334.478	45.06
334.691	24.58
334.903	-10.24
335.116	40.96
335.329	43.01
335.541	61.44
335.754	57.34
335.966	51.2
336.179	30.72
336.392	51.2
336.604	-2.05
336.817	108.54
337.029	47.1
337.242	83.97
337.454	86.01
337.667	59.39
337.88	94.21
338.092	59.39
338.305	63.49
338.517	79.87
338.729	106.49
338.942	47.1
339.154	26.62
339.367	-12.29
339.579	88.06
339.792	61.44
340.004	32.77
340.217	20.48
340.429	-14.34
340.641	-6.14
340.854	-55.3
341.066	24.58
341.278	67.58
341.491	24.58
341.703	-6.14
341.915	-40.96
342.128	22.53
342.34	22.53
342.552	51.2
342.764	67.58
342.977	114.69
343.189	-20.48
343.401	55.3
343.613	-24.58
343.826	26.62
344.038	65.54
344.25	32.77
344.462	55.3
344.674	38.91
344.886	30.72
345.099	104.45
345.311	47.1
345.523	71.68
345.735	34.82
345.947	38.91
346.159	55.3
346.371	6.14
346.583	-24.58
346.795	24.58
347.007	69.63
347.219	26.62
347.431	131.07
347.643	-40.96
347.855	10.24
348.067	-12.29
348.279	22.53
348.491	20.48
348.703	71.68
348.915	-20.48
349.127	14.34
349.339	49.15
349.551	12.29
349.763	32.77
349.975	6.14
350.187	55.3
350.399	34.82
350.61	57.34
350.822	79.87
351.034	14.34
351.246	-8.19
351.458	-36.86
351.669	47.1
351.881	49.15
352.093	-8.19
352.305	53.25
352.517	43.01
352.728	26.62
352.94	28.67
353.152	79.87
353.363	-6.14
353.575	98.3
353.787	36.86
353.999	45.06
354.21	36.86
354.422	32.77
354.633	102.4
354.845	65.54
355.057	16.38
355.268	8.19
355.48	49.15
355.692	8.19
355.903	51.2
356.115	26.62
356.326	47.1
356.538	92.16
356.749	43.01
356.961	55.3
357.172	24.58
357.384	20.48
357.595	34.82
357.807	24.58
358.018	-6.14
358.23	-16.38
358.441	88.06
358.653	77.82
358.864	-22.53
359.075	-2.05
359.287	10.24
359.498	16.38
359.709	10.24
359.921	61.44
360.132	71.68
360.344	24.58
360.555	26.62
360.766	2.05
360.977	112.64
361.189	51.2
361.4	81.92
361.611	51.2
361.823	-34.82
362.034	45.06
362.245	16.38
362.456	51.2
362.667	10.24
362.879	63.49
363.09	-59.39
363.301	61.44
363.512	14.34
363.723	36.86
363.935	40.96
364.146	61.44
364.357	43.01
364.568	-6.14
364.779	-10.24
364.99	135.17
365.201	104.45
365.412	-8.19
365.623	-2.05
365.834	22.53
366.045	59.39
366.256	147.45
366.467	28.67
366.678	51.2
366.889	69.63
367.1	28.67
367.311	49.15
367.522	-36.86
367.733	28.67
367.944	24.58
368.155	6.14
368.366	24.58
368.577	86.01
368.788	106.49
368.999	12.29
369.209	22.53
369.42	63.49
369.631	88.06
369.842	12.29
370.053	88.06
370.264	22.53
370.474	2.05
370.685	8.19
370.896	14.34
371.107	2.05
371.317	141.31
371.528	104.45
371.739	16.38
371.95	43.01
372.16	28.67
372.371	57.34
372.582	51.2
372.792	65.54
373.003	18.43
373.214	8.19
373.424	96.25
373.635	-4.1
373.846	61.44
374.056	22.53
374.267	-59.39
374.477	10.24
374.688	16.38
374.898	30.72
375.109	38.91
375.319	57.34
375.53	129.02
375.74	-49.15
375.951	59.39
376.161	32.77
376.372	32.77
376.582	30.72
376.793	18.43
377.003	16.38
377.214	65.54
377.424	10.24
377.635	112.64
377.845	0
378.055	-24.58
378.266	28.67
378.476	63.49
378.686	81.92
378.897	6.14
379.107	38.91
379.317	32.77
379.528	69.63
379.738	116.73
379.948	24.58
380.158	137.21
380.369	32.77
380.579	-10.24
380.789	96.25
380.999	81.92
381.21	40.96
381.42	59.39
381.63	71.68
381.84	55.3
382.05	20.48
382.261	-12.29
382.471	69.63
382.681	2.05
382.891	36.86
383.101	47.1
383.311	10.24
383.521	2.05
383.731	40.96
383.941	43.01
384.151	16.38
384.361	108.54
384.571	40.96
384.781	10.24
384.991	36.86
385.201	18.43
385.411	59.39
385.621	4.1
385.831	51.2
386.041	38.91
386.251	47.1
386.461	104.45
386.671	63.49
386.881	47.1
387.091	14.34
387.301	10.24
387.511	108.54
387.72	65.54
387.93	139.26
388.14	28.67
388.35	49.15
388.56	-18.43
388.769	10.24
388.979	22.53
389.189	61.44
389.399	86.01
389.609	161.79
389.818	28.67
390.028	18.43
390.238	22.53
390.447	14.34
390.657	22.53
390.867	43.01
391.076	98.3
391.286	59.39
391.496	98.3
391.705	63.49
391.915	120.83
392.125	116.73
392.334	79.87
392.544	71.68
392.753	53.25
392.963	59.39
393.172	102.4
393.382	79.87
393.591	83.97
393.801	57.34
394.01	100.35
394.22	61.44
394.429	6.14
394.639	40.96
394.848	102.4
395.058	61.44
395.267	26.62
395.477	61.44
395.686	116.73
395.895	112.64
396.105	104.45
396.314	38.91
396.524	69.63
396.733	59.39
396.942	28.67
397.152	104.45
397.361	81.92
397.57	94.21
397.78	92.16
397.989	73.73
398.198	28.67
398.407	49.15
398.617	45.06
398.826	137.21
399.035	57.34
399.244	45.06
399.453	-2.05
399.663	55.3
399.872	38.91
400.081	73.73
400.29	110.59
400.499	45.06
400.708	131.07
400.917	83.97
401.127	83.97
401.336	106.49
401.545	153.6
401.754	75.77
401.963	63.49
402.172	135.17
402.381	100.35
402.59	94.21
402.799	86.01
403.008	49.15
403.217	108.54
403.426	133.12
403.635	38.91
403.844	135.17
404.053	139.26
404.262	67.58
404.471	75.77
404.68	129.02
404.888	147.45
405.097	102.4
405.306	137.21
405.515	112.64
405.724	112.64
405.933	92.16
406.142	83.97
406.35	63.49
406.559	167.93
406.768	100.35
406.977	165.89
407.185	77.82
407.394	135.17
407.603	178.17
407.812	151.55
408.02	178.17
408.229	149.5
408.438	229.37
408.646	167.93
408.855	182.27
409.064	159.74
409.272	215.04
409.481	190.46
409.69	174.08
409.898	186.37
410.107	167.93
410.315	208.89
410.524	235.52
410.733	264.19
410.941	227.32
411.15	149.5
411.358	206.84
411.567	169.98
411.775	290.81
411.984	315.39
412.192	280.57
412.401	270.33
412.609	243.71
412.818	358.39
413.026	270.33
413.234	321.53
413.443	247.8
413.651	294.91
413.86	262.14
414.068	364.54
414.276	462.84
414.485	442.36
414.693	391.16
414.901	356.35
415.11	391.16
415.318	444.41
415.526	481.27
415.734	409.59
415.943	430.07
416.151	516.09
416.359	528.38
416.567	569.34
416.776	438.27
416.984	569.34
417.192	569.34
417.4	514.04
417.608	591.86
417.817	571.38
418.025	593.91
418.233	751.6
418.441	649.21
418.649	657.4
418.857	739.32
419.065	694.26
419.273	747.51
419.481	868.34
419.689	864.24
419.897	804.85
420.105	798.71
420.313	835.57
420.521	935.92
420.729	948.21
420.937	997.36
421.145	1015.79
421.353	1036.27
421.561	1073.14
421.769	1167.34
421.977	1193.97
422.185	1146.86
422.393	1177.58
422.601	1267.69
422.809	1320.94
423.017	1304.56
423.224	1454.06
423.432	1376.24
423.64	1411.05
423.848	1638.38
424.056	1511.4
424.263	1581.03
424.471	1601.51
424.679	1634.28
424.887	1712.1
425.094	1830.88
425.302	1802.21
425.51	1941.47
425.718	1816.55
425.925	1902.56
426.133	2025.44
426.341	2086.88
426.548	2152.42
426.756	2260.96
426.964	2250.72
427.171	2377.69
427.379	2455.51
427.586	2418.65
427.794	2545.63
428.001	2619.35
428.209	2738.13
428.417	2658.26
428.624	2924.5
428.832	2969.55
429.039	2879.44
429.247	3053.52
429.454	3225.55
429.662	3375.05
429.869	3104.72
430.076	3440.59
430.284	3270.61
430.491	3528.65
430.699	3661.77
430.906	3614.66
431.114	3669.96
431.321	3700.68
431.528	3846.09
431.736	4124.61
431.943	4337.6
432.15	4169.66
432.358	4349.89
432.565	4607.93
432.772	4519.87
432.979	4827.06
433.187	4917.17
433.394	4923.32
433.601	5146.55
433.808	5197.74
434.016	5220.27
434.223	5435.31
434.43	5656.49
434.637	5621.67
434.844	5867.43
435.052	6039.46
435.259	6072.23
435.466	6076.32
435.673	5912.49
435.88	6440.86
436.087	6811.54
436.294	6758.3
436.501	6588.32
436.708	6840.22
436.915	6915.99
437.122	7221.14
437.329	7206.8
437.537	7518.09
437.743	7735.18
437.95	7550.86
438.157	7995.27
438.364	8050.57
438.571	8165.25
438.778	8333.18
438.985	8853.37
439.192	8748.92
439.399	9152.37
439.606	8781.69
439.813	9277.3
440.02	9727.85
440.227	9529.2
440.433	9545.58
440.64	9820.01
440.847	9768.81
441.054	10061.67
441.261	10731.36
441.467	10391.39
441.674	10780.51
441.881	11093.85
442.088	11003.74
442.294	11042.65
442.501	11216.72
442.708	11659.09
442.914	11718.48
443.121	12527.42
443.328	12205.89
443.534	12916.54
443.741	12797.76
443.948	12271.43
444.154	13211.45
444.361	13213.49
444.568	13492.02
444.774	13346.61
444.981	13485.87
445.187	14026.54
445.394	14571.3
445.6	14288.68
445.807	15882
446.013	15073.05
446.22	15210.26
446.426	15884.05
446.633	15910.67
446.839	16723.71
447.046	15970.06
447.252	17028.86
447.459	16766.72
447.665	16875.26
447.871	17536.76
448.078	18265.83
448.284	17352.44
448.491	17925.87
448.697	18476.77
448.903	19130.08
449.11	18583.27
449.316	18611.94
449.522	19017.44
449.728	19412.7
449.935	19615.44
450.141	19459.8
450.347	20039.37
450.553	19021.53
450.76	19379.93
450.966	20223.69
451.172	19979.98
451.378	20383.43
451.584	19910.35
451.791	20577.99
451.997	20401.86
452.203	20897.47
452.409	20739.78
452.615	20532.93
452.821	19853.01
453.027	19578.58
453.233	20565.7
453.44	19562.2
453.646	20033.23
453.852	20219.6
454.058	20491.98
454.264	19492.57
454.47	20303.56
454.676	19865.3
454.882	20446.92
455.088	18544.36
455.294	18812.64
455.5	19095.26
455.705	19322.59
455.911	18468.58
456.117	18061.04
456.323	17753.84
456.529	16813.82
456.735	17540.85
456.941	17153.79
457.147	17178.36
457.352	16422.66
457.558	16193.29
457.764	16412.42
457.97	16219.91
458.176	15718.16
458.381	15658.77
458.587	14903.07
458.793	15134.49
458.999	14014.25
459.204	15083.29
459.41	14702.37
459.616	13834.03
459.821	13754.16
460.027	13766.45
460.233	13377.33
460.438	12879.68
460.644	12803.9
460.85	12193.61
461.055	12345.16
461.261	12250.95
461.466	11267.92
461.672	10973.02
461.878	11505.49
462.083	10815.32
462.289	10858.33
462.494	10612.57
462.7	10213.22
462.905	9961.32
463.111	10223.46
463.316	10391.39
463.522	9875.31
463.727	10004.33
463.932	10012.52
464.138	9824.11
464.343	9992.04
464.549	9688.94
464.754	10053.48
464.959	9938.79
465.165	9832.3
465.37	9389.94
465.575	9236.34
465.781	9510.77
465.986	9785.19
466.191	9275.25
466.397	9066.36
466.602	8697.72
466.807	9117.56
467.012	8916.86
467.218	8920.95
467.423	8959.86
467.628	8818.55
467.833	9209.72
468.038	8961.91
468.244	8613.76
468.449	9002.87
468.654	8753.02
468.859	8740.73
469.064	8660.86
469.269	8134.53
469.474	8402.82
