Data from USB4F104151__73__13-54-06-553.txt Node

Date: Thu Mar 13 13:54:06 EDT 2025
User: louis
Spectrometer: USB4F10415
Trigger mode: 4
Integration Time (sec): 1.000000E-2
Scans to average: 1
Electric dark correction enabled: true
Nonlinearity correction enabled: false
Boxcar width: 0
XAxis mode: Wavelengths
Number of Pixels in Spectrum: 3648
>>>>>Begin Spectral Data<<<<<
178.204	5.8
178.424	5.8
178.644	5.8
178.864	-88.4
179.084	-37.2
179.304	-31.06
179.524	54.95
179.744	-67.92
179.964	36.52
180.184	3.75
180.404	-24.92
180.624	-2.39
180.844	40.62
181.064	-2.39
181.283	-2.39
181.503	3.75
181.723	-8.53
181.943	5.8
182.163	57
182.383	24.23
182.602	-43.35
182.822	106.15
183.042	57
183.262	-18.77
183.482	48.81
183.701	9.9
183.921	-37.2
184.141	30.38
184.361	52.91
184.58	5.8
184.8	-49.49
185.02	61.1
185.239	159.4
185.459	42.67
185.679	83.63
185.898	-20.82
186.118	30.38
186.338	-16.73
186.557	-14.68
186.777	-22.87
186.997	65.19
187.216	77.48
187.436	-10.58
187.655	20.14
187.875	83.63
188.095	50.86
188.314	-14.68
188.534	20.14
188.753	57
188.973	52.91
189.192	61.1
189.412	46.76
189.631	-35.16
189.851	5.8
190.07	-10.58
190.29	59.05
190.509	65.19
190.729	-12.63
190.948	48.81
191.168	34.47
191.387	28.33
191.607	34.47
191.826	28.33
192.045	16.04
192.265	-14.68
192.484	50.86
192.704	83.63
192.923	32.43
193.142	57
193.362	-41.3
193.581	13.99
193.8	22.19
194.02	13.99
194.239	-31.06
194.458	-35.16
194.678	24.23
194.897	-39.25
195.116	11.95
195.335	50.86
195.555	-16.73
195.774	5.8
195.993	22.19
196.212	89.77
196.432	1.71
196.651	-12.63
196.87	24.23
197.089	36.52
197.308	-29.01
197.528	36.52
197.747	-47.44
197.966	24.23
198.185	13.99
198.404	-33.11
198.623	36.52
198.842	50.86
199.062	20.14
199.281	79.53
199.5	7.85
199.719	24.23
199.938	-6.49
200.157	93.87
200.376	67.24
200.595	65.19
200.814	9.9
201.033	20.14
201.252	46.76
201.471	-14.68
201.69	22.19
201.909	54.95
202.128	-41.3
202.347	-0.34
202.566	71.34
202.785	-29.01
203.004	-76.12
203.223	110.25
203.442	-35.16
203.661	1.71
203.879	3.75
204.098	9.9
204.317	-45.4
204.536	77.48
204.755	5.8
204.974	28.33
205.193	-20.82
205.411	-12.63
205.63	16.04
205.849	-2.39
206.068	61.1
206.287	34.47
206.505	52.91
206.724	7.85
206.943	50.86
207.162	26.28
207.381	-69.97
207.599	11.95
207.818	26.28
208.037	-47.44
208.255	32.43
208.474	5.8
208.693	-10.58
208.911	26.28
209.13	46.76
209.349	1.71
209.567	28.33
209.786	34.47
210.005	52.91
210.223	11.95
210.442	-26.96
210.661	-22.87
210.879	9.9
211.098	-104.79
211.316	85.67
211.535	18.09
211.753	-18.77
211.972	48.81
212.191	-20.82
212.409	65.19
212.628	24.23
212.846	13.99
213.065	20.14
213.283	34.47
213.502	-2.39
213.72	-18.77
213.938	63.15
214.157	18.09
214.375	3.75
214.594	97.96
214.812	-6.49
215.031	40.62
215.249	9.9
215.467	-12.63
215.686	1.71
215.904	-12.63
216.122	-10.58
216.341	34.47
216.559	-14.68
216.778	42.67
216.996	-29.01
217.214	9.9
217.432	73.39
217.651	38.57
217.869	-16.73
218.087	28.33
218.306	73.39
218.524	59.05
218.742	40.62
218.96	65.19
219.179	16.04
219.397	28.33
219.615	50.86
219.833	9.9
220.051	-4.44
220.27	13.99
220.488	38.57
220.706	-29.01
220.924	3.75
221.142	-10.58
221.36	3.75
221.578	16.04
221.796	-41.3
222.015	48.81
222.233	26.28
222.451	5.8
222.669	100.01
222.887	-8.53
223.105	1.71
223.323	7.85
223.541	-14.68
223.759	-33.11
223.977	7.85
224.195	61.1
224.413	-14.68
224.631	-31.06
224.849	-12.63
225.067	77.48
225.285	28.33
225.503	20.14
225.721	-31.06
225.939	-22.87
226.157	11.95
226.375	57
226.592	63.15
226.81	44.71
227.028	20.14
227.246	7.85
227.464	-2.39
227.682	149.16
227.9	20.14
228.117	93.87
228.335	-22.87
228.553	-41.3
228.771	40.62
228.989	-26.96
229.206	42.67
229.424	9.9
229.642	1.71
229.86	32.43
230.077	-35.16
230.295	-16.73
230.513	42.67
230.731	9.9
230.948	16.04
231.166	71.34
231.384	-14.68
231.601	20.14
231.819	-14.68
232.037	18.09
232.254	-22.87
232.472	32.43
232.689	-12.63
232.907	-0.34
233.125	-18.77
233.342	20.14
233.56	-10.58
233.777	13.99
233.995	40.62
234.213	38.57
234.43	7.85
234.648	48.81
234.865	83.63
235.083	38.57
235.3	71.34
235.518	46.76
235.735	54.95
235.953	28.33
236.17	16.04
236.388	20.14
236.605	-0.34
236.822	93.87
237.04	48.81
237.257	46.76
237.475	9.9
237.692	38.57
237.909	-35.16
238.127	-24.92
238.344	-6.49
238.562	30.38
238.779	11.95
238.996	-12.63
239.214	44.71
239.431	16.04
239.648	-26.96
239.865	-29.01
240.083	11.95
240.3	-24.92
240.517	16.04
240.735	54.95
240.952	3.75
241.169	77.48
241.386	5.8
241.603	1.71
241.821	-4.44
242.038	-2.39
242.255	48.81
242.472	-35.16
242.689	59.05
242.907	50.86
243.124	24.23
243.341	-4.44
243.558	-65.88
243.775	-10.58
243.992	-20.82
244.209	-55.64
244.426	85.67
244.643	59.05
244.86	-8.53
245.078	-24.92
245.295	65.19
245.512	28.33
245.729	5.8
245.946	30.38
246.163	5.8
246.38	1.71
246.597	7.85
246.814	65.19
247.031	-2.39
247.248	67.24
247.464	-59.73
247.681	26.28
247.898	59.05
248.115	-35.16
248.332	13.99
248.549	-12.63
248.766	34.47
248.983	50.86
249.2	16.04
249.417	-12.63
249.633	9.9
249.85	24.23
250.067	-10.58
250.284	-14.68
250.501	16.04
250.717	50.86
250.934	-29.01
251.151	28.33
251.368	-24.92
251.585	57
251.801	59.05
252.018	54.95
252.235	85.67
252.451	1.71
252.668	-31.06
252.885	-37.2
253.102	-12.63
253.318	-6.49
253.535	-0.34
253.752	-22.87
253.968	71.34
254.185	50.86
254.401	50.86
254.618	36.52
254.835	57
255.051	32.43
255.268	-12.63
255.484	22.19
255.701	16.04
255.917	54.95
256.134	-49.49
256.351	-16.73
256.567	42.67
256.784	-4.44
257	-29.01
257.217	24.23
257.433	-18.77
257.65	-16.73
257.866	48.81
258.082	5.8
258.299	32.43
258.515	-14.68
258.732	-26.96
258.948	-33.11
259.165	67.24
259.381	-82.26
259.597	36.52
259.814	-20.82
260.03	30.38
260.246	32.43
260.463	28.33
260.679	71.34
260.895	-22.87
261.112	81.58
261.328	48.81
261.544	50.86
261.761	54.95
261.977	16.04
262.193	-37.2
262.409	28.33
262.626	1.71
262.842	5.8
263.058	-0.34
263.274	57
263.49	22.19
263.707	-4.44
263.923	-6.49
264.139	-18.77
264.355	5.8
264.571	71.34
264.787	40.62
265.004	-72.02
265.22	34.47
265.436	71.34
265.652	-41.3
265.868	-20.82
266.084	-39.25
266.3	-49.49
266.516	48.81
266.732	71.34
266.948	38.57
267.164	-12.63
267.38	40.62
267.596	30.38
267.812	-45.4
268.028	-16.73
268.244	52.91
268.46	40.62
268.676	97.96
268.892	48.81
269.108	-31.06
269.324	18.09
269.54	18.09
269.756	30.38
269.972	54.95
270.188	-55.64
270.403	-14.68
270.619	13.99
270.835	-0.34
271.051	11.95
271.267	18.09
271.483	77.48
271.698	-8.53
271.914	32.43
272.13	9.9
272.346	20.14
272.562	71.34
272.777	13.99
272.993	30.38
273.209	42.67
273.425	75.43
273.64	42.67
273.856	22.19
274.072	46.76
274.287	5.8
274.503	7.85
274.719	-26.96
274.934	24.23
275.15	-35.16
275.366	-18.77
275.581	-20.82
275.797	-65.88
276.012	30.38
276.228	54.95
276.444	40.62
276.659	42.67
276.875	-6.49
277.09	34.47
277.306	91.82
277.521	-6.49
277.737	1.71
277.952	13.99
278.168	16.04
278.383	104.11
278.599	-6.49
278.814	24.23
279.03	52.91
279.245	79.53
279.461	13.99
279.676	3.75
279.892	65.19
280.107	104.11
280.322	-31.06
280.538	11.95
280.753	24.23
280.969	-6.49
281.184	59.05
281.399	-35.16
281.615	-6.49
281.83	-31.06
282.045	5.8
282.26	36.52
282.476	-16.73
282.691	5.8
282.906	-10.58
283.122	81.58
283.337	59.05
283.552	-22.87
283.767	11.95
283.983	93.87
284.198	61.1
284.413	126.63
284.628	1.71
284.843	-31.06
285.058	24.23
285.274	22.19
285.489	-6.49
285.704	5.8
285.919	40.62
286.134	38.57
286.349	-33.11
286.564	54.95
286.779	-18.77
286.995	3.75
287.21	44.71
287.425	42.67
287.64	5.8
287.855	5.8
288.07	-12.63
288.285	57
288.5	-4.44
288.715	32.43
288.93	-6.49
289.145	42.67
289.36	54.95
289.575	46.76
289.79	-14.68
290.004	32.43
290.219	7.85
290.434	7.85
290.649	52.91
290.864	24.23
291.079	48.81
291.294	20.14
291.509	40.62
291.724	3.75
291.938	77.48
292.153	16.04
292.368	1.71
292.583	54.95
292.798	40.62
293.012	85.67
293.227	-24.92
293.442	42.67
293.657	5.8
293.871	-41.3
294.086	-8.53
294.301	34.47
294.516	36.52
294.73	46.76
294.945	-49.49
295.16	30.38
295.374	46.76
295.589	59.05
295.804	-20.82
296.018	-2.39
296.233	-84.31
296.447	-8.53
296.662	-41.3
296.877	54.95
297.091	-12.63
297.306	-35.16
297.52	38.57
297.735	34.47
297.949	13.99
298.164	32.43
298.378	-4.44
298.593	114.34
298.807	75.43
299.022	-10.58
299.236	22.19
299.451	-18.77
299.665	9.9
299.88	30.38
300.094	59.05
300.309	20.14
300.523	-39.25
300.737	-18.77
300.952	59.05
301.166	-10.58
301.381	-53.59
301.595	-0.34
301.809	22.19
302.024	38.57
302.238	52.91
302.452	54.95
302.667	-14.68
302.881	13.99
303.095	67.24
303.309	67.24
303.524	22.19
303.738	3.75
303.952	40.62
304.166	3.75
304.381	-4.44
304.595	-8.53
304.809	-0.34
305.023	11.95
305.237	13.99
305.452	20.14
305.666	-6.49
305.88	34.47
306.094	81.58
306.308	20.14
306.522	-55.64
306.736	75.43
306.95	16.04
307.164	-10.58
307.379	61.1
307.593	52.91
307.807	9.9
308.021	24.23
308.235	-63.83
308.449	-55.64
308.663	18.09
308.877	16.04
309.091	-67.92
309.305	26.28
309.519	22.19
309.733	11.95
309.947	77.48
310.161	-4.44
310.374	40.62
310.588	36.52
310.802	-4.44
311.016	22.19
311.23	-18.77
311.444	28.33
311.658	18.09
311.872	24.23
312.085	26.28
312.299	-2.39
312.513	7.85
312.727	75.43
312.941	-14.68
313.154	-22.87
313.368	30.38
313.582	-22.87
313.796	44.71
314.009	22.19
314.223	40.62
314.437	26.28
314.651	65.19
314.864	40.62
315.078	73.39
315.292	61.1
315.505	-16.73
315.719	40.62
315.933	-24.92
316.146	28.33
316.36	-35.16
316.573	1.71
316.787	54.95
317.001	-31.06
317.214	26.28
317.428	3.75
317.641	-47.44
317.855	1.71
318.068	5.8
318.282	13.99
318.495	1.71
318.709	11.95
318.922	13.99
319.136	-4.44
319.349	50.86
319.563	61.1
319.776	34.47
319.99	38.57
320.203	69.29
320.417	36.52
320.63	-8.53
320.843	-31.06
321.057	-0.34
321.27	9.9
321.483	-10.58
321.697	48.81
321.91	-29.01
322.124	32.43
322.337	22.19
322.55	77.48
322.763	24.23
322.977	30.38
323.19	-20.82
323.403	40.62
323.617	22.19
323.83	30.38
324.043	-14.68
324.256	30.38
324.469	-2.39
324.683	42.67
324.896	75.43
325.109	91.82
325.322	-18.77
325.535	52.91
325.748	32.43
325.962	65.19
326.175	-6.49
326.388	40.62
326.601	-49.49
326.814	18.09
327.027	20.14
327.24	-8.53
327.453	42.67
327.666	22.19
327.879	54.95
328.092	63.15
328.305	-10.58
328.518	24.23
328.731	-33.11
328.944	24.23
329.157	26.28
329.37	-4.44
329.583	52.91
329.796	50.86
330.009	65.19
330.222	50.86
330.435	13.99
330.648	18.09
330.861	36.52
331.073	-39.25
331.286	11.95
331.499	-6.49
331.712	34.47
331.925	20.14
332.138	61.1
332.35	48.81
332.563	-10.58
332.776	30.38
332.989	-35.16
333.202	44.71
333.414	13.99
333.627	59.05
333.84	11.95
334.053	95.91
334.265	-2.39
334.478	-8.53
334.691	73.39
334.903	1.71
335.116	-33.11
335.329	3.75
335.541	11.95
335.754	91.82
335.966	11.95
336.179	32.43
336.392	-2.39
336.604	54.95
336.817	38.57
337.029	5.8
337.242	20.14
337.454	30.38
337.667	30.38
337.88	34.47
338.092	7.85
338.305	-20.82
338.517	-37.2
338.729	77.48
338.942	-8.53
339.154	50.86
339.367	24.23
339.579	-14.68
339.792	-8.53
340.004	48.81
340.217	40.62
340.429	38.57
340.641	42.67
340.854	85.67
341.066	-2.39
341.278	9.9
341.491	44.71
341.703	44.71
341.915	65.19
342.128	-20.82
342.34	63.15
342.552	-39.25
342.764	9.9
342.977	-4.44
343.189	16.04
343.401	22.19
343.613	1.71
343.826	40.62
344.038	28.33
344.25	30.38
344.462	-26.96
344.674	46.76
344.886	20.14
345.099	32.43
345.311	-16.73
345.523	5.8
345.735	13.99
345.947	36.52
346.159	50.86
346.371	26.28
346.583	9.9
346.795	44.71
347.007	85.67
347.219	50.86
347.431	24.23
347.643	54.95
347.855	42.67
348.067	-6.49
348.279	-18.77
348.491	5.8
348.703	54.95
348.915	46.76
349.127	59.05
349.339	-12.63
349.551	3.75
349.763	22.19
349.975	54.95
350.187	57
350.399	3.75
350.61	-12.63
350.822	3.75
351.034	46.76
351.246	-72.02
351.458	3.75
351.669	38.57
351.881	69.29
352.093	79.53
352.305	65.19
352.517	-47.44
352.728	22.19
352.94	-2.39
353.152	-33.11
353.363	-29.01
353.575	93.87
353.787	63.15
353.999	52.91
354.21	112.3
354.422	13.99
354.633	-4.44
354.845	54.95
355.057	42.67
355.268	46.76
355.48	57
355.692	85.67
355.903	-26.96
356.115	85.67
356.326	26.28
356.538	34.47
356.749	34.47
356.961	24.23
357.172	-16.73
357.384	22.19
357.595	67.24
357.807	44.71
358.018	102.06
358.23	28.33
358.441	9.9
358.653	44.71
358.864	73.39
359.075	-16.73
359.287	-14.68
359.498	42.67
359.709	75.43
359.921	-22.87
360.132	16.04
360.344	100.01
360.555	22.19
360.766	-22.87
360.977	24.23
361.189	26.28
361.4	-29.01
361.611	102.06
361.823	57
362.034	122.54
362.245	20.14
362.456	16.04
362.667	13.99
362.879	22.19
363.09	44.71
363.301	61.1
363.512	22.19
363.723	97.96
363.935	26.28
364.146	79.53
364.357	-6.49
364.568	-37.2
364.779	91.82
364.99	71.34
365.201	77.48
365.412	73.39
365.623	67.24
365.834	65.19
366.045	87.72
366.256	46.76
366.467	-47.44
366.678	28.33
366.889	16.04
367.1	30.38
367.311	87.72
367.522	-37.2
367.733	30.38
367.944	57
368.155	24.23
368.366	22.19
368.577	52.91
368.788	48.81
368.999	-0.34
369.209	30.38
369.42	46.76
369.631	61.1
369.842	-4.44
370.053	-33.11
370.264	44.71
370.474	-10.58
370.685	59.05
370.896	-14.68
371.107	13.99
371.317	100.01
371.528	18.09
371.739	87.72
371.95	67.24
372.16	46.76
372.371	28.33
372.582	81.58
372.792	102.06
373.003	112.3
373.214	65.19
373.424	54.95
373.635	28.33
373.846	59.05
374.056	-16.73
374.267	79.53
374.477	30.38
374.688	-2.39
374.898	11.95
375.109	9.9
375.319	16.04
375.53	75.43
375.74	38.57
375.951	38.57
376.161	16.04
376.372	57
376.582	61.1
376.793	65.19
377.003	102.06
377.214	48.81
377.424	52.91
377.635	42.67
377.845	89.77
378.055	34.47
378.266	75.43
378.476	7.85
378.686	-4.44
378.897	57
379.107	100.01
379.317	34.47
379.528	48.81
379.738	-0.34
379.948	108.2
380.158	44.71
380.369	79.53
380.579	9.9
380.789	-8.53
380.999	-18.77
381.21	59.05
381.42	36.52
381.63	32.43
381.84	118.44
382.05	-2.39
382.261	77.48
382.471	63.15
382.681	126.63
382.891	28.33
383.101	-49.49
383.311	73.39
383.521	52.91
383.731	7.85
383.941	112.3
384.151	36.52
384.361	87.72
384.571	73.39
384.781	-16.73
384.991	73.39
385.201	71.34
385.411	-14.68
385.621	69.29
385.831	52.91
386.041	44.71
386.251	79.53
386.461	54.95
386.671	-10.58
386.881	73.39
387.091	5.8
387.301	77.48
387.511	44.71
387.72	97.96
387.93	-35.16
388.14	42.67
388.35	50.86
388.56	73.39
388.769	44.71
388.979	54.95
389.189	42.67
389.399	18.09
389.609	13.99
389.818	63.15
390.028	69.29
390.238	36.52
390.447	-37.2
390.657	87.72
390.867	16.04
391.076	-22.87
391.286	1.71
391.496	36.52
391.705	73.39
391.915	89.77
392.125	30.38
392.334	-14.68
392.544	32.43
392.753	20.14
392.963	-20.82
393.172	57
393.382	11.95
393.591	71.34
393.801	40.62
394.01	46.76
394.22	13.99
394.429	65.19
394.639	77.48
394.848	69.29
395.058	48.81
395.267	63.15
395.477	-43.35
395.686	91.82
395.895	46.76
396.105	81.58
396.314	130.73
396.524	97.96
396.733	32.43
396.942	-22.87
397.152	28.33
397.361	5.8
397.57	46.76
397.78	67.24
397.989	13.99
398.198	126.63
398.407	67.24
398.617	46.76
398.826	-18.77
399.035	77.48
399.244	120.49
399.453	83.63
399.663	65.19
399.872	77.48
400.081	44.71
400.29	22.19
400.499	28.33
400.708	122.54
400.917	26.28
401.127	61.1
401.336	89.77
401.545	89.77
401.754	63.15
401.963	100.01
402.172	112.3
402.381	100.01
402.59	87.72
402.799	61.1
403.008	87.72
403.217	116.39
403.426	93.87
403.635	110.25
403.844	50.86
404.053	65.19
404.262	69.29
404.471	83.63
404.68	116.39
404.888	69.29
405.097	91.82
405.306	44.71
405.515	87.72
405.724	106.15
405.933	114.34
406.142	173.74
406.35	188.07
406.559	106.15
406.768	108.2
406.977	124.58
407.185	130.73
407.394	79.53
407.603	188.07
407.812	147.11
408.02	165.54
408.229	233.13
408.438	122.54
408.646	155.3
408.855	202.41
409.064	188.07
409.272	261.8
409.481	153.26
409.69	202.41
409.898	159.4
410.107	196.26
410.315	169.64
410.524	190.12
410.733	229.03
410.941	169.64
411.15	204.46
411.358	257.7
411.567	237.22
411.775	259.75
411.984	337.57
412.192	272.04
412.401	290.47
412.609	347.81
412.818	298.66
413.026	315.05
413.234	364.2
413.443	353.96
413.651	341.67
413.86	300.71
414.068	399.01
414.276	437.92
414.485	347.81
414.693	370.34
414.901	458.4
415.11	454.31
415.318	503.46
415.526	530.08
415.734	491.17
415.943	435.88
416.151	513.7
416.359	556.71
416.567	521.89
416.776	540.32
416.984	603.81
417.192	597.67
417.4	560.8
417.608	630.43
417.817	644.77
418.025	714.4
418.233	728.74
418.441	706.21
418.649	691.87
418.857	816.8
419.065	781.98
419.273	806.56
419.481	822.94
419.689	925.34
419.897	935.58
420.105	931.48
420.313	954.01
420.521	1052.31
420.729	1042.07
420.937	1083.03
421.145	1048.22
421.353	1193.62
421.561	1234.58
421.769	1277.59
421.977	1203.86
422.185	1253.02
422.393	1363.61
422.601	1416.85
422.809	1410.71
423.017	1504.92
423.224	1490.58
423.432	1482.39
423.64	1474.2
423.848	1746.58
424.056	1676.95
424.263	1724.05
424.471	1683.09
424.679	1824.4
424.887	1963.66
425.094	1982.09
425.302	2045.58
425.51	2100.87
425.718	2188.94
425.925	2143.88
426.133	2221.7
426.341	2346.63
426.548	2416.26
426.756	2561.67
426.964	2432.65
427.171	2533
427.379	2563.72
427.586	2745.98
427.794	2875.01
428.001	2903.68
428.209	3128.95
428.417	3014.27
428.624	3180.15
428.832	3149.43
429.039	3194.49
429.247	3151.48
429.454	3499.64
429.662	3751.54
429.869	3550.84
430.076	3802.74
430.284	3663.47
430.491	3731.06
430.699	4019.82
430.906	3919.47
431.114	4150.89
431.321	4265.58
431.528	4296.3
431.736	4353.64
431.943	4726.37
432.15	4732.51
432.358	4736.61
432.565	4763.23
432.772	4937.31
432.979	5158.49
433.187	5160.54
433.394	5217.88
433.601	5422.68
433.808	5555.8
434.016	5580.37
434.223	5832.27
434.43	6082.13
434.637	6088.27
434.844	6420.04
435.052	6573.64
435.259	6510.15
435.466	6577.73
435.673	6608.45
435.88	6805.06
436.087	7212.6
436.294	7482.94
436.501	7239.23
436.708	7294.52
436.915	7607.86
437.122	7839.28
437.329	7837.24
437.537	8062.51
437.743	8154.67
437.95	8130.09
438.157	8572.46
438.364	8875.56
438.571	8736.29
438.778	8797.73
438.985	9829.91
439.192	9293.34
439.399	9707.03
439.606	9184.8
439.813	9807.38
440.02	10804.74
440.227	10481.16
440.433	10321.42
440.64	10642.95
440.847	10423.82
441.054	10817.03
441.261	11517.43
441.467	11615.74
441.674	11636.22
441.881	12060.15
442.088	11945.46
442.294	12049.91
442.501	12035.57
442.708	12602.86
442.914	12875.24
443.121	13401.57
443.328	13108.71
443.534	14087.64
443.741	13759.96
443.948	13506.01
444.154	14435.79
444.361	14349.78
444.568	14652.88
444.774	14331.34
444.981	14560.72
445.187	15144.39
445.394	15809.98
445.6	15556.03
445.807	16932.26
446.013	16418.22
446.22	16491.95
446.426	17364.39
446.633	17145.25
446.839	17649.05
447.046	17141.16
447.252	18238.87
447.459	18163.09
447.665	18226.58
447.871	18902.41
448.078	19449.22
448.284	18910.6
448.491	19301.76
448.697	20102.52
448.903	20544.88
449.11	20301.17
449.316	20145.53
449.522	20465.01
449.728	20841.84
449.935	21167.46
450.141	21116.26
450.347	21677.41
450.553	20718.96
450.76	21126.5
450.966	22056.28
451.172	21640.54
451.378	22158.68
451.584	21628.26
451.791	22076.76
451.997	22160.73
452.203	22500.69
452.409	22629.71
452.615	22433.11
452.821	21626.21
453.027	21419.36
453.233	22381.91
453.44	21409.12
453.646	21771.61
453.852	21794.14
454.058	21976.41
454.264	21456.23
454.47	21708.13
454.676	21398.88
454.882	22152.54
455.088	20227.45
455.294	20223.35
455.5	20895.08
455.705	20944.24
455.911	20194.68
456.117	19801.47
456.323	19398.02
456.529	18539.92
456.735	19375.49
456.941	18382.23
457.147	18251.16
457.352	17632.67
457.558	17683.87
457.764	17612.19
457.97	17206.69
458.176	17139.11
458.381	16852.39
458.587	16006.58
458.793	16037.3
458.999	15072.71
459.204	16367.02
459.41	15885.75
459.616	14867.91
459.821	14878.15
460.027	14736.84
460.233	14568.91
460.438	13800.92
460.644	13714.91
460.85	13405.66
461.055	13131.23
461.261	13235.68
461.466	11945.46
461.672	11820.53
461.878	12574.19
462.083	11689.46
462.289	11308.54
462.494	11429.37
462.7	10937.86
462.905	10679.82
463.111	11001.35
463.316	11040.26
463.522	10753.54
463.727	10685.96
463.932	10710.54
464.138	10884.61
464.343	10874.37
464.549	10495.5
464.754	10774.02
464.959	10681.86
465.165	10608.14
465.37	10038.8
465.575	9807.38
465.781	10182.16
465.986	10272.27
466.191	9899.54
466.397	9639.45
466.602	9295.39
466.807	9649.69
467.012	9598.49
467.218	9612.82
467.423	9328.16
467.628	9375.26
467.833	9936.4
468.038	9813.52
468.244	9408.03
468.449	9741.85
468.654	9485.85
