Data from USB4F104151__289__14-02-44-096.txt Node

Date: Thu Mar 13 14:02:44 EDT 2025
User: louis
Spectrometer: USB4F10415
Trigger mode: 4
Integration Time (sec): 1.000000E-2
Scans to average: 1
Electric dark correction enabled: true
Nonlinearity correction enabled: false
Boxcar width: 0
XAxis mode: Wavelengths
Number of Pixels in Spectrum: 3648
>>>>>Begin Spectral Data<<<<<
178.204	-57.17
178.424	-57.17
178.644	-57.17
178.864	-36.69
179.084	-16.21
179.304	-32.6
179.524	65.71
179.744	14.51
179.964	0.17
180.184	16.55
180.404	-12.12
180.624	-40.79
180.844	65.71
181.064	-24.4
181.283	-14.17
181.503	-24.4
181.723	-14.17
181.943	-26.45
182.163	0.17
182.383	-24.4
182.602	-57.17
182.822	18.6
183.042	-30.55
183.262	-5.97
183.482	-57.17
183.701	57.51
183.921	-22.36
184.141	4.27
184.361	-3.93
184.58	0.17
184.8	-12.12
185.02	-8.02
185.239	57.51
185.459	-44.88
185.679	-63.32
185.898	-20.31
186.118	28.84
186.338	0.17
186.557	8.36
186.777	-28.5
186.997	49.32
187.216	-18.26
187.436	-40.79
187.655	34.99
187.875	-3.93
188.095	-32.6
188.314	14.51
188.534	-5.97
188.753	-46.93
188.973	-32.6
189.192	0.17
189.412	-59.22
189.631	-26.45
189.851	-36.69
190.07	-10.07
190.29	-79.7
190.509	18.6
190.729	108.71
190.948	63.66
191.168	34.99
191.387	-16.21
191.607	-44.88
191.826	43.18
192.045	8.36
192.265	-59.22
192.484	-10.07
192.704	53.42
192.923	-106.32
193.142	47.27
193.362	43.18
193.581	16.55
193.8	-8.02
194.02	-1.88
194.239	4.27
194.458	16.55
194.678	-10.07
194.897	4.27
195.116	0.17
195.335	59.56
195.555	0.17
195.774	73.9
195.993	61.61
196.212	-8.02
196.432	2.22
196.651	32.94
196.87	4.27
197.089	-16.21
197.308	-32.6
197.528	26.79
197.747	6.31
197.966	-24.4
198.185	8.36
198.404	-59.22
198.623	47.27
198.842	-32.6
199.062	8.36
199.281	77.99
199.5	12.46
199.719	0.17
199.938	41.13
200.157	106.67
200.376	51.37
200.595	-8.02
200.814	26.79
201.033	-16.21
201.252	18.6
201.471	34.99
201.69	34.99
201.909	2.22
202.128	2.22
202.347	59.56
202.566	0.17
202.785	-38.74
203.004	-57.17
203.223	6.31
203.442	10.41
203.661	-22.36
203.879	-8.02
204.098	-3.93
204.317	16.55
204.536	49.32
204.755	12.46
204.974	43.18
205.193	-42.84
205.411	98.47
205.63	41.13
205.849	-14.17
206.068	-38.74
206.287	49.32
206.505	10.41
206.724	-10.07
206.943	8.36
207.162	0.17
207.381	-10.07
207.599	2.22
207.818	106.67
208.037	28.84
208.255	45.23
208.474	26.79
208.693	-46.93
208.911	4.27
209.13	16.55
209.349	98.47
209.567	-34.64
209.786	18.6
210.005	26.79
210.223	-36.69
210.442	-51.03
210.661	-16.21
210.879	-10.07
211.098	-10.07
211.316	39.08
211.535	57.51
211.753	-40.79
211.972	34.99
212.191	49.32
212.409	-36.69
212.628	-8.02
212.846	24.75
213.065	-16.21
213.283	-28.5
213.502	-24.4
213.72	49.32
213.938	49.32
214.157	-3.93
214.375	28.84
214.594	24.75
214.812	96.43
215.031	-34.64
215.249	-8.02
215.467	-42.84
215.686	-81.75
215.904	53.42
216.122	-18.26
216.341	32.94
216.559	12.46
216.778	34.99
216.996	-16.21
217.214	155.82
217.432	12.46
217.651	-89.94
217.869	26.79
218.087	34.99
218.306	-12.12
218.524	90.28
218.742	75.95
218.96	-24.4
219.179	-32.6
219.397	20.65
219.615	18.6
219.833	73.9
220.051	2.22
220.27	39.08
220.488	0.17
220.706	34.99
220.924	-1.88
221.142	26.79
221.36	2.22
221.578	-1.88
221.796	34.99
222.015	-20.31
222.233	4.27
222.451	-65.36
222.669	-14.17
222.887	18.6
223.105	-22.36
223.323	88.23
223.541	20.65
223.759	-24.4
223.977	53.42
224.195	32.94
224.413	-8.02
224.631	4.27
224.849	12.46
225.067	0.17
225.285	-8.02
225.503	61.61
225.721	-61.27
225.939	43.18
226.157	61.61
226.375	34.99
226.592	75.95
226.81	37.03
227.028	6.31
227.246	-5.97
227.464	39.08
227.682	0.17
227.9	-48.98
228.117	32.94
228.335	-8.02
228.553	4.27
228.771	20.65
228.989	65.71
229.206	57.51
229.424	24.75
229.642	-16.21
229.86	53.42
230.077	55.47
230.295	-16.21
230.513	-28.5
230.731	-10.07
230.948	12.46
231.166	98.47
231.384	12.46
231.601	10.41
231.819	47.27
232.037	18.6
232.254	49.32
232.472	-8.02
232.689	-8.02
232.907	2.22
233.125	4.27
233.342	-38.74
233.56	-38.74
233.777	-44.88
233.995	-8.02
234.213	-12.12
234.43	59.56
234.648	-10.07
234.865	-14.17
235.083	24.75
235.3	4.27
235.518	24.75
235.735	18.6
235.953	-3.93
236.17	-48.98
236.388	-3.93
236.605	65.71
236.822	10.41
237.04	14.51
237.257	18.6
237.475	57.51
237.692	47.27
237.909	-10.07
238.127	80.04
238.344	-44.88
238.562	-12.12
238.779	-5.97
238.996	-1.88
239.214	16.55
239.431	32.94
239.648	-20.31
239.865	37.03
240.083	14.51
240.3	-28.5
240.517	8.36
240.735	8.36
240.952	37.03
241.169	-3.93
241.386	34.99
241.603	-10.07
241.821	0.17
242.038	32.94
242.255	41.13
242.472	59.56
242.689	20.65
242.907	49.32
243.124	16.55
243.341	47.27
243.558	37.03
243.775	-18.26
243.992	-14.17
244.209	-16.21
244.426	14.51
244.643	49.32
244.86	-34.64
245.078	-46.93
245.295	88.23
245.512	-3.93
245.729	-30.55
245.946	55.47
246.163	14.51
246.38	-30.55
246.597	37.03
246.814	16.55
247.031	-8.02
247.248	-40.79
247.464	-65.36
247.681	69.8
247.898	2.22
248.115	20.65
248.332	8.36
248.549	-16.21
248.766	24.75
248.983	0.17
249.2	18.6
249.417	86.19
249.633	-30.55
249.85	-30.55
250.067	73.9
250.284	71.85
250.501	22.7
250.717	-14.17
250.934	2.22
251.151	49.32
251.368	12.46
251.585	59.56
251.801	65.71
252.018	-5.97
252.235	77.99
252.451	-46.93
252.668	22.7
252.885	20.65
253.102	-28.5
253.318	41.13
253.535	-46.93
253.752	-12.12
253.968	69.8
254.185	41.13
254.401	14.51
254.618	16.55
254.835	34.99
255.051	26.79
255.268	59.56
255.484	77.99
255.701	-24.4
255.917	-22.36
256.134	8.36
256.351	26.79
256.567	30.89
256.784	49.32
257	6.31
257.217	-79.7
257.433	-46.93
257.65	-24.4
257.866	71.85
258.082	28.84
258.299	-38.74
258.515	18.6
258.732	20.65
258.948	4.27
259.165	20.65
259.381	26.79
259.597	10.41
259.814	43.18
260.03	-16.21
260.246	26.79
260.463	49.32
260.679	-48.98
260.895	41.13
261.112	2.22
261.328	0.17
261.544	-24.4
261.761	34.99
261.977	75.95
262.193	-32.6
262.409	34.99
262.626	92.33
262.842	26.79
263.058	24.75
263.274	51.37
263.49	-1.88
263.707	-28.5
263.923	45.23
264.139	49.32
264.355	2.22
264.571	-24.4
264.787	2.22
265.004	47.27
265.22	-44.88
265.436	-14.17
265.652	-12.12
265.868	43.18
266.084	30.89
266.3	-18.26
266.516	14.51
266.732	24.75
266.948	-8.02
267.164	18.6
267.38	-55.12
267.596	-34.64
267.812	26.79
268.028	0.17
268.244	14.51
268.46	4.27
268.676	28.84
268.892	41.13
269.108	51.37
269.324	16.55
269.54	-40.79
269.756	6.31
269.972	-28.5
270.188	49.32
270.403	22.7
270.619	4.27
270.835	-20.31
271.051	43.18
271.267	73.9
271.483	116.9
271.698	59.56
271.914	20.65
272.13	75.95
272.346	-18.26
272.562	32.94
272.777	22.7
272.993	20.65
273.209	0.17
273.425	10.41
273.64	8.36
273.856	12.46
274.072	-38.74
274.287	10.41
274.503	26.79
274.719	24.75
274.934	22.7
275.15	-55.12
275.366	4.27
275.581	67.75
275.797	16.55
276.012	45.23
276.228	28.84
276.444	-36.69
276.659	67.75
276.875	34.99
277.09	-8.02
277.306	88.23
277.521	32.94
277.737	20.65
277.952	57.51
278.168	49.32
278.383	34.99
278.599	20.65
278.814	2.22
279.03	22.7
279.245	18.6
279.461	65.71
279.676	102.57
279.892	-24.4
280.107	-79.7
280.322	82.09
280.538	34.99
280.753	32.94
280.969	43.18
281.184	32.94
281.399	-30.55
281.615	32.94
281.83	-20.31
282.045	67.75
282.26	-14.17
282.476	4.27
282.691	6.31
282.906	43.18
283.122	82.09
283.337	100.52
283.552	10.41
283.767	0.17
283.983	75.95
284.198	2.22
284.413	88.23
284.628	-1.88
284.843	24.75
285.058	41.13
285.274	-40.79
285.489	69.8
285.704	-42.84
285.919	53.42
286.134	92.33
286.349	0.17
286.564	6.31
286.779	90.28
286.995	41.13
287.21	-5.97
287.425	41.13
287.64	-22.36
287.855	-16.21
288.07	24.75
288.285	45.23
288.5	55.47
288.715	-28.5
288.93	14.51
289.145	61.61
289.36	71.85
289.575	75.95
289.79	77.99
290.004	51.37
290.219	18.6
290.434	-1.88
290.649	47.27
290.864	-18.26
291.079	41.13
291.294	-5.97
291.509	-16.21
291.724	49.32
291.938	61.61
292.153	98.47
292.368	10.41
292.583	20.65
292.798	61.61
293.012	-12.12
293.227	30.89
293.442	-8.02
293.657	12.46
293.871	-16.21
294.086	28.84
294.301	104.62
294.516	41.13
294.73	-24.4
294.945	-1.88
295.16	71.85
295.374	-16.21
295.589	59.56
295.804	20.65
296.018	-12.12
296.233	26.79
296.447	22.7
296.662	14.51
296.877	8.36
297.091	39.08
297.306	0.17
297.52	55.47
297.735	-1.88
297.949	20.65
298.164	47.27
298.378	4.27
298.593	14.51
298.807	-22.36
299.022	0.17
299.236	65.71
299.451	94.38
299.665	26.79
299.88	-18.26
300.094	-44.88
300.309	24.75
300.523	-38.74
300.737	32.94
300.952	49.32
301.166	-55.12
301.381	-1.88
301.595	18.6
301.809	8.36
302.024	16.55
302.238	-5.97
302.452	53.42
302.667	45.23
302.881	24.75
303.095	43.18
303.309	-1.88
303.524	0.17
303.738	39.08
303.952	-5.97
304.166	-1.88
304.381	-1.88
304.595	86.19
304.809	32.94
305.023	-96.08
305.237	20.65
305.452	16.55
305.666	-5.97
305.88	18.6
306.094	4.27
306.308	14.51
306.522	-5.97
306.736	22.7
306.95	24.75
307.164	18.6
307.379	-8.02
307.593	73.9
307.807	45.23
308.021	39.08
308.235	28.84
308.449	6.31
308.663	37.03
308.877	71.85
309.091	-8.02
309.305	86.19
309.519	32.94
309.733	12.46
309.947	20.65
310.161	96.43
310.374	80.04
310.588	67.75
310.802	20.65
311.016	53.42
311.23	-16.21
311.444	-44.88
311.658	24.75
311.872	6.31
312.085	49.32
312.299	28.84
312.513	24.75
312.727	69.8
312.941	45.23
313.154	-55.12
313.368	77.99
313.582	65.71
313.796	80.04
314.009	18.6
314.223	8.36
314.437	-53.08
314.651	-16.21
314.864	32.94
315.078	118.95
315.292	-32.6
315.505	24.75
315.719	24.75
315.933	20.65
316.146	10.41
316.36	10.41
316.573	0.17
316.787	-32.6
317.001	-30.55
317.214	-22.36
317.428	47.27
317.641	39.08
317.855	-30.55
318.068	77.99
318.282	-5.97
318.495	32.94
318.709	47.27
318.922	10.41
319.136	47.27
319.349	-32.6
319.563	75.95
319.776	20.65
319.99	47.27
320.203	41.13
320.417	65.71
320.63	34.99
320.843	-40.79
321.057	59.56
321.27	45.23
321.483	8.36
321.697	-16.21
321.91	34.99
322.124	24.75
322.337	28.84
322.55	-5.97
322.763	24.75
322.977	-48.98
323.19	61.61
323.403	12.46
323.617	22.7
323.83	30.89
324.043	20.65
324.256	10.41
324.469	45.23
324.683	-91.99
324.896	55.47
325.109	18.6
325.322	61.61
325.535	82.09
325.748	8.36
325.962	-22.36
326.175	92.33
326.388	49.32
326.601	-18.26
326.814	82.09
327.027	49.32
327.24	-16.21
327.453	10.41
327.666	-20.31
327.879	18.6
328.092	143.53
328.305	-1.88
328.518	-69.46
328.731	73.9
328.944	24.75
329.157	-10.07
329.37	-53.08
329.583	30.89
329.796	51.37
330.009	-61.27
330.222	53.42
330.435	121
330.648	65.71
330.861	-38.74
331.073	121
331.286	49.32
331.499	6.31
331.712	73.9
331.925	49.32
332.138	37.03
332.35	55.47
332.563	6.31
332.776	41.13
332.989	30.89
333.202	-22.36
333.414	0.17
333.627	-1.88
333.84	0.17
334.053	-38.74
334.265	-48.98
334.478	16.55
334.691	18.6
334.903	-44.88
335.116	-1.88
335.329	34.99
335.541	-3.93
335.754	16.55
335.966	108.71
336.179	86.19
336.392	-87.89
336.604	-3.93
336.817	43.18
337.029	77.99
337.242	59.56
337.454	41.13
337.667	-30.55
337.88	90.28
338.092	26.79
338.305	47.27
338.517	22.7
338.729	75.95
338.942	-67.41
339.154	-12.12
339.367	-20.31
339.579	30.89
339.792	-5.97
340.004	45.23
340.217	51.37
340.429	49.32
340.641	77.99
340.854	2.22
341.066	32.94
341.278	55.47
341.491	-14.17
341.703	37.03
341.915	28.84
342.128	-24.4
342.34	84.14
342.552	53.42
342.764	-46.93
342.977	65.71
343.189	71.85
343.401	4.27
343.613	-10.07
343.826	24.75
344.038	47.27
344.25	41.13
344.462	30.89
344.674	16.55
344.886	82.09
345.099	32.94
345.311	121
345.523	-8.02
345.735	-28.5
345.947	18.6
346.159	65.71
346.371	22.7
346.583	45.23
346.795	6.31
347.007	2.22
347.219	37.03
347.431	37.03
347.643	4.27
347.855	6.31
348.067	18.6
348.279	2.22
348.491	75.95
348.703	18.6
348.915	94.38
349.127	-30.55
349.339	82.09
349.551	-32.6
349.763	41.13
349.975	61.61
350.187	51.37
350.399	26.79
350.61	67.75
350.822	14.51
351.034	-8.02
351.246	-22.36
351.458	80.04
351.669	41.13
351.881	14.51
352.093	12.46
352.305	0.17
352.517	26.79
352.728	0.17
352.94	16.55
353.152	8.36
353.363	57.51
353.575	-5.97
353.787	73.9
353.999	59.56
354.21	24.75
354.422	12.46
354.633	32.94
354.845	-57.17
355.057	45.23
355.268	73.9
355.48	123.05
355.692	-8.02
355.903	59.56
356.115	16.55
356.326	49.32
356.538	47.27
356.749	63.66
356.961	47.27
357.172	32.94
357.384	12.46
357.595	77.99
357.807	18.6
358.018	-14.17
358.23	30.89
358.441	4.27
358.653	-24.4
358.864	41.13
359.075	-5.97
359.287	32.94
359.498	73.9
359.709	73.9
359.921	16.55
360.132	30.89
360.344	90.28
360.555	37.03
360.766	82.09
360.977	-3.93
361.189	-20.31
361.4	12.46
361.611	-1.88
361.823	34.99
362.034	-10.07
362.245	26.79
362.456	63.66
362.667	26.79
362.879	24.75
363.09	49.32
363.301	6.31
363.512	28.84
363.723	63.66
363.935	59.56
364.146	16.55
364.357	28.84
364.568	51.37
364.779	41.13
364.99	-10.07
365.201	-24.4
365.412	12.46
365.623	80.04
365.834	114.86
366.045	34.99
366.256	59.56
366.467	67.75
366.678	67.75
366.889	22.7
367.1	-16.21
367.311	75.95
367.522	98.47
367.733	0.17
367.944	45.23
368.155	45.23
368.366	71.85
368.577	53.42
368.788	2.22
368.999	24.75
369.209	53.42
369.42	82.09
369.631	47.27
369.842	-10.07
370.053	67.75
370.264	45.23
370.474	45.23
370.685	26.79
370.896	6.31
371.107	82.09
371.317	65.71
371.528	41.13
371.739	26.79
371.95	110.76
372.16	45.23
372.371	41.13
372.582	-14.17
372.792	18.6
373.003	32.94
373.214	-8.02
373.424	32.94
373.635	16.55
373.846	10.41
374.056	10.41
374.267	51.37
374.477	49.32
374.688	55.47
374.898	51.37
375.109	16.55
375.319	45.23
375.53	92.33
375.74	45.23
375.951	88.23
376.161	-14.17
376.372	-3.93
376.582	47.27
376.793	0.17
377.003	-8.02
377.214	39.08
377.424	-24.4
377.635	49.32
377.845	47.27
378.055	96.43
378.266	49.32
378.476	82.09
378.686	69.8
378.897	57.51
379.107	0.17
379.317	43.18
379.528	49.32
379.738	45.23
379.948	12.46
380.158	-16.21
380.369	57.51
380.579	-1.88
380.789	45.23
380.999	26.79
381.21	94.38
381.42	75.95
381.63	32.94
381.84	51.37
382.05	57.51
382.261	86.19
382.471	24.75
382.681	51.37
382.891	45.23
383.101	4.27
383.311	43.18
383.521	49.32
383.731	8.36
383.941	65.71
384.151	18.6
384.361	24.75
384.571	116.9
384.781	77.99
384.991	12.46
385.201	86.19
385.411	106.67
385.621	32.94
385.831	-20.31
386.041	20.65
386.251	77.99
386.461	0.17
386.671	16.55
386.881	55.47
387.091	-20.31
387.301	41.13
387.511	-22.36
387.72	51.37
387.93	32.94
388.14	84.14
388.35	10.41
388.56	65.71
388.769	16.55
388.979	18.6
389.189	8.36
389.399	51.37
389.609	65.71
389.818	57.51
390.028	2.22
390.238	18.6
390.447	65.71
390.657	65.71
390.867	8.36
391.076	51.37
391.286	49.32
391.496	28.84
391.705	-14.17
391.915	125.1
392.125	88.23
392.334	49.32
392.544	84.14
392.753	71.85
392.963	65.71
393.172	47.27
393.382	18.6
393.591	61.61
393.801	2.22
394.01	65.71
394.22	94.38
394.429	123.05
394.639	18.6
394.848	131.24
395.058	100.52
395.267	100.52
395.477	59.56
395.686	143.53
395.895	139.43
396.105	37.03
396.314	168.1
396.524	34.99
396.733	125.1
396.942	51.37
397.152	61.61
397.361	100.52
397.57	6.31
397.78	100.52
397.989	57.51
398.198	73.9
398.407	110.76
398.617	104.62
398.826	100.52
399.035	16.55
399.244	125.1
399.453	141.48
399.663	125.1
399.872	55.47
400.081	131.24
400.29	174.25
400.499	53.42
400.708	116.9
400.917	24.75
401.127	133.29
401.336	34.99
401.545	53.42
401.754	106.67
401.963	43.18
402.172	65.71
402.381	141.48
402.59	37.03
402.799	157.86
403.008	73.9
403.217	135.34
403.426	100.52
403.635	125.1
403.844	90.28
404.053	61.61
404.262	143.53
404.471	159.91
404.68	114.86
404.888	151.72
405.097	75.95
405.306	145.58
405.515	28.84
405.724	196.78
405.933	127.14
406.142	180.39
406.35	166.06
406.559	166.06
406.768	47.27
406.977	217.26
407.185	188.58
407.394	192.68
407.603	168.1
407.812	184.49
408.02	225.45
408.229	200.87
408.438	180.39
408.646	274.6
408.855	243.88
409.064	323.75
409.272	196.78
409.481	321.7
409.69	286.89
409.898	266.41
410.107	313.51
410.315	233.64
410.524	290.98
410.733	333.99
410.941	344.23
411.15	436.39
411.358	352.42
411.567	407.72
411.775	336.04
411.984	358.57
412.192	424.1
412.401	442.53
412.609	405.67
412.818	387.24
413.026	491.68
413.234	483.49
413.443	524.45
413.651	510.11
413.86	532.64
414.068	530.59
414.276	542.88
414.485	610.47
414.693	602.27
414.901	632.99
415.11	606.37
415.318	635.04
415.526	651.42
415.734	692.38
415.943	770.21
416.151	678.05
416.359	733.34
416.567	868.51
416.776	821.41
416.984	845.98
417.192	921.76
417.4	876.7
417.608	852.13
417.817	932
418.025	946.33
418.233	1024.16
418.441	1081.5
418.649	1083.55
418.857	1069.21
419.065	1138.84
419.273	1274.01
419.481	1265.82
419.689	1382.55
419.897	1388.69
420.105	1421.46
420.313	1515.67
420.521	1530
420.729	1499.28
420.937	1618.07
421.145	1681.55
421.353	1757.33
421.561	1796.24
421.769	1874.06
421.977	1953.93
422.185	1886.35
422.393	2125.96
422.601	2068.62
422.809	1982.6
423.017	2132.11
423.224	2156.68
423.432	2277.51
423.64	2265.22
423.848	2439.3
424.056	2427.01
424.263	2693.25
424.471	2705.54
424.679	2730.11
424.887	2834.56
425.094	3000.44
425.302	2826.37
425.51	2957.44
425.718	3147.9
425.925	3119.23
426.133	3375.22
426.341	3479.67
426.548	3631.22
426.756	3676.27
426.964	3549.3
427.171	3842.16
427.379	3915.89
427.586	4141.16
427.794	4294.76
428.001	4360.3
428.209	4532.33
428.417	4632.68
428.624	4796.51
428.832	4739.17
429.039	4759.65
429.247	4595.81
429.454	5159
429.662	5691.48
429.869	5191.77
430.076	5519.45
430.284	5400.66
430.491	5699.67
430.699	5875.79
430.906	5980.24
431.114	5961.81
431.321	6182.99
431.528	6500.42
431.736	6737.99
431.943	6998.08
432.15	6817.86
432.358	6934.59
432.565	7309.37
432.772	7231.55
432.979	7725.11
433.187	7630.9
433.394	7757.88
433.601	8284.2
433.808	8394.79
434.016	8228.91
434.223	8581.16
434.43	9240.61
434.637	9142.3
434.844	9631.77
435.052	9850.9
435.259	9742.36
435.466	9840.66
435.673	9652.25
435.88	10338.32
436.087	10807.3
436.294	10856.45
436.501	10743.81
436.708	10766.34
436.915	10969.09
437.122	11909.11
437.329	11765.75
437.537	12173.3
437.743	12107.76
437.95	12232.69
438.157	12802.02
438.364	13135.84
438.571	13268.96
438.778	13266.91
438.985	14622.67
439.192	13963.22
439.399	14516.17
439.606	14196.69
439.813	14682.06
440.02	15812.54
440.227	15536.06
440.433	15212.48
440.64	15900.6
440.847	15726.52
441.054	16238.51
441.261	17035.17
441.467	16631.72
441.674	17338.27
441.881	18081.69
442.088	17999.77
442.294	17420.19
442.501	18091.93
442.708	18571.15
442.914	19285.89
443.121	20043.64
443.328	19574.66
443.534	20803.44
443.741	20387.7
443.948	20057.98
444.154	21585.76
444.361	21290.85
444.568	21606.24
444.774	21602.15
444.981	21837.66
445.187	22130.52
445.394	23529.28
445.6	23150.41
445.807	25343.78
446.013	24352.57
446.22	24551.22
446.426	25730.85
446.633	25792.29
446.839	26543.89
447.046	25427.75
447.252	26894.1
447.459	27010.83
447.665	26838.8
447.871	28276.48
448.078	28940.02
448.284	27746.05
448.491	28593.91
448.697	29503.21
448.903	30439.13
449.11	30461.66
449.316	29789.92
449.522	30160.61
449.728	31235.79
449.935	31723.21
450.141	31532.75
450.347	32296.64
450.553	31192.78
450.76	31631.05
450.966	32712.38
451.172	32364.22
451.378	33160.88
451.584	32200.38
451.791	33023.67
451.997	32779.96
452.203	33564.33
452.409	33410.73
452.615	33242.8
452.821	32095.94
453.027	31571.66
453.233	33455.79
453.44	32116.42
453.646	32345.79
453.852	32489.15
454.058	33076.91
454.264	31960.77
454.47	32825.01
454.676	31942.34
454.882	33199.79
455.088	30445.27
455.294	30496.47
455.5	31088.34
455.705	31153.87
455.911	30164.7
456.117	29708.01
456.323	29200.11
456.529	27569.93
456.735	28548.86
456.941	28057.34
457.147	27973.38
457.352	26683.16
457.558	26490.65
457.764	26279.71
457.97	26353.43
458.176	25634.6
458.381	25470.76
458.587	24190.78
458.793	24284.98
458.999	23261
459.204	24379.19
459.41	24104.76
459.616	22107.99
459.821	22527.83
460.027	22478.68
460.233	21858.14
460.438	20707.18
460.644	20954.99
460.85	19955.58
461.055	19545.98
461.261	19914.62
461.466	18239.38
461.672	17608.61
461.878	19107.72
462.083	17813.4
462.289	17532.83
462.494	17084.33
462.7	16478.13
462.905	16013.24
463.111	16809.9
463.316	16768.94
463.522	16187.32
463.727	16332.72
463.932	16349.11
464.138	16158.64
464.343	16293.81
464.549	15732.67
464.754	15984.57
464.959	16132.02
465.165	16138.16
465.37	15413.18
465.575	14856.14
465.781	15626.17
465.986	15753.15
466.191	14909.38
466.397	14933.96
466.602	13955.03
466.807	14321.62
467.012	14399.44
467.218	14499.79
467.423	14387.15
467.628	14458.83
467.833	14923.72
