Data from USB4F104151__130__13-57-59-677.txt Node

Date: Thu Mar 13 13:57:59 EDT 2025
User: louis
Spectrometer: USB4F10415
Trigger mode: 4
Integration Time (sec): 1.000000E-2
Scans to average: 1
Electric dark correction enabled: true
Nonlinearity correction enabled: false
Boxcar width: 0
XAxis mode: Wavelengths
Number of Pixels in Spectrum: 3648
>>>>>Begin Spectral Data<<<<<
178.204	-58.88
178.424	-58.88
178.644	-58.88
178.864	-5.63
179.084	-81.41
179.304	27.14
179.524	-50.69
179.744	-1.54
179.964	-15.87
180.184	18.94
180.404	49.66
180.624	-28.16
180.844	0.51
181.064	14.85
181.283	-28.16
181.503	31.23
181.723	-17.92
181.943	-15.87
182.163	49.66
182.383	59.9
182.602	-7.68
182.822	6.66
183.042	70.14
183.262	0.51
183.482	94.72
183.701	6.66
183.921	45.57
184.141	33.28
184.361	27.14
184.58	8.7
184.8	-19.97
185.02	25.09
185.239	47.62
185.459	53.76
185.679	16.9
185.898	88.57
186.118	35.33
186.338	10.75
186.557	45.57
186.777	20.99
186.997	-30.21
187.216	-17.92
187.436	70.14
187.655	33.28
187.875	4.61
188.095	33.28
188.314	43.52
188.534	33.28
188.753	86.53
188.973	39.42
189.192	66.05
189.412	-38.4
189.631	10.75
189.851	-11.78
190.07	14.85
190.29	12.8
190.509	2.56
190.729	6.66
190.948	-28.16
191.168	61.95
191.387	-15.87
191.607	29.18
191.826	-56.83
192.045	-7.68
192.265	4.61
192.484	-19.97
192.704	57.86
192.923	31.23
193.142	43.52
193.362	-28.16
193.581	41.47
193.8	51.71
194.02	-1.54
194.239	0.51
194.458	10.75
194.678	47.62
194.897	51.71
195.116	4.61
195.335	27.14
195.555	0.51
195.774	16.9
195.993	20.99
196.212	-67.07
196.432	57.86
196.651	39.42
196.87	23.04
197.089	45.57
197.308	20.99
197.528	37.38
197.747	84.48
197.966	18.94
198.185	27.14
198.404	49.66
198.623	4.61
198.842	41.47
199.062	119.29
199.281	66.05
199.5	0.51
199.719	-5.63
199.938	51.71
200.157	12.8
200.376	8.7
200.595	64
200.814	-32.26
201.033	-1.54
201.252	-97.79
201.471	0.51
201.69	18.94
201.909	35.33
202.128	35.33
202.347	78.33
202.566	29.18
202.785	53.76
203.004	-13.82
203.223	125.44
203.442	49.66
203.661	39.42
203.879	55.81
204.098	53.76
204.317	4.61
204.536	47.62
204.755	25.09
204.974	27.14
205.193	53.76
205.411	107.01
205.63	31.23
205.849	47.62
206.068	29.18
206.287	-13.82
206.505	72.19
206.724	80.38
206.943	16.9
207.162	59.9
207.381	-15.87
207.599	102.91
207.818	-3.58
208.037	45.57
208.255	31.23
208.474	18.94
208.693	27.14
208.911	49.66
209.13	113.15
209.349	45.57
209.567	72.19
209.786	64
210.005	16.9
210.223	27.14
210.442	-116.22
210.661	35.33
210.879	70.14
211.098	47.62
211.316	100.86
211.535	0.51
211.753	27.14
211.972	41.47
212.191	6.66
212.409	107.01
212.628	-1.54
212.846	82.43
213.065	86.53
213.283	64
213.502	37.38
213.72	47.62
213.938	-54.78
214.157	6.66
214.375	31.23
214.594	84.48
214.812	8.7
215.031	-26.11
215.249	2.56
215.467	121.34
215.686	39.42
215.904	-7.68
216.122	4.61
216.341	27.14
216.559	68.09
216.778	-46.59
216.996	10.75
217.214	84.48
217.432	-22.02
217.651	-73.21
217.869	-34.3
218.087	23.04
218.306	-13.82
218.524	49.66
218.742	-17.92
218.96	53.76
219.179	-24.06
219.397	55.81
219.615	-15.87
219.833	51.71
220.051	41.47
220.27	61.95
220.488	25.09
220.706	51.71
220.924	-5.63
221.142	33.28
221.36	55.81
221.578	107.01
221.796	49.66
222.015	39.42
222.233	6.66
222.451	31.23
222.669	-7.68
222.887	25.09
223.105	10.75
223.323	10.75
223.541	-83.45
223.759	29.18
223.977	4.61
224.195	10.75
224.413	-26.11
224.631	-40.45
224.849	-26.11
225.067	-7.68
225.285	-15.87
225.503	72.19
225.721	29.18
225.939	78.33
226.157	6.66
226.375	27.14
226.592	-7.68
226.81	117.25
227.028	109.05
227.246	49.66
227.464	47.62
227.682	55.81
227.9	12.8
228.117	37.38
228.335	14.85
228.553	37.38
228.771	33.28
228.989	43.52
229.206	78.33
229.424	78.33
229.642	16.9
229.86	64
230.077	41.47
230.295	16.9
230.513	39.42
230.731	59.9
230.948	39.42
231.166	29.18
231.384	76.29
231.601	35.33
231.819	-11.78
232.037	127.49
232.254	49.66
232.472	80.38
232.689	53.76
232.907	43.52
233.125	2.56
233.342	96.77
233.56	35.33
233.777	-67.07
233.995	45.57
234.213	-7.68
234.43	53.76
234.648	12.8
234.865	-65.02
235.083	47.62
235.3	64
235.518	68.09
235.735	29.18
235.953	-1.54
236.17	35.33
236.388	6.66
236.605	57.86
236.822	39.42
237.04	35.33
237.257	43.52
237.475	-11.78
237.692	31.23
237.909	18.94
238.127	43.52
238.344	12.8
238.562	59.9
238.779	27.14
238.996	-17.92
239.214	68.09
239.431	76.29
239.648	-17.92
239.865	31.23
240.083	129.53
240.3	39.42
240.517	29.18
240.735	55.81
240.952	33.28
241.169	-1.54
241.386	2.56
241.603	107.01
241.821	-13.82
242.038	45.57
242.255	78.33
242.472	-30.21
242.689	-7.68
242.907	68.09
243.124	8.7
243.341	86.53
243.558	2.56
243.775	-26.11
243.992	-9.73
244.209	51.71
244.426	6.66
244.643	86.53
244.86	25.09
245.078	-65.02
245.295	-48.64
245.512	43.52
245.729	-5.63
245.946	12.8
246.163	-13.82
246.38	31.23
246.597	-7.68
246.814	31.23
247.031	66.05
247.248	33.28
247.464	70.14
247.681	-34.3
247.898	66.05
248.115	16.9
248.332	43.52
248.549	84.48
248.766	-44.54
248.983	16.9
249.2	61.95
249.417	82.43
249.633	-5.63
249.85	31.23
250.067	51.71
250.284	-22.02
250.501	33.28
250.717	45.57
250.934	0.51
251.151	74.24
251.368	35.33
251.585	127.49
251.801	-24.06
252.018	18.94
252.235	8.7
252.451	-17.92
252.668	35.33
252.885	72.19
253.102	55.81
253.318	90.62
253.535	-38.4
253.752	-15.87
253.968	39.42
254.185	45.57
254.401	39.42
254.618	33.28
254.835	10.75
255.051	51.71
255.268	68.09
255.484	131.58
255.701	27.14
255.917	80.38
256.134	-11.78
256.351	14.85
256.567	43.52
256.784	51.71
257	78.33
257.217	2.56
257.433	90.62
257.65	55.81
257.866	25.09
258.082	41.47
258.299	27.14
258.515	4.61
258.732	6.66
258.948	35.33
259.165	-28.16
259.381	18.94
259.597	39.42
259.814	61.95
260.03	-22.02
260.246	66.05
260.463	-28.16
260.679	45.57
260.895	6.66
261.112	23.04
261.328	27.14
261.544	66.05
261.761	35.33
261.977	61.95
262.193	-9.73
262.409	43.52
262.626	31.23
262.842	64
263.058	84.48
263.274	35.33
263.49	0.51
263.707	-48.64
263.923	-9.73
264.139	25.09
264.355	-28.16
264.571	55.81
264.787	115.2
265.004	64
265.22	4.61
265.436	-13.82
265.652	37.38
265.868	39.42
266.084	-48.64
266.3	-5.63
266.516	23.04
266.732	76.29
266.948	-17.92
267.164	98.81
267.38	51.71
267.596	88.57
267.812	98.81
268.028	-40.45
268.244	20.99
268.46	-22.02
268.676	72.19
268.892	45.57
269.108	43.52
269.324	-15.87
269.54	4.61
269.756	64
269.972	80.38
270.188	-42.5
270.403	35.33
270.619	18.94
270.835	-28.16
271.051	-28.16
271.267	74.24
271.483	84.48
271.698	20.99
271.914	43.52
272.13	10.75
272.346	23.04
272.562	49.66
272.777	47.62
272.993	-5.63
273.209	-3.58
273.425	35.33
273.64	57.86
273.856	39.42
274.072	25.09
274.287	39.42
274.503	43.52
274.719	94.72
274.934	74.24
275.15	84.48
275.366	47.62
275.581	6.66
275.797	68.09
276.012	23.04
276.228	0.51
276.444	49.66
276.659	37.38
276.875	47.62
277.09	98.81
277.306	25.09
277.521	64
277.737	6.66
277.952	131.58
278.168	35.33
278.383	8.7
278.599	55.81
278.814	43.52
279.03	25.09
279.245	57.86
279.461	31.23
279.676	23.04
279.892	10.75
280.107	49.66
280.322	74.24
280.538	27.14
280.753	104.96
280.969	55.81
281.184	49.66
281.399	-9.73
281.615	74.24
281.83	78.33
282.045	45.57
282.26	57.86
282.476	-11.78
282.691	92.67
282.906	-22.02
283.122	-11.78
283.337	-7.68
283.552	25.09
283.767	61.95
283.983	31.23
284.198	14.85
284.413	6.66
284.628	6.66
284.843	66.05
285.058	59.9
285.274	82.43
285.489	10.75
285.704	47.62
285.919	16.9
286.134	76.29
286.349	-9.73
286.564	-1.54
286.779	74.24
286.995	6.66
287.21	35.33
287.425	14.85
287.64	-19.97
287.855	39.42
288.07	55.81
288.285	72.19
288.5	68.09
288.715	53.76
288.93	-19.97
289.145	8.7
289.36	12.8
289.575	39.42
289.79	51.71
290.004	76.29
290.219	74.24
290.434	2.56
290.649	45.57
290.864	57.86
291.079	41.47
291.294	88.57
291.509	25.09
291.724	10.75
291.938	18.94
292.153	-7.68
292.368	14.85
292.583	29.18
292.798	-3.58
293.012	59.9
293.227	45.57
293.442	86.53
293.657	102.91
293.871	12.8
294.086	20.99
294.301	96.77
294.516	45.57
294.73	59.9
294.945	35.33
295.16	8.7
295.374	-32.26
295.589	14.85
295.804	14.85
296.018	-5.63
296.233	66.05
296.447	92.67
296.662	39.42
296.877	-15.87
297.091	33.28
297.306	2.56
297.52	-17.92
297.735	4.61
297.949	-17.92
298.164	31.23
298.378	100.86
298.593	33.28
298.807	-48.64
299.022	33.28
299.236	6.66
299.451	45.57
299.665	45.57
299.88	49.66
300.094	-50.69
300.309	68.09
300.523	16.9
300.737	20.99
300.952	113.15
301.166	31.23
301.381	47.62
301.595	23.04
301.809	27.14
302.024	37.38
302.238	41.47
302.452	23.04
302.667	-7.68
302.881	121.34
303.095	33.28
303.309	72.19
303.524	4.61
303.738	12.8
303.952	4.61
304.166	61.95
304.381	-9.73
304.595	76.29
304.809	35.33
305.023	49.66
305.237	80.38
305.452	43.52
305.666	-44.54
305.88	51.71
306.094	10.75
306.308	39.42
306.522	25.09
306.736	23.04
306.95	55.81
307.164	43.52
307.379	100.86
307.593	104.96
307.807	39.42
308.021	57.86
308.235	6.66
308.449	-34.3
308.663	84.48
308.877	129.53
309.091	84.48
309.305	0.51
309.519	-26.11
309.733	109.05
309.947	-5.63
310.161	-1.54
310.374	-54.78
310.588	8.7
310.802	88.57
311.016	-62.98
311.23	84.48
311.444	25.09
311.658	20.99
311.872	129.53
312.085	-9.73
312.299	61.95
312.513	23.04
312.727	84.48
312.941	23.04
313.154	12.8
313.368	18.94
313.582	55.81
313.796	47.62
314.009	88.57
314.223	55.81
314.437	57.86
314.651	96.77
314.864	-1.54
315.078	74.24
315.292	55.81
315.505	10.75
315.719	41.47
315.933	84.48
316.146	10.75
316.36	27.14
316.573	31.23
316.787	49.66
317.001	29.18
317.214	39.42
317.428	47.62
317.641	16.9
317.855	131.58
318.068	23.04
318.282	45.57
318.495	41.47
318.709	6.66
318.922	2.56
319.136	80.38
319.349	6.66
319.563	-15.87
319.776	74.24
319.99	16.9
320.203	33.28
320.417	8.7
320.63	37.38
320.843	123.39
321.057	20.99
321.27	55.81
321.483	-11.78
321.697	74.24
321.91	33.28
322.124	6.66
322.337	49.66
322.55	4.61
322.763	20.99
322.977	31.23
323.19	57.86
323.403	92.67
323.617	-9.73
323.83	-9.73
324.043	39.42
324.256	31.23
324.469	25.09
324.683	27.14
324.896	66.05
325.109	61.95
325.322	100.86
325.535	-46.59
325.748	2.56
325.962	4.61
326.175	-15.87
326.388	72.19
326.601	14.85
326.814	68.09
327.027	82.43
327.24	127.49
327.453	14.85
327.666	104.96
327.879	4.61
328.092	35.33
328.305	55.81
328.518	49.66
328.731	-9.73
328.944	-7.68
329.157	-1.54
329.37	-48.64
329.583	68.09
329.796	76.29
330.009	20.99
330.222	37.38
330.435	37.38
330.648	-15.87
330.861	41.47
331.073	45.57
331.286	94.72
331.499	33.28
331.712	43.52
331.925	35.33
332.138	25.09
332.35	45.57
332.563	53.76
332.776	61.95
332.989	25.09
333.202	64
333.414	64
333.627	14.85
333.84	47.62
334.053	27.14
334.265	4.61
334.478	59.9
334.691	39.42
334.903	39.42
335.116	-13.82
335.329	4.61
335.541	55.81
335.754	39.42
335.966	23.04
336.179	68.09
336.392	47.62
336.604	14.85
336.817	-19.97
337.029	31.23
337.242	41.47
337.454	16.9
337.667	74.24
337.88	8.7
338.092	2.56
338.305	90.62
338.517	33.28
338.729	27.14
338.942	10.75
339.154	4.61
339.367	31.23
339.579	23.04
339.792	33.28
340.004	47.62
340.217	47.62
340.429	33.28
340.641	10.75
340.854	55.81
341.066	61.95
341.278	86.53
341.491	49.66
341.703	76.29
341.915	-19.97
342.128	113.15
342.34	-1.54
342.552	47.62
342.764	10.75
342.977	-30.21
343.189	57.86
343.401	43.52
343.613	47.62
343.826	49.66
344.038	41.47
344.25	66.05
344.462	92.67
344.674	111.1
344.886	14.85
345.099	88.57
345.311	107.01
345.523	78.33
345.735	2.56
345.947	61.95
346.159	76.29
346.371	64
346.583	23.04
346.795	-1.54
347.007	6.66
347.219	8.7
347.431	39.42
347.643	2.56
347.855	29.18
348.067	102.91
348.279	-11.78
348.491	18.94
348.703	64
348.915	27.14
349.127	47.62
349.339	47.62
349.551	-32.26
349.763	43.52
349.975	82.43
350.187	92.67
350.399	117.25
350.61	61.95
350.822	88.57
351.034	41.47
351.246	27.14
351.458	14.85
351.669	51.71
351.881	23.04
352.093	78.33
352.305	45.57
352.517	-9.73
352.728	64
352.94	64
353.152	61.95
353.363	78.33
353.575	88.57
353.787	59.9
353.999	29.18
354.21	96.77
354.422	61.95
354.633	135.68
354.845	76.29
355.057	-58.88
355.268	66.05
355.48	80.38
355.692	39.42
355.903	84.48
356.115	-1.54
356.326	-9.73
356.538	137.73
356.749	84.48
356.961	43.52
357.172	53.76
357.384	94.72
357.595	94.72
357.807	109.05
358.018	41.47
358.23	66.05
358.441	-40.45
358.653	37.38
358.864	47.62
359.075	45.57
359.287	16.9
359.498	86.53
359.709	43.52
359.921	25.09
360.132	6.66
360.344	64
360.555	64
360.766	82.43
360.977	8.7
361.189	66.05
361.4	74.24
361.611	16.9
361.823	-5.63
362.034	31.23
362.245	-7.68
362.456	-1.54
362.667	33.28
362.879	57.86
363.09	37.38
363.301	74.24
363.512	10.75
363.723	-9.73
363.935	43.52
364.146	64
364.357	47.62
364.568	43.52
364.779	18.94
364.99	86.53
365.201	39.42
365.412	82.43
365.623	6.66
365.834	27.14
366.045	31.23
366.256	82.43
366.467	66.05
366.678	121.34
366.889	61.95
367.1	14.85
367.311	102.91
367.522	20.99
367.733	74.24
367.944	55.81
368.155	-1.54
368.366	64
368.577	33.28
368.788	64
368.999	53.76
369.209	90.62
369.42	129.53
369.631	57.86
369.842	111.1
370.053	64
370.264	10.75
370.474	47.62
370.685	23.04
370.896	55.81
371.107	41.47
371.317	18.94
371.528	-13.82
371.739	31.23
371.95	25.09
372.16	123.39
372.371	35.33
372.582	66.05
372.792	23.04
373.003	82.43
373.214	-17.92
373.424	39.42
373.635	76.29
373.846	35.33
374.056	80.38
374.267	113.15
374.477	12.8
374.688	55.81
374.898	98.81
375.109	96.77
375.319	117.25
375.53	-5.63
375.74	57.86
375.951	-46.59
376.161	90.62
376.372	16.9
376.582	23.04
376.793	-7.68
377.003	-19.97
377.214	31.23
377.424	47.62
377.635	-17.92
377.845	45.57
378.055	-1.54
378.266	16.9
378.476	39.42
378.686	129.53
378.897	-9.73
379.107	27.14
379.317	123.39
379.528	55.81
379.738	86.53
379.948	49.66
380.158	31.23
380.369	45.57
380.579	98.81
380.789	29.18
380.999	66.05
381.21	35.33
381.42	27.14
381.63	61.95
381.84	135.68
382.05	57.86
382.261	14.85
382.471	57.86
382.681	92.67
382.891	66.05
383.101	66.05
383.311	80.38
383.521	0.51
383.731	137.73
383.941	33.28
384.151	64
384.361	51.71
384.571	4.61
384.781	57.86
384.991	84.48
385.201	72.19
385.411	82.43
385.621	125.44
385.831	35.33
386.041	123.39
386.251	86.53
386.461	129.53
386.671	-7.68
386.881	31.23
387.091	16.9
387.301	16.9
387.511	64
387.72	84.48
387.93	14.85
388.14	10.75
388.35	64
388.56	82.43
388.769	-1.54
388.979	70.14
389.189	16.9
389.399	61.95
389.609	61.95
389.818	66.05
390.028	-13.82
390.238	33.28
390.447	-19.97
390.657	72.19
390.867	20.99
391.076	109.05
391.286	70.14
391.496	113.15
391.705	92.67
391.915	55.81
392.125	66.05
392.334	66.05
392.544	45.57
392.753	88.57
392.963	86.53
393.172	94.72
393.382	80.38
393.591	80.38
393.801	-1.54
394.01	20.99
394.22	72.19
394.429	57.86
394.639	45.57
394.848	135.68
395.058	10.75
395.267	107.01
395.477	117.25
395.686	37.38
395.895	92.67
396.105	92.67
396.314	70.14
396.524	188.93
396.733	55.81
396.942	78.33
397.152	76.29
397.361	39.42
397.57	86.53
397.78	90.62
397.989	33.28
398.198	104.96
398.407	88.57
398.617	49.66
398.826	57.86
399.035	74.24
399.244	74.24
399.453	82.43
399.663	139.77
399.872	90.62
400.081	98.81
400.29	92.67
400.499	90.62
400.708	96.77
400.917	57.86
401.127	154.11
401.336	160.25
401.545	88.57
401.754	205.31
401.963	188.93
402.172	102.91
402.381	115.2
402.59	123.39
402.799	68.09
403.008	115.2
403.217	102.91
403.426	2.56
403.635	170.49
403.844	143.87
404.053	143.87
404.262	88.57
404.471	229.88
404.68	164.35
404.888	176.64
405.097	186.88
405.306	170.49
405.515	174.59
405.724	127.49
405.933	133.63
406.142	139.77
406.35	111.1
406.559	215.55
406.768	137.73
406.977	180.73
407.185	131.58
407.394	242.17
407.603	137.73
407.812	215.55
408.02	203.26
408.229	207.36
408.438	197.12
408.646	209.4
408.855	227.84
409.064	225.79
409.272	205.31
409.481	164.35
409.69	285.18
409.898	276.99
410.107	287.23
410.315	320
410.524	303.61
410.733	295.42
410.941	213.5
411.15	270.84
411.358	365.05
411.567	315.9
411.775	383.48
411.984	354.81
412.192	367.1
412.401	532.98
412.609	442.87
412.818	389.63
413.026	426.49
413.234	520.7
413.443	432.63
413.651	602.61
413.86	510.46
414.068	596.47
414.276	590.33
414.485	559.61
414.693	471.54
414.901	580.09
415.11	600.57
415.318	664.05
415.526	578.04
415.734	674.29
415.943	731.64
416.151	805.36
416.359	754.16
416.567	801.27
416.776	823.8
416.984	874.99
417.192	868.85
417.4	846.32
417.608	907.76
417.817	907.76
418.025	985.58
418.233	1079.79
418.441	1042.93
418.649	1118.7
418.857	1114.61
419.065	1067.5
419.273	1167.85
419.481	1245.68
419.689	1262.06
419.897	1260.01
420.105	1343.98
420.313	1341.93
420.521	1358.32
420.729	1446.38
420.937	1479.15
421.145	1563.11
421.353	1702.37
421.561	1749.48
421.769	1765.86
421.977	1862.12
422.185	1667.56
422.393	1907.17
422.601	2007.52
422.809	2028
423.017	1997.28
423.224	2105.82
423.432	2179.55
423.64	2243.04
423.848	2451.93
424.056	2327
424.263	2509.27
424.471	2476.51
424.679	2587.1
424.887	2669.02
425.094	2705.88
425.302	2849.24
425.51	2836.95
425.718	2949.59
425.925	3013.07
426.133	3103.18
426.341	3213.77
426.548	3369.42
426.756	3357.13
426.964	3473.87
427.171	3635.66
427.379	3738.05
427.586	3914.18
427.794	3992
428.001	4143.55
428.209	4262.33
428.417	4280.77
428.624	4561.34
428.832	4563.39
429.039	4440.51
429.247	4397.5
429.454	5102
429.662	5280.18
429.869	4956.6
430.076	5235.12
430.284	5110.19
430.491	5218.74
430.699	5669.29
430.906	5695.91
431.114	5865.89
431.321	6058.4
431.528	6023.59
431.736	6398.37
431.943	6793.62
432.15	6470.05
432.358	6699.42
432.565	7055.76
432.772	6758.81
432.979	7209.36
433.187	7295.38
433.394	7358.86
433.601	7903.62
433.808	7952.77
434.016	7975.3
434.223	8208.77
434.43	8690.04
434.637	8669.56
434.844	9079.16
435.052	9113.97
435.259	9267.57
435.466	9404.78
435.673	9144.69
435.88	9646.44
436.087	10264.93
436.294	10203.49
436.501	9976.17
436.708	10244.45
436.915	10461.54
437.122	11141.46
437.329	10994.01
437.537	11254.1
437.743	11540.82
437.95	11417.94
438.157	12024.14
438.364	12718.4
438.571	12362.05
438.778	12591.42
438.985	13533.49
439.192	13168.95
439.399	13515.06
439.606	13080.89
439.813	14147.88
440.02	14881.05
440.227	14450.98
440.433	14324.01
440.64	14915.87
440.847	14899.48
441.054	15227.16
441.261	16238.86
441.467	15989
441.674	16214.28
441.881	16859.39
442.088	16939.26
442.294	16812.29
442.501	17043.71
442.708	17432.82
442.914	18149.61
443.121	18893.02
443.328	18243.82
443.534	19749.07
443.741	19110.11
443.948	18925.79
444.154	20465.86
444.361	20166.86
444.568	20140.24
444.774	20250.83
444.981	20768.96
445.187	20883.65
445.394	21813.43
445.6	21758.13
445.807	23804.05
446.013	22894.75
446.22	23249.05
446.426	23869.59
446.633	24086.67
446.839	24948.87
447.046	24043.67
447.252	25528.44
447.459	25864.31
447.665	25548.92
447.871	26191.98
448.078	27662.43
448.284	26144.88
448.491	26939.49
448.697	28340.3
448.903	28536.91
449.11	28563.53
449.316	27955.29
449.522	28692.55
449.728	29157.44
449.935	29237.31
450.141	29837.37
450.347	30281.78
450.553	29009.99
450.76	29521.98
450.966	30548.01
451.172	30386.22
451.378	30951.46
451.584	30253.11
451.791	31213.6
451.997	31322.15
452.203	31436.83
452.409	31326.24
452.615	31524.89
452.821	30029.88
453.027	29820.98
453.233	31600.67
453.44	30103.6
453.646	30238.77
453.852	30539.82
454.058	31094.82
454.264	30222.39
454.47	30912.55
454.676	30124.08
454.882	31088.68
455.088	28192.85
455.294	28633.16
455.5	29384.77
455.705	28874.82
455.911	28153.94
456.117	27707.48
456.323	27627.61
456.529	25987.19
456.735	27201.63
456.941	26443.88
457.147	25804.92
457.352	25206.91
457.558	24834.18
457.764	24858.76
457.97	24283.28
458.176	23783.57
458.381	24217.74
458.587	22780.07
458.793	22689.96
458.999	21409.98
459.204	23197.85
459.41	22677.67
459.616	20906.18
459.821	21115.07
460.027	20965.57
460.233	20529.35
460.438	19515.61
460.644	19845.33
460.85	18933.98
461.055	18587.88
461.261	18473.19
461.466	17146.11
461.672	16713.98
461.878	17924.33
462.083	16828.67
462.289	16453.89
462.494	16185.61
462.7	15352.09
462.905	15053.08
463.111	15642.9
463.316	15681.81
463.522	15223.06
463.727	15466.77
463.932	15171.86
464.138	15114.52
464.343	15155.48
464.549	14833.95
464.754	15173.91
464.959	15108.38
465.165	15024.41
465.37	14399.78
465.575	14039.34
465.781	14663.97
465.986	14709.02
466.191	13904.17
466.397	13560.11
466.602	13099.32
466.807	13553.97
467.012	13900.08
467.218	13648.18
467.423	13408.56
467.628	13371.7
467.833	14170.41
468.038	13619.5
468.244	13316.4
468.449	13848.88
468.654	13390.13
468.859	13164.86
