Data from USB4F104151__71__13-54-05-392.txt Node

Date: Thu Mar 13 13:54:05 EDT 2025
User: louis
Spectrometer: USB4F10415
Trigger mode: 4
Integration Time (sec): 1.000000E-2
Scans to average: 1
Electric dark correction enabled: true
Nonlinearity correction enabled: false
Boxcar width: 0
XAxis mode: Wavelengths
Number of Pixels in Spectrum: 3648
>>>>>Begin Spectral Data<<<<<
178.204	-60.42
178.424	-60.42
178.644	-60.42
178.864	-54.27
179.084	-72.7
179.304	11.26
179.524	37.89
179.744	5.12
179.964	-48.13
180.184	1.02
180.404	11.26
180.624	31.74
180.844	-25.6
181.064	-3.07
181.283	-19.46
181.503	-11.26
181.723	9.22
181.943	27.65
182.163	48.13
182.383	-1.02
182.602	-41.98
182.822	5.12
183.042	5.12
183.262	-7.17
183.482	-44.03
183.701	46.08
183.921	5.12
184.141	-9.22
184.361	21.5
184.58	-39.94
184.8	-3.07
185.02	54.27
185.239	-15.36
185.459	-27.65
185.679	35.84
185.898	-1.02
186.118	9.22
186.338	15.36
186.557	11.26
186.777	-31.74
186.997	-87.04
187.216	25.6
187.436	5.12
187.655	15.36
187.875	-5.12
188.095	-15.36
188.314	-50.18
188.534	-19.46
188.753	-13.31
188.973	58.37
189.192	-11.26
189.412	64.51
189.631	21.5
189.851	11.26
190.07	56.32
190.29	78.85
190.509	46.08
190.729	9.22
190.948	-5.12
191.168	37.89
191.387	1.02
191.607	-50.18
191.826	-44.03
192.045	9.22
192.265	-11.26
192.484	-52.22
192.704	68.61
192.923	-66.56
193.142	31.74
193.362	-15.36
193.581	82.94
193.8	-7.17
194.02	58.37
194.239	3.07
194.458	31.74
194.678	-66.56
194.897	-5.12
195.116	27.65
195.335	52.22
195.555	25.6
195.774	11.26
195.993	-7.17
196.212	-82.94
196.432	3.07
196.651	7.17
196.87	9.22
197.089	29.7
197.308	-7.17
197.528	21.5
197.747	-27.65
197.966	-5.12
198.185	9.22
198.404	21.5
198.623	35.84
198.842	-7.17
199.062	9.22
199.281	-44.03
199.5	29.7
199.719	-25.6
199.938	3.07
200.157	68.61
200.376	13.31
200.595	-31.74
200.814	-13.31
201.033	-46.08
201.252	-46.08
201.471	-15.36
201.69	15.36
201.909	46.08
202.128	11.26
202.347	11.26
202.566	-31.74
202.785	-41.98
203.004	-7.17
203.223	78.85
203.442	-9.22
203.661	5.12
203.879	29.7
204.098	41.98
204.317	41.98
204.536	13.31
204.755	-21.5
204.974	62.46
205.193	-13.31
205.411	-3.07
205.63	46.08
205.849	-48.13
206.068	48.13
206.287	3.07
206.505	1.02
206.724	19.46
206.943	-19.46
207.162	21.5
207.381	3.07
207.599	-11.26
207.818	9.22
208.037	37.89
208.255	13.31
208.474	-15.36
208.693	-64.51
208.911	-29.7
209.13	-54.27
209.349	-3.07
209.567	41.98
209.786	5.12
210.005	-35.84
210.223	-11.26
210.442	-31.74
210.661	-11.26
210.879	-27.65
211.098	27.65
211.316	-5.12
211.535	-39.94
211.753	-1.02
211.972	37.89
212.191	37.89
212.409	29.7
212.628	-19.46
212.846	7.17
213.065	-5.12
213.283	-17.41
213.502	-72.7
213.72	-50.18
213.938	21.5
214.157	19.46
214.375	-27.65
214.594	-76.8
214.812	19.46
215.031	27.65
215.249	-56.32
215.467	5.12
215.686	74.75
215.904	50.18
216.122	44.03
216.341	-44.03
216.559	5.12
216.778	-31.74
216.996	56.32
217.214	66.56
217.432	21.5
217.651	5.12
217.869	41.98
218.087	-39.94
218.306	41.98
218.524	54.27
218.742	-80.89
218.96	-15.36
219.179	70.65
219.397	58.37
219.615	50.18
219.833	1.02
220.051	-82.94
220.27	-23.55
220.488	-5.12
220.706	-17.41
220.924	7.17
221.142	3.07
221.36	-62.46
221.578	21.5
221.796	-13.31
222.015	15.36
222.233	35.84
222.451	19.46
222.669	-41.98
222.887	29.7
223.105	-9.22
223.323	39.94
223.541	-31.74
223.759	33.79
223.977	-27.65
224.195	-3.07
224.413	27.65
224.631	11.26
224.849	17.41
225.067	70.65
225.285	33.79
225.503	-56.32
225.721	-39.94
225.939	39.94
226.157	89.09
226.375	-48.13
226.592	-1.02
226.81	-5.12
227.028	-23.55
227.246	-58.37
227.464	-5.12
227.682	13.31
227.9	23.55
228.117	33.79
228.335	3.07
228.553	52.22
228.771	66.56
228.989	21.5
229.206	-25.6
229.424	-9.22
229.642	-11.26
229.86	5.12
230.077	13.31
230.295	-39.94
230.513	-19.46
230.731	21.5
230.948	15.36
231.166	-9.22
231.384	33.79
231.601	-11.26
231.819	37.89
232.037	13.31
232.254	84.99
232.472	-35.84
232.689	-27.65
232.907	11.26
233.125	-17.41
233.342	-11.26
233.56	-11.26
233.777	9.22
233.995	33.79
234.213	37.89
234.43	13.31
234.648	-5.12
234.865	-23.55
235.083	21.5
235.3	11.26
235.518	44.03
235.735	148.48
235.953	19.46
236.17	48.13
236.388	87.04
236.605	29.7
236.822	-44.03
237.04	-70.65
237.257	17.41
237.475	9.22
237.692	7.17
237.909	41.98
238.127	93.18
238.344	17.41
238.562	39.94
238.779	13.31
238.996	5.12
239.214	-17.41
239.431	37.89
239.648	13.31
239.865	87.04
240.083	5.12
240.3	29.7
240.517	-50.18
240.735	-1.02
240.952	50.18
241.169	41.98
241.386	-37.89
241.603	-27.65
241.821	-50.18
242.038	5.12
242.255	15.36
242.472	-11.26
242.689	37.89
242.907	5.12
243.124	39.94
243.341	-25.6
243.558	11.26
243.775	-19.46
243.992	-89.09
244.209	72.7
244.426	1.02
244.643	87.04
244.86	35.84
245.078	23.55
245.295	21.5
245.512	37.89
245.729	25.6
245.946	-41.98
246.163	39.94
246.38	11.26
246.597	74.75
246.814	-3.07
247.031	-21.5
247.248	29.7
247.464	21.5
247.681	-1.02
247.898	66.56
248.115	64.51
248.332	-29.7
248.549	44.03
248.766	62.46
248.983	5.12
249.2	21.5
249.417	-50.18
249.633	17.41
249.85	-33.79
250.067	29.7
250.284	52.22
250.501	5.12
250.717	-1.02
250.934	19.46
251.151	-9.22
251.368	25.6
251.585	-11.26
251.801	52.22
252.018	-5.12
252.235	-37.89
252.451	19.46
252.668	48.13
252.885	17.41
253.102	35.84
253.318	48.13
253.535	-62.46
253.752	-1.02
253.968	-41.98
254.185	-13.31
254.401	41.98
254.618	48.13
254.835	-3.07
255.051	89.09
255.268	7.17
255.484	-23.55
255.701	27.65
255.917	76.8
256.134	39.94
256.351	-60.42
256.567	-93.18
256.784	-3.07
257	-9.22
257.217	44.03
257.433	33.79
257.65	78.85
257.866	-3.07
258.082	-1.02
258.299	29.7
258.515	78.85
258.732	62.46
258.948	-29.7
259.165	17.41
259.381	7.17
259.597	-1.02
259.814	-13.31
260.03	9.22
260.246	-11.26
260.463	35.84
260.679	31.74
260.895	64.51
261.112	66.56
261.328	23.55
261.544	11.26
261.761	70.65
261.977	66.56
262.193	62.46
262.409	76.8
262.626	13.31
262.842	48.13
263.058	3.07
263.274	-25.6
263.49	1.02
263.707	1.02
263.923	-11.26
264.139	-1.02
264.355	44.03
264.571	-27.65
264.787	25.6
265.004	78.85
265.22	62.46
265.436	-3.07
265.652	39.94
265.868	37.89
266.084	-3.07
266.3	31.74
266.516	-29.7
266.732	7.17
266.948	27.65
267.164	17.41
267.38	21.5
267.596	48.13
267.812	113.66
268.028	-25.6
268.244	19.46
268.46	23.55
268.676	-33.79
268.892	29.7
269.108	-19.46
269.324	21.5
269.54	-41.98
269.756	-37.89
269.972	54.27
270.188	87.04
270.403	-7.17
270.619	74.75
270.835	37.89
271.051	3.07
271.267	9.22
271.483	9.22
271.698	15.36
271.914	37.89
272.13	-27.65
272.346	33.79
272.562	-35.84
272.777	25.6
272.993	21.5
273.209	27.65
273.425	1.02
273.64	-9.22
273.856	21.5
274.072	17.41
274.287	-72.7
274.503	-21.5
274.719	-44.03
274.934	5.12
275.15	13.31
275.366	74.75
275.581	-13.31
275.797	19.46
276.012	9.22
276.228	21.5
276.444	-54.27
276.659	-11.26
276.875	-46.08
277.09	29.7
277.306	-35.84
277.521	46.08
277.737	9.22
277.952	-27.65
278.168	23.55
278.383	11.26
278.599	-7.17
278.814	19.46
279.03	-41.98
279.245	84.99
279.461	13.31
279.676	99.33
279.892	37.89
280.107	13.31
280.322	7.17
280.538	48.13
280.753	29.7
280.969	25.6
281.184	7.17
281.399	31.74
281.615	74.75
281.83	1.02
282.045	-11.26
282.26	50.18
282.476	-23.55
282.691	-31.74
282.906	7.17
283.122	17.41
283.337	29.7
283.552	-11.26
283.767	27.65
283.983	-37.89
284.198	-15.36
284.413	-7.17
284.628	-72.7
284.843	46.08
285.058	29.7
285.274	39.94
285.489	39.94
285.704	-35.84
285.919	-21.5
286.134	19.46
286.349	48.13
286.564	19.46
286.779	25.6
286.995	23.55
287.21	64.51
287.425	15.36
287.64	-5.12
287.855	35.84
288.07	-27.65
288.285	37.89
288.5	-9.22
288.715	-21.5
288.93	-17.41
289.145	46.08
289.36	95.23
289.575	-11.26
289.79	50.18
290.004	5.12
290.219	-23.55
290.434	31.74
290.649	7.17
290.864	44.03
291.079	48.13
291.294	56.32
291.509	-37.89
291.724	-19.46
291.938	70.65
292.153	-35.84
292.368	-3.07
292.583	44.03
292.798	-1.02
293.012	3.07
293.227	5.12
293.442	-23.55
293.657	9.22
293.871	-58.37
294.086	-31.74
294.301	5.12
294.516	13.31
294.73	62.46
294.945	23.55
295.16	-44.03
295.374	23.55
295.589	-21.5
295.804	31.74
296.018	-27.65
296.233	7.17
296.447	-1.02
296.662	17.41
296.877	46.08
297.091	-23.55
297.306	23.55
297.52	35.84
297.735	-25.6
297.949	9.22
298.164	-1.02
298.378	25.6
298.593	13.31
298.807	31.74
299.022	54.27
299.236	48.13
299.451	27.65
299.665	15.36
299.88	46.08
300.094	33.79
300.309	31.74
300.523	-19.46
300.737	50.18
300.952	76.8
301.166	13.31
301.381	-31.74
301.595	1.02
301.809	58.37
302.024	41.98
302.238	41.98
302.452	84.99
302.667	-27.65
302.881	19.46
303.095	41.98
303.309	48.13
303.524	27.65
303.738	-1.02
303.952	-44.03
304.166	80.89
304.381	31.74
304.595	84.99
304.809	-39.94
305.023	37.89
305.237	7.17
305.452	-46.08
305.666	-13.31
305.88	41.98
306.094	-5.12
306.308	3.07
306.522	-21.5
306.736	21.5
306.95	-82.94
307.164	9.22
307.379	-50.18
307.593	64.51
307.807	41.98
308.021	5.12
308.235	-9.22
308.449	78.85
308.663	-54.27
308.877	-13.31
309.091	21.5
309.305	27.65
309.519	-74.75
309.733	17.41
309.947	39.94
310.161	-21.5
310.374	3.07
310.588	1.02
310.802	-1.02
311.016	-13.31
311.23	66.56
311.444	44.03
311.658	80.89
311.872	99.33
312.085	-29.7
312.299	-13.31
312.513	-9.22
312.727	52.22
312.941	9.22
313.154	35.84
313.368	76.8
313.582	35.84
313.796	33.79
314.009	-29.7
314.223	27.65
314.437	56.32
314.651	-37.89
314.864	52.22
315.078	1.02
315.292	19.46
315.505	-23.55
315.719	17.41
315.933	-35.84
316.146	48.13
316.36	-48.13
316.573	19.46
316.787	17.41
317.001	70.65
317.214	54.27
317.428	-9.22
317.641	62.46
317.855	21.5
318.068	-17.41
318.282	52.22
318.495	15.36
318.709	87.04
318.922	23.55
319.136	31.74
319.349	115.71
319.563	-35.84
319.776	-7.17
319.99	-54.27
320.203	15.36
320.417	9.22
320.63	39.94
320.843	70.65
321.057	23.55
321.27	7.17
321.483	-27.65
321.697	19.46
321.91	15.36
322.124	-74.75
322.337	-3.07
322.55	60.42
322.763	13.31
322.977	58.37
323.19	-35.84
323.403	11.26
323.617	-25.6
323.83	93.18
324.043	-29.7
324.256	33.79
324.469	3.07
324.683	-29.7
324.896	58.37
325.109	-13.31
325.322	5.12
325.535	74.75
325.748	84.99
325.962	-3.07
326.175	-27.65
326.388	58.37
326.601	-17.41
326.814	7.17
327.027	48.13
327.24	21.5
327.453	-21.5
327.666	13.31
327.879	41.98
328.092	60.42
328.305	-44.03
328.518	44.03
328.731	5.12
328.944	17.41
329.157	17.41
329.37	-21.5
329.583	31.74
329.796	-15.36
330.009	-50.18
330.222	29.7
330.435	58.37
330.648	33.79
330.861	46.08
331.073	25.6
331.286	-7.17
331.499	44.03
331.712	-37.89
331.925	29.7
332.138	72.7
332.35	-64.51
332.563	1.02
332.776	-1.02
332.989	-35.84
333.202	-1.02
333.414	11.26
333.627	23.55
333.84	78.85
334.053	39.94
334.265	25.6
334.478	39.94
334.691	64.51
334.903	-17.41
335.116	13.31
335.329	-15.36
335.541	48.13
335.754	87.04
335.966	25.6
336.179	-5.12
336.392	72.7
336.604	9.22
336.817	66.56
337.029	52.22
337.242	11.26
337.454	-13.31
337.667	9.22
337.88	44.03
338.092	39.94
338.305	-35.84
338.517	-33.79
338.729	-3.07
338.942	13.31
339.154	13.31
339.367	1.02
339.579	11.26
339.792	-60.42
340.004	72.7
340.217	37.89
340.429	29.7
340.641	27.65
340.854	33.79
341.066	23.55
341.278	17.41
341.491	-25.6
341.703	-72.7
341.915	54.27
342.128	-23.55
342.34	-33.79
342.552	35.84
342.764	39.94
342.977	29.7
343.189	-44.03
343.401	103.42
343.613	-11.26
343.826	17.41
344.038	5.12
344.25	44.03
344.462	15.36
344.674	-1.02
344.886	74.75
345.099	66.56
345.311	-17.41
345.523	56.32
345.735	-17.41
345.947	41.98
346.159	33.79
346.371	-41.98
346.583	123.9
346.795	44.03
347.007	-11.26
347.219	-19.46
347.431	-56.32
347.643	27.65
347.855	-62.46
348.067	41.98
348.279	-25.6
348.491	89.09
348.703	70.65
348.915	-9.22
349.127	-48.13
349.339	3.07
349.551	-50.18
349.763	44.03
349.975	1.02
350.187	74.75
350.399	5.12
350.61	29.7
350.822	-7.17
351.034	15.36
351.246	-27.65
351.458	-29.7
351.669	3.07
351.881	-5.12
352.093	-9.22
352.305	5.12
352.517	21.5
352.728	-82.94
352.94	39.94
353.152	11.26
353.363	-23.55
353.575	7.17
353.787	76.8
353.999	25.6
354.21	35.84
354.422	64.51
354.633	44.03
354.845	19.46
355.057	62.46
355.268	29.7
355.48	1.02
355.692	-17.41
355.903	9.22
356.115	-29.7
356.326	-1.02
356.538	70.65
356.749	7.17
356.961	29.7
357.172	-25.6
357.384	72.7
357.595	41.98
357.807	48.13
358.018	58.37
358.23	19.46
358.441	70.65
358.653	-9.22
358.864	29.7
359.075	54.27
359.287	5.12
359.498	-1.02
359.709	-5.12
359.921	44.03
360.132	-35.84
360.344	29.7
360.555	-1.02
360.766	-31.74
360.977	3.07
361.189	74.75
361.4	21.5
361.611	-11.26
361.823	27.65
362.034	46.08
362.245	54.27
362.456	68.61
362.667	31.74
362.879	-31.74
363.09	11.26
363.301	-5.12
363.512	37.89
363.723	31.74
363.935	44.03
364.146	1.02
364.357	33.79
364.568	21.5
364.779	-7.17
364.99	60.42
365.201	78.85
365.412	29.7
365.623	21.5
365.834	37.89
366.045	-25.6
366.256	15.36
366.467	15.36
366.678	23.55
366.889	-13.31
367.1	58.37
367.311	25.6
367.522	50.18
367.733	-68.61
367.944	37.89
368.155	48.13
368.366	-5.12
368.577	37.89
368.788	-29.7
368.999	7.17
369.209	-19.46
369.42	29.7
369.631	29.7
369.842	9.22
370.053	35.84
370.264	66.56
370.474	11.26
370.685	-7.17
370.896	107.52
371.107	87.04
371.317	23.55
371.528	23.55
371.739	23.55
371.95	99.33
372.16	33.79
372.371	82.94
372.582	31.74
372.792	-17.41
373.003	-35.84
373.214	33.79
373.424	-41.98
373.635	3.07
373.846	27.65
374.056	-25.6
374.267	33.79
374.477	15.36
374.688	62.46
374.898	33.79
375.109	25.6
375.319	-3.07
375.53	11.26
375.74	46.08
375.951	37.89
376.161	37.89
376.372	121.85
376.582	52.22
376.793	13.31
377.003	44.03
377.214	19.46
377.424	128
377.635	27.65
377.845	-17.41
378.055	19.46
378.266	48.13
378.476	-5.12
378.686	37.89
378.897	37.89
379.107	58.37
379.317	62.46
379.528	3.07
379.738	62.46
379.948	21.5
380.158	41.98
380.369	84.99
380.579	-11.26
380.789	-21.5
380.999	80.89
381.21	44.03
381.42	-60.42
381.63	-19.46
381.84	-31.74
382.05	39.94
382.261	-21.5
382.471	107.52
382.681	54.27
382.891	41.98
383.101	-17.41
383.311	74.75
383.521	35.84
383.731	7.17
383.941	-7.17
384.151	46.08
384.361	60.42
384.571	62.46
384.781	13.31
384.991	56.32
385.201	39.94
385.411	62.46
385.621	44.03
385.831	72.7
386.041	35.84
386.251	50.18
386.461	52.22
386.671	-11.26
386.881	3.07
387.091	17.41
387.301	23.55
387.511	9.22
387.72	27.65
387.93	66.56
388.14	54.27
388.35	101.37
388.56	37.89
388.769	-1.02
388.979	44.03
389.189	-37.89
389.399	68.61
389.609	-5.12
389.818	33.79
390.028	-17.41
390.238	66.56
390.447	68.61
390.657	64.51
390.867	29.7
391.076	76.8
391.286	9.22
391.496	35.84
391.705	19.46
391.915	15.36
392.125	7.17
392.334	31.74
392.544	35.84
392.753	68.61
392.963	-13.31
393.172	82.94
393.382	-44.03
393.591	70.65
393.801	19.46
394.01	44.03
394.22	64.51
394.429	31.74
394.639	9.22
394.848	37.89
395.058	54.27
395.267	74.75
395.477	31.74
395.686	52.22
395.895	39.94
396.105	82.94
396.314	23.55
396.524	-19.46
396.733	87.04
396.942	48.13
397.152	101.37
397.361	-19.46
397.57	15.36
397.78	37.89
397.989	97.28
398.198	35.84
398.407	31.74
398.617	80.89
398.826	121.85
399.035	95.23
399.244	62.46
399.453	64.51
399.663	84.99
399.872	41.98
400.081	21.5
400.29	58.37
400.499	21.5
400.708	9.22
400.917	15.36
401.127	82.94
401.336	33.79
401.545	44.03
401.754	21.5
401.963	93.18
402.172	17.41
402.381	103.42
402.59	97.28
402.799	52.22
403.008	95.23
403.217	72.7
403.426	11.26
403.635	54.27
403.844	41.98
404.053	142.33
404.262	54.27
404.471	146.43
404.68	3.07
404.888	19.46
405.097	33.79
405.306	89.09
405.515	35.84
405.724	109.57
405.933	78.85
406.142	78.85
406.35	72.7
406.559	134.14
406.768	134.14
406.977	132.09
407.185	113.66
407.394	119.81
407.603	119.81
407.812	64.51
408.02	93.18
408.229	191.49
408.438	140.29
408.646	158.72
408.855	146.43
409.064	185.34
409.272	156.67
409.481	185.34
409.69	195.58
409.898	140.29
410.107	115.71
410.315	220.16
410.524	250.88
410.733	177.15
410.941	218.11
411.15	230.4
411.358	244.73
411.567	224.25
411.775	250.88
411.984	257.02
412.192	234.49
412.401	218.11
412.609	238.59
412.818	289.79
413.026	283.64
413.234	281.6
413.443	318.46
413.651	320.51
413.86	322.56
414.068	351.23
414.276	355.32
414.485	365.56
414.693	371.71
414.901	457.72
415.11	381.95
415.318	418.81
415.526	463.86
415.734	461.82
415.943	400.38
416.151	488.44
416.359	467.96
416.567	463.86
416.776	560.12
416.984	566.26
417.192	683
417.4	560.12
417.608	611.32
417.817	594.93
418.025	611.32
418.233	711.67
418.441	726
418.649	674.81
418.857	689.14
419.065	775.16
419.273	812.02
419.481	764.92
419.689	840.69
419.897	965.62
420.105	910.32
420.313	1037.3
420.521	1000.43
420.729	883.7
420.937	1018.86
421.145	1068.02
421.353	1127.41
421.561	1178.61
421.769	1117.17
421.977	1291.24
422.185	1125.36
422.393	1350.64
422.601	1371.12
422.809	1399.79
423.017	1424.36
423.224	1442.79
423.432	1692.65
423.64	1448.94
423.848	1620.97
424.056	1610.73
424.263	1747.94
424.471	1692.65
424.679	1706.98
424.887	1901.54
425.094	2032.61
425.302	1969.12
425.51	1977.31
425.718	2085.86
425.925	1981.41
426.133	2143.2
426.341	2231.26
426.548	2376.67
426.756	2401.24
426.964	2395.1
427.171	2571.22
427.379	2563.03
427.586	2657.24
427.794	2743.25
428.001	2757.59
428.209	2993.11
428.417	2810.84
428.624	3027.92
428.832	3124.18
429.039	3099.6
429.247	3101.65
429.454	3539.91
429.662	3445.71
429.869	3445.71
430.076	3576.78
430.284	3605.45
430.491	3742.66
430.699	3955.65
430.906	3982.28
431.114	4017.09
431.321	3994.56
431.528	4205.5
431.736	4459.45
431.943	4570.04
432.15	4580.28
432.358	4623.29
432.565	4901.81
432.772	4727.74
432.979	4897.72
433.187	5323.69
433.394	5102.51
433.601	5581.74
433.808	5540.78
434.016	5362.61
434.223	5798.82
434.43	6040.48
434.637	6087.59
434.844	6439.84
435.052	6132.64
435.259	6431.65
435.466	6439.84
435.673	6392.73
435.88	6734.75
436.087	7123.86
436.294	7277.46
436.501	7107.48
436.708	7068.56
436.915	7525.26
437.122	7469.97
437.329	7654.28
437.537	8043.4
437.743	8186.76
437.95	8053.64
438.157	8420.22
438.364	8706.94
438.571	8790.91
438.778	8885.11
438.985	9794.41
439.192	9286.51
439.399	9673.58
439.606	9401.2
439.813	9771.88
440.02	10408.8
440.227	10353.51
440.433	10187.62
440.64	10388.32
440.847	10527.58
441.054	10554.21
441.261	11309.91
441.467	11246.42
441.674	11434.83
441.881	11977.55
442.088	11959.11
442.294	11668.3
442.501	11957.07
442.708	12405.57
442.914	12663.61
443.121	13495.09
443.328	12815.16
443.534	13701.93
443.741	13390.64
443.948	13376.31
444.154	14342.95
444.361	14138.15
444.568	14338.85
444.774	13955.88
444.981	14426.92
445.187	14789.41
445.394	15573.78
445.6	15012.63
445.807	16884.48
446.013	16173.83
446.22	16456.45
446.426	17119.99
446.633	17015.55
446.839	17683.19
447.046	16812.8
447.252	17853.17
447.459	17887.98
447.665	17832.69
447.871	18715.36
448.078	19170.01
448.284	18240.23
448.491	18887.39
448.697	19831.51
448.903	19917.52
449.11	19897.04
449.316	19880.66
449.522	20206.28
449.728	20722.37
449.935	20720.32
450.141	20738.76
450.347	21050.05
450.553	20323.02
450.76	21050.05
450.966	21295.8
451.172	21144.25
451.378	21621.43
451.584	20964.03
451.791	21924.53
451.997	21734.07
452.203	22278.83
452.409	22055.6
452.615	21703.35
452.821	21066.43
453.027	20906.69
453.233	21971.63
453.44	20898.5
453.646	21271.23
453.852	21586.61
454.058	22016.69
454.264	20941.5
454.47	21490.36
454.676	20861.63
454.882	21822.13
455.088	19743.44
455.294	20232.91
455.5	20292.3
455.705	20642.5
455.911	19540.69
456.117	19313.37
456.323	19053.28
456.529	18004.72
456.735	18977.5
456.941	18094.83
457.147	18017.01
457.352	17347.32
457.558	17423.09
457.764	17062.65
457.97	16894.72
458.176	16454.4
458.381	16468.74
458.587	15887.12
458.793	15735.57
458.999	14967.58
459.204	16075.53
459.41	15450.9
459.616	14316.33
459.821	14646.05
460.027	14621.47
460.233	14193.45
460.438	13556.53
460.644	13615.92
460.85	13003.58
461.055	13056.82
461.261	13011.77
461.466	11914.06
461.672	11633.49
461.878	12415.81
462.083	11776.84
462.289	11305.81
462.494	11070.3
462.7	10820.44
462.905	10406.75
463.111	10797.92
463.316	11029.34
463.522	10394.47
463.727	10640.22
463.932	10478.43
464.138	10595.17
464.343	10607.45
464.549	10214.24
464.754	10505.06
464.959	10554.21
465.165	10363.75
465.37	9991.02
465.575	9679.72
465.781	10113.89
465.986	10183.52
466.191	9753.45
466.397	9374.58
466.602	9085.81
466.807	9448.3
467.012	9532.27
467.218	9413.49
467.423	9036.66
467.628	9446.26
467.833	9870.19
468.038	9259.89
468.244	9042.81
468.449	9358.19
468.654	9126.77
