Data from USB4F104151__268__14-02-06-760.txt Node

Date: Thu Mar 13 14:02:06 EDT 2025
User: louis
Spectrometer: USB4F10415
Trigger mode: 4
Integration Time (sec): 1.000000E-2
Scans to average: 1
Electric dark correction enabled: true
Nonlinearity correction enabled: false
Boxcar width: 0
XAxis mode: Wavelengths
Number of Pixels in Spectrum: 3648
>>>>>Begin Spectral Data<<<<<
178.204	-37.55
178.424	-37.55
178.644	-37.55
178.864	-86.7
179.084	-25.26
179.304	15.7
179.524	52.56
179.744	5.46
179.964	-2.73
180.184	-0.68
180.404	-70.31
180.624	-21.16
180.844	17.75
181.064	-21.16
181.283	30.04
181.503	-41.64
181.723	36.18
181.943	-90.79
182.163	36.18
182.383	-15.02
182.602	-2.73
182.822	-17.07
183.042	40.28
183.262	48.47
183.482	17.75
183.701	54.61
183.921	-45.74
184.141	7.51
184.361	97.62
184.58	118.1
184.8	-31.4
185.02	-27.31
185.239	105.81
185.459	-39.59
185.679	27.99
185.898	40.28
186.118	-23.21
186.338	-74.41
186.557	-6.83
186.777	-4.78
186.997	52.56
187.216	40.28
187.436	23.89
187.655	89.43
187.875	17.75
188.095	17.75
188.314	40.28
188.534	32.08
188.753	36.18
188.973	7.51
189.192	62.8
189.412	-8.87
189.631	42.32
189.851	30.04
190.07	97.62
190.29	-2.73
190.509	-51.88
190.729	-12.97
190.948	-2.73
191.168	44.37
191.387	13.65
191.607	42.32
191.826	-29.35
192.045	48.47
192.265	87.38
192.484	25.94
192.704	-4.78
192.923	52.56
193.142	17.75
193.362	17.75
193.581	-25.26
193.8	-43.69
194.02	23.89
194.239	-8.87
194.458	-6.83
194.678	15.7
194.897	38.23
195.116	32.08
195.335	21.85
195.555	81.24
195.774	3.41
195.993	-23.21
196.212	15.7
196.432	19.8
196.651	-15.02
196.87	-17.07
197.089	-0.68
197.308	34.13
197.528	15.7
197.747	-58.03
197.966	105.81
198.185	-25.26
198.404	48.47
198.623	-6.83
198.842	7.51
199.062	38.23
199.281	56.66
199.5	-25.26
199.719	34.13
199.938	19.8
200.157	34.13
200.376	-25.26
200.595	-41.64
200.814	-39.59
201.033	19.8
201.252	27.99
201.471	19.8
201.69	54.61
201.909	48.47
202.128	19.8
202.347	23.89
202.566	30.04
202.785	15.7
203.004	42.32
203.223	36.18
203.442	32.08
203.661	17.75
203.879	-84.65
204.098	-0.68
204.317	-0.68
204.536	-6.83
204.755	-4.78
204.974	48.47
205.193	-53.93
205.411	32.08
205.63	-4.78
205.849	9.56
206.068	23.89
206.287	13.65
206.505	-12.97
206.724	15.7
206.943	-41.64
207.162	25.94
207.381	21.85
207.599	15.7
207.818	27.99
208.037	-43.69
208.255	48.47
208.474	3.41
208.693	68.95
208.911	32.08
209.13	7.51
209.349	34.13
209.567	-47.79
209.786	46.42
210.005	36.18
210.223	42.32
210.442	13.65
210.661	-58.03
210.879	-0.68
211.098	-25.26
211.316	-4.78
211.535	48.47
211.753	-47.79
211.972	23.89
212.191	11.61
212.409	-25.26
212.628	27.99
212.846	11.61
213.065	11.61
213.283	85.33
213.502	9.56
213.72	32.08
213.938	9.56
214.157	19.8
214.375	44.37
214.594	-41.64
214.812	3.41
215.031	114
215.249	-15.02
215.467	23.89
215.686	71
215.904	36.18
216.122	-33.45
216.341	50.52
216.559	50.52
216.778	50.52
216.996	75.09
217.214	9.56
217.432	-21.16
217.651	64.85
217.869	-0.68
218.087	-6.83
218.306	32.08
218.524	30.04
218.742	13.65
218.96	42.32
219.179	-29.35
219.397	48.47
219.615	34.13
219.833	-0.68
220.051	81.24
220.27	3.41
220.488	-21.16
220.706	13.65
220.924	-31.4
221.142	-10.92
221.36	32.08
221.578	1.37
221.796	23.89
222.015	13.65
222.233	-23.21
222.451	11.61
222.669	27.99
222.887	21.85
223.105	-0.68
223.323	71
223.541	11.61
223.759	17.75
223.977	30.04
224.195	23.89
224.413	23.89
224.631	-4.78
224.849	77.14
225.067	42.32
225.285	5.46
225.503	75.09
225.721	-33.45
225.939	19.8
226.157	83.28
226.375	103.76
226.592	25.94
226.81	32.08
227.028	11.61
227.246	-47.79
227.464	11.61
227.682	36.18
227.9	27.99
228.117	-15.02
228.335	114
228.553	42.32
228.771	54.61
228.989	3.41
229.206	19.8
229.424	25.94
229.642	58.71
229.86	15.7
230.077	-53.93
230.295	-10.92
230.513	-0.68
230.731	50.52
230.948	42.32
231.166	95.57
231.384	1.37
231.601	-29.35
231.819	32.08
232.037	36.18
232.254	-6.83
232.472	32.08
232.689	-49.83
232.907	19.8
233.125	-25.26
233.342	3.41
233.56	-27.31
233.777	32.08
233.995	42.32
234.213	50.52
234.43	19.8
234.648	48.47
234.865	11.61
235.083	-25.26
235.3	27.99
235.518	36.18
235.735	60.76
235.953	-19.11
236.17	50.52
236.388	40.28
236.605	27.99
236.822	66.9
237.04	40.28
237.257	32.08
237.475	27.99
237.692	83.28
237.909	-51.88
238.127	23.89
238.344	64.85
238.562	-2.73
238.779	-8.87
238.996	58.71
239.214	46.42
239.431	23.89
239.648	-29.35
239.865	-35.5
240.083	5.46
240.3	83.28
240.517	85.33
240.735	1.37
240.952	56.66
241.169	15.7
241.386	3.41
241.603	3.41
241.821	42.32
242.038	-33.45
242.255	-23.21
242.472	36.18
242.689	9.56
242.907	122.2
243.124	60.76
243.341	19.8
243.558	-64.17
243.775	-33.45
243.992	38.23
244.209	-47.79
244.426	9.56
244.643	-8.87
244.86	66.9
245.078	1.37
245.295	40.28
245.512	5.46
245.729	-43.69
245.946	-25.26
246.163	32.08
246.38	48.47
246.597	89.43
246.814	-37.55
247.031	66.9
247.248	-37.55
247.464	-21.16
247.681	93.52
247.898	7.51
248.115	34.13
248.332	34.13
248.549	17.75
248.766	9.56
248.983	19.8
249.2	7.51
249.417	27.99
249.633	-0.68
249.85	-25.26
250.067	-15.02
250.284	15.7
250.501	34.13
250.717	34.13
250.934	7.51
251.151	-70.31
251.368	34.13
251.585	13.65
251.801	-0.68
252.018	-23.21
252.235	9.56
252.451	81.24
252.668	-12.97
252.885	46.42
253.102	36.18
253.318	-33.45
253.535	-12.97
253.752	-2.73
253.968	11.61
254.185	73.04
254.401	48.47
254.618	79.19
254.835	-0.68
255.051	109.91
255.268	-0.68
255.484	32.08
255.701	-31.4
255.917	109.91
256.134	58.71
256.351	48.47
256.567	66.9
256.784	7.51
257	-23.21
257.217	107.86
257.433	40.28
257.65	38.23
257.866	36.18
258.082	42.32
258.299	54.61
258.515	-6.83
258.732	-25.26
258.948	17.75
259.165	3.41
259.381	1.37
259.597	1.37
259.814	1.37
260.03	81.24
260.246	58.71
260.463	38.23
260.679	126.29
260.895	75.09
261.112	17.75
261.328	-15.02
261.544	-4.78
261.761	109.91
261.977	50.52
262.193	30.04
262.409	105.81
262.626	-25.26
262.842	85.33
263.058	-27.31
263.274	27.99
263.49	30.04
263.707	32.08
263.923	60.76
264.139	27.99
264.355	-29.35
264.571	48.47
264.787	-37.55
265.004	15.7
265.22	-49.83
265.436	83.28
265.652	30.04
265.868	75.09
266.084	9.56
266.3	58.71
266.516	107.86
266.732	52.56
266.948	7.51
267.164	7.51
267.38	-12.97
267.596	58.71
267.812	103.76
268.028	27.99
268.244	7.51
268.46	105.81
268.676	11.61
268.892	-29.35
269.108	32.08
269.324	-35.5
269.54	11.61
269.756	25.94
269.972	-58.03
270.188	-25.26
270.403	21.85
270.619	15.7
270.835	-12.97
271.051	36.18
271.267	13.65
271.483	52.56
271.698	83.28
271.914	-19.11
272.13	-8.87
272.346	9.56
272.562	1.37
272.777	40.28
272.993	50.52
273.209	46.42
273.425	99.67
273.64	19.8
273.856	40.28
274.072	34.13
274.287	-2.73
274.503	-2.73
274.719	3.41
274.934	-29.35
275.15	-29.35
275.366	32.08
275.581	-49.83
275.797	-19.11
276.012	11.61
276.228	36.18
276.444	30.04
276.659	5.46
276.875	-2.73
277.09	15.7
277.306	-17.07
277.521	52.56
277.737	-12.97
277.952	30.04
278.168	68.95
278.383	64.85
278.599	36.18
278.814	42.32
279.03	44.37
279.245	48.47
279.461	34.13
279.676	27.99
279.892	62.8
280.107	36.18
280.322	64.85
280.538	32.08
280.753	36.18
280.969	30.04
281.184	-6.83
281.399	66.9
281.615	23.89
281.83	87.38
282.045	-12.97
282.26	5.46
282.476	30.04
282.691	38.23
282.906	-0.68
283.122	23.89
283.337	-6.83
283.552	64.85
283.767	-10.92
283.983	75.09
284.198	54.61
284.413	21.85
284.628	40.28
284.843	15.7
285.058	7.51
285.274	5.46
285.489	34.13
285.704	7.51
285.919	25.94
286.134	13.65
286.349	32.08
286.564	-8.87
286.779	15.7
286.995	40.28
287.21	-74.41
287.425	19.8
287.64	15.7
287.855	50.52
288.07	-6.83
288.285	15.7
288.5	-88.75
288.715	32.08
288.93	9.56
289.145	13.65
289.36	81.24
289.575	48.47
289.79	3.41
290.004	-2.73
290.219	60.76
290.434	-0.68
290.649	-19.11
290.864	25.94
291.079	-45.74
291.294	7.51
291.509	5.46
291.724	15.7
291.938	48.47
292.153	56.66
292.368	42.32
292.583	32.08
292.798	-17.07
293.012	17.75
293.227	9.56
293.442	-74.41
293.657	1.37
293.871	60.76
294.086	56.66
294.301	32.08
294.516	9.56
294.73	25.94
294.945	34.13
295.16	44.37
295.374	32.08
295.589	75.09
295.804	-23.21
296.018	105.81
296.233	93.52
296.447	-17.07
296.662	-23.21
296.877	15.7
297.091	19.8
297.306	56.66
297.52	40.28
297.735	13.65
297.949	-29.35
298.164	34.13
298.378	27.99
298.593	114
298.807	-12.97
299.022	-25.26
299.236	25.94
299.451	-8.87
299.665	52.56
299.88	38.23
300.094	-55.98
300.309	21.85
300.523	-19.11
300.737	27.99
300.952	30.04
301.166	-8.87
301.381	27.99
301.595	-27.31
301.809	-6.83
302.024	11.61
302.238	60.76
302.452	91.48
302.667	122.2
302.881	-2.73
303.095	48.47
303.309	7.51
303.524	-49.83
303.738	107.86
303.952	66.9
304.166	71
304.381	-49.83
304.595	48.47
304.809	13.65
305.023	44.37
305.237	36.18
305.452	40.28
305.666	-10.92
305.88	-17.07
306.094	44.37
306.308	30.04
306.522	60.76
306.736	27.99
306.95	3.41
307.164	17.75
307.379	48.47
307.593	68.95
307.807	-0.68
308.021	81.24
308.235	1.37
308.449	9.56
308.663	25.94
308.877	-4.78
309.091	50.52
309.305	-10.92
309.519	-31.4
309.733	11.61
309.947	-19.11
310.161	11.61
310.374	56.66
310.588	-19.11
310.802	9.56
311.016	7.51
311.23	11.61
311.444	-8.87
311.658	36.18
311.872	150.87
312.085	32.08
312.299	-12.97
312.513	15.7
312.727	-74.41
312.941	56.66
313.154	50.52
313.368	11.61
313.582	7.51
313.796	-15.02
314.009	30.04
314.223	13.65
314.437	-0.68
314.651	44.37
314.864	38.23
315.078	-29.35
315.292	30.04
315.505	-25.26
315.719	64.85
315.933	21.85
316.146	-37.55
316.36	48.47
316.573	11.61
316.787	56.66
317.001	111.96
317.214	-31.4
317.428	-12.97
317.641	25.94
317.855	-37.55
318.068	42.32
318.282	32.08
318.495	44.37
318.709	15.7
318.922	15.7
319.136	64.85
319.349	73.04
319.563	46.42
319.776	17.75
319.99	-25.26
320.203	-0.68
320.417	-31.4
320.63	68.95
320.843	42.32
321.057	-0.68
321.27	-121.51
321.483	9.56
321.697	81.24
321.91	-0.68
322.124	77.14
322.337	66.9
322.55	-35.5
322.763	34.13
322.977	62.8
323.19	62.8
323.403	34.13
323.617	-12.97
323.83	9.56
324.043	-6.83
324.256	-37.55
324.469	-41.64
324.683	52.56
324.896	5.46
325.109	52.56
325.322	64.85
325.535	77.14
325.748	-8.87
325.962	34.13
326.175	-12.97
326.388	23.89
326.601	-19.11
326.814	50.52
327.027	46.42
327.24	5.46
327.453	73.04
327.666	81.24
327.879	11.61
328.092	-41.64
328.305	54.61
328.518	7.51
328.731	17.75
328.944	42.32
329.157	15.7
329.37	25.94
329.583	30.04
329.796	-0.68
330.009	46.42
330.222	56.66
330.435	42.32
330.648	91.48
330.861	71
331.073	40.28
331.286	50.52
331.499	7.51
331.712	-4.78
331.925	81.24
332.138	75.09
332.35	54.61
332.563	42.32
332.776	-2.73
332.989	52.56
333.202	15.7
333.414	1.37
333.627	85.33
333.84	-4.78
334.053	89.43
334.265	64.85
334.478	23.89
334.691	-8.87
334.903	103.76
335.116	-2.73
335.329	58.71
335.541	7.51
335.754	19.8
335.966	-12.97
336.179	44.37
336.392	50.52
336.604	83.28
336.817	64.85
337.029	-2.73
337.242	-27.31
337.454	50.52
337.667	15.7
337.88	44.37
338.092	25.94
338.305	32.08
338.517	50.52
338.729	50.52
338.942	27.99
339.154	17.75
339.367	3.41
339.579	114
339.792	-10.92
340.004	1.37
340.217	19.8
340.429	56.66
340.641	50.52
340.854	-0.68
341.066	30.04
341.278	58.71
341.491	93.52
341.703	23.89
341.915	25.94
342.128	-4.78
342.34	-8.87
342.552	-4.78
342.764	75.09
342.977	-33.45
343.189	85.33
343.401	40.28
343.613	-4.78
343.826	42.32
344.038	36.18
344.25	48.47
344.462	27.99
344.674	7.51
344.886	62.8
345.099	-17.07
345.311	36.18
345.523	34.13
345.735	-31.4
345.947	89.43
346.159	58.71
346.371	71
346.583	36.18
346.795	46.42
347.007	-4.78
347.219	56.66
347.431	58.71
347.643	-2.73
347.855	38.23
348.067	1.37
348.279	-2.73
348.491	-10.92
348.703	13.65
348.915	36.18
349.127	27.99
349.339	62.8
349.551	60.76
349.763	-6.83
349.975	89.43
350.187	71
350.399	32.08
350.61	21.85
350.822	40.28
351.034	73.04
351.246	11.61
351.458	89.43
351.669	19.8
351.881	56.66
352.093	17.75
352.305	44.37
352.517	-19.11
352.728	19.8
352.94	32.08
353.152	34.13
353.363	97.62
353.575	17.75
353.787	64.85
353.999	23.89
354.21	-2.73
354.422	-47.79
354.633	48.47
354.845	56.66
355.057	99.67
355.268	85.33
355.48	91.48
355.692	87.38
355.903	-17.07
356.115	42.32
356.326	15.7
356.538	50.52
356.749	56.66
356.961	19.8
357.172	71
357.384	79.19
357.595	60.76
357.807	79.19
358.018	56.66
358.23	36.18
358.441	-12.97
358.653	64.85
358.864	75.09
359.075	-12.97
359.287	30.04
359.498	32.08
359.709	66.9
359.921	23.89
360.132	11.61
360.344	19.8
360.555	-31.4
360.766	15.7
360.977	-31.4
361.189	36.18
361.4	68.95
361.611	54.61
361.823	17.75
362.034	-25.26
362.245	-10.92
362.456	93.52
362.667	75.09
362.879	19.8
363.09	21.85
363.301	89.43
363.512	42.32
363.723	36.18
363.935	-37.55
364.146	81.24
364.357	50.52
364.568	109.91
364.779	48.47
364.99	-4.78
365.201	50.52
365.412	93.52
365.623	7.51
365.834	-0.68
366.045	-17.07
366.256	25.94
366.467	36.18
366.678	42.32
366.889	58.71
367.1	25.94
367.311	34.13
367.522	-37.55
367.733	-8.87
367.944	25.94
368.155	50.52
368.366	7.51
368.577	21.85
368.788	89.43
368.999	9.56
369.209	48.47
369.42	56.66
369.631	130.39
369.842	48.47
370.053	7.51
370.264	-2.73
370.474	23.89
370.685	38.23
370.896	40.28
371.107	83.28
371.317	23.89
371.528	3.41
371.739	60.76
371.95	83.28
372.16	40.28
372.371	60.76
372.582	64.85
372.792	85.33
373.003	103.76
373.214	56.66
373.424	44.37
373.635	-6.83
373.846	68.95
374.056	68.95
374.267	36.18
374.477	73.04
374.688	116.05
374.898	66.9
375.109	27.99
375.319	64.85
375.53	7.51
375.74	-8.87
375.951	68.95
376.161	-39.59
376.372	64.85
376.582	3.41
376.793	68.95
377.003	-12.97
377.214	89.43
377.424	-39.59
377.635	109.91
377.845	9.56
378.055	75.09
378.266	11.61
378.476	32.08
378.686	52.56
378.897	15.7
379.107	58.71
379.317	15.7
379.528	-6.83
379.738	-12.97
379.948	60.76
380.158	89.43
380.369	-8.87
380.579	-15.02
380.789	3.41
380.999	81.24
381.21	66.9
381.42	73.04
381.63	38.23
381.84	40.28
382.05	97.62
382.261	40.28
382.471	66.9
382.681	159.06
382.891	87.38
383.101	85.33
383.311	93.52
383.521	58.71
383.731	91.48
383.941	25.94
384.151	56.66
384.361	44.37
384.571	19.8
384.781	27.99
384.991	75.09
385.201	-0.68
385.411	58.71
385.621	89.43
385.831	34.13
386.041	40.28
386.251	23.89
386.461	163.15
386.671	-17.07
386.881	93.52
387.091	60.76
387.301	17.75
387.511	5.46
387.72	52.56
387.93	-25.26
388.14	-15.02
388.35	42.32
388.56	42.32
388.769	23.89
388.979	71
389.189	97.62
389.399	38.23
389.609	87.38
389.818	40.28
390.028	91.48
390.238	126.29
390.447	50.52
390.657	17.75
390.867	30.04
391.076	81.24
391.286	44.37
391.496	114
391.705	101.72
391.915	73.04
392.125	40.28
392.334	15.7
392.544	25.94
392.753	15.7
392.963	1.37
393.172	132.44
393.382	-25.26
393.591	50.52
393.801	81.24
394.01	62.8
394.22	77.14
394.429	54.61
394.639	54.61
394.848	114
395.058	48.47
395.267	7.51
395.477	118.1
395.686	79.19
395.895	138.58
396.105	68.95
396.314	75.09
396.524	105.81
396.733	95.57
396.942	62.8
397.152	138.58
397.361	111.96
397.57	48.47
397.78	105.81
397.989	120.15
398.198	64.85
398.407	107.86
398.617	64.85
398.826	25.94
399.035	54.61
399.244	66.9
399.453	89.43
399.663	44.37
399.872	111.96
400.081	62.8
400.29	105.81
400.499	85.33
400.708	89.43
400.917	159.06
401.127	89.43
401.336	167.25
401.545	122.2
401.754	93.52
401.963	109.91
402.172	83.28
402.381	118.1
402.59	140.63
402.799	7.51
403.008	71
403.217	91.48
403.426	130.39
403.635	111.96
403.844	95.57
404.053	142.68
404.262	114
404.471	111.96
404.68	163.15
404.888	40.28
405.097	116.05
405.306	130.39
405.515	146.77
405.724	101.72
405.933	157.01
406.142	179.54
406.35	62.8
406.559	195.92
406.768	232.79
406.977	163.15
407.185	171.35
407.394	118.1
407.603	179.54
407.812	181.59
408.02	161.11
408.229	257.36
408.438	195.92
408.646	187.73
408.855	220.5
409.064	306.51
409.272	243.03
409.481	255.31
409.69	277.84
409.898	183.63
410.107	228.69
410.315	277.84
410.524	271.7
410.733	249.17
410.941	294.22
411.15	277.84
411.358	374.1
411.567	331.09
411.775	413.01
411.984	378.19
412.192	279.89
412.401	378.19
412.609	394.58
412.818	400.72
413.026	421.2
413.234	462.16
413.443	433.49
413.651	396.62
413.86	445.77
414.068	507.21
414.276	550.22
414.485	439.63
414.693	550.22
414.901	634.19
415.11	523.6
415.318	556.36
415.526	548.17
415.734	687.43
415.943	619.85
416.151	761.16
416.359	705.87
416.567	748.87
416.776	836.94
416.984	804.17
417.192	761.16
417.4	853.32
417.608	830.79
417.817	861.51
418.025	947.53
418.233	1041.73
418.441	1049.93
418.649	1101.12
418.857	1037.64
419.065	1080.64
419.273	1051.97
419.481	1191.24
419.689	1219.91
419.897	1355.07
420.105	1271.11
420.313	1258.82
420.521	1312.07
420.729	1432.9
420.937	1494.33
421.145	1506.62
421.353	1541.44
421.561	1649.98
421.769	1695.04
421.977	1828.15
422.185	1715.52
422.393	1901.88
422.601	1883.45
422.809	1965.37
423.017	1932.6
423.224	2098.49
423.432	2106.68
423.64	2258.23
423.848	2360.63
424.056	2303.28
424.263	2444.59
424.471	2538.8
424.679	2436.4
424.887	2483.5
425.094	2596.14
425.302	2792.75
425.51	2790.7
425.718	2952.49
425.925	2952.49
426.133	3007.78
426.341	3165.48
426.548	3355.94
426.756	3407.14
426.964	3351.84
427.171	3718.43
427.379	3611.93
427.586	3624.22
427.794	3855.64
428.001	4082.97
428.209	4113.69
428.417	4173.08
428.624	4234.52
428.832	4467.99
429.039	4357.39
429.247	4373.78
429.454	4973.83
429.662	5221.64
429.869	4816.14
430.076	5250.31
430.284	4977.93
430.491	5180.68
430.699	5635.33
430.906	5485.83
431.114	5657.85
431.321	5842.17
431.528	6040.83
431.736	6257.91
431.943	6483.19
432.15	6548.72
432.358	6655.22
432.565	6749.42
432.772	6835.44
432.979	7144.68
433.187	7386.34
433.394	7267.56
433.601	7795.93
433.808	7820.51
434.016	7734.5
434.223	7924.96
434.43	8594.64
434.637	8346.84
434.844	9020.62
435.052	8996.04
435.259	8963.28
435.466	9143.5
435.673	9039.05
435.88	9635.01
436.087	10282.17
436.294	10273.98
436.501	9954.49
436.708	10177.72
436.915	10413.24
437.122	10990.77
437.329	10828.98
437.537	11281.58
437.743	11330.73
437.95	11437.22
438.157	12100.76
438.364	12299.42
438.571	12213.4
438.778	12410.01
438.985	13565.06
439.192	12809.36
439.399	13454.47
439.606	13073.55
439.813	13802.63
440.02	14580.85
440.227	14519.42
440.433	14140.54
440.64	14789.75
440.847	14664.82
441.054	14836.85
441.261	15905.89
441.467	15875.17
441.674	16266.33
441.881	16956.5
442.088	16706.65
442.294	16319.58
442.501	16927.83
442.708	17251.41
442.914	17878.08
443.121	18568.25
443.328	18156.61
443.534	19420.21
443.741	18760.76
443.948	18504.76
444.154	19997.73
444.361	19790.89
444.568	20198.43
444.774	20001.83
444.981	20177.95
445.187	20831.26
445.394	21685.26
445.6	21421.07
445.807	23585.77
446.013	22490.11
446.22	22471.68
446.426	23626.73
446.633	23780.33
446.839	24757.21
447.046	23706.6
447.252	25179.09
447.459	24923.1
447.665	24755.16
447.871	26074.06
448.078	27157.43
448.284	25852.87
448.491	26567.62
448.697	27599.79
448.903	28046.25
449.11	28320.68
449.316	27790.25
449.522	28040.11
449.728	28728.22
449.935	28918.68
450.141	29203.35
450.347	29645.71
450.553	28875.68
450.76	29031.32
450.966	29836.17
451.172	29844.37
451.378	30546.82
451.584	29813.65
451.791	30634.88
451.997	30276.49
452.203	31189.88
452.409	30937.98
452.615	30854.01
452.821	29819.79
453.027	29457.3
453.233	30813.06
453.44	30055.31
453.646	29825.93
453.852	29997.96
454.058	30499.72
454.264	29330.33
454.47	30286.73
454.676	29473.68
454.882	30477.19
455.088	27941.8
455.294	27990.95
455.5	28615.58
455.705	29035.42
455.911	27505.59
456.117	27263.93
456.323	27302.84
456.529	25248.72
456.735	26481.6
456.941	25521.1
457.147	25643.98
457.352	24419.3
457.558	24409.06
457.764	24378.34
457.97	23626.73
458.176	23505.9
458.381	23360.5
458.587	22270.98
458.793	22250.5
458.999	21101.59
459.204	22529.02
459.41	21808.14
459.616	20608.03
459.821	20702.23
460.027	20399.13
460.233	20091.94
460.438	19264.56
460.644	19362.86
460.85	18371.65
461.055	18322.49
461.261	17912.9
461.466	16788.57
461.672	16352.35
461.878	17142.86
462.083	16102.5
462.289	15717.48
462.494	16063.58
462.7	15107.18
462.905	14697.59
463.111	15193.2
463.316	15318.12
463.522	14990.45
463.727	15072.37
463.932	14912.63
464.138	14720.12
464.343	14705.78
464.549	14410.87
464.754	15072.37
464.959	14734.45
465.165	14531.7
465.37	14038.14
465.575	13669.51
465.781	14144.64
465.986	14210.17
466.191	13962.37
466.397	13552.77
466.602	12983.44
466.807	13388.94
467.012	13319.31
467.218	13345.93
467.423	12999.82
467.628	13188.24
467.833	13646.98
468.038	13386.89
468.244	12958.86
