Data from USB4F104151__198__13-59-40-786.txt Node

Date: Thu Mar 13 13:59:40 EDT 2025
User: louis
Spectrometer: USB4F10415
Trigger mode: 4
Integration Time (sec): 1.000000E-2
Scans to average: 1
Electric dark correction enabled: true
Nonlinearity correction enabled: false
Boxcar width: 0
XAxis mode: Wavelengths
Number of Pixels in Spectrum: 3648
>>>>>Begin Spectral Data<<<<<
178.204	-53.76
178.424	-53.76
178.644	-53.76
178.864	-82.43
179.084	-25.09
179.304	-47.62
179.524	48.64
179.744	15.87
179.964	-16.9
180.184	-6.66
180.404	32.26
180.624	-45.57
180.844	-10.75
181.064	-27.14
181.283	58.88
181.503	1.54
181.723	-2.56
181.943	15.87
182.163	5.63
182.383	-0.51
182.602	28.16
182.822	-12.8
183.042	93.69
183.262	-31.23
183.482	17.92
183.701	3.58
183.921	26.11
184.141	32.26
184.361	15.87
184.58	9.73
184.8	-23.04
185.02	-2.56
185.239	1.54
185.459	-18.94
185.679	26.11
185.898	26.11
186.118	22.02
186.338	-2.56
186.557	13.82
186.777	-16.9
186.997	3.58
187.216	7.68
187.436	36.35
187.655	-68.09
187.875	-10.75
188.095	-27.14
188.314	19.97
188.534	-18.94
188.753	1.54
188.973	-16.9
189.192	32.26
189.412	1.54
189.631	38.4
189.851	1.54
190.07	13.82
190.29	1.54
190.509	30.21
190.729	-6.66
190.948	62.98
191.168	44.54
191.387	9.73
191.607	40.45
191.826	30.21
192.045	-2.56
192.265	-10.75
192.484	15.87
192.704	34.3
192.923	-14.85
193.142	79.36
193.362	50.69
193.581	-43.52
193.8	26.11
194.02	73.21
194.239	-0.51
194.458	-0.51
194.678	-31.23
194.897	46.59
195.116	-80.38
195.335	71.17
195.555	30.21
195.774	52.74
195.993	81.41
196.212	30.21
196.432	-47.62
196.651	87.55
196.87	19.97
197.089	17.92
197.308	-35.33
197.528	52.74
197.747	-23.04
197.966	-16.9
198.185	-6.66
198.404	-51.71
198.623	1.54
198.842	7.68
199.062	13.82
199.281	28.16
199.5	9.73
199.719	-23.04
199.938	42.5
200.157	-35.33
200.376	-14.85
200.595	50.69
200.814	34.3
201.033	11.78
201.252	52.74
201.471	15.87
201.69	-12.8
201.909	26.11
202.128	-23.04
202.347	-12.8
202.566	65.02
202.785	-12.8
203.004	71.17
203.223	15.87
203.442	-49.66
203.661	22.02
203.879	-37.38
204.098	-4.61
204.317	-14.85
204.536	-25.09
204.755	-33.28
204.974	-84.48
205.193	79.36
205.411	65.02
205.63	-20.99
205.849	83.45
206.068	-2.56
206.287	26.11
206.505	28.16
206.724	60.93
206.943	3.58
207.162	11.78
207.381	38.4
207.599	15.87
207.818	-35.33
208.037	-37.38
208.255	15.87
208.474	42.5
208.693	46.59
208.911	22.02
209.13	36.35
209.349	-6.66
209.567	13.82
209.786	-33.28
210.005	-51.71
210.223	42.5
210.442	71.17
210.661	-27.14
210.879	81.41
211.098	69.12
211.316	9.73
211.535	44.54
211.753	50.69
211.972	36.35
212.191	40.45
212.409	71.17
212.628	1.54
212.846	19.97
213.065	62.98
213.283	95.74
213.502	-76.29
213.72	30.21
213.938	-16.9
214.157	11.78
214.375	89.6
214.594	15.87
214.812	30.21
215.031	9.73
215.249	15.87
215.467	-10.75
215.686	32.26
215.904	15.87
216.122	-20.99
216.341	54.78
216.559	42.5
216.778	-2.56
216.996	40.45
217.214	32.26
217.432	9.73
217.651	7.68
217.869	54.78
218.087	5.63
218.306	-35.33
218.524	112.13
218.742	19.97
218.96	46.59
219.179	-0.51
219.397	26.11
219.615	-10.75
219.833	-2.56
220.051	-27.14
220.27	101.89
220.488	54.78
220.706	-25.09
220.924	32.26
221.142	26.11
221.36	15.87
221.578	-0.51
221.796	-47.62
222.015	-6.66
222.233	15.87
222.451	24.06
222.669	-64
222.887	32.26
223.105	83.45
223.323	-41.47
223.541	1.54
223.759	26.11
223.977	32.26
224.195	73.21
224.413	-6.66
224.631	30.21
224.849	-80.38
225.067	58.88
225.285	-6.66
225.503	7.68
225.721	13.82
225.939	22.02
226.157	40.45
226.375	126.46
226.592	-70.14
226.81	58.88
227.028	1.54
227.246	32.26
227.464	-53.76
227.682	-29.18
227.9	13.82
228.117	-18.94
228.335	26.11
228.553	9.73
228.771	-2.56
228.989	38.4
229.206	30.21
229.424	-2.56
229.642	-51.71
229.86	36.35
230.077	38.4
230.295	17.92
230.513	71.17
230.731	28.16
230.948	36.35
231.166	1.54
231.384	5.63
231.601	9.73
231.819	19.97
232.037	22.02
232.254	-31.23
232.472	83.45
232.689	-12.8
232.907	-2.56
233.125	-23.04
233.342	-0.51
233.56	-23.04
233.777	-41.47
233.995	-23.04
234.213	-41.47
234.43	22.02
234.648	75.26
234.865	40.45
235.083	5.63
235.3	17.92
235.518	62.98
235.735	-14.85
235.953	-33.28
236.17	-76.29
236.388	-25.09
236.605	22.02
236.822	11.78
237.04	44.54
237.257	-2.56
237.475	-84.48
237.692	36.35
237.909	19.97
238.127	101.89
238.344	24.06
238.562	-12.8
238.779	1.54
238.996	54.78
239.214	28.16
239.431	50.69
239.648	5.63
239.865	48.64
240.083	112.13
240.3	15.87
240.517	-20.99
240.735	28.16
240.952	-41.47
241.169	50.69
241.386	46.59
241.603	62.98
241.821	42.5
242.038	-20.99
242.255	22.02
242.472	24.06
242.689	1.54
242.907	44.54
243.124	42.5
243.341	65.02
243.558	77.31
243.775	69.12
243.992	-39.42
244.209	-2.56
244.426	28.16
244.643	-14.85
244.86	48.64
245.078	5.63
245.295	26.11
245.512	73.21
245.729	36.35
245.946	26.11
246.163	24.06
246.38	11.78
246.597	-39.42
246.814	-6.66
247.031	15.87
247.248	22.02
247.464	54.78
247.681	24.06
247.898	67.07
248.115	50.69
248.332	15.87
248.549	40.45
248.766	65.02
248.983	58.88
249.2	5.63
249.417	54.78
249.633	19.97
249.85	48.64
250.067	-18.94
250.284	-4.61
250.501	44.54
250.717	114.17
250.934	-18.94
251.151	73.21
251.368	-2.56
251.585	9.73
251.801	22.02
252.018	48.64
252.235	-2.56
252.451	-27.14
252.668	9.73
252.885	19.97
253.102	42.5
253.318	110.08
253.535	99.84
253.752	24.06
253.968	-33.28
254.185	22.02
254.401	28.16
254.618	42.5
254.835	24.06
255.051	36.35
255.268	9.73
255.484	40.45
255.701	-2.56
255.917	48.64
256.134	15.87
256.351	30.21
256.567	-12.8
256.784	130.56
257	-0.51
257.217	48.64
257.433	67.07
257.65	-51.71
257.866	38.4
258.082	54.78
258.299	-0.51
258.515	-2.56
258.732	-8.7
258.948	-18.94
259.165	54.78
259.381	79.36
259.597	24.06
259.814	62.98
260.03	13.82
260.246	3.58
260.463	69.12
260.679	81.41
260.895	38.4
261.112	-70.14
261.328	17.92
261.544	52.74
261.761	65.02
261.977	22.02
262.193	15.87
262.409	40.45
262.626	9.73
262.842	26.11
263.058	-61.95
263.274	32.26
263.49	1.54
263.707	30.21
263.923	17.92
264.139	48.64
264.355	-39.42
264.571	56.83
264.787	-2.56
265.004	128.51
265.22	67.07
265.436	3.58
265.652	26.11
265.868	-23.04
266.084	28.16
266.3	1.54
266.516	30.21
266.732	-33.28
266.948	30.21
267.164	38.4
267.38	54.78
267.596	97.79
267.812	-6.66
268.028	26.11
268.244	-96.77
268.46	5.63
268.676	7.68
268.892	93.69
269.108	13.82
269.324	-25.09
269.54	-41.47
269.756	-8.7
269.972	24.06
270.188	-29.18
270.403	62.98
270.619	28.16
270.835	44.54
271.051	69.12
271.267	22.02
271.483	-23.04
271.698	15.87
271.914	54.78
272.13	26.11
272.346	73.21
272.562	-49.66
272.777	34.3
272.993	3.58
273.209	40.45
273.425	1.54
273.64	-27.14
273.856	65.02
274.072	11.78
274.287	3.58
274.503	144.89
274.719	71.17
274.934	26.11
275.15	-68.09
275.366	120.32
275.581	22.02
275.797	15.87
276.012	-6.66
276.228	91.65
276.444	22.02
276.659	48.64
276.875	11.78
277.09	-12.8
277.306	42.5
277.521	73.21
277.737	30.21
277.952	28.16
278.168	-27.14
278.383	42.5
278.599	26.11
278.814	-0.51
279.03	-68.09
279.245	17.92
279.461	52.74
279.676	3.58
279.892	13.82
280.107	36.35
280.322	1.54
280.538	15.87
280.753	-8.7
280.969	83.45
281.184	24.06
281.399	28.16
281.615	-10.75
281.83	11.78
282.045	34.3
282.26	15.87
282.476	7.68
282.691	95.74
282.906	-10.75
283.122	71.17
283.337	13.82
283.552	108.03
283.767	71.17
283.983	32.26
284.198	13.82
284.413	22.02
284.628	38.4
284.843	5.63
285.058	1.54
285.274	3.58
285.489	38.4
285.704	24.06
285.919	5.63
286.134	95.74
286.349	-10.75
286.564	22.02
286.779	77.31
286.995	62.98
287.21	36.35
287.425	50.69
287.64	36.35
287.855	58.88
288.07	24.06
288.285	-8.7
288.5	56.83
288.715	89.6
288.93	65.02
289.145	54.78
289.36	36.35
289.575	3.58
289.79	13.82
290.004	42.5
290.219	9.73
290.434	46.59
290.649	15.87
290.864	38.4
291.079	-37.38
291.294	87.55
291.509	-10.75
291.724	56.83
291.938	28.16
292.153	30.21
292.368	-43.52
292.583	65.02
292.798	17.92
293.012	62.98
293.227	52.74
293.442	30.21
293.657	101.89
293.871	15.87
294.086	46.59
294.301	69.12
294.516	46.59
294.73	40.45
294.945	24.06
295.16	28.16
295.374	-0.51
295.589	71.17
295.804	-0.51
296.018	17.92
296.233	13.82
296.447	38.4
296.662	-27.14
296.877	67.07
297.091	38.4
297.306	13.82
297.52	52.74
297.735	77.31
297.949	17.92
298.164	32.26
298.378	3.58
298.593	3.58
298.807	-35.33
299.022	54.78
299.236	73.21
299.451	36.35
299.665	5.63
299.88	19.97
300.094	28.16
300.309	17.92
300.523	-0.51
300.737	62.98
300.952	32.26
301.166	32.26
301.381	71.17
301.595	11.78
301.809	22.02
302.024	17.92
302.238	1.54
302.452	22.02
302.667	-33.28
302.881	34.3
303.095	54.78
303.309	7.68
303.524	54.78
303.738	42.5
303.952	15.87
304.166	-2.56
304.381	-31.23
304.595	38.4
304.809	38.4
305.023	32.26
305.237	69.12
305.452	9.73
305.666	22.02
305.88	65.02
306.094	-33.28
306.308	48.64
306.522	-27.14
306.736	44.54
306.95	36.35
307.164	-18.94
307.379	11.78
307.593	52.74
307.807	-10.75
308.021	17.92
308.235	15.87
308.449	-27.14
308.663	71.17
308.877	1.54
309.091	32.26
309.305	3.58
309.519	1.54
309.733	38.4
309.947	54.78
310.161	-29.18
310.374	71.17
310.588	83.45
310.802	17.92
311.016	40.45
311.23	24.06
311.444	-45.57
311.658	-2.56
311.872	42.5
312.085	28.16
312.299	-14.85
312.513	60.93
312.727	48.64
312.941	9.73
313.154	5.63
313.368	1.54
313.582	77.31
313.796	-2.56
314.009	40.45
314.223	42.5
314.437	38.4
314.651	24.06
314.864	3.58
315.078	-53.76
315.292	-6.66
315.505	30.21
315.719	132.61
315.933	34.3
316.146	65.02
316.36	54.78
316.573	5.63
316.787	1.54
317.001	13.82
317.214	62.98
317.428	58.88
317.641	22.02
317.855	32.26
318.068	50.69
318.282	30.21
318.495	116.22
318.709	54.78
318.922	24.06
319.136	-0.51
319.349	13.82
319.563	65.02
319.776	-2.56
319.99	-0.51
320.203	7.68
320.417	75.26
320.63	52.74
320.843	46.59
321.057	-27.14
321.27	95.74
321.483	73.21
321.697	28.16
321.91	13.82
322.124	-2.56
322.337	40.45
322.55	15.87
322.763	50.69
322.977	67.07
323.19	30.21
323.403	22.02
323.617	79.36
323.83	44.54
324.043	-66.05
324.256	24.06
324.469	1.54
324.683	75.26
324.896	-55.81
325.109	3.58
325.322	71.17
325.535	38.4
325.748	34.3
325.962	3.58
326.175	56.83
326.388	50.69
326.601	-23.04
326.814	48.64
327.027	-68.09
327.24	36.35
327.453	32.26
327.666	24.06
327.879	28.16
328.092	-10.75
328.305	22.02
328.518	17.92
328.731	-25.09
328.944	15.87
329.157	56.83
329.37	-12.8
329.583	1.54
329.796	40.45
330.009	22.02
330.222	-33.28
330.435	19.97
330.648	114.17
330.861	44.54
331.073	26.11
331.286	-2.56
331.499	108.03
331.712	46.59
331.925	52.74
332.138	13.82
332.35	38.4
332.563	44.54
332.776	58.88
332.989	22.02
333.202	48.64
333.414	34.3
333.627	148.99
333.84	15.87
334.053	73.21
334.265	75.26
334.478	42.5
334.691	58.88
334.903	32.26
335.116	-4.61
335.329	24.06
335.541	56.83
335.754	22.02
335.966	26.11
336.179	5.63
336.392	22.02
336.604	65.02
336.817	48.64
337.029	54.78
337.242	13.82
337.454	32.26
337.667	93.69
337.88	13.82
338.092	89.6
338.305	-20.99
338.517	67.07
338.729	1.54
338.942	50.69
339.154	-29.18
339.367	26.11
339.579	56.83
339.792	-12.8
340.004	69.12
340.217	65.02
340.429	40.45
340.641	-37.38
340.854	103.93
341.066	50.69
341.278	58.88
341.491	122.37
341.703	99.84
341.915	-27.14
342.128	28.16
342.34	73.21
342.552	79.36
342.764	24.06
342.977	103.93
343.189	36.35
343.401	105.98
343.613	91.65
343.826	38.4
344.038	-33.28
344.25	50.69
344.462	28.16
344.674	126.46
344.886	48.64
345.099	28.16
345.311	56.83
345.523	-25.09
345.735	-20.99
345.947	32.26
346.159	9.73
346.371	32.26
346.583	87.55
346.795	114.17
347.007	91.65
347.219	30.21
347.431	54.78
347.643	81.41
347.855	34.3
348.067	1.54
348.279	-33.28
348.491	-25.09
348.703	99.84
348.915	26.11
349.127	32.26
349.339	46.59
349.551	36.35
349.763	1.54
349.975	28.16
350.187	30.21
350.399	15.87
350.61	7.68
350.822	-74.24
351.034	87.55
351.246	75.26
351.458	32.26
351.669	89.6
351.881	-14.85
352.093	71.17
352.305	1.54
352.517	9.73
352.728	79.36
352.94	-2.56
353.152	52.74
353.363	30.21
353.575	93.69
353.787	48.64
353.999	71.17
354.21	38.4
354.422	1.54
354.633	13.82
354.845	40.45
355.057	114.17
355.268	79.36
355.48	-20.99
355.692	65.02
355.903	-8.7
356.115	46.59
356.326	-23.04
356.538	50.69
356.749	48.64
356.961	9.73
357.172	-20.99
357.384	36.35
357.595	17.92
357.807	54.78
358.018	32.26
358.23	105.98
358.441	44.54
358.653	124.41
358.864	7.68
359.075	32.26
359.287	75.26
359.498	52.74
359.709	46.59
359.921	36.35
360.132	56.83
360.344	5.63
360.555	58.88
360.766	22.02
360.977	17.92
361.189	95.74
361.4	40.45
361.611	9.73
361.823	62.98
362.034	118.27
362.245	13.82
362.456	-100.86
362.667	99.84
362.879	50.69
363.09	54.78
363.301	124.41
363.512	42.5
363.723	95.74
363.935	42.5
364.146	13.82
364.357	30.21
364.568	24.06
364.779	36.35
364.99	89.6
365.201	-37.38
365.412	54.78
365.623	-2.56
365.834	110.08
366.045	-6.66
366.256	126.46
366.467	3.58
366.678	89.6
366.889	56.83
367.1	140.8
367.311	97.79
367.522	48.64
367.733	30.21
367.944	11.78
368.155	36.35
368.366	34.3
368.577	5.63
368.788	48.64
368.999	-6.66
369.209	26.11
369.42	67.07
369.631	-0.51
369.842	15.87
370.053	118.27
370.264	65.02
370.474	77.31
370.685	22.02
370.896	-35.33
371.107	-29.18
371.317	52.74
371.528	11.78
371.739	97.79
371.95	15.87
372.16	50.69
372.371	-14.85
372.582	3.58
372.792	32.26
373.003	46.59
373.214	32.26
373.424	30.21
373.635	103.93
373.846	44.54
374.056	-66.05
374.267	13.82
374.477	89.6
374.688	124.41
374.898	-49.66
375.109	124.41
375.319	65.02
375.53	42.5
375.74	71.17
375.951	62.98
376.161	40.45
376.372	91.65
376.582	36.35
376.793	22.02
377.003	56.83
377.214	48.64
377.424	54.78
377.635	73.21
377.845	19.97
378.055	56.83
378.266	32.26
378.476	-10.75
378.686	71.17
378.897	112.13
379.107	89.6
379.317	32.26
379.528	52.74
379.738	79.36
379.948	-35.33
380.158	67.07
380.369	87.55
380.579	11.78
380.789	56.83
380.999	101.89
381.21	91.65
381.42	26.11
381.63	36.35
381.84	50.69
382.05	-41.47
382.261	85.5
382.471	67.07
382.681	73.21
382.891	97.79
383.101	62.98
383.311	15.87
383.521	24.06
383.731	30.21
383.941	42.5
384.151	40.45
384.361	69.12
384.571	38.4
384.781	19.97
384.991	83.45
385.201	73.21
385.411	93.69
385.621	17.92
385.831	42.5
386.041	40.45
386.251	75.26
386.461	62.98
386.671	-4.61
386.881	54.78
387.091	69.12
387.301	91.65
387.511	62.98
387.72	11.78
387.93	22.02
388.14	114.17
388.35	58.88
388.56	54.78
388.769	65.02
388.979	32.26
389.189	54.78
389.399	32.26
389.609	30.21
389.818	120.32
390.028	50.69
390.238	108.03
390.447	67.07
390.657	122.37
390.867	112.13
391.076	-23.04
391.286	62.98
391.496	54.78
391.705	15.87
391.915	79.36
392.125	101.89
392.334	105.98
392.544	5.63
392.753	91.65
392.963	26.11
393.172	38.4
393.382	62.98
393.591	105.98
393.801	38.4
394.01	108.03
394.22	46.59
394.429	138.75
394.639	79.36
394.848	81.41
395.058	116.22
395.267	132.61
395.477	116.22
395.686	118.27
395.895	128.51
396.105	110.08
396.314	112.13
396.524	89.6
396.733	87.55
396.942	157.18
397.152	112.13
397.361	185.85
397.57	97.79
397.78	120.32
397.989	124.41
398.198	140.8
398.407	105.98
398.617	144.89
398.826	40.45
399.035	153.09
399.244	95.74
399.453	105.98
399.663	108.03
399.872	85.5
400.081	161.28
400.29	112.13
400.499	105.98
400.708	65.02
400.917	101.89
401.127	95.74
401.336	99.84
401.545	89.6
401.754	38.4
401.963	130.56
402.172	155.13
402.381	138.75
402.59	136.7
402.799	140.8
403.008	140.8
403.217	83.45
403.426	112.13
403.635	202.24
403.844	142.85
404.053	110.08
404.262	138.75
404.471	144.89
404.68	173.57
404.888	177.66
405.097	140.8
405.306	93.69
405.515	214.52
405.724	144.89
405.933	128.51
406.142	241.15
406.35	218.62
406.559	210.43
406.768	239.1
406.977	212.48
407.185	194.05
407.394	165.37
407.603	237.05
407.812	253.44
408.02	228.86
408.229	208.38
408.438	230.91
408.646	251.39
408.855	259.58
409.064	247.29
409.272	286.2
409.481	376.31
409.69	257.53
409.898	325.12
410.107	337.4
410.315	376.31
410.524	331.26
410.733	366.07
410.941	359.93
411.15	447.99
411.358	404.99
411.567	437.75
411.775	398.84
411.984	517.62
412.192	513.53
412.401	540.15
412.609	484.86
412.818	556.54
413.026	519.67
413.234	570.87
413.443	570.87
413.651	632.31
413.86	675.32
414.068	701.94
414.276	679.41
414.485	644.6
414.693	775.67
414.901	802.29
415.11	747
415.318	726.52
415.526	837.11
415.734	867.83
415.943	857.59
416.151	1037.81
416.359	900.59
416.567	988.66
416.776	984.56
416.984	1086.96
417.192	1152.49
417.4	1170.93
417.608	1140.21
417.817	1158.64
418.025	1248.75
418.233	1215.98
418.441	1383.91
418.649	1277.42
418.857	1398.25
419.065	1578.47
419.273	1379.82
419.481	1603.05
419.689	1627.62
419.897	1734.12
420.105	1762.79
420.313	1672.68
420.521	1828.32
420.729	1824.23
420.937	1916.39
421.145	2121.18
421.353	2078.18
421.561	2176.48
421.769	2244.06
421.977	2444.76
422.185	2340.32
422.393	2424.28
422.601	2514.39
422.809	2522.59
423.017	2526.68
423.224	2596.31
423.432	2794.97
423.64	2850.26
423.848	3061.2
424.056	3102.16
424.263	3309.01
424.471	3358.16
424.679	3286.48
424.887	3390.92
425.094	3610.06
425.302	3626.44
425.51	3757.51
425.718	3810.76
425.925	3843.53
426.133	3988.93
426.341	4298.17
426.548	4462.01
426.756	4466.11
426.964	4517.31
427.171	4863.41
427.379	4916.66
427.586	4996.53
427.794	5027.25
428.001	5322.16
428.209	5588.39
428.417	5494.19
428.624	5995.94
428.832	5879.21
429.039	5901.73
429.247	5856.68
429.454	6407.58
429.662	6866.33
429.869	6356.38
430.076	6845.85
430.284	6634.91
430.491	6993.3
430.699	7509.39
430.906	7384.46
431.114	7521.68
431.321	7521.68
431.528	7746.95
431.736	8334.72
431.943	8484.22
432.15	8265.09
432.358	8455.55
432.565	8799.61
432.772	8899.96
432.979	9491.82
433.187	9583.98
433.394	9799.02
433.601	10196.32
433.808	10278.24
434.016	10134.89
434.223	10718.56
434.43	11171.16
434.637	11115.86
434.844	11875.66
435.052	11873.61
435.259	11705.68
435.466	12076.36
435.673	11836.75
435.88	12739.9
436.087	13442.35
436.294	13364.53
436.501	13096.25
436.708	13217.08
436.915	13810.99
437.122	14273.83
437.329	14302.5
437.537	14824.73
437.743	15168.79
437.95	14763.29
438.157	15545.62
438.364	16254.22
438.571	15908.11
438.778	16420.1
438.985	17888.5
439.192	17163.51
439.399	17769.71
439.606	17128.7
439.813	18466.02
440.02	19406.04
440.227	18904.29
440.433	18547.94
440.64	19258.59
440.847	19420.38
441.054	19625.17
441.261	20954.3
441.467	20806.85
441.674	21384.38
441.881	21845.17
442.088	21832.88
442.294	21732.53
442.501	22283.44
442.708	22295.72
442.914	23526.55
443.121	24626.31
443.328	24048.79
443.534	25506.94
443.741	24829.06
443.948	24687.75
444.154	26475.63
444.361	26055.79
444.568	26313.84
444.774	26315.89
444.981	26985.57
445.187	27532.38
445.394	28460.11
445.6	28419.15
445.807	31104.04
446.013	29793.34
446.22	30121.01
446.426	31038.5
446.633	31337.51
446.839	32689.17
447.046	31564.83
447.252	32961.55
447.459	33117.19
447.665	33012.74
447.871	34739.18
448.078	35832.8
448.284	34169.85
448.491	35296.23
448.697	36447.19
448.903	36985.8
449.11	37204.94
449.316	36584.4
449.522	37125.07
449.728	38200.25
449.935	38394.81
450.141	38783.92
450.347	39261.1
450.553	38181.82
450.76	39113.64
450.966	40262.55
451.172	39588.77
451.378	40387.48
451.584	39537.57
451.791	40596.37
451.997	40756.11
452.203	41347.98
452.409	41139.08
452.615	41223.05
452.821	39381.93
453.027	39224.23
453.233	40905.62
453.44	39760.8
453.646	40016.8
453.852	40080.28
454.058	40954.77
454.264	39492.52
454.47	40639.38
454.676	39457.7
454.882	41005.97
455.088	37329.86
455.294	37790.66
455.5	38591.41
455.705	39027.63
455.911	37180.36
456.117	36688.85
456.323	36008.92
456.529	34472.95
456.735	35978.2
456.941	35038.19
457.147	34536.43
457.352	33074.18
457.558	33029.13
457.764	33176.58
457.97	32502.8
458.176	31798.3
458.381	31833.11
458.587	30065.72
458.793	29840.44
458.999	28716.11
459.204	30616.62
459.41	29735.99
459.616	27817.05
459.821	28052.56
460.027	27933.78
460.233	27391.07
460.438	25848.95
460.644	26248.3
460.85	24913.03
461.055	24462.47
461.261	25097.35
461.466	22971.55
461.672	21882.03
461.878	23637.14
462.083	22084.78
462.289	21761.2
462.494	21689.53
462.7	20718.79
462.905	20253.9
463.111	20622.53
463.316	21101.76
463.522	20526.28
463.727	20442.31
463.932	20239.56
464.138	20071.63
464.343	20227.28
464.549	19805.39
464.754	20083.92
464.959	20288.71
465.165	20012.24
465.37	19356.89
465.575	18568.42
465.781	19793.11
465.986	19668.18
466.191	18703.59
466.397	18488.55
466.602	17634.55
466.807	18451.69
467.012	18347.24
467.218	18189.55
467.423	17968.37
