Data from USB4F104151__173__13-58-56-551.txt Node

Date: Thu Mar 13 13:58:56 EDT 2025
User: louis
Spectrometer: USB4F10415
Trigger mode: 4
Integration Time (sec): 1.000000E-2
Scans to average: 1
Electric dark correction enabled: true
Nonlinearity correction enabled: false
Boxcar width: 0
XAxis mode: Wavelengths
Number of Pixels in Spectrum: 3648
>>>>>Begin Spectral Data<<<<<
178.204	-43.18
178.424	-43.18
178.644	-43.18
178.864	-34.99
179.084	26.45
179.304	-20.65
179.524	-30.89
179.744	-16.55
179.964	-12.46
180.184	-0.17
180.404	28.5
180.624	12.12
180.844	69.46
181.064	-10.41
181.283	8.02
181.503	-26.79
181.723	-0.17
181.943	1.88
182.163	-22.7
182.383	-43.18
182.602	-22.7
182.822	51.03
183.042	77.65
183.262	16.21
183.482	3.93
183.701	12.12
183.921	-0.17
184.141	-65.71
184.361	-22.7
184.58	42.84
184.8	-26.79
185.02	81.75
185.239	22.36
185.459	-32.94
185.679	12.12
185.898	53.08
186.118	67.41
186.338	-32.94
186.557	65.36
186.777	-12.46
186.997	-16.55
187.216	5.97
187.436	-37.03
187.655	30.55
187.875	22.36
188.095	-10.41
188.314	-4.27
188.534	-20.65
188.753	3.93
188.973	38.74
189.192	-14.51
189.412	20.31
189.631	5.97
189.851	-8.36
190.07	-39.08
190.29	3.93
190.509	40.79
190.729	-63.66
190.948	46.93
191.168	63.32
191.387	75.6
191.607	28.5
191.826	96.08
192.045	-10.41
192.265	75.6
192.484	36.69
192.704	20.31
192.923	-22.7
193.142	-2.22
193.362	-4.27
193.581	-4.27
193.8	12.12
194.02	12.12
194.239	36.69
194.458	-18.6
194.678	-12.46
194.897	36.69
195.116	-51.37
195.335	-2.22
195.555	-2.22
195.774	-53.42
195.993	98.13
196.212	-34.99
196.432	89.94
196.651	16.21
196.87	67.41
197.089	-10.41
197.308	3.93
197.528	-4.27
197.747	44.88
197.966	28.5
198.185	-30.89
198.404	-37.03
198.623	36.69
198.842	20.31
199.062	22.36
199.281	20.31
199.5	8.02
199.719	20.31
199.938	55.12
200.157	28.5
200.376	24.4
200.595	-8.36
200.814	-26.79
201.033	55.12
201.252	3.93
201.471	28.5
201.69	26.45
201.909	12.12
202.128	-10.41
202.347	-12.46
202.566	-55.47
202.785	12.12
203.004	-8.36
203.223	-10.41
203.442	-28.84
203.661	26.45
203.879	20.31
204.098	16.21
204.317	3.93
204.536	36.69
204.755	8.02
204.974	-51.37
205.193	14.17
205.411	57.17
205.63	-18.6
205.849	-6.31
206.068	8.02
206.287	-14.51
206.505	20.31
206.724	12.12
206.943	34.64
207.162	-4.27
207.381	65.36
207.599	-51.37
207.818	-37.03
208.037	18.26
208.255	59.22
208.474	61.27
208.693	26.45
208.911	-26.79
209.13	-26.79
209.349	40.79
209.567	-2.22
209.786	28.5
210.005	-51.37
210.223	44.88
210.442	-6.31
210.661	-16.55
210.879	-16.55
211.098	-0.17
211.316	48.98
211.535	94.04
211.753	-28.84
211.972	34.64
212.191	34.64
212.409	8.02
212.628	-43.18
212.846	-32.94
213.065	14.17
213.283	-4.27
213.502	-45.23
213.72	14.17
213.938	26.45
214.157	-28.84
214.375	44.88
214.594	18.26
214.812	1.88
215.031	71.51
215.249	34.64
215.467	12.12
215.686	18.26
215.904	65.36
216.122	-6.31
216.341	8.02
216.559	8.02
216.778	40.79
216.996	57.17
217.214	8.02
217.432	28.5
217.651	8.02
217.869	42.84
218.087	5.97
218.306	-51.37
218.524	69.46
218.742	30.55
218.96	-18.6
219.179	22.36
219.397	3.93
219.615	-37.03
219.833	-10.41
220.051	-41.13
220.27	36.69
220.488	12.12
220.706	42.84
220.924	-43.18
221.142	-0.17
221.36	28.5
221.578	32.6
221.796	5.97
222.015	83.8
222.233	12.12
222.451	-28.84
222.669	18.26
222.887	69.46
223.105	-67.75
223.323	-6.31
223.541	12.12
223.759	-75.95
223.977	22.36
224.195	57.17
224.413	-77.99
224.631	-43.18
224.849	22.36
225.067	16.21
225.285	-26.79
225.503	36.69
225.721	-32.94
225.939	38.74
226.157	18.26
226.375	59.22
226.592	28.5
226.81	-2.22
227.028	-45.23
227.246	12.12
227.464	-53.42
227.682	-0.17
227.9	16.21
228.117	10.07
228.335	12.12
228.553	-22.7
228.771	-6.31
228.989	28.5
229.206	1.88
229.424	-8.36
229.642	-8.36
229.86	-4.27
230.077	-8.36
230.295	-32.94
230.513	55.12
230.731	38.74
230.948	44.88
231.166	-28.84
231.384	36.69
231.601	3.93
231.819	-0.17
232.037	63.32
232.254	-2.22
232.472	-20.65
232.689	71.51
232.907	10.07
233.125	96.08
233.342	30.55
233.56	12.12
233.777	24.4
233.995	28.5
234.213	24.4
234.43	24.4
234.648	1.88
234.865	24.4
235.083	22.36
235.3	-41.13
235.518	28.5
235.735	-4.27
235.953	63.32
236.17	-26.79
236.388	8.02
236.605	18.26
236.822	40.79
237.04	32.6
237.257	55.12
237.475	-20.65
237.692	-20.65
237.909	-41.13
238.127	12.12
238.344	63.32
238.562	67.41
238.779	-0.17
238.996	-14.51
239.214	-39.08
239.431	32.6
239.648	-24.75
239.865	38.74
240.083	79.7
240.3	-20.65
240.517	-16.55
240.735	55.12
240.952	16.21
241.169	12.12
241.386	18.26
241.603	-18.6
241.821	51.03
242.038	3.93
242.255	81.75
242.472	-65.71
242.689	42.84
242.907	36.69
243.124	3.93
243.341	79.7
243.558	-37.03
243.775	61.27
243.992	48.98
244.209	24.4
244.426	-51.37
244.643	59.22
244.86	30.55
245.078	34.64
245.295	-8.36
245.512	14.17
245.729	14.17
245.946	67.41
246.163	-2.22
246.38	-0.17
246.597	34.64
246.814	-45.23
247.031	61.27
247.248	-39.08
247.464	65.36
247.681	-69.8
247.898	-34.99
248.115	1.88
248.332	-16.55
248.549	14.17
248.766	3.93
248.983	40.79
249.2	-8.36
249.417	63.32
249.633	-49.32
249.85	73.56
250.067	-0.17
250.284	-0.17
250.501	-22.7
250.717	-4.27
250.934	-32.94
251.151	34.64
251.368	-47.27
251.585	44.88
251.801	8.02
252.018	51.03
252.235	79.7
252.451	40.79
252.668	-6.31
252.885	67.41
253.102	20.31
253.318	20.31
253.535	-8.36
253.752	-4.27
253.968	34.64
254.185	-26.79
254.401	34.64
254.618	14.17
254.835	71.51
255.051	8.02
255.268	-49.32
255.484	14.17
255.701	-43.18
255.917	46.93
256.134	36.69
256.351	-26.79
256.567	24.4
256.784	-4.27
257	-18.6
257.217	57.17
257.433	-26.79
257.65	61.27
257.866	20.31
258.082	22.36
258.299	3.93
258.515	34.64
258.732	-14.51
258.948	38.74
259.165	-8.36
259.381	1.88
259.597	-20.65
259.814	-18.6
260.03	-14.51
260.246	153.43
260.463	28.5
260.679	96.08
260.895	12.12
261.112	-49.32
261.328	-12.46
261.544	-8.36
261.761	59.22
261.977	-47.27
262.193	-4.27
262.409	36.69
262.626	22.36
262.842	48.98
263.058	28.5
263.274	30.55
263.49	5.97
263.707	71.51
263.923	-32.94
264.139	-24.75
264.355	16.21
264.571	36.69
264.787	-71.85
265.004	67.41
265.22	32.6
265.436	77.65
265.652	94.04
265.868	-12.46
266.084	8.02
266.3	46.93
266.516	-30.89
266.732	-20.65
266.948	18.26
267.164	24.4
267.38	-41.13
267.596	44.88
267.812	22.36
268.028	14.17
268.244	-0.17
268.46	79.7
268.676	-12.46
268.892	-10.41
269.108	-65.71
269.324	20.31
269.54	18.26
269.756	63.32
269.972	18.26
270.188	3.93
270.403	24.4
270.619	61.27
270.835	-22.7
271.051	20.31
271.267	38.74
271.483	28.5
271.698	-0.17
271.914	-45.23
272.13	61.27
272.346	69.46
272.562	-6.31
272.777	112.47
272.993	38.74
273.209	44.88
273.425	-4.27
273.64	-14.51
273.856	40.79
274.072	8.02
274.287	36.69
274.503	-8.36
274.719	-0.17
274.934	12.12
275.15	-30.89
275.366	-14.51
275.581	63.32
275.797	36.69
276.012	22.36
276.228	12.12
276.444	-12.46
276.659	22.36
276.875	28.5
277.09	-4.27
277.306	-10.41
277.521	51.03
277.737	-73.9
277.952	48.98
278.168	-10.41
278.383	-57.51
278.599	-8.36
278.814	20.31
279.03	65.36
279.245	-26.79
279.461	20.31
279.676	26.45
279.892	-49.32
280.107	-69.8
280.322	61.27
280.538	-22.7
280.753	22.36
280.969	42.84
281.184	5.97
281.399	40.79
281.615	36.69
281.83	-14.51
282.045	-2.22
282.26	-10.41
282.476	1.88
282.691	44.88
282.906	16.21
283.122	-2.22
283.337	-32.94
283.552	8.02
283.767	69.46
283.983	24.4
284.198	94.04
284.413	20.31
284.628	48.98
284.843	26.45
285.058	12.12
285.274	3.93
285.489	104.28
285.704	22.36
285.919	63.32
286.134	-49.32
286.349	-16.55
286.564	30.55
286.779	22.36
286.995	3.93
287.21	-30.89
287.425	28.5
287.64	-53.42
287.855	28.5
288.07	-8.36
288.285	16.21
288.5	114.52
288.715	8.02
288.93	-28.84
289.145	77.65
289.36	53.08
289.575	-49.32
289.79	40.79
290.004	67.41
290.219	26.45
290.434	-4.27
290.649	32.6
290.864	-8.36
291.079	32.6
291.294	1.88
291.509	-34.99
291.724	44.88
291.938	-22.7
292.153	-0.17
292.368	18.26
292.583	32.6
292.798	-63.66
293.012	-0.17
293.227	42.84
293.442	10.07
293.657	10.07
293.871	36.69
294.086	44.88
294.301	51.03
294.516	55.12
294.73	-20.65
294.945	-26.79
295.16	8.02
295.374	28.5
295.589	12.12
295.804	3.93
296.018	-24.75
296.233	38.74
296.447	59.22
296.662	22.36
296.877	71.51
297.091	28.5
297.306	71.51
297.52	48.98
297.735	55.12
297.949	28.5
298.164	24.4
298.378	24.4
298.593	20.31
298.807	-32.94
299.022	10.07
299.236	55.12
299.451	-43.18
299.665	63.32
299.88	16.21
300.094	16.21
300.309	16.21
300.523	10.07
300.737	12.12
300.952	18.26
301.166	59.22
301.381	46.93
301.595	-4.27
301.809	-32.94
302.024	3.93
302.238	1.88
302.452	10.07
302.667	30.55
302.881	1.88
303.095	38.74
303.309	26.45
303.524	14.17
303.738	8.02
303.952	-55.47
304.166	67.41
304.381	-45.23
304.595	81.75
304.809	-41.13
305.023	116.56
305.237	67.41
305.452	14.17
305.666	61.27
305.88	3.93
306.094	36.69
306.308	-22.7
306.522	-28.84
306.736	51.03
306.95	28.5
307.164	57.17
307.379	20.31
307.593	12.12
307.807	-16.55
308.021	30.55
308.235	3.93
308.449	48.98
308.663	-26.79
308.877	24.4
309.091	1.88
309.305	26.45
309.519	-59.56
309.733	-20.65
309.947	-32.94
310.161	-6.31
310.374	22.36
310.588	71.51
310.802	-4.27
311.016	79.7
311.23	-20.65
311.444	16.21
311.658	-2.22
311.872	36.69
312.085	32.6
312.299	-4.27
312.513	16.21
312.727	32.6
312.941	26.45
313.154	40.79
313.368	22.36
313.582	-4.27
313.796	55.12
314.009	65.36
314.223	48.98
314.437	26.45
314.651	77.65
314.864	51.03
315.078	-34.99
315.292	40.79
315.505	14.17
315.719	10.07
315.933	12.12
316.146	40.79
316.36	65.36
316.573	10.07
316.787	-4.27
317.001	-18.6
317.214	-22.7
317.428	61.27
317.641	-18.6
317.855	59.22
318.068	32.6
318.282	79.7
318.495	8.02
318.709	36.69
318.922	116.56
319.136	40.79
319.349	22.36
319.563	-26.79
319.776	16.21
319.99	22.36
320.203	-10.41
320.417	-28.84
320.63	65.36
320.843	51.03
321.057	36.69
321.27	36.69
321.483	26.45
321.697	28.5
321.91	77.65
322.124	32.6
322.337	34.64
322.55	10.07
322.763	-6.31
322.977	-2.22
323.19	8.02
323.403	53.08
323.617	55.12
323.83	-0.17
324.043	1.88
324.256	51.03
324.469	22.36
324.683	40.79
324.896	55.12
325.109	30.55
325.322	40.79
325.535	130.9
325.748	20.31
325.962	48.98
326.175	-49.32
326.388	10.07
326.601	16.21
326.814	-16.55
327.027	44.88
327.24	-2.22
327.453	-37.03
327.666	91.99
327.879	36.69
328.092	71.51
328.305	-10.41
328.518	44.88
328.731	-34.99
328.944	38.74
329.157	-8.36
329.37	40.79
329.583	22.36
329.796	61.27
330.009	24.4
330.222	94.04
330.435	5.97
330.648	38.74
330.861	44.88
331.073	77.65
331.286	-8.36
331.499	36.69
331.712	24.4
331.925	20.31
332.138	46.93
332.35	61.27
332.563	-51.37
332.776	85.84
332.989	87.89
333.202	22.36
333.414	-24.75
333.627	59.22
333.84	69.46
334.053	-10.41
334.265	30.55
334.478	69.46
334.691	5.97
334.903	-34.99
335.116	61.27
335.329	28.5
335.541	28.5
335.754	-4.27
335.966	8.02
336.179	28.5
336.392	-2.22
336.604	38.74
336.817	-14.51
337.029	77.65
337.242	-4.27
337.454	28.5
337.667	14.17
337.88	-26.79
338.092	-43.18
338.305	28.5
338.517	-4.27
338.729	-4.27
338.942	75.6
339.154	-26.79
339.367	-0.17
339.579	-2.22
339.792	51.03
340.004	40.79
340.217	-24.75
340.429	14.17
340.641	34.64
340.854	-6.31
341.066	-28.84
341.278	28.5
341.491	34.64
341.703	18.26
341.915	1.88
342.128	102.23
342.34	3.93
342.552	42.84
342.764	-18.6
342.977	-16.55
343.189	57.17
343.401	-10.41
343.613	-41.13
343.826	10.07
344.038	-65.71
344.25	12.12
344.462	18.26
344.674	102.23
344.886	96.08
345.099	-14.51
345.311	-51.37
345.523	108.37
345.735	-37.03
345.947	1.88
346.159	44.88
346.371	8.02
346.583	-24.75
346.795	85.84
347.007	3.93
347.219	46.93
347.431	44.88
347.643	8.02
347.855	24.4
348.067	20.31
348.279	20.31
348.491	5.97
348.703	-2.22
348.915	3.93
349.127	20.31
349.339	28.5
349.551	-22.7
349.763	91.99
349.975	8.02
350.187	30.55
350.399	48.98
350.61	-16.55
350.822	-28.84
351.034	53.08
351.246	-32.94
351.458	24.4
351.669	-24.75
351.881	-2.22
352.093	44.88
352.305	32.6
352.517	48.98
352.728	36.69
352.94	3.93
353.152	79.7
353.363	-14.51
353.575	28.5
353.787	16.21
353.999	14.17
354.21	81.75
354.422	16.21
354.633	-24.75
354.845	-32.94
355.057	24.4
355.268	-28.84
355.48	46.93
355.692	61.27
355.903	-39.08
356.115	-2.22
356.326	44.88
356.538	98.13
356.749	16.21
356.961	18.26
357.172	69.46
357.384	55.12
357.595	1.88
357.807	-26.79
358.018	-4.27
358.23	-0.17
358.441	79.7
358.653	22.36
358.864	-53.42
359.075	5.97
359.287	59.22
359.498	14.17
359.709	40.79
359.921	94.04
360.132	-2.22
360.344	-24.75
360.555	-8.36
360.766	-0.17
360.977	34.64
361.189	87.89
361.4	57.17
361.611	3.93
361.823	48.98
362.034	12.12
362.245	-12.46
362.456	28.5
362.667	32.6
362.879	67.41
363.09	-8.36
363.301	36.69
363.512	42.84
363.723	-22.7
363.935	51.03
364.146	46.93
364.357	-0.17
364.568	40.79
364.779	38.74
364.99	67.41
365.201	-28.84
365.412	38.74
365.623	40.79
365.834	-4.27
366.045	46.93
366.256	73.56
366.467	28.5
366.678	18.26
366.889	-22.7
367.1	20.31
367.311	12.12
367.522	26.45
367.733	8.02
367.944	32.6
368.155	12.12
368.366	65.36
368.577	-22.7
368.788	30.55
368.999	-22.7
369.209	-18.6
369.42	106.32
369.631	110.42
369.842	63.32
370.053	30.55
370.264	24.4
370.474	44.88
370.685	-20.65
370.896	38.74
371.107	20.31
371.317	85.84
371.528	55.12
371.739	16.21
371.95	42.84
372.16	-8.36
372.371	34.64
372.582	44.88
372.792	51.03
373.003	75.6
373.214	-34.99
373.424	-12.46
373.635	5.97
373.846	3.93
374.056	18.26
374.267	28.5
374.477	141.14
374.688	59.22
374.898	3.93
375.109	1.88
375.319	-14.51
375.53	42.84
375.74	-0.17
375.951	-45.23
376.161	44.88
376.372	40.79
376.582	20.31
376.793	79.7
377.003	14.17
377.214	30.55
377.424	-8.36
377.635	53.08
377.845	-14.51
378.055	12.12
378.266	8.02
378.476	77.65
378.686	20.31
378.897	-20.65
379.107	-45.23
379.317	3.93
379.528	44.88
379.738	-0.17
379.948	20.31
380.158	42.84
380.369	71.51
380.579	87.89
380.789	71.51
380.999	57.17
381.21	8.02
381.42	87.89
381.63	-6.31
381.84	48.98
382.05	20.31
382.261	-18.6
382.471	51.03
382.681	53.08
382.891	46.93
383.101	14.17
383.311	46.93
383.521	102.23
383.731	34.64
383.941	32.6
384.151	26.45
384.361	69.46
384.571	8.02
384.781	30.55
384.991	-2.22
385.201	51.03
385.411	30.55
385.621	-30.89
385.831	-43.18
386.041	36.69
386.251	85.84
386.461	14.17
386.671	30.55
386.881	61.27
387.091	42.84
387.301	73.56
387.511	14.17
387.72	24.4
387.93	24.4
388.14	32.6
388.35	57.17
388.56	51.03
388.769	69.46
388.979	30.55
389.189	14.17
389.399	-45.23
389.609	10.07
389.818	26.45
390.028	32.6
390.238	126.8
390.447	18.26
390.657	55.12
390.867	55.12
391.076	38.74
391.286	48.98
391.496	85.84
391.705	65.36
391.915	3.93
392.125	20.31
392.334	1.88
392.544	104.28
392.753	73.56
392.963	5.97
393.172	20.31
393.382	104.28
393.591	83.8
393.801	-12.46
394.01	53.08
394.22	40.79
394.429	116.56
394.639	53.08
394.848	14.17
395.058	53.08
395.267	89.94
395.477	42.84
395.686	46.93
395.895	18.26
396.105	67.41
396.314	98.13
396.524	48.98
396.733	87.89
396.942	98.13
397.152	145.24
397.361	77.65
397.57	-14.51
397.78	20.31
397.989	120.66
398.198	71.51
398.407	32.6
398.617	59.22
398.826	1.88
399.035	28.5
399.244	18.26
399.453	120.66
399.663	57.17
399.872	30.55
400.081	128.85
400.29	40.79
400.499	36.69
400.708	89.94
400.917	26.45
401.127	110.42
401.336	61.27
401.545	77.65
401.754	12.12
401.963	79.7
402.172	89.94
402.381	32.6
402.59	5.97
402.799	79.7
403.008	102.23
403.217	77.65
403.426	-4.27
403.635	12.12
403.844	57.17
404.053	57.17
404.262	51.03
404.471	100.18
404.68	145.24
404.888	118.61
405.097	94.04
405.306	110.42
405.515	38.74
405.724	91.99
405.933	112.47
406.142	77.65
406.35	110.42
406.559	69.46
406.768	102.23
406.977	196.43
407.185	63.32
407.394	87.89
407.603	155.47
407.812	149.33
408.02	178
408.229	104.28
408.438	106.32
408.646	171.86
408.855	143.19
409.064	161.62
409.272	180.05
409.481	212.82
409.69	139.09
409.898	261.97
410.107	261.97
410.315	255.83
410.524	151.38
410.733	153.43
410.941	167.76
411.15	249.68
411.358	153.43
411.567	317.26
411.775	259.92
411.984	233.3
412.192	290.64
412.401	284.5
412.609	235.35
412.818	317.26
413.026	253.78
413.234	317.26
413.443	307.02
413.651	329.55
413.86	337.74
414.068	401.23
414.276	386.9
414.485	356.18
414.693	407.38
414.901	407.38
415.11	462.67
415.318	413.52
415.526	427.85
415.734	466.77
415.943	485.2
416.151	505.68
416.359	544.59
416.567	546.64
416.776	534.35
416.984	583.5
417.192	644.94
417.4	610.12
417.608	667.47
417.817	548.68
418.025	622.41
418.233	702.28
418.441	667.47
418.649	692.04
418.857	808.78
419.065	790.35
419.273	814.92
419.481	845.64
419.689	878.41
419.897	989
420.105	954.18
420.313	896.84
420.521	1036.1
420.729	948.04
420.937	976.71
421.145	1111.88
421.353	1212.23
421.561	1144.64
421.769	1091.4
421.977	1380.16
422.185	1322.82
422.393	1351.49
422.601	1427.26
422.809	1419.07
423.017	1402.69
423.224	1468.22
423.432	1453.89
423.64	1550.14
423.848	1636.16
424.056	1601.34
424.263	1693.5
424.471	1797.95
424.679	1773.37
424.887	1726.27
425.094	1759.03
425.302	1838.91
425.51	1888.06
425.718	2096.95
425.925	2084.66
426.133	2109.24
426.341	2133.81
426.548	2264.88
426.756	2459.44
426.964	2518.83
427.171	2412.34
427.379	2631.47
427.586	2623.28
427.794	2744.11
428.001	2799.4
428.209	2987.82
428.417	2873.13
428.624	3141.41
428.832	3182.37
429.039	3047.21
429.247	3100.45
429.454	3413.79
429.662	3546.91
429.869	3436.32
430.076	3766.04
430.284	3460.9
430.491	3702.56
430.699	3901.21
430.906	3893.02
431.114	3921.69
431.321	3979.03
431.528	4175.64
431.736	4415.25
431.943	4648.72
432.15	4566.8
432.358	4511.5
432.565	4767.5
432.772	4718.35
432.979	5023.5
433.187	5093.13
433.394	5054.22
433.601	5332.74
433.808	5537.54
434.016	5334.79
434.223	5742.33
434.43	6020.86
434.637	5877.5
434.844	6348.53
435.052	6328.05
435.259	6291.19
435.466	6371.06
435.673	6461.17
435.88	6598.38
436.087	7093.99
436.294	6946.54
436.501	7100.14
436.708	7003.88
436.915	7177.96
437.122	7554.79
437.329	7556.83
437.537	7724.77
437.743	8079.07
437.95	7800.54
438.157	8308.44
438.364	8642.26
438.571	8713.94
438.778	8613.59
438.985	9404.1
439.192	8910.54
439.399	9342.66
439.606	8883.92
439.813	9623.23
440.02	10354.36
440.227	9875.13
440.433	9981.63
440.64	10278.58
440.847	10264.25
441.054	10526.39
441.261	11275.95
441.467	10874.54
441.674	11347.62
441.881	11648.68
442.088	11538.09
442.294	11562.66
442.501	11867.81
442.708	12263.07
442.914	12447.38
443.121	13000.33
443.328	12699.28
443.534	13653.64
443.741	13186.7
443.948	13047.44
444.154	13930.11
444.361	13661.83
444.568	13989.5
444.774	13944.45
444.981	14155.39
445.187	14593.65
445.394	15232.62
445.6	15064.69
445.807	16633.43
446.013	15711.85
446.22	16019.04
446.426	16787.03
446.633	16719.45
446.839	17186.38
447.046	16594.52
447.252	17657.42
447.459	17856.07
447.665	17344.08
447.871	18110.02
448.078	18923.06
448.284	18136.64
448.491	18579
448.697	19519.02
448.903	19621.42
449.11	19684.9
449.316	19297.84
449.522	19897.89
449.728	20393.5
449.935	20446.75
450.141	20403.74
450.347	21018.13
450.553	20143.65
450.76	20473.37
450.966	21204.5
451.172	20647.45
451.378	21282.32
451.584	20930.07
451.791	21415.44
451.997	21265.94
452.203	21702.15
452.409	21835.27
452.615	21528.08
452.821	20811.29
453.027	20512.28
453.233	21679.63
453.44	20770.33
453.646	21196.31
453.852	21272.08
454.058	21573.13
454.264	20930.07
454.47	21636.62
454.676	20801.05
454.882	21440.01
455.088	19723.82
455.294	19875.37
455.5	20205.09
455.705	20291.1
455.911	19516.97
456.117	19353.13
456.323	19009.08
456.529	17841.73
456.735	18959.92
456.941	18232.9
457.147	18007.62
457.352	17305.17
457.558	17190.48
457.764	17204.81
457.97	17235.53
458.176	16449.11
458.381	16596.57
458.587	15838.82
458.793	15722.09
458.999	15023.73
459.204	16039.52
459.41	15642.21
459.616	14397.05
459.821	14585.46
460.027	14583.41
460.233	14014.08
460.438	13807.23
460.644	13756.04
460.85	13022.86
461.055	12947.09
461.261	12838.55
461.466	11972.25
461.672	11460.26
461.878	12304.03
462.083	11665.06
462.289	11189.93
462.494	11155.12
462.7	10727.09
462.905	10591.92
463.111	10968.75
463.316	10946.22
463.522	10553.01
463.727	10622.64
463.932	10731.19
464.138	10522.29
464.343	10606.26
464.549	10266.3
464.754	10661.55
464.959	10690.23
465.165	10522.29
465.37	9942.72
465.575	9801.41
465.781	10278.58
465.986	10206.91
466.191	9805.5
466.397	9672.39
466.602	9227.98
466.807	9522.88
467.012	9502.4
467.218	9531.08
467.423	9408.2
467.628	9656
467.833	9805.5
468.038	9520.84
468.244	9330.37
468.449	9479.88
468.654	9172.68
