Data from USB4F104151__13__13-52-20-004.txt Node

Date: Thu Mar 13 13:52:20 EDT 2025
User: louis
Spectrometer: USB4F10415
Trigger mode: 4
Integration Time (sec): 1.000000E-2
Scans to average: 1
Electric dark correction enabled: true
Nonlinearity correction enabled: false
Boxcar width: 0
XAxis mode: Wavelengths
Number of Pixels in Spectrum: 3648
>>>>>Begin Spectral Data<<<<<
178.204	-37.89
178.424	-37.89
178.644	-37.89
178.864	-15.36
179.084	3.07
179.304	15.36
179.524	9.22
179.744	-7.17
179.964	54.27
180.184	-35.84
180.404	-37.89
180.624	1.02
180.844	1.02
181.064	17.41
181.283	1.02
181.503	1.02
181.723	-19.46
181.943	-56.32
182.163	74.75
182.383	-60.42
182.602	-3.07
182.822	48.13
183.042	27.65
183.262	21.5
183.482	62.46
183.701	13.31
183.921	-31.74
184.141	56.32
184.361	13.31
184.58	15.36
184.8	21.5
185.02	-11.26
185.239	-80.89
185.459	60.42
185.679	89.09
185.898	3.07
186.118	33.79
186.338	1.02
186.557	9.22
186.777	-21.5
186.997	64.51
187.216	11.26
187.436	68.61
187.655	50.18
187.875	39.94
188.095	-15.36
188.314	35.84
188.534	-29.7
188.753	82.94
188.973	1.02
189.192	48.13
189.412	-5.12
189.631	66.56
189.851	21.5
190.07	70.65
190.29	-29.7
190.509	19.46
190.729	-27.65
190.948	50.18
191.168	89.09
191.387	11.26
191.607	80.89
191.826	23.55
192.045	19.46
192.265	-11.26
192.484	29.7
192.704	3.07
192.923	-52.22
193.142	9.22
193.362	21.5
193.581	78.85
193.8	39.94
194.02	109.57
194.239	29.7
194.458	25.6
194.678	60.42
194.897	66.56
195.116	29.7
195.335	64.51
195.555	-3.07
195.774	50.18
195.993	29.7
196.212	56.32
196.432	68.61
196.651	-68.61
196.87	1.02
197.089	-31.74
197.308	9.22
197.528	17.41
197.747	-7.17
197.966	17.41
198.185	33.79
198.404	-35.84
198.623	-17.41
198.842	-44.03
199.062	62.46
199.281	-31.74
199.5	-9.22
199.719	3.07
199.938	-72.7
200.157	31.74
200.376	-68.61
200.595	5.12
200.814	33.79
201.033	-95.23
201.252	84.99
201.471	23.55
201.69	-33.79
201.909	84.99
202.128	9.22
202.347	13.31
202.566	1.02
202.785	-78.85
203.004	-29.7
203.223	46.08
203.442	-15.36
203.661	3.07
203.879	58.37
204.098	7.17
204.317	31.74
204.536	82.94
204.755	29.7
204.974	48.13
205.193	7.17
205.411	76.8
205.63	-25.6
205.849	5.12
206.068	-54.27
206.287	11.26
206.505	99.33
206.724	46.08
206.943	-54.27
207.162	19.46
207.381	-39.94
207.599	9.22
207.818	54.27
208.037	99.33
208.255	5.12
208.474	27.65
208.693	99.33
208.911	-7.17
209.13	54.27
209.349	1.02
209.567	35.84
209.786	17.41
210.005	7.17
210.223	1.02
210.442	-13.31
210.661	-11.26
210.879	15.36
211.098	17.41
211.316	7.17
211.535	-19.46
211.753	48.13
211.972	1.02
212.191	-48.13
212.409	25.6
212.628	-3.07
212.846	70.65
213.065	7.17
213.283	29.7
213.502	-23.55
213.72	-25.6
213.938	-41.98
214.157	13.31
214.375	-11.26
214.594	11.26
214.812	48.13
215.031	29.7
215.249	46.08
215.467	-11.26
215.686	33.79
215.904	31.74
216.122	50.18
216.341	76.8
216.559	62.46
216.778	68.61
216.996	-7.17
217.214	-62.46
217.432	1.02
217.651	21.5
217.869	-44.03
218.087	31.74
218.306	-15.36
218.524	-29.7
218.742	11.26
218.96	1.02
219.179	-60.42
219.397	-25.6
219.615	13.31
219.833	19.46
220.051	50.18
220.27	-1.02
220.488	66.56
220.706	19.46
220.924	19.46
221.142	41.98
221.36	-9.22
221.578	17.41
221.796	62.46
222.015	25.6
222.233	-35.84
222.451	27.65
222.669	7.17
222.887	5.12
223.105	-19.46
223.323	25.6
223.541	74.75
223.759	52.22
223.977	62.46
224.195	44.03
224.413	54.27
224.631	-11.26
224.849	23.55
225.067	19.46
225.285	-7.17
225.503	74.75
225.721	25.6
225.939	64.51
226.157	62.46
226.375	19.46
226.592	-25.6
226.81	56.32
227.028	48.13
227.246	-7.17
227.464	-13.31
227.682	41.98
227.9	9.22
228.117	-31.74
228.335	-56.32
228.553	5.12
228.771	29.7
228.989	-37.89
229.206	37.89
229.424	-3.07
229.642	64.51
229.86	11.26
230.077	-5.12
230.295	15.36
230.513	54.27
230.731	58.37
230.948	13.31
231.166	101.37
231.384	54.27
231.601	25.6
231.819	-1.02
232.037	21.5
232.254	62.46
232.472	23.55
232.689	5.12
232.907	3.07
233.125	7.17
233.342	19.46
233.56	25.6
233.777	1.02
233.995	-23.55
234.213	11.26
234.43	25.6
234.648	91.13
234.865	21.5
235.083	82.94
235.3	-17.41
235.518	-23.55
235.735	5.12
235.953	37.89
236.17	11.26
236.388	54.27
236.605	56.32
236.822	93.18
237.04	-23.55
237.257	82.94
237.475	48.13
237.692	41.98
237.909	37.89
238.127	60.42
238.344	-19.46
238.562	21.5
238.779	-37.89
238.996	29.7
239.214	37.89
239.431	105.47
239.648	39.94
239.865	3.07
240.083	41.98
240.3	7.17
240.517	-11.26
240.735	48.13
240.952	44.03
241.169	11.26
241.386	44.03
241.603	74.75
241.821	5.12
242.038	1.02
242.255	1.02
242.472	7.17
242.689	-11.26
242.907	50.18
243.124	-31.74
243.341	82.94
243.558	46.08
243.775	-19.46
243.992	-19.46
244.209	46.08
244.426	-21.5
244.643	31.74
244.86	-72.7
245.078	-15.36
245.295	80.89
245.512	50.18
245.729	-87.04
245.946	-1.02
246.163	-17.41
246.38	-3.07
246.597	54.27
246.814	25.6
247.031	56.32
247.248	39.94
247.464	-1.02
247.681	15.36
247.898	89.09
248.115	97.28
248.332	13.31
248.549	-1.02
248.766	31.74
248.983	-33.79
249.2	66.56
249.417	3.07
249.633	-33.79
249.85	27.65
250.067	35.84
250.284	-89.09
250.501	1.02
250.717	74.75
250.934	-9.22
251.151	91.13
251.368	23.55
251.585	103.42
251.801	9.22
252.018	58.37
252.235	37.89
252.451	13.31
252.668	-9.22
252.885	117.76
253.102	13.31
253.318	52.22
253.535	48.13
253.752	82.94
253.968	9.22
254.185	-5.12
254.401	-9.22
254.618	87.04
254.835	7.17
255.051	37.89
255.268	-7.17
255.484	-25.6
255.701	-1.02
255.917	13.31
256.134	62.46
256.351	-66.56
256.567	91.13
256.784	68.61
257	-21.5
257.217	37.89
257.433	-3.07
257.65	54.27
257.866	-9.22
258.082	-9.22
258.299	80.89
258.515	54.27
258.732	35.84
258.948	-5.12
259.165	-21.5
259.381	15.36
259.597	-23.55
259.814	-5.12
260.03	1.02
260.246	68.61
260.463	-27.65
260.679	48.13
260.895	54.27
261.112	35.84
261.328	7.17
261.544	35.84
261.761	48.13
261.977	-1.02
262.193	1.02
262.409	31.74
262.626	-3.07
262.842	62.46
263.058	21.5
263.274	46.08
263.49	33.79
263.707	39.94
263.923	50.18
264.139	-9.22
264.355	37.89
264.571	-17.41
264.787	-3.07
265.004	48.13
265.22	-44.03
265.436	-23.55
265.652	33.79
265.868	29.7
266.084	29.7
266.3	68.61
266.516	17.41
266.732	11.26
266.948	72.7
267.164	33.79
267.38	31.74
267.596	25.6
267.812	76.8
268.028	27.65
268.244	33.79
268.46	-15.36
268.676	74.75
268.892	-25.6
269.108	21.5
269.324	31.74
269.54	17.41
269.756	132.09
269.972	-3.07
270.188	48.13
270.403	-3.07
270.619	33.79
270.835	46.08
271.051	44.03
271.267	-7.17
271.483	-21.5
271.698	66.56
271.914	21.5
272.13	27.65
272.346	-17.41
272.562	29.7
272.777	64.51
272.993	23.55
273.209	-44.03
273.425	115.71
273.64	15.36
273.856	11.26
274.072	46.08
274.287	58.37
274.503	50.18
274.719	70.65
274.934	58.37
275.15	37.89
275.366	29.7
275.581	58.37
275.797	54.27
276.012	-1.02
276.228	70.65
276.444	3.07
276.659	33.79
276.875	27.65
277.09	70.65
277.306	15.36
277.521	-3.07
277.737	50.18
277.952	117.76
278.168	-29.7
278.383	37.89
278.599	-39.94
278.814	76.8
279.03	-13.31
279.245	5.12
279.461	66.56
279.676	80.89
279.892	15.36
280.107	27.65
280.322	37.89
280.538	5.12
280.753	9.22
280.969	25.6
281.184	21.5
281.399	11.26
281.615	17.41
281.83	72.7
282.045	95.23
282.26	44.03
282.476	19.46
282.691	115.71
282.906	-37.89
283.122	-21.5
283.337	117.76
283.552	15.36
283.767	-37.89
283.983	17.41
284.198	-17.41
284.413	41.98
284.628	37.89
284.843	5.12
285.058	31.74
285.274	48.13
285.489	-9.22
285.704	7.17
285.919	52.22
286.134	46.08
286.349	74.75
286.564	64.51
286.779	44.03
286.995	29.7
287.21	-5.12
287.425	7.17
287.64	62.46
287.855	78.85
288.07	-5.12
288.285	48.13
288.5	-58.37
288.715	27.65
288.93	37.89
289.145	5.12
289.36	-27.65
289.575	78.85
289.79	-5.12
290.004	64.51
290.219	54.27
290.434	113.66
290.649	17.41
290.864	58.37
291.079	-25.6
291.294	25.6
291.509	-33.79
291.724	62.46
291.938	13.31
292.153	56.32
292.368	44.03
292.583	80.89
292.798	93.18
293.012	44.03
293.227	-15.36
293.442	46.08
293.657	1.02
293.871	3.07
294.086	-11.26
294.301	48.13
294.516	19.46
294.73	23.55
294.945	-37.89
295.16	68.61
295.374	23.55
295.589	62.46
295.804	-37.89
296.018	37.89
296.233	41.98
296.447	-3.07
296.662	95.23
296.877	17.41
297.091	37.89
297.306	-5.12
297.52	-25.6
297.735	46.08
297.949	54.27
298.164	31.74
298.378	62.46
298.593	13.31
298.807	-21.5
299.022	-3.07
299.236	60.42
299.451	-5.12
299.665	58.37
299.88	1.02
300.094	33.79
300.309	68.61
300.523	7.17
300.737	50.18
300.952	-1.02
301.166	46.08
301.381	5.12
301.595	-33.79
301.809	-35.84
302.024	13.31
302.238	-1.02
302.452	60.42
302.667	9.22
302.881	144.38
303.095	-29.7
303.309	-25.6
303.524	-9.22
303.738	35.84
303.952	7.17
304.166	78.85
304.381	33.79
304.595	15.36
304.809	46.08
305.023	-11.26
305.237	1.02
305.452	17.41
305.666	39.94
305.88	52.22
306.094	25.6
306.308	37.89
306.522	9.22
306.736	15.36
306.95	44.03
307.164	70.65
307.379	62.46
307.593	82.94
307.807	54.27
308.021	99.33
308.235	121.85
308.449	1.02
308.663	70.65
308.877	9.22
309.091	33.79
309.305	39.94
309.519	9.22
309.733	-3.07
309.947	9.22
310.161	31.74
310.374	13.31
310.588	-3.07
310.802	41.98
311.016	48.13
311.23	95.23
311.444	-9.22
311.658	-13.31
311.872	84.99
312.085	15.36
312.299	-19.46
312.513	48.13
312.727	41.98
312.941	11.26
313.154	82.94
313.368	9.22
313.582	66.56
313.796	-11.26
314.009	-17.41
314.223	-13.31
314.437	60.42
314.651	21.5
314.864	5.12
315.078	54.27
315.292	29.7
315.505	29.7
315.719	27.65
315.933	-13.31
316.146	-7.17
316.36	-1.02
316.573	76.8
316.787	44.03
317.001	-7.17
317.214	-13.31
317.428	31.74
317.641	33.79
317.855	25.6
318.068	72.7
318.282	146.43
318.495	52.22
318.709	-29.7
318.922	66.56
319.136	-9.22
319.349	-11.26
319.563	29.7
319.776	27.65
319.99	-19.46
320.203	52.22
320.417	-37.89
320.63	68.61
320.843	25.6
321.057	7.17
321.27	87.04
321.483	107.52
321.697	39.94
321.91	91.13
322.124	31.74
322.337	44.03
322.55	54.27
322.763	-7.17
322.977	-29.7
323.19	-11.26
323.403	58.37
323.617	54.27
323.83	76.8
324.043	19.46
324.256	21.5
324.469	-17.41
324.683	74.75
324.896	-13.31
325.109	50.18
325.322	-31.74
325.535	74.75
325.748	-1.02
325.962	-13.31
326.175	35.84
326.388	48.13
326.601	-31.74
326.814	21.5
327.027	11.26
327.24	33.79
327.453	-31.74
327.666	35.84
327.879	33.79
328.092	1.02
328.305	19.46
328.518	76.8
328.731	-21.5
328.944	84.99
329.157	-13.31
329.37	19.46
329.583	19.46
329.796	48.13
330.009	29.7
330.222	105.47
330.435	-1.02
330.648	58.37
330.861	-35.84
331.073	27.65
331.286	44.03
331.499	35.84
331.712	29.7
331.925	37.89
332.138	23.55
332.35	50.18
332.563	97.28
332.776	87.04
332.989	78.85
333.202	21.5
333.414	21.5
333.627	87.04
333.84	33.79
334.053	5.12
334.265	-1.02
334.478	95.23
334.691	-9.22
334.903	37.89
335.116	23.55
335.329	-27.65
335.541	50.18
335.754	9.22
335.966	-3.07
336.179	31.74
336.392	74.75
336.604	-25.6
336.817	62.46
337.029	-27.65
337.242	35.84
337.454	44.03
337.667	-13.31
337.88	35.84
338.092	1.02
338.305	95.23
338.517	48.13
338.729	31.74
338.942	58.37
339.154	80.89
339.367	13.31
339.579	35.84
339.792	62.46
340.004	44.03
340.217	1.02
340.429	95.23
340.641	19.46
340.854	48.13
341.066	17.41
341.278	31.74
341.491	80.89
341.703	54.27
341.915	37.89
342.128	50.18
342.34	-11.26
342.552	29.7
342.764	44.03
342.977	54.27
343.189	70.65
343.401	35.84
343.613	5.12
343.826	70.65
344.038	62.46
344.25	136.19
344.462	97.28
344.674	56.32
344.886	11.26
345.099	19.46
345.311	5.12
345.523	119.81
345.735	64.51
345.947	15.36
346.159	-44.03
346.371	48.13
346.583	-19.46
346.795	74.75
347.007	25.6
347.219	17.41
347.431	-46.08
347.643	107.52
347.855	48.13
348.067	52.22
348.279	54.27
348.491	70.65
348.703	76.8
348.915	66.56
349.127	7.17
349.339	70.65
349.551	1.02
349.763	62.46
349.975	62.46
350.187	89.09
350.399	44.03
350.61	78.85
350.822	39.94
351.034	7.17
351.246	89.09
351.458	46.08
351.669	31.74
351.881	52.22
352.093	15.36
352.305	19.46
352.517	82.94
352.728	87.04
352.94	136.19
353.152	52.22
353.363	-48.13
353.575	46.08
353.787	50.18
353.999	48.13
354.21	25.6
354.422	70.65
354.633	-13.31
354.845	52.22
355.057	31.74
355.268	72.7
355.48	-39.94
355.692	52.22
355.903	29.7
356.115	7.17
356.326	64.51
356.538	35.84
356.749	115.71
356.961	-25.6
357.172	56.32
357.384	48.13
357.595	-1.02
357.807	54.27
358.018	-35.84
358.23	13.31
358.441	52.22
358.653	44.03
358.864	7.17
359.075	5.12
359.287	1.02
359.498	74.75
359.709	-3.07
359.921	52.22
360.132	68.61
360.344	70.65
360.555	3.07
360.766	111.61
360.977	52.22
361.189	44.03
361.4	39.94
361.611	37.89
361.823	78.85
362.034	50.18
362.245	17.41
362.456	33.79
362.667	64.51
362.879	66.56
363.09	5.12
363.301	11.26
363.512	66.56
363.723	66.56
363.935	9.22
364.146	3.07
364.357	13.31
364.568	105.47
364.779	37.89
364.99	37.89
365.201	72.7
365.412	80.89
365.623	54.27
365.834	97.28
366.045	19.46
366.256	-9.22
366.467	-13.31
366.678	9.22
366.889	-9.22
367.1	19.46
367.311	5.12
367.522	21.5
367.733	37.89
367.944	39.94
368.155	33.79
368.366	35.84
368.577	33.79
368.788	56.32
368.999	3.07
369.209	54.27
369.42	93.18
369.631	95.23
369.842	37.89
370.053	23.55
370.264	5.12
370.474	93.18
370.685	-7.17
370.896	89.09
371.107	25.6
371.317	60.42
371.528	35.84
371.739	11.26
371.95	13.31
372.16	89.09
372.371	50.18
372.582	44.03
372.792	1.02
373.003	35.84
373.214	66.56
373.424	27.65
373.635	70.65
373.846	78.85
374.056	64.51
374.267	95.23
374.477	58.37
374.688	-17.41
374.898	121.85
375.109	87.04
375.319	66.56
375.53	70.65
375.74	27.65
375.951	84.99
376.161	87.04
376.372	99.33
376.582	64.51
376.793	46.08
377.003	48.13
377.214	72.7
377.424	68.61
377.635	37.89
377.845	35.84
378.055	-19.46
378.266	39.94
378.476	48.13
378.686	76.8
378.897	93.18
379.107	60.42
379.317	140.29
379.528	27.65
379.738	76.8
379.948	66.56
380.158	82.94
380.369	-1.02
380.579	80.89
380.789	7.17
380.999	35.84
381.21	76.8
381.42	80.89
381.63	7.17
381.84	11.26
382.05	70.65
382.261	101.37
382.471	123.9
382.681	-19.46
382.891	54.27
383.101	46.08
383.311	-7.17
383.521	54.27
383.731	78.85
383.941	130.05
384.151	1.02
384.361	-23.55
384.571	76.8
384.781	132.09
384.991	115.71
385.201	-7.17
385.411	35.84
385.621	7.17
385.831	19.46
386.041	91.13
386.251	33.79
386.461	25.6
386.671	56.32
386.881	62.46
387.091	89.09
387.301	84.99
387.511	25.6
387.72	117.76
387.93	64.51
388.14	-7.17
388.35	33.79
388.56	93.18
388.769	64.51
388.979	19.46
389.189	52.22
389.399	58.37
389.609	97.28
389.818	107.52
390.028	-9.22
390.238	78.85
390.447	7.17
390.657	37.89
390.867	91.13
391.076	25.6
391.286	54.27
391.496	19.46
391.705	50.18
391.915	17.41
392.125	19.46
392.334	156.67
392.544	109.57
392.753	60.42
392.963	136.19
393.172	27.65
393.382	74.75
393.591	70.65
393.801	58.37
394.01	31.74
394.22	207.87
394.429	93.18
394.639	109.57
394.848	78.85
395.058	27.65
395.267	93.18
395.477	44.03
395.686	72.7
395.895	44.03
396.105	123.9
396.314	68.61
396.524	54.27
396.733	33.79
396.942	54.27
397.152	74.75
397.361	97.28
397.57	128
397.78	130.05
397.989	74.75
398.198	95.23
398.407	134.14
398.617	132.09
398.826	91.13
399.035	87.04
399.244	76.8
399.453	62.46
399.663	136.19
399.872	140.29
400.081	82.94
400.29	97.28
400.499	183.29
400.708	84.99
400.917	87.04
401.127	142.33
401.336	115.71
401.545	168.96
401.754	66.56
401.963	121.85
402.172	107.52
402.381	130.05
402.59	50.18
402.799	68.61
403.008	138.24
403.217	132.09
403.426	105.47
403.635	173.05
403.844	103.42
404.053	105.47
404.262	99.33
404.471	95.23
404.68	87.04
404.888	105.47
405.097	121.85
405.306	107.52
405.515	183.29
405.724	218.11
405.933	146.43
406.142	189.44
406.35	193.53
406.559	195.58
406.768	257.02
406.977	238.59
407.185	211.96
407.394	230.4
407.603	164.86
407.812	234.49
408.02	254.97
408.229	134.14
408.438	234.49
408.646	250.88
408.855	257.02
409.064	291.84
409.272	267.26
409.481	250.88
409.69	283.64
409.898	322.56
410.107	306.17
410.315	314.36
410.524	322.56
410.733	461.82
410.941	328.7
411.15	383.99
411.358	429.05
411.567	402.43
411.775	381.95
411.984	424.95
412.192	386.04
412.401	474.1
412.609	490.49
412.818	545.78
413.026	535.54
413.234	517.11
413.443	496.63
413.651	541.69
413.86	535.54
414.068	623.61
414.276	592.89
414.485	545.78
414.693	576.5
414.901	648.18
415.11	678.9
415.318	631.8
415.526	719.86
415.734	775.16
415.943	828.4
416.151	797.68
416.359	832.5
416.567	924.66
416.776	867.31
416.984	914.42
417.192	1025.01
417.4	986.1
417.608	990.19
417.817	986.1
418.025	1123.31
418.233	1190.89
418.441	1135.6
418.649	1164.27
418.857	1272.81
419.065	1231.85
419.273	1293.29
419.481	1364.97
419.689	1346.54
419.897	1508.33
420.105	1512.42
420.313	1586.15
420.521	1594.34
420.729	1571.82
420.937	1704.93
421.145	1809.38
421.353	1842.15
421.561	1919.97
421.769	2028.51
421.977	2063.33
422.185	2020.32
422.393	2178.01
422.601	2231.26
422.809	2356.19
423.017	2251.74
423.224	2319.32
423.432	2446.3
423.64	2454.49
423.848	2683.86
424.056	2649.05
424.263	2896.85
424.471	2735.06
424.679	2888.66
424.887	3126.22
425.094	3077.07
425.302	3158.99
425.51	3202
425.718	3302.35
425.925	3417.04
426.133	3445.71
426.341	3761.09
426.548	3840.97
426.756	3855.3
426.964	3888.07
427.171	4043.71
427.379	4324.29
427.586	4512.7
427.794	4477.88
428.001	4686.78
428.209	4785.08
428.417	4899.77
428.624	5034.93
428.832	5270.45
429.039	5215.15
429.247	5151.67
429.454	5602.22
429.662	6036.39
429.869	5591.98
430.076	6120.35
430.284	5815.21
430.491	6120.35
430.699	6345.63
430.906	6493.08
431.114	6396.83
431.321	6755.22
431.528	6869.91
431.736	7369.62
431.943	7488.4
432.15	7351.18
432.358	7521.17
432.565	8166.28
432.772	7975.81
432.979	8256.39
433.187	8547.2
433.394	8504.19
433.601	8979.32
433.808	8893.3
434.016	9012.09
434.223	9431.92
434.43	10210.15
434.637	9837.42
434.844	10455.9
435.052	10861.4
435.259	10537.82
435.466	10636.13
435.673	10670.94
435.88	11164.5
436.087	12071.75
436.294	11901.77
436.501	11680.59
436.708	11821.9
436.915	12448.58
437.122	12645.18
437.329	12714.81
437.537	13001.53
437.743	13323.06
437.95	13286.2
438.157	14005.03
438.364	14279.46
438.571	14443.3
438.778	14500.64
438.985	15858.45
439.192	15072.03
439.399	15569.68
439.606	15377.17
439.813	16261.9
440.02	17199.87
440.227	16929.53
440.433	16372.49
440.64	17199.87
440.847	17105.66
441.054	17523.44
441.261	18698.98
441.467	18289.38
441.674	18756.32
441.881	19448.54
442.088	19409.62
442.294	19233.5
442.501	19823.31
442.708	20189.9
442.914	20878.02
443.121	21697.2
443.328	21416.63
443.534	22938.27
443.741	22348.46
443.948	21820.08
444.154	23491.23
444.361	23460.51
444.568	23028.38
444.774	23413.4
444.981	23739.03
445.187	24406.67
445.394	25649.78
445.6	25178.75
445.807	27642.46
446.013	26409.58
446.22	26745.45
446.426	28058.2
446.633	27873.88
446.839	29203.01
447.046	27683.42
447.252	29489.73
447.459	29332.03
447.665	29413.95
447.871	30622.25
448.078	31636
448.284	30472.75
448.491	31345.19
448.697	32571.92
448.903	32766.48
449.11	32977.42
449.316	32033.3
449.522	33194.5
449.728	33925.63
449.935	33757.69
450.141	33837.56
450.347	35052.01
450.553	33739.26
450.76	34241.01
450.966	35217.89
451.172	34841.07
451.378	35801.57
451.584	34750.96
451.791	35949.02
451.997	35660.26
452.203	36352.47
452.409	36108.76
452.615	36000.22
452.821	34210.29
453.027	34111.99
453.233	35850.72
453.44	34320.88
453.646	34963.95
453.852	34941.42
454.058	35676.64
454.264	34161.14
454.47	35170.79
454.676	34060.79
454.882	35303.91
455.088	32145.94
455.294	32756.24
455.5	33098.25
455.705	33393.15
455.911	31791.64
456.117	31642.14
456.323	31128.1
456.529	29475.39
456.735	30861.87
456.941	30042.68
457.147	29049.41
457.352	28295.76
457.558	28312.14
457.764	28469.84
457.97	27335.26
458.176	27077.22
458.381	27009.64
458.587	25588.35
458.793	25639.54
458.999	24521.35
459.204	26167.92
459.41	25664.12
459.616	23947.92
459.821	23610.01
460.027	23892.63
460.233	23050.91
460.438	22129.33
460.644	22487.72
460.85	21340.86
461.055	21162.69
461.261	20951.74
461.466	19563.22
461.672	18768.61
461.878	20304.59
462.083	18924.26
462.289	18279.15
462.494	18508.52
462.7	17464.05
462.905	17222.39
463.111	17212.15
463.316	17881.84
463.522	17394.42
463.727	17316.6
463.932	17249.02
464.138	17218.3
464.343	17351.42
464.549	16524.04
464.754	17357.56
464.959	17130.23
465.165	17208.06
465.37	16464.64
465.575	15995.66
465.781	16780.03
465.986	16653.06
466.191	16096.01
466.397	15713.04
466.602	14848.8
466.807	15223.58
467.012	15500.05
467.218	15491.86
467.423	15160.09
467.628	15330.07
467.833	15747.86
468.038	15250.2
468.244	14959.39
468.449	15541.01
