Data from USB4F104151__162__13-58-46-272.txt Node

Date: Thu Mar 13 13:58:46 EDT 2025
User: louis
Spectrometer: USB4F10415
Trigger mode: 4
Integration Time (sec): 1.000000E-2
Scans to average: 1
Electric dark correction enabled: true
Nonlinearity correction enabled: false
Boxcar width: 0
XAxis mode: Wavelengths
Number of Pixels in Spectrum: 3648
>>>>>Begin Spectral Data<<<<<
178.204	-1.37
178.424	-1.37
178.644	-1.37
178.864	-109.91
179.084	-34.13
179.304	25.26
179.524	-32.08
179.744	-75.09
179.964	-15.7
180.184	25.26
180.404	15.02
180.624	10.92
180.844	-1.37
181.064	41.64
181.283	-23.89
181.503	-5.46
181.723	35.5
181.943	-9.56
182.163	78.51
182.383	-9.56
182.602	51.88
182.822	21.16
183.042	27.31
183.262	-5.46
183.482	43.69
183.701	12.97
183.921	41.64
184.141	-7.51
184.361	6.83
184.58	37.55
184.8	72.36
185.02	-5.46
185.239	49.83
185.459	8.87
185.679	-13.65
185.898	43.69
186.118	4.78
186.338	47.79
186.557	12.97
186.777	-17.75
186.997	92.84
187.216	15.02
187.436	6.83
187.655	-11.61
187.875	29.35
188.095	-34.13
188.314	47.79
188.534	-3.41
188.753	-5.46
188.973	-13.65
189.192	17.07
189.412	10.92
189.631	25.26
189.851	19.11
190.07	55.98
190.29	-21.85
190.509	17.07
190.729	60.07
190.948	-19.8
191.168	6.83
191.387	70.31
191.607	74.41
191.826	47.79
192.045	-38.23
192.265	-9.56
192.484	39.59
192.704	23.21
192.923	27.31
193.142	58.03
193.362	23.21
193.581	8.87
193.8	-25.94
194.02	53.93
194.239	33.45
194.458	82.6
194.678	80.55
194.897	-9.56
195.116	23.21
195.335	21.16
195.555	55.98
195.774	-1.37
195.993	10.92
196.212	-15.7
196.432	-60.76
196.651	-5.46
196.87	-3.41
197.089	-17.75
197.308	35.5
197.528	113.32
197.747	-19.8
197.966	6.83
198.185	55.98
198.404	15.02
198.623	-38.23
198.842	-23.89
199.062	-36.18
199.281	47.79
199.5	35.5
199.719	6.83
199.938	19.11
200.157	-25.94
200.376	-1.37
200.595	109.22
200.814	-60.76
201.033	-7.51
201.252	0.68
201.471	31.4
201.69	2.73
201.909	-3.41
202.128	-1.37
202.347	39.59
202.566	4.78
202.785	19.11
203.004	4.78
203.223	27.31
203.442	51.88
203.661	80.55
203.879	35.5
204.098	41.64
204.317	-36.18
204.536	80.55
204.755	19.11
204.974	4.78
205.193	27.31
205.411	0.68
205.63	21.16
205.849	80.55
206.068	-5.46
206.287	39.59
206.505	51.88
206.724	15.02
206.943	27.31
207.162	23.21
207.381	39.59
207.599	-38.23
207.818	8.87
208.037	-25.94
208.255	51.88
208.474	15.02
208.693	23.21
208.911	0.68
209.13	6.83
209.349	39.59
209.567	-17.75
209.786	21.16
210.005	4.78
210.223	4.78
210.442	39.59
210.661	17.07
210.879	-9.56
211.098	10.92
211.316	35.5
211.535	10.92
211.753	15.02
211.972	-40.28
212.191	10.92
212.409	68.27
212.628	2.73
212.846	98.99
213.065	19.11
213.283	-30.04
213.502	-15.7
213.72	47.79
213.938	-13.65
214.157	-30.04
214.375	17.07
214.594	15.02
214.812	19.11
215.031	-9.56
215.249	-5.46
215.467	58.03
215.686	6.83
215.904	23.21
216.122	51.88
216.341	86.7
216.559	-34.13
216.778	60.07
216.996	58.03
217.214	41.64
217.432	-25.94
217.651	43.69
217.869	-23.89
218.087	-50.52
218.306	31.4
218.524	10.92
218.742	31.4
218.96	-7.51
219.179	-46.42
219.397	25.26
219.615	4.78
219.833	49.83
220.051	-30.04
220.27	-1.37
220.488	17.07
220.706	23.21
220.924	21.16
221.142	-19.8
221.36	64.17
221.578	45.74
221.796	19.11
222.015	12.97
222.233	37.55
222.451	41.64
222.669	-27.99
222.887	55.98
223.105	76.46
223.323	-56.66
223.541	-25.94
223.759	-38.23
223.977	0.68
224.195	66.22
224.413	-15.7
224.631	12.97
224.849	43.69
225.067	4.78
225.285	39.59
225.503	6.83
225.721	15.02
225.939	-9.56
226.157	39.59
226.375	15.02
226.592	84.65
226.81	31.4
227.028	47.79
227.246	-11.61
227.464	-42.32
227.682	23.21
227.9	-17.75
228.117	19.11
228.335	-50.52
228.553	15.02
228.771	-25.94
228.989	31.4
229.206	51.88
229.424	58.03
229.642	29.35
229.86	17.07
230.077	31.4
230.295	101.03
230.513	-5.46
230.731	125.61
230.948	-9.56
231.166	-1.37
231.384	27.31
231.601	-38.23
231.819	37.55
232.037	10.92
232.254	49.83
232.472	12.97
232.689	2.73
232.907	47.79
233.125	8.87
233.342	58.03
233.56	-3.41
233.777	6.83
233.995	2.73
234.213	-5.46
234.43	4.78
234.648	39.59
234.865	62.12
235.083	10.92
235.3	64.17
235.518	84.65
235.735	-1.37
235.953	62.12
236.17	-3.41
236.388	31.4
236.605	-3.41
236.822	96.94
237.04	25.26
237.257	-56.66
237.475	-5.46
237.692	27.31
237.909	-1.37
238.127	25.26
238.344	-5.46
238.562	103.08
238.779	-9.56
238.996	29.35
239.214	-3.41
239.431	-5.46
239.648	-81.24
239.865	35.5
240.083	43.69
240.3	4.78
240.517	10.92
240.735	66.22
240.952	15.02
241.169	90.79
241.386	-13.65
241.603	60.07
241.821	12.97
242.038	-36.18
242.255	12.97
242.472	-34.13
242.689	82.6
242.907	72.36
243.124	-32.08
243.341	66.22
243.558	-9.56
243.775	10.92
243.992	-9.56
244.209	62.12
244.426	31.4
244.643	82.6
244.86	4.78
245.078	47.79
245.295	35.5
245.512	33.45
245.729	-1.37
245.946	21.16
246.163	8.87
246.38	74.41
246.597	68.27
246.814	51.88
247.031	68.27
247.248	55.98
247.464	-27.99
247.681	76.46
247.898	8.87
248.115	-36.18
248.332	19.11
248.549	98.99
248.766	33.45
248.983	0.68
249.2	-27.99
249.417	21.16
249.633	-21.85
249.85	12.97
250.067	0.68
250.284	45.74
250.501	17.07
250.717	49.83
250.934	-11.61
251.151	82.6
251.368	49.83
251.585	53.93
251.801	45.74
252.018	2.73
252.235	12.97
252.451	27.31
252.668	-21.85
252.885	55.98
253.102	74.41
253.318	-5.46
253.535	15.02
253.752	-25.94
253.968	-1.37
254.185	15.02
254.401	-5.46
254.618	29.35
254.835	-46.42
255.051	27.31
255.268	47.79
255.484	-23.89
255.701	-1.37
255.917	0.68
256.134	-9.56
256.351	19.11
256.567	41.64
256.784	2.73
257	-11.61
257.217	-3.41
257.433	-15.7
257.65	80.55
257.866	-5.46
258.082	-46.42
258.299	-13.65
258.515	31.4
258.732	96.94
258.948	103.08
259.165	-25.94
259.381	-19.8
259.597	35.5
259.814	-46.42
260.03	-23.89
260.246	-40.28
260.463	17.07
260.679	-36.18
260.895	101.03
261.112	45.74
261.328	15.02
261.544	64.17
261.761	-50.52
261.977	-1.37
262.193	74.41
262.409	51.88
262.626	-1.37
262.842	80.55
263.058	60.07
263.274	41.64
263.49	-7.51
263.707	12.97
263.923	66.22
264.139	-25.94
264.355	29.35
264.571	58.03
264.787	10.92
265.004	49.83
265.22	10.92
265.436	-40.28
265.652	-9.56
265.868	62.12
266.084	-15.7
266.3	-48.47
266.516	19.11
266.732	68.27
266.948	-58.71
267.164	29.35
267.38	4.78
267.596	4.78
267.812	-66.9
268.028	47.79
268.244	55.98
268.46	72.36
268.676	-15.7
268.892	43.69
269.108	-38.23
269.324	-7.51
269.54	0.68
269.756	-19.8
269.972	8.87
270.188	-66.9
270.403	6.83
270.619	60.07
270.835	-87.38
271.051	15.02
271.267	17.07
271.483	31.4
271.698	41.64
271.914	-58.71
272.13	6.83
272.346	35.5
272.562	23.21
272.777	-7.51
272.993	64.17
273.209	-1.37
273.425	29.35
273.64	-1.37
273.856	-5.46
274.072	-11.61
274.287	8.87
274.503	92.84
274.719	31.4
274.934	72.36
275.15	19.11
275.366	0.68
275.581	-19.8
275.797	19.11
276.012	-34.13
276.228	0.68
276.444	41.64
276.659	-15.7
276.875	27.31
277.09	-75.09
277.306	-13.65
277.521	47.79
277.737	31.4
277.952	58.03
278.168	4.78
278.383	64.17
278.599	0.68
278.814	-5.46
279.03	37.55
279.245	68.27
279.461	70.31
279.676	15.02
279.892	27.31
280.107	-30.04
280.322	37.55
280.538	-17.75
280.753	10.92
280.969	10.92
281.184	10.92
281.399	0.68
281.615	21.16
281.83	72.36
282.045	53.93
282.26	55.98
282.476	12.97
282.691	90.79
282.906	49.83
283.122	-15.7
283.337	-1.37
283.552	8.87
283.767	-38.23
283.983	10.92
284.198	-62.8
284.413	58.03
284.628	-34.13
284.843	39.59
285.058	2.73
285.274	19.11
285.489	41.64
285.704	-7.51
285.919	-13.65
286.134	53.93
286.349	23.21
286.564	8.87
286.779	76.46
286.995	8.87
287.21	-5.46
287.425	72.36
287.64	-25.94
287.855	33.45
288.07	15.02
288.285	47.79
288.5	39.59
288.715	15.02
288.93	15.02
289.145	-38.23
289.36	66.22
289.575	51.88
289.79	66.22
290.004	-19.8
290.219	23.21
290.434	80.55
290.649	19.11
290.864	39.59
291.079	-44.37
291.294	0.68
291.509	-30.04
291.724	19.11
291.938	43.69
292.153	23.21
292.368	23.21
292.583	15.02
292.798	66.22
293.012	-25.94
293.227	39.59
293.442	-3.41
293.657	6.83
293.871	25.26
294.086	60.07
294.301	33.45
294.516	121.51
294.73	31.4
294.945	74.41
295.16	66.22
295.374	10.92
295.589	0.68
295.804	6.83
296.018	31.4
296.233	45.74
296.447	-23.89
296.662	23.21
296.877	23.21
297.091	23.21
297.306	-15.7
297.52	6.83
297.735	19.11
297.949	60.07
298.164	33.45
298.378	25.26
298.593	78.51
298.807	-48.47
299.022	-40.28
299.236	58.03
299.451	8.87
299.665	-25.94
299.88	12.97
300.094	29.35
300.309	33.45
300.523	29.35
300.737	12.97
300.952	35.5
301.166	19.11
301.381	-1.37
301.595	-40.28
301.809	12.97
302.024	49.83
302.238	2.73
302.452	55.98
302.667	113.32
302.881	-30.04
303.095	62.12
303.309	31.4
303.524	-21.85
303.738	72.36
303.952	6.83
304.166	0.68
304.381	19.11
304.595	64.17
304.809	41.64
305.023	41.64
305.237	4.78
305.452	68.27
305.666	78.51
305.88	2.73
306.094	58.03
306.308	-46.42
306.522	88.75
306.736	-1.37
306.95	17.07
307.164	25.26
307.379	78.51
307.593	21.16
307.807	29.35
308.021	109.22
308.235	23.21
308.449	-36.18
308.663	21.16
308.877	113.32
309.091	33.45
309.305	-17.75
309.519	-64.85
309.733	10.92
309.947	66.22
310.161	-1.37
310.374	6.83
310.588	60.07
310.802	21.16
311.016	-23.89
311.23	55.98
311.444	39.59
311.658	12.97
311.872	6.83
312.085	2.73
312.299	6.83
312.513	45.74
312.727	15.02
312.941	19.11
313.154	21.16
313.368	-17.75
313.582	17.07
313.796	21.16
314.009	-17.75
314.223	88.75
314.437	19.11
314.651	12.97
314.864	23.21
315.078	10.92
315.292	15.02
315.505	-21.85
315.719	41.64
315.933	-23.89
316.146	49.83
316.36	23.21
316.573	-38.23
316.787	4.78
317.001	94.89
317.214	-5.46
317.428	86.7
317.641	-32.08
317.855	29.35
318.068	-5.46
318.282	115.37
318.495	37.55
318.709	23.21
318.922	-17.75
319.136	-5.46
319.349	12.97
319.563	8.87
319.776	35.5
319.99	8.87
320.203	37.55
320.417	68.27
320.63	86.7
320.843	8.87
321.057	31.4
321.27	101.03
321.483	47.79
321.697	72.36
321.91	70.31
322.124	47.79
322.337	45.74
322.55	47.79
322.763	6.83
322.977	8.87
323.19	-68.95
323.403	2.73
323.617	-40.28
323.83	98.99
324.043	-34.13
324.256	-9.56
324.469	-38.23
324.683	31.4
324.896	8.87
325.109	43.69
325.322	23.21
325.535	31.4
325.748	76.46
325.962	25.26
326.175	-9.56
326.388	76.46
326.601	21.16
326.814	37.55
327.027	2.73
327.24	8.87
327.453	31.4
327.666	88.75
327.879	80.55
328.092	0.68
328.305	21.16
328.518	37.55
328.731	2.73
328.944	-25.94
329.157	-9.56
329.37	10.92
329.583	15.02
329.796	39.59
330.009	2.73
330.222	88.75
330.435	23.21
330.648	-3.41
330.861	76.46
331.073	-5.46
331.286	117.42
331.499	35.5
331.712	35.5
331.925	49.83
332.138	-13.65
332.35	21.16
332.563	-17.75
332.776	35.5
332.989	-62.8
333.202	45.74
333.414	2.73
333.627	15.02
333.84	-15.7
334.053	53.93
334.265	4.78
334.478	27.31
334.691	-19.8
334.903	64.17
335.116	-19.8
335.329	-34.13
335.541	10.92
335.754	-50.52
335.966	23.21
336.179	17.07
336.392	-15.7
336.604	12.97
336.817	19.11
337.029	-19.8
337.242	21.16
337.454	15.02
337.667	29.35
337.88	-3.41
338.092	23.21
338.305	45.74
338.517	21.16
338.729	-1.37
338.942	96.94
339.154	-27.99
339.367	-15.7
339.579	88.75
339.792	-23.89
340.004	47.79
340.217	27.31
340.429	41.64
340.641	-58.71
340.854	25.26
341.066	37.55
341.278	-25.94
341.491	-1.37
341.703	-23.89
341.915	10.92
342.128	60.07
342.34	-5.46
342.552	76.46
342.764	0.68
342.977	-1.37
343.189	8.87
343.401	25.26
343.613	66.22
343.826	-34.13
344.038	41.64
344.25	-21.85
344.462	29.35
344.674	62.12
344.886	6.83
345.099	64.17
345.311	10.92
345.523	-30.04
345.735	-3.41
345.947	17.07
346.159	-7.51
346.371	74.41
346.583	66.22
346.795	96.94
347.007	33.45
347.219	39.59
347.431	-32.08
347.643	33.45
347.855	72.36
348.067	41.64
348.279	76.46
348.491	39.59
348.703	21.16
348.915	-3.41
349.127	23.21
349.339	-9.56
349.551	-9.56
349.763	27.31
349.975	6.83
350.187	-23.89
350.399	-9.56
350.61	-58.71
350.822	25.26
351.034	78.51
351.246	82.6
351.458	49.83
351.669	43.69
351.881	-5.46
352.093	41.64
352.305	12.97
352.517	33.45
352.728	10.92
352.94	12.97
353.152	37.55
353.363	53.93
353.575	49.83
353.787	-30.04
353.999	19.11
354.21	109.22
354.422	15.02
354.633	72.36
354.845	25.26
355.057	-11.61
355.268	76.46
355.48	12.97
355.692	47.79
355.903	-25.94
356.115	49.83
356.326	-34.13
356.538	111.27
356.749	-1.37
356.961	-23.89
357.172	35.5
357.384	88.75
357.595	-3.41
357.807	27.31
358.018	-7.51
358.23	74.41
358.441	43.69
358.653	21.16
358.864	19.11
359.075	-13.65
359.287	-13.65
359.498	25.26
359.709	-1.37
359.921	78.51
360.132	23.21
360.344	25.26
360.555	15.02
360.766	45.74
360.977	39.59
361.189	55.98
361.4	-27.99
361.611	-89.43
361.823	31.4
362.034	55.98
362.245	-15.7
362.456	37.55
362.667	0.68
362.879	39.59
363.09	-13.65
363.301	98.99
363.512	43.69
363.723	82.6
363.935	76.46
364.146	53.93
364.357	-7.51
364.568	27.31
364.779	12.97
364.99	23.21
365.201	29.35
365.412	41.64
365.623	-40.28
365.834	19.11
366.045	39.59
366.256	49.83
366.467	92.84
366.678	8.87
366.889	47.79
367.1	-15.7
367.311	109.22
367.522	-3.41
367.733	21.16
367.944	-11.61
368.155	41.64
368.366	17.07
368.577	-17.75
368.788	55.98
368.999	-3.41
369.209	-7.51
369.42	35.5
369.631	47.79
369.842	-15.7
370.053	31.4
370.264	23.21
370.474	-5.46
370.685	37.55
370.896	-3.41
371.107	92.84
371.317	45.74
371.528	70.31
371.739	-7.51
371.95	76.46
372.16	-32.08
372.371	37.55
372.582	-23.89
372.792	12.97
373.003	25.26
373.214	2.73
373.424	-56.66
373.635	-64.85
373.846	41.64
374.056	-9.56
374.267	101.03
374.477	35.5
374.688	0.68
374.898	58.03
375.109	-21.85
375.319	12.97
375.53	39.59
375.74	-62.8
375.951	23.21
376.161	82.6
376.372	41.64
376.582	6.83
376.793	49.83
377.003	35.5
377.214	47.79
377.424	-48.47
377.635	23.21
377.845	-13.65
378.055	31.4
378.266	43.69
378.476	58.03
378.686	39.59
378.897	-9.56
379.107	-23.89
379.317	-1.37
379.528	-38.23
379.738	92.84
379.948	15.02
380.158	64.17
380.369	15.02
380.579	64.17
380.789	33.45
380.999	53.93
381.21	23.21
381.42	27.31
381.63	72.36
381.84	53.93
382.05	58.03
382.261	64.17
382.471	-25.94
382.681	-34.13
382.891	49.83
383.101	12.97
383.311	-21.85
383.521	-5.46
383.731	72.36
383.941	72.36
384.151	12.97
384.361	-19.8
384.571	23.21
384.781	8.87
384.991	23.21
385.201	58.03
385.411	72.36
385.621	23.21
385.831	35.5
386.041	-15.7
386.251	72.36
386.461	68.27
386.671	-1.37
386.881	37.55
387.091	-23.89
387.301	33.45
387.511	72.36
387.72	111.27
387.93	64.17
388.14	90.79
388.35	2.73
388.56	88.75
388.769	74.41
388.979	49.83
389.189	35.5
389.399	-7.51
389.609	-27.99
389.818	43.69
390.028	-7.51
390.238	68.27
390.447	-54.61
390.657	74.41
390.867	10.92
391.076	6.83
391.286	55.98
391.496	62.12
391.705	35.5
391.915	80.55
392.125	43.69
392.334	31.4
392.544	-50.52
392.753	64.17
392.963	8.87
393.172	29.35
393.382	41.64
393.591	55.98
393.801	15.02
394.01	105.13
394.22	47.79
394.429	53.93
394.639	-25.94
394.848	27.31
395.058	47.79
395.267	49.83
395.477	72.36
395.686	41.64
395.895	111.27
396.105	29.35
396.314	113.32
396.524	76.46
396.733	47.79
396.942	88.75
397.152	15.02
397.361	17.07
397.57	41.64
397.78	33.45
397.989	33.45
398.198	68.27
398.407	-25.94
398.617	12.97
398.826	-27.99
399.035	43.69
399.244	35.5
399.453	25.26
399.663	-40.28
399.872	25.26
400.081	17.07
400.29	68.27
400.499	60.07
400.708	82.6
400.917	41.64
401.127	17.07
401.336	17.07
401.545	117.42
401.754	55.98
401.963	82.6
402.172	35.5
402.381	96.94
402.59	72.36
402.799	33.45
403.008	64.17
403.217	68.27
403.426	19.11
403.635	92.84
403.844	12.97
404.053	74.41
404.262	4.78
404.471	66.22
404.68	84.65
404.888	55.98
405.097	23.21
405.306	137.9
405.515	47.79
405.724	49.83
405.933	88.75
406.142	96.94
406.35	88.75
406.559	127.66
406.768	47.79
406.977	84.65
407.185	41.64
407.394	51.88
407.603	135.85
407.812	80.55
408.02	68.27
408.229	88.75
408.438	139.94
408.646	98.99
408.855	31.4
409.064	123.56
409.272	33.45
409.481	137.9
409.69	96.94
409.898	156.33
410.107	139.94
410.315	115.37
410.524	66.22
410.733	117.42
410.941	160.42
411.15	88.75
411.358	78.51
411.567	137.9
411.775	146.09
411.984	162.47
412.192	164.52
412.401	146.09
412.609	193.19
412.818	180.9
413.026	172.71
413.234	217.77
413.443	148.14
413.651	182.95
413.86	256.68
414.068	211.62
414.276	125.61
414.485	244.39
414.693	211.62
414.901	207.53
415.11	205.48
415.318	254.63
415.526	187.05
415.734	318.12
415.943	228.01
416.151	258.73
416.359	271.01
416.567	275.11
416.776	326.31
416.984	260.77
417.192	281.25
417.4	318.12
417.608	311.97
417.817	305.83
418.025	324.26
418.233	367.27
418.441	332.45
418.649	361.13
418.857	379.56
419.065	406.18
419.273	434.85
419.481	391.84
419.689	506.53
419.897	481.96
420.105	496.29
420.313	508.58
420.521	473.76
420.729	545.44
420.937	496.29
421.145	563.87
421.353	590.5
421.561	629.41
421.769	653.98
421.977	615.07
422.185	658.08
422.393	694.94
422.601	684.7
422.809	668.32
423.017	787.1
423.224	662.18
423.432	756.38
423.64	787.1
423.848	891.55
424.056	854.69
424.263	909.98
424.471	909.98
424.679	899.74
424.887	1051.29
425.094	969.37
425.302	957.08
425.51	963.23
425.718	1067.67
425.925	1114.78
426.133	1082.01
426.341	1096.35
426.548	1204.89
426.756	1174.17
426.964	1155.74
427.171	1215.13
427.379	1317.53
427.586	1333.91
427.794	1313.43
428.001	1303.19
428.209	1553.04
428.417	1491.6
428.624	1567.38
428.832	1528.47
429.039	1555.09
429.247	1497.75
429.454	1745.55
429.662	1872.53
429.869	1772.18
430.076	1675.92
430.284	1794.7
430.491	1856.14
430.699	1942.16
430.906	2058.89
431.114	1972.88
431.321	2009.74
431.528	2118.28
431.736	2237.06
431.943	2216.58
432.15	2304.65
432.358	2271.88
432.565	2458.25
432.772	2370.18
432.979	2546.31
433.187	2579.08
433.394	2607.75
433.601	2738.82
433.808	2898.56
434.016	2742.91
434.223	2800.26
434.43	3037.82
434.637	2939.52
434.844	3203.71
435.052	3086.97
435.259	3209.85
435.466	3146.36
435.673	3187.32
435.88	3478.13
436.087	3568.24
436.294	3529.33
436.501	3326.58
436.708	3420.79
436.915	3603.06
437.122	3828.34
437.329	3789.42
437.537	3900.02
437.743	3930.73
437.95	3914.35
438.157	4303.47
438.364	4194.92
438.571	4254.31
438.778	4325.99
438.985	4588.13
439.192	4575.84
439.399	4688.48
439.606	4418.15
439.813	4754.02
440.02	5081.69
440.227	4997.73
440.433	4962.91
440.64	5059.17
440.847	5075.55
441.054	5194.33
441.261	5581.4
441.467	5665.36
441.674	5538.39
441.881	5706.32
442.088	5823.06
442.294	5751.38
442.501	5878.35
442.708	6036.05
442.914	6191.69
443.121	6431.3
443.328	6238.8
443.534	6746.69
443.741	6550.09
443.948	6470.22
444.154	6974.02
444.361	7086.65
444.568	7062.08
444.774	7084.61
444.981	7189.05
445.187	7373.37
445.394	7658.04
445.6	7526.97
445.807	8243.76
446.013	7885.36
446.22	8034.86
446.426	8272.43
446.633	8516.14
446.839	8882.72
447.046	8329.77
447.252	8653.35
447.459	8841.76
447.665	8755.75
447.871	9142.82
448.078	9478.68
448.284	9339.42
448.491	9271.84
448.697	9781.78
448.903	9912.85
449.11	9851.41
449.316	9667.1
449.522	9957.91
449.728	10117.65
449.935	10379.79
450.141	10312.21
450.347	10703.37
450.553	10263.05
450.76	10361.36
450.966	10787.33
451.172	10447.37
451.378	10979.84
451.584	10676.74
451.791	10773
451.997	10945.03
452.203	11102.72
452.409	10971.65
452.615	11153.92
452.821	10709.51
453.027	10510.86
453.233	10951.17
453.44	10674.7
453.646	10891.78
453.852	10947.08
454.058	11016.71
454.264	10633.74
454.47	10924.55
454.676	10811.91
454.882	10971.65
455.088	10023.44
455.294	10273.29
455.5	10701.32
455.705	10660.36
455.911	10166.8
456.117	10002.96
456.323	9804.31
456.529	9308.7
456.735	9728.53
456.941	9611.8
457.147	9511.45
457.352	8919.59
457.558	8890.91
457.764	8915.49
457.97	8909.35
458.176	8733.22
458.381	8682.02
458.587	8317.48
458.793	8419.88
458.999	7944.75
459.204	8423.98
459.41	8147.5
459.616	7703.09
459.821	7690.81
460.027	7651.89
460.233	7576.12
460.438	7270.97
460.644	7051.84
460.85	6890.05
461.055	6771.27
461.261	6707.78
461.466	6388.3
461.672	5970.51
461.878	6537.8
462.083	6029.9
462.289	6134.35
462.494	5831.25
462.7	5655.12
462.905	5497.43
463.111	5669.46
463.316	5687.89
463.522	5540.44
463.727	5601.88
463.932	5470.81
464.138	5646.93
464.343	5487.19
464.549	5364.31
464.754	5534.29
464.959	5395.03
465.165	5526.1
465.37	5259.87
465.575	5173.85
465.781	5247.58
465.986	5366.36
466.191	5225.05
466.397	5053.02
466.602	4837.98
466.807	4995.68
467.012	5079.65
467.218	5003.87
467.423	4917.86
467.628	4954.72
467.833	5249.63
468.038	4889.18
468.244	4711.01
468.449	5067.36
468.654	4745.83
468.859	4760.16
469.064	4762.21
469.269	4500.07
469.474	4534.89
469.679	4627.04
469.885	4608.61
470.09	4618.85
470.295	4676.2
