Data from USB4F104151__208__13-59-56-264.txt Node

Date: Thu Mar 13 13:59:56 EDT 2025
User: louis
Spectrometer: USB4F10415
Trigger mode: 4
Integration Time (sec): 1.000000E-2
Scans to average: 1
Electric dark correction enabled: true
Nonlinearity correction enabled: false
Boxcar width: 0
XAxis mode: Wavelengths
Number of Pixels in Spectrum: 3648
>>>>>Begin Spectral Data<<<<<
178.204	43.35
178.424	43.35
178.644	43.35
178.864	-57
179.084	14.68
179.304	22.87
179.524	35.16
179.744	-9.9
179.964	24.92
180.184	-11.95
180.404	8.53
180.624	29.01
180.844	-16.04
181.064	-67.24
181.283	35.16
181.503	8.53
181.723	-59.05
181.943	12.63
182.163	53.59
182.383	22.87
182.602	31.06
182.822	67.92
183.042	18.77
183.262	-7.85
183.482	76.12
183.701	33.11
183.921	63.83
184.141	29.01
184.361	55.64
184.58	18.77
184.8	16.73
185.02	35.16
185.239	61.78
185.459	16.73
185.679	-34.47
185.898	31.06
186.118	2.39
186.338	-1.71
186.557	61.78
186.777	10.58
186.997	59.73
187.216	98.64
187.436	29.01
187.655	4.44
187.875	-7.85
188.095	14.68
188.314	29.01
188.534	22.87
188.753	65.88
188.973	8.53
189.192	74.07
189.412	55.64
189.631	0.34
189.851	14.68
190.07	39.25
190.29	69.97
190.509	6.49
190.729	37.2
190.948	51.54
191.168	117.08
191.387	119.12
191.607	-5.8
191.826	33.11
192.045	57.68
192.265	45.4
192.484	-11.95
192.704	16.73
192.923	-7.85
193.142	61.78
193.362	39.25
193.581	59.73
193.8	33.11
194.02	20.82
194.239	14.68
194.458	61.78
194.678	51.54
194.897	14.68
195.116	-16.04
195.335	-40.62
195.555	119.12
195.774	-5.8
195.993	31.06
196.212	24.92
196.432	33.11
196.651	-1.71
196.87	33.11
197.089	-5.8
197.308	53.59
197.528	29.01
197.747	-5.8
197.966	47.44
198.185	80.21
198.404	22.87
198.623	2.39
198.842	-38.57
199.062	-20.14
199.281	43.35
199.5	-79.53
199.719	-24.23
199.938	65.88
200.157	39.25
200.376	39.25
200.595	35.16
200.814	-3.75
201.033	-50.86
201.252	35.16
201.471	90.45
201.69	41.3
201.909	33.11
202.128	57.68
202.347	65.88
202.566	43.35
202.785	33.11
203.004	-48.81
203.223	39.25
203.442	-18.09
203.661	72.02
203.879	-16.04
204.098	98.64
204.317	39.25
204.536	61.78
204.755	43.35
204.974	82.26
205.193	65.88
205.411	47.44
205.63	78.16
205.849	39.25
206.068	10.58
206.287	84.31
206.505	145.75
206.724	24.92
206.943	14.68
207.162	125.27
207.381	-48.81
207.599	22.87
207.818	51.54
208.037	88.4
208.255	-34.47
208.474	90.45
208.693	59.73
208.911	63.83
209.13	31.06
209.349	14.68
209.567	41.3
209.786	47.44
210.005	55.64
210.223	14.68
210.442	0.34
210.661	2.39
210.879	31.06
211.098	49.49
211.316	2.39
211.535	18.77
211.753	37.2
211.972	8.53
212.191	63.83
212.409	67.92
212.628	112.98
212.846	33.11
213.065	112.98
213.283	72.02
213.502	92.5
213.72	106.84
213.938	55.64
214.157	29.01
214.375	65.88
214.594	57.68
214.812	96.6
215.031	22.87
215.249	-50.86
215.467	55.64
215.686	55.64
215.904	29.01
216.122	115.03
216.341	104.79
216.559	100.69
216.778	43.35
216.996	53.59
217.214	22.87
217.432	22.87
217.651	57.68
217.869	59.73
218.087	57.68
218.306	6.49
218.524	18.77
218.742	104.79
218.96	76.12
219.179	90.45
219.397	41.3
219.615	49.49
219.833	55.64
220.051	33.11
220.27	18.77
220.488	4.44
220.706	-46.76
220.924	45.4
221.142	26.96
221.36	2.39
221.578	29.01
221.796	-81.58
222.015	-44.71
222.233	39.25
222.451	78.16
222.669	0.34
222.887	-9.9
223.105	31.06
223.323	10.58
223.541	6.49
223.759	24.92
223.977	4.44
224.195	0.34
224.413	39.25
224.631	133.46
224.849	47.44
225.067	22.87
225.285	18.77
225.503	31.06
225.721	-3.75
225.939	31.06
226.157	0.34
226.375	49.49
226.592	-11.95
226.81	26.96
227.028	39.25
227.246	39.25
227.464	-3.75
227.682	92.5
227.9	4.44
228.117	55.64
228.335	-16.04
228.553	61.78
228.771	0.34
228.989	49.49
229.206	24.92
229.424	-20.14
229.642	49.49
229.86	12.63
230.077	90.45
230.295	94.55
230.513	78.16
230.731	80.21
230.948	24.92
231.166	57.68
231.384	-38.57
231.601	-5.8
231.819	63.83
232.037	-26.28
232.254	106.84
232.472	121.17
232.689	16.73
232.907	104.79
233.125	41.3
233.342	67.92
233.56	10.58
233.777	53.59
233.995	18.77
234.213	49.49
234.43	78.16
234.648	69.97
234.865	65.88
235.083	14.68
235.3	-1.71
235.518	94.55
235.735	39.25
235.953	29.01
236.17	-26.28
236.388	90.45
236.605	43.35
236.822	14.68
237.04	74.07
237.257	69.97
237.475	80.21
237.692	18.77
237.909	59.73
238.127	-32.43
238.344	16.73
238.562	18.77
238.779	6.49
238.996	10.58
239.214	24.92
239.431	18.77
239.648	39.25
239.865	14.68
240.083	24.92
240.3	43.35
240.517	-42.67
240.735	59.73
240.952	-1.71
241.169	90.45
241.386	6.49
241.603	47.44
241.821	2.39
242.038	-9.9
242.255	57.68
242.472	45.4
242.689	16.73
242.907	35.16
243.124	-20.14
243.341	72.02
243.558	-20.14
243.775	22.87
243.992	29.01
244.209	72.02
244.426	26.96
244.643	74.07
244.86	4.44
245.078	20.82
245.295	-1.71
245.512	-48.81
245.729	49.49
245.946	37.2
246.163	98.64
246.38	-9.9
246.597	33.11
246.814	76.12
247.031	-7.85
247.248	55.64
247.464	90.45
247.681	74.07
247.898	0.34
248.115	35.16
248.332	82.26
248.549	2.39
248.766	49.49
248.983	22.87
249.2	16.73
249.417	41.3
249.633	6.49
249.85	31.06
250.067	72.02
250.284	43.35
250.501	37.2
250.717	4.44
250.934	-16.04
251.151	67.92
251.368	26.96
251.585	-9.9
251.801	47.44
252.018	59.73
252.235	59.73
252.451	45.4
252.668	72.02
252.885	45.4
253.102	-63.15
253.318	72.02
253.535	110.93
253.752	43.35
253.968	35.16
254.185	20.82
254.401	-5.8
254.618	98.64
254.835	16.73
255.051	112.98
255.268	26.96
255.484	8.53
255.701	117.08
255.917	31.06
256.134	20.82
256.351	65.88
256.567	98.64
256.784	78.16
257	43.35
257.217	37.2
257.433	41.3
257.65	39.25
257.866	61.78
258.082	33.11
258.299	2.39
258.515	72.02
258.732	-3.75
258.948	86.36
259.165	45.4
259.381	53.59
259.597	41.3
259.814	12.63
260.03	33.11
260.246	72.02
260.463	63.83
260.679	69.97
260.895	29.01
261.112	-34.47
261.328	55.64
261.544	74.07
261.761	100.69
261.977	49.49
262.193	39.25
262.409	96.6
262.626	39.25
262.842	88.4
263.058	39.25
263.274	4.44
263.49	41.3
263.707	2.39
263.923	72.02
264.139	51.54
264.355	41.3
264.571	55.64
264.787	-5.8
265.004	29.01
265.22	14.68
265.436	31.06
265.652	8.53
265.868	96.6
266.084	-24.23
266.3	55.64
266.516	92.5
266.732	69.97
266.948	22.87
267.164	12.63
267.38	72.02
267.596	53.59
267.812	74.07
268.028	72.02
268.244	12.63
268.46	8.53
268.676	125.27
268.892	59.73
269.108	4.44
269.324	6.49
269.54	74.07
269.756	92.5
269.972	41.3
270.188	57.68
270.403	22.87
270.619	-32.43
270.835	110.93
271.051	88.4
271.267	6.49
271.483	55.64
271.698	108.88
271.914	39.25
272.13	104.79
272.346	2.39
272.562	37.2
272.777	-3.75
272.993	67.92
273.209	88.4
273.425	43.35
273.64	80.21
273.856	8.53
274.072	106.84
274.287	39.25
274.503	49.49
274.719	112.98
274.934	31.06
275.15	22.87
275.366	108.88
275.581	20.82
275.797	26.96
276.012	31.06
276.228	57.68
276.444	57.68
276.659	18.77
276.875	72.02
277.09	-16.04
277.306	26.96
277.521	37.2
277.737	16.73
277.952	78.16
278.168	63.83
278.383	43.35
278.599	80.21
278.814	-22.19
279.03	2.39
279.245	24.92
279.461	67.92
279.676	63.83
279.892	26.96
280.107	22.87
280.322	24.92
280.538	14.68
280.753	24.92
280.969	63.83
281.184	6.49
281.399	33.11
281.615	0.34
281.83	14.68
282.045	31.06
282.26	-9.9
282.476	-32.43
282.691	35.16
282.906	41.3
283.122	33.11
283.337	33.11
283.552	24.92
283.767	-1.71
283.983	84.31
284.198	35.16
284.413	117.08
284.628	-9.9
284.843	63.83
285.058	35.16
285.274	20.82
285.489	51.54
285.704	29.01
285.919	47.44
286.134	69.97
286.349	37.2
286.564	2.39
286.779	8.53
286.995	63.83
287.21	31.06
287.425	78.16
287.64	35.16
287.855	0.34
288.07	76.12
288.285	74.07
288.5	37.2
288.715	0.34
288.93	31.06
289.145	35.16
289.36	53.59
289.575	-71.34
289.79	80.21
290.004	59.73
290.219	80.21
290.434	59.73
290.649	31.06
290.864	31.06
291.079	94.55
291.294	72.02
291.509	88.4
291.724	125.27
291.938	31.06
292.153	98.64
292.368	59.73
292.583	170.32
292.798	78.16
293.012	41.3
293.227	37.2
293.442	104.79
293.657	31.06
293.871	67.92
294.086	57.68
294.301	-1.71
294.516	51.54
294.73	16.73
294.945	26.96
295.16	63.83
295.374	55.64
295.589	59.73
295.804	18.77
296.018	76.12
296.233	125.27
296.447	22.87
296.662	67.92
296.877	117.08
297.091	0.34
297.306	22.87
297.52	74.07
297.735	108.88
297.949	18.77
298.164	78.16
298.378	4.44
298.593	16.73
298.807	41.3
299.022	72.02
299.236	43.35
299.451	100.69
299.665	59.73
299.88	39.25
300.094	67.92
300.309	37.2
300.523	-5.8
300.737	72.02
300.952	69.97
301.166	117.08
301.381	-22.19
301.595	53.59
301.809	69.97
302.024	72.02
302.238	16.73
302.452	55.64
302.667	45.4
302.881	0.34
303.095	47.44
303.309	-1.71
303.524	65.88
303.738	29.01
303.952	14.68
304.166	12.63
304.381	20.82
304.595	10.58
304.809	24.92
305.023	49.49
305.237	51.54
305.452	-44.71
305.666	59.73
305.88	57.68
306.094	67.92
306.308	57.68
306.522	69.97
306.736	39.25
306.95	63.83
307.164	26.96
307.379	80.21
307.593	29.01
307.807	57.68
308.021	16.73
308.235	49.49
308.449	76.12
308.663	35.16
308.877	57.68
309.091	61.78
309.305	22.87
309.519	2.39
309.733	-13.99
309.947	24.92
310.161	26.96
310.374	41.3
310.588	67.92
310.802	98.64
311.016	-1.71
311.23	-28.33
311.444	78.16
311.658	57.68
311.872	59.73
312.085	164.18
312.299	10.58
312.513	59.73
312.727	133.46
312.941	16.73
313.154	69.97
313.368	-22.19
313.582	-1.71
313.796	33.11
314.009	108.88
314.223	-34.47
314.437	82.26
314.651	53.59
314.864	2.39
315.078	88.4
315.292	88.4
315.505	94.55
315.719	49.49
315.933	65.88
316.146	55.64
316.36	80.21
316.573	137.56
316.787	59.73
317.001	65.88
317.214	29.01
317.428	41.3
317.641	59.73
317.855	-28.33
318.068	47.44
318.282	-3.75
318.495	33.11
318.709	80.21
318.922	10.58
319.136	72.02
319.349	94.55
319.563	33.11
319.776	31.06
319.99	69.97
320.203	108.88
320.417	-44.71
320.63	84.31
320.843	39.25
321.057	63.83
321.27	151.89
321.483	61.78
321.697	76.12
321.91	31.06
322.124	35.16
322.337	63.83
322.55	31.06
322.763	53.59
322.977	16.73
323.19	100.69
323.403	155.99
323.617	74.07
323.83	51.54
324.043	49.49
324.256	49.49
324.469	4.44
324.683	92.5
324.896	55.64
325.109	72.02
325.322	31.06
325.535	76.12
325.748	80.21
325.962	59.73
326.175	37.2
326.388	24.92
326.601	110.93
326.814	-9.9
327.027	45.4
327.24	141.65
327.453	47.44
327.666	145.75
327.879	131.41
328.092	145.75
328.305	20.82
328.518	16.73
328.731	33.11
328.944	84.31
329.157	31.06
329.37	49.49
329.583	57.68
329.796	133.46
330.009	31.06
330.222	67.92
330.435	80.21
330.648	53.59
330.861	2.39
331.073	88.4
331.286	37.2
331.499	69.97
331.712	43.35
331.925	47.44
332.138	59.73
332.35	14.68
332.563	94.55
332.776	106.84
332.989	61.78
333.202	72.02
333.414	63.83
333.627	16.73
333.84	8.53
334.053	98.64
334.265	59.73
334.478	67.92
334.691	86.36
334.903	57.68
335.116	10.58
335.329	51.54
335.541	80.21
335.754	51.54
335.966	12.63
336.179	22.87
336.392	37.2
336.604	10.58
336.817	82.26
337.029	61.78
337.242	18.77
337.454	106.84
337.667	33.11
337.88	65.88
338.092	35.16
338.305	133.46
338.517	45.4
338.729	51.54
338.942	104.79
339.154	16.73
339.367	67.92
339.579	55.64
339.792	49.49
340.004	102.74
340.217	65.88
340.429	127.32
340.641	4.44
340.854	31.06
341.066	88.4
341.278	43.35
341.491	65.88
341.703	92.5
341.915	-9.9
342.128	74.07
342.34	106.84
342.552	59.73
342.764	41.3
342.977	59.73
343.189	137.56
343.401	108.88
343.613	57.68
343.826	67.92
344.038	33.11
344.25	78.16
344.462	63.83
344.674	141.65
344.886	35.16
345.099	24.92
345.311	31.06
345.523	133.46
345.735	47.44
345.947	82.26
346.159	14.68
346.371	51.54
346.583	96.6
346.795	141.65
347.007	129.36
347.219	24.92
347.431	76.12
347.643	-1.71
347.855	2.39
348.067	43.35
348.279	84.31
348.491	59.73
348.703	-30.38
348.915	65.88
349.127	65.88
349.339	127.32
349.551	20.82
349.763	86.36
349.975	57.68
350.187	74.07
350.399	43.35
350.61	106.84
350.822	65.88
351.034	-11.95
351.246	69.97
351.458	90.45
351.669	-32.43
351.881	29.01
352.093	29.01
352.305	145.75
352.517	35.16
352.728	55.64
352.94	115.03
353.152	55.64
353.363	39.25
353.575	65.88
353.787	112.98
353.999	49.49
354.21	41.3
354.422	82.26
354.633	31.06
354.845	-24.23
355.057	10.58
355.268	90.45
355.48	0.34
355.692	88.4
355.903	96.6
356.115	6.49
356.326	55.64
356.538	115.03
356.749	39.25
356.961	90.45
357.172	37.2
357.384	24.92
357.595	76.12
357.807	22.87
358.018	49.49
358.23	29.01
358.441	96.6
358.653	78.16
358.864	-26.28
359.075	76.12
359.287	100.69
359.498	53.59
359.709	90.45
359.921	108.88
360.132	119.12
360.344	24.92
360.555	63.83
360.766	92.5
360.977	88.4
361.189	72.02
361.4	74.07
361.611	35.16
361.823	100.69
362.034	43.35
362.245	76.12
362.456	24.92
362.667	86.36
362.879	125.27
363.09	74.07
363.301	108.88
363.512	37.2
363.723	-26.28
363.935	39.25
364.146	82.26
364.357	37.2
364.568	88.4
364.779	14.68
364.99	82.26
365.201	41.3
365.412	10.58
365.623	29.01
365.834	141.65
366.045	106.84
366.256	67.92
366.467	80.21
366.678	104.79
366.889	67.92
367.1	94.55
367.311	55.64
367.522	35.16
367.733	63.83
367.944	139.6
368.155	51.54
368.366	51.54
368.577	98.64
368.788	55.64
368.999	53.59
369.209	-9.9
369.42	125.27
369.631	84.31
369.842	117.08
370.053	72.02
370.264	127.32
370.474	90.45
370.685	55.64
370.896	31.06
371.107	115.03
371.317	72.02
371.528	76.12
371.739	37.2
371.95	55.64
372.16	16.73
372.371	53.59
372.582	55.64
372.792	33.11
373.003	55.64
373.214	45.4
373.424	76.12
373.635	98.64
373.846	33.11
374.056	80.21
374.267	4.44
374.477	47.44
374.688	59.73
374.898	63.83
375.109	88.4
375.319	74.07
375.53	53.59
375.74	94.55
375.951	51.54
376.161	57.68
376.372	127.32
376.582	14.68
376.793	108.88
377.003	61.78
377.214	110.93
377.424	72.02
377.635	76.12
377.845	72.02
378.055	92.5
378.266	82.26
378.476	29.01
378.686	127.32
378.897	24.92
379.107	57.68
379.317	72.02
379.528	65.88
379.738	98.64
379.948	16.73
380.158	74.07
380.369	65.88
380.579	84.31
380.789	115.03
380.999	63.83
381.21	149.84
381.42	22.87
381.63	47.44
381.84	110.93
382.05	29.01
382.261	96.6
382.471	76.12
382.681	94.55
382.891	63.83
383.101	160.08
383.311	63.83
383.521	43.35
383.731	86.36
383.941	98.64
384.151	26.96
384.361	74.07
384.571	67.92
384.781	112.98
384.991	96.6
385.201	104.79
385.411	43.35
385.621	90.45
385.831	76.12
386.041	164.18
386.251	82.26
386.461	98.64
386.671	88.4
386.881	127.32
387.091	117.08
387.301	57.68
387.511	69.97
387.72	-36.52
387.93	88.4
388.14	82.26
388.35	100.69
388.56	59.73
388.769	63.83
388.979	55.64
389.189	112.98
389.399	104.79
389.609	104.79
389.818	65.88
390.028	69.97
390.238	104.79
390.447	69.97
390.657	104.79
390.867	55.64
391.076	55.64
391.286	164.18
391.496	168.27
391.705	59.73
391.915	98.64
392.125	67.92
392.334	119.12
392.544	117.08
392.753	55.64
392.963	55.64
393.172	106.84
393.382	115.03
393.591	162.13
393.801	139.6
394.01	110.93
394.22	153.94
394.429	18.77
394.639	96.6
394.848	184.66
395.058	115.03
395.267	96.6
395.477	82.26
395.686	55.64
395.895	158.03
396.105	92.5
396.314	106.84
396.524	100.69
396.733	129.36
396.942	41.3
397.152	106.84
397.361	141.65
397.57	155.99
397.78	96.6
397.989	133.46
398.198	180.56
398.407	74.07
398.617	145.75
398.826	166.23
399.035	131.41
399.244	186.71
399.453	127.32
399.663	168.27
399.872	174.42
400.081	125.27
400.29	139.6
400.499	178.51
400.708	164.18
400.917	102.74
401.127	133.46
401.336	121.17
401.545	98.64
401.754	155.99
401.963	229.71
402.172	209.23
402.381	145.75
402.59	57.68
402.799	129.36
403.008	252.24
403.217	141.65
403.426	166.23
403.635	133.46
403.844	227.67
404.053	235.86
404.262	172.37
404.471	237.91
404.68	205.14
404.888	244.05
405.097	174.42
405.306	198.99
405.515	231.76
405.724	293.2
405.933	235.86
406.142	231.76
406.35	201.04
406.559	223.57
406.768	176.47
406.977	239.95
407.185	299.34
407.394	289.1
407.603	282.96
407.812	248.15
408.02	295.25
408.229	272.72
408.438	311.63
408.646	282.96
408.855	319.82
409.064	289.1
409.272	356.69
409.481	315.73
409.69	340.3
409.898	424.27
410.107	467.28
410.315	325.97
410.524	471.37
410.733	420.17
410.941	411.98
411.15	432.46
411.358	477.52
411.567	571.72
411.775	448.85
411.984	485.71
412.192	530.77
412.401	524.62
412.609	655.69
412.818	645.45
413.026	563.53
413.234	655.69
413.443	678.22
413.651	702.79
413.86	704.84
414.068	782.67
414.276	866.63
414.485	850.25
414.693	801.1
414.901	880.97
415.11	852.3
415.318	899.4
415.526	950.6
415.734	999.75
415.943	985.41
416.151	1065.29
416.359	954.69
416.567	1014.09
416.776	1026.37
416.984	1112.39
417.192	1202.5
417.4	1214.79
417.608	1257.79
417.817	1220.93
418.025	1366.34
418.233	1423.68
418.441	1425.73
418.649	1460.54
418.857	1552.7
419.065	1581.37
419.273	1587.52
419.481	1702.2
419.689	1857.85
419.897	1849.66
420.105	1861.94
420.313	2015.54
420.521	1937.72
420.729	2042.17
420.937	2029.88
421.145	2113.85
421.353	2173.24
421.561	2400.56
421.769	2490.67
421.977	2545.97
422.185	2466.1
422.393	2619.69
422.601	2718
422.809	2842.92
423.017	2861.35
423.224	2949.42
423.432	3045.67
423.64	3127.59
423.848	3295.52
424.056	3211.56
424.263	3553.57
424.471	3508.51
424.679	3621.15
424.887	3698.97
425.094	3854.62
425.302	3782.94
425.51	4088.09
425.718	4157.72
425.925	4276.5
426.133	4313.36
426.341	4520.21
426.548	4839.69
426.756	4765.96
426.964	4931.85
427.171	4983.05
427.379	5267.72
427.586	5314.82
427.794	5533.95
428.001	5789.95
428.209	6076.66
428.417	5826.81
428.624	6412.53
428.832	6576.37
429.039	6299.89
429.247	6275.32
429.454	6940.91
429.662	7391.46
429.869	6881.52
430.076	7397.6
430.284	7254.25
430.491	7604.45
430.699	7829.73
430.906	7911.64
431.114	8143.07
431.321	8255.7
431.528	8237.27
431.736	9044.17
431.943	9238.73
432.15	9124.04
432.358	9314.5
432.565	9660.61
432.772	9785.54
432.979	10100.92
433.187	10252.47
433.394	10301.62
433.601	11047.08
433.808	11305.13
434.016	11102.38
434.223	11571.36
434.43	12310.68
434.637	11915.42
434.844	12818.58
435.052	12830.87
435.259	12763.28
435.466	12923.02
435.673	13101.2
435.88	13672.58
436.087	14332.03
436.294	14567.54
436.501	14209.15
436.708	14352.51
436.915	15054.96
437.122	15456.36
437.329	15427.69
437.537	15861.86
437.743	16349.28
437.95	16187.49
438.157	16904.28
438.364	17522.76
438.571	17526.86
438.778	17582.15
438.985	19245.1
439.192	18432.06
439.399	18978.87
439.606	18364.48
439.813	19759.14
440.02	20957.21
440.227	20447.26
440.433	20359.2
440.64	21022.74
440.847	20508.7
441.054	21551.12
441.261	22700.03
441.467	22509.57
441.674	22951.93
441.881	23734.25
442.088	23818.22
442.294	23529.45
442.501	23807.98
442.708	24520.67
442.914	25667.53
443.121	26793.92
443.328	25661.39
443.534	27721.65
443.741	26935.23
443.948	26408.9
444.154	28551.07
444.361	28080.04
444.568	28589.99
444.774	28417.96
444.981	28710.82
445.187	29407.12
445.394	30863.23
445.6	30703.49
445.807	33421.14
446.013	31772.53
446.22	32663.39
446.426	33752.91
446.633	33945.42
446.839	35591.99
447.046	33724.24
447.252	35374.91
447.459	35905.33
447.665	35391.29
447.871	36896.55
448.078	38551.31
448.284	36529.96
448.491	38037.26
448.697	39313.15
448.903	39917.3
449.11	40138.48
449.316	39585.53
449.522	40181.49
449.728	41127.65
449.935	41107.17
450.141	41359.07
450.347	42503.88
450.553	40548.07
450.76	41273.06
450.966	42841.8
451.172	42346.19
451.378	43458.24
451.584	42231.5
451.791	43093.7
451.997	43099.84
452.203	43890.36
452.409	43962.04
452.615	43785.91
452.821	42170.07
453.027	41858.77
453.233	44234.42
453.44	42231.5
453.646	42471.12
453.852	42923.72
454.058	43667.13
454.264	42614.48
454.47	42913.48
454.676	42020.56
454.882	43456.19
455.088	39552.76
455.294	40029.94
455.5	40914.66
455.705	41215.71
455.911	39919.35
456.117	39173.89
456.323	38766.34
456.529	36464.42
456.735	38027.03
456.941	36828.96
457.147	36527.91
457.352	35682.1
457.558	35184.44
457.764	35082.05
457.97	34594.63
458.176	33691.48
458.381	33711.95
458.587	32372.58
458.793	32096.11
458.999	30275.46
459.204	32765.79
459.41	31440.76
459.616	29675.41
459.821	29654.93
460.027	29800.33
460.233	29044.63
460.438	27547.57
460.644	27961.26
460.85	26691.52
461.055	26449.86
461.261	26204.1
461.466	24399.84
461.672	23474.16
461.878	25229.27
462.083	23283.7
462.289	22808.57
462.494	23039.99
462.7	21768.2
462.905	21200.91
463.111	21901.32
463.316	22063.11
463.522	21532.68
463.727	21882.89
463.932	21690.38
464.138	21241.87
464.343	21536.78
464.549	21092.37
464.754	21561.36
464.959	21620.75
465.165	21266.45
465.37	20506.65
465.575	19992.61
465.781	21092.37
465.986	20977.69
466.191	20004.9
466.397	19789.86
466.602	18778.17
466.807	19294.25
467.012	19396.65
467.218	19533.87
467.423	19122.23
467.628	19370.03
