Data from USB4F104151__52__13-53-29-377.txt Node

Date: Thu Mar 13 13:53:29 EDT 2025
User: louis
Spectrometer: USB4F10415
Trigger mode: 4
Integration Time (sec): 1.000000E-2
Scans to average: 1
Electric dark correction enabled: true
Nonlinearity correction enabled: false
Boxcar width: 0
XAxis mode: Wavelengths
Number of Pixels in Spectrum: 3648
>>>>>Begin Spectral Data<<<<<
178.204	-1.19
178.424	-1.19
178.644	-1.19
178.864	-56.49
179.084	-1.19
179.304	-27.82
179.524	-50.35
179.744	29.52
179.964	56.15
180.184	-5.29
180.404	-5.29
180.624	4.95
180.844	-5.29
181.064	13.14
181.283	-62.63
181.503	9.05
181.723	43.86
181.943	-60.59
182.163	23.38
182.383	-29.87
182.602	-40.11
182.822	2.9
183.042	27.48
183.262	-74.92
183.482	-13.48
183.701	-15.53
183.921	-21.67
184.141	-17.58
184.361	-48.3
184.58	-48.3
184.8	-50.35
185.02	-5.29
185.239	0.85
185.459	-44.2
185.679	35.67
185.898	-52.39
186.118	17.24
186.338	-17.58
186.557	21.33
186.777	-70.83
186.997	-48.3
187.216	-40.11
187.436	-58.54
187.655	-33.96
187.875	-29.87
188.095	-11.43
188.314	0.85
188.534	-21.67
188.753	4.95
188.973	31.57
189.192	33.62
189.412	-42.15
189.631	-13.48
189.851	-17.58
190.07	-7.34
190.29	-27.82
190.509	66.39
190.729	7
190.948	15.19
191.168	-105.64
191.387	23.38
191.607	-42.15
191.826	-58.54
192.045	-33.96
192.265	39.76
192.484	45.91
192.704	27.48
192.923	37.72
193.142	47.96
193.362	-54.44
193.581	19.29
193.8	-52.39
194.02	39.76
194.239	-21.67
194.458	50
194.678	-91.31
194.897	-52.39
195.116	-83.11
195.335	-70.83
195.555	-17.58
195.774	-31.91
195.993	-13.48
196.212	13.14
196.432	-87.21
196.651	7
196.87	-21.67
197.089	-3.24
197.308	-62.63
197.528	17.24
197.747	-99.5
197.966	-11.43
198.185	21.33
198.404	66.39
198.623	31.57
198.842	-33.96
199.062	-3.24
199.281	31.57
199.5	-36.01
199.719	-50.35
199.938	-52.39
200.157	2.9
200.376	-3.24
200.595	25.43
200.814	4.95
201.033	-66.73
201.252	-13.48
201.471	11.09
201.69	-66.73
201.909	-42.15
202.128	-9.39
202.347	41.81
202.566	-1.19
202.785	41.81
203.004	-25.77
203.223	-1.19
203.442	-46.25
203.661	72.53
203.879	-48.3
204.098	-9.39
204.317	2.9
204.536	-23.72
204.755	15.19
204.974	-3.24
205.193	-21.67
205.411	-9.39
205.63	-21.67
205.849	-33.96
206.068	7
206.287	-52.39
206.505	-46.25
206.724	-56.49
206.943	-19.63
207.162	43.86
207.381	-48.3
207.599	4.95
207.818	-62.63
208.037	31.57
208.255	7
208.474	-38.06
208.693	-74.92
208.911	-44.2
209.13	-48.3
209.349	-27.82
209.567	-54.44
209.786	-33.96
210.005	-21.67
210.223	-17.58
210.442	-62.63
210.661	-48.3
210.879	41.81
211.098	-58.54
211.316	-56.49
211.535	0.85
211.753	33.62
211.972	-17.58
212.191	-11.43
212.409	13.14
212.628	80.72
212.846	0.85
213.065	-11.43
213.283	-3.24
213.502	-33.96
213.72	-21.67
213.938	43.86
214.157	-36.01
214.375	4.95
214.594	15.19
214.812	54.1
215.031	-11.43
215.249	7
215.467	4.95
215.686	0.85
215.904	33.62
216.122	19.29
216.341	-3.24
216.559	-17.58
216.778	-5.29
216.996	-105.64
217.214	31.57
217.432	0.85
217.651	19.29
217.869	-40.11
218.087	19.29
218.306	-13.48
218.524	-54.44
218.742	-13.48
218.96	-17.58
219.179	-33.96
219.397	-17.58
219.615	-15.53
219.833	23.38
220.051	-25.77
220.27	17.24
220.488	-29.87
220.706	52.05
220.924	23.38
221.142	11.09
221.36	-40.11
221.578	-25.77
221.796	35.67
222.015	9.05
222.233	31.57
222.451	7
222.669	11.09
222.887	-19.63
223.105	-42.15
223.323	-1.19
223.541	-33.96
223.759	25.43
223.977	-19.63
224.195	-38.06
224.413	-68.78
224.631	29.52
224.849	27.48
225.067	-11.43
225.285	4.95
225.503	15.19
225.721	-21.67
225.939	64.34
226.157	-25.77
226.375	7
226.592	-70.83
226.81	7
227.028	-9.39
227.246	64.34
227.464	-29.87
227.682	56.15
227.9	50
228.117	-33.96
228.335	-17.58
228.553	-23.72
228.771	-42.15
228.989	-68.78
229.206	21.33
229.424	-62.63
229.642	19.29
229.86	25.43
230.077	-46.25
230.295	47.96
230.513	37.72
230.731	-17.58
230.948	17.24
231.166	-50.35
231.384	2.9
231.601	9.05
231.819	-58.54
232.037	-11.43
232.254	-3.24
232.472	-33.96
232.689	-9.39
232.907	37.72
233.125	-5.29
233.342	-56.49
233.56	-7.34
233.777	27.48
233.995	7
234.213	-23.72
234.43	-36.01
234.648	17.24
234.865	-36.01
235.083	-62.63
235.3	-46.25
235.518	13.14
235.735	21.33
235.953	-27.82
236.17	-19.63
236.388	7
236.605	-13.48
236.822	-15.53
237.04	-48.3
237.257	-38.06
237.475	-58.54
237.692	7
237.909	7
238.127	11.09
238.344	2.9
238.562	45.91
238.779	33.62
238.996	-13.48
239.214	54.1
239.431	-33.96
239.648	-42.15
239.865	-11.43
240.083	62.29
240.3	-27.82
240.517	-27.82
240.735	2.9
240.952	0.85
241.169	-3.24
241.386	19.29
241.603	-5.29
241.821	-27.82
242.038	-15.53
242.255	-1.19
242.472	-17.58
242.689	-15.53
242.907	19.29
243.124	-31.91
243.341	0.85
243.558	-48.3
243.775	-56.49
243.992	-21.67
244.209	74.58
244.426	-19.63
244.643	27.48
244.86	-23.72
245.078	43.86
245.295	9.05
245.512	-48.3
245.729	-44.2
245.946	-64.68
246.163	21.33
246.38	31.57
246.597	39.76
246.814	-19.63
247.031	-19.63
247.248	-15.53
247.464	11.09
247.681	23.38
247.898	-17.58
248.115	-15.53
248.332	-13.48
248.549	41.81
248.766	9.05
248.983	-13.48
249.2	-29.87
249.417	41.81
249.633	-9.39
249.85	21.33
250.067	37.72
250.284	43.86
250.501	52.05
250.717	19.29
250.934	-17.58
251.151	15.19
251.368	0.85
251.585	29.52
251.801	0.85
252.018	-17.58
252.235	-13.48
252.451	-1.19
252.668	31.57
252.885	50
253.102	-31.91
253.318	19.29
253.535	11.09
253.752	43.86
253.968	-11.43
254.185	37.72
254.401	-44.2
254.618	13.14
254.835	-5.29
255.051	7
255.268	56.15
255.484	23.38
255.701	-52.39
255.917	-87.21
256.134	-107.69
256.351	-11.43
256.567	-9.39
256.784	31.57
257	25.43
257.217	45.91
257.433	41.81
257.65	-21.67
257.866	4.95
258.082	-66.73
258.299	72.53
258.515	19.29
258.732	2.9
258.948	9.05
259.165	-9.39
259.381	-50.35
259.597	-13.48
259.814	-11.43
260.03	-13.48
260.246	-13.48
260.463	15.19
260.679	62.29
260.895	-52.39
261.112	-7.34
261.328	-25.77
261.544	19.29
261.761	68.44
261.977	2.9
262.193	-5.29
262.409	35.67
262.626	-19.63
262.842	29.52
263.058	-50.35
263.274	-52.39
263.49	31.57
263.707	0.85
263.923	-52.39
264.139	-56.49
264.355	-52.39
264.571	-27.82
264.787	15.19
265.004	-11.43
265.22	-29.87
265.436	0.85
265.652	-72.87
265.868	-13.48
266.084	-15.53
266.3	-19.63
266.516	-58.54
266.732	-3.24
266.948	-31.91
267.164	-74.92
267.38	86.87
267.596	-33.96
267.812	0.85
268.028	54.1
268.244	-31.91
268.46	-66.73
268.676	-31.91
268.892	-21.67
269.108	-68.78
269.324	-11.43
269.54	-31.91
269.756	-23.72
269.972	-15.53
270.188	-19.63
270.403	-40.11
270.619	-42.15
270.835	-21.67
271.051	-50.35
271.267	-44.2
271.483	70.48
271.698	-58.54
271.914	50
272.13	17.24
272.346	39.76
272.562	-85.16
272.777	50
272.993	45.91
273.209	7
273.425	31.57
273.64	-58.54
273.856	-19.63
274.072	21.33
274.287	39.76
274.503	-31.91
274.719	-5.29
274.934	-21.67
275.15	4.95
275.366	29.52
275.581	-81.07
275.797	-44.2
276.012	-3.24
276.228	4.95
276.444	-54.44
276.659	7
276.875	25.43
277.09	-38.06
277.306	-97.45
277.521	-27.82
277.737	-9.39
277.952	-19.63
278.168	-74.92
278.383	-66.73
278.599	-23.72
278.814	13.14
279.03	19.29
279.245	-13.48
279.461	-25.77
279.676	17.24
279.892	23.38
280.107	-17.58
280.322	37.72
280.538	-3.24
280.753	-36.01
280.969	-15.53
281.184	9.05
281.399	-64.68
281.615	-9.39
281.83	-33.96
282.045	4.95
282.26	50
282.476	-15.53
282.691	-23.72
282.906	-19.63
283.122	4.95
283.337	-44.2
283.552	-17.58
283.767	-27.82
283.983	-29.87
284.198	-46.25
284.413	-38.06
284.628	7
284.843	47.96
285.058	21.33
285.274	60.24
285.489	-58.54
285.704	4.95
285.919	25.43
286.134	-44.2
286.349	4.95
286.564	-13.48
286.779	74.58
286.995	95.06
287.21	-9.39
287.425	23.38
287.64	-1.19
287.855	25.43
288.07	2.9
288.285	76.63
288.5	33.62
288.715	-7.34
288.93	4.95
289.145	-27.82
289.36	-11.43
289.575	15.19
289.79	4.95
290.004	35.67
290.219	-48.3
290.434	-27.82
290.649	-17.58
290.864	-48.3
291.079	13.14
291.294	23.38
291.509	9.05
291.724	-17.58
291.938	-42.15
292.153	-13.48
292.368	33.62
292.583	82.77
292.798	-33.96
293.012	0.85
293.227	-36.01
293.442	-3.24
293.657	-3.24
293.871	27.48
294.086	33.62
294.301	33.62
294.516	64.34
294.73	43.86
294.945	64.34
295.16	2.9
295.374	19.29
295.589	52.05
295.804	11.09
296.018	-1.19
296.233	54.1
296.447	29.52
296.662	0.85
296.877	25.43
297.091	-19.63
297.306	54.1
297.52	23.38
297.735	-7.34
297.949	31.57
298.164	-36.01
298.378	68.44
298.593	-29.87
298.807	-44.2
299.022	45.91
299.236	29.52
299.451	-5.29
299.665	-38.06
299.88	-23.72
300.094	41.81
300.309	23.38
300.523	-17.58
300.737	-23.72
300.952	0.85
301.166	-19.63
301.381	-21.67
301.595	-25.77
301.809	-13.48
302.024	-5.29
302.238	-15.53
302.452	45.91
302.667	35.67
302.881	62.29
303.095	15.19
303.309	27.48
303.524	-42.15
303.738	-76.97
303.952	-19.63
304.166	0.85
304.381	19.29
304.595	52.05
304.809	-13.48
305.023	21.33
305.237	9.05
305.452	27.48
305.666	0.85
305.88	-36.01
306.094	-64.68
306.308	13.14
306.522	-29.87
306.736	-15.53
306.95	45.91
307.164	-5.29
307.379	-11.43
307.593	17.24
307.807	60.24
308.021	19.29
308.235	-15.53
308.449	11.09
308.663	7
308.877	31.57
309.091	7
309.305	25.43
309.519	-5.29
309.733	41.81
309.947	21.33
310.161	-1.19
310.374	-19.63
310.588	101.2
310.802	-54.44
311.016	7
311.23	-76.97
311.444	21.33
311.658	-25.77
311.872	13.14
312.085	41.81
312.299	33.62
312.513	50
312.727	15.19
312.941	11.09
313.154	33.62
313.368	-11.43
313.582	-58.54
313.796	78.68
314.009	-38.06
314.223	7
314.437	23.38
314.651	29.52
314.864	-33.96
315.078	15.19
315.292	-3.24
315.505	11.09
315.719	68.44
315.933	-19.63
316.146	23.38
316.36	-36.01
316.573	103.25
316.787	15.19
317.001	13.14
317.214	43.86
317.428	56.15
317.641	-66.73
317.855	25.43
318.068	41.81
318.282	52.05
318.495	33.62
318.709	-48.3
318.922	90.96
319.136	-19.63
319.349	-15.53
319.563	11.09
319.776	0.85
319.99	2.9
320.203	11.09
320.417	-11.43
320.63	-36.01
320.843	56.15
321.057	-15.53
321.27	-17.58
321.483	-1.19
321.697	15.19
321.91	86.87
322.124	2.9
322.337	-3.24
322.55	-36.01
322.763	72.53
322.977	19.29
323.19	23.38
323.403	33.62
323.617	0.85
323.83	-56.49
324.043	-31.91
324.256	-1.19
324.469	-40.11
324.683	37.72
324.896	21.33
325.109	-21.67
325.322	-11.43
325.535	25.43
325.748	-3.24
325.962	27.48
326.175	-58.54
326.388	-9.39
326.601	47.96
326.814	-31.91
327.027	-15.53
327.24	33.62
327.453	19.29
327.666	-36.01
327.879	27.48
328.092	47.96
328.305	-9.39
328.518	-23.72
328.731	2.9
328.944	-19.63
329.157	19.29
329.37	33.62
329.583	-70.83
329.796	-56.49
330.009	-17.58
330.222	-19.63
330.435	39.76
330.648	76.63
330.861	-3.24
331.073	13.14
331.286	-27.82
331.499	54.1
331.712	-13.48
331.925	-1.19
332.138	-64.68
332.35	95.06
332.563	-5.29
332.776	21.33
332.989	21.33
333.202	-9.39
333.414	-23.72
333.627	25.43
333.84	-1.19
334.053	-60.59
334.265	-27.82
334.478	9.05
334.691	-5.29
334.903	-1.19
335.116	17.24
335.329	4.95
335.541	-23.72
335.754	-17.58
335.966	-11.43
336.179	-33.96
336.392	29.52
336.604	33.62
336.817	39.76
337.029	29.52
337.242	-31.91
337.454	76.63
337.667	11.09
337.88	2.9
338.092	43.86
338.305	56.15
338.517	52.05
338.729	-19.63
338.942	-76.97
339.154	72.53
339.367	-9.39
339.579	-58.54
339.792	-5.29
340.004	9.05
340.217	-15.53
340.429	19.29
340.641	45.91
340.854	39.76
341.066	-15.53
341.278	-13.48
341.491	35.67
341.703	0.85
341.915	-72.87
342.128	0.85
342.34	11.09
342.552	68.44
342.764	-5.29
342.977	-54.44
343.189	-3.24
343.401	37.72
343.613	11.09
343.826	4.95
344.038	19.29
344.25	11.09
344.462	-5.29
344.674	33.62
344.886	-11.43
345.099	11.09
345.311	-7.34
345.523	43.86
345.735	-29.87
345.947	-36.01
346.159	27.48
346.371	17.24
346.583	-3.24
346.795	43.86
347.007	105.3
347.219	-19.63
347.431	-9.39
347.643	-7.34
347.855	-13.48
348.067	9.05
348.279	25.43
348.491	4.95
348.703	-56.49
348.915	-1.19
349.127	21.33
349.339	-5.29
349.551	-25.77
349.763	25.43
349.975	0.85
350.187	50
350.399	21.33
350.61	7
350.822	-46.25
351.034	-19.63
351.246	-64.68
351.458	97.11
351.669	4.95
351.881	-38.06
352.093	17.24
352.305	15.19
352.517	70.48
352.728	-46.25
352.94	-5.29
353.152	-81.07
353.363	-107.69
353.575	25.43
353.787	7
353.999	-31.91
354.21	13.14
354.422	-13.48
354.633	-17.58
354.845	47.96
355.057	27.48
355.268	-33.96
355.48	-3.24
355.692	-17.58
355.903	9.05
356.115	50
356.326	-64.68
356.538	37.72
356.749	-42.15
356.961	45.91
357.172	-3.24
357.384	-15.53
357.595	13.14
357.807	-44.2
358.018	64.34
358.23	31.57
358.441	17.24
358.653	41.81
358.864	97.11
359.075	-9.39
359.287	-11.43
359.498	39.76
359.709	2.9
359.921	66.39
360.132	47.96
360.344	-33.96
360.555	-36.01
360.766	25.43
360.977	-72.87
361.189	-19.63
361.4	60.24
361.611	19.29
361.823	-27.82
362.034	11.09
362.245	-21.67
362.456	-17.58
362.667	9.05
362.879	-33.96
363.09	37.72
363.301	52.05
363.512	37.72
363.723	-44.2
363.935	-29.87
364.146	2.9
364.357	82.77
364.568	-1.19
364.779	4.95
364.99	9.05
365.201	27.48
365.412	41.81
365.623	13.14
365.834	-17.58
366.045	23.38
366.256	17.24
366.467	-38.06
366.678	60.24
366.889	-64.68
367.1	-36.01
367.311	-95.4
367.522	23.38
367.733	-9.39
367.944	23.38
368.155	43.86
368.366	-9.39
368.577	31.57
368.788	66.39
368.999	17.24
369.209	33.62
369.42	-9.39
369.631	25.43
369.842	45.91
370.053	-64.68
370.264	-13.48
370.474	-3.24
370.685	-15.53
370.896	-1.19
371.107	21.33
371.317	68.44
371.528	27.48
371.739	45.91
371.95	-15.53
372.16	-7.34
372.371	-3.24
372.582	29.52
372.792	0.85
373.003	-13.48
373.214	-36.01
373.424	-17.58
373.635	21.33
373.846	7
374.056	-11.43
374.267	21.33
374.477	-38.06
374.688	-1.19
374.898	15.19
375.109	7
375.319	13.14
375.53	52.05
375.74	54.1
375.951	-36.01
376.161	-19.63
376.372	-58.54
376.582	-29.87
376.793	-15.53
377.003	23.38
377.214	-19.63
377.424	54.1
377.635	0.85
377.845	-11.43
378.055	33.62
378.266	17.24
378.476	60.24
378.686	-64.68
378.897	27.48
379.107	19.29
379.317	31.57
379.528	-9.39
379.738	-1.19
379.948	19.29
380.158	-33.96
380.369	-31.91
380.579	2.9
380.789	54.1
380.999	17.24
381.21	0.85
381.42	2.9
381.63	-23.72
381.84	-7.34
382.05	68.44
382.261	25.43
382.471	-52.39
382.681	80.72
382.891	37.72
383.101	23.38
383.311	0.85
383.521	60.24
383.731	-40.11
383.941	11.09
384.151	31.57
384.361	-19.63
384.571	-62.63
384.781	50
384.991	-19.63
385.201	-5.29
385.411	-23.72
385.621	11.09
385.831	-13.48
386.041	52.05
386.251	31.57
386.461	15.19
386.671	19.29
386.881	54.1
387.091	-17.58
387.301	29.52
387.511	-66.73
387.72	23.38
387.93	-44.2
388.14	35.67
388.35	-19.63
388.56	-27.82
388.769	-7.34
388.979	-21.67
389.189	-11.43
389.399	-3.24
389.609	11.09
389.818	-42.15
390.028	15.19
390.238	78.68
390.447	-31.91
390.657	-5.29
390.867	9.05
391.076	-29.87
391.286	-9.39
391.496	47.96
391.705	9.05
391.915	62.29
392.125	31.57
392.334	15.19
392.544	37.72
392.753	-15.53
392.963	-9.39
393.172	66.39
393.382	-15.53
393.591	31.57
393.801	21.33
394.01	47.96
394.22	82.77
394.429	37.72
394.639	25.43
394.848	19.29
395.058	29.52
395.267	68.44
395.477	7
395.686	-3.24
395.895	39.76
396.105	72.53
396.314	33.62
396.524	-23.72
396.733	52.05
396.942	-33.96
397.152	43.86
397.361	29.52
397.57	7
397.78	7
397.989	74.58
398.198	23.38
398.407	86.87
398.617	90.96
398.826	66.39
399.035	56.15
399.244	60.24
399.453	29.52
399.663	35.67
399.872	62.29
400.081	-13.48
400.29	45.91
400.499	11.09
400.708	68.44
400.917	25.43
401.127	52.05
401.336	88.92
401.545	64.34
401.754	45.91
401.963	41.81
402.172	76.63
402.381	54.1
402.59	47.96
402.799	111.44
403.008	25.43
403.217	148.31
403.426	4.95
403.635	64.34
403.844	78.68
404.053	150.36
404.262	103.25
404.471	52.05
404.68	45.91
404.888	131.92
405.097	56.15
405.306	133.97
405.515	109.4
405.724	56.15
405.933	93.01
406.142	105.3
406.35	88.92
406.559	119.64
406.768	123.73
406.977	125.78
407.185	125.78
407.394	97.11
407.603	25.43
407.812	119.64
408.02	168.79
408.229	54.1
408.438	84.82
408.646	168.79
408.855	142.16
409.064	82.77
409.272	138.07
409.481	166.74
409.69	187.22
409.898	176.98
410.107	168.79
410.315	170.83
410.524	144.21
410.733	174.93
410.941	189.27
411.15	193.36
411.358	195.41
411.567	187.22
411.775	148.31
411.984	215.89
412.192	226.13
412.401	242.51
412.609	260.95
412.818	234.32
413.026	267.09
413.234	291.66
413.443	267.09
413.651	297.81
413.86	299.86
414.068	344.91
414.276	373.58
414.485	367.44
414.693	318.29
414.901	404.3
415.11	418.64
415.318	432.97
415.526	471.89
415.734	478.03
415.943	432.97
416.151	490.32
416.359	367.44
416.567	531.28
416.776	592.72
416.984	566.09
417.192	484.17
417.4	607.05
417.608	488.27
417.817	629.58
418.025	711.5
418.233	742.22
418.441	600.91
418.649	695.11
418.857	740.17
419.065	736.07
419.273	779.08
419.481	803.66
419.689	854.86
419.897	918.34
420.105	885.58
420.313	998.21
420.521	920.39
420.729	914.25
420.937	1065.8
421.145	992.07
421.353	1135.43
421.561	1108.8
421.769	1237.83
421.977	1243.97
422.185	1092.42
422.393	1375.04
422.601	1420.1
422.809	1356.61
423.017	1397.57
423.224	1459.01
423.432	1456.96
423.64	1534.78
423.848	1628.99
424.056	1538.88
424.263	1747.77
424.471	1805.11
424.679	1708.86
424.887	1817.4
425.094	1805.11
425.302	1905.46
425.51	1973.05
425.718	2079.54
425.925	1993.53
426.133	2132.79
426.341	2247.48
426.548	2353.97
426.756	2419.5
426.964	2411.31
427.171	2624.3
427.379	2509.62
427.586	2581.29
427.794	2716.46
428.001	2874.15
428.209	2992.94
428.417	2941.74
428.624	3240.74
428.832	3152.68
429.039	3220.26
429.247	3072.81
429.454	3330.85
429.662	3582.75
429.869	3521.31
430.076	3715.87
430.284	3455.78
430.491	3629.85
430.699	4016.92
430.906	3986.2
431.114	4131.61
431.321	4199.19
431.528	4264.72
431.736	4541.2
431.943	4676.37
432.15	4449.04
432.358	4549.39
432.565	4817.68
432.772	4805.39
432.979	5192.45
433.187	5075.72
433.394	5180.17
433.601	5501.7
433.808	5534.46
434.016	5423.87
434.223	5894.91
434.43	6132.47
434.637	5942.01
434.844	6249.21
435.052	6519.54
435.259	6437.62
435.466	6488.82
435.673	6302.45
435.88	6949.61
436.087	7107.3
436.294	7312.1
436.501	7121.64
436.708	7293.67
436.915	7443.17
437.122	7768.8
437.329	7707.36
437.537	7965.4
437.743	7942.88
437.95	7973.6
438.157	8583.89
438.364	8884.94
438.571	8674
438.778	8878.8
438.985	9556.68
439.192	9335.49
439.399	9622.21
439.606	9308.87
439.813	9867.97
440.02	10330.81
440.227	10140.35
440.433	10373.82
440.64	10367.67
440.847	10377.91
441.054	10629.81
441.261	11438.76
441.467	11215.53
441.674	11233.96
441.881	11909.79
442.088	11883.17
442.294	11573.92
442.501	12001.95
442.708	12309.15
442.914	12700.31
443.121	13296.27
443.328	12888.72
443.534	14047.87
443.741	13447.82
443.948	13310.6
444.154	14328.44
444.361	14277.24
444.568	14207.61
444.774	14324.35
444.981	14373.5
445.187	14938.74
445.394	15563.37
445.6	15250.03
445.807	16695.89
446.013	16255.58
446.22	16374.36
446.426	17025.62
446.633	17156.69
446.839	17853
447.046	16855.64
447.252	18121.28
447.459	17893.96
447.665	17965.64
447.871	18815.54
448.078	19216.94
448.284	18444.86
448.491	19106.35
448.697	19595.82
448.903	19980.84
449.11	20105.76
449.316	19720.74
449.522	20212.26
449.728	20650.52
449.935	20711.96
450.141	20814.36
450.347	21219.86
450.553	20369.95
450.76	20869.65
450.966	21662.22
451.172	21383.7
451.378	21682.7
451.584	21148.18
451.791	21805.58
451.997	21744.14
452.203	21920.26
452.409	21899.78
452.615	21916.17
452.821	20881.94
453.027	20927
453.233	21899.78
453.44	21008.92
453.646	21156.37
453.852	21324.3
454.058	21594.64
454.264	20791.83
454.47	21230.1
454.676	20773.4
454.882	21178.9
455.088	19683.88
455.294	19882.53
455.5	20197.92
455.705	20296.22
455.911	19423.79
456.117	18995.76
456.323	18862.65
456.529	18010.69
456.735	18833.97
456.941	18235.97
457.147	17719.88
457.352	17130.06
457.558	17066.58
457.764	16872.02
457.97	16493.15
458.176	16405.08
458.381	16200.29
458.587	15256.17
458.793	15546.98
458.999	14611.06
459.204	15768.16
459.41	15383.15
459.616	14264.96
459.821	14244.48
460.027	14146.17
460.233	13906.56
460.438	13062.8
460.644	13566.6
460.85	12878.48
461.055	12706.45
461.261	12667.54
461.466	11696.8
461.672	11152.04
461.878	12343.96
462.083	11104.94
462.289	11088.56
462.494	10871.47
462.7	10498.74
462.905	10265.27
463.111	10605.24
463.316	10511.03
463.522	10502.84
463.727	10504.89
463.932	10476.21
464.138	10312.38
464.343	10375.86
464.549	10140.35
464.754	10472.12
464.959	10285.75
465.165	10369.72
465.37	9913.02
465.575	9505.48
465.781	10056.38
465.986	10046.14
466.191	9669.31
466.397	9614.02
466.602	8837.84
466.807	9364.17
467.012	9386.69
467.218	9421.51
