Data from USB4F104151__271__14-02-08-241.txt Node

Date: Thu Mar 13 14:02:08 EDT 2025
User: louis
Spectrometer: USB4F10415
Trigger mode: 4
Integration Time (sec): 1.000000E-2
Scans to average: 1
Electric dark correction enabled: true
Nonlinearity correction enabled: false
Boxcar width: 0
XAxis mode: Wavelengths
Number of Pixels in Spectrum: 3648
>>>>>Begin Spectral Data<<<<<
178.204	-43.01
178.424	-43.01
178.644	-43.01
178.864	-30.72
179.084	-79.87
179.304	55.3
179.524	-63.49
179.744	-57.34
179.964	10.24
180.184	-38.91
180.404	43.01
180.624	61.44
180.844	-16.38
181.064	26.62
181.283	-12.29
181.503	-47.1
181.723	38.91
181.943	6.14
182.163	53.25
182.383	6.14
182.602	53.25
182.822	49.15
183.042	43.01
183.262	51.2
183.482	47.1
183.701	49.15
183.921	51.2
184.141	2.05
184.361	69.63
184.58	34.82
184.8	104.45
185.02	32.77
185.239	124.93
185.459	4.1
185.679	36.86
185.898	20.48
186.118	38.91
186.338	2.05
186.557	79.87
186.777	79.87
186.997	63.49
187.216	-14.34
187.436	-36.86
187.655	47.1
187.875	90.11
188.095	-14.34
188.314	28.67
188.534	-55.3
188.753	67.58
188.973	55.3
189.192	26.62
189.412	61.44
189.631	28.67
189.851	40.96
190.07	-6.14
190.29	38.91
190.509	47.1
190.729	10.24
190.948	61.44
191.168	133.12
191.387	86.01
191.607	100.35
191.826	59.39
192.045	14.34
192.265	53.25
192.484	4.1
192.704	63.49
192.923	-16.38
193.142	102.4
193.362	53.25
193.581	77.82
193.8	38.91
194.02	18.43
194.239	-8.19
194.458	65.53
194.678	-22.53
194.897	34.82
195.116	67.58
195.335	75.77
195.555	-24.58
195.774	34.82
195.993	86.01
196.212	47.1
196.432	43.01
196.651	65.53
196.87	75.77
197.089	28.67
197.308	-4.1
197.528	-53.25
197.747	-6.14
197.966	69.63
198.185	12.29
198.404	59.39
198.623	55.3
198.842	2.05
199.062	83.97
199.281	30.72
199.5	34.82
199.719	14.34
199.938	65.53
200.157	122.88
200.376	67.58
200.595	51.2
200.814	26.62
201.033	6.14
201.252	-32.77
201.471	-22.53
201.69	75.77
201.909	90.11
202.128	92.16
202.347	-12.29
202.566	-24.58
202.785	-22.53
203.004	-22.53
203.223	26.62
203.442	20.48
203.661	-4.1
203.879	26.62
204.098	34.82
204.317	36.86
204.536	-2.05
204.755	81.92
204.974	14.34
205.193	55.3
205.411	77.82
205.63	28.67
205.849	55.3
206.068	-18.43
206.287	32.77
206.505	51.2
206.724	14.34
206.943	83.97
207.162	73.73
207.381	28.67
207.599	18.43
207.818	28.67
208.037	108.54
208.255	55.3
208.474	43.01
208.693	12.29
208.911	28.67
209.13	-14.34
209.349	77.82
209.567	-18.43
209.786	38.91
210.005	79.87
210.223	100.35
210.442	67.58
210.661	75.77
210.879	65.53
211.098	45.06
211.316	24.58
211.535	77.82
211.753	38.91
211.972	67.58
212.191	26.62
212.409	16.38
212.628	100.35
212.846	100.35
213.065	51.2
213.283	20.48
213.502	24.58
213.72	69.63
213.938	-38.91
214.157	-6.14
214.375	34.82
214.594	18.43
214.812	59.39
215.031	45.06
215.249	43.01
215.467	18.43
215.686	51.2
215.904	79.87
216.122	59.39
216.341	10.24
216.559	83.97
216.778	12.29
216.996	57.34
217.214	75.77
217.432	16.38
217.651	-10.24
217.869	43.01
218.087	51.2
218.306	45.06
218.524	6.14
218.742	10.24
218.96	51.2
219.179	83.97
219.397	2.05
219.615	-18.43
219.833	-38.91
220.051	-40.96
220.27	30.72
220.488	-18.43
220.706	77.82
220.924	61.44
221.142	12.29
221.36	6.14
221.578	53.25
221.796	71.68
222.015	2.05
222.233	71.68
222.451	61.44
222.669	-20.48
222.887	-38.91
223.105	40.96
223.323	63.49
223.541	14.34
223.759	53.25
223.977	4.1
224.195	75.77
224.413	75.77
224.631	59.39
224.849	36.86
225.067	118.78
225.285	10.24
225.503	18.43
225.721	79.87
225.939	61.44
226.157	34.82
226.375	67.58
226.592	26.62
226.81	96.25
227.028	53.25
227.246	36.86
227.464	75.77
227.682	24.58
227.9	14.34
228.117	34.82
228.335	14.34
228.553	73.73
228.771	49.15
228.989	100.35
229.206	40.96
229.424	26.62
229.642	120.83
229.86	-6.14
230.077	28.67
230.295	30.72
230.513	28.67
230.731	75.77
230.948	79.87
231.166	18.43
231.384	-28.67
231.601	51.2
231.819	34.82
232.037	63.49
232.254	-71.68
232.472	75.77
232.689	69.63
232.907	8.19
233.125	59.39
233.342	63.49
233.56	-38.91
233.777	4.1
233.995	51.2
234.213	4.1
234.43	30.72
234.648	67.58
234.865	22.53
235.083	4.1
235.3	16.38
235.518	24.58
235.735	36.86
235.953	65.53
236.17	-2.05
236.388	18.43
236.605	59.39
236.822	75.77
237.04	51.2
237.257	71.68
237.475	38.91
237.692	45.06
237.909	-63.49
238.127	40.96
238.344	30.72
238.562	0
238.779	43.01
238.996	51.2
239.214	24.58
239.431	53.25
239.648	30.72
239.865	18.43
240.083	100.35
240.3	88.06
240.517	2.05
240.735	20.48
240.952	16.38
241.169	53.25
241.386	102.4
241.603	18.43
241.821	79.87
242.038	32.77
242.255	22.53
242.472	61.44
242.689	26.62
242.907	124.93
243.124	10.24
243.341	30.72
243.558	86.01
243.775	77.82
243.992	26.62
244.209	20.48
244.426	120.83
244.643	34.82
244.86	24.58
245.078	77.82
245.295	2.05
245.512	114.69
245.729	-40.96
245.946	61.44
246.163	81.92
246.38	30.72
246.597	10.24
246.814	61.44
247.031	-2.05
247.248	34.82
247.464	47.1
247.681	118.78
247.898	34.82
248.115	-63.49
248.332	79.87
248.549	18.43
248.766	-22.53
248.983	75.77
249.2	-6.14
249.417	94.21
249.633	-26.62
249.85	26.62
250.067	24.58
250.284	102.4
250.501	73.73
250.717	43.01
250.934	-4.1
251.151	-28.67
251.368	63.49
251.585	-30.72
251.801	22.53
252.018	18.43
252.235	28.67
252.451	104.45
252.668	-6.14
252.885	63.49
253.102	77.82
253.318	116.73
253.535	20.48
253.752	43.01
253.968	26.62
254.185	36.86
254.401	81.92
254.618	51.2
254.835	28.67
255.051	92.16
255.268	77.82
255.484	124.93
255.701	65.53
255.917	-12.29
256.134	10.24
256.351	-10.24
256.567	10.24
256.784	-2.05
257	92.16
257.217	34.82
257.433	69.63
257.65	43.01
257.866	53.25
258.082	22.53
258.299	59.39
258.515	-14.34
258.732	53.25
258.948	47.1
259.165	47.1
259.381	-16.38
259.597	51.2
259.814	63.49
260.03	-6.14
260.246	43.01
260.463	-28.67
260.679	18.43
260.895	55.3
261.112	-6.14
261.328	47.1
261.544	36.86
261.761	36.86
261.977	94.21
262.193	-4.1
262.409	14.34
262.626	92.16
262.842	34.82
263.058	43.01
263.274	14.34
263.49	18.43
263.707	8.19
263.923	34.82
264.139	6.14
264.355	112.64
264.571	6.14
264.787	112.64
265.004	-86.01
265.22	4.1
265.436	45.06
265.652	-51.2
265.868	77.82
266.084	20.48
266.3	57.34
266.516	90.11
266.732	108.54
266.948	83.97
267.164	26.62
267.38	43.01
267.596	59.39
267.812	49.15
268.028	26.62
268.244	20.48
268.46	53.25
268.676	51.2
268.892	53.25
269.108	53.25
269.324	77.82
269.54	18.43
269.756	40.96
269.972	-16.38
270.188	36.86
270.403	69.63
270.619	40.96
270.835	90.11
271.051	69.63
271.267	69.63
271.483	14.34
271.698	22.53
271.914	88.06
272.13	24.58
272.346	61.44
272.562	47.1
272.777	133.12
272.993	28.67
273.209	36.86
273.425	22.53
273.64	53.25
273.856	61.44
274.072	102.4
274.287	53.25
274.503	28.67
274.719	61.44
274.934	22.53
275.15	36.86
275.366	-16.38
275.581	-6.14
275.797	67.58
276.012	12.29
276.228	28.67
276.444	38.91
276.659	45.06
276.875	26.62
277.09	53.25
277.306	4.1
277.521	34.82
277.737	116.73
277.952	30.72
278.168	26.62
278.383	73.73
278.599	83.97
278.814	129.02
279.03	28.67
279.245	12.29
279.461	6.14
279.676	61.44
279.892	-6.14
280.107	100.35
280.322	47.1
280.538	45.06
280.753	0
280.969	38.91
281.184	10.24
281.399	-2.05
281.615	8.19
281.83	0
282.045	36.86
282.26	30.72
282.476	30.72
282.691	71.68
282.906	81.92
283.122	88.06
283.337	45.06
283.552	71.68
283.767	-6.14
283.983	49.15
284.198	43.01
284.413	83.97
284.628	96.25
284.843	-22.53
285.058	100.35
285.274	67.58
285.489	43.01
285.704	40.96
285.919	49.15
286.134	40.96
286.349	96.25
286.564	20.48
286.779	34.82
286.995	88.06
287.21	61.44
287.425	51.2
287.64	26.62
287.855	102.4
288.07	34.82
288.285	63.49
288.5	104.45
288.715	92.16
288.93	40.96
289.145	40.96
289.36	94.21
289.575	30.72
289.79	55.3
290.004	88.06
290.219	61.44
290.434	59.39
290.649	-53.25
290.864	-10.24
291.079	26.62
291.294	38.91
291.509	36.86
291.724	100.35
291.938	90.11
292.153	24.58
292.368	34.82
292.583	108.54
292.798	2.05
293.012	43.01
293.227	69.63
293.442	61.44
293.657	75.77
293.871	79.87
294.086	55.3
294.301	16.38
294.516	34.82
294.73	16.38
294.945	57.34
295.16	-2.05
295.374	43.01
295.589	65.53
295.804	63.49
296.018	79.87
296.233	108.54
296.447	0
296.662	14.34
296.877	98.3
297.091	67.58
297.306	112.64
297.52	-24.58
297.735	96.25
297.949	22.53
298.164	26.62
298.378	112.64
298.593	20.48
298.807	-6.14
299.022	49.15
299.236	28.67
299.451	94.21
299.665	30.72
299.88	67.58
300.094	55.3
300.309	32.77
300.523	71.68
300.737	94.21
300.952	26.62
301.166	47.1
301.381	20.48
301.595	32.77
301.809	34.82
302.024	124.93
302.238	36.86
302.452	43.01
302.667	10.24
302.881	34.82
303.095	61.44
303.309	49.15
303.524	34.82
303.738	53.25
303.952	-26.62
304.166	51.2
304.381	-6.14
304.595	75.77
304.809	40.96
305.023	34.82
305.237	-4.1
305.452	4.1
305.666	22.53
305.88	79.87
306.094	104.45
306.308	108.54
306.522	71.68
306.736	4.1
306.95	-28.67
307.164	51.2
307.379	-6.14
307.593	176.13
307.807	73.73
308.021	18.43
308.235	28.67
308.449	43.01
308.663	36.86
308.877	18.43
309.091	104.45
309.305	38.91
309.519	-16.38
309.733	116.73
309.947	36.86
310.161	24.58
310.374	40.96
310.588	16.38
310.802	2.05
311.016	24.58
311.23	49.15
311.444	133.12
311.658	71.68
311.872	-6.14
312.085	86.01
312.299	20.48
312.513	135.17
312.727	-12.29
312.941	18.43
313.154	90.11
313.368	6.14
313.582	57.34
313.796	12.29
314.009	73.73
314.223	16.38
314.437	75.77
314.651	16.38
314.864	83.97
315.078	59.39
315.292	20.48
315.505	34.82
315.719	-12.29
315.933	36.86
316.146	79.87
316.36	16.38
316.573	24.58
316.787	14.34
317.001	45.06
317.214	88.06
317.428	86.01
317.641	26.62
317.855	124.93
318.068	139.26
318.282	47.1
318.495	59.39
318.709	92.16
318.922	-2.05
319.136	116.73
319.349	81.92
319.563	-28.67
319.776	34.82
319.99	92.16
320.203	71.68
320.417	96.25
320.63	28.67
320.843	73.73
321.057	106.49
321.27	30.72
321.483	102.4
321.697	65.53
321.91	43.01
322.124	49.15
322.337	75.77
322.55	112.64
322.763	71.68
322.977	104.45
323.19	16.38
323.403	20.48
323.617	18.43
323.83	67.58
324.043	38.91
324.256	67.58
324.469	8.19
324.683	22.53
324.896	36.86
325.109	106.49
325.322	40.96
325.535	14.34
325.748	45.06
325.962	36.86
326.175	43.01
326.388	75.77
326.601	102.4
326.814	34.82
327.027	69.63
327.24	24.58
327.453	10.24
327.666	6.14
327.879	28.67
328.092	108.54
328.305	4.1
328.518	26.62
328.731	36.86
328.944	92.16
329.157	98.3
329.37	69.63
329.583	6.14
329.796	40.96
330.009	83.97
330.222	28.67
330.435	79.87
330.648	75.77
330.861	57.34
331.073	0
331.286	16.38
331.499	36.86
331.712	83.97
331.925	-28.67
332.138	18.43
332.35	86.01
332.563	28.67
332.776	43.01
332.989	28.67
333.202	49.15
333.414	116.73
333.627	59.39
333.84	30.72
334.053	69.63
334.265	77.82
334.478	100.35
334.691	28.67
334.903	67.58
335.116	47.1
335.329	-30.72
335.541	45.06
335.754	69.63
335.966	59.39
336.179	47.1
336.392	-4.1
336.604	53.25
336.817	98.3
337.029	94.21
337.242	28.67
337.454	55.3
337.667	32.77
337.88	94.21
338.092	106.49
338.305	92.16
338.517	53.25
338.729	75.77
338.942	24.58
339.154	38.91
339.367	45.06
339.579	10.24
339.792	24.58
340.004	38.91
340.217	81.92
340.429	135.17
340.641	34.82
340.854	47.1
341.066	-10.24
341.278	59.39
341.491	141.31
341.703	40.96
341.915	20.48
342.128	81.92
342.34	47.1
342.552	112.64
342.764	108.54
342.977	75.77
343.189	67.58
343.401	16.38
343.613	63.49
343.826	69.63
344.038	83.97
344.25	22.53
344.462	-6.14
344.674	75.77
344.886	63.49
345.099	47.1
345.311	124.93
345.523	59.39
345.735	26.62
345.947	59.39
346.159	18.43
346.371	126.97
346.583	47.1
346.795	12.29
347.007	26.62
347.219	75.77
347.431	40.96
347.643	104.45
347.855	45.06
348.067	43.01
348.279	98.3
348.491	34.82
348.703	34.82
348.915	100.35
349.127	106.49
349.339	75.77
349.551	45.06
349.763	24.58
349.975	36.86
350.187	69.63
350.399	83.97
350.61	53.25
350.822	-30.72
351.034	55.3
351.246	14.34
351.458	-6.14
351.669	10.24
351.881	49.15
352.093	28.67
352.305	47.1
352.517	75.77
352.728	174.08
352.94	104.45
353.152	108.54
353.363	-36.86
353.575	43.01
353.787	71.68
353.999	34.82
354.21	63.49
354.422	131.07
354.633	96.25
354.845	77.82
355.057	53.25
355.268	67.58
355.48	98.3
355.692	28.67
355.903	81.92
356.115	94.21
356.326	43.01
356.538	110.59
356.749	69.63
356.961	47.1
357.172	30.72
357.384	30.72
357.595	77.82
357.807	45.06
358.018	86.01
358.23	75.77
358.441	104.45
358.653	14.34
358.864	102.4
359.075	22.53
359.287	40.96
359.498	135.17
359.709	28.67
359.921	49.15
360.132	18.43
360.344	77.82
360.555	83.97
360.766	67.58
360.977	53.25
361.189	96.25
361.4	79.87
361.611	71.68
361.823	90.11
362.034	92.16
362.245	24.58
362.456	98.3
362.667	61.44
362.879	45.06
363.09	88.06
363.301	26.62
363.512	30.72
363.723	28.67
363.935	114.69
364.146	34.82
364.357	71.68
364.568	51.2
364.779	14.34
364.99	94.21
365.201	108.54
365.412	53.25
365.623	36.86
365.834	67.58
366.045	49.15
366.256	75.77
366.467	45.06
366.678	43.01
366.889	133.12
367.1	49.15
367.311	79.87
367.522	14.34
367.733	47.1
367.944	-14.34
368.155	112.64
368.366	47.1
368.577	47.1
368.788	53.25
368.999	43.01
369.209	86.01
369.42	16.38
369.631	157.69
369.842	40.96
370.053	38.91
370.264	22.53
370.474	61.44
370.685	47.1
370.896	88.06
371.107	20.48
371.317	67.58
371.528	124.93
371.739	188.41
371.95	71.68
372.16	-16.38
372.371	59.39
372.582	26.62
372.792	73.73
373.003	67.58
373.214	90.11
373.424	116.73
373.635	75.77
373.846	116.73
374.056	71.68
374.267	77.82
374.477	47.1
374.688	51.2
374.898	22.53
375.109	36.86
375.319	28.67
375.53	90.11
375.74	10.24
375.951	69.63
376.161	63.49
376.372	106.49
376.582	2.05
376.793	34.82
377.003	86.01
377.214	22.53
377.424	22.53
377.635	14.34
377.845	12.29
378.055	57.34
378.266	4.1
378.476	98.3
378.686	157.69
378.897	20.48
379.107	47.1
379.317	94.21
379.528	24.58
379.738	75.77
379.948	47.1
380.158	100.35
380.369	102.4
380.579	59.39
380.789	45.06
380.999	4.1
381.21	106.49
381.42	75.77
381.63	88.06
381.84	86.01
382.05	28.67
382.261	83.97
382.471	90.11
382.681	61.44
382.891	149.5
383.101	100.35
383.311	30.72
383.521	61.44
383.731	67.58
383.941	18.43
384.151	0
384.361	88.06
384.571	83.97
384.781	69.63
384.991	69.63
385.201	110.59
385.411	100.35
385.621	92.16
385.831	94.21
386.041	8.19
386.251	51.2
386.461	131.07
386.671	40.96
386.881	100.35
387.091	83.97
387.301	61.44
387.511	10.24
387.72	98.3
387.93	141.31
388.14	83.97
388.35	10.24
388.56	83.97
388.769	57.34
388.979	118.78
389.189	59.39
389.399	108.54
389.609	67.58
389.818	94.21
390.028	100.35
390.238	100.35
390.447	94.21
390.657	63.49
390.867	75.77
391.076	61.44
391.286	-2.05
391.496	112.64
391.705	77.82
391.915	86.01
392.125	118.78
392.334	100.35
392.544	79.87
392.753	69.63
392.963	102.4
393.172	141.31
393.382	-47.1
393.591	116.73
393.801	49.15
394.01	147.45
394.22	34.82
394.429	69.63
394.639	86.01
394.848	73.73
395.058	-10.24
395.267	174.08
395.477	49.15
395.686	79.87
395.895	139.26
396.105	108.54
396.314	57.34
396.524	147.45
396.733	135.17
396.942	96.25
397.152	63.49
397.361	155.65
397.57	51.2
397.78	110.59
397.989	77.82
398.198	124.93
398.407	69.63
398.617	122.88
398.826	34.82
399.035	174.08
399.244	67.58
399.453	83.97
399.663	129.02
399.872	118.78
400.081	47.1
400.29	102.4
400.499	98.3
400.708	120.83
400.917	108.54
401.127	219.13
401.336	49.15
401.545	124.93
401.754	36.86
401.963	126.97
402.172	100.35
402.381	153.6
402.59	200.7
402.799	186.37
403.008	67.58
403.217	94.21
403.426	202.75
403.635	108.54
403.844	143.36
404.053	180.22
404.262	204.8
404.471	169.98
404.68	124.93
404.888	167.93
405.097	169.98
405.306	161.79
405.515	153.6
405.724	141.31
405.933	129.02
406.142	204.8
406.35	118.78
406.559	102.4
406.768	141.31
406.977	178.17
407.185	247.8
407.394	251.9
407.603	184.32
407.812	155.65
408.02	256
408.229	194.56
408.438	149.5
408.646	210.94
408.855	190.46
409.064	221.18
409.272	266.24
409.481	280.57
409.69	337.91
409.898	249.85
410.107	256
410.315	200.7
410.524	284.67
410.733	258.04
410.941	329.72
411.15	421.88
411.358	385.02
411.567	403.45
411.775	380.92
411.984	344.06
412.192	364.54
412.401	393.21
412.609	395.26
412.818	403.45
413.026	434.17
413.234	475.13
413.443	454.65
413.651	471.03
413.86	528.38
414.068	559.1
414.276	497.66
414.485	628.73
414.693	571.38
414.901	575.48
415.11	569.34
415.318	622.58
415.526	665.59
415.734	618.49
415.943	698.36
416.151	708.6
416.359	765.94
416.567	692.21
416.776	790.52
416.984	806.9
417.192	827.38
417.4	931.83
417.608	817.14
417.817	888.82
418.025	944.11
418.233	1157.1
418.441	1066.99
418.649	1001.46
418.857	1165.29
419.065	1083.38
419.273	1107.95
419.481	1148.91
419.689	1257.45
419.897	1316.84
420.105	1333.23
420.313	1308.65
420.521	1402.86
420.729	1392.62
420.937	1509.35
421.145	1533.93
421.353	1617.9
421.561	1660.9
421.769	1748.97
421.977	1837.03
422.185	1771.49
422.393	1943.52
422.601	1984.48
422.809	2066.4
423.017	2027.49
423.224	2066.4
423.432	2197.47
423.64	2254.81
423.848	2410.46
424.056	2263.01
424.263	2564.06
424.471	2457.56
424.679	2439.13
424.887	2682.84
425.094	2820.05
425.302	2676.7
425.51	2846.68
425.718	2918.36
425.925	2967.51
426.133	3133.39
426.341	3248.08
426.548	3342.28
426.756	3401.68
426.964	3585.99
427.171	3680.2
427.379	3643.34
427.586	3708.87
427.794	4020.16
428.001	3960.77
428.209	4239.3
428.417	4097.99
428.624	4536.25
428.832	4564.92
429.039	4433.85
429.247	4462.52
429.454	5117.87
429.662	5195.7
429.869	4919.22
430.076	5373.87
430.284	5064.63
430.491	5347.25
430.699	5623.72
430.906	5511.08
431.114	5666.73
431.321	5828.52
431.528	5994.4
431.736	6436.77
431.943	6602.65
432.15	6496.16
432.358	6434.72
432.565	6768.54
432.772	6930.33
432.979	7262.1
433.187	7348.11
433.394	7393.17
433.601	7921.54
433.808	7985.03
434.016	7702.41
434.223	8099.72
434.43	8308.61
434.637	8556.41
434.844	9015.16
435.052	9117.56
435.259	9156.47
435.466	9308.02
435.673	9056.12
435.88	9850.73
436.087	10280.8
436.294	10358.63
436.501	9922.41
436.708	10157.92
436.915	10626.91
437.122	10874.71
437.329	11030.36
437.537	11405.14
437.743	11568.98
437.95	11312.98
438.157	12144.45
438.364	12216.13
438.571	12310.34
438.778	12574.53
438.985	13467.44
439.192	13080.38
439.399	13274.93
439.606	13301.56
439.813	13838.12
440.02	14972.7
440.227	14382.88
440.433	14280.49
440.64	14929.69
440.847	14647.07
441.054	15013.66
441.261	16031.5
441.467	15654.67
441.674	16375.56
441.881	16584.45
442.088	16643.84
442.294	16359.17
442.501	16774.91
442.708	17385.21
442.914	18079.47
443.121	18769.63
443.328	18300.65
443.534	19769.04
443.741	19173.08
443.948	18677.47
444.154	20008.65
444.361	19932.88
444.568	19949.26
444.774	20446.92
444.981	20242.12
445.187	20965.06
445.394	21825.2
445.6	21415.61
445.807	23633.56
446.013	22582.95
446.22	22902.43
446.426	24010.39
446.633	24266.38
446.839	24817.29
447.046	23815.83
447.252	25093.76
447.459	25286.27
447.665	24919.68
447.871	26367.6
448.078	27594.33
448.284	25984.63
448.491	26971.75
448.697	28032.6
448.903	28223.06
449.11	28405.33
449.316	27954.77
449.522	28198.48
449.728	28649.03
449.935	29482.56
450.141	29310.53
450.347	29582.91
450.553	28857.93
450.76	29199.94
450.966	30246.45
451.172	29439.55
451.378	30434.86
451.584	30021.17
451.791	30721.58
451.997	30733.87
452.203	31194.66
452.409	31464.99
452.615	30682.67
452.821	29863.48
453.027	29404.74
453.233	30926.38
453.44	29677.12
453.646	29810.23
453.852	29754.94
454.058	30901.8
454.264	29423.17
454.47	30369.33
454.676	29728.31
454.882	30434.86
455.088	27946.58
455.294	28634.7
455.5	28507.72
455.705	28905.03
455.911	27868.76
456.117	27100.77
456.323	26920.55
456.529	25736.82
456.735	26758.76
456.941	25994.87
457.147	25595.51
457.352	25050.75
457.558	24721.03
457.764	24647.3
457.97	23879.32
458.176	23602.84
458.381	23352.99
458.587	22351.53
458.793	22523.56
458.999	21319.35
459.204	22828.71
459.41	22048.43
459.616	20553.41
459.821	20680.39
460.027	20510.41
460.233	19932.88
460.438	19422.94
460.644	19429.08
460.85	18661.09
461.055	18310.89
461.261	18396.9
461.466	17020.67
461.672	16275.21
461.878	17362.68
462.083	16420.61
462.289	16008.97
462.494	15982.35
462.7	15396.63
462.905	14931.74
463.111	15496.98
463.316	15417.11
463.522	14937.88
463.727	14944.03
463.932	14901.02
464.138	15034.14
464.343	15206.17
464.549	14452.52
464.754	14991.13
464.959	14991.13
465.165	14841.63
465.37	14255.91
465.575	13838.12
465.781	14321.45
465.986	14505.76
466.191	14053.16
466.397	13467.44
466.602	12894.01
466.807	13580.08
467.012	13551.41
467.218	13342.52
467.423	13254.45
467.628	13492.02
467.833	14022.44
