Data from USB4F104151__101__13-54-43-128.txt Node

Date: Thu Mar 13 13:54:43 EDT 2025
User: louis
Spectrometer: USB4F10415
Trigger mode: 4
Integration Time (sec): 1.000000E-2
Scans to average: 1
Electric dark correction enabled: true
Nonlinearity correction enabled: false
Boxcar width: 0
XAxis mode: Wavelengths
Number of Pixels in Spectrum: 3648
>>>>>Begin Spectral Data<<<<<
178.204	-27.48
178.424	-27.48
178.644	-27.48
178.864	-7
179.084	-33.62
179.304	-2.9
179.524	-70.48
179.744	9.39
179.964	-7
180.184	11.43
180.404	31.91
180.624	-27.48
180.844	-45.91
181.064	-2.9
181.283	-13.14
181.503	81.07
181.723	36.01
181.943	-19.29
182.163	23.72
182.383	-7
182.602	31.91
182.822	-39.76
183.042	27.82
183.262	62.63
183.482	52.39
183.701	68.78
183.921	-27.48
184.141	-27.48
184.361	17.58
184.58	70.83
184.8	-37.72
185.02	-37.72
185.239	46.25
185.459	31.91
185.679	83.11
185.898	44.2
186.118	70.83
186.338	-72.53
186.557	-13.14
186.777	27.82
186.997	36.01
187.216	5.29
187.436	42.15
187.655	3.24
187.875	5.29
188.095	31.91
188.314	58.54
188.534	33.96
188.753	40.11
188.973	31.91
189.192	33.96
189.412	29.87
189.631	15.53
189.851	38.06
190.07	40.11
190.29	52.39
190.509	-11.09
190.729	15.53
190.948	21.67
191.168	44.2
191.387	25.77
191.607	27.82
191.826	-4.95
192.045	21.67
192.265	27.82
192.484	68.78
192.704	-21.33
192.923	9.39
193.142	27.82
193.362	13.48
193.581	9.39
193.8	-29.52
194.02	48.3
194.239	38.06
194.458	-23.38
194.678	83.11
194.897	40.11
195.116	36.01
195.335	54.44
195.555	-33.62
195.774	42.15
195.993	23.72
196.212	58.54
196.432	-0.85
196.651	19.63
196.87	52.39
197.089	58.54
197.308	44.2
197.528	25.77
197.747	-52.05
197.966	23.72
198.185	23.72
198.404	27.82
198.623	33.96
198.842	23.72
199.062	15.53
199.281	1.19
199.5	-11.09
199.719	19.63
199.938	7.34
200.157	56.49
200.376	11.43
200.595	5.29
200.814	21.67
201.033	44.2
201.252	5.29
201.471	-15.19
201.69	21.67
201.909	38.06
202.128	13.48
202.347	27.82
202.566	-21.33
202.785	7.34
203.004	48.3
203.223	68.78
203.442	-60.24
203.661	95.4
203.879	-54.1
204.098	21.67
204.317	52.39
204.536	19.63
204.755	42.15
204.974	54.44
205.193	38.06
205.411	21.67
205.63	-4.95
205.849	29.87
206.068	62.63
206.287	29.87
206.505	93.35
206.724	97.45
206.943	36.01
207.162	29.87
207.381	66.73
207.599	-23.38
207.818	11.43
208.037	50.35
208.255	-9.05
208.474	-31.57
208.693	29.87
208.911	27.82
209.13	-35.67
209.349	5.29
209.567	1.19
209.786	74.92
210.005	83.11
210.223	95.4
210.442	23.72
210.661	72.87
210.879	64.68
211.098	-66.39
211.316	-15.19
211.535	9.39
211.753	-7
211.972	5.29
212.191	-2.9
212.409	62.63
212.628	38.06
212.846	11.43
213.065	-27.48
213.283	60.59
213.502	19.63
213.72	-66.39
213.938	-27.48
214.157	1.19
214.375	87.21
214.594	99.5
214.812	23.72
215.031	52.39
215.249	36.01
215.467	11.43
215.686	11.43
215.904	-47.96
216.122	29.87
216.341	-31.57
216.559	-9.05
216.778	91.31
216.996	27.82
217.214	81.07
217.432	-23.38
217.651	1.19
217.869	27.82
218.087	-15.19
218.306	-13.14
218.524	19.63
218.742	81.07
218.96	44.2
219.179	23.72
219.397	25.77
219.615	15.53
219.833	40.11
220.051	13.48
220.27	19.63
220.488	62.63
220.706	-39.76
220.924	-15.19
221.142	29.87
221.36	15.53
221.578	7.34
221.796	-45.91
222.015	42.15
222.233	15.53
222.451	58.54
222.669	-35.67
222.887	27.82
223.105	-58.2
223.323	48.3
223.541	68.78
223.759	-2.9
223.977	23.72
224.195	-4.95
224.413	56.49
224.631	48.3
224.849	1.19
225.067	36.01
225.285	-21.33
225.503	21.67
225.721	-33.62
225.939	93.35
226.157	66.73
226.375	42.15
226.592	-0.85
226.81	64.68
227.028	25.77
227.246	81.07
227.464	3.24
227.682	128.17
227.9	-25.43
228.117	27.82
228.335	15.53
228.553	62.63
228.771	-2.9
228.989	-43.86
229.206	62.63
229.424	25.77
229.642	44.2
229.86	9.39
230.077	42.15
230.295	54.44
230.513	42.15
230.731	40.11
230.948	42.15
231.166	33.96
231.384	66.73
231.601	-41.81
231.819	-11.09
232.037	66.73
232.254	36.01
232.472	21.67
232.689	29.87
232.907	1.19
233.125	44.2
233.342	91.31
233.56	-17.24
233.777	3.24
233.995	-27.48
234.213	68.78
234.43	21.67
234.648	60.59
234.865	31.91
235.083	60.59
235.3	-23.38
235.518	17.58
235.735	-19.29
235.953	29.87
236.17	99.5
236.388	87.21
236.605	-43.86
236.822	19.63
237.04	-2.9
237.257	68.78
237.475	-7
237.692	27.82
237.909	-13.14
238.127	44.2
238.344	-15.19
238.562	64.68
238.779	31.91
238.996	29.87
239.214	38.06
239.431	21.67
239.648	52.39
239.865	5.29
240.083	29.87
240.3	36.01
240.517	40.11
240.735	91.31
240.952	-0.85
241.169	79.02
241.386	1.19
241.603	111.78
241.821	27.82
242.038	9.39
242.255	-0.85
242.472	40.11
242.689	-19.29
242.907	113.83
243.124	42.15
243.341	46.25
243.558	27.82
243.775	-58.2
243.992	-0.85
244.209	33.96
244.426	9.39
244.643	17.58
244.86	19.63
245.078	3.24
245.295	105.64
245.512	46.25
245.729	-19.29
245.946	-35.67
246.163	-31.57
246.38	42.15
246.597	50.35
246.814	-15.19
247.031	17.58
247.248	95.4
247.464	62.63
247.681	23.72
247.898	58.54
248.115	36.01
248.332	-15.19
248.549	5.29
248.766	48.3
248.983	15.53
249.2	-19.29
249.417	68.78
249.633	66.73
249.85	119.98
250.067	-11.09
250.284	5.29
250.501	25.77
250.717	-31.57
250.934	-0.85
251.151	50.35
251.368	50.35
251.585	54.44
251.801	-39.76
252.018	9.39
252.235	25.77
252.451	-39.76
252.668	25.77
252.885	-13.14
253.102	54.44
253.318	48.3
253.535	58.54
253.752	36.01
253.968	17.58
254.185	38.06
254.401	60.59
254.618	25.77
254.835	70.83
255.051	97.45
255.268	54.44
255.484	-13.14
255.701	79.02
255.917	9.39
256.134	52.39
256.351	-39.76
256.567	-41.81
256.784	21.67
257	23.72
257.217	27.82
257.433	66.73
257.65	-27.48
257.866	54.44
258.082	7.34
258.299	29.87
258.515	-7
258.732	-21.33
258.948	76.97
259.165	5.29
259.381	42.15
259.597	17.58
259.814	76.97
260.03	52.39
260.246	87.21
260.463	-52.05
260.679	9.39
260.895	54.44
261.112	83.11
261.328	42.15
261.544	85.16
261.761	72.87
261.977	1.19
262.193	5.29
262.409	91.31
262.626	21.67
262.842	13.48
263.058	29.87
263.274	-4.95
263.49	31.91
263.707	-27.48
263.923	70.83
264.139	7.34
264.355	-2.9
264.571	42.15
264.787	46.25
265.004	27.82
265.22	-25.43
265.436	42.15
265.652	13.48
265.868	36.01
266.084	7.34
266.3	-41.81
266.516	36.01
266.732	40.11
266.948	-17.24
267.164	38.06
267.38	-27.48
267.596	13.48
267.812	99.5
268.028	33.96
268.244	31.91
268.46	21.67
268.676	13.48
268.892	-9.05
269.108	33.96
269.324	-19.29
269.54	15.53
269.756	46.25
269.972	-54.1
270.188	-27.48
270.403	-17.24
270.619	85.16
270.835	87.21
271.051	-37.72
271.267	3.24
271.483	7.34
271.698	-4.95
271.914	50.35
272.13	5.29
272.346	60.59
272.562	5.29
272.777	52.39
272.993	-17.24
273.209	124.07
273.425	48.3
273.64	21.67
273.856	23.72
274.072	11.43
274.287	21.67
274.503	19.63
274.719	-11.09
274.934	11.43
275.15	-23.38
275.366	25.77
275.581	-41.81
275.797	42.15
276.012	54.44
276.228	38.06
276.444	13.48
276.659	72.87
276.875	33.96
277.09	33.96
277.306	33.96
277.521	46.25
277.737	97.45
277.952	54.44
278.168	68.78
278.383	-17.24
278.599	19.63
278.814	54.44
279.03	56.49
279.245	7.34
279.461	-25.43
279.676	79.02
279.892	-2.9
280.107	-13.14
280.322	5.29
280.538	54.44
280.753	-43.86
280.969	64.68
281.184	31.91
281.399	17.58
281.615	79.02
281.83	-0.85
282.045	5.29
282.26	70.83
282.476	13.48
282.691	40.11
282.906	25.77
283.122	54.44
283.337	74.92
283.552	56.49
283.767	42.15
283.983	79.02
284.198	64.68
284.413	56.49
284.628	13.48
284.843	40.11
285.058	25.77
285.274	21.67
285.489	105.64
285.704	36.01
285.919	-0.85
286.134	64.68
286.349	-37.72
286.564	38.06
286.779	36.01
286.995	11.43
287.21	60.59
287.425	-4.95
287.64	50.35
287.855	-29.52
288.07	1.19
288.285	23.72
288.5	-0.85
288.715	40.11
288.93	5.29
289.145	38.06
289.36	44.2
289.575	25.77
289.79	38.06
290.004	15.53
290.219	-15.19
290.434	11.43
290.649	42.15
290.864	-15.19
291.079	-19.29
291.294	-64.34
291.509	27.82
291.724	25.77
291.938	56.49
292.153	-9.05
292.368	85.16
292.583	3.24
292.798	27.82
293.012	36.01
293.227	-0.85
293.442	27.82
293.657	-9.05
293.871	-15.19
294.086	31.91
294.301	58.54
294.516	-7
294.73	27.82
294.945	40.11
295.16	21.67
295.374	7.34
295.589	99.5
295.804	-52.05
296.018	25.77
296.233	50.35
296.447	19.63
296.662	3.24
296.877	17.58
297.091	70.83
297.306	52.39
297.52	70.83
297.735	146.6
297.949	58.54
298.164	117.93
298.378	3.24
298.593	3.24
298.807	-0.85
299.022	-9.05
299.236	52.39
299.451	-56.15
299.665	25.77
299.88	19.63
300.094	-11.09
300.309	44.2
300.523	66.73
300.737	15.53
300.952	29.87
301.166	-47.96
301.381	36.01
301.595	-23.38
301.809	15.53
302.024	-25.43
302.238	1.19
302.452	3.24
302.667	85.16
302.881	44.2
303.095	9.39
303.309	50.35
303.524	25.77
303.738	11.43
303.952	21.67
304.166	33.96
304.381	-39.76
304.595	91.31
304.809	31.91
305.023	-50
305.237	11.43
305.452	-29.52
305.666	46.25
305.88	48.3
306.094	21.67
306.308	9.39
306.522	33.96
306.736	15.53
306.95	-33.62
307.164	36.01
307.379	3.24
307.593	66.73
307.807	-25.43
308.021	-9.05
308.235	44.2
308.449	5.29
308.663	3.24
308.877	58.54
309.091	1.19
309.305	70.83
309.519	50.35
309.733	74.92
309.947	-13.14
310.161	44.2
310.374	33.96
310.588	33.96
310.802	11.43
311.016	-4.95
311.23	33.96
311.444	15.53
311.658	-29.52
311.872	23.72
312.085	44.2
312.299	17.58
312.513	27.82
312.727	52.39
312.941	-7
313.154	40.11
313.368	7.34
313.582	95.4
313.796	89.26
314.009	52.39
314.223	-2.9
314.437	54.44
314.651	76.97
314.864	38.06
315.078	-66.39
315.292	56.49
315.505	-15.19
315.719	23.72
315.933	-25.43
316.146	25.77
316.36	60.59
316.573	29.87
316.787	13.48
317.001	36.01
317.214	19.63
317.428	36.01
317.641	-2.9
317.855	66.73
318.068	68.78
318.282	58.54
318.495	23.72
318.709	19.63
318.922	7.34
319.136	-4.95
319.349	1.19
319.563	27.82
319.776	50.35
319.99	66.73
320.203	-25.43
320.417	60.59
320.63	48.3
320.843	87.21
321.057	36.01
321.27	1.19
321.483	-15.19
321.697	23.72
321.91	-27.48
322.124	60.59
322.337	-4.95
322.55	48.3
322.763	46.25
322.977	81.07
323.19	33.96
323.403	11.43
323.617	-17.24
323.83	109.74
324.043	-4.95
324.256	42.15
324.469	74.92
324.683	62.63
324.896	33.96
325.109	-23.38
325.322	-13.14
325.535	54.44
325.748	3.24
325.962	42.15
326.175	42.15
326.388	-37.72
326.601	56.49
326.814	40.11
327.027	1.19
327.24	138.41
327.453	-2.9
327.666	74.92
327.879	27.82
328.092	-2.9
328.305	3.24
328.518	83.11
328.731	64.68
328.944	89.26
329.157	56.49
329.37	-21.33
329.583	27.82
329.796	85.16
330.009	29.87
330.222	7.34
330.435	81.07
330.648	38.06
330.861	38.06
331.073	83.11
331.286	-0.85
331.499	76.97
331.712	42.15
331.925	-54.1
332.138	17.58
332.35	54.44
332.563	60.59
332.776	44.2
332.989	42.15
333.202	17.58
333.414	7.34
333.627	44.2
333.84	-23.38
334.053	56.49
334.265	-0.85
334.478	70.83
334.691	25.77
334.903	54.44
335.116	89.26
335.329	40.11
335.541	87.21
335.754	81.07
335.966	11.43
336.179	48.3
336.392	11.43
336.604	-4.95
336.817	36.01
337.029	-19.29
337.242	101.55
337.454	89.26
337.667	-9.05
337.88	76.97
338.092	7.34
338.305	1.19
338.517	-13.14
338.729	17.58
338.942	31.91
339.154	-13.14
339.367	-4.95
339.579	-7
339.792	3.24
340.004	50.35
340.217	50.35
340.429	103.59
340.641	38.06
340.854	-74.58
341.066	79.02
341.278	27.82
341.491	1.19
341.703	62.63
341.915	25.77
342.128	23.72
342.34	50.35
342.552	-4.95
342.764	23.72
342.977	40.11
343.189	-25.43
343.401	17.58
343.613	27.82
343.826	42.15
344.038	46.25
344.25	1.19
344.462	56.49
344.674	70.83
344.886	7.34
345.099	109.74
345.311	19.63
345.523	17.58
345.735	44.2
345.947	40.11
346.159	64.68
346.371	79.02
346.583	11.43
346.795	128.17
347.007	87.21
347.219	21.67
347.431	-13.14
347.643	68.78
347.855	38.06
348.067	124.07
348.279	1.19
348.491	38.06
348.703	33.96
348.915	42.15
349.127	-27.48
349.339	38.06
349.551	62.63
349.763	52.39
349.975	89.26
350.187	13.48
350.399	29.87
350.61	19.63
350.822	23.72
351.034	64.68
351.246	-70.48
351.458	83.11
351.669	79.02
351.881	44.2
352.093	11.43
352.305	21.67
352.517	101.55
352.728	27.82
352.94	-0.85
353.152	46.25
353.363	11.43
353.575	-19.29
353.787	15.53
353.999	68.78
354.21	11.43
354.422	52.39
354.633	50.35
354.845	-37.72
355.057	13.48
355.268	15.53
355.48	7.34
355.692	54.44
355.903	-13.14
356.115	87.21
356.326	-54.1
356.538	81.07
356.749	11.43
356.961	66.73
357.172	7.34
357.384	66.73
357.595	15.53
357.807	44.2
358.018	27.82
358.23	58.54
358.441	46.25
358.653	40.11
358.864	68.78
359.075	-52.05
359.287	7.34
359.498	31.91
359.709	-7
359.921	29.87
360.132	48.3
360.344	38.06
360.555	48.3
360.766	9.39
360.977	23.72
361.189	83.11
361.4	-45.91
361.611	81.07
361.823	9.39
362.034	-2.9
362.245	11.43
362.456	87.21
362.667	68.78
362.879	-15.19
363.09	5.29
363.301	44.2
363.512	48.3
363.723	60.59
363.935	64.68
364.146	52.39
364.357	81.07
364.568	87.21
364.779	-13.14
364.99	33.96
365.201	-13.14
365.412	52.39
365.623	9.39
365.834	105.64
366.045	52.39
366.256	122.02
366.467	46.25
366.678	3.24
366.889	79.02
367.1	56.49
367.311	60.59
367.522	74.92
367.733	58.54
367.944	81.07
368.155	83.11
368.366	76.97
368.577	58.54
368.788	93.35
368.999	1.19
369.209	29.87
369.42	42.15
369.631	42.15
369.842	89.26
370.053	15.53
370.264	11.43
370.474	52.39
370.685	132.26
370.896	-35.67
371.107	19.63
371.317	21.67
371.528	48.3
371.739	58.54
371.95	79.02
372.16	31.91
372.371	-7
372.582	9.39
372.792	36.01
373.003	117.93
373.214	-15.19
373.424	46.25
373.635	87.21
373.846	99.5
374.056	29.87
374.267	38.06
374.477	27.82
374.688	58.54
374.898	-0.85
375.109	62.63
375.319	54.44
375.53	64.68
375.74	62.63
375.951	44.2
376.161	56.49
376.372	50.35
376.582	101.55
376.793	72.87
377.003	21.67
377.214	42.15
377.424	33.96
377.635	-0.85
377.845	46.25
378.055	111.78
378.266	13.48
378.476	79.02
378.686	38.06
378.897	-19.29
379.107	115.88
379.317	3.24
379.528	3.24
379.738	42.15
379.948	-37.72
380.158	46.25
380.369	25.77
380.579	83.11
380.789	136.36
380.999	66.73
381.21	25.77
381.42	87.21
381.63	42.15
381.84	101.55
382.05	79.02
382.261	66.73
382.471	40.11
382.681	66.73
382.891	48.3
383.101	7.34
383.311	9.39
383.521	74.92
383.731	-43.86
383.941	83.11
384.151	15.53
384.361	46.25
384.571	36.01
384.781	81.07
384.991	40.11
385.201	52.39
385.411	58.54
385.621	56.49
385.831	40.11
386.041	91.31
386.251	136.36
386.461	50.35
386.671	48.3
386.881	1.19
387.091	31.91
387.301	21.67
387.511	3.24
387.72	50.35
387.93	48.3
388.14	38.06
388.35	-19.29
388.56	101.55
388.769	66.73
388.979	64.68
389.189	5.29
389.399	46.25
389.609	-2.9
389.818	58.54
390.028	50.35
390.238	52.39
390.447	19.63
390.657	46.25
390.867	-29.52
391.076	54.44
391.286	33.96
391.496	76.97
391.705	62.63
391.915	109.74
392.125	128.17
392.334	93.35
392.544	119.98
392.753	97.45
392.963	70.83
393.172	105.64
393.382	33.96
393.591	42.15
393.801	70.83
394.01	3.24
394.22	21.67
394.429	54.44
394.639	50.35
394.848	58.54
395.058	72.87
395.267	31.91
395.477	5.29
395.686	52.39
395.895	58.54
396.105	99.5
396.314	115.88
396.524	-2.9
396.733	83.11
396.942	150.7
397.152	122.02
397.361	105.64
397.57	156.84
397.78	91.31
397.989	46.25
398.198	74.92
398.407	27.82
398.617	103.59
398.826	144.55
399.035	60.59
399.244	29.87
399.453	50.35
399.663	48.3
399.872	42.15
400.081	7.34
400.29	58.54
400.499	81.07
400.708	62.63
400.917	93.35
401.127	132.26
401.336	58.54
401.545	130.22
401.754	119.98
401.963	50.35
402.172	29.87
402.381	89.26
402.59	68.78
402.799	115.88
403.008	93.35
403.217	81.07
403.426	89.26
403.635	119.98
403.844	70.83
404.053	25.77
404.262	74.92
404.471	95.4
404.68	81.07
404.888	93.35
405.097	70.83
405.306	25.77
405.515	158.89
405.724	97.45
405.933	128.17
406.142	87.21
406.35	146.6
406.559	132.26
406.768	130.22
406.977	103.59
407.185	105.64
407.394	156.84
407.603	158.89
407.812	128.17
408.02	119.98
408.229	122.02
408.438	126.12
408.646	83.11
408.855	103.59
409.064	95.4
409.272	222.38
409.481	242.85
409.69	146.6
409.898	208.04
410.107	203.94
410.315	203.94
410.524	187.56
410.733	251.05
410.941	226.47
411.15	251.05
411.358	265.38
411.567	197.8
411.775	255.14
411.984	244.9
412.192	296.1
412.401	261.29
412.609	316.58
412.818	320.68
413.026	343.21
413.234	355.49
413.443	357.54
413.651	416.93
413.86	410.79
414.068	283.81
414.276	339.11
414.485	343.21
414.693	423.08
414.901	517.28
415.11	468.13
415.318	414.88
415.526	451.75
415.734	441.51
415.943	523.43
416.151	566.43
416.359	621.73
416.567	545.95
416.776	623.78
416.984	627.87
417.192	642.21
417.4	562.34
417.608	687.26
417.817	662.69
418.025	771.23
418.233	765.09
418.441	734.37
418.649	691.36
418.857	799.9
419.065	861.34
419.273	832.67
419.481	804
419.689	937.12
419.897	912.54
420.105	957.6
420.313	953.5
420.521	1080.47
420.729	1027.23
420.937	1103
421.145	1148.06
421.353	1121.43
421.561	1184.92
421.769	1203.35
421.977	1266.84
422.185	1297.56
422.393	1342.61
422.601	1287.32
422.809	1485.97
423.017	1457.3
423.224	1502.36
423.432	1485.97
423.64	1545.36
423.848	1848.46
424.056	1694.86
424.263	1684.62
424.471	1840.27
424.679	1854.61
424.887	1899.66
425.094	1920.14
425.302	1930.38
425.51	2049.16
425.718	2172.04
425.925	2202.76
426.133	2241.67
426.341	2227.34
426.548	2448.52
426.756	2471.04
426.964	2503.81
427.171	2749.57
427.379	2819.2
427.586	2679.94
427.794	2866.3
428.001	2923.65
428.209	3015.8
428.417	2976.89
428.624	3196.03
428.832	3153.02
429.039	3165.31
429.247	3083.39
429.454	3505.27
429.662	3806.32
429.869	3519.6
430.076	3728.5
430.284	3601.52
430.491	3867.76
430.699	4021.36
430.906	3953.77
431.114	4181.1
431.321	4246.63
431.528	4500.58
431.736	4516.97
431.943	4760.67
432.15	4529.25
432.358	4736.1
432.565	4965.47
432.772	4963.42
432.979	5332.06
433.187	5235.8
433.394	5327.96
433.601	5672.02
433.808	5680.21
434.016	5579.86
434.223	5903.44
434.43	6308.94
434.637	6052.94
434.844	6515.78
435.052	6593.61
435.259	6603.85
435.466	6517.83
435.673	6397
435.88	7040.06
436.087	7357.5
436.294	7296.06
436.501	7345.21
436.708	7281.72
436.915	7631.93
437.122	7836.72
437.329	8008.75
437.537	8035.38
437.743	8158.25
437.95	8078.38
438.157	8510.5
438.364	8913.95
438.571	8940.58
438.778	8862.76
438.985	9735.19
439.192	9444.38
439.399	9665.56
439.606	9520.15
439.813	9970.71
440.02	10617.86
440.227	10527.75
440.433	10345.48
440.64	10624.01
440.847	10558.47
441.054	11125.76
441.261	11693.05
441.467	11348.99
441.674	11842.55
441.881	12090.35
442.088	12174.32
442.294	11936.76
442.501	12102.64
442.708	12446.7
442.914	13087.71
443.121	13734.87
443.328	13231.07
443.534	14220.24
443.741	13724.63
443.948	13663.19
444.154	14529.48
444.361	14425.04
444.568	14631.88
444.774	14425.04
444.981	14754.76
445.187	15248.32
445.394	15784.89
445.6	15772.6
445.807	16960.42
446.013	16382.9
446.22	16655.28
446.426	17202.08
446.633	17349.54
446.839	17914.78
447.046	17408.93
447.252	18598.8
447.459	18162.58
447.665	18371.47
447.871	18971.53
448.078	19624.83
448.284	19137.41
448.491	19577.73
448.697	20099.96
448.903	20216.69
449.11	20820.84
449.316	20190.07
449.522	20870
449.728	21232.49
449.935	21013.35
450.141	21195.62
450.347	21740.38
450.553	20986.73
450.76	21480.29
450.966	21965.66
451.172	21701.47
451.378	22412.12
451.584	21807.97
451.791	22713.17
451.997	22254.42
452.203	22807.37
452.409	22657.87
452.615	22397.78
452.821	21652.32
453.027	21449.57
453.233	22358.87
453.44	21488.48
453.646	22238.04
453.852	22100.83
454.058	22281.05
454.264	21601.12
454.47	22063.96
454.676	21680.99
454.882	22246.23
455.088	20005.75
455.294	20833.13
455.5	21246.82
455.705	21289.83
455.911	20427.63
456.117	20018.04
456.323	19592.06
456.529	18494.35
456.735	19544.96
456.941	18791.31
457.147	18635.66
457.352	17947.54
457.558	17634.21
457.764	17896.35
457.97	17429.41
458.176	17218.47
458.381	17058.73
458.587	16378.8
458.793	16235.44
458.999	15453.12
459.204	16446.38
459.41	16262.07
459.616	14967.75
459.821	14828.49
460.027	14939.08
460.233	14908.36
460.438	13851.61
460.644	13994.97
460.85	13433.82
461.055	13243.36
461.261	13124.58
461.466	12184.56
461.672	11832.31
461.878	12706.79
462.083	11891.7
462.289	11668.47
462.494	11539.45
462.7	11127.81
462.905	10957.83
463.111	11246.59
463.316	11365.37
463.522	11099.14
463.727	11107.33
463.932	10947.59
464.138	10781.7
464.343	10851.33
464.549	10472.46
464.754	10873.86
464.959	10970.12
465.165	10695.69
465.37	10333.2
465.575	10095.63
465.781	10550.28
465.986	10603.53
466.191	10062.87
466.397	9976.85
466.602	9434.14
466.807	9714.71
467.012	9911.32
467.218	9624.6
467.423	9733.14
467.628	9751.57
467.833	10087.44
468.038	9808.92
468.244	9532.44
468.449	9860.12
468.654	9657.37
468.859	9337.88
469.064	9260.06
469.269	9206.81
