Data from USB4F104151__78__13-54-18-771.txt Node

Date: Thu Mar 13 13:54:18 EDT 2025
User: louis
Spectrometer: USB4F10415
Trigger mode: 4
Integration Time (sec): 1.000000E-2
Scans to average: 1
Electric dark correction enabled: true
Nonlinearity correction enabled: false
Boxcar width: 0
XAxis mode: Wavelengths
Number of Pixels in Spectrum: 3648
>>>>>Begin Spectral Data<<<<<
178.204	-64
178.424	-64
178.644	-64
178.864	-96.77
179.084	-84.48
179.304	-61.95
179.524	-12.8
179.744	-4.61
179.964	9.73
180.184	-55.81
180.404	-18.94
180.624	11.78
180.844	-4.61
181.064	36.35
181.283	5.63
181.503	24.06
181.723	71.17
181.943	1.54
182.163	32.26
182.383	34.3
182.602	7.68
182.822	54.78
183.042	38.4
183.262	-29.18
183.482	46.59
183.701	30.21
183.921	30.21
184.141	26.11
184.361	7.68
184.58	-35.33
184.8	50.69
185.02	7.68
185.239	11.78
185.459	19.97
185.679	9.73
185.898	1.54
186.118	50.69
186.338	1.54
186.557	-43.52
186.777	5.63
186.997	52.74
187.216	28.16
187.436	24.06
187.655	-6.66
187.875	71.17
188.095	38.4
188.314	46.59
188.534	-117.25
188.753	71.17
188.973	62.98
189.192	9.73
189.412	79.36
189.631	85.5
189.851	95.74
190.07	-6.66
190.29	58.88
190.509	89.6
190.729	11.78
190.948	65.02
191.168	13.82
191.387	30.21
191.607	-25.09
191.826	77.31
192.045	34.3
192.265	32.26
192.484	-8.7
192.704	-59.9
192.923	46.59
193.142	71.17
193.362	-14.85
193.581	-45.57
193.8	48.64
194.02	46.59
194.239	34.3
194.458	19.97
194.678	17.92
194.897	48.64
195.116	26.11
195.335	-18.94
195.555	26.11
195.774	7.68
195.993	28.16
196.212	56.83
196.432	30.21
196.651	52.74
196.87	-18.94
197.089	118.27
197.308	42.5
197.528	75.26
197.747	56.83
197.966	28.16
198.185	69.12
198.404	-6.66
198.623	-43.52
198.842	46.59
199.062	26.11
199.281	-12.8
199.5	38.4
199.719	22.02
199.938	22.02
200.157	1.54
200.376	34.3
200.595	79.36
200.814	40.45
201.033	11.78
201.252	-4.61
201.471	34.3
201.69	46.59
201.909	44.54
202.128	5.63
202.347	13.82
202.566	-27.14
202.785	56.83
203.004	-33.28
203.223	91.65
203.442	-35.33
203.661	89.6
203.879	19.97
204.098	65.02
204.317	-25.09
204.536	-23.04
204.755	-16.9
204.974	34.3
205.193	81.41
205.411	40.45
205.63	-20.99
205.849	7.68
206.068	5.63
206.287	79.36
206.505	-29.18
206.724	44.54
206.943	50.69
207.162	54.78
207.381	83.45
207.599	42.5
207.818	5.63
208.037	48.64
208.255	19.97
208.474	7.68
208.693	-6.66
208.911	73.21
209.13	50.69
209.349	69.12
209.567	34.3
209.786	87.55
210.005	19.97
210.223	52.74
210.442	-16.9
210.661	7.68
210.879	24.06
211.098	-14.85
211.316	67.07
211.535	17.92
211.753	-0.51
211.972	36.35
212.191	28.16
212.409	54.78
212.628	-16.9
212.846	71.17
213.065	-53.76
213.283	-6.66
213.502	44.54
213.72	44.54
213.938	-23.04
214.157	5.63
214.375	28.16
214.594	34.3
214.812	48.64
215.031	58.88
215.249	44.54
215.467	56.83
215.686	1.54
215.904	40.45
216.122	-16.9
216.341	60.93
216.559	-8.7
216.778	19.97
216.996	81.41
217.214	73.21
217.432	36.35
217.651	73.21
217.869	-14.85
218.087	22.02
218.306	-10.75
218.524	28.16
218.742	34.3
218.96	-18.94
219.179	69.12
219.397	-23.04
219.615	77.31
219.833	-29.18
220.051	-16.9
220.27	30.21
220.488	5.63
220.706	-6.66
220.924	48.64
221.142	114.17
221.36	26.11
221.578	60.93
221.796	36.35
222.015	40.45
222.233	-14.85
222.451	7.68
222.669	9.73
222.887	101.89
223.105	89.6
223.323	48.64
223.541	11.78
223.759	103.93
223.977	62.98
224.195	71.17
224.413	-27.14
224.631	30.21
224.849	73.21
225.067	79.36
225.285	-51.71
225.503	79.36
225.721	15.87
225.939	17.92
226.157	-25.09
226.375	13.82
226.592	30.21
226.81	48.64
227.028	26.11
227.246	132.61
227.464	-41.47
227.682	-0.51
227.9	58.88
228.117	60.93
228.335	17.92
228.553	-6.66
228.771	44.54
228.989	5.63
229.206	40.45
229.424	22.02
229.642	42.5
229.86	114.17
230.077	77.31
230.295	71.17
230.513	13.82
230.731	46.59
230.948	-18.94
231.166	17.92
231.384	-37.38
231.601	-8.7
231.819	30.21
232.037	50.69
232.254	-16.9
232.472	9.73
232.689	-29.18
232.907	19.97
233.125	77.31
233.342	38.4
233.56	40.45
233.777	30.21
233.995	-47.62
234.213	73.21
234.43	-6.66
234.648	-10.75
234.865	75.26
235.083	69.12
235.3	71.17
235.518	87.55
235.735	132.61
235.953	15.87
236.17	79.36
236.388	83.45
236.605	-18.94
236.822	26.11
237.04	11.78
237.257	42.5
237.475	34.3
237.692	101.89
237.909	30.21
238.127	79.36
238.344	7.68
238.562	32.26
238.779	108.03
238.996	58.88
239.214	11.78
239.431	28.16
239.648	-29.18
239.865	42.5
240.083	93.69
240.3	120.32
240.517	50.69
240.735	19.97
240.952	69.12
241.169	26.11
241.386	67.07
241.603	38.4
241.821	-14.85
242.038	40.45
242.255	26.11
242.472	44.54
242.689	87.55
242.907	52.74
243.124	13.82
243.341	-14.85
243.558	62.98
243.775	40.45
243.992	48.64
244.209	52.74
244.426	79.36
244.643	-2.56
244.86	15.87
245.078	-49.66
245.295	32.26
245.512	81.41
245.729	17.92
245.946	81.41
246.163	-6.66
246.38	-4.61
246.597	-16.9
246.814	26.11
247.031	-84.48
247.248	50.69
247.464	44.54
247.681	50.69
247.898	73.21
248.115	24.06
248.332	-14.85
248.549	58.88
248.766	-8.7
248.983	-0.51
249.2	-10.75
249.417	75.26
249.633	-16.9
249.85	50.69
250.067	-33.28
250.284	60.93
250.501	17.92
250.717	52.74
250.934	34.3
251.151	101.89
251.368	30.21
251.585	56.83
251.801	36.35
252.018	42.5
252.235	7.68
252.451	73.21
252.668	-8.7
252.885	1.54
253.102	60.93
253.318	24.06
253.535	22.02
253.752	110.08
253.968	-25.09
254.185	-14.85
254.401	26.11
254.618	24.06
254.835	-61.95
255.051	-14.85
255.268	50.69
255.484	71.17
255.701	122.37
255.917	36.35
256.134	32.26
256.351	-12.8
256.567	40.45
256.784	34.3
257	-43.52
257.217	40.45
257.433	3.58
257.65	30.21
257.866	79.36
258.082	56.83
258.299	-33.28
258.515	30.21
258.732	73.21
258.948	9.73
259.165	62.98
259.381	73.21
259.597	79.36
259.814	9.73
260.03	44.54
260.246	36.35
260.463	-39.42
260.679	62.98
260.895	34.3
261.112	124.41
261.328	-8.7
261.544	13.82
261.761	-20.99
261.977	-16.9
262.193	13.82
262.409	46.59
262.626	44.54
262.842	30.21
263.058	11.78
263.274	95.74
263.49	-4.61
263.707	110.08
263.923	67.07
264.139	-2.56
264.355	-0.51
264.571	69.12
264.787	-4.61
265.004	11.78
265.22	56.83
265.436	22.02
265.652	65.02
265.868	58.88
266.084	-8.7
266.3	-25.09
266.516	56.83
266.732	101.89
266.948	-29.18
267.164	34.3
267.38	40.45
267.596	-23.04
267.812	46.59
268.028	83.45
268.244	97.79
268.46	77.31
268.676	22.02
268.892	-45.57
269.108	-14.85
269.324	3.58
269.54	24.06
269.756	130.56
269.972	-6.66
270.188	122.37
270.403	46.59
270.619	-25.09
270.835	22.02
271.051	48.64
271.267	93.69
271.483	19.97
271.698	7.68
271.914	17.92
272.13	17.92
272.346	24.06
272.562	19.97
272.777	60.93
272.993	85.5
273.209	32.26
273.425	62.98
273.64	-0.51
273.856	-25.09
274.072	-6.66
274.287	44.54
274.503	34.3
274.719	65.02
274.934	56.83
275.15	19.97
275.366	75.26
275.581	48.64
275.797	-4.61
276.012	38.4
276.228	118.27
276.444	13.82
276.659	24.06
276.875	28.16
277.09	28.16
277.306	48.64
277.521	73.21
277.737	69.12
277.952	75.26
278.168	15.87
278.383	-35.33
278.599	52.74
278.814	7.68
279.03	-29.18
279.245	-8.7
279.461	17.92
279.676	67.07
279.892	19.97
280.107	105.98
280.322	46.59
280.538	134.65
280.753	50.69
280.969	30.21
281.184	11.78
281.399	56.83
281.615	22.02
281.83	58.88
282.045	83.45
282.26	79.36
282.476	26.11
282.691	56.83
282.906	34.3
283.122	-64
283.337	-6.66
283.552	69.12
283.767	19.97
283.983	73.21
284.198	19.97
284.413	67.07
284.628	75.26
284.843	-49.66
285.058	9.73
285.274	52.74
285.489	40.45
285.704	34.3
285.919	-51.71
286.134	-18.94
286.349	9.73
286.564	79.36
286.779	73.21
286.995	56.83
287.21	-6.66
287.425	32.26
287.64	30.21
287.855	65.02
288.07	67.07
288.285	19.97
288.5	71.17
288.715	87.55
288.93	3.58
289.145	65.02
289.36	58.88
289.575	36.35
289.79	38.4
290.004	46.59
290.219	30.21
290.434	9.73
290.649	34.3
290.864	89.6
291.079	48.64
291.294	65.02
291.509	85.5
291.724	38.4
291.938	24.06
292.153	93.69
292.368	87.55
292.583	81.41
292.798	54.78
293.012	99.84
293.227	48.64
293.442	7.68
293.657	34.3
293.871	95.74
294.086	40.45
294.301	34.3
294.516	81.41
294.73	128.51
294.945	3.58
295.16	-94.72
295.374	32.26
295.589	79.36
295.804	95.74
296.018	-25.09
296.233	-14.85
296.447	13.82
296.662	-6.66
296.877	28.16
297.091	58.88
297.306	48.64
297.52	69.12
297.735	108.03
297.949	30.21
298.164	105.98
298.378	3.58
298.593	56.83
298.807	24.06
299.022	13.82
299.236	-33.28
299.451	13.82
299.665	15.87
299.88	36.35
300.094	28.16
300.309	5.63
300.523	69.12
300.737	60.93
300.952	-8.7
301.166	60.93
301.381	32.26
301.595	7.68
301.809	-66.05
302.024	32.26
302.238	-39.42
302.452	73.21
302.667	28.16
302.881	-25.09
303.095	3.58
303.309	40.45
303.524	-4.61
303.738	-0.51
303.952	44.54
304.166	44.54
304.381	50.69
304.595	97.79
304.809	7.68
305.023	48.64
305.237	28.16
305.452	36.35
305.666	40.45
305.88	60.93
306.094	-14.85
306.308	44.54
306.522	81.41
306.736	-20.99
306.95	7.68
307.164	15.87
307.379	50.69
307.593	110.08
307.807	38.4
308.021	50.69
308.235	13.82
308.449	9.73
308.663	60.93
308.877	83.45
309.091	42.5
309.305	24.06
309.519	-27.14
309.733	38.4
309.947	1.54
310.161	73.21
310.374	7.68
310.588	54.78
310.802	34.3
311.016	44.54
311.23	26.11
311.444	81.41
311.658	-4.61
311.872	-0.51
312.085	73.21
312.299	40.45
312.513	30.21
312.727	46.59
312.941	38.4
313.154	48.64
313.368	110.08
313.582	128.51
313.796	28.16
314.009	52.74
314.223	34.3
314.437	7.68
314.651	-20.99
314.864	17.92
315.078	83.45
315.292	7.68
315.505	28.16
315.719	19.97
315.933	22.02
316.146	17.92
316.36	-39.42
316.573	93.69
316.787	56.83
317.001	69.12
317.214	71.17
317.428	81.41
317.641	19.97
317.855	-0.51
318.068	105.98
318.282	1.54
318.495	118.27
318.709	26.11
318.922	36.35
319.136	13.82
319.349	28.16
319.563	73.21
319.776	17.92
319.99	5.63
320.203	99.84
320.417	42.5
320.63	34.3
320.843	26.11
321.057	36.35
321.27	60.93
321.483	114.17
321.697	81.41
321.91	81.41
322.124	83.45
322.337	32.26
322.55	87.55
322.763	48.64
322.977	-4.61
323.19	24.06
323.403	146.94
323.617	81.41
323.83	50.69
324.043	9.73
324.256	17.92
324.469	15.87
324.683	89.6
324.896	-10.75
325.109	62.98
325.322	22.02
325.535	83.45
325.748	60.93
325.962	99.84
326.175	24.06
326.388	36.35
326.601	38.4
326.814	24.06
327.027	44.54
327.24	89.6
327.453	46.59
327.666	7.68
327.879	48.64
328.092	34.3
328.305	42.5
328.518	-0.51
328.731	-29.18
328.944	42.5
329.157	54.78
329.37	13.82
329.583	87.55
329.796	-2.56
330.009	-25.09
330.222	32.26
330.435	75.26
330.648	62.98
330.861	17.92
331.073	73.21
331.286	95.74
331.499	-10.75
331.712	-0.51
331.925	93.69
332.138	101.89
332.35	38.4
332.563	15.87
332.776	40.45
332.989	-27.14
333.202	-23.04
333.414	40.45
333.627	77.31
333.84	105.98
334.053	-0.51
334.265	85.5
334.478	124.41
334.691	-8.7
334.903	87.55
335.116	50.69
335.329	79.36
335.541	-29.18
335.754	52.74
335.966	79.36
336.179	54.78
336.392	24.06
336.604	28.16
336.817	-23.04
337.029	9.73
337.242	73.21
337.454	13.82
337.667	13.82
337.88	85.5
338.092	11.78
338.305	95.74
338.517	-14.85
338.729	79.36
338.942	42.5
339.154	-12.8
339.367	46.59
339.579	105.98
339.792	48.64
340.004	42.5
340.217	52.74
340.429	69.12
340.641	-12.8
340.854	30.21
341.066	9.73
341.278	30.21
341.491	130.56
341.703	17.92
341.915	44.54
342.128	-8.7
342.34	-29.18
342.552	7.68
342.764	-29.18
342.977	73.21
343.189	48.64
343.401	48.64
343.613	40.45
343.826	26.11
344.038	-31.23
344.25	67.07
344.462	11.78
344.674	9.73
344.886	-6.66
345.099	73.21
345.311	38.4
345.523	87.55
345.735	22.02
345.947	40.45
346.159	-27.14
346.371	79.36
346.583	-33.28
346.795	22.02
347.007	-41.47
347.219	73.21
347.431	9.73
347.643	62.98
347.855	77.31
348.067	71.17
348.279	-23.04
348.491	108.03
348.703	42.5
348.915	67.07
349.127	22.02
349.339	30.21
349.551	28.16
349.763	26.11
349.975	46.59
350.187	36.35
350.399	3.58
350.61	15.87
350.822	26.11
351.034	87.55
351.246	-10.75
351.458	101.89
351.669	17.92
351.881	5.63
352.093	13.82
352.305	42.5
352.517	19.97
352.728	87.55
352.94	34.3
353.152	50.69
353.363	5.63
353.575	38.4
353.787	34.3
353.999	5.63
354.21	89.6
354.422	81.41
354.633	-20.99
354.845	-6.66
355.057	-4.61
355.268	-0.51
355.48	87.55
355.692	73.21
355.903	52.74
356.115	-18.94
356.326	-29.18
356.538	5.63
356.749	28.16
356.961	19.97
357.172	-4.61
357.384	-14.85
357.595	83.45
357.807	126.46
358.018	-12.8
358.23	22.02
358.441	13.82
358.653	7.68
358.864	32.26
359.075	50.69
359.287	91.65
359.498	48.64
359.709	62.98
359.921	-2.56
360.132	-6.66
360.344	52.74
360.555	32.26
360.766	87.55
360.977	38.4
361.189	89.6
361.4	126.46
361.611	32.26
361.823	22.02
362.034	54.78
362.245	34.3
362.456	69.12
362.667	60.93
362.879	65.02
363.09	-10.75
363.301	26.11
363.512	67.07
363.723	75.26
363.935	17.92
364.146	65.02
364.357	40.45
364.568	93.69
364.779	65.02
364.99	108.03
365.201	75.26
365.412	3.58
365.623	13.82
365.834	67.07
366.045	62.98
366.256	7.68
366.467	77.31
366.678	79.36
366.889	48.64
367.1	9.73
367.311	3.58
367.522	52.74
367.733	-20.99
367.944	79.36
368.155	65.02
368.366	62.98
368.577	15.87
368.788	101.89
368.999	7.68
369.209	-8.7
369.42	103.93
369.631	56.83
369.842	77.31
370.053	103.93
370.264	54.78
370.474	67.07
370.685	69.12
370.896	52.74
371.107	120.32
371.317	38.4
371.528	11.78
371.739	91.65
371.95	101.89
372.16	101.89
372.371	52.74
372.582	28.16
372.792	30.21
373.003	9.73
373.214	79.36
373.424	30.21
373.635	-35.33
373.846	-4.61
374.056	34.3
374.267	5.63
374.477	46.59
374.688	32.26
374.898	11.78
375.109	26.11
375.319	54.78
375.53	56.83
375.74	69.12
375.951	56.83
376.161	26.11
376.372	-6.66
376.582	24.06
376.793	99.84
377.003	46.59
377.214	58.88
377.424	79.36
377.635	-20.99
377.845	67.07
378.055	83.45
378.266	7.68
378.476	103.93
378.686	58.88
378.897	56.83
379.107	44.54
379.317	48.64
379.528	48.64
379.738	103.93
379.948	81.41
380.158	101.89
380.369	93.69
380.579	50.69
380.789	17.92
380.999	30.21
381.21	40.45
381.42	-18.94
381.63	56.83
381.84	34.3
382.05	7.68
382.261	60.93
382.471	46.59
382.681	36.35
382.891	105.98
383.101	54.78
383.311	32.26
383.521	159.23
383.731	34.3
383.941	40.45
384.151	26.11
384.361	34.3
384.571	24.06
384.781	7.68
384.991	-16.9
385.201	122.37
385.411	36.35
385.621	58.88
385.831	58.88
386.041	95.74
386.251	73.21
386.461	126.46
386.671	9.73
386.881	13.82
387.091	-4.61
387.301	71.17
387.511	118.27
387.72	116.22
387.93	67.07
388.14	17.92
388.35	36.35
388.56	108.03
388.769	79.36
388.979	69.12
389.189	9.73
389.399	65.02
389.609	-0.51
389.818	54.78
390.028	52.74
390.238	112.13
390.447	73.21
390.657	5.63
390.867	-39.42
391.076	151.04
391.286	34.3
391.496	36.35
391.705	116.22
391.915	81.41
392.125	17.92
392.334	101.89
392.544	50.69
392.753	91.65
392.963	3.58
393.172	108.03
393.382	42.5
393.591	122.37
393.801	42.5
394.01	148.99
394.22	38.4
394.429	83.45
394.639	77.31
394.848	36.35
395.058	-18.94
395.267	65.02
395.477	30.21
395.686	122.37
395.895	120.32
396.105	52.74
396.314	24.06
396.524	60.93
396.733	-31.23
396.942	85.5
397.152	7.68
397.361	138.75
397.57	24.06
397.78	81.41
397.989	81.41
398.198	132.61
398.407	62.98
398.617	101.89
398.826	48.64
399.035	132.61
399.244	65.02
399.453	58.88
399.663	13.82
399.872	73.21
400.081	79.36
400.29	108.03
400.499	17.92
400.708	116.22
400.917	110.08
401.127	7.68
401.336	103.93
401.545	108.03
401.754	22.02
401.963	83.45
402.172	81.41
402.381	42.5
402.59	95.74
402.799	62.98
403.008	91.65
403.217	99.84
403.426	77.31
403.635	142.85
403.844	163.33
404.053	116.22
404.262	65.02
404.471	40.45
404.68	144.89
404.888	101.89
405.097	50.69
405.306	134.65
405.515	75.26
405.724	171.52
405.933	126.46
406.142	91.65
406.35	114.17
406.559	95.74
406.768	183.81
406.977	144.89
407.185	128.51
407.394	151.04
407.603	108.03
407.812	114.17
408.02	138.75
408.229	103.93
408.438	214.52
408.646	179.71
408.855	181.76
409.064	183.81
409.272	198.14
409.481	189.95
409.69	194.05
409.898	228.86
410.107	155.13
410.315	206.33
410.524	253.44
410.733	212.48
410.941	177.66
411.15	194.05
411.358	175.61
411.567	275.96
411.775	259.58
411.984	273.92
412.192	237.05
412.401	243.2
412.609	310.78
412.818	337.4
413.026	292.35
413.234	337.4
413.443	372.22
413.651	384.51
413.86	437.75
414.068	402.94
414.276	435.71
414.485	372.22
414.693	321.02
414.901	404.99
415.11	488.95
415.318	474.62
415.526	480.76
415.734	478.71
415.943	433.66
416.151	503.29
416.359	507.38
416.567	607.73
416.776	568.82
416.984	562.68
417.192	597.49
417.4	640.5
417.608	591.35
417.817	632.31
418.025	683.51
418.233	718.33
418.441	697.85
418.649	753.14
418.857	847.35
419.065	769.52
419.273	871.92
419.481	818.68
419.689	853.49
419.897	871.92
420.105	904.69
420.313	855.54
420.521	988.66
420.729	1041.9
420.937	1002.99
421.145	1109.49
421.353	1136.11
421.561	1220.08
421.769	1154.54
421.977	1304.04
422.185	1238.51
422.393	1381.87
422.601	1463.79
422.809	1381.87
423.017	1463.79
423.224	1582.57
423.432	1512.94
423.64	1560.04
423.848	1603.05
424.056	1586.66
424.263	1754.6
424.471	1789.41
424.679	1867.24
424.887	1850.85
425.094	1992.16
425.302	2008.55
425.51	1926.63
425.718	2170.33
425.925	2141.66
426.133	2209.25
426.341	2295.26
426.548	2301.4
426.756	2493.91
426.964	2446.81
427.171	2543.07
427.379	2645.46
427.586	2788.82
427.794	2692.57
428.001	2756.05
428.209	3055.06
428.417	2889.17
428.624	3089.87
428.832	3128.78
429.039	3212.75
429.247	3182.03
429.454	3536.33
429.662	3732.94
429.869	3524.04
430.076	3761.61
430.284	3507.66
430.491	3655.11
430.699	4040.13
430.906	3976.64
431.114	3939.78
431.321	4146.62
431.528	4283.84
431.736	4599.23
431.943	4588.99
432.15	4421.05
432.358	4576.7
432.565	4707.77
432.772	4883.89
432.979	5137.84
433.187	5074.35
433.394	5293.49
433.601	5406.13
433.808	5496.24
434.016	5395.89
434.223	5629.35
434.43	6098.34
434.637	6057.38
434.844	6333.86
435.052	6456.73
435.259	6374.81
435.466	6522.27
435.673	6493.6
435.88	6927.77
436.087	7148.95
436.294	7218.58
436.501	7032.21
436.708	7044.5
436.915	7318.93
437.122	7716.23
437.329	7667.08
437.537	7947.65
437.743	8117.64
437.95	8007.05
438.157	8426.88
438.364	8678.78
438.571	8666.49
438.778	8801.66
438.985	9516.4
439.192	8930.68
439.399	9510.25
439.606	9133.43
439.813	9868.65
440.02	10454.37
440.227	10210.66
440.433	10175.84
440.64	10478.94
440.847	10265.96
441.054	10728.8
441.261	11402.58
441.467	11066.71
441.674	11289.94
441.881	11740.49
442.088	11758.92
442.294	11705.68
442.501	11826.51
442.708	12105.03
442.914	12836.16
443.121	13108.54
443.328	12709.18
443.534	13806.89
443.741	13452.59
443.948	13221.17
444.154	14140.71
444.361	14099.75
444.568	14279.97
444.774	14130.47
444.981	14359.84
445.187	14820.64
445.394	15400.21
445.6	15107.35
445.807	16727.3
446.013	15863.05
446.22	16301.32
446.426	16741.63
446.633	16813.31
446.839	17501.43
447.046	16975.1
447.252	17800.43
447.459	17661.17
447.665	17626.36
447.871	18429.16
448.078	19205.34
448.284	18257.13
448.491	18939.1
448.697	19340.5
448.903	19541.21
449.11	19952.85
449.316	19567.83
449.522	19807.44
449.728	20565.19
449.935	20509.9
450.141	20702.4
450.347	20985.02
450.553	20112.59
450.76	20497.61
450.966	21324.99
451.172	21333.18
451.378	21681.33
451.584	20835.52
451.791	21304.51
451.997	21529.78
452.203	21961.9
452.409	22150.32
452.615	21667
452.821	20870.34
453.027	20987.07
453.233	21630.13
453.44	20858.05
453.646	20894.91
453.852	20960.45
454.058	21646.52
454.264	20696.26
454.47	21085.37
454.676	20378.83
454.882	21384.38
455.088	19590.36
455.294	19817.68
455.5	20135.12
455.705	19926.22
455.911	19262.68
456.117	18840.8
456.323	18574.56
456.529	17673.46
456.735	18613.48
456.941	17974.51
457.147	17448.18
457.352	17050.88
457.558	16862.46
457.764	16870.65
457.97	16770.3
458.176	16090.38
458.381	16405.77
458.587	15486.23
458.793	15467.8
458.999	14763.29
459.204	15961.36
459.41	15412.5
459.616	14153
459.821	14290.21
460.027	14230.82
460.233	13999.4
460.438	13313.33
460.644	13532.47
460.85	12752.19
461.055	12653.89
461.261	12586.3
461.466	11523.41
461.672	11236.69
461.878	12170.57
462.083	11509.07
462.289	11146.58
462.494	11089.24
462.7	10546.53
462.905	10229.09
463.111	10691.93
463.316	10685.79
463.522	10593.63
463.727	10614.11
463.932	10497.38
464.138	10425.7
464.343	10382.69
464.549	10143.08
464.754	10304.87
464.959	10315.11
465.165	10151.27
465.37	9866.6
465.575	9459.06
465.781	9950.57
465.986	9921.9
466.191	9663.85
466.397	9397.62
466.602	9086.33
466.807	9239.92
467.012	9225.59
467.218	9227.64
467.423	8992.12
467.628	9254.26
467.833	9713
468.038	9248.11
468.244	8928.63
468.449	9565.55
468.654	9162.1
468.859	8992.12
469.064	8883.58
