Data from USB4F104151__153__13-58-35-273.txt Node

Date: Thu Mar 13 13:58:35 EDT 2025
User: louis
Spectrometer: USB4F10415
Trigger mode: 4
Integration Time (sec): 1.000000E-2
Scans to average: 1
Electric dark correction enabled: true
Nonlinearity correction enabled: false
Boxcar width: 0
XAxis mode: Wavelengths
Number of Pixels in Spectrum: 3648
>>>>>Begin Spectral Data<<<<<
178.204	-13.14
178.424	-13.14
178.644	-13.14
178.864	-11.09
179.084	-19.29
179.304	7.34
179.524	-39.76
179.744	23.72
179.964	31.91
180.184	-0.85
180.404	3.24
180.624	52.39
180.844	-35.67
181.064	15.53
181.283	-47.96
181.503	-19.29
181.723	9.39
181.943	15.53
182.163	36.01
182.383	-45.91
182.602	50.35
182.822	13.48
183.042	1.19
183.262	56.49
183.482	17.58
183.701	93.35
183.921	66.73
184.141	5.29
184.361	74.92
184.58	-0.85
184.8	27.82
185.02	111.78
185.239	9.39
185.459	60.59
185.679	76.97
185.898	58.54
186.118	25.77
186.338	40.11
186.557	68.78
186.777	25.77
186.997	68.78
187.216	136.36
187.436	152.74
187.655	70.83
187.875	62.63
188.095	9.39
188.314	52.39
188.534	85.16
188.753	42.15
188.973	54.44
189.192	95.4
189.412	-17.24
189.631	17.58
189.851	7.34
190.07	46.25
190.29	-2.9
190.509	89.26
190.729	23.72
190.948	5.29
191.168	179.37
191.387	50.35
191.607	21.67
191.826	132.26
192.045	7.34
192.265	21.67
192.484	15.53
192.704	68.78
192.923	68.78
193.142	5.29
193.362	52.39
193.581	105.64
193.8	19.63
194.02	36.01
194.239	76.97
194.458	62.63
194.678	19.63
194.897	62.63
195.116	91.31
195.335	15.53
195.555	38.06
195.774	-4.95
195.993	29.87
196.212	9.39
196.432	60.59
196.651	105.64
196.87	19.63
197.089	31.91
197.308	33.96
197.528	97.45
197.747	42.15
197.966	62.63
198.185	85.16
198.404	50.35
198.623	7.34
198.842	109.74
199.062	42.15
199.281	93.35
199.5	81.07
199.719	95.4
199.938	-29.52
200.157	46.25
200.376	101.55
200.595	50.35
200.814	72.87
201.033	31.91
201.252	85.16
201.471	89.26
201.69	11.43
201.909	50.35
202.128	97.45
202.347	79.02
202.566	44.2
202.785	5.29
203.004	21.67
203.223	56.49
203.442	66.73
203.661	89.26
203.879	42.15
204.098	31.91
204.317	62.63
204.536	79.02
204.755	-17.24
204.974	23.72
205.193	44.2
205.411	-13.14
205.63	19.63
205.849	25.77
206.068	117.93
206.287	-0.85
206.505	81.07
206.724	44.2
206.943	-19.29
207.162	101.55
207.381	1.19
207.599	95.4
207.818	42.15
208.037	-7
208.255	64.68
208.474	44.2
208.693	-7
208.911	42.15
209.13	-47.96
209.349	52.39
209.567	15.53
209.786	36.01
210.005	76.97
210.223	62.63
210.442	70.83
210.661	36.01
210.879	83.11
211.098	21.67
211.316	11.43
211.535	38.06
211.753	-4.95
211.972	23.72
212.191	29.87
212.409	25.77
212.628	62.63
212.846	48.3
213.065	13.48
213.283	95.4
213.502	1.19
213.72	99.5
213.938	40.11
214.157	9.39
214.375	-9.05
214.594	1.19
214.812	29.87
215.031	-11.09
215.249	74.92
215.467	9.39
215.686	62.63
215.904	46.25
216.122	15.53
216.341	56.49
216.559	56.49
216.778	81.07
216.996	-2.9
217.214	85.16
217.432	-0.85
217.651	48.3
217.869	103.59
218.087	48.3
218.306	1.19
218.524	42.15
218.742	23.72
218.96	50.35
219.179	72.87
219.397	17.58
219.615	54.44
219.833	50.35
220.051	40.11
220.27	60.59
220.488	7.34
220.706	50.35
220.924	46.25
221.142	33.96
221.36	11.43
221.578	97.45
221.796	3.24
222.015	-25.43
222.233	72.87
222.451	25.77
222.669	15.53
222.887	50.35
223.105	-4.95
223.323	-13.14
223.541	31.91
223.759	38.06
223.977	97.45
224.195	38.06
224.413	81.07
224.631	46.25
224.849	27.82
225.067	31.91
225.285	-17.24
225.503	19.63
225.721	-4.95
225.939	-52.05
226.157	119.98
226.375	13.48
226.592	-25.43
226.81	58.54
227.028	62.63
227.246	146.6
227.464	36.01
227.682	101.55
227.9	52.39
228.117	62.63
228.335	19.63
228.553	42.15
228.771	50.35
228.989	48.3
229.206	27.82
229.424	64.68
229.642	7.34
229.86	48.3
230.077	87.21
230.295	50.35
230.513	19.63
230.731	27.82
230.948	36.01
231.166	48.3
231.384	-9.05
231.601	-0.85
231.819	66.73
232.037	-4.95
232.254	-39.76
232.472	-19.29
232.689	81.07
232.907	64.68
233.125	70.83
233.342	81.07
233.56	81.07
233.777	9.39
233.995	91.31
234.213	95.4
234.43	50.35
234.648	60.59
234.865	33.96
235.083	58.54
235.3	52.39
235.518	36.01
235.735	68.78
235.953	107.69
236.17	27.82
236.388	-19.29
236.605	19.63
236.822	58.54
237.04	-7
237.257	9.39
237.475	36.01
237.692	9.39
237.909	9.39
238.127	-7
238.344	56.49
238.562	107.69
238.779	48.3
238.996	38.06
239.214	-4.95
239.431	60.59
239.648	1.19
239.865	101.55
240.083	-29.52
240.3	76.97
240.517	29.87
240.735	68.78
240.952	117.93
241.169	44.2
241.386	27.82
241.603	-13.14
241.821	-103.25
242.038	56.49
242.255	52.39
242.472	46.25
242.689	36.01
242.907	58.54
243.124	58.54
243.341	52.39
243.558	29.87
243.775	91.31
243.992	48.3
244.209	25.77
244.426	64.68
244.643	27.82
244.86	64.68
245.078	54.44
245.295	-4.95
245.512	40.11
245.729	95.4
245.946	-17.24
246.163	1.19
246.38	23.72
246.597	-56.15
246.814	48.3
247.031	44.2
247.248	40.11
247.464	81.07
247.681	25.77
247.898	13.48
248.115	21.67
248.332	5.29
248.549	-7
248.766	21.67
248.983	56.49
249.2	15.53
249.417	72.87
249.633	9.39
249.85	58.54
250.067	97.45
250.284	48.3
250.501	19.63
250.717	-9.05
250.934	44.2
251.151	81.07
251.368	101.55
251.585	60.59
251.801	36.01
252.018	-21.33
252.235	17.58
252.451	33.96
252.668	48.3
252.885	40.11
253.102	111.78
253.318	19.63
253.535	54.44
253.752	48.3
253.968	50.35
254.185	105.64
254.401	-9.05
254.618	56.49
254.835	23.72
255.051	97.45
255.268	91.31
255.484	40.11
255.701	29.87
255.917	-9.05
256.134	56.49
256.351	25.77
256.567	11.43
256.784	83.11
257	54.44
257.217	74.92
257.433	-4.95
257.65	25.77
257.866	70.83
258.082	15.53
258.299	76.97
258.515	87.21
258.732	54.44
258.948	107.69
259.165	36.01
259.381	48.3
259.597	48.3
259.814	15.53
260.03	101.55
260.246	58.54
260.463	-15.19
260.679	-15.19
260.895	113.83
261.112	31.91
261.328	31.91
261.544	15.53
261.761	42.15
261.977	3.24
262.193	-33.62
262.409	7.34
262.626	81.07
262.842	27.82
263.058	68.78
263.274	70.83
263.49	-17.24
263.707	1.19
263.923	85.16
264.139	-2.9
264.355	48.3
264.571	85.16
264.787	-21.33
265.004	40.11
265.22	-7
265.436	52.39
265.652	15.53
265.868	81.07
266.084	33.96
266.3	-7
266.516	31.91
266.732	46.25
266.948	1.19
267.164	64.68
267.38	95.4
267.596	74.92
267.812	60.59
268.028	25.77
268.244	48.3
268.46	56.49
268.676	68.78
268.892	50.35
269.108	54.44
269.324	97.45
269.54	-2.9
269.756	64.68
269.972	58.54
270.188	25.77
270.403	40.11
270.619	44.2
270.835	62.63
271.051	105.64
271.267	103.59
271.483	42.15
271.698	19.63
271.914	3.24
272.13	95.4
272.346	15.53
272.562	-15.19
272.777	38.06
272.993	95.4
273.209	-25.43
273.425	-7
273.64	72.87
273.856	56.49
274.072	95.4
274.287	113.83
274.503	27.82
274.719	-2.9
274.934	-2.9
275.15	-4.95
275.366	115.88
275.581	7.34
275.797	113.83
276.012	40.11
276.228	93.35
276.444	-13.14
276.659	-4.95
276.875	36.01
277.09	-25.43
277.306	13.48
277.521	126.12
277.737	9.39
277.952	23.72
278.168	97.45
278.383	-39.76
278.599	31.91
278.814	99.5
279.03	105.64
279.245	50.35
279.461	103.59
279.676	58.54
279.892	79.02
280.107	83.11
280.322	-4.95
280.538	17.58
280.753	15.53
280.969	48.3
281.184	29.87
281.399	11.43
281.615	27.82
281.83	1.19
282.045	58.54
282.26	48.3
282.476	17.58
282.691	85.16
282.906	-11.09
283.122	72.87
283.337	109.74
283.552	38.06
283.767	-4.95
283.983	72.87
284.198	38.06
284.413	50.35
284.628	50.35
284.843	-17.24
285.058	76.97
285.274	21.67
285.489	17.58
285.704	89.26
285.919	126.12
286.134	40.11
286.349	27.82
286.564	87.21
286.779	68.78
286.995	15.53
287.21	9.39
287.425	36.01
287.64	-2.9
287.855	60.59
288.07	-68.44
288.285	-15.19
288.5	60.59
288.715	50.35
288.93	101.55
289.145	36.01
289.36	99.5
289.575	97.45
289.79	58.54
290.004	7.34
290.219	33.96
290.434	31.91
290.649	85.16
290.864	68.78
291.079	36.01
291.294	109.74
291.509	89.26
291.724	99.5
291.938	42.15
292.153	44.2
292.368	52.39
292.583	58.54
292.798	60.59
293.012	58.54
293.227	52.39
293.442	64.68
293.657	85.16
293.871	60.59
294.086	48.3
294.301	7.34
294.516	50.35
294.73	85.16
294.945	21.67
295.16	72.87
295.374	31.91
295.589	-54.1
295.804	19.63
296.018	64.68
296.233	58.54
296.447	64.68
296.662	3.24
296.877	111.78
297.091	81.07
297.306	85.16
297.52	60.59
297.735	-35.67
297.949	66.73
298.164	50.35
298.378	95.4
298.593	23.72
298.807	109.74
299.022	76.97
299.236	60.59
299.451	23.72
299.665	74.92
299.88	60.59
300.094	9.39
300.309	81.07
300.523	62.63
300.737	38.06
300.952	46.25
301.166	62.63
301.381	97.45
301.595	101.55
301.809	19.63
302.024	64.68
302.238	36.01
302.452	87.21
302.667	74.92
302.881	48.3
303.095	76.97
303.309	97.45
303.524	40.11
303.738	52.39
303.952	27.82
304.166	74.92
304.381	31.91
304.595	44.2
304.809	68.78
305.023	107.69
305.237	103.59
305.452	-0.85
305.666	52.39
305.88	-11.09
306.094	87.21
306.308	130.22
306.522	83.11
306.736	31.91
306.95	36.01
307.164	19.63
307.379	58.54
307.593	29.87
307.807	48.3
308.021	40.11
308.235	74.92
308.449	13.48
308.663	-37.72
308.877	3.24
309.091	-11.09
309.305	7.34
309.519	-4.95
309.733	68.78
309.947	3.24
310.161	140.46
310.374	85.16
310.588	66.73
310.802	9.39
311.016	134.31
311.23	13.48
311.444	-0.85
311.658	21.67
311.872	-9.05
312.085	56.49
312.299	119.98
312.513	89.26
312.727	19.63
312.941	52.39
313.154	56.49
313.368	48.3
313.582	124.07
313.796	36.01
314.009	52.39
314.223	-0.85
314.437	91.31
314.651	97.45
314.864	50.35
315.078	60.59
315.292	-4.95
315.505	21.67
315.719	101.55
315.933	64.68
316.146	83.11
316.36	-7
316.573	40.11
316.787	29.87
317.001	40.11
317.214	44.2
317.428	97.45
317.641	60.59
317.855	74.92
318.068	83.11
318.282	72.87
318.495	132.26
318.709	101.55
318.922	50.35
319.136	66.73
319.349	-7
319.563	-11.09
319.776	62.63
319.99	25.77
320.203	62.63
320.417	66.73
320.63	72.87
320.843	97.45
321.057	29.87
321.27	-19.29
321.483	76.97
321.697	66.73
321.91	46.25
322.124	50.35
322.337	54.44
322.55	64.68
322.763	23.72
322.977	54.44
323.19	89.26
323.403	66.73
323.617	21.67
323.83	62.63
324.043	15.53
324.256	68.78
324.469	64.68
324.683	60.59
324.896	83.11
325.109	21.67
325.322	42.15
325.535	72.87
325.748	50.35
325.962	113.83
326.175	33.96
326.388	97.45
326.601	181.42
326.814	105.64
327.027	58.54
327.24	117.93
327.453	107.69
327.666	105.64
327.879	52.39
328.092	46.25
328.305	42.15
328.518	62.63
328.731	83.11
328.944	117.93
329.157	38.06
329.37	15.53
329.583	-11.09
329.796	89.26
330.009	17.58
330.222	-0.85
330.435	38.06
330.648	15.53
330.861	36.01
331.073	36.01
331.286	76.97
331.499	56.49
331.712	89.26
331.925	81.07
332.138	64.68
332.35	95.4
332.563	107.69
332.776	81.07
332.989	91.31
333.202	64.68
333.414	79.02
333.627	48.3
333.84	117.93
334.053	124.07
334.265	50.35
334.478	36.01
334.691	46.25
334.903	9.39
335.116	23.72
335.329	83.11
335.541	7.34
335.754	50.35
335.966	64.68
336.179	97.45
336.392	105.64
336.604	-11.09
336.817	103.59
337.029	5.29
337.242	115.88
337.454	60.59
337.667	36.01
337.88	31.91
338.092	-9.05
338.305	89.26
338.517	64.68
338.729	58.54
338.942	9.39
339.154	23.72
339.367	62.63
339.579	107.69
339.792	109.74
340.004	99.5
340.217	105.64
340.429	68.78
340.641	48.3
340.854	29.87
341.066	31.91
341.278	48.3
341.491	72.87
341.703	44.2
341.915	31.91
342.128	81.07
342.34	13.48
342.552	79.02
342.764	52.39
342.977	-0.85
343.189	17.58
343.401	85.16
343.613	58.54
343.826	81.07
344.038	60.59
344.25	50.35
344.462	50.35
344.674	-11.09
344.886	-7
345.099	83.11
345.311	52.39
345.523	19.63
345.735	42.15
345.947	33.96
346.159	72.87
346.371	46.25
346.583	27.82
346.795	95.4
347.007	5.29
347.219	42.15
347.431	-37.72
347.643	11.43
347.855	-35.67
348.067	3.24
348.279	36.01
348.491	70.83
348.703	27.82
348.915	40.11
349.127	66.73
349.339	48.3
349.551	-19.29
349.763	99.5
349.975	19.63
350.187	68.78
350.399	64.68
350.61	89.26
350.822	-19.29
351.034	40.11
351.246	105.64
351.458	83.11
351.669	134.31
351.881	17.58
352.093	44.2
352.305	7.34
352.517	70.83
352.728	42.15
352.94	1.19
353.152	36.01
353.363	83.11
353.575	91.31
353.787	29.87
353.999	56.49
354.21	79.02
354.422	19.63
354.633	25.77
354.845	105.64
355.057	66.73
355.268	25.77
355.48	42.15
355.692	-11.09
355.903	38.06
356.115	44.2
356.326	68.78
356.538	58.54
356.749	81.07
356.961	64.68
357.172	124.07
357.384	-0.85
357.595	64.68
357.807	-50
358.018	54.44
358.23	124.07
358.441	56.49
358.653	36.01
358.864	48.3
359.075	36.01
359.287	56.49
359.498	76.97
359.709	58.54
359.921	42.15
360.132	31.91
360.344	89.26
360.555	36.01
360.766	64.68
360.977	-13.14
361.189	66.73
361.4	25.77
361.611	54.44
361.823	40.11
362.034	29.87
362.245	85.16
362.456	97.45
362.667	58.54
362.879	11.43
363.09	42.15
363.301	17.58
363.512	38.06
363.723	76.97
363.935	38.06
364.146	79.02
364.357	44.2
364.568	-15.19
364.779	101.55
364.99	91.31
365.201	-19.29
365.412	-4.95
365.623	3.24
365.834	40.11
366.045	81.07
366.256	66.73
366.467	89.26
366.678	109.74
366.889	40.11
367.1	68.78
367.311	113.83
367.522	23.72
367.733	46.25
367.944	29.87
368.155	31.91
368.366	21.67
368.577	11.43
368.788	81.07
368.999	74.92
369.209	83.11
369.42	25.77
369.631	9.39
369.842	46.25
370.053	58.54
370.264	130.22
370.474	33.96
370.685	70.83
370.896	117.93
371.107	99.5
371.317	83.11
371.528	62.63
371.739	79.02
371.95	56.49
372.16	-2.9
372.371	15.53
372.582	48.3
372.792	74.92
373.003	48.3
373.214	23.72
373.424	7.34
373.635	-4.95
373.846	58.54
374.056	56.49
374.267	97.45
374.477	93.35
374.688	64.68
374.898	68.78
375.109	76.97
375.319	44.2
375.53	33.96
375.74	56.49
375.951	89.26
376.161	27.82
376.372	83.11
376.582	68.78
376.793	111.78
377.003	15.53
377.214	42.15
377.424	68.78
377.635	130.22
377.845	64.68
378.055	93.35
378.266	66.73
378.476	40.11
378.686	101.55
378.897	79.02
379.107	89.26
379.317	48.3
379.528	72.87
379.738	64.68
379.948	-0.85
380.158	99.5
380.369	52.39
380.579	81.07
380.789	81.07
380.999	76.97
381.21	99.5
381.42	38.06
381.63	13.48
381.84	19.63
382.05	101.55
382.261	36.01
382.471	79.02
382.681	66.73
382.891	33.96
383.101	17.58
383.311	23.72
383.521	68.78
383.731	81.07
383.941	58.54
384.151	76.97
384.361	38.06
384.571	42.15
384.781	132.26
384.991	48.3
385.201	76.97
385.411	68.78
385.621	54.44
385.831	91.31
386.041	15.53
386.251	1.19
386.461	91.31
386.671	17.58
386.881	50.35
387.091	87.21
387.301	107.69
387.511	27.82
387.72	117.93
387.93	54.44
388.14	21.67
388.35	83.11
388.56	58.54
388.769	19.63
388.979	58.54
389.189	142.5
389.399	33.96
389.609	54.44
389.818	38.06
390.028	83.11
390.238	85.16
390.447	109.74
390.657	46.25
390.867	66.73
391.076	72.87
391.286	19.63
391.496	99.5
391.705	44.2
391.915	89.26
392.125	68.78
392.334	74.92
392.544	72.87
392.753	76.97
392.963	50.35
393.172	93.35
393.382	23.72
393.591	124.07
393.801	50.35
394.01	54.44
394.22	105.64
394.429	31.91
394.639	29.87
394.848	83.11
395.058	142.5
395.267	85.16
395.477	44.2
395.686	62.63
395.895	136.36
396.105	142.5
396.314	113.83
396.524	27.82
396.733	99.5
396.942	122.02
397.152	87.21
397.361	79.02
397.57	81.07
397.78	99.5
397.989	33.96
398.198	99.5
398.407	64.68
398.617	136.36
398.826	56.49
399.035	50.35
399.244	83.11
399.453	138.41
399.663	72.87
399.872	189.61
400.081	101.55
400.29	109.74
400.499	154.79
400.708	130.22
400.917	66.73
401.127	31.91
401.336	132.26
401.545	142.5
401.754	124.07
401.963	140.46
402.172	117.93
402.381	81.07
402.59	97.45
402.799	109.74
403.008	154.79
403.217	117.93
403.426	115.88
403.635	64.68
403.844	58.54
404.053	132.26
404.262	85.16
404.471	162.98
404.68	74.92
404.888	210.09
405.097	119.98
405.306	95.4
405.515	142.5
405.724	160.94
405.933	150.7
406.142	189.61
406.35	154.79
406.559	62.63
406.768	117.93
406.977	130.22
407.185	187.56
407.394	214.18
407.603	165.03
407.812	177.32
408.02	228.52
408.229	214.18
408.438	146.6
408.646	253.09
408.855	212.14
409.064	220.33
409.272	222.38
409.481	208.04
409.69	169.13
409.898	238.76
410.107	279.72
410.315	306.34
410.524	300.2
410.733	302.25
410.941	275.62
411.15	246.95
411.358	224.42
411.567	326.82
411.775	351.4
411.984	392.36
412.192	408.74
412.401	330.92
412.609	355.49
412.818	332.97
413.026	412.84
413.234	388.26
413.443	378.02
413.651	449.7
413.86	445.6
414.068	478.37
414.276	468.13
414.485	402.6
414.693	550.05
414.901	502.95
415.11	492.71
415.318	554.15
415.526	533.67
415.734	562.34
415.943	566.43
416.151	623.78
416.359	597.15
416.567	650.4
416.776	642.21
416.984	674.98
417.192	787.61
417.4	748.7
417.608	748.7
417.817	853.15
418.025	840.86
418.233	828.57
418.441	873.63
418.649	902.3
418.857	918.68
419.065	1023.13
419.273	822.43
419.481	990.36
419.689	1072.28
419.897	1053.85
420.105	1066.14
420.313	1064.09
420.521	1127.58
420.729	1207.45
420.937	1287.32
421.145	1270.94
421.353	1383.57
421.561	1449.11
421.769	1334.42
421.977	1561.75
422.185	1383.57
422.393	1588.37
422.601	1531.03
422.809	1674.39
423.017	1701.01
423.224	1909.9
423.432	1834.13
423.64	1932.43
423.848	1997.96
424.056	1946.76
424.263	2036.88
424.471	2002.06
424.679	2096.27
424.887	2200.71
425.094	2391.17
425.302	2286.73
425.51	2391.17
425.718	2518.15
425.925	2573.44
426.133	2423.94
426.341	2673.79
426.548	2757.76
426.756	2761.86
426.964	2806.91
427.171	2970.75
427.379	3101.82
427.586	3030.14
427.794	3318.9
428.001	3380.34
428.209	3533.94
428.417	3341.43
428.624	3589.24
428.832	3720.31
429.039	3708.02
429.247	3607.67
429.454	4076.65
429.662	4240.49
429.869	3935.34
430.076	4215.91
430.284	4144.24
430.491	4281.45
430.699	4582.5
430.906	4617.32
431.114	4658.28
431.321	4910.18
431.528	4858.98
431.736	5182.56
431.943	5424.22
432.15	5178.46
432.358	5360.73
432.565	5647.44
432.772	5456.98
432.979	5936.21
433.187	6175.82
433.394	5958.74
433.601	6564.93
433.808	6470.73
434.016	6298.7
434.223	6562.89
434.43	7072.83
434.637	6853.7
434.844	7461.94
435.052	7507
435.259	7509.05
435.466	7687.22
435.673	7404.6
435.88	7982.13
436.087	8455.21
436.294	8277.04
436.501	8182.83
436.708	8528.94
436.915	8643.62
437.122	8852.52
437.329	8999.97
437.537	9219.1
437.743	9407.52
437.95	9124.9
438.157	9712.66
438.364	10169.36
438.571	10152.98
438.778	10128.4
438.985	11041.79
439.192	10826.76
439.399	10943.49
439.606	10847.24
439.813	11523.07
440.02	11836.41
440.227	11975.67
440.433	11590.65
440.64	12278.77
440.847	12139.51
441.054	12461.04
441.261	13147.11
441.467	12704.74
441.674	13173.73
441.881	13759.45
442.088	13657.05
442.294	13556.7
442.501	13941.72
442.708	13921.24
442.914	14691.27
443.121	15211.46
443.328	14996.42
443.534	16032.69
443.741	15702.97
443.948	15463.36
444.154	16614.32
444.361	16237.49
444.568	16724.91
444.774	16694.19
444.981	16620.46
445.187	17091.49
445.394	17851.29
445.6	17693.6
445.807	19352.45
446.013	18410.39
446.22	18723.72
446.426	19272.58
446.633	19905.4
446.839	20570.99
447.046	19491.71
447.252	20634.48
447.459	20937.58
447.665	20470.64
447.871	21554.02
448.078	22459.22
448.284	21447.52
448.491	22182.74
448.697	23032.65
448.903	23223.11
449.11	23323.46
449.316	22895.44
449.522	23389
449.728	23765.82
449.935	24079.16
450.141	23923.52
450.347	24496.95
450.553	23845.69
450.76	24144.7
450.966	24542
451.172	24453.94
451.378	25094.96
451.584	24660.79
451.791	25211.69
451.997	25256.75
452.203	25719.59
452.409	25615.14
452.615	25299.75
452.821	24390.45
453.027	24468.28
453.233	25510.69
453.44	24400.69
453.646	24580.92
453.852	24808.24
454.058	25402.15
454.264	24980.27
454.47	25191.21
454.676	24185.66
454.882	25213.74
455.088	22942.54
455.294	23348.04
455.5	23642.95
455.705	23915.33
455.911	22758.22
456.117	22467.41
456.323	22565.71
456.529	20925.29
456.735	22338.39
456.941	21410.66
457.147	20892.52
457.352	20269.94
457.558	20091.77
457.764	20368.24
457.97	19862.4
458.176	19446.66
458.381	19413.89
458.587	18609.04
458.793	18469.78
458.999	17474.46
459.204	18776.97
459.41	18224.02
459.616	17140.65
459.821	17089.45
460.027	16921.51
460.233	16546.73
460.438	15692.73
460.644	16087.99
460.85	15184.83
461.055	14922.69
461.261	14977.99
461.466	13810.65
461.672	13638.62
461.878	14476.24
462.083	13489.12
462.289	13294.56
462.494	13112.29
462.7	12442.6
462.905	12145.65
463.111	12540.91
463.316	12856.29
463.522	12530.67
463.727	12596.2
463.932	12346.35
464.138	12465.13
464.343	12368.88
464.549	12246
464.754	12385.26
464.959	12393.45
465.165	12305.39
465.37	11869.17
465.575	11611.13
465.781	12172.27
465.986	12026.87
466.191	11594.75
466.397	11658.23
466.602	10720.26
466.807	11303.93
467.012	11205.63
467.218	11179.01
467.423	11023.36
467.628	11140.1
467.833	11451.39
468.038	10949.64
468.244	10861.57
468.449	11287.55
468.654	10812.42
468.859	10806.28
