Data from USB4F104151__39__13-53-14-019.txt Node

Date: Thu Mar 13 13:53:14 EDT 2025
User: louis
Spectrometer: USB4F10415
Trigger mode: 4
Integration Time (sec): 1.000000E-2
Scans to average: 1
Electric dark correction enabled: true
Nonlinearity correction enabled: false
Boxcar width: 0
XAxis mode: Wavelengths
Number of Pixels in Spectrum: 3648
>>>>>Begin Spectral Data<<<<<
178.204	-34.64
178.424	-34.64
178.644	-34.64
178.864	-32.6
179.084	-85.84
179.304	-8.02
179.524	-16.21
179.744	61.61
179.964	-10.07
180.184	-40.79
180.404	10.41
180.624	-3.93
180.844	-69.46
181.064	41.13
181.283	34.99
181.503	4.27
181.723	-3.93
181.943	34.99
182.163	2.22
182.383	45.23
182.602	-42.84
182.822	45.23
183.042	41.13
183.262	8.36
183.482	51.37
183.701	24.75
183.921	2.22
184.141	-48.98
184.361	0.17
184.58	12.46
184.8	71.85
185.02	8.36
185.239	18.6
185.459	-69.46
185.679	-20.31
185.898	-5.97
186.118	63.66
186.338	26.79
186.557	4.27
186.777	51.37
186.997	16.55
187.216	-5.97
187.436	77.99
187.655	-30.55
187.875	73.9
188.095	-1.88
188.314	75.95
188.534	108.71
188.753	49.32
188.973	-28.5
189.192	20.65
189.412	37.03
189.631	8.36
189.851	4.27
190.07	12.46
190.29	26.79
190.509	75.95
190.729	32.94
190.948	75.95
191.168	73.9
191.387	80.04
191.607	32.94
191.826	2.22
192.045	24.75
192.265	22.7
192.484	22.7
192.704	-12.12
192.923	24.75
193.142	65.71
193.362	-36.69
193.581	30.89
193.8	37.03
194.02	51.37
194.239	2.22
194.458	86.19
194.678	16.55
194.897	-63.32
195.116	-14.17
195.335	67.75
195.555	45.23
195.774	45.23
195.993	53.42
196.212	49.32
196.432	32.94
196.651	-12.12
196.87	77.99
197.089	80.04
197.308	26.79
197.528	-5.97
197.747	41.13
197.966	57.51
198.185	30.89
198.404	26.79
198.623	80.04
198.842	34.99
199.062	-65.36
199.281	39.08
199.5	32.94
199.719	71.85
199.938	43.18
200.157	65.71
200.376	14.51
200.595	43.18
200.814	22.7
201.033	41.13
201.252	18.6
201.471	73.9
201.69	84.14
201.909	71.85
202.128	71.85
202.347	-8.02
202.566	20.65
202.785	4.27
203.004	-3.93
203.223	24.75
203.442	73.9
203.661	57.51
203.879	-10.07
204.098	106.67
204.317	34.99
204.536	51.37
204.755	24.75
204.974	32.94
205.193	55.47
205.411	67.75
205.63	43.18
205.849	32.94
206.068	-20.31
206.287	22.7
206.505	59.56
206.724	28.84
206.943	26.79
207.162	12.46
207.381	-18.26
207.599	8.36
207.818	28.84
208.037	88.23
208.255	-10.07
208.474	43.18
208.693	0.17
208.911	-12.12
209.13	-26.45
209.349	-20.31
209.567	57.51
209.786	41.13
210.005	-14.17
210.223	49.32
210.442	2.22
210.661	61.61
210.879	37.03
211.098	37.03
211.316	26.79
211.535	51.37
211.753	71.85
211.972	34.99
212.191	22.7
212.409	6.31
212.628	-18.26
212.846	-46.93
213.065	-14.17
213.283	20.65
213.502	-30.55
213.72	8.36
213.938	12.46
214.157	69.8
214.375	22.7
214.594	-18.26
214.812	20.65
215.031	53.42
215.249	24.75
215.467	102.57
215.686	49.32
215.904	155.82
216.122	16.55
216.341	53.42
216.559	16.55
216.778	47.27
216.996	75.95
217.214	0.17
217.432	-24.4
217.651	4.27
217.869	16.55
218.087	16.55
218.306	-26.45
218.524	80.04
218.742	-20.31
218.96	16.55
219.179	10.41
219.397	47.27
219.615	63.66
219.833	-5.97
220.051	32.94
220.27	10.41
220.488	84.14
220.706	65.71
220.924	2.22
221.142	-16.21
221.36	45.23
221.578	0.17
221.796	63.66
222.015	84.14
222.233	-20.31
222.451	20.65
222.669	4.27
222.887	37.03
223.105	55.47
223.323	-44.88
223.541	-5.97
223.759	45.23
223.977	-67.41
224.195	4.27
224.413	18.6
224.631	-28.5
224.849	20.65
225.067	10.41
225.285	-22.36
225.503	34.99
225.721	-18.26
225.939	24.75
226.157	20.65
226.375	96.43
226.592	-28.5
226.81	16.55
227.028	-24.4
227.246	41.13
227.464	20.65
227.682	-46.93
227.9	53.42
228.117	82.09
228.335	18.6
228.553	65.71
228.771	30.89
228.989	-5.97
229.206	-38.74
229.424	63.66
229.642	73.9
229.86	0.17
230.077	20.65
230.295	-12.12
230.513	45.23
230.731	34.99
230.948	4.27
231.166	-16.21
231.384	10.41
231.601	96.43
231.819	69.8
232.037	53.42
232.254	-57.17
232.472	51.37
232.689	-20.31
232.907	20.65
233.125	57.51
233.342	10.41
233.56	43.18
233.777	32.94
233.995	30.89
234.213	34.99
234.43	57.51
234.648	24.75
234.865	12.46
235.083	49.32
235.3	47.27
235.518	41.13
235.735	57.51
235.953	84.14
236.17	-44.88
236.388	16.55
236.605	-5.97
236.822	-10.07
237.04	30.89
237.257	0.17
237.475	-32.6
237.692	-12.12
237.909	77.99
238.127	77.99
238.344	12.46
238.562	12.46
238.779	-30.55
238.996	14.51
239.214	26.79
239.431	10.41
239.648	-14.17
239.865	-3.93
240.083	28.84
240.3	-12.12
240.517	55.47
240.735	28.84
240.952	59.56
241.169	0.17
241.386	14.51
241.603	12.46
241.821	-55.12
242.038	16.55
242.255	49.32
242.472	-8.02
242.689	-3.93
242.907	45.23
243.124	-16.21
243.341	34.99
243.558	34.99
243.775	67.75
243.992	77.99
244.209	53.42
244.426	4.27
244.643	45.23
244.86	-8.02
245.078	98.47
245.295	32.94
245.512	30.89
245.729	-8.02
245.946	43.18
246.163	41.13
246.38	94.38
246.597	43.18
246.814	2.22
247.031	61.61
247.248	34.99
247.464	61.61
247.681	61.61
247.898	8.36
248.115	30.89
248.332	-44.88
248.549	32.94
248.766	71.85
248.983	12.46
249.2	-24.4
249.417	47.27
249.633	30.89
249.85	61.61
250.067	47.27
250.284	10.41
250.501	18.6
250.717	139.43
250.934	2.22
251.151	-1.88
251.368	-44.88
251.585	4.27
251.801	-59.22
252.018	80.04
252.235	104.62
252.451	39.08
252.668	45.23
252.885	57.51
253.102	71.85
253.318	-32.6
253.535	6.31
253.752	47.27
253.968	63.66
254.185	24.75
254.401	-34.64
254.618	63.66
254.835	0.17
255.051	77.99
255.268	59.56
255.484	55.47
255.701	73.9
255.917	30.89
256.134	39.08
256.351	34.99
256.567	63.66
256.784	-14.17
257	6.31
257.217	14.51
257.433	39.08
257.65	12.46
257.866	20.65
258.082	26.79
258.299	-1.88
258.515	24.75
258.732	82.09
258.948	45.23
259.165	-61.27
259.381	63.66
259.597	12.46
259.814	24.75
260.03	-10.07
260.246	28.84
260.463	2.22
260.679	12.46
260.895	-16.21
261.112	24.75
261.328	32.94
261.544	-5.97
261.761	65.71
261.977	6.31
262.193	-5.97
262.409	-18.26
262.626	6.31
262.842	65.71
263.058	-32.6
263.274	45.23
263.49	30.89
263.707	37.03
263.923	39.08
264.139	39.08
264.355	-38.74
264.571	75.95
264.787	47.27
265.004	14.51
265.22	77.99
265.436	37.03
265.652	71.85
265.868	30.89
266.084	20.65
266.3	63.66
266.516	-14.17
266.732	-46.93
266.948	12.46
267.164	-10.07
267.38	4.27
267.596	0.17
267.812	51.37
268.028	22.7
268.244	-10.07
268.46	-12.12
268.676	4.27
268.892	-48.98
269.108	49.32
269.324	73.9
269.54	51.37
269.756	2.22
269.972	-8.02
270.188	-8.02
270.403	108.71
270.619	-36.69
270.835	-12.12
271.051	114.86
271.267	-16.21
271.483	45.23
271.698	39.08
271.914	-14.17
272.13	6.31
272.346	24.75
272.562	63.66
272.777	43.18
272.993	30.89
273.209	16.55
273.425	73.9
273.64	-14.17
273.856	22.7
274.072	53.42
274.287	67.75
274.503	37.03
274.719	43.18
274.934	18.6
275.15	37.03
275.366	2.22
275.581	45.23
275.797	43.18
276.012	-26.45
276.228	-22.36
276.444	14.51
276.659	73.9
276.875	-12.12
277.09	-20.31
277.306	34.99
277.521	10.41
277.737	114.86
277.952	34.99
278.168	-44.88
278.383	67.75
278.599	30.89
278.814	-1.88
279.03	18.6
279.245	26.79
279.461	-5.97
279.676	49.32
279.892	20.65
280.107	26.79
280.322	84.14
280.538	49.32
280.753	65.71
280.969	24.75
281.184	12.46
281.399	41.13
281.615	12.46
281.83	102.57
282.045	41.13
282.26	18.6
282.476	59.56
282.691	59.56
282.906	45.23
283.122	55.47
283.337	32.94
283.552	73.9
283.767	41.13
283.983	41.13
284.198	41.13
284.413	30.89
284.628	6.31
284.843	4.27
285.058	32.94
285.274	73.9
285.489	30.89
285.704	-18.26
285.919	20.65
286.134	80.04
286.349	53.42
286.564	-65.36
286.779	20.65
286.995	55.47
287.21	-46.93
287.425	8.36
287.64	14.51
287.855	-24.4
288.07	18.6
288.285	2.22
288.5	65.71
288.715	32.94
288.93	20.65
289.145	28.84
289.36	18.6
289.575	43.18
289.79	39.08
290.004	80.04
290.219	8.36
290.434	80.04
290.649	18.6
290.864	47.27
291.079	30.89
291.294	49.32
291.509	-3.93
291.724	94.38
291.938	37.03
292.153	39.08
292.368	16.55
292.583	28.84
292.798	100.52
293.012	116.9
293.227	-20.31
293.442	-46.93
293.657	41.13
293.871	59.56
294.086	-26.45
294.301	-5.97
294.516	-1.88
294.73	20.65
294.945	34.99
295.16	32.94
295.374	34.99
295.589	77.99
295.804	180.39
296.018	80.04
296.233	30.89
296.447	30.89
296.662	-12.12
296.877	57.51
297.091	-46.93
297.306	53.42
297.52	14.51
297.735	37.03
297.949	-22.36
298.164	47.27
298.378	53.42
298.593	37.03
298.807	8.36
299.022	20.65
299.236	14.51
299.451	30.89
299.665	45.23
299.88	49.32
300.094	39.08
300.309	18.6
300.523	-10.07
300.737	75.95
300.952	47.27
301.166	30.89
301.381	-22.36
301.595	49.32
301.809	-5.97
302.024	-10.07
302.238	45.23
302.452	41.13
302.667	8.36
302.881	84.14
303.095	77.99
303.309	-14.17
303.524	-30.55
303.738	98.47
303.952	32.94
304.166	-5.97
304.381	-24.4
304.595	28.84
304.809	88.23
305.023	53.42
305.237	-24.4
305.452	47.27
305.666	4.27
305.88	16.55
306.094	8.36
306.308	32.94
306.522	61.61
306.736	53.42
306.95	30.89
307.164	14.51
307.379	26.79
307.593	51.37
307.807	55.47
308.021	22.7
308.235	10.41
308.449	-24.4
308.663	71.85
308.877	0.17
309.091	77.99
309.305	-18.26
309.519	-1.88
309.733	75.95
309.947	-14.17
310.161	43.18
310.374	67.75
310.588	75.95
310.802	18.6
311.016	-28.5
311.23	-16.21
311.444	80.04
311.658	12.46
311.872	12.46
312.085	75.95
312.299	73.9
312.513	51.37
312.727	-10.07
312.941	14.51
313.154	80.04
313.368	80.04
313.582	-65.36
313.796	28.84
314.009	-1.88
314.223	51.37
314.437	96.43
314.651	30.89
314.864	57.51
315.078	4.27
315.292	20.65
315.505	-24.4
315.719	45.23
315.933	100.52
316.146	-34.64
316.36	-16.21
316.573	108.71
316.787	43.18
317.001	-3.93
317.214	-12.12
317.428	4.27
317.641	-3.93
317.855	-48.98
318.068	51.37
318.282	51.37
318.495	75.95
318.709	41.13
318.922	22.7
319.136	73.9
319.349	24.75
319.563	63.66
319.776	123.05
319.99	-18.26
320.203	102.57
320.417	47.27
320.63	43.18
320.843	18.6
321.057	51.37
321.27	65.71
321.483	22.7
321.697	80.04
321.91	-20.31
322.124	43.18
322.337	37.03
322.55	53.42
322.763	86.19
322.977	43.18
323.19	63.66
323.403	77.99
323.617	47.27
323.83	26.79
324.043	-18.26
324.256	67.75
324.469	96.43
324.683	37.03
324.896	30.89
325.109	90.28
325.322	39.08
325.535	18.6
325.748	4.27
325.962	8.36
326.175	20.65
326.388	53.42
326.601	-18.26
326.814	2.22
327.027	18.6
327.24	-42.84
327.453	0.17
327.666	10.41
327.879	-5.97
328.092	22.7
328.305	30.89
328.518	71.85
328.731	61.61
328.944	108.71
329.157	14.51
329.37	22.7
329.583	-1.88
329.796	12.46
330.009	41.13
330.222	106.67
330.435	30.89
330.648	37.03
330.861	67.75
331.073	75.95
331.286	49.32
331.499	102.57
331.712	73.9
331.925	39.08
332.138	22.7
332.35	69.8
332.563	-14.17
332.776	32.94
332.989	65.71
333.202	34.99
333.414	2.22
333.627	59.56
333.84	-14.17
334.053	123.05
334.265	34.99
334.478	22.7
334.691	102.57
334.903	47.27
335.116	61.61
335.329	34.99
335.541	30.89
335.754	41.13
335.966	34.99
336.179	41.13
336.392	-38.74
336.604	67.75
336.817	71.85
337.029	88.23
337.242	86.19
337.454	-1.88
337.667	34.99
337.88	65.71
338.092	34.99
338.305	24.75
338.517	-55.12
338.729	84.14
338.942	22.7
339.154	-16.21
339.367	65.71
339.579	22.7
339.792	-51.03
340.004	49.32
340.217	53.42
340.429	28.84
340.641	6.31
340.854	-5.97
341.066	22.7
341.278	20.65
341.491	57.51
341.703	-1.88
341.915	22.7
342.128	41.13
342.34	14.51
342.552	61.61
342.764	24.75
342.977	24.75
343.189	57.51
343.401	37.03
343.613	69.8
343.826	73.9
344.038	14.51
344.25	43.18
344.462	47.27
344.674	37.03
344.886	49.32
345.099	92.33
345.311	12.46
345.523	16.55
345.735	49.32
345.947	96.43
346.159	77.99
346.371	121
346.583	37.03
346.795	67.75
347.007	-12.12
347.219	26.79
347.431	22.7
347.643	84.14
347.855	6.31
348.067	51.37
348.279	55.47
348.491	-3.93
348.703	6.31
348.915	-14.17
349.127	4.27
349.339	55.47
349.551	12.46
349.763	67.75
349.975	41.13
350.187	41.13
350.399	63.66
350.61	90.28
350.822	18.6
351.034	82.09
351.246	104.62
351.458	43.18
351.669	53.42
351.881	71.85
352.093	90.28
352.305	43.18
352.517	34.99
352.728	-16.21
352.94	22.7
353.152	47.27
353.363	10.41
353.575	10.41
353.787	32.94
353.999	8.36
354.21	6.31
354.422	24.75
354.633	51.37
354.845	51.37
355.057	22.7
355.268	18.6
355.48	41.13
355.692	82.09
355.903	82.09
356.115	-57.17
356.326	55.47
356.538	37.03
356.749	45.23
356.961	82.09
357.172	18.6
357.384	90.28
357.595	-1.88
357.807	-10.07
358.018	10.41
358.23	106.67
358.441	65.71
358.653	41.13
358.864	-8.02
359.075	-26.45
359.287	0.17
359.498	75.95
359.709	-36.69
359.921	84.14
360.132	53.42
360.344	14.51
360.555	82.09
360.766	75.95
360.977	34.99
361.189	37.03
361.4	123.05
361.611	47.27
361.823	37.03
362.034	12.46
362.245	73.9
362.456	49.32
362.667	43.18
362.879	67.75
363.09	61.61
363.301	92.33
363.512	4.27
363.723	-5.97
363.935	59.56
364.146	-24.4
364.357	51.37
364.568	18.6
364.779	0.17
364.99	28.84
365.201	39.08
365.412	-32.6
365.623	37.03
365.834	43.18
366.045	82.09
366.256	55.47
366.467	59.56
366.678	73.9
366.889	8.36
367.1	45.23
367.311	10.41
367.522	37.03
367.733	26.79
367.944	-14.17
368.155	-51.03
368.366	6.31
368.577	49.32
368.788	139.43
368.999	10.41
369.209	2.22
369.42	53.42
369.631	102.57
369.842	53.42
370.053	-36.69
370.264	-5.97
370.474	12.46
370.685	-12.12
370.896	-32.6
371.107	71.85
371.317	110.76
371.528	69.8
371.739	100.52
371.95	45.23
372.16	-14.17
372.371	69.8
372.582	41.13
372.792	2.22
373.003	65.71
373.214	-14.17
373.424	51.37
373.635	30.89
373.846	41.13
374.056	-3.93
374.267	53.42
374.477	28.84
374.688	71.85
374.898	-26.45
375.109	45.23
375.319	57.51
375.53	6.31
375.74	53.42
375.951	116.9
376.161	63.66
376.372	22.7
376.582	47.27
376.793	39.08
377.003	184.49
377.214	8.36
377.424	10.41
377.635	-14.17
377.845	18.6
378.055	30.89
378.266	121
378.476	28.84
378.686	14.51
378.897	26.79
379.107	16.55
379.317	51.37
379.528	6.31
379.738	71.85
379.948	55.47
380.158	102.57
380.369	8.36
380.579	8.36
380.789	51.37
380.999	110.76
381.21	8.36
381.42	164.01
381.63	61.61
381.84	20.65
382.05	77.99
382.261	61.61
382.471	77.99
382.681	30.89
382.891	8.36
383.101	69.8
383.311	45.23
383.521	16.55
383.731	39.08
383.941	65.71
384.151	57.51
384.361	98.47
384.571	12.46
384.781	84.14
384.991	37.03
385.201	96.43
385.411	34.99
385.621	59.56
385.831	39.08
386.041	41.13
386.251	94.38
386.461	127.14
386.671	39.08
386.881	-3.93
387.091	41.13
387.301	137.38
387.511	61.61
387.72	18.6
387.93	45.23
388.14	-22.36
388.35	55.47
388.56	67.75
388.769	51.37
388.979	71.85
389.189	22.7
389.399	30.89
389.609	71.85
389.818	73.9
390.028	82.09
390.238	75.95
390.447	30.89
390.657	51.37
390.867	53.42
391.076	-36.69
391.286	32.94
391.496	10.41
391.705	110.76
391.915	127.14
392.125	123.05
392.334	41.13
392.544	61.61
392.753	28.84
392.963	53.42
393.172	24.75
393.382	43.18
393.591	82.09
393.801	-18.26
394.01	69.8
394.22	18.6
394.429	172.2
394.639	63.66
394.848	32.94
395.058	77.99
395.267	-20.31
395.477	57.51
395.686	96.43
395.895	77.99
396.105	80.04
396.314	90.28
396.524	55.47
396.733	98.47
396.942	51.37
397.152	43.18
397.361	139.43
397.57	96.43
397.78	26.79
397.989	65.71
398.198	131.24
398.407	92.33
398.617	102.57
398.826	100.52
399.035	155.82
399.244	96.43
399.453	112.81
399.663	55.47
399.872	145.58
400.081	75.95
400.29	100.52
400.499	86.19
400.708	196.78
400.917	63.66
401.127	59.56
401.336	30.89
401.545	47.27
401.754	149.67
401.963	114.86
402.172	94.38
402.381	41.13
402.59	129.19
402.799	90.28
403.008	135.34
403.217	118.95
403.426	49.32
403.635	67.75
403.844	67.75
404.053	75.95
404.262	82.09
404.471	157.86
404.68	63.66
404.888	45.23
405.097	145.58
405.306	75.95
405.515	86.19
405.724	143.53
405.933	77.99
406.142	34.99
406.35	145.58
406.559	153.77
406.768	96.43
406.977	188.58
407.185	82.09
407.394	151.72
407.603	94.38
407.812	141.48
408.02	116.9
408.229	147.62
408.438	151.72
408.646	147.62
408.855	200.87
409.064	159.91
409.272	125.1
409.481	166.06
409.69	243.88
409.898	233.64
410.107	143.53
410.315	268.45
410.524	276.65
410.733	186.54
410.941	241.83
411.15	282.79
411.358	268.45
411.567	286.89
411.775	325.8
411.984	264.36
412.192	245.93
412.401	290.98
412.609	299.17
412.818	377
413.026	358.57
413.234	354.47
413.443	403.62
413.651	391.33
413.86	385.19
414.068	385.19
414.276	374.95
414.485	391.33
414.693	432.29
414.901	460.96
415.11	491.68
415.318	503.97
415.526	420
415.734	501.92
415.943	518.31
416.151	579.75
416.359	528.55
416.567	655.52
416.776	604.32
416.984	637.09
417.192	643.23
417.4	733.34
417.608	686.24
417.817	764.06
418.025	747.68
418.233	800.93
418.441	788.64
418.649	751.78
418.857	858.27
419.065	886.94
419.273	796.83
419.481	1011.87
419.689	999.58
419.897	1073.31
420.105	999.58
420.313	1101.98
420.521	1110.17
420.729	1085.59
420.937	1251.48
421.145	1120.41
421.353	1278.1
421.561	1321.11
421.769	1349.78
421.977	1415.32
422.185	1325.21
422.393	1509.52
422.601	1474.71
422.809	1595.54
423.017	1585.3
423.224	1624.21
423.432	1652.88
423.64	1661.07
423.848	1792.14
424.056	1820.81
424.263	1955.98
424.471	1945.74
424.679	2068.62
424.887	2062.48
425.094	2148.49
425.302	2115.72
425.51	2181.26
425.718	2291.85
425.925	2365.57
426.133	2359.43
426.341	2584.71
426.548	2605.19
426.756	2736.26
426.964	2779.26
427.171	2842.75
427.379	2975.87
427.586	3006.59
427.794	3076.22
428.001	3125.37
428.209	3278.97
428.417	3217.53
428.624	3403.89
428.832	3569.78
429.039	3502.2
429.247	3541.11
429.454	3901.55
429.662	4159.6
429.869	3897.46
430.076	4108.4
430.284	3922.03
430.491	4100.2
430.699	4458.6
430.906	4401.26
431.114	4481.13
431.321	4593.76
431.528	4722.79
431.736	4894.82
431.943	5277.79
432.15	5058.65
432.358	5101.66
432.565	5466.2
432.772	5388.38
432.979	5501.01
433.187	5677.14
433.394	5730.39
433.601	6031.44
433.808	6088.78
434.016	6187.08
434.223	6414.41
434.43	6803.52
434.637	6627.4
434.844	7026.75
435.052	7161.92
435.259	7096.38
435.466	7286.84
435.673	7071.81
435.88	7520.31
436.087	8040.5
436.294	8173.61
436.501	7702.58
436.708	8001.58
436.915	8386.6
437.122	8810.53
437.329	8646.69
437.537	8835.11
437.743	9127.97
437.95	8880.16
438.157	9453.59
438.364	10045.46
438.571	9783.32
438.778	9820.18
438.985	10661.9
439.192	10346.51
439.399	10543.11
439.606	10440.72
439.813	10938.37
440.02	11448.32
440.227	11380.73
440.433	11132.93
440.64	11669.5
440.847	11630.59
441.054	11847.67
441.261	12431.34
441.467	12535.79
441.674	12701.67
441.881	13129.7
442.088	13180.9
442.294	12984.29
442.501	13432.8
442.708	13350.88
442.914	13948.89
443.121	14817.22
443.328	14266.32
443.534	15384.51
443.741	15075.27
443.948	14852.04
444.154	16000.95
444.361	15701.95
444.568	15857.59
444.774	15855.54
444.981	16308.15
445.187	16664.49
445.394	17131.43
445.6	17067.94
445.807	18716.56
446.013	17764.25
446.22	18208.66
446.426	18794.38
446.633	19109.77
446.839	19621.76
447.046	18939.79
447.252	19810.17
447.459	19933.05
447.665	20045.69
447.871	20567.92
448.078	21340.01
448.284	20772.72
448.491	20920.17
448.697	21753.69
448.903	22151
449.11	22257.5
449.316	21788.51
449.522	22093.66
449.728	23023.44
449.935	23256.9
450.141	23150.41
450.347	23746.37
450.553	22808.4
450.76	22941.52
450.966	23820.1
451.172	23711.55
451.378	24215.35
451.584	23781.18
451.791	24440.63
451.997	24348.47
452.203	24762.16
452.409	24385.33
452.615	24262.46
452.821	23506.76
453.027	23166.79
453.233	24659.76
453.44	23402.31
453.646	23668.55
453.852	24039.23
454.058	24123.19
454.264	23736.13
454.47	24096.57
454.676	23142.22
454.882	24203.07
455.088	22007.64
455.294	22282.07
455.5	22533.97
455.705	22755.15
455.911	22060.89
456.117	21667.68
456.323	21186.41
456.529	19863.42
456.735	20942.7
456.941	20217.72
457.147	19943.29
457.352	19492.74
457.558	19189.64
457.764	19128.2
457.97	18941.83
458.176	18204.56
458.381	18616.21
458.587	17295.27
458.793	17713.05
458.999	16992.17
459.204	18018.2
459.41	17442.72
459.616	16209.84
459.821	16158.64
460.027	16084.92
460.233	16125.88
460.438	14995.4
460.644	15192
460.85	14292.94
461.055	14456.78
461.261	14127.06
461.466	13080.55
461.672	12763.11
461.878	13719.51
462.083	12785.64
462.289	12537.84
462.494	12451.82
462.7	11806.71
462.905	11638.78
463.111	12007.41
463.316	12122.1
463.522	11716.6
463.727	11902.97
463.932	11874.29
464.138	11667.45
464.343	11644.92
464.549	11182.08
464.754	11681.78
464.959	11847.67
465.165	11632.63
465.37	11075.59
465.575	10944.52
465.781	11327.49
465.986	11264
466.191	10747.91
466.397	10854.41
466.602	10395.66
466.807	10555.4
467.012	10559.5
467.218	10418.19
467.423	10305.55
467.628	10438.67
467.833	10956.8
468.038	10422.28
468.244	10164.24
468.449	10659.85
