Data from USB4F104151__255__14-01-36-744.txt Node

Date: Thu Mar 13 14:01:36 EDT 2025
User: louis
Spectrometer: USB4F10415
Trigger mode: 4
Integration Time (sec): 1.000000E-2
Scans to average: 1
Electric dark correction enabled: true
Nonlinearity correction enabled: false
Boxcar width: 0
XAxis mode: Wavelengths
Number of Pixels in Spectrum: 3648
>>>>>Begin Spectral Data<<<<<
178.204	-67.24
178.424	-67.24
178.644	-67.24
178.864	-93.87
179.084	-59.05
179.304	-63.15
179.524	39.25
179.744	55.64
179.964	37.2
180.184	29.01
180.404	-3.75
180.624	6.49
180.844	-26.28
181.064	20.82
181.283	-9.9
181.503	-106.15
181.723	20.82
181.943	-32.43
182.163	-22.19
182.383	39.25
182.602	26.96
182.822	43.35
183.042	-7.85
183.262	31.06
183.482	2.39
183.701	-28.33
183.921	41.3
184.141	-13.99
184.361	-52.91
184.58	-52.91
184.8	-24.23
185.02	20.82
185.239	24.92
185.459	-13.99
185.679	-34.47
185.898	-30.38
186.118	-52.91
186.338	24.92
186.557	59.73
186.777	-71.34
186.997	39.25
187.216	-75.43
187.436	0.34
187.655	-52.91
187.875	-91.82
188.095	12.63
188.314	-38.57
188.534	-5.8
188.753	16.73
188.973	-40.62
189.192	-24.23
189.412	-34.47
189.631	49.49
189.851	65.88
190.07	49.49
190.29	-28.33
190.509	-16.04
190.729	-36.52
190.948	14.68
191.168	-7.85
191.387	-22.19
191.607	-20.14
191.826	-34.47
192.045	-34.47
192.265	26.96
192.484	47.44
192.704	-71.34
192.923	-26.28
193.142	29.01
193.362	-13.99
193.581	33.11
193.8	45.4
194.02	37.2
194.239	-11.95
194.458	16.73
194.678	-65.19
194.897	-32.43
195.116	-28.33
195.335	10.58
195.555	-65.19
195.774	-32.43
195.993	-1.71
196.212	-26.28
196.432	4.44
196.651	-32.43
196.87	-54.95
197.089	-57
197.308	-83.63
197.528	6.49
197.747	4.44
197.966	8.53
198.185	-3.75
198.404	16.73
198.623	37.2
198.842	-1.71
199.062	0.34
199.281	-1.71
199.5	-81.58
199.719	-5.8
199.938	-20.14
200.157	88.4
200.376	14.68
200.595	-36.52
200.814	57.68
201.033	-9.9
201.252	-11.95
201.471	-46.76
201.69	-48.81
201.909	2.39
202.128	47.44
202.347	-5.8
202.566	-63.15
202.785	-22.19
203.004	-40.62
203.223	-1.71
203.442	29.01
203.661	-67.24
203.879	-1.71
204.098	29.01
204.317	41.3
204.536	65.88
204.755	-18.09
204.974	57.68
205.193	-95.91
205.411	6.49
205.63	10.58
205.849	-30.38
206.068	-57
206.287	6.49
206.505	-67.24
206.724	14.68
206.943	-118.44
207.162	8.53
207.381	22.87
207.599	-18.09
207.818	4.44
208.037	-5.8
208.255	39.25
208.474	41.3
208.693	0.34
208.911	-26.28
209.13	33.11
209.349	39.25
209.567	-46.76
209.786	8.53
210.005	31.06
210.223	-3.75
210.442	31.06
210.661	-9.9
210.879	-16.04
211.098	-73.39
211.316	96.6
211.535	-7.85
211.753	-65.19
211.972	0.34
212.191	31.06
212.409	10.58
212.628	12.63
212.846	2.39
213.065	88.4
213.283	57.68
213.502	53.59
213.72	-65.19
213.938	24.92
214.157	-18.09
214.375	2.39
214.594	24.92
214.812	-1.71
215.031	4.44
215.249	-18.09
215.467	-24.23
215.686	0.34
215.904	-50.86
216.122	-44.71
216.341	6.49
216.559	-63.15
216.778	-1.71
216.996	4.44
217.214	-65.19
217.432	16.73
217.651	0.34
217.869	-85.67
218.087	43.35
218.306	-22.19
218.524	22.87
218.742	-48.81
218.96	37.2
219.179	-1.71
219.397	8.53
219.615	-91.82
219.833	0.34
220.051	16.73
220.27	49.49
220.488	0.34
220.706	-73.39
220.924	-3.75
221.142	-44.71
221.36	-5.8
221.578	-46.76
221.796	8.53
222.015	-30.38
222.233	4.44
222.451	-42.67
222.669	-5.8
222.887	-30.38
223.105	-30.38
223.323	8.53
223.541	-50.86
223.759	-28.33
223.977	-36.52
224.195	16.73
224.413	6.49
224.631	51.54
224.849	16.73
225.067	61.78
225.285	57.68
225.503	-9.9
225.721	-54.95
225.939	-20.14
226.157	-26.28
226.375	-42.67
226.592	-38.57
226.81	16.73
227.028	-100.01
227.246	41.3
227.464	-32.43
227.682	-54.95
227.9	35.16
228.117	-7.85
228.335	10.58
228.553	-48.81
228.771	-11.95
228.989	35.16
229.206	29.01
229.424	-28.33
229.642	-61.1
229.86	33.11
230.077	10.58
230.295	-9.9
230.513	14.68
230.731	-3.75
230.948	-83.63
231.166	96.6
231.384	-34.47
231.601	12.63
231.819	47.44
232.037	-20.14
232.254	-59.05
232.472	0.34
232.689	-67.24
232.907	59.73
233.125	-38.57
233.342	24.92
233.56	-50.86
233.777	-5.8
233.995	-34.47
234.213	-36.52
234.43	14.68
234.648	-3.75
234.865	-32.43
235.083	-32.43
235.3	43.35
235.518	-13.99
235.735	74.07
235.953	-7.85
236.17	-5.8
236.388	-69.29
236.605	-22.19
236.822	-20.14
237.04	16.73
237.257	0.34
237.475	49.49
237.692	-57
237.909	6.49
238.127	8.53
238.344	20.82
238.562	41.3
238.779	-20.14
238.996	-57
239.214	-48.81
239.431	-24.23
239.648	-36.52
239.865	-7.85
240.083	-34.47
240.3	22.87
240.517	-38.57
240.735	-3.75
240.952	18.77
241.169	-40.62
241.386	-38.57
241.603	-50.86
241.821	26.96
242.038	43.35
242.255	-3.75
242.472	-24.23
242.689	8.53
242.907	55.64
243.124	-32.43
243.341	22.87
243.558	-22.19
243.775	26.96
243.992	0.34
244.209	2.39
244.426	-18.09
244.643	20.82
244.86	-22.19
245.078	-18.09
245.295	-7.85
245.512	-16.04
245.729	-26.28
245.946	-38.57
246.163	6.49
246.38	6.49
246.597	-83.63
246.814	33.11
247.031	-7.85
247.248	0.34
247.464	-3.75
247.681	98.64
247.898	16.73
248.115	-9.9
248.332	33.11
248.549	76.12
248.766	10.58
248.983	2.39
249.2	80.21
249.417	80.21
249.633	-16.04
249.85	41.3
250.067	-34.47
250.284	-9.9
250.501	-65.19
250.717	22.87
250.934	41.3
251.151	-13.99
251.368	-59.05
251.585	-57
251.801	-87.72
252.018	2.39
252.235	-48.81
252.451	55.64
252.668	-50.86
252.885	-36.52
253.102	10.58
253.318	-48.81
253.535	16.73
253.752	-93.87
253.968	10.58
254.185	-63.15
254.401	-50.86
254.618	33.11
254.835	4.44
255.051	80.21
255.268	-16.04
255.484	-83.63
255.701	-7.85
255.917	-20.14
256.134	41.3
256.351	6.49
256.567	-1.71
256.784	-48.81
257	-65.19
257.217	-9.9
257.433	-18.09
257.65	12.63
257.866	12.63
258.082	-9.9
258.299	8.53
258.515	-5.8
258.732	-42.67
258.948	-30.38
259.165	8.53
259.381	-59.05
259.597	-63.15
259.814	-28.33
260.03	-71.34
260.246	-20.14
260.463	6.49
260.679	29.01
260.895	-79.53
261.112	22.87
261.328	24.92
261.544	61.78
261.761	-9.9
261.977	-91.82
262.193	2.39
262.409	20.82
262.626	20.82
262.842	-7.85
263.058	-3.75
263.274	0.34
263.49	20.82
263.707	-5.8
263.923	-54.95
264.139	37.2
264.355	-46.76
264.571	12.63
264.787	-69.29
265.004	31.06
265.22	-54.95
265.436	-22.19
265.652	-9.9
265.868	24.92
266.084	-38.57
266.3	-5.8
266.516	-71.34
266.732	-40.62
266.948	-1.71
267.164	-65.19
267.38	-50.86
267.596	-20.14
267.812	10.58
268.028	4.44
268.244	-75.43
268.46	-24.23
268.676	-54.95
268.892	33.11
269.108	-1.71
269.324	-11.95
269.54	2.39
269.756	59.73
269.972	6.49
270.188	-46.76
270.403	18.77
270.619	57.68
270.835	-18.09
271.051	31.06
271.267	-34.47
271.483	-16.04
271.698	10.58
271.914	-48.81
272.13	26.96
272.346	-18.09
272.562	-5.8
272.777	51.54
272.993	-65.19
273.209	16.73
273.425	26.96
273.64	-32.43
273.856	-13.99
274.072	31.06
274.287	-34.47
274.503	0.34
274.719	-34.47
274.934	33.11
275.15	-50.86
275.366	-30.38
275.581	-57
275.797	33.11
276.012	-69.29
276.228	14.68
276.444	14.68
276.659	24.92
276.875	-28.33
277.09	-48.81
277.306	-102.06
277.521	63.83
277.737	-52.91
277.952	22.87
278.168	-22.19
278.383	-13.99
278.599	-9.9
278.814	22.87
279.03	-32.43
279.245	45.4
279.461	-3.75
279.676	-65.19
279.892	-26.28
280.107	-73.39
280.322	-32.43
280.538	-34.47
280.753	26.96
280.969	16.73
281.184	-36.52
281.399	-3.75
281.615	31.06
281.83	41.3
282.045	22.87
282.26	2.39
282.476	-34.47
282.691	-7.85
282.906	-24.23
283.122	10.58
283.337	-52.91
283.552	6.49
283.767	18.77
283.983	22.87
284.198	-54.95
284.413	20.82
284.628	0.34
284.843	22.87
285.058	26.96
285.274	10.58
285.489	-34.47
285.704	-46.76
285.919	14.68
286.134	-34.47
286.349	49.49
286.564	-11.95
286.779	55.64
286.995	41.3
287.21	-44.71
287.425	45.4
287.64	-52.91
287.855	10.58
288.07	-73.39
288.285	31.06
288.5	-18.09
288.715	18.77
288.93	-1.71
289.145	-16.04
289.36	63.83
289.575	2.39
289.79	-16.04
290.004	-26.28
290.219	-11.95
290.434	45.4
290.649	61.78
290.864	-11.95
291.079	16.73
291.294	-50.86
291.509	-22.19
291.724	-32.43
291.938	-16.04
292.153	82.26
292.368	-52.91
292.583	-52.91
292.798	35.16
293.012	-13.99
293.227	-11.95
293.442	-9.9
293.657	-59.05
293.871	63.83
294.086	-7.85
294.301	14.68
294.516	22.87
294.73	10.58
294.945	-24.23
295.16	6.49
295.374	-24.23
295.589	8.53
295.804	76.12
296.018	-30.38
296.233	45.4
296.447	8.53
296.662	29.01
296.877	-83.63
297.091	-24.23
297.306	12.63
297.52	-20.14
297.735	-24.23
297.949	24.92
298.164	16.73
298.378	47.44
298.593	-1.71
298.807	-5.8
299.022	-9.9
299.236	-32.43
299.451	-63.15
299.665	14.68
299.88	2.39
300.094	20.82
300.309	33.11
300.523	-83.63
300.737	14.68
300.952	4.44
301.166	24.92
301.381	-1.71
301.595	-50.86
301.809	-7.85
302.024	-26.28
302.238	-63.15
302.452	-1.71
302.667	-16.04
302.881	26.96
303.095	-7.85
303.309	-36.52
303.524	-48.81
303.738	-7.85
303.952	10.58
304.166	22.87
304.381	35.16
304.595	-9.9
304.809	-34.47
305.023	63.83
305.237	-40.62
305.452	24.92
305.666	41.3
305.88	-18.09
306.094	-9.9
306.308	26.96
306.522	-9.9
306.736	29.01
306.95	20.82
307.164	-3.75
307.379	-18.09
307.593	12.63
307.807	-7.85
308.021	31.06
308.235	-77.48
308.449	-26.28
308.663	-54.95
308.877	37.2
309.091	45.4
309.305	-30.38
309.519	-24.23
309.733	47.44
309.947	63.83
310.161	37.2
310.374	31.06
310.588	35.16
310.802	-50.86
311.016	14.68
311.23	-18.09
311.444	-75.43
311.658	-28.33
311.872	-44.71
312.085	6.49
312.299	-5.8
312.513	-71.34
312.727	14.68
312.941	39.25
313.154	-44.71
313.368	-71.34
313.582	8.53
313.796	43.35
314.009	8.53
314.223	-52.91
314.437	-26.28
314.651	51.54
314.864	-59.05
315.078	-87.72
315.292	10.58
315.505	16.73
315.719	-40.62
315.933	-28.33
316.146	-1.71
316.36	26.96
316.573	-40.62
316.787	47.44
317.001	6.49
317.214	2.39
317.428	16.73
317.641	8.53
317.855	-63.15
318.068	8.53
318.282	-24.23
318.495	-11.95
318.709	-57
318.922	12.63
319.136	14.68
319.349	-22.19
319.563	-11.95
319.776	6.49
319.99	-54.95
320.203	65.88
320.417	10.58
320.63	-11.95
320.843	10.58
321.057	6.49
321.27	-48.81
321.483	47.44
321.697	45.4
321.91	-3.75
322.124	61.78
322.337	2.39
322.55	26.96
322.763	33.11
322.977	-30.38
323.19	-91.82
323.403	-9.9
323.617	24.92
323.83	31.06
324.043	-22.19
324.256	2.39
324.469	0.34
324.683	18.77
324.896	26.96
325.109	-5.8
325.322	-32.43
325.535	31.06
325.748	-48.81
325.962	6.49
326.175	-1.71
326.388	-18.09
326.601	16.73
326.814	-16.04
327.027	33.11
327.24	-1.71
327.453	-42.67
327.666	69.97
327.879	-50.86
328.092	10.58
328.305	18.77
328.518	24.92
328.731	-54.95
328.944	-3.75
329.157	-40.62
329.37	-24.23
329.583	-57
329.796	-42.67
330.009	31.06
330.222	-13.99
330.435	59.73
330.648	47.44
330.861	12.63
331.073	6.49
331.286	6.49
331.499	-24.23
331.712	-93.87
331.925	22.87
332.138	10.58
332.35	14.68
332.563	-7.85
332.776	-16.04
332.989	-18.09
333.202	-13.99
333.414	-18.09
333.627	-61.1
333.84	-13.99
334.053	14.68
334.265	33.11
334.478	39.25
334.691	16.73
334.903	74.07
335.116	-28.33
335.329	-26.28
335.541	-16.04
335.754	12.63
335.966	8.53
336.179	-59.05
336.392	39.25
336.604	-38.57
336.817	-57
337.029	43.35
337.242	16.73
337.454	-59.05
337.667	-1.71
337.88	16.73
338.092	47.44
338.305	33.11
338.517	-87.72
338.729	-3.75
338.942	37.2
339.154	-5.8
339.367	-20.14
339.579	22.87
339.792	-54.95
340.004	72.02
340.217	22.87
340.429	12.63
340.641	-59.05
340.854	-42.67
341.066	-50.86
341.278	-54.95
341.491	16.73
341.703	-9.9
341.915	-3.75
342.128	24.92
342.34	-30.38
342.552	10.58
342.764	8.53
342.977	-3.75
343.189	-24.23
343.401	-3.75
343.613	-7.85
343.826	18.77
344.038	-13.99
344.25	53.59
344.462	-13.99
344.674	8.53
344.886	4.44
345.099	6.49
345.311	-16.04
345.523	39.25
345.735	-24.23
345.947	31.06
346.159	-13.99
346.371	39.25
346.583	-18.09
346.795	37.2
347.007	-38.57
347.219	10.58
347.431	-36.52
347.643	51.54
347.855	-9.9
348.067	57.68
348.279	-1.71
348.491	-26.28
348.703	-30.38
348.915	12.63
349.127	-28.33
349.339	61.78
349.551	12.63
349.763	-34.47
349.975	39.25
350.187	22.87
350.399	-38.57
350.61	-63.15
350.822	-52.91
351.034	-7.85
351.246	78.16
351.458	10.58
351.669	-48.81
351.881	-32.43
352.093	22.87
352.305	-79.53
352.517	35.16
352.728	2.39
352.94	24.92
353.152	-30.38
353.363	14.68
353.575	-1.71
353.787	33.11
353.999	61.78
354.21	0.34
354.422	24.92
354.633	20.82
354.845	-34.47
355.057	26.96
355.268	6.49
355.48	47.44
355.692	-59.05
355.903	31.06
356.115	16.73
356.326	-108.2
356.538	37.2
356.749	37.2
356.961	55.64
357.172	31.06
357.384	-5.8
357.595	-32.43
357.807	31.06
358.018	-42.67
358.23	-24.23
358.441	-1.71
358.653	4.44
358.864	-11.95
359.075	43.35
359.287	-32.43
359.498	18.77
359.709	-16.04
359.921	-9.9
360.132	92.5
360.344	-13.99
360.555	-52.91
360.766	22.87
360.977	31.06
361.189	22.87
361.4	6.49
361.611	22.87
361.823	-100.01
362.034	-36.52
362.245	-7.85
362.456	12.63
362.667	33.11
362.879	39.25
363.09	-18.09
363.301	63.83
363.512	6.49
363.723	4.44
363.935	-30.38
364.146	6.49
364.357	-69.29
364.568	-18.09
364.779	-34.47
364.99	39.25
365.201	8.53
365.412	16.73
365.623	-18.09
365.834	-13.99
366.045	-75.43
366.256	26.96
366.467	59.73
366.678	-20.14
366.889	51.54
367.1	-36.52
367.311	-34.47
367.522	53.59
367.733	-48.81
367.944	31.06
368.155	-3.75
368.366	104.79
368.577	-24.23
368.788	14.68
368.999	-40.62
369.209	35.16
369.42	63.83
369.631	45.4
369.842	45.4
370.053	-9.9
370.264	-1.71
370.474	-75.43
370.685	-22.19
370.896	-30.38
371.107	-48.81
371.317	-42.67
371.528	20.82
371.739	22.87
371.95	-75.43
372.16	-18.09
372.371	20.82
372.582	-16.04
372.792	6.49
373.003	-75.43
373.214	-18.09
373.424	41.3
373.635	-38.57
373.846	-73.39
374.056	55.64
374.267	-18.09
374.477	-71.34
374.688	0.34
374.898	-22.19
375.109	47.44
375.319	-59.05
375.53	0.34
375.74	59.73
375.951	33.11
376.161	33.11
376.372	-26.28
376.582	-59.05
376.793	-67.24
377.003	-26.28
377.214	-71.34
377.424	39.25
377.635	35.16
377.845	-16.04
378.055	69.97
378.266	-44.71
378.476	-34.47
378.686	-24.23
378.897	8.53
379.107	80.21
379.317	-26.28
379.528	26.96
379.738	49.49
379.948	8.53
380.158	57.68
380.369	31.06
380.579	22.87
380.789	74.07
380.999	6.49
381.21	-22.19
381.42	-18.09
381.63	-5.8
381.84	39.25
382.05	-22.19
382.261	-34.47
382.471	-3.75
382.681	-7.85
382.891	-24.23
383.101	-9.9
383.311	-28.33
383.521	-67.24
383.731	-79.53
383.941	10.58
384.151	-18.09
384.361	102.74
384.571	-42.67
384.781	35.16
384.991	33.11
385.201	16.73
385.411	18.77
385.621	-22.19
385.831	-18.09
386.041	33.11
386.251	-36.52
386.461	20.82
386.671	33.11
386.881	26.96
387.091	-1.71
387.301	39.25
387.511	6.49
387.72	6.49
387.93	-40.62
388.14	-20.14
388.35	8.53
388.56	0.34
388.769	26.96
388.979	10.58
389.189	-67.24
389.399	39.25
389.609	16.73
389.818	-7.85
390.028	-83.63
390.238	65.88
390.447	-26.28
390.657	0.34
390.867	-22.19
391.076	22.87
391.286	-57
391.496	55.64
391.705	26.96
391.915	-48.81
392.125	-16.04
392.334	-1.71
392.544	-50.86
392.753	-89.77
392.963	-71.34
393.172	78.16
393.382	41.3
393.591	4.44
393.801	-11.95
394.01	65.88
394.22	-7.85
394.429	-7.85
394.639	-5.8
394.848	-7.85
395.058	-22.19
395.267	123.22
395.477	-26.28
395.686	-11.95
395.895	6.49
396.105	29.01
396.314	-9.9
396.524	-28.33
396.733	-32.43
396.942	26.96
397.152	-20.14
397.361	35.16
397.57	-50.86
397.78	2.39
397.989	53.59
398.198	-5.8
398.407	53.59
398.617	-73.39
398.826	0.34
399.035	22.87
399.244	-18.09
399.453	-13.99
399.663	26.96
399.872	-7.85
400.081	84.31
400.29	-44.71
400.499	-40.62
400.708	74.07
400.917	61.78
401.127	90.45
401.336	-9.9
401.545	-1.71
401.754	22.87
401.963	51.54
402.172	-9.9
402.381	53.59
402.59	41.3
402.799	47.44
403.008	29.01
403.217	-59.05
403.426	29.01
403.635	31.06
403.844	-5.8
404.053	-11.95
404.262	24.92
404.471	69.97
404.68	-5.8
404.888	43.35
405.097	-44.71
405.306	6.49
405.515	6.49
405.724	20.82
405.933	26.96
406.142	26.96
406.35	14.68
406.559	-3.75
406.768	41.3
406.977	65.88
407.185	57.68
407.394	55.64
407.603	55.64
407.812	78.16
408.02	88.4
408.229	47.44
408.438	121.17
408.646	86.36
408.855	108.88
409.064	135.51
409.272	133.46
409.481	22.87
409.69	117.08
409.898	139.6
410.107	121.17
410.315	115.03
410.524	121.17
410.733	123.22
410.941	96.6
411.15	207.19
411.358	67.92
411.567	168.27
411.775	147.8
411.984	115.03
412.192	168.27
412.401	141.65
412.609	170.32
412.818	168.27
413.026	121.17
413.234	176.47
413.443	125.27
413.651	196.95
413.86	248.15
414.068	172.37
414.276	291.15
414.485	225.62
414.693	166.23
414.901	254.29
415.11	303.44
415.318	276.82
415.526	264.53
415.734	301.39
415.943	328.02
416.151	340.3
416.359	239.95
416.567	264.53
416.776	442.7
416.984	336.21
417.192	344.4
417.4	352.59
417.608	303.44
417.817	358.74
418.025	348.5
418.233	450.89
418.441	401.74
418.649	434.51
418.857	475.47
419.065	522.57
419.273	467.28
419.481	467.28
419.689	516.43
419.897	565.58
420.105	498
420.313	612.68
420.521	618.83
420.729	586.06
420.937	647.5
421.145	616.78
421.353	670.03
421.561	710.99
421.769	768.33
421.977	670.03
422.185	667.98
422.393	760.14
422.601	827.72
422.809	803.15
423.017	833.86
423.224	958.79
423.432	909.64
423.64	977.22
423.848	981.32
424.056	987.46
424.263	1136.96
424.471	1087.81
424.679	1071.43
424.887	1155.4
425.094	1081.67
425.302	1202.5
425.51	1218.88
425.718	1120.58
425.925	1272.13
426.133	1327.43
426.341	1362.24
426.548	1446.21
426.756	1456.45
426.964	1452.35
427.171	1571.13
427.379	1573.18
427.586	1687.87
427.794	1608
428.001	1681.72
428.209	1845.56
428.417	1730.87
428.624	1925.43
428.832	1933.62
429.039	1898.81
429.247	1884.47
429.454	2124.08
429.662	2244.92
429.869	2126.13
430.076	2160.95
430.284	2148.66
430.491	2289.97
430.699	2332.98
430.906	2304.31
431.114	2541.87
431.321	2550.06
431.528	2625.84
431.736	2742.57
431.943	2816.3
432.15	2763.05
432.358	2810.15
432.565	2900.27
432.772	2965.8
432.979	3131.69
433.187	3080.49
433.394	3152.17
433.601	3295.52
433.808	3254.56
434.016	3299.62
434.223	3533.09
434.43	3744.03
434.637	3625.25
434.844	3873.05
435.052	3995.93
435.259	3885.34
435.466	3905.82
435.673	4069.66
435.88	4018.46
436.087	4401.43
436.294	4405.52
436.501	4423.95
436.708	4329.75
436.915	4509.97
437.122	4669.71
437.329	4770.06
437.537	4737.29
437.743	4948.23
437.95	4946.19
438.157	5095.69
438.364	5374.21
438.571	5423.36
438.778	5339.4
438.985	5832.96
439.192	5636.35
439.399	5722.37
439.606	5689.6
439.813	5953.79
440.02	6453.49
440.227	6289.65
440.433	6160.63
440.64	6420.72
440.847	6402.29
441.054	6486.26
441.261	6908.14
441.467	6729.97
441.674	6656.24
441.881	7059.69
442.088	7192.81
442.294	7049.45
442.501	7475.43
442.708	7569.63
442.914	7667.94
443.121	8079.58
443.328	8018.14
443.534	8329.43
443.741	8274.14
443.948	7915.74
444.154	8732.88
444.361	8585.43
444.568	8802.51
444.774	8706.26
444.981	8773.84
445.187	8876.24
445.394	9490.63
445.6	9146.57
445.807	10168.51
446.013	9640.13
446.22	9703.62
446.426	10238.14
446.633	10365.11
446.839	10776.75
447.046	10272.95
447.252	10856.62
447.459	10713.27
447.665	10741.94
447.871	11264.17
448.078	11778.21
448.284	11075.76
448.491	11573.41
448.697	11925.66
448.903	12282.01
449.11	12173.47
449.316	11946.14
449.522	12073.12
449.728	12660.88
449.935	12572.82
450.141	12560.53
450.347	12865.68
450.553	12673.17
450.76	12624.02
450.966	13019.28
451.172	13097.1
451.378	13154.44
451.584	12877.97
451.791	13297.8
451.997	13160.59
452.203	13514.89
452.409	13572.23
452.615	13115.53
452.821	12566.68
453.027	12632.21
453.233	13217.93
453.44	13084.81
453.646	12810.39
453.852	12822.67
454.058	13275.27
454.264	12769.43
454.47	12978.32
454.676	12757.14
454.882	13199.5
455.088	11983.01
455.294	12214.43
455.5	12433.56
455.705	12316.83
455.911	11847.84
456.117	11643.04
456.323	11647.14
456.529	10909.87
456.735	11511.97
456.941	11294.89
457.147	10971.31
457.352	10576.05
457.558	10582.2
457.764	10496.18
457.97	10469.56
458.176	10152.12
458.381	9986.24
458.587	9535.68
458.793	9582.79
458.999	8960.2
459.204	9808.06
459.41	9439.43
459.616	8839.37
459.821	8739.02
460.027	8755.41
460.233	8558.8
460.438	8323.29
460.644	8190.17
460.85	8001.76
461.055	7917.79
461.261	7778.53
461.466	7178.47
461.672	7024.87
461.878	7512.29
462.083	7078.12
462.289	6920.43
462.494	6797.55
462.7	6484.21
462.905	6256.89
463.111	6629.62
463.316	6549.75
463.522	6490.35
463.727	6539.51
463.932	6543.6
464.138	6410.48
464.343	6494.45
464.549	6265.08
464.754	6482.16
464.959	6316.28
465.165	6504.69
465.37	6060.28
465.575	6015.23
465.781	6236.41
465.986	6207.73
466.191	6037.75
466.397	5884.16
466.602	5536
466.807	5748.99
467.012	5892.35
467.218	5912.83
467.423	5579.01
