Data from USB4F104151__145__13-58-16-855.txt Node

Date: Thu Mar 13 13:58:16 EDT 2025
User: louis
Spectrometer: USB4F10415
Trigger mode: 4
Integration Time (sec): 1.000000E-2
Scans to average: 1
Electric dark correction enabled: true
Nonlinearity correction enabled: false
Boxcar width: 0
XAxis mode: Wavelengths
Number of Pixels in Spectrum: 3648
>>>>>Begin Spectral Data<<<<<
178.204	-93.18
178.424	-93.18
178.644	-93.18
178.864	-95.23
179.084	-29.7
179.304	3.07
179.524	17.41
179.744	41.98
179.964	5.12
180.184	35.84
180.404	9.22
180.624	17.41
180.844	-37.89
181.064	-68.61
181.283	11.26
181.503	-33.79
181.723	-1.02
181.943	25.6
182.163	11.26
182.383	-5.12
182.602	52.22
182.822	23.55
183.042	-7.17
183.262	-41.98
183.482	-17.41
183.701	-21.5
183.921	-72.7
184.141	-39.94
184.361	48.13
184.58	-37.89
184.8	-1.02
185.02	-33.79
185.239	-7.17
185.459	-7.17
185.679	-41.98
185.898	-15.36
186.118	-39.94
186.338	-9.22
186.557	-41.98
186.777	23.55
186.997	-11.26
187.216	-37.89
187.436	-23.55
187.655	19.46
187.875	-17.41
188.095	-11.26
188.314	21.5
188.534	-21.5
188.753	48.13
188.973	54.27
189.192	21.5
189.412	-76.8
189.631	-46.08
189.851	35.84
190.07	-15.36
190.29	19.46
190.509	-3.07
190.729	21.5
190.948	7.17
191.168	93.18
191.387	37.89
191.607	21.5
191.826	44.03
192.045	48.13
192.265	17.41
192.484	60.42
192.704	-68.61
192.923	-58.37
193.142	-15.36
193.362	21.5
193.581	41.98
193.8	-5.12
194.02	31.74
194.239	-7.17
194.458	-17.41
194.678	-29.7
194.897	-13.31
195.116	-31.74
195.335	44.03
195.555	9.22
195.774	-3.07
195.993	44.03
196.212	-33.79
196.432	3.07
196.651	27.65
196.87	-115.71
197.089	48.13
197.308	-21.5
197.528	-39.94
197.747	-46.08
197.966	-23.55
198.185	21.5
198.404	52.22
198.623	48.13
198.842	-15.36
199.062	-37.89
199.281	31.74
199.5	-74.75
199.719	-9.22
199.938	13.31
200.157	58.37
200.376	1.02
200.595	-23.55
200.814	-17.41
201.033	3.07
201.252	84.99
201.471	-13.31
201.69	-17.41
201.909	52.22
202.128	11.26
202.347	27.65
202.566	23.55
202.785	-37.89
203.004	3.07
203.223	25.6
203.442	15.36
203.661	7.17
203.879	23.55
204.098	41.98
204.317	-17.41
204.536	-15.36
204.755	5.12
204.974	23.55
205.193	17.41
205.411	72.7
205.63	33.79
205.849	-54.27
206.068	35.84
206.287	80.89
206.505	7.17
206.724	25.6
206.943	5.12
207.162	-29.7
207.381	-17.41
207.599	-23.55
207.818	-13.31
208.037	13.31
208.255	-66.56
208.474	9.22
208.693	33.79
208.911	27.65
209.13	-35.84
209.349	-31.74
209.567	11.26
209.786	52.22
210.005	35.84
210.223	-33.79
210.442	-72.7
210.661	-3.07
210.879	-1.02
211.098	-25.6
211.316	19.46
211.535	-23.55
211.753	-48.13
211.972	-1.02
212.191	-5.12
212.409	-5.12
212.628	-39.94
212.846	3.07
213.065	-1.02
213.283	21.5
213.502	11.26
213.72	-76.8
213.938	-13.31
214.157	-23.55
214.375	19.46
214.594	-27.65
214.812	-35.84
215.031	-1.02
215.249	11.26
215.467	-1.02
215.686	41.98
215.904	39.94
216.122	-78.85
216.341	-15.36
216.559	25.6
216.778	-9.22
216.996	9.22
217.214	-5.12
217.432	80.89
217.651	9.22
217.869	-37.89
218.087	-3.07
218.306	-5.12
218.524	7.17
218.742	-44.03
218.96	25.6
219.179	-5.12
219.397	39.94
219.615	-17.41
219.833	25.6
220.051	-27.65
220.27	3.07
220.488	-27.65
220.706	-39.94
220.924	-11.26
221.142	-37.89
221.36	27.65
221.578	9.22
221.796	23.55
222.015	9.22
222.233	-39.94
222.451	13.31
222.669	52.22
222.887	-29.7
223.105	3.07
223.323	-3.07
223.541	-25.6
223.759	11.26
223.977	9.22
224.195	-19.46
224.413	-35.84
224.631	101.37
224.849	-13.31
225.067	13.31
225.285	-46.08
225.503	-23.55
225.721	29.7
225.939	-15.36
226.157	-23.55
226.375	25.6
226.592	-39.94
226.81	60.42
227.028	-7.17
227.246	3.07
227.464	39.94
227.682	-19.46
227.9	17.41
228.117	31.74
228.335	31.74
228.553	-13.31
228.771	-1.02
228.989	-31.74
229.206	-1.02
229.424	31.74
229.642	11.26
229.86	44.03
230.077	56.32
230.295	-58.37
230.513	27.65
230.731	5.12
230.948	-39.94
231.166	54.27
231.384	-52.22
231.601	68.61
231.819	-27.65
232.037	15.36
232.254	39.94
232.472	-58.37
232.689	44.03
232.907	-37.89
233.125	15.36
233.342	-41.98
233.56	-19.46
233.777	5.12
233.995	-11.26
234.213	-23.55
234.43	23.55
234.648	-54.27
234.865	-25.6
235.083	5.12
235.3	-25.6
235.518	-5.12
235.735	80.89
235.953	62.46
236.17	-13.31
236.388	-15.36
236.605	-17.41
236.822	23.55
237.04	25.6
237.257	-78.85
237.475	7.17
237.692	29.7
237.909	15.36
238.127	-3.07
238.344	23.55
238.562	33.79
238.779	23.55
238.996	-66.56
239.214	-5.12
239.431	27.65
239.648	68.61
239.865	7.17
240.083	-25.6
240.3	62.46
240.517	-3.07
240.735	19.46
240.952	109.57
241.169	-1.02
241.386	-3.07
241.603	62.46
241.821	-54.27
242.038	13.31
242.255	25.6
242.472	33.79
242.689	48.13
242.907	35.84
243.124	-13.31
243.341	-5.12
243.558	78.85
243.775	-23.55
243.992	19.46
244.209	7.17
244.426	58.37
244.643	23.55
244.86	-29.7
245.078	-13.31
245.295	-7.17
245.512	29.7
245.729	-31.74
245.946	7.17
246.163	3.07
246.38	-60.42
246.597	-17.41
246.814	-1.02
247.031	-7.17
247.248	15.36
247.464	-27.65
247.681	-7.17
247.898	9.22
248.115	17.41
248.332	-17.41
248.549	37.89
248.766	3.07
248.983	-27.65
249.2	-41.98
249.417	-7.17
249.633	13.31
249.85	-23.55
250.067	-21.5
250.284	3.07
250.501	13.31
250.717	-41.98
250.934	-21.5
251.151	11.26
251.368	23.55
251.585	-41.98
251.801	117.76
252.018	-7.17
252.235	25.6
252.451	52.22
252.668	3.07
252.885	17.41
253.102	68.61
253.318	9.22
253.535	-35.84
253.752	27.65
253.968	-13.31
254.185	15.36
254.401	48.13
254.618	17.41
254.835	-23.55
255.051	56.32
255.268	33.79
255.484	11.26
255.701	-33.79
255.917	3.07
256.134	21.5
256.351	5.12
256.567	-9.22
256.784	60.42
257	-64.51
257.217	17.41
257.433	25.6
257.65	62.46
257.866	48.13
258.082	7.17
258.299	-46.08
258.515	3.07
258.732	15.36
258.948	-17.41
259.165	-31.74
259.381	-9.22
259.597	31.74
259.814	50.18
260.03	-1.02
260.246	25.6
260.463	-17.41
260.679	46.08
260.895	37.89
261.112	-1.02
261.328	-37.89
261.544	-50.18
261.761	46.08
261.977	-39.94
262.193	-13.31
262.409	-17.41
262.626	-58.37
262.842	13.31
263.058	-25.6
263.274	50.18
263.49	-62.46
263.707	-1.02
263.923	5.12
264.139	-17.41
264.355	7.17
264.571	48.13
264.787	39.94
265.004	56.32
265.22	35.84
265.436	54.27
265.652	-9.22
265.868	-11.26
266.084	-44.03
266.3	37.89
266.516	-37.89
266.732	-17.41
266.948	15.36
267.164	23.55
267.38	23.55
267.596	-56.32
267.812	35.84
268.028	39.94
268.244	39.94
268.46	-21.5
268.676	1.02
268.892	37.89
269.108	44.03
269.324	31.74
269.54	-23.55
269.756	31.74
269.972	99.33
270.188	-13.31
270.403	3.07
270.619	-9.22
270.835	-44.03
271.051	-3.07
271.267	-33.79
271.483	84.99
271.698	-7.17
271.914	-9.22
272.13	-62.46
272.346	-64.51
272.562	21.5
272.777	-1.02
272.993	-35.84
273.209	-52.22
273.425	68.61
273.64	25.6
273.856	3.07
274.072	70.65
274.287	-19.46
274.503	7.17
274.719	-44.03
274.934	19.46
275.15	-5.12
275.366	56.32
275.581	-13.31
275.797	89.09
276.012	17.41
276.228	15.36
276.444	95.23
276.659	44.03
276.875	-62.46
277.09	-15.36
277.306	5.12
277.521	23.55
277.737	25.6
277.952	60.42
278.168	37.89
278.383	25.6
278.599	-13.31
278.814	-9.22
279.03	-3.07
279.245	58.37
279.461	50.18
279.676	-17.41
279.892	-9.22
280.107	41.98
280.322	-78.85
280.538	-27.65
280.753	5.12
280.969	9.22
281.184	-33.79
281.399	35.84
281.615	64.51
281.83	84.99
282.045	56.32
282.26	-7.17
282.476	37.89
282.691	7.17
282.906	-7.17
283.122	50.18
283.337	-56.32
283.552	-56.32
283.767	11.26
283.983	44.03
284.198	-17.41
284.413	37.89
284.628	-7.17
284.843	-17.41
285.058	39.94
285.274	52.22
285.489	-1.02
285.704	37.89
285.919	-39.94
286.134	27.65
286.349	7.17
286.564	5.12
286.779	-1.02
286.995	7.17
287.21	-15.36
287.425	-21.5
287.64	15.36
287.855	-15.36
288.07	29.7
288.285	21.5
288.5	7.17
288.715	-3.07
288.93	-19.46
289.145	-50.18
289.36	-52.22
289.575	46.08
289.79	-17.41
290.004	13.31
290.219	93.18
290.434	-7.17
290.649	-82.94
290.864	-21.5
291.079	-44.03
291.294	-9.22
291.509	37.89
291.724	76.8
291.938	64.51
292.153	33.79
292.368	21.5
292.583	-11.26
292.798	-15.36
293.012	-1.02
293.227	-21.5
293.442	48.13
293.657	19.46
293.871	39.94
294.086	21.5
294.301	23.55
294.516	21.5
294.73	50.18
294.945	23.55
295.16	-70.65
295.374	1.02
295.589	68.61
295.804	-13.31
296.018	25.6
296.233	41.98
296.447	-25.6
296.662	66.56
296.877	41.98
297.091	-17.41
297.306	11.26
297.52	35.84
297.735	-68.61
297.949	11.26
298.164	35.84
298.378	-13.31
298.593	23.55
298.807	93.18
299.022	15.36
299.236	-44.03
299.451	66.56
299.665	-64.51
299.88	-25.6
300.094	76.8
300.309	21.5
300.523	60.42
300.737	29.7
300.952	-27.65
301.166	-7.17
301.381	5.12
301.595	-9.22
301.809	-48.13
302.024	1.02
302.238	-7.17
302.452	-13.31
302.667	3.07
302.881	5.12
303.095	23.55
303.309	25.6
303.524	3.07
303.738	7.17
303.952	-1.02
304.166	9.22
304.381	9.22
304.595	-31.74
304.809	1.02
305.023	-82.94
305.237	-13.31
305.452	1.02
305.666	33.79
305.88	7.17
306.094	-1.02
306.308	11.26
306.522	-15.36
306.736	7.17
306.95	-5.12
307.164	-1.02
307.379	17.41
307.593	54.27
307.807	7.17
308.021	3.07
308.235	9.22
308.449	19.46
308.663	3.07
308.877	56.32
309.091	-5.12
309.305	37.89
309.519	-3.07
309.733	-50.18
309.947	1.02
310.161	23.55
310.374	-72.7
310.588	-9.22
310.802	-5.12
311.016	5.12
311.23	52.22
311.444	31.74
311.658	-25.6
311.872	31.74
312.085	13.31
312.299	-68.61
312.513	25.6
312.727	64.51
312.941	-27.65
313.154	23.55
313.368	-17.41
313.582	68.61
313.796	-62.46
314.009	-46.08
314.223	-13.31
314.437	31.74
314.651	27.65
314.864	-66.56
315.078	-31.74
315.292	-17.41
315.505	1.02
315.719	72.7
315.933	-39.94
316.146	23.55
316.36	-13.31
316.573	23.55
316.787	-23.55
317.001	19.46
317.214	-76.8
317.428	50.18
317.641	-35.84
317.855	74.75
318.068	-23.55
318.282	23.55
318.495	27.65
318.709	-23.55
318.922	-13.31
319.136	33.79
319.349	27.65
319.563	1.02
319.776	-58.37
319.99	-66.56
320.203	-66.56
320.417	-7.17
320.63	-25.6
320.843	56.32
321.057	39.94
321.27	60.42
321.483	-3.07
321.697	7.17
321.91	7.17
322.124	7.17
322.337	-21.5
322.55	-17.41
322.763	9.22
322.977	-7.17
323.19	-27.65
323.403	33.79
323.617	19.46
323.83	74.75
324.043	9.22
324.256	74.75
324.469	-9.22
324.683	39.94
324.896	41.98
325.109	-5.12
325.322	11.26
325.535	-23.55
325.748	44.03
325.962	19.46
326.175	-54.27
326.388	-27.65
326.601	-7.17
326.814	35.84
327.027	-56.32
327.24	44.03
327.453	-31.74
327.666	31.74
327.879	1.02
328.092	48.13
328.305	5.12
328.518	41.98
328.731	54.27
328.944	-72.7
329.157	-31.74
329.37	-17.41
329.583	-58.37
329.796	-5.12
330.009	3.07
330.222	27.65
330.435	-27.65
330.648	-9.22
330.861	19.46
331.073	37.89
331.286	15.36
331.499	-5.12
331.712	44.03
331.925	-70.65
332.138	-54.27
332.35	107.52
332.563	-33.79
332.776	1.02
332.989	-23.55
333.202	-3.07
333.414	9.22
333.627	35.84
333.84	48.13
334.053	-5.12
334.265	74.75
334.478	58.37
334.691	15.36
334.903	74.75
335.116	-44.03
335.329	31.74
335.541	23.55
335.754	-15.36
335.966	-41.98
336.179	23.55
336.392	-33.79
336.604	9.22
336.817	-19.46
337.029	48.13
337.242	-78.85
337.454	-50.18
337.667	27.65
337.88	11.26
338.092	-64.51
338.305	29.7
338.517	5.12
338.729	-3.07
338.942	-21.5
339.154	60.42
339.367	121.85
339.579	58.37
339.792	-11.26
340.004	-31.74
340.217	-39.94
340.429	35.84
340.641	-17.41
340.854	17.41
341.066	-41.98
341.278	3.07
341.491	56.32
341.703	37.89
341.915	15.36
342.128	5.12
342.34	-13.31
342.552	39.94
342.764	66.56
342.977	72.7
343.189	27.65
343.401	91.13
343.613	-31.74
343.826	41.98
344.038	3.07
344.25	68.61
344.462	23.55
344.674	91.13
344.886	19.46
345.099	72.7
345.311	-41.98
345.523	-23.55
345.735	29.7
345.947	37.89
346.159	-3.07
346.371	-27.65
346.583	-9.22
346.795	-52.22
347.007	1.02
347.219	-19.46
347.431	1.02
347.643	-11.26
347.855	17.41
348.067	50.18
348.279	13.31
348.491	29.7
348.703	9.22
348.915	-11.26
349.127	19.46
349.339	27.65
349.551	37.89
349.763	-5.12
349.975	-25.6
350.187	37.89
350.399	-27.65
350.61	56.32
350.822	-13.31
351.034	41.98
351.246	-27.65
351.458	-80.89
351.669	-11.26
351.881	68.61
352.093	-7.17
352.305	27.65
352.517	64.51
352.728	37.89
352.94	35.84
353.152	54.27
353.363	7.17
353.575	50.18
353.787	-25.6
353.999	82.94
354.21	17.41
354.422	64.51
354.633	-31.74
354.845	-1.02
355.057	13.31
355.268	5.12
355.48	39.94
355.692	-72.7
355.903	5.12
356.115	56.32
356.326	-11.26
356.538	78.85
356.749	-44.03
356.961	74.75
357.172	29.7
357.384	7.17
357.595	25.6
357.807	-54.27
358.018	-41.98
358.23	66.56
358.441	15.36
358.653	-5.12
358.864	7.17
359.075	11.26
359.287	27.65
359.498	17.41
359.709	3.07
359.921	39.94
360.132	9.22
360.344	23.55
360.555	-3.07
360.766	-1.02
360.977	-23.55
361.189	29.7
361.4	48.13
361.611	48.13
361.823	62.46
362.034	74.75
362.245	9.22
362.456	29.7
362.667	31.74
362.879	37.89
363.09	70.65
363.301	48.13
363.512	19.46
363.723	11.26
363.935	23.55
364.146	7.17
364.357	-3.07
364.568	-56.32
364.779	-23.55
364.99	33.79
365.201	3.07
365.412	66.56
365.623	-13.31
365.834	64.51
366.045	-5.12
366.256	9.22
366.467	-7.17
366.678	70.65
366.889	-13.31
367.1	72.7
367.311	-13.31
367.522	37.89
367.733	-58.37
367.944	31.74
368.155	41.98
368.366	41.98
368.577	-25.6
368.788	-23.55
368.999	13.31
369.209	99.33
369.42	25.6
369.631	-52.22
369.842	-64.51
370.053	-7.17
370.264	33.79
370.474	7.17
370.685	13.31
370.896	11.26
371.107	29.7
371.317	33.79
371.528	46.08
371.739	9.22
371.95	3.07
372.16	-17.41
372.371	-89.09
372.582	19.46
372.792	1.02
373.003	15.36
373.214	-11.26
373.424	39.94
373.635	-19.46
373.846	107.52
374.056	3.07
374.267	-29.7
374.477	21.5
374.688	-37.89
374.898	7.17
375.109	29.7
375.319	52.22
375.53	27.65
375.74	76.8
375.951	27.65
376.161	23.55
376.372	-15.36
376.582	50.18
376.793	-15.36
377.003	58.37
377.214	56.32
377.424	-25.6
377.635	9.22
377.845	35.84
378.055	29.7
378.266	1.02
378.476	27.65
378.686	13.31
378.897	44.03
379.107	-1.02
379.317	130.05
379.528	-1.02
379.738	-29.7
379.948	25.6
380.158	-37.89
380.369	19.46
380.579	72.7
380.789	56.32
380.999	39.94
381.21	11.26
381.42	107.52
381.63	-84.99
381.84	5.12
382.05	-41.98
382.261	31.74
382.471	11.26
382.681	21.5
382.891	35.84
383.101	-17.41
383.311	-84.99
383.521	29.7
383.731	19.46
383.941	27.65
384.151	25.6
384.361	41.98
384.571	48.13
384.781	3.07
384.991	44.03
385.201	-3.07
385.411	52.22
385.621	72.7
385.831	27.65
386.041	-5.12
386.251	27.65
386.461	23.55
386.671	-17.41
386.881	-41.98
387.091	15.36
387.301	25.6
387.511	37.89
387.72	64.51
387.93	66.56
388.14	-9.22
388.35	-13.31
388.56	23.55
388.769	5.12
388.979	48.13
389.189	15.36
389.399	25.6
389.609	1.02
389.818	29.7
390.028	27.65
390.238	15.36
390.447	7.17
390.657	70.65
390.867	25.6
391.076	89.09
391.286	15.36
391.496	39.94
391.705	82.94
391.915	-7.17
392.125	48.13
392.334	56.32
392.544	7.17
392.753	3.07
392.963	46.08
393.172	46.08
393.382	13.31
393.591	82.94
393.801	91.13
394.01	93.18
394.22	52.22
394.429	-58.37
394.639	29.7
394.848	91.13
395.058	5.12
395.267	9.22
395.477	9.22
395.686	56.32
395.895	97.28
396.105	72.7
396.314	46.08
396.524	21.5
396.733	27.65
396.942	70.65
397.152	-5.12
397.361	58.37
397.57	23.55
397.78	33.79
397.989	44.03
398.198	113.66
398.407	29.7
398.617	7.17
398.826	7.17
399.035	105.47
399.244	99.33
399.453	29.7
399.663	66.56
399.872	41.98
400.081	27.65
400.29	15.36
400.499	27.65
400.708	121.85
400.917	-13.31
401.127	23.55
401.336	19.46
401.545	144.38
401.754	107.52
401.963	74.75
402.172	76.8
402.381	50.18
402.59	101.37
402.799	91.13
403.008	140.29
403.217	7.17
403.426	80.89
403.635	35.84
403.844	-3.07
404.053	41.98
404.262	99.33
404.471	44.03
404.68	130.05
404.888	113.66
405.097	76.8
405.306	11.26
405.515	82.94
405.724	39.94
405.933	113.66
406.142	29.7
406.35	115.71
406.559	113.66
406.768	39.94
406.977	121.85
407.185	138.24
407.394	166.91
407.603	101.37
407.812	50.18
408.02	123.9
408.229	70.65
408.438	84.99
408.646	121.85
408.855	117.76
409.064	136.19
409.272	87.04
409.481	130.05
409.69	138.24
409.898	166.91
410.107	107.52
410.315	144.38
410.524	211.96
410.733	123.9
410.941	142.33
411.15	207.87
411.358	222.2
411.567	189.44
411.775	160.77
411.984	150.53
412.192	195.58
412.401	216.06
412.609	136.19
412.818	193.53
413.026	218.11
413.234	216.06
413.443	189.44
413.651	269.31
413.86	365.56
414.068	314.36
414.276	244.73
414.485	250.88
414.693	289.79
414.901	279.55
415.11	367.61
415.318	297.98
415.526	361.47
415.734	295.93
415.943	261.12
416.151	398.33
416.359	343.03
416.567	441.34
416.776	377.85
416.984	400.38
417.192	418.81
417.4	424.95
417.608	424.95
417.817	396.28
418.025	478.2
418.233	535.54
418.441	525.3
418.649	435.19
418.857	537.59
419.065	574.46
419.273	556.02
419.481	558.07
419.689	633.85
419.897	654.33
420.105	558.07
420.313	660.47
420.521	723.96
420.729	650.23
420.937	637.94
421.145	723.96
421.353	807.92
421.561	809.97
421.769	840.69
421.977	885.75
422.185	809.97
422.393	846.84
422.601	865.27
422.809	957.43
423.017	898.03
423.224	924.66
423.432	1031.15
423.64	971.76
423.848	1127.41
424.056	1006.58
424.263	1225.71
424.471	1129.45
424.679	1209.33
424.887	1407.98
425.094	1256.43
425.302	1326.06
425.51	1342.44
425.718	1453.03
425.925	1450.99
426.133	1598.44
426.341	1414.12
426.548	1690.6
426.756	1686.5
426.964	1721.32
427.171	1819.62
427.379	1801.19
427.586	1864.68
427.794	1844.2
428.001	2005.99
428.209	2018.27
428.417	2003.94
428.624	2182.11
428.832	2233.31
429.039	2169.82
429.247	2286.56
429.454	2491.35
429.662	2524.12
429.869	2479.07
430.076	2587.61
430.284	2403.29
430.491	2622.42
430.699	2745.3
430.906	2702.29
431.114	2708.44
431.321	2903
431.528	2886.61
431.736	3144.66
431.943	3216.33
432.15	3222.48
432.358	3247.05
432.565	3290.06
432.772	3314.64
432.979	3576.78
433.187	3546.06
433.394	3564.49
433.601	3800.01
433.808	3920.84
434.016	3826.63
434.223	4144.06
434.43	4176.83
434.637	4250.56
434.844	4420.54
435.052	4547.51
435.259	4412.35
435.466	4365.25
435.673	4506.56
435.88	4656.06
436.087	5041.08
436.294	4989.88
436.501	5000.12
436.708	5069.75
436.915	5174.19
437.122	5368.75
437.329	5407.66
437.537	5520.3
437.743	5647.27
437.95	5747.62
438.157	5786.54
438.364	6228.9
438.571	6177.7
438.778	6116.26
438.985	6626.2
439.192	6341.54
439.399	6572.96
439.606	6583.2
439.813	6859.67
440.02	7203.73
440.227	7162.77
440.433	7054.23
440.64	7113.62
440.847	7357.33
441.054	7414.67
441.261	7844.74
441.467	7848.84
441.674	8027.01
441.881	8446.85
442.088	8133.51
442.294	8252.29
442.501	8489.85
442.708	8555.39
442.914	8594.3
443.121	9085.81
443.328	9010.04
443.534	9583.47
443.741	9239.41
443.948	9433.97
444.154	9775.98
444.361	9870.19
444.568	9859.95
444.774	9962.34
444.981	10050.41
445.187	10173.28
445.394	10640.22
445.6	10693.47
445.807	11748.17
446.013	11379.54
446.22	11273.04
446.426	11828.04
446.633	11995.98
446.839	12147.53
447.046	11686.73
447.252	12305.22
447.459	12372.8
447.665	12428.1
447.871	13191.99
448.078	13388.6
448.284	12966.71
448.491	13175.61
448.697	13673.26
448.903	13896.49
449.11	14082.86
449.316	13699.89
449.522	14041.9
449.728	14349.09
449.935	14465.83
450.141	14545.7
450.347	14830.37
450.553	14345
450.76	14539.55
450.966	15082.27
451.172	14840.61
451.378	15381.27
451.584	14951.2
451.791	15227.67
451.997	15192.86
452.203	15436.56
452.409	15395.61
452.615	15477.52
452.821	14949.15
453.027	14709.54
453.233	15510.29
453.44	14766.88
453.646	14809.89
453.852	15455
454.058	15452.95
454.264	14742.3
454.47	15203.1
454.676	14680.86
454.882	15424.28
455.088	14048.04
455.294	14164.78
455.5	14443.3
455.705	14353.19
455.911	14037.8
456.117	13761.33
456.323	13568.82
456.529	12729.15
456.735	13538.1
456.941	13122.36
457.147	13009.72
457.352	12538.69
457.558	12368.71
457.764	12319.56
457.97	12108.62
458.176	11834.19
458.381	11936.59
458.587	11375.44
458.793	11260.76
458.999	10740.57
459.204	11391.83
459.41	11176.79
459.616	10480.48
459.821	10357.6
460.027	10451.81
460.233	10236.77
460.438	9550.7
460.644	9851.75
460.85	9306.99
461.055	9134.96
461.261	9073.53
461.466	8440.7
461.672	8385.41
461.878	8905.59
462.083	8153.99
462.289	8043.4
462.494	8096.64
462.7	7660.43
462.905	7424.91
463.111	7635.85
463.316	7695.24
463.522	7553.93
463.727	7578.51
463.932	7635.85
464.138	7515.02
464.343	7613.32
464.549	7291.79
464.754	7701.39
464.959	7429.01
465.165	7467.92
465.37	7224.21
465.575	6986.65
465.781	7373.71
465.986	7232.4
466.191	7150.48
466.397	6837.14
466.602	6546.33
466.807	6742.94
467.012	6906.77
467.218	6740.89
467.423	6652.83
467.628	6611.87
467.833	7136.15
468.038	6857.62
468.244	6603.68
468.449	6781.85
468.654	6595.48
468.859	6513.56
