Data from USB4F104151__166__13-58-50-352.txt Node

Date: Thu Mar 13 13:58:50 EDT 2025
User: louis
Spectrometer: USB4F10415
Trigger mode: 4
Integration Time (sec): 1.000000E-2
Scans to average: 1
Electric dark correction enabled: true
Nonlinearity correction enabled: false
Boxcar width: 0
XAxis mode: Wavelengths
Number of Pixels in Spectrum: 3648
>>>>>Begin Spectral Data<<<<<
178.204	-97.96
178.424	-97.96
178.644	-97.96
178.864	-52.91
179.084	-102.06
179.304	4.44
179.524	6.49
179.744	16.73
179.964	-28.33
180.184	-32.43
180.404	-73.39
180.624	26.96
180.844	74.07
181.064	-48.81
181.283	53.59
181.503	-3.75
181.723	4.44
181.943	-22.19
182.163	0.34
182.383	-24.23
182.602	-11.95
182.822	18.77
183.042	-3.75
183.262	-16.04
183.482	-7.85
183.701	37.2
183.921	18.77
184.141	-59.05
184.361	2.39
184.58	-54.95
184.8	0.34
185.02	-13.99
185.239	-48.81
185.459	22.87
185.679	53.59
185.898	-30.38
186.118	-32.43
186.338	-5.8
186.557	20.82
186.777	-11.95
186.997	-46.76
187.216	-26.28
187.436	8.53
187.655	-1.71
187.875	8.53
188.095	-26.28
188.314	-42.67
188.534	-28.33
188.753	8.53
188.973	-30.38
189.192	-32.43
189.412	-42.67
189.631	37.2
189.851	-22.19
190.07	-18.09
190.29	29.01
190.509	-16.04
190.729	-38.57
190.948	-71.34
191.168	-24.23
191.387	0.34
191.607	-13.99
191.826	-20.14
192.045	-46.76
192.265	74.07
192.484	-22.19
192.704	-11.95
192.923	-40.62
193.142	-38.57
193.362	29.01
193.581	-11.95
193.8	-32.43
194.02	-1.71
194.239	-38.57
194.458	31.06
194.678	-69.29
194.897	-5.8
195.116	-24.23
195.335	63.83
195.555	6.49
195.774	-52.91
195.993	-13.99
196.212	59.73
196.432	-38.57
196.651	-32.43
196.87	-1.71
197.089	14.68
197.308	8.53
197.528	-11.95
197.747	-46.76
197.966	14.68
198.185	-61.1
198.404	-50.86
198.623	-16.04
198.842	-32.43
199.062	29.01
199.281	67.92
199.5	-48.81
199.719	-13.99
199.938	0.34
200.157	55.64
200.376	16.73
200.595	14.68
200.814	4.44
201.033	-52.91
201.252	90.45
201.471	-9.9
201.69	-54.95
201.909	-18.09
202.128	39.25
202.347	-69.29
202.566	-13.99
202.785	-30.38
203.004	-57
203.223	-42.67
203.442	86.36
203.661	-5.8
203.879	26.96
204.098	0.34
204.317	-22.19
204.536	24.92
204.755	-46.76
204.974	-26.28
205.193	-3.75
205.411	-36.52
205.63	-44.71
205.849	-28.33
206.068	12.63
206.287	-89.77
206.505	8.53
206.724	6.49
206.943	-67.24
207.162	-11.95
207.381	-32.43
207.599	67.92
207.818	-46.76
208.037	16.73
208.255	22.87
208.474	0.34
208.693	59.73
208.911	37.2
209.13	-16.04
209.349	-1.71
209.567	-7.85
209.786	0.34
210.005	-22.19
210.223	-40.62
210.442	-3.75
210.661	49.49
210.879	-11.95
211.098	-13.99
211.316	0.34
211.535	-3.75
211.753	-46.76
211.972	-9.9
212.191	24.92
212.409	-40.62
212.628	-42.67
212.846	-32.43
213.065	-77.48
213.283	-52.91
213.502	-44.71
213.72	-3.75
213.938	-52.91
214.157	10.58
214.375	20.82
214.594	-28.33
214.812	-57
215.031	-61.1
215.249	12.63
215.467	35.16
215.686	-77.48
215.904	-38.57
216.122	22.87
216.341	43.35
216.559	12.63
216.778	8.53
216.996	16.73
217.214	-9.9
217.432	57.68
217.651	-24.23
217.869	-65.19
218.087	-34.47
218.306	57.68
218.524	2.39
218.742	33.11
218.96	-52.91
219.179	-65.19
219.397	-7.85
219.615	37.2
219.833	-48.81
220.051	-16.04
220.27	35.16
220.488	-65.19
220.706	-34.47
220.924	16.73
221.142	-44.71
221.36	90.45
221.578	6.49
221.796	80.21
222.015	-1.71
222.233	-16.04
222.451	-30.38
222.669	37.2
222.887	43.35
223.105	16.73
223.323	53.59
223.541	-61.1
223.759	-18.09
223.977	-22.19
224.195	-69.29
224.413	6.49
224.631	55.64
224.849	22.87
225.067	8.53
225.285	-13.99
225.503	-24.23
225.721	-32.43
225.939	29.01
226.157	-16.04
226.375	76.12
226.592	-3.75
226.81	49.49
227.028	-26.28
227.246	-54.95
227.464	22.87
227.682	-44.71
227.9	-63.15
228.117	-22.19
228.335	-20.14
228.553	-40.62
228.771	-40.62
228.989	57.68
229.206	-3.75
229.424	-44.71
229.642	2.39
229.86	-22.19
230.077	-16.04
230.295	16.73
230.513	-24.23
230.731	-22.19
230.948	-44.71
231.166	88.4
231.384	-9.9
231.601	-5.8
231.819	39.25
232.037	35.16
232.254	-89.77
232.472	49.49
232.689	-104.11
232.907	0.34
233.125	-48.81
233.342	-7.85
233.56	-52.91
233.777	-13.99
233.995	-28.33
234.213	16.73
234.43	-85.67
234.648	-36.52
234.865	-54.95
235.083	41.3
235.3	-34.47
235.518	-44.71
235.735	-48.81
235.953	-5.8
236.17	43.35
236.388	6.49
236.605	8.53
236.822	12.63
237.04	-18.09
237.257	37.2
237.475	-9.9
237.692	-26.28
237.909	-9.9
238.127	18.77
238.344	-3.75
238.562	-13.99
238.779	8.53
238.996	-26.28
239.214	47.44
239.431	2.39
239.648	-9.9
239.865	26.96
240.083	-34.47
240.3	29.01
240.517	4.44
240.735	-30.38
240.952	-22.19
241.169	20.82
241.386	14.68
241.603	-22.19
241.821	-3.75
242.038	24.92
242.255	31.06
242.472	-7.85
242.689	-61.1
242.907	49.49
243.124	-44.71
243.341	-73.39
243.558	-34.47
243.775	-44.71
243.992	6.49
244.209	-65.19
244.426	-11.95
244.643	22.87
244.86	-26.28
245.078	-26.28
245.295	61.78
245.512	-34.47
245.729	-3.75
245.946	-54.95
246.163	-26.28
246.38	-61.1
246.597	0.34
246.814	-38.57
247.031	-9.9
247.248	49.49
247.464	-106.15
247.681	2.39
247.898	69.97
248.115	-44.71
248.332	61.78
248.549	12.63
248.766	8.53
248.983	-40.62
249.2	12.63
249.417	57.68
249.633	12.63
249.85	-24.23
250.067	-16.04
250.284	-48.81
250.501	-38.57
250.717	-11.95
250.934	-5.8
251.151	24.92
251.368	14.68
251.585	16.73
251.801	-11.95
252.018	-63.15
252.235	-30.38
252.451	-24.23
252.668	10.58
252.885	43.35
253.102	24.92
253.318	-5.8
253.535	-5.8
253.752	-3.75
253.968	6.49
254.185	26.96
254.401	-5.8
254.618	18.77
254.835	63.83
255.051	0.34
255.268	2.39
255.484	98.64
255.701	-71.34
255.917	94.55
256.134	16.73
256.351	-1.71
256.567	-18.09
256.784	12.63
257	2.39
257.217	53.59
257.433	10.58
257.65	-20.14
257.866	8.53
258.082	33.11
258.299	-32.43
258.515	2.39
258.732	14.68
258.948	61.78
259.165	-54.95
259.381	-16.04
259.597	-22.19
259.814	2.39
260.03	16.73
260.246	-16.04
260.463	-46.76
260.679	45.4
260.895	-61.1
261.112	24.92
261.328	-32.43
261.544	-24.23
261.761	-9.9
261.977	37.2
262.193	-40.62
262.409	18.77
262.626	-34.47
262.842	-52.91
263.058	-52.91
263.274	-59.05
263.49	-75.43
263.707	-40.62
263.923	57.68
264.139	-46.76
264.355	-32.43
264.571	8.53
264.787	-46.76
265.004	-22.19
265.22	47.44
265.436	4.44
265.652	20.82
265.868	0.34
266.084	33.11
266.3	-16.04
266.516	-54.95
266.732	18.77
266.948	-7.85
267.164	-30.38
267.38	37.2
267.596	10.58
267.812	-22.19
268.028	-32.43
268.244	-48.81
268.46	16.73
268.676	4.44
268.892	-48.81
269.108	2.39
269.324	-13.99
269.54	-22.19
269.756	8.53
269.972	-16.04
270.188	-5.8
270.403	-71.34
270.619	31.06
270.835	51.54
271.051	-26.28
271.267	-7.85
271.483	-13.99
271.698	51.54
271.914	-7.85
272.13	16.73
272.346	10.58
272.562	16.73
272.777	-32.43
272.993	-11.95
273.209	14.68
273.425	-81.58
273.64	-18.09
273.856	-61.1
274.072	-16.04
274.287	10.58
274.503	-1.71
274.719	12.63
274.934	-81.58
275.15	-59.05
275.366	4.44
275.581	-9.9
275.797	-11.95
276.012	-48.81
276.228	-24.23
276.444	-42.67
276.659	100.69
276.875	-20.14
277.09	-32.43
277.306	-11.95
277.521	31.06
277.737	12.63
277.952	-16.04
278.168	-26.28
278.383	49.49
278.599	43.35
278.814	-5.8
279.03	-24.23
279.245	61.78
279.461	-32.43
279.676	-38.57
279.892	8.53
280.107	0.34
280.322	10.58
280.538	-3.75
280.753	53.59
280.969	18.77
281.184	-42.67
281.399	-13.99
281.615	-52.91
281.83	29.01
282.045	-3.75
282.26	24.92
282.476	-32.43
282.691	33.11
282.906	-63.15
283.122	0.34
283.337	-22.19
283.552	51.54
283.767	-11.95
283.983	-71.34
284.198	2.39
284.413	49.49
284.628	-9.9
284.843	-30.38
285.058	24.92
285.274	-46.76
285.489	-9.9
285.704	2.39
285.919	59.73
286.134	-1.71
286.349	31.06
286.564	20.82
286.779	20.82
286.995	63.83
287.21	-13.99
287.425	82.26
287.64	-59.05
287.855	-54.95
288.07	-87.72
288.285	29.01
288.5	49.49
288.715	-34.47
288.93	-9.9
289.145	-3.75
289.36	14.68
289.575	76.12
289.79	49.49
290.004	-44.71
290.219	43.35
290.434	-57
290.649	12.63
290.864	10.58
291.079	-44.71
291.294	133.46
291.509	45.4
291.724	35.16
291.938	-28.33
292.153	31.06
292.368	-38.57
292.583	-13.99
292.798	90.45
293.012	-9.9
293.227	-22.19
293.442	16.73
293.657	-38.57
293.871	16.73
294.086	0.34
294.301	-11.95
294.516	39.25
294.73	16.73
294.945	12.63
295.16	-32.43
295.374	-9.9
295.589	4.44
295.804	55.64
296.018	-3.75
296.233	-20.14
296.447	16.73
296.662	2.39
296.877	37.2
297.091	-26.28
297.306	31.06
297.52	-18.09
297.735	-30.38
297.949	-48.81
298.164	-11.95
298.378	-7.85
298.593	-11.95
298.807	-40.62
299.022	-22.19
299.236	8.53
299.451	-24.23
299.665	0.34
299.88	-48.81
300.094	53.59
300.309	82.26
300.523	53.59
300.737	-38.57
300.952	-20.14
301.166	53.59
301.381	-65.19
301.595	18.77
301.809	20.82
302.024	-28.33
302.238	-5.8
302.452	-24.23
302.667	-48.81
302.881	37.2
303.095	14.68
303.309	-18.09
303.524	-7.85
303.738	37.2
303.952	-65.19
304.166	-44.71
304.381	-38.57
304.595	35.16
304.809	-16.04
305.023	-11.95
305.237	20.82
305.452	-36.52
305.666	-22.19
305.88	37.2
306.094	106.84
306.308	12.63
306.522	-40.62
306.736	-3.75
306.95	-65.19
307.164	-38.57
307.379	-26.28
307.593	43.35
307.807	45.4
308.021	29.01
308.235	47.44
308.449	-3.75
308.663	-44.71
308.877	16.73
309.091	43.35
309.305	-24.23
309.519	-28.33
309.733	-40.62
309.947	-7.85
310.161	49.49
310.374	-42.67
310.588	-7.85
310.802	-73.39
311.016	-5.8
311.23	29.01
311.444	-40.62
311.658	-30.38
311.872	10.58
312.085	-5.8
312.299	74.07
312.513	-61.1
312.727	8.53
312.941	35.16
313.154	-1.71
313.368	6.49
313.582	-89.77
313.796	8.53
314.009	2.39
314.223	4.44
314.437	0.34
314.651	-30.38
314.864	43.35
315.078	16.73
315.292	22.87
315.505	-5.8
315.719	39.25
315.933	-46.76
316.146	-28.33
316.36	-85.67
316.573	55.64
316.787	18.77
317.001	-16.04
317.214	-16.04
317.428	-46.76
317.641	-5.8
317.855	24.92
318.068	14.68
318.282	-22.19
318.495	-34.47
318.709	0.34
318.922	10.58
319.136	24.92
319.349	-38.57
319.563	29.01
319.776	6.49
319.99	-34.47
320.203	55.64
320.417	-24.23
320.63	22.87
320.843	47.44
321.057	4.44
321.27	-40.62
321.483	-38.57
321.697	-20.14
321.91	45.4
322.124	41.3
322.337	14.68
322.55	8.53
322.763	39.25
322.977	26.96
323.19	-81.58
323.403	6.49
323.617	31.06
323.83	29.01
324.043	-3.75
324.256	37.2
324.469	-3.75
324.683	0.34
324.896	33.11
325.109	8.53
325.322	-40.62
325.535	-3.75
325.748	43.35
325.962	4.44
326.175	10.58
326.388	16.73
326.601	31.06
326.814	49.49
327.027	-3.75
327.24	8.53
327.453	53.59
327.666	-5.8
327.879	45.4
328.092	-32.43
328.305	-16.04
328.518	41.3
328.731	-54.95
328.944	-26.28
329.157	82.26
329.37	39.25
329.583	18.77
329.796	16.73
330.009	24.92
330.222	12.63
330.435	69.97
330.648	78.16
330.861	-9.9
331.073	-42.67
331.286	-5.8
331.499	16.73
331.712	-85.67
331.925	92.5
332.138	-5.8
332.35	-16.04
332.563	8.53
332.776	63.83
332.989	-30.38
333.202	39.25
333.414	29.01
333.627	-26.28
333.84	-73.39
334.053	53.59
334.265	51.54
334.478	-13.99
334.691	4.44
334.903	41.3
335.116	8.53
335.329	57.68
335.541	8.53
335.754	82.26
335.966	10.58
336.179	-28.33
336.392	41.3
336.604	59.73
336.817	47.44
337.029	-38.57
337.242	24.92
337.454	37.2
337.667	-5.8
337.88	14.68
338.092	20.82
338.305	-13.99
338.517	-38.57
338.729	10.58
338.942	18.77
339.154	14.68
339.367	-46.76
339.579	67.92
339.792	82.26
340.004	-5.8
340.217	16.73
340.429	53.59
340.641	-5.8
340.854	57.68
341.066	8.53
341.278	-42.67
341.491	67.92
341.703	69.97
341.915	2.39
342.128	43.35
342.34	-38.57
342.552	-3.75
342.764	8.53
342.977	-11.95
343.189	-40.62
343.401	-52.91
343.613	0.34
343.826	86.36
344.038	0.34
344.25	16.73
344.462	-9.9
344.674	12.63
344.886	65.88
345.099	4.44
345.311	0.34
345.523	-7.85
345.735	-32.43
345.947	8.53
346.159	-3.75
346.371	80.21
346.583	33.11
346.795	35.16
347.007	-11.95
347.219	-9.9
347.431	-3.75
347.643	22.87
347.855	-3.75
348.067	0.34
348.279	10.58
348.491	22.87
348.703	26.96
348.915	-16.04
349.127	-71.34
349.339	14.68
349.551	-40.62
349.763	-11.95
349.975	-22.19
350.187	92.5
350.399	-22.19
350.61	6.49
350.822	-32.43
351.034	49.49
351.246	18.77
351.458	31.06
351.669	74.07
351.881	65.88
352.093	-24.23
352.305	22.87
352.517	-73.39
352.728	6.49
352.94	-48.81
353.152	-46.76
353.363	-7.85
353.575	2.39
353.787	22.87
353.999	41.3
354.21	-36.52
354.422	78.16
354.633	6.49
354.845	86.36
355.057	41.3
355.268	-67.24
355.48	-24.23
355.692	55.64
355.903	-16.04
356.115	18.77
356.326	-11.95
356.538	33.11
356.749	45.4
356.961	-11.95
357.172	-5.8
357.384	51.54
357.595	22.87
357.807	67.92
358.018	63.83
358.23	37.2
358.441	53.59
358.653	-18.09
358.864	-26.28
359.075	-24.23
359.287	-11.95
359.498	8.53
359.709	10.58
359.921	33.11
360.132	20.82
360.344	29.01
360.555	-3.75
360.766	39.25
360.977	-3.75
361.189	78.16
361.4	-44.71
361.611	76.12
361.823	29.01
362.034	2.39
362.245	-40.62
362.456	41.3
362.667	-20.14
362.879	37.2
363.09	-28.33
363.301	-5.8
363.512	6.49
363.723	8.53
363.935	-52.91
364.146	55.64
364.357	-5.8
364.568	-26.28
364.779	-57
364.99	-9.9
365.201	2.39
365.412	20.82
365.623	-1.71
365.834	4.44
366.045	45.4
366.256	6.49
366.467	-32.43
366.678	-34.47
366.889	-18.09
367.1	-22.19
367.311	-44.71
367.522	51.54
367.733	0.34
367.944	-3.75
368.155	-16.04
368.366	43.35
368.577	20.82
368.788	49.49
368.999	-38.57
369.209	-5.8
369.42	41.3
369.631	74.07
369.842	45.4
370.053	26.96
370.264	24.92
370.474	37.2
370.685	43.35
370.896	-5.8
371.107	18.77
371.317	49.49
371.528	-3.75
371.739	61.78
371.95	49.49
372.16	-32.43
372.371	-13.99
372.582	-22.19
372.792	14.68
373.003	-3.75
373.214	35.16
373.424	100.69
373.635	-11.95
373.846	26.96
374.056	-7.85
374.267	-11.95
374.477	35.16
374.688	10.58
374.898	-48.81
375.109	-16.04
375.319	43.35
375.53	-16.04
375.74	127.32
375.951	16.73
376.161	-61.1
376.372	20.82
376.582	-48.81
376.793	-48.81
377.003	82.26
377.214	8.53
377.424	49.49
377.635	-7.85
377.845	-120.49
378.055	72.02
378.266	-7.85
378.476	-5.8
378.686	-36.52
378.897	41.3
379.107	-34.47
379.317	61.78
379.528	-16.04
379.738	51.54
379.948	16.73
380.158	-36.52
380.369	33.11
380.579	90.45
380.789	-24.23
380.999	-59.05
381.21	6.49
381.42	6.49
381.63	76.12
381.84	-34.47
382.05	-32.43
382.261	121.17
382.471	-28.33
382.681	47.44
382.891	-26.28
383.101	18.77
383.311	4.44
383.521	12.63
383.731	16.73
383.941	8.53
384.151	65.88
384.361	-7.85
384.571	51.54
384.781	86.36
384.991	31.06
385.201	39.25
385.411	94.55
385.621	16.73
385.831	2.39
386.041	16.73
386.251	24.92
386.461	98.64
386.671	-38.57
386.881	14.68
387.091	76.12
387.301	80.21
387.511	29.01
387.72	18.77
387.93	10.58
388.14	4.44
388.35	8.53
388.56	-38.57
388.769	92.5
388.979	67.92
389.189	-61.1
389.399	76.12
389.609	-9.9
389.818	29.01
390.028	20.82
390.238	20.82
390.447	49.49
390.657	72.02
390.867	-36.52
391.076	65.88
391.286	12.63
391.496	47.44
391.705	57.68
391.915	10.58
392.125	-34.47
392.334	8.53
392.544	2.39
392.753	67.92
392.963	29.01
393.172	61.78
393.382	24.92
393.591	6.49
393.801	117.08
394.01	49.49
394.22	6.49
394.429	8.53
394.639	-38.57
394.848	49.49
395.058	86.36
395.267	74.07
395.477	51.54
395.686	100.69
395.895	45.4
396.105	6.49
396.314	0.34
396.524	31.06
396.733	10.58
396.942	115.03
397.152	22.87
397.361	26.96
397.57	18.77
397.78	49.49
397.989	22.87
398.198	51.54
398.407	80.21
398.617	59.73
398.826	45.4
399.035	26.96
399.244	76.12
399.453	45.4
399.663	37.2
399.872	49.49
400.081	72.02
400.29	53.59
400.499	51.54
400.708	98.64
400.917	78.16
401.127	100.69
401.336	-44.71
401.545	121.17
401.754	51.54
401.963	88.4
402.172	29.01
402.381	110.93
402.59	57.68
402.799	57.68
403.008	24.92
403.217	80.21
403.426	65.88
403.635	74.07
403.844	57.68
404.053	49.49
404.262	72.02
404.471	90.45
404.68	43.35
404.888	67.92
405.097	57.68
405.306	37.2
405.515	115.03
405.724	90.45
405.933	88.4
406.142	84.31
406.35	139.6
406.559	127.32
406.768	117.08
406.977	125.27
407.185	166.23
407.394	112.98
407.603	96.6
407.812	92.5
408.02	194.9
408.229	166.23
408.438	80.21
408.646	155.99
408.855	108.88
409.064	145.75
409.272	164.18
409.481	112.98
409.69	121.17
409.898	198.99
410.107	231.76
410.315	223.57
410.524	264.53
410.733	256.34
410.941	201.04
411.15	233.81
411.358	252.24
411.567	242
411.775	246.1
411.984	268.63
412.192	223.57
412.401	270.67
412.609	317.78
412.818	278.87
413.026	383.31
413.234	280.91
413.443	301.39
413.651	282.96
413.86	307.54
414.068	428.37
414.276	368.98
414.485	436.56
414.693	434.51
414.901	387.41
415.11	454.99
415.318	358.74
415.526	438.61
415.734	579.92
415.943	516.43
416.151	520.53
416.359	465.23
416.567	598.35
416.776	522.57
416.984	532.81
417.192	571.72
417.4	610.64
417.608	600.4
417.817	600.4
418.025	657.74
418.233	663.88
418.441	723.27
418.649	770.38
418.857	799.05
419.065	799.05
419.273	792.91
419.481	891.21
419.689	934.22
419.897	938.31
420.105	1024.33
420.313	1034.57
420.521	989.51
420.729	1040.71
420.937	1091.91
421.145	1110.34
421.353	1253.7
421.561	1184.07
421.769	1276.23
421.977	1288.51
422.185	1302.85
422.393	1382.72
422.601	1497.41
422.809	1446.21
423.017	1425.73
423.224	1487.17
423.432	1626.43
423.64	1673.53
423.848	1655.1
424.056	1632.57
424.263	1798.46
424.471	1818.94
424.679	1880.38
424.887	1937.72
425.094	2023.73
425.302	2113.85
425.51	2066.74
425.718	2158.9
425.925	2269.49
426.133	2396.46
426.341	2369.84
426.548	2568.49
426.756	2410.8
426.964	2498.86
427.171	2623.79
427.379	2771.24
427.586	2736.43
427.794	2779.43
428.001	2978.09
428.209	3082.53
428.417	3123.49
428.624	3299.62
428.832	3293.48
429.039	3268.9
429.247	3311.91
429.454	3721.5
429.662	3989.78
429.869	3545.38
430.076	3846.43
430.284	3719.45
430.491	3973.4
430.699	3961.11
430.906	4104.47
431.114	4088.09
431.321	4415.76
431.528	4317.46
431.736	4587.79
431.943	4825.36
432.15	4684.05
432.358	4866.32
432.565	5110.02
432.772	4935.95
432.979	5142.79
433.187	5486.85
433.394	5462.27
433.601	5835
433.808	5806.33
434.016	5810.43
434.223	5968.12
434.43	6299.89
434.637	6379.76
434.844	6709.49
435.052	6703.34
435.259	6662.38
435.466	6861.04
435.673	6756.59
435.88	7207.14
436.087	7600.35
436.294	7602.4
436.501	7452.9
436.708	7588.07
436.915	7796.96
437.122	7870.69
437.329	7973.08
437.537	8329.43
437.743	8403.16
437.95	8511.7
438.157	8947.92
438.364	9302.22
438.571	9253.06
438.778	9261.26
438.985	10059.96
439.192	9699.52
439.399	9978.05
439.606	9691.33
439.813	10328.25
440.02	10922.16
440.227	10590.39
440.433	10459.32
440.64	11026.61
440.847	10852.53
441.054	11157.68
441.261	11819.17
441.467	11602.08
441.674	11690.15
441.881	12314.78
442.088	12196
442.294	12091.55
442.501	12431.51
442.708	12861.59
442.914	13254.8
443.121	13994.11
443.328	13457.54
443.534	14428.28
443.741	14125.18
443.948	13963.39
444.154	14784.63
444.361	14665.85
444.568	14876.79
444.774	14950.51
444.981	14938.23
445.187	15442.03
445.394	16132.19
445.6	15988.83
445.807	17223.76
446.013	16754.77
446.22	17027.15
446.426	17637.45
446.633	17741.89
446.839	18638.9
447.046	17489.99
447.252	18569.27
447.459	18706.49
447.665	18415.68
447.871	19320.88
448.078	20164.64
448.284	19247.15
448.491	19796.01
448.697	20629.53
448.903	21006.36
449.11	20748.31
449.316	20883.48
449.522	21104.66
449.728	21401.61
449.935	21753.87
450.141	21886.98
450.347	21995.53
450.553	21573.64
450.76	21719.05
450.966	22779.9
451.172	22177.79
451.378	22941.69
451.584	22462.46
451.791	22880.25
451.997	22947.83
452.203	23169.01
452.409	23345.14
452.615	23248.88
452.821	22521.85
453.027	22196.23
453.233	23025.65
453.44	22259.71
453.646	22530.05
453.852	22601.72
454.058	22800.38
454.264	22341.63
454.47	22859.77
454.676	22343.68
454.882	22865.91
455.088	21209.11
455.294	21518.35
455.5	21389.33
455.705	21684.23
455.911	20774.94
456.117	20551.71
456.323	20275.23
456.529	19384.37
456.735	20029.48
456.941	19404.85
457.147	19245.1
457.352	18389.05
457.558	18268.22
457.764	18700.34
457.97	18059.33
458.176	17756.23
458.381	17616.97
458.587	16930.9
458.793	16904.28
458.999	15972.45
459.204	17031.25
459.41	16576.6
459.616	15446.12
459.821	15650.92
460.027	15673.45
460.233	14964.85
460.438	14311.55
460.644	14598.26
460.85	13850.75
461.055	13803.65
461.261	13666.44
461.466	12947.6
461.672	12406.94
461.878	13172.88
462.083	12507.29
462.289	12083.36
462.494	12015.77
462.7	11544.74
462.905	11282.6
463.111	11567.27
463.316	11696.29
463.522	11182.25
463.727	11610.28
463.932	11612.32
464.138	11192.49
464.343	11491.49
464.549	11010.22
464.754	11458.73
464.959	11176.11
465.165	11010.22
465.37	10700.98
465.575	10475.7
465.781	10926.25
465.986	10797.23
466.191	10623.16
466.397	10381.49
466.602	9726.14
