Data from USB4F104151__226__14-00-21-741.txt Node

Date: Thu Mar 13 14:00:21 EDT 2025
User: louis
Spectrometer: USB4F10415
Trigger mode: 4
Integration Time (sec): 1.000000E-2
Scans to average: 1
Electric dark correction enabled: true
Nonlinearity correction enabled: false
Boxcar width: 0
XAxis mode: Wavelengths
Number of Pixels in Spectrum: 3648
>>>>>Begin Spectral Data<<<<<
178.204	-70.48
178.424	-70.48
178.644	-70.48
178.864	3.24
179.084	-58.2
179.304	-37.72
179.524	3.24
179.744	-23.38
179.964	-9.05
180.184	-21.33
180.404	19.63
180.624	29.87
180.844	13.48
181.064	-17.24
181.283	-27.48
181.503	29.87
181.723	40.11
181.943	-41.81
182.163	19.63
182.383	-23.38
182.602	60.59
182.822	21.67
183.042	21.67
183.262	38.06
183.482	-2.9
183.701	-60.24
183.921	19.63
184.141	-76.63
184.361	-4.95
184.58	21.67
184.8	46.25
185.02	15.53
185.239	54.44
185.459	23.72
185.679	79.02
185.898	5.29
186.118	-25.43
186.338	25.77
186.557	31.91
186.777	-45.91
186.997	81.07
187.216	-41.81
187.436	29.87
187.655	-60.24
187.875	7.34
188.095	-13.14
188.314	27.82
188.534	9.39
188.753	9.39
188.973	60.59
189.192	68.78
189.412	46.25
189.631	-19.29
189.851	-0.85
190.07	9.39
190.29	23.72
190.509	-37.72
190.729	-9.05
190.948	40.11
191.168	103.59
191.387	40.11
191.607	15.53
191.826	-15.19
192.045	50.35
192.265	36.01
192.484	-13.14
192.704	15.53
192.923	-41.81
193.142	48.3
193.362	-127.83
193.581	3.24
193.8	-0.85
194.02	48.3
194.239	33.96
194.458	11.43
194.678	9.39
194.897	-4.95
195.116	13.48
195.335	38.06
195.555	109.74
195.774	38.06
195.993	-21.33
196.212	21.67
196.432	23.72
196.651	13.48
196.87	7.34
197.089	-41.81
197.308	113.83
197.528	-2.9
197.747	11.43
197.966	19.63
198.185	9.39
198.404	23.72
198.623	48.3
198.842	89.26
199.062	-9.05
199.281	-0.85
199.5	-2.9
199.719	58.54
199.938	13.48
200.157	56.49
200.376	38.06
200.595	58.54
200.814	3.24
201.033	64.68
201.252	38.06
201.471	27.82
201.69	74.92
201.909	-21.33
202.128	13.48
202.347	48.3
202.566	-70.48
202.785	15.53
203.004	15.53
203.223	79.02
203.442	-29.52
203.661	19.63
203.879	31.91
204.098	68.78
204.317	-2.9
204.536	42.15
204.755	29.87
204.974	97.45
205.193	-43.86
205.411	3.24
205.63	46.25
205.849	36.01
206.068	50.35
206.287	-9.05
206.505	7.34
206.724	44.2
206.943	31.91
207.162	66.73
207.381	54.44
207.599	29.87
207.818	25.77
208.037	15.53
208.255	1.19
208.474	11.43
208.693	-23.38
208.911	31.91
209.13	-19.29
209.349	119.98
209.567	-17.24
209.786	9.39
210.005	33.96
210.223	19.63
210.442	-17.24
210.661	54.44
210.879	9.39
211.098	-11.09
211.316	58.54
211.535	36.01
211.753	-21.33
211.972	15.53
212.191	-72.53
212.409	-25.43
212.628	13.48
212.846	15.53
213.065	58.54
213.283	31.91
213.502	31.91
213.72	74.92
213.938	42.15
214.157	-7
214.375	-0.85
214.594	11.43
214.812	31.91
215.031	48.3
215.249	50.35
215.467	93.35
215.686	-13.14
215.904	9.39
216.122	81.07
216.341	-11.09
216.559	-41.81
216.778	25.77
216.996	19.63
217.214	7.34
217.432	-7
217.651	52.39
217.869	40.11
218.087	-13.14
218.306	25.77
218.524	85.16
218.742	-9.05
218.96	-17.24
219.179	58.54
219.397	23.72
219.615	44.2
219.833	38.06
220.051	97.45
220.27	-29.52
220.488	3.24
220.706	9.39
220.924	21.67
221.142	85.16
221.36	56.49
221.578	-9.05
221.796	-17.24
222.015	42.15
222.233	46.25
222.451	42.15
222.669	-23.38
222.887	-9.05
223.105	13.48
223.323	105.64
223.541	38.06
223.759	1.19
223.977	11.43
224.195	36.01
224.413	-0.85
224.631	36.01
224.849	40.11
225.067	31.91
225.285	42.15
225.503	-25.43
225.721	25.77
225.939	60.59
226.157	33.96
226.375	42.15
226.592	-29.52
226.81	3.24
227.028	9.39
227.246	-35.67
227.464	46.25
227.682	27.82
227.9	33.96
228.117	25.77
228.335	27.82
228.553	-23.38
228.771	21.67
228.989	19.63
229.206	40.11
229.424	99.5
229.642	-15.19
229.86	-7
230.077	115.88
230.295	15.53
230.513	-7
230.731	3.24
230.948	113.83
231.166	42.15
231.384	40.11
231.601	1.19
231.819	-0.85
232.037	-9.05
232.254	-64.34
232.472	-7
232.689	7.34
232.907	9.39
233.125	42.15
233.342	48.3
233.56	29.87
233.777	1.19
233.995	-0.85
234.213	48.3
234.43	-39.76
234.648	5.29
234.865	3.24
235.083	85.16
235.3	56.49
235.518	31.91
235.735	117.93
235.953	64.68
236.17	95.4
236.388	11.43
236.605	40.11
236.822	79.02
237.04	15.53
237.257	42.15
237.475	93.35
237.692	-29.52
237.909	-13.14
238.127	25.77
238.344	-15.19
238.562	60.59
238.779	17.58
238.996	42.15
239.214	7.34
239.431	64.68
239.648	-23.38
239.865	105.64
240.083	68.78
240.3	97.45
240.517	64.68
240.735	40.11
240.952	25.77
241.169	58.54
241.386	9.39
241.603	-7
241.821	7.34
242.038	33.96
242.255	85.16
242.472	48.3
242.689	60.59
242.907	85.16
243.124	-23.38
243.341	48.3
243.558	64.68
243.775	89.26
243.992	38.06
244.209	-19.29
244.426	-56.15
244.643	81.07
244.86	68.78
245.078	56.49
245.295	31.91
245.512	85.16
245.729	-39.76
245.946	76.97
246.163	38.06
246.38	-31.57
246.597	-7
246.814	62.63
247.031	60.59
247.248	111.78
247.464	19.63
247.681	-15.19
247.898	11.43
248.115	-4.95
248.332	-2.9
248.549	15.53
248.766	52.39
248.983	60.59
249.2	29.87
249.417	-21.33
249.633	3.24
249.85	72.87
250.067	15.53
250.284	36.01
250.501	62.63
250.717	27.82
250.934	44.2
251.151	72.87
251.368	-68.44
251.585	70.83
251.801	40.11
252.018	64.68
252.235	50.35
252.451	-17.24
252.668	109.74
252.885	-0.85
253.102	29.87
253.318	40.11
253.535	-37.72
253.752	60.59
253.968	-19.29
254.185	25.77
254.401	31.91
254.618	31.91
254.835	38.06
255.051	58.54
255.268	68.78
255.484	40.11
255.701	54.44
255.917	-2.9
256.134	-25.43
256.351	-0.85
256.567	122.02
256.784	60.59
257	7.34
257.217	36.01
257.433	11.43
257.65	27.82
257.866	50.35
258.082	27.82
258.299	1.19
258.515	48.3
258.732	44.2
258.948	83.11
259.165	-15.19
259.381	-29.52
259.597	87.21
259.814	23.72
260.03	3.24
260.246	64.68
260.463	1.19
260.679	17.58
260.895	27.82
261.112	21.67
261.328	72.87
261.544	17.58
261.761	76.97
261.977	64.68
262.193	-29.52
262.409	64.68
262.626	11.43
262.842	23.72
263.058	64.68
263.274	99.5
263.49	1.19
263.707	17.58
263.923	38.06
264.139	11.43
264.355	46.25
264.571	1.19
264.787	-72.53
265.004	66.73
265.22	50.35
265.436	7.34
265.652	1.19
265.868	9.39
266.084	17.58
266.3	70.83
266.516	-23.38
266.732	72.87
266.948	17.58
267.164	-0.85
267.38	-19.29
267.596	87.21
267.812	27.82
268.028	23.72
268.244	3.24
268.46	17.58
268.676	36.01
268.892	38.06
269.108	-23.38
269.324	-7
269.54	74.92
269.756	29.87
269.972	19.63
270.188	-31.57
270.403	68.78
270.619	33.96
270.835	66.73
271.051	7.34
271.267	-0.85
271.483	36.01
271.698	66.73
271.914	74.92
272.13	-15.19
272.346	5.29
272.562	81.07
272.777	66.73
272.993	-7
273.209	21.67
273.425	103.59
273.64	-4.95
273.856	46.25
274.072	-15.19
274.287	64.68
274.503	89.26
274.719	62.63
274.934	-27.48
275.15	-43.86
275.366	-29.52
275.581	48.3
275.797	66.73
276.012	-62.29
276.228	38.06
276.444	40.11
276.659	56.49
276.875	-37.72
277.09	52.39
277.306	38.06
277.521	19.63
277.737	11.43
277.952	3.24
278.168	56.49
278.383	40.11
278.599	74.92
278.814	23.72
279.03	15.53
279.245	64.68
279.461	5.29
279.676	89.26
279.892	-29.52
280.107	23.72
280.322	-54.1
280.538	31.91
280.753	-4.95
280.969	-15.19
281.184	-27.48
281.399	33.96
281.615	-29.52
281.83	72.87
282.045	-2.9
282.26	-23.38
282.476	42.15
282.691	-7
282.906	44.2
283.122	23.72
283.337	44.2
283.552	29.87
283.767	56.49
283.983	89.26
284.198	97.45
284.413	-13.14
284.628	-9.05
284.843	31.91
285.058	-21.33
285.274	58.54
285.489	-17.24
285.704	72.87
285.919	64.68
286.134	72.87
286.349	46.25
286.564	15.53
286.779	23.72
286.995	31.91
287.21	19.63
287.425	9.39
287.64	-4.95
287.855	48.3
288.07	-9.05
288.285	64.68
288.5	42.15
288.715	-4.95
288.93	-0.85
289.145	113.83
289.36	52.39
289.575	-9.05
289.79	52.39
290.004	-15.19
290.219	9.39
290.434	-50
290.649	33.96
290.864	3.24
291.079	-35.67
291.294	64.68
291.509	17.58
291.724	38.06
291.938	25.77
292.153	21.67
292.368	-45.91
292.583	72.87
292.798	-11.09
293.012	56.49
293.227	7.34
293.442	52.39
293.657	-0.85
293.871	29.87
294.086	27.82
294.301	31.91
294.516	7.34
294.73	31.91
294.945	48.3
295.16	27.82
295.374	38.06
295.589	105.64
295.804	-66.39
296.018	81.07
296.233	7.34
296.447	29.87
296.662	44.2
296.877	46.25
297.091	3.24
297.306	72.87
297.52	113.83
297.735	17.58
297.949	52.39
298.164	72.87
298.378	21.67
298.593	31.91
298.807	52.39
299.022	17.58
299.236	-0.85
299.451	81.07
299.665	-9.05
299.88	103.59
300.094	46.25
300.309	31.91
300.523	64.68
300.737	-9.05
300.952	21.67
301.166	-4.95
301.381	-39.76
301.595	25.77
301.809	-56.15
302.024	27.82
302.238	101.55
302.452	25.77
302.667	38.06
302.881	13.48
303.095	58.54
303.309	-58.2
303.524	15.53
303.738	58.54
303.952	23.72
304.166	1.19
304.381	-13.14
304.595	58.54
304.809	38.06
305.023	-7
305.237	17.58
305.452	15.53
305.666	-2.9
305.88	58.54
306.094	42.15
306.308	-13.14
306.522	58.54
306.736	68.78
306.95	-7
307.164	83.11
307.379	-4.95
307.593	33.96
307.807	48.3
308.021	31.91
308.235	74.92
308.449	7.34
308.663	15.53
308.877	76.97
309.091	66.73
309.305	48.3
309.519	9.39
309.733	-37.72
309.947	11.43
310.161	54.44
310.374	11.43
310.588	1.19
310.802	-80.72
311.016	-21.33
311.23	27.82
311.444	56.49
311.658	54.44
311.872	91.31
312.085	-29.52
312.299	91.31
312.513	48.3
312.727	31.91
312.941	36.01
313.154	52.39
313.368	31.91
313.582	56.49
313.796	31.91
314.009	68.78
314.223	27.82
314.437	64.68
314.651	42.15
314.864	-7
315.078	21.67
315.292	33.96
315.505	58.54
315.719	48.3
315.933	52.39
316.146	-37.72
316.36	40.11
316.573	-50
316.787	91.31
317.001	68.78
317.214	56.49
317.428	23.72
317.641	15.53
317.855	54.44
318.068	58.54
318.282	-21.33
318.495	3.24
318.709	97.45
318.922	17.58
319.136	97.45
319.349	52.39
319.563	60.59
319.776	54.44
319.99	-7
320.203	87.21
320.417	-56.15
320.63	60.59
320.843	79.02
321.057	54.44
321.27	50.35
321.483	23.72
321.697	74.92
321.91	48.3
322.124	7.34
322.337	17.58
322.55	13.48
322.763	85.16
322.977	-4.95
323.19	1.19
323.403	-33.62
323.617	-0.85
323.83	23.72
324.043	17.58
324.256	40.11
324.469	-15.19
324.683	-25.43
324.896	101.55
325.109	105.64
325.322	7.34
325.535	9.39
325.748	76.97
325.962	-41.81
326.175	31.91
326.388	62.63
326.601	52.39
326.814	58.54
327.027	70.83
327.24	93.35
327.453	81.07
327.666	89.26
327.879	13.48
328.092	3.24
328.305	46.25
328.518	115.88
328.731	83.11
328.944	48.3
329.157	-23.38
329.37	52.39
329.583	46.25
329.796	74.92
330.009	72.87
330.222	25.77
330.435	-11.09
330.648	40.11
330.861	-11.09
331.073	31.91
331.286	29.87
331.499	9.39
331.712	-37.72
331.925	46.25
332.138	17.58
332.35	54.44
332.563	64.68
332.776	58.54
332.989	-9.05
333.202	91.31
333.414	42.15
333.627	48.3
333.84	25.77
334.053	-23.38
334.265	17.58
334.478	72.87
334.691	-2.9
334.903	42.15
335.116	23.72
335.329	91.31
335.541	66.73
335.754	25.77
335.966	66.73
336.179	-17.24
336.392	29.87
336.604	97.45
336.817	-21.33
337.029	54.44
337.242	9.39
337.454	-41.81
337.667	-7
337.88	79.02
338.092	44.2
338.305	81.07
338.517	11.43
338.729	91.31
338.942	91.31
339.154	40.11
339.367	1.19
339.579	44.2
339.792	25.77
340.004	-0.85
340.217	-0.85
340.429	48.3
340.641	25.77
340.854	5.29
341.066	29.87
341.278	87.21
341.491	1.19
341.703	33.96
341.915	68.78
342.128	115.88
342.34	58.54
342.552	64.68
342.764	46.25
342.977	58.54
343.189	38.06
343.401	68.78
343.613	-27.48
343.826	68.78
344.038	21.67
344.25	89.26
344.462	-4.95
344.674	46.25
344.886	7.34
345.099	-23.38
345.311	89.26
345.523	48.3
345.735	40.11
345.947	29.87
346.159	93.35
346.371	-31.57
346.583	72.87
346.795	72.87
347.007	-9.05
347.219	83.11
347.431	11.43
347.643	72.87
347.855	64.68
348.067	52.39
348.279	33.96
348.491	-23.38
348.703	56.49
348.915	83.11
349.127	27.82
349.339	72.87
349.551	-0.85
349.763	105.64
349.975	97.45
350.187	-0.85
350.399	66.73
350.61	-39.76
350.822	31.91
351.034	15.53
351.246	40.11
351.458	50.35
351.669	23.72
351.881	91.31
352.093	54.44
352.305	15.53
352.517	9.39
352.728	36.01
352.94	25.77
353.152	42.15
353.363	97.45
353.575	50.35
353.787	-2.9
353.999	56.49
354.21	68.78
354.422	7.34
354.633	56.49
354.845	56.49
355.057	-23.38
355.268	-17.24
355.48	31.91
355.692	85.16
355.903	-0.85
356.115	21.67
356.326	56.49
356.538	17.58
356.749	1.19
356.961	-29.52
357.172	27.82
357.384	36.01
357.595	-29.52
357.807	48.3
358.018	42.15
358.23	122.02
358.441	-11.09
358.653	-25.43
358.864	27.82
359.075	31.91
359.287	29.87
359.498	5.29
359.709	11.43
359.921	64.68
360.132	83.11
360.344	81.07
360.555	48.3
360.766	25.77
360.977	-27.48
361.189	72.87
361.4	-29.52
361.611	25.77
361.823	109.74
362.034	7.34
362.245	17.58
362.456	9.39
362.667	44.2
362.879	5.29
363.09	58.54
363.301	83.11
363.512	27.82
363.723	74.92
363.935	-4.95
364.146	56.49
364.357	9.39
364.568	19.63
364.779	-2.9
364.99	-0.85
365.201	19.63
365.412	13.48
365.623	42.15
365.834	46.25
366.045	56.49
366.256	36.01
366.467	-27.48
366.678	117.93
366.889	23.72
367.1	68.78
367.311	64.68
367.522	42.15
367.733	21.67
367.944	40.11
368.155	-17.24
368.366	99.5
368.577	62.63
368.788	50.35
368.999	25.77
369.209	15.53
369.42	-39.76
369.631	109.74
369.842	-37.72
370.053	42.15
370.264	72.87
370.474	42.15
370.685	23.72
370.896	83.11
371.107	42.15
371.317	-4.95
371.528	33.96
371.739	70.83
371.95	50.35
372.16	-7
372.371	54.44
372.582	56.49
372.792	15.53
373.003	33.96
373.214	103.59
373.424	-7
373.635	74.92
373.846	36.01
374.056	66.73
374.267	130.22
374.477	21.67
374.688	31.91
374.898	-68.44
375.109	33.96
375.319	60.59
375.53	72.87
375.74	25.77
375.951	-17.24
376.161	79.02
376.372	50.35
376.582	42.15
376.793	-60.24
377.003	83.11
377.214	83.11
377.424	81.07
377.635	138.41
377.845	19.63
378.055	68.78
378.266	72.87
378.476	64.68
378.686	72.87
378.897	19.63
379.107	25.77
379.317	74.92
379.528	-43.86
379.738	40.11
379.948	7.34
380.158	93.35
380.369	21.67
380.579	89.26
380.789	17.58
380.999	1.19
381.21	113.83
381.42	3.24
381.63	58.54
381.84	68.78
382.05	31.91
382.261	66.73
382.471	27.82
382.681	-29.52
382.891	58.54
383.101	-33.62
383.311	72.87
383.521	81.07
383.731	19.63
383.941	46.25
384.151	70.83
384.361	-15.19
384.571	31.91
384.781	5.29
384.991	40.11
385.201	138.41
385.411	11.43
385.621	54.44
385.831	1.19
386.041	23.72
386.251	3.24
386.461	17.58
386.671	33.96
386.881	70.83
387.091	11.43
387.301	93.35
387.511	66.73
387.72	50.35
387.93	15.53
388.14	52.39
388.35	83.11
388.56	17.58
388.769	52.39
388.979	15.53
389.189	19.63
389.399	97.45
389.609	-17.24
389.818	76.97
390.028	-7
390.238	48.3
390.447	-39.76
390.657	83.11
390.867	21.67
391.076	-11.09
391.286	19.63
391.496	64.68
391.705	93.35
391.915	134.31
392.125	23.72
392.334	81.07
392.544	81.07
392.753	56.49
392.963	44.2
393.172	134.31
393.382	36.01
393.591	81.07
393.801	27.82
394.01	40.11
394.22	17.58
394.429	105.64
394.639	56.49
394.848	23.72
395.058	38.06
395.267	70.83
395.477	68.78
395.686	40.11
395.895	97.45
396.105	109.74
396.314	31.91
396.524	62.63
396.733	107.69
396.942	50.35
397.152	122.02
397.361	72.87
397.57	87.21
397.78	33.96
397.989	99.5
398.198	103.59
398.407	23.72
398.617	56.49
398.826	21.67
399.035	58.54
399.244	70.83
399.453	89.26
399.663	87.21
399.872	103.59
400.081	11.43
400.29	56.49
400.499	64.68
400.708	105.64
400.917	25.77
401.127	52.39
401.336	42.15
401.545	81.07
401.754	56.49
401.963	119.98
402.172	93.35
402.381	42.15
402.59	33.96
402.799	36.01
403.008	66.73
403.217	105.64
403.426	83.11
403.635	85.16
403.844	93.35
404.053	81.07
404.262	107.69
404.471	93.35
404.68	76.97
404.888	134.31
405.097	87.21
405.306	111.78
405.515	140.46
405.724	136.36
405.933	146.6
406.142	171.18
406.35	171.18
406.559	119.98
406.768	83.11
406.977	122.02
407.185	148.65
407.394	113.83
407.603	111.78
407.812	156.84
408.02	162.98
408.229	179.37
408.438	107.69
408.646	169.13
408.855	138.41
409.064	171.18
409.272	136.36
409.481	171.18
409.69	122.02
409.898	158.89
410.107	171.18
410.315	220.33
410.524	197.8
410.733	312.49
410.941	205.99
411.15	281.77
411.358	263.33
411.567	283.81
411.775	269.48
411.984	255.14
412.192	246.95
412.401	345.25
412.609	298.15
412.818	267.43
413.026	322.73
413.234	361.64
413.443	318.63
413.651	332.97
413.86	351.4
414.068	449.7
414.276	396.45
414.485	312.49
414.693	398.5
414.901	425.12
415.11	404.64
415.318	375.97
415.526	490.66
415.734	482.47
415.943	496.8
416.151	537.76
416.359	525.47
416.567	638.11
416.776	521.38
416.984	568.48
417.192	511.14
417.4	621.73
417.608	625.83
417.817	670.88
418.025	697.5
418.233	781.47
418.441	695.46
418.649	760.99
418.857	793.76
419.065	799.9
419.273	789.66
419.481	820.38
419.689	976.03
419.897	922.78
420.105	937.12
420.313	1047.71
420.521	1072.28
420.729	1021.08
420.937	1006.75
421.145	1174.68
421.353	1164.44
421.561	1166.49
421.769	1164.44
421.977	1344.66
422.185	1219.74
422.393	1379.48
422.601	1391.77
422.809	1498.26
423.017	1340.57
423.224	1453.2
423.432	1498.26
423.64	1465.49
423.848	1578.13
424.056	1580.18
424.263	1778.83
424.471	1707.15
424.679	1815.69
424.887	1967.24
425.094	1940.62
425.302	1928.33
425.51	2014.35
425.718	2057.36
425.925	2110.6
426.133	2161.8
426.341	2143.37
426.548	2425.99
426.756	2313.35
426.964	2350.21
427.171	2657.41
427.379	2548.87
427.586	2722.95
427.794	2768
428.001	2774.14
428.209	3097.72
428.417	2899.07
428.624	3062.91
428.832	3267.7
429.039	3087.48
429.247	3038.33
429.454	3562.61
429.662	3710.07
429.869	3513.46
430.076	3638.39
430.284	3390.58
430.491	3624.05
430.699	3802.22
430.906	3906.67
431.114	3841.14
431.321	4211.82
431.528	4406.38
431.736	4451.43
431.943	4660.32
432.15	4570.21
432.358	4676.71
432.565	4826.21
432.772	4828.26
432.979	5078.11
433.187	5069.92
433.394	5028.96
433.601	5606.49
433.808	5575.77
434.016	5471.32
434.223	5682.26
434.43	6057.04
434.637	5774.42
434.844	6440.01
435.052	6345.8
435.259	6470.73
435.466	6538.31
435.673	6298.7
435.88	6841.41
436.087	7222.33
436.294	7271.48
436.501	6917.19
436.708	7203.9
436.915	7337.02
437.122	7627.83
437.329	7644.21
437.537	7957.55
437.743	8199.21
437.95	8088.62
438.157	8545.32
438.364	8600.62
438.571	8705.06
438.778	8805.41
438.985	9579.54
439.192	9210.91
439.399	9458.71
439.606	8977.44
439.813	10005.52
440.02	10378.25
440.227	10193.94
440.433	9962.51
440.64	10394.64
440.847	10241.04
441.054	10494.99
441.261	11430.91
441.467	11224.06
441.674	11340.8
441.881	11697.14
442.088	11736.06
442.294	11680.76
442.501	11811.83
442.708	12057.59
442.914	12557.29
443.121	13196.26
443.328	12786.66
443.534	13738.97
443.741	13339.62
443.948	13106.15
444.154	14171.09
444.361	14103.51
444.568	14169.04
444.774	14044.12
444.981	14205.91
445.187	14719.95
445.394	15387.58
445.6	15119.3
445.807	16544.69
446.013	15875
446.22	16057.27
446.426	16690.09
446.633	17032.1
446.839	17308.58
447.046	17068.97
447.252	17824.67
447.459	17826.71
447.665	17583.01
447.871	18230.16
448.078	18973.58
448.284	18594.7
448.491	18455.44
448.697	19452.8
448.903	19921.79
449.11	19852.16
449.316	19618.69
449.522	19876.73
449.728	20427.63
449.935	20632.43
450.141	20607.86
450.347	20841.32
450.553	20216.69
450.76	20794.22
450.966	21435.24
451.172	20976.49
451.378	21449.57
451.584	21349.22
451.791	21650.27
451.997	21683.04
452.203	22119.26
452.409	21887.84
452.615	21846.88
452.821	21191.53
453.027	20949.87
453.233	21926.75
453.44	21224.29
453.646	21136.23
453.852	21371.75
454.058	21697.38
454.264	21240.68
454.47	21431.14
454.676	21226.34
454.882	21556.07
455.088	19880.83
455.294	20284.28
455.5	20384.63
455.705	20478.83
455.911	19553.15
456.117	19547.01
456.323	19274.63
456.529	18006.94
456.735	18879.37
456.941	18475.92
457.147	18148.25
457.352	17365.92
457.558	17531.81
457.764	17509.28
457.97	17357.73
458.176	16890.79
458.381	16563.12
458.587	15967.16
458.793	16087.99
458.999	15150.02
459.204	16063.41
459.41	15692.73
459.616	14691.27
459.821	14803.91
460.027	14656.46
460.233	14345.17
460.438	13732.83
460.644	13999.06
460.85	13063.14
461.055	12856.29
461.261	13005.8
461.466	11938.8
461.672	11721.72
461.878	12583.91
462.083	11498.49
462.289	11363.33
462.494	11314.17
462.7	10740.74
462.905	10449.93
463.111	10857.48
463.316	10886.15
463.522	10777.61
463.727	10679.3
463.932	10701.83
464.138	10390.54
464.343	10712.07
464.549	10396.68
464.754	10693.64
464.959	10445.84
465.165	10732.55
465.37	10128.4
465.575	9786.39
465.781	10245.13
465.986	10136.59
466.191	9813.01
466.397	9667.61
466.602	9348.12
466.807	9444.38
467.012	9675.8
467.218	9518.11
467.423	9624.6
467.628	9552.92
467.833	10026
468.038	9464.86
468.244	9339.93
468.449	9681.94
468.654	9239.58
468.859	9266.21
469.064	9096.22
