Data from USB4F104151__214__14-00-02-884.txt Node

Date: Thu Mar 13 14:00:02 EDT 2025
User: louis
Spectrometer: USB4F10415
Trigger mode: 4
Integration Time (sec): 1.000000E-2
Scans to average: 1
Electric dark correction enabled: true
Nonlinearity correction enabled: false
Boxcar width: 0
XAxis mode: Wavelengths
Number of Pixels in Spectrum: 3648
>>>>>Begin Spectral Data<<<<<
178.204	-58.54
178.424	-58.54
178.644	-58.54
178.864	-44.2
179.084	19.29
179.304	-29.87
179.524	41.81
179.744	-40.11
179.964	21.33
180.184	-5.29
180.404	27.48
180.624	21.33
180.844	23.38
181.064	-25.77
181.283	-27.82
181.503	29.52
181.723	-36.01
181.943	-11.43
182.163	23.38
182.383	15.19
182.602	-9.39
182.822	52.05
183.042	31.57
183.262	17.24
183.482	15.19
183.701	-5.29
183.921	-17.58
184.141	7
184.361	19.29
184.58	2.9
184.8	9.05
185.02	33.62
185.239	58.2
185.459	43.86
185.679	11.09
185.898	33.62
186.118	68.44
186.338	43.86
186.557	47.96
186.777	19.29
186.997	39.76
187.216	-17.58
187.436	50
187.655	27.48
187.875	76.63
188.095	4.95
188.314	23.38
188.534	-56.49
188.753	15.19
188.973	-27.82
189.192	23.38
189.412	41.81
189.631	11.09
189.851	-60.59
190.07	-7.34
190.29	52.05
190.509	7
190.729	-76.97
190.948	115.54
191.168	15.19
191.387	121.68
191.607	27.48
191.826	0.85
192.045	82.77
192.265	-50.35
192.484	47.96
192.704	-19.63
192.923	29.52
193.142	45.91
193.362	-36.01
193.581	17.24
193.8	15.19
194.02	88.92
194.239	15.19
194.458	64.34
194.678	17.24
194.897	15.19
195.116	-38.06
195.335	56.15
195.555	-7.34
195.774	17.24
195.993	70.48
196.212	27.48
196.432	-25.77
196.651	13.14
196.87	-36.01
197.089	64.34
197.308	115.54
197.528	58.2
197.747	86.87
197.966	74.58
198.185	66.39
198.404	7
198.623	9.05
198.842	-52.39
199.062	15.19
199.281	64.34
199.5	52.05
199.719	43.86
199.938	45.91
200.157	35.67
200.376	-29.87
200.595	99.16
200.814	78.68
201.033	23.38
201.252	41.81
201.471	29.52
201.69	74.58
201.909	-1.19
202.128	27.48
202.347	45.91
202.566	33.62
202.785	33.62
203.004	62.29
203.223	-25.77
203.442	19.29
203.661	97.11
203.879	-15.53
204.098	23.38
204.317	15.19
204.536	58.2
204.755	58.2
204.974	64.34
205.193	-19.63
205.411	45.91
205.63	88.92
205.849	93.01
206.068	0.85
206.287	21.33
206.505	117.59
206.724	-21.67
206.943	41.81
207.162	23.38
207.381	23.38
207.599	39.76
207.818	60.24
208.037	76.63
208.255	31.57
208.474	-7.34
208.693	52.05
208.911	62.29
209.13	-42.15
209.349	74.58
209.567	31.57
209.786	56.15
210.005	19.29
210.223	111.44
210.442	37.72
210.661	4.95
210.879	-15.53
211.098	47.96
211.316	-3.24
211.535	29.52
211.753	58.2
211.972	58.2
212.191	29.52
212.409	58.2
212.628	56.15
212.846	4.95
213.065	25.43
213.283	56.15
213.502	0.85
213.72	-9.39
213.938	13.14
214.157	27.48
214.375	21.33
214.594	-1.19
214.812	11.09
215.031	-5.29
215.249	-9.39
215.467	88.92
215.686	58.2
215.904	11.09
216.122	88.92
216.341	52.05
216.559	50
216.778	76.63
216.996	17.24
217.214	43.86
217.432	-5.29
217.651	-38.06
217.869	-1.19
218.087	-17.58
218.306	-5.29
218.524	23.38
218.742	17.24
218.96	43.86
219.179	13.14
219.397	9.05
219.615	58.2
219.833	0.85
220.051	113.49
220.27	23.38
220.488	64.34
220.706	72.53
220.924	60.24
221.142	54.1
221.36	47.96
221.578	-29.87
221.796	64.34
222.015	4.95
222.233	17.24
222.451	113.49
222.669	66.39
222.887	68.44
223.105	7
223.323	-19.63
223.541	-27.82
223.759	93.01
223.977	66.39
224.195	47.96
224.413	50
224.631	-11.43
224.849	47.96
225.067	4.95
225.285	33.62
225.503	33.62
225.721	107.35
225.939	4.95
226.157	17.24
226.375	105.3
226.592	70.48
226.81	-1.19
227.028	60.24
227.246	88.92
227.464	33.62
227.682	56.15
227.9	33.62
228.117	80.72
228.335	95.06
228.553	19.29
228.771	103.25
228.989	-40.11
229.206	97.11
229.424	23.38
229.642	37.72
229.86	60.24
230.077	68.44
230.295	-52.39
230.513	21.33
230.731	76.63
230.948	19.29
231.166	99.16
231.384	47.96
231.601	138.07
231.819	101.2
232.037	9.05
232.254	15.19
232.472	60.24
232.689	-7.34
232.907	52.05
233.125	-7.34
233.342	37.72
233.56	-48.3
233.777	88.92
233.995	33.62
234.213	45.91
234.43	64.34
234.648	88.92
234.865	50
235.083	33.62
235.3	4.95
235.518	-5.29
235.735	52.05
235.953	0.85
236.17	11.09
236.388	-7.34
236.605	31.57
236.822	76.63
237.04	52.05
237.257	7
237.475	66.39
237.692	31.57
237.909	17.24
238.127	47.96
238.344	-52.39
238.562	60.24
238.779	-9.39
238.996	64.34
239.214	9.05
239.431	9.05
239.648	27.48
239.865	-11.43
240.083	39.76
240.3	82.77
240.517	74.58
240.735	9.05
240.952	121.68
241.169	66.39
241.386	41.81
241.603	31.57
241.821	-27.82
242.038	45.91
242.255	66.39
242.472	39.76
242.689	19.29
242.907	90.96
243.124	103.25
243.341	7
243.558	66.39
243.775	9.05
243.992	31.57
244.209	-21.67
244.426	80.72
244.643	27.48
244.86	-21.67
245.078	0.85
245.295	70.48
245.512	80.72
245.729	-46.25
245.946	29.52
246.163	-27.82
246.38	-50.35
246.597	41.81
246.814	31.57
247.031	47.96
247.248	64.34
247.464	23.38
247.681	4.95
247.898	-40.11
248.115	29.52
248.332	39.76
248.549	66.39
248.766	-5.29
248.983	58.2
249.2	-15.53
249.417	105.3
249.633	56.15
249.85	64.34
250.067	88.92
250.284	11.09
250.501	11.09
250.717	21.33
250.934	80.72
251.151	43.86
251.368	7
251.585	72.53
251.801	31.57
252.018	7
252.235	66.39
252.451	45.91
252.668	37.72
252.885	25.43
253.102	-13.48
253.318	23.38
253.535	31.57
253.752	31.57
253.968	13.14
254.185	25.43
254.401	7
254.618	31.57
254.835	-5.29
255.051	74.58
255.268	56.15
255.484	31.57
255.701	21.33
255.917	17.24
256.134	-27.82
256.351	82.77
256.567	19.29
256.784	109.4
257	-38.06
257.217	105.3
257.433	66.39
257.65	50
257.866	-17.58
258.082	2.9
258.299	-23.72
258.515	27.48
258.732	52.05
258.948	56.15
259.165	-19.63
259.381	70.48
259.597	11.09
259.814	9.05
260.03	33.62
260.246	19.29
260.463	2.9
260.679	-21.67
260.895	23.38
261.112	72.53
261.328	64.34
261.544	99.16
261.761	66.39
261.977	-48.3
262.193	-33.96
262.409	74.58
262.626	64.34
262.842	35.67
263.058	15.19
263.274	117.59
263.49	80.72
263.707	60.24
263.923	19.29
264.139	-31.91
264.355	29.52
264.571	2.9
264.787	33.62
265.004	-25.77
265.22	23.38
265.436	7
265.652	-21.67
265.868	17.24
266.084	39.76
266.3	50
266.516	50
266.732	37.72
266.948	50
267.164	-21.67
267.38	33.62
267.596	52.05
267.812	56.15
268.028	45.91
268.244	80.72
268.46	68.44
268.676	60.24
268.892	80.72
269.108	-3.24
269.324	62.29
269.54	27.48
269.756	72.53
269.972	74.58
270.188	45.91
270.403	25.43
270.619	123.73
270.835	-50.35
271.051	66.39
271.267	33.62
271.483	129.88
271.698	0.85
271.914	64.34
272.13	-23.72
272.346	56.15
272.562	-9.39
272.777	111.44
272.993	-3.24
273.209	9.05
273.425	54.1
273.64	11.09
273.856	15.19
274.072	68.44
274.287	-1.19
274.503	29.52
274.719	27.48
274.934	105.3
275.15	33.62
275.366	64.34
275.581	15.19
275.797	68.44
276.012	45.91
276.228	7
276.444	15.19
276.659	95.06
276.875	33.62
277.09	33.62
277.306	37.72
277.521	29.52
277.737	15.19
277.952	70.48
278.168	76.63
278.383	66.39
278.599	-50.35
278.814	2.9
279.03	-29.87
279.245	17.24
279.461	33.62
279.676	29.52
279.892	0.85
280.107	72.53
280.322	-11.43
280.538	80.72
280.753	31.57
280.969	17.24
281.184	74.58
281.399	56.15
281.615	-23.72
281.83	-5.29
282.045	-25.77
282.26	19.29
282.476	33.62
282.691	45.91
282.906	52.05
283.122	39.76
283.337	41.81
283.552	74.58
283.767	105.3
283.983	31.57
284.198	-1.19
284.413	52.05
284.628	29.52
284.843	72.53
285.058	25.43
285.274	-3.24
285.489	29.52
285.704	80.72
285.919	-19.63
286.134	33.62
286.349	2.9
286.564	27.48
286.779	62.29
286.995	-29.87
287.21	9.05
287.425	50
287.64	23.38
287.855	56.15
288.07	47.96
288.285	62.29
288.5	-33.96
288.715	11.09
288.93	60.24
289.145	88.92
289.36	35.67
289.575	-5.29
289.79	72.53
290.004	11.09
290.219	41.81
290.434	54.1
290.649	23.38
290.864	11.09
291.079	4.95
291.294	74.58
291.509	64.34
291.724	39.76
291.938	82.77
292.153	58.2
292.368	-25.77
292.583	54.1
292.798	-3.24
293.012	103.25
293.227	13.14
293.442	105.3
293.657	64.34
293.871	27.48
294.086	66.39
294.301	11.09
294.516	43.86
294.73	101.2
294.945	70.48
295.16	86.87
295.374	47.96
295.589	172.88
295.804	88.92
296.018	64.34
296.233	54.1
296.447	-5.29
296.662	23.38
296.877	90.96
297.091	25.43
297.306	23.38
297.52	-15.53
297.735	7
297.949	21.33
298.164	-11.43
298.378	62.29
298.593	111.44
298.807	64.34
299.022	60.24
299.236	41.81
299.451	39.76
299.665	7
299.88	68.44
300.094	93.01
300.309	43.86
300.523	7
300.737	21.33
300.952	39.76
301.166	60.24
301.381	88.92
301.595	152.4
301.809	66.39
302.024	90.96
302.238	31.57
302.452	54.1
302.667	93.01
302.881	27.48
303.095	52.05
303.309	109.4
303.524	21.33
303.738	2.9
303.952	39.76
304.166	56.15
304.381	0.85
304.595	7
304.809	50
305.023	25.43
305.237	41.81
305.452	21.33
305.666	43.86
305.88	50
306.094	31.57
306.308	60.24
306.522	82.77
306.736	-9.39
306.95	-1.19
307.164	23.38
307.379	15.19
307.593	64.34
307.807	80.72
308.021	80.72
308.235	123.73
308.449	56.15
308.663	95.06
308.877	70.48
309.091	-13.48
309.305	25.43
309.519	50
309.733	68.44
309.947	-3.24
310.161	-5.29
310.374	105.3
310.588	29.52
310.802	68.44
311.016	90.96
311.23	58.2
311.444	27.48
311.658	37.72
311.872	2.9
312.085	-13.48
312.299	58.2
312.513	39.76
312.727	76.63
312.941	25.43
313.154	39.76
313.368	39.76
313.582	52.05
313.796	125.78
314.009	-21.67
314.223	88.92
314.437	62.29
314.651	125.78
314.864	66.39
315.078	90.96
315.292	93.01
315.505	-38.06
315.719	-9.39
315.933	64.34
316.146	29.52
316.36	70.48
316.573	68.44
316.787	45.91
317.001	93.01
317.214	-9.39
317.428	43.86
317.641	29.52
317.855	50
318.068	56.15
318.282	43.86
318.495	88.92
318.709	97.11
318.922	-50.35
319.136	17.24
319.349	43.86
319.563	-1.19
319.776	107.35
319.99	-15.53
320.203	21.33
320.417	41.81
320.63	43.86
320.843	50
321.057	54.1
321.27	54.1
321.483	4.95
321.697	66.39
321.91	41.81
322.124	76.63
322.337	58.2
322.55	50
322.763	47.96
322.977	-54.44
323.19	23.38
323.403	-9.39
323.617	33.62
323.83	47.96
324.043	113.49
324.256	50
324.469	82.77
324.683	27.48
324.896	76.63
325.109	78.68
325.322	9.05
325.535	17.24
325.748	27.48
325.962	93.01
326.175	4.95
326.388	47.96
326.601	21.33
326.814	19.29
327.027	27.48
327.24	47.96
327.453	21.33
327.666	-1.19
327.879	23.38
328.092	93.01
328.305	109.4
328.518	7
328.731	31.57
328.944	88.92
329.157	41.81
329.37	54.1
329.583	35.67
329.796	45.91
330.009	88.92
330.222	76.63
330.435	17.24
330.648	7
330.861	-9.39
331.073	66.39
331.286	80.72
331.499	133.97
331.712	31.57
331.925	39.76
332.138	74.58
332.35	7
332.563	29.52
332.776	64.34
332.989	84.82
333.202	154.45
333.414	7
333.627	66.39
333.84	43.86
334.053	43.86
334.265	60.24
334.478	-9.39
334.691	95.06
334.903	47.96
335.116	43.86
335.329	0.85
335.541	19.29
335.754	-23.72
335.966	39.76
336.179	50
336.392	-15.53
336.604	31.57
336.817	82.77
337.029	9.05
337.242	29.52
337.454	84.82
337.667	99.16
337.88	39.76
338.092	64.34
338.305	113.49
338.517	-42.15
338.729	47.96
338.942	43.86
339.154	64.34
339.367	86.87
339.579	56.15
339.792	68.44
340.004	123.73
340.217	88.92
340.429	13.14
340.641	74.58
340.854	115.54
341.066	41.81
341.278	-21.67
341.491	23.38
341.703	37.72
341.915	56.15
342.128	60.24
342.34	-38.06
342.552	41.81
342.764	-7.34
342.977	88.92
343.189	72.53
343.401	33.62
343.613	39.76
343.826	21.33
344.038	-5.29
344.25	33.62
344.462	25.43
344.674	27.48
344.886	19.29
345.099	74.58
345.311	84.82
345.523	45.91
345.735	-21.67
345.947	0.85
346.159	62.29
346.371	76.63
346.583	56.15
346.795	-36.01
347.007	95.06
347.219	99.16
347.431	41.81
347.643	72.53
347.855	50
348.067	125.78
348.279	29.52
348.491	99.16
348.703	-3.24
348.915	78.68
349.127	43.86
349.339	82.77
349.551	50
349.763	146.26
349.975	9.05
350.187	70.48
350.399	-9.39
350.61	72.53
350.822	68.44
351.034	9.05
351.246	138.07
351.458	66.39
351.669	-21.67
351.881	31.57
352.093	9.05
352.305	127.83
352.517	54.1
352.728	17.24
352.94	74.58
353.152	47.96
353.363	-1.19
353.575	82.77
353.787	45.91
353.999	15.19
354.21	41.81
354.422	50
354.633	2.9
354.845	-27.82
355.057	54.1
355.268	86.87
355.48	43.86
355.692	64.34
355.903	99.16
356.115	45.91
356.326	37.72
356.538	105.3
356.749	80.72
356.961	97.11
357.172	50
357.384	80.72
357.595	86.87
357.807	43.86
358.018	21.33
358.23	64.34
358.441	66.39
358.653	7
358.864	29.52
359.075	58.2
359.287	39.76
359.498	29.52
359.709	15.19
359.921	25.43
360.132	-1.19
360.344	74.58
360.555	23.38
360.766	80.72
360.977	52.05
361.189	45.91
361.4	66.39
361.611	0.85
361.823	19.29
362.034	109.4
362.245	74.58
362.456	74.58
362.667	33.62
362.879	54.1
363.09	50
363.301	103.25
363.512	33.62
363.723	27.48
363.935	-13.48
364.146	72.53
364.357	113.49
364.568	97.11
364.779	23.38
364.99	72.53
365.201	97.11
365.412	95.06
365.623	11.09
365.834	64.34
366.045	60.24
366.256	58.2
366.467	84.82
366.678	39.76
366.889	95.06
367.1	-7.34
367.311	-1.19
367.522	50
367.733	62.29
367.944	117.59
368.155	58.2
368.366	66.39
368.577	64.34
368.788	47.96
368.999	21.33
369.209	90.96
369.42	72.53
369.631	35.67
369.842	21.33
370.053	13.14
370.264	88.92
370.474	23.38
370.685	-25.77
370.896	66.39
371.107	13.14
371.317	80.72
371.528	72.53
371.739	64.34
371.95	105.3
372.16	27.48
372.371	37.72
372.582	72.53
372.792	103.25
373.003	-1.19
373.214	72.53
373.424	76.63
373.635	60.24
373.846	88.92
374.056	97.11
374.267	-5.29
374.477	43.86
374.688	0.85
374.898	119.64
375.109	15.19
375.319	138.07
375.53	97.11
375.74	43.86
375.951	33.62
376.161	27.48
376.372	21.33
376.582	27.48
376.793	78.68
377.003	33.62
377.214	41.81
377.424	84.82
377.635	33.62
377.845	60.24
378.055	97.11
378.266	47.96
378.476	123.73
378.686	19.29
378.897	39.76
379.107	78.68
379.317	62.29
379.528	27.48
379.738	64.34
379.948	88.92
380.158	66.39
380.369	50
380.579	146.26
380.789	50
380.999	82.77
381.21	72.53
381.42	109.4
381.63	50
381.84	84.82
382.05	41.81
382.261	7
382.471	76.63
382.681	105.3
382.891	103.25
383.101	33.62
383.311	33.62
383.521	43.86
383.731	29.52
383.941	27.48
384.151	88.92
384.361	107.35
384.571	93.01
384.781	119.64
384.991	113.49
385.201	90.96
385.411	138.07
385.621	66.39
385.831	39.76
386.041	60.24
386.251	154.45
386.461	60.24
386.671	25.43
386.881	72.53
387.091	66.39
387.301	95.06
387.511	29.52
387.72	56.15
387.93	68.44
388.14	25.43
388.35	35.67
388.56	80.72
388.769	80.72
388.979	52.05
389.189	-5.29
389.399	111.44
389.609	39.76
389.818	41.81
390.028	82.77
390.238	50
390.447	4.95
390.657	109.4
390.867	88.92
391.076	33.62
391.286	99.16
391.496	21.33
391.705	50
391.915	76.63
392.125	74.58
392.334	68.44
392.544	54.1
392.753	101.2
392.963	125.78
393.172	29.52
393.382	45.91
393.591	50
393.801	162.64
394.01	131.92
394.22	41.81
394.429	43.86
394.639	64.34
394.848	107.35
395.058	88.92
395.267	99.16
395.477	107.35
395.686	25.43
395.895	64.34
396.105	195.41
396.314	90.96
396.524	99.16
396.733	17.24
396.942	58.2
397.152	54.1
397.361	66.39
397.57	95.06
397.78	109.4
397.989	45.91
398.198	99.16
398.407	115.54
398.617	123.73
398.826	148.31
399.035	107.35
399.244	50
399.453	9.05
399.663	47.96
399.872	109.4
400.081	84.82
400.29	156.5
400.499	88.92
400.708	113.49
400.917	154.45
401.127	133.97
401.336	160.59
401.545	187.22
401.754	97.11
401.963	97.11
402.172	129.88
402.381	166.74
402.59	109.4
402.799	140.12
403.008	148.31
403.217	121.68
403.426	90.96
403.635	133.97
403.844	142.16
404.053	93.01
404.262	90.96
404.471	150.36
404.68	154.45
404.888	185.17
405.097	103.25
405.306	142.16
405.515	144.21
405.724	105.3
405.933	172.88
406.142	162.64
406.35	119.64
406.559	138.07
406.768	252.75
406.977	199.51
407.185	158.55
407.394	219.99
407.603	230.23
407.812	277.33
408.02	219.99
408.229	236.37
408.438	226.13
408.646	197.46
408.855	232.27
409.064	232.27
409.272	254.8
409.481	316.24
409.69	248.66
409.898	303.95
410.107	254.8
410.315	299.86
410.524	195.41
410.733	293.71
410.941	297.81
411.15	338.77
411.358	291.66
411.567	295.76
411.775	334.67
411.984	385.87
412.192	349.01
412.401	346.96
412.609	422.73
412.818	426.83
413.026	420.69
413.234	439.12
413.443	375.63
413.651	500.56
413.86	467.79
414.068	527.18
414.276	506.7
414.485	514.89
414.693	578.38
414.901	492.37
415.11	629.58
415.318	576.33
415.526	592.72
415.734	660.3
415.943	691.02
416.151	785.23
416.359	799.56
416.567	731.98
416.776	744.27
416.984	805.71
417.192	934.73
417.4	850.76
417.608	817.99
417.817	867.14
418.025	861
418.233	1006.41
418.441	975.69
418.649	1035.08
418.857	947.01
419.065	1084.23
419.273	1057.61
419.481	1164.1
419.689	1215.3
419.897	1266.5
420.105	1289.03
420.313	1352.51
420.521	1375.04
420.729	1379.14
420.937	1448.77
421.145	1573.69
421.353	1444.67
421.561	1698.62
421.769	1542.97
421.977	1735.48
422.185	1727.29
422.393	1801.02
422.601	1860.41
422.809	1944.38
423.017	1913.66
423.224	1973.05
423.432	2108.21
423.64	1997.62
423.848	2276.15
424.056	2132.79
424.263	2353.97
424.471	2411.31
424.679	2382.64
424.887	2581.29
425.094	2671.4
425.302	2622.25
425.51	2693.93
425.718	2890.54
425.925	2669.36
426.133	2880.3
426.341	3081
426.548	3224.36
426.756	3146.53
426.964	3316.51
427.171	3441.44
427.379	3611.42
427.586	3599.13
427.794	3752.73
428.001	3810.08
428.209	4090.65
428.417	3947.29
428.624	4283.16
428.832	4240.15
429.039	4236.05
429.247	4209.43
429.454	4672.27
429.662	4893.45
429.869	4655.89
430.076	5004.04
430.284	4705.04
430.491	4963.08
430.699	5182.21
430.906	5274.37
431.114	5423.87
431.321	5468.93
431.528	5823.23
431.736	6060.79
431.943	6236.92
432.15	6140.66
432.358	6259.45
432.565	6599.41
432.772	6527.73
432.979	6841.07
433.187	6855.4
433.394	7095.02
433.601	7602.91
433.808	7574.24
434.016	7308.01
434.223	7768.8
434.43	8424.15
434.637	8133.34
434.844	8549.07
435.052	8592.08
435.259	8667.86
435.466	8788.69
435.673	8674
435.88	9288.39
436.087	9810.62
436.294	9812.67
436.501	9417.41
436.708	9616.07
436.915	10314.42
437.122	10468.02
437.329	10422.97
437.537	10726.07
437.743	10955.44
437.95	10648.24
438.157	11389.61
438.364	11748
438.571	11641.51
438.778	11825.82
438.985	12921.49
439.192	12362.39
439.399	12710.55
439.606	12745.36
439.813	13251.21
440.02	13892.23
440.227	13896.32
440.433	13709.96
440.64	13988.48
440.847	14301.82
441.054	14572.15
441.261	15043.18
441.467	15327.85
441.674	15485.55
441.881	16075.36
442.088	16138.85
442.294	15864.42
442.501	16171.61
442.708	16743
442.914	17359.44
443.121	17709.64
443.328	17564.23
443.534	18633.27
443.741	18070.08
443.948	17922.63
444.154	18930.23
444.361	18977.33
444.568	19128.88
444.774	19171.89
444.981	19362.35
445.187	19925.54
445.394	20888.09
445.6	20527.64
445.807	22315.52
446.013	21549.58
446.22	22227.46
446.426	22751.74
446.633	22999.54
446.839	23966.18
447.046	22766.07
447.252	24127.97
447.459	24140.26
447.665	23986.66
447.871	25102.81
448.078	26034.63
448.284	24984.02
448.491	25530.83
448.697	26794.43
448.903	27265.46
449.11	27201.97
449.316	26495.43
449.522	27220.41
449.728	27922.86
449.935	28066.22
450.141	28203.43
450.347	28598.69
450.553	27691.44
450.76	28191.14
450.966	29155.74
451.172	28811.68
451.378	29411.73
451.584	28639.65
451.791	29735.31
451.997	29559.19
452.203	30013.84
452.409	30050.7
452.615	29718.93
452.821	28463.52
453.027	28389.8
453.233	29987.21
453.44	28707.23
453.646	29215.13
453.852	29288.85
454.058	29665.68
454.264	28656.03
454.47	29407.64
454.676	28871.07
454.882	29655.44
455.088	26659.26
455.294	27527.6
455.5	27867.56
455.705	27771.31
455.911	26937.79
456.117	26192.33
456.323	26042.82
456.529	24869.34
456.735	25878.99
456.941	25420.24
457.147	24811.99
457.352	23878.12
457.558	23583.21
457.764	23489.01
457.97	23280.11
458.176	22641.15
458.381	22804.99
458.587	21611.02
458.793	21811.72
458.999	20883.99
459.204	22407.68
459.41	21447.18
459.616	19913.25
459.821	20419.1
460.027	20374.05
460.233	19329.58
460.438	18645.56
460.644	19016.24
460.85	17936.96
461.055	17988.16
461.261	17750.6
461.466	16265.82
461.672	15884.9
461.878	16869.97
462.083	15891.04
462.289	15647.33
462.494	15493.74
462.7	14760.56
462.905	14523
463.111	15100.53
463.316	15047.28
463.522	14828.15
463.727	14959.22
463.932	14568.06
464.138	14840.43
464.343	14813.81
464.549	14199.42
464.754	14580.34
464.959	14598.77
465.165	14271.1
465.37	14031.49
465.575	13701.76
465.781	14017.15
465.986	14080.64
466.191	13658.76
466.397	13333.13
466.602	12872.34
466.807	13474.44
467.012	13249.16
467.218	13144.72
467.423	12995.22
467.628	12980.88
467.833	13677.19
468.038	13095.57
468.244	12853.91
468.449	13189.77
468.654	12698.26
468.859	12710.55
469.064	12720.79
469.269	12057.25
469.474	12335.77
469.679	12505.75
