Data from USB4F104151__20__13-52-32-923.txt Node

Date: Thu Mar 13 13:52:32 EDT 2025
User: louis
Spectrometer: USB4F10415
Trigger mode: 4
Integration Time (sec): 1.000000E-2
Scans to average: 1
Electric dark correction enabled: true
Nonlinearity correction enabled: false
Boxcar width: 0
XAxis mode: Wavelengths
Number of Pixels in Spectrum: 3648
>>>>>Begin Spectral Data<<<<<
178.204	12.12
178.424	12.12
178.644	12.12
178.864	-57.51
179.084	-49.32
179.304	-22.7
179.524	-26.79
179.744	-22.7
179.964	18.26
180.184	32.6
180.404	-0.17
180.624	-22.7
180.844	-4.27
181.064	14.17
181.283	12.12
181.503	-0.17
181.723	22.36
181.943	14.17
182.163	61.27
182.383	-10.41
182.602	-88.23
182.822	5.97
183.042	-18.6
183.262	34.64
183.482	53.08
183.701	-12.46
183.921	44.88
184.141	5.97
184.361	-12.46
184.58	-4.27
184.8	-0.17
185.02	20.31
185.239	44.88
185.459	32.6
185.679	18.26
185.898	108.37
186.118	48.98
186.338	14.17
186.557	44.88
186.777	48.98
186.997	14.17
187.216	18.26
187.436	18.26
187.655	48.98
187.875	-14.51
188.095	77.65
188.314	-20.65
188.534	-6.31
188.753	-4.27
188.973	14.17
189.192	38.74
189.412	16.21
189.631	22.36
189.851	-26.79
190.07	48.98
190.29	-12.46
190.509	40.79
190.729	16.21
190.948	22.36
191.168	89.94
191.387	3.93
191.607	-4.27
191.826	-0.17
192.045	-67.75
192.265	18.26
192.484	-26.79
192.704	-24.75
192.923	40.79
193.142	59.22
193.362	5.97
193.581	91.99
193.8	48.98
194.02	22.36
194.239	-39.08
194.458	-12.46
194.678	18.26
194.897	46.93
195.116	-28.84
195.335	79.7
195.555	-2.22
195.774	-26.79
195.993	-73.9
196.212	53.08
196.432	34.64
196.651	-12.46
196.87	73.56
197.089	36.69
197.308	12.12
197.528	44.88
197.747	63.32
197.966	38.74
198.185	34.64
198.404	-16.55
198.623	8.02
198.842	26.45
199.062	-57.51
199.281	8.02
199.5	51.03
199.719	-8.36
199.938	1.88
200.157	22.36
200.376	16.21
200.595	91.99
200.814	75.6
201.033	-28.84
201.252	22.36
201.471	44.88
201.69	-20.65
201.909	-24.75
202.128	63.32
202.347	46.93
202.566	22.36
202.785	28.5
203.004	16.21
203.223	-16.55
203.442	-10.41
203.661	-8.36
203.879	18.26
204.098	34.64
204.317	-63.66
204.536	59.22
204.755	-6.31
204.974	22.36
205.193	-10.41
205.411	18.26
205.63	-4.27
205.849	28.5
206.068	8.02
206.287	36.69
206.505	-41.13
206.724	-2.22
206.943	20.31
207.162	79.7
207.381	40.79
207.599	-18.6
207.818	36.69
208.037	46.93
208.255	-8.36
208.474	73.56
208.693	1.88
208.911	69.46
209.13	30.55
209.349	34.64
209.567	5.97
209.786	-6.31
210.005	8.02
210.223	48.98
210.442	-71.85
210.661	55.12
210.879	-6.31
211.098	-10.41
211.316	46.93
211.535	-10.41
211.753	5.97
211.972	51.03
212.191	40.79
212.409	-24.75
212.628	28.5
212.846	26.45
213.065	53.08
213.283	26.45
213.502	22.36
213.72	51.03
213.938	14.17
214.157	-18.6
214.375	89.94
214.594	-4.27
214.812	38.74
215.031	-28.84
215.249	-28.84
215.467	-30.89
215.686	83.8
215.904	61.27
216.122	57.17
216.341	8.02
216.559	10.07
216.778	-26.79
216.996	40.79
217.214	73.56
217.432	28.5
217.651	-28.84
217.869	63.32
218.087	42.84
218.306	40.79
218.524	-30.89
218.742	-16.55
218.96	57.17
219.179	26.45
219.397	-12.46
219.615	61.27
219.833	-16.55
220.051	-26.79
220.27	34.64
220.488	-30.89
220.706	61.27
220.924	53.08
221.142	30.55
221.36	48.98
221.578	34.64
221.796	32.6
222.015	-26.79
222.233	-6.31
222.451	42.84
222.669	18.26
222.887	36.69
223.105	-41.13
223.323	36.69
223.541	22.36
223.759	-26.79
223.977	-10.41
224.195	46.93
224.413	38.74
224.631	26.45
224.849	20.31
225.067	51.03
225.285	20.31
225.503	-53.42
225.721	-34.99
225.939	18.26
226.157	22.36
226.375	73.56
226.592	5.97
226.81	-73.9
227.028	18.26
227.246	36.69
227.464	14.17
227.682	-26.79
227.9	139.09
228.117	46.93
228.335	3.93
228.553	3.93
228.771	48.98
228.989	71.51
229.206	48.98
229.424	14.17
229.642	-6.31
229.86	32.6
230.077	1.88
230.295	94.04
230.513	1.88
230.731	40.79
230.948	-6.31
231.166	48.98
231.384	1.88
231.601	59.22
231.819	18.26
232.037	63.32
232.254	75.6
232.472	55.12
232.689	-28.84
232.907	5.97
233.125	-24.75
233.342	120.66
233.56	-24.75
233.777	28.5
233.995	28.5
234.213	89.94
234.43	28.5
234.648	-18.6
234.865	-12.46
235.083	24.4
235.3	67.41
235.518	128.85
235.735	55.12
235.953	3.93
236.17	34.64
236.388	73.56
236.605	8.02
236.822	28.5
237.04	73.56
237.257	-30.89
237.475	32.6
237.692	1.88
237.909	42.84
238.127	-16.55
238.344	28.5
238.562	57.17
238.779	18.26
238.996	8.02
239.214	34.64
239.431	59.22
239.648	57.17
239.865	55.12
240.083	48.98
240.3	-53.42
240.517	38.74
240.735	34.64
240.952	34.64
241.169	20.31
241.386	-14.51
241.603	34.64
241.821	102.23
242.038	36.69
242.255	77.65
242.472	61.27
242.689	48.98
242.907	83.8
243.124	44.88
243.341	28.5
243.558	-18.6
243.775	22.36
243.992	42.84
244.209	63.32
244.426	91.99
244.643	28.5
244.86	24.4
245.078	3.93
245.295	-2.22
245.512	67.41
245.729	-10.41
245.946	46.93
246.163	22.36
246.38	28.5
246.597	-0.17
246.814	36.69
247.031	30.55
247.248	77.65
247.464	22.36
247.681	34.64
247.898	40.79
248.115	65.36
248.332	14.17
248.549	57.17
248.766	-10.41
248.983	14.17
249.2	-63.66
249.417	55.12
249.633	85.84
249.85	81.75
250.067	1.88
250.284	30.55
250.501	34.64
250.717	89.94
250.934	-24.75
251.151	14.17
251.368	55.12
251.585	79.7
251.801	51.03
252.018	-6.31
252.235	32.6
252.451	30.55
252.668	-32.94
252.885	12.12
253.102	87.89
253.318	51.03
253.535	-6.31
253.752	-20.65
253.968	44.88
254.185	20.31
254.401	63.32
254.618	18.26
254.835	59.22
255.051	79.7
255.268	44.88
255.484	10.07
255.701	20.31
255.917	28.5
256.134	77.65
256.351	26.45
256.567	14.17
256.784	30.55
257	-0.17
257.217	55.12
257.433	16.21
257.65	14.17
257.866	38.74
258.082	-16.55
258.299	16.21
258.515	55.12
258.732	12.12
258.948	-8.36
259.165	8.02
259.381	34.64
259.597	83.8
259.814	12.12
260.03	26.45
260.246	14.17
260.463	34.64
260.679	3.93
260.895	46.93
261.112	28.5
261.328	1.88
261.544	5.97
261.761	67.41
261.977	24.4
262.193	10.07
262.409	26.45
262.626	40.79
262.842	65.36
263.058	44.88
263.274	30.55
263.49	83.8
263.707	44.88
263.923	36.69
264.139	40.79
264.355	38.74
264.571	-14.51
264.787	5.97
265.004	91.99
265.22	-14.51
265.436	63.32
265.652	-6.31
265.868	51.03
266.084	67.41
266.3	34.64
266.516	-30.89
266.732	-8.36
266.948	53.08
267.164	34.64
267.38	22.36
267.596	-18.6
267.812	-8.36
268.028	-26.79
268.244	28.5
268.46	81.75
268.676	3.93
268.892	32.6
269.108	-20.65
269.324	-6.31
269.54	-14.51
269.756	-20.65
269.972	26.45
270.188	28.5
270.403	-8.36
270.619	-10.41
270.835	30.55
271.051	36.69
271.267	28.5
271.483	-12.46
271.698	46.93
271.914	32.6
272.13	-16.55
272.346	40.79
272.562	-6.31
272.777	122.71
272.993	38.74
273.209	-26.79
273.425	-2.22
273.64	-71.85
273.856	36.69
274.072	-12.46
274.287	57.17
274.503	44.88
274.719	59.22
274.934	22.36
275.15	48.98
275.366	-6.31
275.581	91.99
275.797	38.74
276.012	98.13
276.228	61.27
276.444	46.93
276.659	28.5
276.875	-10.41
277.09	46.93
277.306	-6.31
277.521	65.36
277.737	22.36
277.952	14.17
278.168	104.28
278.383	112.47
278.599	-34.99
278.814	65.36
279.03	48.98
279.245	63.32
279.461	57.17
279.676	53.08
279.892	10.07
280.107	67.41
280.322	85.84
280.538	24.4
280.753	79.7
280.969	42.84
281.184	8.02
281.399	120.66
281.615	-34.99
281.83	36.69
282.045	65.36
282.26	106.32
282.476	26.45
282.691	85.84
282.906	51.03
283.122	63.32
283.337	-2.22
283.552	44.88
283.767	61.27
283.983	1.88
284.198	77.65
284.413	67.41
284.628	-4.27
284.843	16.21
285.058	-26.79
285.274	-10.41
285.489	51.03
285.704	32.6
285.919	3.93
286.134	10.07
286.349	51.03
286.564	-0.17
286.779	40.79
286.995	-6.31
287.21	-26.79
287.425	-32.94
287.64	10.07
287.855	24.4
288.07	40.79
288.285	51.03
288.5	63.32
288.715	77.65
288.93	18.26
289.145	12.12
289.36	5.97
289.575	69.46
289.79	55.12
290.004	8.02
290.219	36.69
290.434	46.93
290.649	-8.36
290.864	10.07
291.079	-28.84
291.294	126.8
291.509	26.45
291.724	55.12
291.938	24.4
292.153	42.84
292.368	73.56
292.583	42.84
292.798	5.97
293.012	8.02
293.227	-0.17
293.442	-61.61
293.657	44.88
293.871	65.36
294.086	-20.65
294.301	61.27
294.516	20.31
294.73	61.27
294.945	3.93
295.16	71.51
295.374	32.6
295.589	94.04
295.804	-8.36
296.018	73.56
296.233	51.03
296.447	51.03
296.662	-0.17
296.877	73.56
297.091	55.12
297.306	75.6
297.52	26.45
297.735	1.88
297.949	28.5
298.164	53.08
298.378	-12.46
298.593	-8.36
298.807	73.56
299.022	59.22
299.236	48.98
299.451	18.26
299.665	12.12
299.88	-16.55
300.094	18.26
300.309	40.79
300.523	22.36
300.737	30.55
300.952	12.12
301.166	16.21
301.381	30.55
301.595	24.4
301.809	155.47
302.024	55.12
302.238	71.51
302.452	65.36
302.667	34.64
302.881	102.23
303.095	63.32
303.309	20.31
303.524	55.12
303.738	14.17
303.952	87.89
304.166	57.17
304.381	-22.7
304.595	63.32
304.809	20.31
305.023	91.99
305.237	69.46
305.452	30.55
305.666	87.89
305.88	106.32
306.094	-94.38
306.308	20.31
306.522	75.6
306.736	71.51
306.95	-0.17
307.164	51.03
307.379	18.26
307.593	34.64
307.807	-14.51
308.021	3.93
308.235	12.12
308.449	77.65
308.663	8.02
308.877	-16.55
309.091	48.98
309.305	77.65
309.519	22.36
309.733	26.45
309.947	26.45
310.161	46.93
310.374	51.03
310.588	57.17
310.802	-32.94
311.016	24.4
311.23	1.88
311.444	48.98
311.658	75.6
311.872	91.99
312.085	77.65
312.299	71.51
312.513	40.79
312.727	48.98
312.941	67.41
313.154	94.04
313.368	94.04
313.582	5.97
313.796	51.03
314.009	32.6
314.223	67.41
314.437	87.89
314.651	91.99
314.864	22.36
315.078	22.36
315.292	-14.51
315.505	69.46
315.719	51.03
315.933	194.39
316.146	77.65
316.36	-2.22
316.573	3.93
316.787	51.03
317.001	116.56
317.214	-0.17
317.428	28.5
317.641	12.12
317.855	126.8
318.068	-6.31
318.282	59.22
318.495	24.4
318.709	5.97
318.922	-0.17
319.136	51.03
319.349	8.02
319.563	132.95
319.776	59.22
319.99	57.17
320.203	46.93
320.417	22.36
320.63	44.88
320.843	-0.17
321.057	1.88
321.27	-34.99
321.483	32.6
321.697	96.08
321.91	20.31
322.124	44.88
322.337	44.88
322.55	75.6
322.763	44.88
322.977	5.97
323.19	67.41
323.403	85.84
323.617	22.36
323.83	24.4
324.043	59.22
324.256	53.08
324.469	-14.51
324.683	20.31
324.896	-6.31
325.109	24.4
325.322	-43.18
325.535	48.98
325.748	30.55
325.962	32.6
326.175	-6.31
326.388	38.74
326.601	48.98
326.814	34.64
327.027	53.08
327.24	1.88
327.453	-18.6
327.666	55.12
327.879	57.17
328.092	20.31
328.305	20.31
328.518	96.08
328.731	42.84
328.944	51.03
329.157	14.17
329.37	48.98
329.583	-49.32
329.796	38.74
330.009	48.98
330.222	46.93
330.435	57.17
330.648	69.46
330.861	71.51
331.073	38.74
331.286	-28.84
331.499	71.51
331.712	48.98
331.925	-8.36
332.138	77.65
332.35	26.45
332.563	24.4
332.776	-12.46
332.989	18.26
333.202	87.89
333.414	48.98
333.627	87.89
333.84	59.22
334.053	18.26
334.265	34.64
334.478	55.12
334.691	-22.7
334.903	48.98
335.116	46.93
335.329	55.12
335.541	-63.66
335.754	14.17
335.966	48.98
336.179	26.45
336.392	46.93
336.604	-12.46
336.817	106.32
337.029	132.95
337.242	32.6
337.454	38.74
337.667	-12.46
337.88	51.03
338.092	12.12
338.305	53.08
338.517	14.17
338.729	30.55
338.942	51.03
339.154	-0.17
339.367	-45.23
339.579	36.69
339.792	18.26
340.004	22.36
340.217	12.12
340.429	-8.36
340.641	96.08
340.854	85.84
341.066	137.04
341.278	83.8
341.491	48.98
341.703	38.74
341.915	63.32
342.128	51.03
342.34	57.17
342.552	98.13
342.764	71.51
342.977	46.93
343.189	16.21
343.401	94.04
343.613	61.27
343.826	26.45
344.038	83.8
344.25	-22.7
344.462	34.64
344.674	42.84
344.886	-16.55
345.099	12.12
345.311	73.56
345.523	30.55
345.735	42.84
345.947	77.65
346.159	28.5
346.371	22.36
346.583	77.65
346.795	22.36
347.007	44.88
347.219	48.98
347.431	5.97
347.643	55.12
347.855	34.64
348.067	69.46
348.279	44.88
348.491	-20.65
348.703	-6.31
348.915	28.5
349.127	51.03
349.339	91.99
349.551	24.4
349.763	53.08
349.975	67.41
350.187	48.98
350.399	48.98
350.61	69.46
350.822	40.79
351.034	94.04
351.246	28.5
351.458	-24.75
351.669	26.45
351.881	67.41
352.093	26.45
352.305	36.69
352.517	67.41
352.728	69.46
352.94	61.27
353.152	22.36
353.363	10.07
353.575	87.89
353.787	46.93
353.999	57.17
354.21	-16.55
354.422	-0.17
354.633	46.93
354.845	51.03
355.057	-8.36
355.268	34.64
355.48	18.26
355.692	46.93
355.903	-49.32
356.115	38.74
356.326	22.36
356.538	18.26
356.749	-30.89
356.961	104.28
357.172	20.31
357.384	28.5
357.595	85.84
357.807	5.97
358.018	79.7
358.23	38.74
358.441	18.26
358.653	63.32
358.864	59.22
359.075	34.64
359.287	48.98
359.498	26.45
359.709	-28.84
359.921	77.65
360.132	-26.79
360.344	40.79
360.555	1.88
360.766	65.36
360.977	53.08
361.189	69.46
361.4	61.27
361.611	124.76
361.823	67.41
362.034	40.79
362.245	81.75
362.456	-0.17
362.667	8.02
362.879	69.46
363.09	81.75
363.301	42.84
363.512	57.17
363.723	53.08
363.935	98.13
364.146	22.36
364.357	44.88
364.568	71.51
364.779	63.32
364.99	57.17
365.201	22.36
365.412	44.88
365.623	75.6
365.834	69.46
366.045	69.46
366.256	18.26
366.467	8.02
366.678	104.28
366.889	36.69
367.1	65.36
367.311	51.03
367.522	42.84
367.733	28.5
367.944	79.7
368.155	38.74
368.366	18.26
368.577	69.46
368.788	-12.46
368.999	40.79
369.209	1.88
369.42	91.99
369.631	69.46
369.842	46.93
370.053	1.88
370.264	3.93
370.474	71.51
370.685	-16.55
370.896	26.45
371.107	65.36
371.317	100.18
371.528	16.21
371.739	22.36
371.95	75.6
372.16	106.32
372.371	32.6
372.582	30.55
372.792	59.22
373.003	55.12
373.214	36.69
373.424	61.27
373.635	32.6
373.846	12.12
374.056	46.93
374.267	100.18
374.477	26.45
374.688	48.98
374.898	16.21
375.109	120.66
375.319	32.6
375.53	77.65
375.74	48.98
375.951	77.65
376.161	28.5
376.372	14.17
376.582	67.41
376.793	53.08
377.003	98.13
377.214	46.93
377.424	65.36
377.635	38.74
377.845	-12.46
378.055	3.93
378.266	100.18
378.476	98.13
378.686	32.6
378.897	30.55
379.107	16.21
379.317	130.9
379.528	69.46
379.738	91.99
379.948	32.6
380.158	61.27
380.369	96.08
380.579	118.61
380.789	57.17
380.999	28.5
381.21	36.69
381.42	48.98
381.63	3.93
381.84	108.37
382.05	-30.89
382.261	46.93
382.471	71.51
382.681	110.42
382.891	94.04
383.101	5.97
383.311	46.93
383.521	53.08
383.731	18.26
383.941	124.76
384.151	-55.47
384.361	32.6
384.571	108.37
384.781	81.75
384.991	24.4
385.201	98.13
385.411	130.9
385.621	73.56
385.831	108.37
386.041	24.4
386.251	30.55
386.461	55.12
386.671	-4.27
386.881	79.7
387.091	42.84
387.301	28.5
387.511	96.08
387.72	102.23
387.93	22.36
388.14	44.88
388.35	12.12
388.56	96.08
388.769	100.18
388.979	94.04
389.189	-10.41
389.399	91.99
389.609	75.6
389.818	71.51
390.028	14.17
390.238	10.07
390.447	81.75
390.657	104.28
390.867	57.17
391.076	44.88
391.286	65.36
391.496	34.64
391.705	85.84
391.915	116.56
392.125	59.22
392.334	67.41
392.544	89.94
392.753	67.41
392.963	132.95
393.172	91.99
393.382	106.32
393.591	40.79
393.801	126.8
394.01	71.51
394.22	40.79
394.429	139.09
394.639	81.75
394.848	38.74
395.058	14.17
395.267	75.6
395.477	61.27
395.686	57.17
395.895	75.6
396.105	130.9
396.314	42.84
396.524	98.13
396.733	51.03
396.942	91.99
397.152	85.84
397.361	110.42
397.57	51.03
397.78	104.28
397.989	118.61
398.198	132.95
398.407	77.65
398.617	42.84
398.826	96.08
399.035	126.8
399.244	98.13
399.453	135
399.663	130.9
399.872	63.32
400.081	102.23
400.29	147.28
400.499	69.46
400.708	186.19
400.917	106.32
401.127	55.12
401.336	91.99
401.545	135
401.754	87.89
401.963	157.52
402.172	81.75
402.381	96.08
402.59	120.66
402.799	135
403.008	155.47
403.217	139.09
403.426	124.76
403.635	163.67
403.844	151.38
404.053	118.61
404.262	91.99
404.471	178
404.68	135
404.888	157.52
405.097	157.52
405.306	171.86
405.515	182.1
405.724	202.58
405.933	178
406.142	139.09
406.35	182.1
406.559	173.91
406.768	198.48
406.977	188.24
407.185	124.76
407.394	192.34
407.603	188.24
407.812	132.95
408.02	208.72
408.229	261.97
408.438	288.59
408.646	268.11
408.855	194.39
409.064	264.02
409.272	261.97
409.481	323.41
409.69	235.35
409.898	339.79
410.107	317.26
410.315	333.65
410.524	304.98
410.733	386.9
410.941	345.94
411.15	356.18
411.358	405.33
411.567	423.76
411.775	440.14
411.984	429.9
412.192	477.01
412.401	425.81
412.609	444.24
412.818	534.35
413.026	524.11
413.234	638.8
413.443	470.86
413.651	573.26
413.86	603.98
414.068	655.18
414.276	593.74
414.485	608.08
414.693	649.04
414.901	708.43
415.11	702.28
415.318	741.19
415.526	700.23
415.734	788.3
415.943	884.55
416.151	853.83
416.359	806.73
416.567	976.71
416.776	984.9
416.984	952.13
417.192	1081.16
417.4	1081.16
417.608	1007.43
417.817	1070.92
418.025	1089.35
418.233	1244.99
418.441	1167.17
418.649	1208.13
418.857	1261.38
419.065	1324.87
419.273	1398.59
419.481	1437.5
419.689	1453.89
419.897	1644.35
420.105	1605.44
420.313	1668.92
420.521	1783.61
420.729	1742.65
420.937	1886.01
421.145	1806.14
421.353	1924.92
421.561	1955.64
421.769	2135.86
421.977	2133.81
422.185	2158.39
422.393	2240.31
422.601	2303.79
422.809	2383.66
423.017	2451.25
423.224	2443.06
423.432	2600.75
423.64	2613.04
423.848	2725.68
424.056	2869.03
424.263	3075.88
424.471	2938.66
424.679	3088.17
424.887	3192.61
425.094	3311.39
425.302	3383.07
425.51	3491.62
425.718	3581.73
425.925	3608.35
426.133	3794.72
426.341	3962.65
426.548	4106.01
426.756	4073.24
426.964	4136.73
427.171	4380.43
427.379	4601.62
427.586	4675.34
427.794	4679.44
428.001	4912.91
428.209	5189.38
428.417	5060.36
428.624	5332.74
428.832	5562.11
429.039	5472
429.247	5576.45
429.454	5994.23
429.662	6285.05
429.869	5844.73
430.076	6366.96
430.284	6129.4
430.491	6487.79
430.699	6751.98
430.906	6821.61
431.114	6815.47
431.321	7214.82
431.528	7290.6
431.736	7718.62
431.943	8187.61
432.15	7829.21
432.358	8140.51
432.565	8314.58
432.772	8224.47
432.979	8853.2
433.187	8939.21
433.394	9033.42
433.601	9686.72
433.808	9842.37
434.016	9576.13
434.223	10026.68
434.43	10522.29
434.637	10415.8
434.844	11212.46
435.052	11501.22
435.259	11181.74
435.466	11445.93
435.673	11388.58
435.88	11808.42
436.087	12492.44
436.294	12592.79
436.501	12177.05
436.708	12672.66
436.915	12949.14
437.122	13565.57
437.329	13217.42
437.537	13641.35
437.743	14247.55
437.95	13932.16
438.157	14628.47
438.364	15107.69
438.571	15244.91
438.778	15396.46
438.985	16737.88
439.192	15879.78
439.399	16629.34
439.606	16053.86
439.813	17364.56
440.02	17968.71
440.227	17880.64
440.433	17700.42
440.64	18384.44
440.847	18085.44
441.054	18540.09
441.261	19672.62
441.467	19514.92
441.674	19973.67
441.881	20921.88
442.088	20633.11
442.294	20477.47
442.501	21059.09
442.708	21798.41
442.914	22490.62
443.121	23168.5
443.328	22488.57
443.534	24131.05
443.741	23500.27
443.948	23332.34
444.154	25138.65
444.361	24810.97
444.568	24966.62
444.774	24729.05
444.981	24942.04
445.187	26105.29
445.394	26811.84
445.6	26795.45
445.807	29390.23
446.013	28069.29
446.22	28745.12
446.426	29709.71
446.633	29916.56
446.839	30985.6
447.046	29396.37
447.252	31112.57
447.459	31118.71
447.665	31014.27
447.871	32253.29
448.078	34141.52
448.284	32144.75
448.491	33060.19
448.697	34037.07
448.903	34831.68
449.11	35009.86
449.316	34553.16
449.522	34884.93
449.728	35925.3
449.935	36498.73
450.141	36232.49
450.347	36887.84
450.553	36207.92
450.76	36801.83
450.966	37481.75
451.172	37236
451.378	38016.27
451.584	37039.39
451.791	38184.21
451.997	38434.06
452.203	38550.79
452.409	38526.22
452.615	37725.46
452.821	36908.32
453.027	36300.08
453.233	38497.55
453.44	36431.15
453.646	37221.66
453.852	37256.48
454.058	37688.6
454.264	36574.5
454.47	37072.16
454.676	36545.83
454.882	37836.05
455.088	34327.88
455.294	35061.05
455.5	35378.49
455.705	35876.15
455.911	34510.15
456.117	33670.48
456.323	32884.06
456.529	31223.16
456.735	32656.74
456.941	31786.35
457.147	31260.02
457.352	30092.68
457.558	30047.63
457.764	30506.37
457.97	29642.13
458.176	28501.41
458.381	28964.25
458.587	27540.91
458.793	27747.76
458.999	26021.32
459.204	27833.77
459.41	26936.76
459.616	25286.1
459.821	25075.16
460.027	25515.47
460.233	24618.46
460.438	23586.29
460.644	24057.32
460.85	22978.04
461.055	22175.23
461.261	22236.67
461.466	20715.03
461.672	20002.34
461.878	21511.69
462.083	20127.27
462.289	19697.19
462.494	19566.12
462.7	18679.35
462.905	18134.59
463.111	18816.57
463.316	18751.03
463.522	18617.91
463.727	18462.27
463.932	18468.41
464.138	18349.63
464.343	18435.64
464.549	17841.73
464.754	18529.85
464.959	18116.16
465.165	18226.75
465.37	17604.17
465.575	17106.51
465.781	17507.91
465.986	17616.46
466.191	17104.46
466.397	16541.27
466.602	16002.66
466.807	16868.95
467.012	16784.98
467.218	16438.87
467.423	16402.01
467.628	16399.96
467.833	17151.57
