Data from USB4F104151__150__13-58-24-595.txt Node

Date: Thu Mar 13 13:58:24 EDT 2025
User: louis
Spectrometer: USB4F10415
Trigger mode: 4
Integration Time (sec): 1.000000E-2
Scans to average: 1
Electric dark correction enabled: true
Nonlinearity correction enabled: false
Boxcar width: 0
XAxis mode: Wavelengths
Number of Pixels in Spectrum: 3648
>>>>>Begin Spectral Data<<<<<
178.204	-37.72
178.424	-37.72
178.644	-37.72
178.864	-50
179.084	-58.2
179.304	-41.81
179.524	-41.81
179.744	48.3
179.964	21.67
180.184	1.19
180.404	9.39
180.624	-39.76
180.844	-9.05
181.064	-29.52
181.283	19.63
181.503	85.16
181.723	-23.38
181.943	-37.72
182.163	-58.2
182.383	-58.2
182.602	29.87
182.822	1.19
183.042	40.11
183.262	-39.76
183.482	-13.14
183.701	-74.58
183.921	19.63
184.141	-93.01
184.361	-15.19
184.58	5.29
184.8	-29.52
185.02	15.53
185.239	-21.33
185.459	-15.19
185.679	9.39
185.898	-33.62
186.118	-9.05
186.338	11.43
186.557	-23.38
186.777	-15.19
186.997	25.77
187.216	-27.48
187.436	38.06
187.655	-41.81
187.875	-58.2
188.095	38.06
188.314	-25.43
188.534	-54.1
188.753	9.39
188.973	3.24
189.192	21.67
189.412	7.34
189.631	-9.05
189.851	-27.48
190.07	-4.95
190.29	56.49
190.509	-0.85
190.729	-11.09
190.948	-23.38
191.168	27.82
191.387	-21.33
191.607	9.39
191.826	-41.81
192.045	-90.96
192.265	-23.38
192.484	-29.52
192.704	-23.38
192.923	-47.96
193.142	5.29
193.362	-35.67
193.581	-0.85
193.8	-13.14
194.02	-9.05
194.239	11.43
194.458	-23.38
194.678	-58.2
194.897	-9.05
195.116	15.53
195.335	-64.34
195.555	-31.57
195.774	9.39
195.993	11.43
196.212	-74.58
196.432	-27.48
196.651	-2.9
196.87	-58.2
197.089	-15.19
197.308	-62.29
197.528	-43.86
197.747	-13.14
197.966	60.59
198.185	56.49
198.404	21.67
198.623	1.19
198.842	52.39
199.062	-17.24
199.281	-9.05
199.5	-15.19
199.719	-17.24
199.938	-33.62
200.157	-0.85
200.376	-113.49
200.595	27.82
200.814	-0.85
201.033	-82.77
201.252	66.73
201.471	-33.62
201.69	25.77
201.909	-27.48
202.128	52.39
202.347	-33.62
202.566	5.29
202.785	-78.68
203.004	-29.52
203.223	21.67
203.442	56.49
203.661	1.19
203.879	66.73
204.098	-17.24
204.317	48.3
204.536	42.15
204.755	-11.09
204.974	1.19
205.193	-50
205.411	-13.14
205.63	31.91
205.849	-23.38
206.068	17.58
206.287	62.63
206.505	-17.24
206.724	-33.62
206.943	17.58
207.162	-19.29
207.381	1.19
207.599	13.48
207.818	-29.52
208.037	-0.85
208.255	25.77
208.474	-21.33
208.693	-17.24
208.911	-17.24
209.13	7.34
209.349	9.39
209.567	3.24
209.786	-17.24
210.005	-11.09
210.223	33.96
210.442	-64.34
210.661	-60.24
210.879	1.19
211.098	7.34
211.316	11.43
211.535	23.72
211.753	-52.05
211.972	-19.29
212.191	-47.96
212.409	-4.95
212.628	58.54
212.846	-15.19
213.065	-11.09
213.283	17.58
213.502	-13.14
213.72	-27.48
213.938	25.77
214.157	-7
214.375	-37.72
214.594	29.87
214.812	-33.62
215.031	-25.43
215.249	-0.85
215.467	50.35
215.686	-64.34
215.904	23.72
216.122	-39.76
216.341	-9.05
216.559	17.58
216.778	-15.19
216.996	38.06
217.214	-39.76
217.432	-80.72
217.651	-13.14
217.869	7.34
218.087	-11.09
218.306	-21.33
218.524	-35.67
218.742	-17.24
218.96	-29.52
219.179	33.96
219.397	-39.76
219.615	11.43
219.833	-76.63
220.051	-21.33
220.27	-37.72
220.488	-60.24
220.706	-33.62
220.924	17.58
221.142	62.63
221.36	-0.85
221.578	1.19
221.796	-35.67
222.015	5.29
222.233	40.11
222.451	11.43
222.669	3.24
222.887	-43.86
223.105	-39.76
223.323	-9.05
223.541	25.77
223.759	23.72
223.977	-41.81
224.195	-50
224.413	-11.09
224.631	-15.19
224.849	-58.2
225.067	31.91
225.285	-39.76
225.503	-97.11
225.721	87.21
225.939	-4.95
226.157	-25.43
226.375	54.44
226.592	-107.35
226.81	-52.05
227.028	29.87
227.246	11.43
227.464	-29.52
227.682	-0.85
227.9	-17.24
228.117	5.29
228.335	-31.57
228.553	-50
228.771	7.34
228.989	48.3
229.206	-27.48
229.424	-13.14
229.642	38.06
229.86	13.48
230.077	27.82
230.295	-25.43
230.513	-37.72
230.731	11.43
230.948	54.44
231.166	-45.91
231.384	-47.96
231.601	-45.91
231.819	-15.19
232.037	-25.43
232.254	23.72
232.472	11.43
232.689	95.4
232.907	5.29
233.125	-43.86
233.342	-0.85
233.56	-17.24
233.777	7.34
233.995	-9.05
234.213	83.11
234.43	-39.76
234.648	66.73
234.865	-43.86
235.083	-0.85
235.3	1.19
235.518	25.77
235.735	7.34
235.953	-2.9
236.17	-11.09
236.388	9.39
236.605	-23.38
236.822	3.24
237.04	-17.24
237.257	15.53
237.475	-54.1
237.692	62.63
237.909	1.19
238.127	99.5
238.344	-7
238.562	40.11
238.779	17.58
238.996	-88.92
239.214	19.63
239.431	58.54
239.648	-4.95
239.865	9.39
240.083	-66.39
240.3	-19.29
240.517	-52.05
240.735	-23.38
240.952	19.63
241.169	-25.43
241.386	7.34
241.603	11.43
241.821	7.34
242.038	-9.05
242.255	-41.81
242.472	-15.19
242.689	-29.52
242.907	42.15
243.124	-2.9
243.341	-29.52
243.558	-17.24
243.775	-35.67
243.992	-31.57
244.209	64.68
244.426	-9.05
244.643	19.63
244.86	1.19
245.078	50.35
245.295	60.59
245.512	-52.05
245.729	3.24
245.946	-4.95
246.163	5.29
246.38	-25.43
246.597	23.72
246.814	15.53
247.031	5.29
247.248	33.96
247.464	40.11
247.681	-33.62
247.898	21.67
248.115	29.87
248.332	-9.05
248.549	107.69
248.766	-31.57
248.983	-52.05
249.2	-15.19
249.417	25.77
249.633	-70.48
249.85	-9.05
250.067	-37.72
250.284	72.87
250.501	46.25
250.717	-47.96
250.934	-31.57
251.151	33.96
251.368	56.49
251.585	-29.52
251.801	11.43
252.018	-23.38
252.235	-15.19
252.451	17.58
252.668	68.78
252.885	25.77
253.102	-52.05
253.318	44.2
253.535	-25.43
253.752	-25.43
253.968	-29.52
254.185	5.29
254.401	38.06
254.618	-41.81
254.835	-72.53
255.051	-2.9
255.268	-29.52
255.484	-2.9
255.701	-31.57
255.917	15.53
256.134	-25.43
256.351	-15.19
256.567	19.63
256.784	-64.34
257	15.53
257.217	-0.85
257.433	-31.57
257.65	44.2
257.866	-15.19
258.082	19.63
258.299	-37.72
258.515	15.53
258.732	23.72
258.948	42.15
259.165	-0.85
259.381	1.19
259.597	-43.86
259.814	33.96
260.03	-0.85
260.246	17.58
260.463	-11.09
260.679	31.91
260.895	27.82
261.112	-29.52
261.328	-35.67
261.544	7.34
261.761	31.91
261.977	-15.19
262.193	-4.95
262.409	-84.82
262.626	23.72
262.842	33.96
263.058	21.67
263.274	9.39
263.49	17.58
263.707	-2.9
263.923	-37.72
264.139	7.34
264.355	-31.57
264.571	-25.43
264.787	-7
265.004	15.53
265.22	-7
265.436	-103.25
265.652	-0.85
265.868	-13.14
266.084	-33.62
266.3	13.48
266.516	17.58
266.732	1.19
266.948	13.48
267.164	-33.62
267.38	-15.19
267.596	-56.15
267.812	72.87
268.028	15.53
268.244	-11.09
268.46	5.29
268.676	-64.34
268.892	-2.9
269.108	-39.76
269.324	-33.62
269.54	-13.14
269.756	25.77
269.972	-7
270.188	17.58
270.403	48.3
270.619	-31.57
270.835	5.29
271.051	3.24
271.267	13.48
271.483	-0.85
271.698	7.34
271.914	3.24
272.13	15.53
272.346	-70.48
272.562	-23.38
272.777	-27.48
272.993	-13.14
273.209	-23.38
273.425	-13.14
273.64	33.96
273.856	-4.95
274.072	15.53
274.287	-37.72
274.503	-41.81
274.719	-25.43
274.934	-0.85
275.15	-64.34
275.366	11.43
275.581	-84.82
275.797	-50
276.012	-31.57
276.228	11.43
276.444	-29.52
276.659	23.72
276.875	-13.14
277.09	-7
277.306	-7
277.521	29.87
277.737	76.97
277.952	-21.33
278.168	-15.19
278.383	-9.05
278.599	-15.19
278.814	19.63
279.03	5.29
279.245	72.87
279.461	-7
279.676	23.72
279.892	50.35
280.107	-17.24
280.322	19.63
280.538	17.58
280.753	-21.33
280.969	-37.72
281.184	-4.95
281.399	-9.05
281.615	115.88
281.83	-39.76
282.045	-45.91
282.26	3.24
282.476	21.67
282.691	5.29
282.906	21.67
283.122	-2.9
283.337	-23.38
283.552	-27.48
283.767	-25.43
283.983	-19.29
284.198	-25.43
284.413	46.25
284.628	33.96
284.843	-25.43
285.058	-66.39
285.274	-21.33
285.489	23.72
285.704	-0.85
285.919	-35.67
286.134	13.48
286.349	13.48
286.564	-25.43
286.779	-2.9
286.995	81.07
287.21	9.39
287.425	11.43
287.64	-13.14
287.855	9.39
288.07	-56.15
288.285	-15.19
288.5	29.87
288.715	7.34
288.93	48.3
289.145	87.21
289.36	29.87
289.575	-17.24
289.79	46.25
290.004	-21.33
290.219	-19.29
290.434	-23.38
290.649	-88.92
290.864	13.48
291.079	60.59
291.294	-80.72
291.509	3.24
291.724	9.39
291.938	-35.67
292.153	-4.95
292.368	113.83
292.583	21.67
292.798	27.82
293.012	38.06
293.227	72.87
293.442	11.43
293.657	44.2
293.871	11.43
294.086	-11.09
294.301	-39.76
294.516	-72.53
294.73	-56.15
294.945	62.63
295.16	-47.96
295.374	56.49
295.589	52.39
295.804	25.77
296.018	-74.58
296.233	-13.14
296.447	9.39
296.662	-9.05
296.877	-9.05
297.091	-54.1
297.306	48.3
297.52	-9.05
297.735	-37.72
297.949	-23.38
298.164	-25.43
298.378	13.48
298.593	50.35
298.807	64.68
299.022	-15.19
299.236	-29.52
299.451	15.53
299.665	-25.43
299.88	44.2
300.094	27.82
300.309	27.82
300.523	-64.34
300.737	-13.14
300.952	58.54
301.166	-21.33
301.381	-52.05
301.595	-17.24
301.809	-9.05
302.024	-9.05
302.238	5.29
302.452	15.53
302.667	-25.43
302.881	68.78
303.095	-23.38
303.309	15.53
303.524	31.91
303.738	-37.72
303.952	-47.96
304.166	-70.48
304.381	-39.76
304.595	1.19
304.809	-4.95
305.023	25.77
305.237	72.87
305.452	-47.96
305.666	3.24
305.88	64.68
306.094	-58.2
306.308	72.87
306.522	19.63
306.736	5.29
306.95	-31.57
307.164	9.39
307.379	15.53
307.593	23.72
307.807	1.19
308.021	-27.48
308.235	-11.09
308.449	3.24
308.663	-13.14
308.877	1.19
309.091	95.4
309.305	-17.24
309.519	-35.67
309.733	23.72
309.947	-43.86
310.161	-17.24
310.374	9.39
310.588	1.19
310.802	-52.05
311.016	40.11
311.23	11.43
311.444	-19.29
311.658	-64.34
311.872	1.19
312.085	-9.05
312.299	76.97
312.513	25.77
312.727	-52.05
312.941	-27.48
313.154	62.63
313.368	38.06
313.582	-4.95
313.796	13.48
314.009	17.58
314.223	23.72
314.437	-11.09
314.651	-43.86
314.864	-13.14
315.078	-13.14
315.292	-0.85
315.505	54.44
315.719	-82.77
315.933	36.01
316.146	-17.24
316.36	17.58
316.573	9.39
316.787	27.82
317.001	-31.57
317.214	-17.24
317.428	-19.29
317.641	-15.19
317.855	-4.95
318.068	13.48
318.282	-15.19
318.495	27.82
318.709	-9.05
318.922	64.68
319.136	-43.86
319.349	23.72
319.563	7.34
319.776	-2.9
319.99	-0.85
320.203	-47.96
320.417	-2.9
320.63	33.96
320.843	3.24
321.057	-9.05
321.27	56.49
321.483	-21.33
321.697	21.67
321.91	-35.67
322.124	9.39
322.337	13.48
322.55	-33.62
322.763	-9.05
322.977	-37.72
323.19	-13.14
323.403	-9.05
323.617	-27.48
323.83	68.78
324.043	56.49
324.256	15.53
324.469	1.19
324.683	13.48
324.896	23.72
325.109	-33.62
325.322	21.67
325.535	31.91
325.748	29.87
325.962	48.3
326.175	66.73
326.388	-11.09
326.601	89.26
326.814	27.82
327.027	-0.85
327.24	17.58
327.453	-9.05
327.666	-19.29
327.879	11.43
328.092	-7
328.305	46.25
328.518	-25.43
328.731	42.15
328.944	15.53
329.157	27.82
329.37	-33.62
329.583	36.01
329.796	-52.05
330.009	-43.86
330.222	42.15
330.435	70.83
330.648	83.11
330.861	21.67
331.073	52.39
331.286	-7
331.499	40.11
331.712	3.24
331.925	-31.57
332.138	-0.85
332.35	23.72
332.563	-13.14
332.776	66.73
332.989	1.19
333.202	25.77
333.414	27.82
333.627	42.15
333.84	-80.72
334.053	15.53
334.265	-13.14
334.478	21.67
334.691	-37.72
334.903	-0.85
335.116	58.54
335.329	5.29
335.541	1.19
335.754	66.73
335.966	52.39
336.179	-58.2
336.392	-13.14
336.604	-21.33
336.817	-9.05
337.029	-13.14
337.242	23.72
337.454	-62.29
337.667	5.29
337.88	-13.14
338.092	33.96
338.305	13.48
338.517	-9.05
338.729	-0.85
338.942	-13.14
339.154	-31.57
339.367	25.77
339.579	-64.34
339.792	23.72
340.004	9.39
340.217	17.58
340.429	3.24
340.641	13.48
340.854	17.58
341.066	-17.24
341.278	36.01
341.491	3.24
341.703	-0.85
341.915	17.58
342.128	31.91
342.34	-33.62
342.552	-54.1
342.764	-45.91
342.977	-7
343.189	-29.52
343.401	15.53
343.613	-4.95
343.826	40.11
344.038	-31.57
344.25	11.43
344.462	1.19
344.674	23.72
344.886	-41.81
345.099	25.77
345.311	-47.96
345.523	23.72
345.735	-52.05
345.947	29.87
346.159	-27.48
346.371	3.24
346.583	-13.14
346.795	76.97
347.007	-4.95
347.219	-23.38
347.431	-47.96
347.643	40.11
347.855	-17.24
348.067	21.67
348.279	-4.95
348.491	29.87
348.703	1.19
348.915	-64.34
349.127	46.25
349.339	81.07
349.551	46.25
349.763	-33.62
349.975	-0.85
350.187	-29.52
350.399	11.43
350.61	-43.86
350.822	9.39
351.034	-35.67
351.246	-21.33
351.458	33.96
351.669	-58.2
351.881	126.12
352.093	-64.34
352.305	64.68
352.517	-0.85
352.728	17.58
352.94	21.67
353.152	70.83
353.363	-56.15
353.575	31.91
353.787	33.96
353.999	64.68
354.21	25.77
354.422	60.59
354.633	-17.24
354.845	-50
355.057	52.39
355.268	42.15
355.48	5.29
355.692	-11.09
355.903	9.39
356.115	-50
356.326	-15.19
356.538	29.87
356.749	13.48
356.961	40.11
357.172	-19.29
357.384	25.77
357.595	15.53
357.807	-11.09
358.018	-11.09
358.23	13.48
358.441	-25.43
358.653	50.35
358.864	21.67
359.075	25.77
359.287	-19.29
359.498	23.72
359.709	7.34
359.921	1.19
360.132	17.58
360.344	-4.95
360.555	64.68
360.766	11.43
360.977	-9.05
361.189	9.39
361.4	-9.05
361.611	-39.76
361.823	62.63
362.034	9.39
362.245	-47.96
362.456	-2.9
362.667	-0.85
362.879	-21.33
363.09	-21.33
363.301	48.3
363.512	48.3
363.723	-58.2
363.935	79.02
364.146	25.77
364.357	-17.24
364.568	54.44
364.779	-29.52
364.99	1.19
365.201	33.96
365.412	-45.91
365.623	44.2
365.834	38.06
366.045	-2.9
366.256	11.43
366.467	27.82
366.678	-21.33
366.889	-15.19
367.1	33.96
367.311	31.91
367.522	17.58
367.733	-2.9
367.944	54.44
368.155	-15.19
368.366	38.06
368.577	23.72
368.788	1.19
368.999	-68.44
369.209	7.34
369.42	21.67
369.631	-39.76
369.842	42.15
370.053	44.2
370.264	31.91
370.474	29.87
370.685	23.72
370.896	1.19
371.107	31.91
371.317	-25.43
371.528	-15.19
371.739	66.73
371.95	87.21
372.16	83.11
372.371	64.68
372.582	64.68
372.792	15.53
373.003	54.44
373.214	54.44
373.424	87.21
373.635	15.53
373.846	44.2
374.056	23.72
374.267	48.3
374.477	74.92
374.688	21.67
374.898	87.21
375.109	-11.09
375.319	15.53
375.53	15.53
375.74	89.26
375.951	29.87
376.161	3.24
376.372	3.24
376.582	-27.48
376.793	74.92
377.003	7.34
377.214	62.63
377.424	7.34
377.635	48.3
377.845	52.39
378.055	48.3
378.266	9.39
378.476	17.58
378.686	29.87
378.897	40.11
379.107	87.21
379.317	7.34
379.528	13.48
379.738	-60.24
379.948	-43.86
380.158	-0.85
380.369	-31.57
380.579	76.97
380.789	87.21
380.999	25.77
381.21	31.91
381.42	72.87
381.63	1.19
381.84	31.91
382.05	-13.14
382.261	-2.9
382.471	-9.05
382.681	-0.85
382.891	31.91
383.101	21.67
383.311	-33.62
383.521	64.68
383.731	27.82
383.941	-19.29
384.151	87.21
384.361	17.58
384.571	11.43
384.781	-15.19
384.991	46.25
385.201	52.39
385.411	31.91
385.621	81.07
385.831	15.53
386.041	17.58
386.251	83.11
386.461	60.59
386.671	19.63
386.881	-2.9
387.091	-0.85
387.301	44.2
387.511	42.15
387.72	9.39
387.93	17.58
388.14	58.54
388.35	33.96
388.56	3.24
388.769	29.87
388.979	-7
389.189	-25.43
389.399	42.15
389.609	-9.05
389.818	11.43
390.028	-2.9
390.238	9.39
390.447	-7
390.657	-21.33
390.867	54.44
391.076	23.72
391.286	42.15
391.496	66.73
391.705	93.35
391.915	85.16
392.125	54.44
392.334	29.87
392.544	46.25
392.753	21.67
392.963	-11.09
393.172	5.29
393.382	-0.85
393.591	97.45
393.801	-35.67
394.01	29.87
394.22	13.48
394.429	52.39
394.639	-13.14
394.848	25.77
395.058	50.35
395.267	44.2
395.477	52.39
395.686	3.24
395.895	68.78
396.105	76.97
396.314	7.34
396.524	115.88
396.733	23.72
396.942	48.3
397.152	52.39
397.361	-29.52
397.57	87.21
397.78	50.35
397.989	13.48
398.198	56.49
398.407	33.96
398.617	48.3
398.826	115.88
399.035	56.49
399.244	-9.05
399.453	83.11
399.663	27.82
399.872	42.15
400.081	87.21
400.29	144.55
400.499	68.78
400.708	74.92
400.917	76.97
401.127	-2.9
401.336	44.2
401.545	50.35
401.754	70.83
401.963	52.39
402.172	58.54
402.381	54.44
402.59	72.87
402.799	66.73
403.008	113.83
403.217	132.26
403.426	115.88
403.635	99.5
403.844	85.16
404.053	83.11
404.262	79.02
404.471	54.44
404.68	68.78
404.888	74.92
405.097	101.55
405.306	93.35
405.515	74.92
405.724	132.26
405.933	177.32
406.142	136.36
406.35	122.02
406.559	46.25
406.768	74.92
406.977	189.61
407.185	199.85
407.394	95.4
407.603	99.5
407.812	109.74
408.02	191.66
408.229	85.16
408.438	185.51
408.646	117.93
408.855	89.26
409.064	158.89
409.272	119.98
409.481	138.41
409.69	189.61
409.898	212.14
410.107	253.09
410.315	138.41
410.524	136.36
410.733	187.56
410.941	228.52
411.15	265.38
411.358	242.85
411.567	287.91
411.775	328.87
411.984	242.85
412.192	304.29
412.401	292.01
412.609	314.53
412.818	287.91
413.026	425.12
413.234	263.33
413.443	332.97
413.651	400.55
413.86	390.31
414.068	408.74
414.276	429.22
414.485	451.75
414.693	474.28
414.901	453.8
415.11	509.09
415.318	447.65
415.526	466.08
415.734	556.19
415.943	562.34
416.151	572.58
416.359	588.96
416.567	623.78
416.776	615.59
416.984	660.64
417.192	670.88
417.4	756.9
417.608	642.21
417.817	754.85
418.025	724.13
418.233	801.95
418.441	832.67
418.649	781.47
418.857	883.87
419.065	971.93
419.273	926.88
419.481	939.16
419.689	1057.95
419.897	1033.37
420.105	1014.94
420.313	1123.48
420.521	1180.82
420.729	1201.3
420.937	1236.12
421.145	1217.69
421.353	1318.04
421.561	1432.72
421.769	1326.23
421.977	1588.37
422.185	1502.36
422.393	1553.55
422.601	1633.43
422.809	1680.53
423.017	1627.28
423.224	1686.67
423.432	1723.54
423.64	1766.54
423.848	1977.48
424.056	1864.85
424.263	2014.35
424.471	2045.07
424.679	2165.9
424.887	2239.62
425.094	2329.74
425.302	2229.38
425.51	2307.21
425.718	2475.14
425.925	2425.99
426.133	2647.17
426.341	2743.42
426.548	2878.59
426.756	2849.92
426.964	2927.74
427.171	3044.48
427.379	3153.02
427.586	3097.72
427.794	3198.07
428.001	3425.4
428.209	3650.67
428.417	3583.09
428.624	3777.65
428.832	3714.16
429.039	3794.03
429.247	3728.5
429.454	4047.98
429.662	4398.18
429.869	4033.65
430.076	4359.27
430.284	4303.98
430.491	4457.57
430.699	4791.39
430.906	4705.38
431.114	4736.1
431.321	4850.78
431.528	5078.11
431.736	5446.74
431.943	5522.52
432.15	5428.31
432.358	5448.79
432.565	5661.78
432.772	5807.19
432.979	6138.96
433.187	6190.16
433.394	6298.7
433.601	6741.06
433.808	6759.49
434.016	6630.47
434.223	6749.25
434.43	7285.82
434.637	7152.7
434.844	7521.34
435.052	7468.09
435.259	7556.15
435.466	7648.31
435.673	7625.78
435.88	8199.21
436.087	8514.6
436.294	8420.39
436.501	8301.61
436.708	8481.83
436.915	8987.68
437.122	9030.69
437.329	9223.2
437.537	9475.1
437.743	9741.33
437.95	9647.13
438.157	10222.61
438.364	10269.71
438.571	10400.78
438.778	10175.5
438.985	11164.67
439.192	10798.09
439.399	11111.43
439.606	11021.31
439.813	11719.67
440.02	12346.35
440.227	12135.41
440.433	12127.22
440.64	12352.49
440.847	12284.91
441.054	12418.03
441.261	13530.08
441.467	13497.31
441.674	13528.03
441.881	14025.68
442.088	13894.61
442.294	13900.76
442.501	14443.47
442.708	14601.16
442.914	15014.85
443.121	15709.11
443.328	15131.59
443.534	16401.33
443.741	15897.53
443.948	15719.35
444.154	17085.35
444.361	16702.38
444.568	17023.91
444.774	16989.1
444.981	17034.15
445.187	17593.25
445.394	18338.71
445.6	17873.82
445.807	19983.23
446.013	18903.95
446.22	19311.49
446.426	19960.7
446.633	20216.69
446.839	20913
447.046	20159.35
447.252	21207.91
447.459	21128.04
447.665	21130.09
447.871	21865.31
448.078	22727.5
448.284	21859.17
448.491	22442.84
448.697	23161.67
448.903	23628.61
449.11	23900.99
449.316	23485.25
449.522	23958.33
449.728	24154.94
449.935	24537.91
450.141	24300.34
450.347	25051.95
450.553	24404.79
450.76	24660.79
450.966	25512.74
451.172	25291.56
451.378	25834.27
451.584	25150.25
451.791	25670.43
451.997	25799.46
452.203	25967.39
452.409	26305.31
452.615	25776.93
452.821	24898.35
453.027	24539.96
453.233	26053.41
453.44	24763.18
453.646	25232.17
453.852	25619.24
454.058	25860.9
454.264	25160.49
454.47	25436.97
454.676	24847.15
454.882	25770.79
455.088	23632.71
455.294	23583.55
455.5	24290.1
455.705	24144.7
455.911	23151.43
456.117	22854.48
456.323	22233.94
456.529	21496.67
456.735	22235.99
456.941	21760.86
457.147	21107.56
457.352	20587.38
457.558	20267.89
457.764	20454.26
457.97	19962.75
458.176	19338.12
458.381	19522.43
458.587	18576.27
458.793	18797.45
458.999	17642.4
459.204	18652.05
459.41	18461.58
459.616	17361.83
459.821	17099.69
460.027	17005.48
460.233	16837.55
460.438	16047.03
460.644	16038.84
460.85	15430.59
461.055	15053.76
461.261	14932.93
461.466	13970.39
461.672	13450.21
461.878	14775.24
462.083	13401.05
462.289	13243.36
462.494	13339.62
462.7	12467.18
462.905	12413.93
463.111	12690.41
463.316	12897.25
463.522	12659.69
463.727	12626.92
463.932	12581.87
464.138	12393.45
464.343	12430.32
464.549	12049.39
464.754	12749.8
464.959	12510.19
465.165	12542.96
465.37	11820.02
465.575	11418.62
465.781	11965.43
465.986	12323.82
466.191	11824.12
466.397	11465.72
466.602	10771.46
