Data from USB4F104151__31__13-52-49-282.txt Node

Date: Thu Mar 13 13:52:49 EDT 2025
User: louis
Spectrometer: USB4F10415
Trigger mode: 4
Integration Time (sec): 1.000000E-2
Scans to average: 1
Electric dark correction enabled: true
Nonlinearity correction enabled: false
Boxcar width: 0
XAxis mode: Wavelengths
Number of Pixels in Spectrum: 3648
>>>>>Begin Spectral Data<<<<<
178.204	-26.11
178.424	-26.11
178.644	-26.11
178.864	-22.02
179.084	-48.64
179.304	-3.58
179.524	-24.06
179.744	18.94
179.964	8.7
180.184	4.61
180.404	12.8
180.624	29.18
180.844	-22.02
181.064	4.61
181.283	-5.63
181.503	-22.02
181.723	-1.54
181.943	-13.82
182.163	16.9
182.383	-40.45
182.602	10.75
182.822	-75.26
183.042	23.04
183.262	45.57
183.482	29.18
183.701	-60.93
183.921	41.47
184.141	-52.74
184.361	-11.78
184.58	8.7
184.8	37.38
185.02	-17.92
185.239	4.61
185.459	-24.06
185.679	-13.82
185.898	-42.5
186.118	47.62
186.338	-28.16
186.557	10.75
186.777	-26.11
186.997	-5.63
187.216	-19.97
187.436	59.9
187.655	-5.63
187.875	90.62
188.095	-65.02
188.314	37.38
188.534	-22.02
188.753	-36.35
188.973	41.47
189.192	-15.87
189.412	-17.92
189.631	-50.69
189.851	12.8
190.07	66.05
190.29	-32.26
190.509	57.86
190.729	4.61
190.948	-24.06
191.168	70.14
191.387	2.56
191.607	-60.93
191.826	-15.87
192.045	2.56
192.265	74.24
192.484	47.62
192.704	16.9
192.923	-42.5
193.142	53.76
193.362	80.38
193.581	6.66
193.8	-13.82
194.02	92.67
194.239	-65.02
194.458	-50.69
194.678	-30.21
194.897	47.62
195.116	-11.78
195.335	27.14
195.555	31.23
195.774	-36.35
195.993	-11.78
196.212	-38.4
196.432	-69.12
196.651	27.14
196.87	16.9
197.089	-9.73
197.308	27.14
197.528	-11.78
197.747	18.94
197.966	39.42
198.185	49.66
198.404	6.66
198.623	-17.92
198.842	113.15
199.062	-28.16
199.281	25.09
199.5	-91.65
199.719	59.9
199.938	-34.3
200.157	-13.82
200.376	41.47
200.595	-30.21
200.814	39.42
201.033	4.61
201.252	98.81
201.471	14.85
201.69	-67.07
201.909	76.29
202.128	27.14
202.347	2.56
202.566	27.14
202.785	0.51
203.004	-62.98
203.223	74.24
203.442	-15.87
203.661	10.75
203.879	18.94
204.098	-36.35
204.317	-77.31
204.536	-62.98
204.755	8.7
204.974	88.57
205.193	23.04
205.411	20.99
205.63	49.66
205.849	0.51
206.068	10.75
206.287	-46.59
206.505	4.61
206.724	74.24
206.943	2.56
207.162	33.28
207.381	-42.5
207.599	25.09
207.818	-1.54
208.037	49.66
208.255	-15.87
208.474	-54.78
208.693	-73.21
208.911	-13.82
209.13	20.99
209.349	-15.87
209.567	-38.4
209.786	45.57
210.005	43.52
210.223	-7.68
210.442	-13.82
210.661	31.23
210.879	31.23
211.098	27.14
211.316	-32.26
211.535	12.8
211.753	70.14
211.972	-5.63
212.191	6.66
212.409	-9.73
212.628	41.47
212.846	-42.5
213.065	84.48
213.283	-9.73
213.502	-3.58
213.72	70.14
213.938	-79.36
214.157	-26.11
214.375	66.05
214.594	53.76
214.812	27.14
215.031	102.91
215.249	10.75
215.467	14.85
215.686	-79.36
215.904	25.09
216.122	-42.5
216.341	4.61
216.559	23.04
216.778	-9.73
216.996	33.28
217.214	49.66
217.432	23.04
217.651	-17.92
217.869	55.81
218.087	37.38
218.306	-44.54
218.524	47.62
218.742	20.99
218.96	43.52
219.179	47.62
219.397	-15.87
219.615	80.38
219.833	41.47
220.051	68.09
220.27	59.9
220.488	-52.74
220.706	64
220.924	-19.97
221.142	18.94
221.36	-11.78
221.578	55.81
221.796	35.33
222.015	20.99
222.233	59.9
222.451	-22.02
222.669	-46.59
222.887	33.28
223.105	20.99
223.323	47.62
223.541	12.8
223.759	4.61
223.977	31.23
224.195	23.04
224.413	16.9
224.631	66.05
224.849	47.62
225.067	-38.4
225.285	-26.11
225.503	6.66
225.721	10.75
225.939	37.38
226.157	8.7
226.375	-7.68
226.592	16.9
226.81	-32.26
227.028	-46.59
227.246	66.05
227.464	43.52
227.682	-7.68
227.9	-5.63
228.117	4.61
228.335	-42.5
228.553	-11.78
228.771	-38.4
228.989	16.9
229.206	8.7
229.424	-40.45
229.642	-44.54
229.86	0.51
230.077	-13.82
230.295	12.8
230.513	-75.26
230.731	84.48
230.948	35.33
231.166	33.28
231.384	-11.78
231.601	-30.21
231.819	43.52
232.037	-32.26
232.254	-83.45
232.472	25.09
232.689	-34.3
232.907	31.23
233.125	-9.73
233.342	-56.83
233.56	53.76
233.777	8.7
233.995	-17.92
234.213	90.62
234.43	12.8
234.648	-15.87
234.865	-19.97
235.083	68.09
235.3	12.8
235.518	37.38
235.735	-9.73
235.953	104.96
236.17	10.75
236.388	4.61
236.605	-15.87
236.822	41.47
237.04	29.18
237.257	-79.36
237.475	33.28
237.692	49.66
237.909	-13.82
238.127	-9.73
238.344	29.18
238.562	-38.4
238.779	43.52
238.996	-65.02
239.214	6.66
239.431	23.04
239.648	-5.63
239.865	76.29
240.083	-50.69
240.3	59.9
240.517	-22.02
240.735	10.75
240.952	-19.97
241.169	-7.68
241.386	16.9
241.603	-9.73
241.821	0.51
242.038	-1.54
242.255	-108.03
242.472	-34.3
242.689	14.85
242.907	64
243.124	-7.68
243.341	33.28
243.558	78.33
243.775	-17.92
243.992	-11.78
244.209	-7.68
244.426	-42.5
244.643	53.76
244.86	4.61
245.078	-5.63
245.295	4.61
245.512	35.33
245.729	14.85
245.946	29.18
246.163	16.9
246.38	80.38
246.597	49.66
246.814	53.76
247.031	27.14
247.248	25.09
247.464	72.19
247.681	-46.59
247.898	12.8
248.115	35.33
248.332	-11.78
248.549	18.94
248.766	31.23
248.983	2.56
249.2	8.7
249.417	47.62
249.633	53.76
249.85	-38.4
250.067	-22.02
250.284	-15.87
250.501	33.28
250.717	-1.54
250.934	-60.93
251.151	31.23
251.368	51.71
251.585	-9.73
251.801	-17.92
252.018	-40.45
252.235	4.61
252.451	59.9
252.668	47.62
252.885	33.28
253.102	76.29
253.318	20.99
253.535	51.71
253.752	18.94
253.968	33.28
254.185	-36.35
254.401	-17.92
254.618	37.38
254.835	4.61
255.051	20.99
255.268	0.51
255.484	25.09
255.701	45.57
255.917	-46.59
256.134	2.56
256.351	-15.87
256.567	43.52
256.784	57.86
257	33.28
257.217	2.56
257.433	-26.11
257.65	16.9
257.866	47.62
258.082	-38.4
258.299	16.9
258.515	-32.26
258.732	16.9
258.948	68.09
259.165	-40.45
259.381	2.56
259.597	18.94
259.814	-22.02
260.03	-24.06
260.246	-3.58
260.463	55.81
260.679	-9.73
260.895	8.7
261.112	55.81
261.328	-7.68
261.544	41.47
261.761	-22.02
261.977	20.99
262.193	-67.07
262.409	14.85
262.626	27.14
262.842	23.04
263.058	6.66
263.274	35.33
263.49	27.14
263.707	18.94
263.923	0.51
264.139	-5.63
264.355	-5.63
264.571	72.19
264.787	-5.63
265.004	-32.26
265.22	20.99
265.436	41.47
265.652	-19.97
265.868	-71.17
266.084	-22.02
266.3	10.75
266.516	-32.26
266.732	78.33
266.948	31.23
267.164	18.94
267.38	43.52
267.596	51.71
267.812	68.09
268.028	-19.97
268.244	-7.68
268.46	31.23
268.676	-32.26
268.892	-62.98
269.108	66.05
269.324	49.66
269.54	12.8
269.756	14.85
269.972	-34.3
270.188	-38.4
270.403	59.9
270.619	70.14
270.835	0.51
271.051	100.86
271.267	18.94
271.483	0.51
271.698	6.66
271.914	-50.69
272.13	-26.11
272.346	14.85
272.562	-13.82
272.777	45.57
272.993	-46.59
273.209	70.14
273.425	51.71
273.64	-3.58
273.856	-38.4
274.072	41.47
274.287	35.33
274.503	61.95
274.719	-26.11
274.934	-22.02
275.15	33.28
275.366	-13.82
275.581	-56.83
275.797	-13.82
276.012	-28.16
276.228	29.18
276.444	-15.87
276.659	-40.45
276.875	-58.88
277.09	-15.87
277.306	68.09
277.521	16.9
277.737	29.18
277.952	57.86
278.168	70.14
278.383	14.85
278.599	-42.5
278.814	2.56
279.03	37.38
279.245	33.28
279.461	10.75
279.676	41.47
279.892	45.57
280.107	-19.97
280.322	25.09
280.538	25.09
280.753	-32.26
280.969	117.25
281.184	23.04
281.399	27.14
281.615	0.51
281.83	20.99
282.045	66.05
282.26	53.76
282.476	41.47
282.691	0.51
282.906	-87.55
283.122	86.53
283.337	-46.59
283.552	-13.82
283.767	-13.82
283.983	68.09
284.198	29.18
284.413	8.7
284.628	20.99
284.843	113.15
285.058	57.86
285.274	2.56
285.489	47.62
285.704	-38.4
285.919	0.51
286.134	29.18
286.349	82.43
286.564	-9.73
286.779	0.51
286.995	29.18
287.21	33.28
287.425	49.66
287.64	-30.21
287.855	-48.64
288.07	2.56
288.285	-22.02
288.5	31.23
288.715	49.66
288.93	29.18
289.145	59.9
289.36	31.23
289.575	6.66
289.79	29.18
290.004	39.42
290.219	39.42
290.434	-3.58
290.649	4.61
290.864	18.94
291.079	-19.97
291.294	6.66
291.509	-50.69
291.724	16.9
291.938	23.04
292.153	37.38
292.368	-7.68
292.583	-5.63
292.798	-30.21
293.012	-24.06
293.227	33.28
293.442	59.9
293.657	18.94
293.871	78.33
294.086	49.66
294.301	-56.83
294.516	33.28
294.73	25.09
294.945	-32.26
295.16	57.86
295.374	-42.5
295.589	-5.63
295.804	-7.68
296.018	68.09
296.233	45.57
296.447	-26.11
296.662	33.28
296.877	57.86
297.091	-3.58
297.306	10.75
297.52	59.9
297.735	-7.68
297.949	-62.98
298.164	10.75
298.378	53.76
298.593	29.18
298.807	10.75
299.022	18.94
299.236	-11.78
299.451	-17.92
299.665	-40.45
299.88	29.18
300.094	6.66
300.309	57.86
300.523	8.7
300.737	0.51
300.952	-11.78
301.166	10.75
301.381	41.47
301.595	35.33
301.809	-19.97
302.024	10.75
302.238	-36.35
302.452	-42.5
302.667	-26.11
302.881	49.66
303.095	23.04
303.309	90.62
303.524	51.71
303.738	33.28
303.952	-34.3
304.166	23.04
304.381	23.04
304.595	35.33
304.809	12.8
305.023	70.14
305.237	18.94
305.452	39.42
305.666	72.19
305.88	-44.54
306.094	-62.98
306.308	-36.35
306.522	88.57
306.736	-7.68
306.95	104.96
307.164	-24.06
307.379	66.05
307.593	43.52
307.807	-9.73
308.021	57.86
308.235	-13.82
308.449	39.42
308.663	39.42
308.877	68.09
309.091	-9.73
309.305	43.52
309.519	-24.06
309.733	-5.63
309.947	-50.69
310.161	-1.54
310.374	-28.16
310.588	78.33
310.802	-1.54
311.016	25.09
311.23	4.61
311.444	-50.69
311.658	-52.74
311.872	31.23
312.085	27.14
312.299	92.67
312.513	31.23
312.727	25.09
312.941	66.05
313.154	47.62
313.368	66.05
313.582	-44.54
313.796	-11.78
314.009	-13.82
314.223	-32.26
314.437	29.18
314.651	70.14
314.864	-15.87
315.078	2.56
315.292	43.52
315.505	2.56
315.719	4.61
315.933	2.56
316.146	66.05
316.36	51.71
316.573	33.28
316.787	59.9
317.001	57.86
317.214	33.28
317.428	117.25
317.641	-11.78
317.855	-44.54
318.068	57.86
318.282	16.9
318.495	49.66
318.709	-28.16
318.922	-3.58
319.136	33.28
319.349	41.47
319.563	31.23
319.776	45.57
319.99	35.33
320.203	-7.68
320.417	74.24
320.63	10.75
320.843	37.38
321.057	-1.54
321.27	-7.68
321.483	25.09
321.697	16.9
321.91	-15.87
322.124	55.81
322.337	-44.54
322.55	-22.02
322.763	-71.17
322.977	86.53
323.19	-22.02
323.403	-13.82
323.617	10.75
323.83	68.09
324.043	47.62
324.256	10.75
324.469	20.99
324.683	82.43
324.896	-5.63
325.109	12.8
325.322	25.09
325.535	20.99
325.748	16.9
325.962	-9.73
326.175	45.57
326.388	82.43
326.601	-15.87
326.814	0.51
327.027	-116.22
327.24	31.23
327.453	-19.97
327.666	25.09
327.879	10.75
328.092	18.94
328.305	10.75
328.518	55.81
328.731	23.04
328.944	-3.58
329.157	14.85
329.37	-9.73
329.583	70.14
329.796	-5.63
330.009	-7.68
330.222	72.19
330.435	-26.11
330.648	41.47
330.861	31.23
331.073	70.14
331.286	74.24
331.499	33.28
331.712	-7.68
331.925	35.33
332.138	-40.45
332.35	37.38
332.563	61.95
332.776	-38.4
332.989	14.85
333.202	20.99
333.414	-34.3
333.627	20.99
333.84	20.99
334.053	-24.06
334.265	-58.88
334.478	-24.06
334.691	-13.82
334.903	45.57
335.116	80.38
335.329	8.7
335.541	-11.78
335.754	-3.58
335.966	8.7
336.179	-5.63
336.392	20.99
336.604	23.04
336.817	-1.54
337.029	-13.82
337.242	-13.82
337.454	-34.3
337.667	12.8
337.88	6.66
338.092	2.56
338.305	33.28
338.517	0.51
338.729	53.76
338.942	23.04
339.154	70.14
339.367	53.76
339.579	-5.63
339.792	18.94
340.004	43.52
340.217	-1.54
340.429	43.52
340.641	59.9
340.854	37.38
341.066	49.66
341.278	31.23
341.491	33.28
341.703	-7.68
341.915	59.9
342.128	-32.26
342.34	-22.02
342.552	27.14
342.764	4.61
342.977	49.66
343.189	10.75
343.401	12.8
343.613	31.23
343.826	35.33
344.038	-40.45
344.25	14.85
344.462	35.33
344.674	94.72
344.886	35.33
345.099	35.33
345.311	-3.58
345.523	59.9
345.735	-40.45
345.947	49.66
346.159	49.66
346.371	53.76
346.583	20.99
346.795	45.57
347.007	76.29
347.219	18.94
347.431	-7.68
347.643	2.56
347.855	-28.16
348.067	92.67
348.279	8.7
348.491	-24.06
348.703	-13.82
348.915	68.09
349.127	74.24
349.339	33.28
349.551	94.72
349.763	23.04
349.975	2.56
350.187	119.29
350.399	-22.02
350.61	55.81
350.822	2.56
351.034	31.23
351.246	33.28
351.458	4.61
351.669	16.9
351.881	25.09
352.093	41.47
352.305	29.18
352.517	-5.63
352.728	43.52
352.94	35.33
353.152	8.7
353.363	6.66
353.575	68.09
353.787	14.85
353.999	23.04
354.21	12.8
354.422	-1.54
354.633	-13.82
354.845	86.53
355.057	-32.26
355.268	39.42
355.48	-5.63
355.692	82.43
355.903	14.85
356.115	12.8
356.326	16.9
356.538	100.86
356.749	-7.68
356.961	55.81
357.172	88.57
357.384	51.71
357.595	-3.58
357.807	23.04
358.018	-40.45
358.23	14.85
358.441	14.85
358.653	29.18
358.864	37.38
359.075	43.52
359.287	-1.54
359.498	39.42
359.709	27.14
359.921	-38.4
360.132	-44.54
360.344	-32.26
360.555	70.14
360.766	4.61
360.977	8.7
361.189	66.05
361.4	31.23
361.611	47.62
361.823	53.76
362.034	-17.92
362.245	-1.54
362.456	2.56
362.667	8.7
362.879	109.05
363.09	59.9
363.301	-32.26
363.512	16.9
363.723	94.72
363.935	61.95
364.146	53.76
364.357	25.09
364.568	72.19
364.779	31.23
364.99	72.19
365.201	12.8
365.412	121.34
365.623	33.28
365.834	23.04
366.045	-15.87
366.256	61.95
366.467	14.85
366.678	16.9
366.889	-40.45
367.1	20.99
367.311	111.1
367.522	-44.54
367.733	31.23
367.944	16.9
368.155	16.9
368.366	82.43
368.577	33.28
368.788	12.8
368.999	0.51
369.209	41.47
369.42	27.14
369.631	107.01
369.842	25.09
370.053	14.85
370.264	59.9
370.474	12.8
370.685	78.33
370.896	-3.58
371.107	90.62
371.317	25.09
371.528	-13.82
371.739	4.61
371.95	-7.68
372.16	35.33
372.371	-32.26
372.582	-9.73
372.792	-3.58
373.003	43.52
373.214	20.99
373.424	8.7
373.635	16.9
373.846	4.61
374.056	70.14
374.267	49.66
374.477	-7.68
374.688	10.75
374.898	27.14
375.109	35.33
375.319	72.19
375.53	12.8
375.74	6.66
375.951	59.9
376.161	41.47
376.372	66.05
376.582	61.95
376.793	109.05
377.003	-28.16
377.214	43.52
377.424	-3.58
377.635	125.44
377.845	-32.26
378.055	74.24
378.266	2.56
378.476	16.9
378.686	6.66
378.897	-5.63
379.107	10.75
379.317	33.28
379.528	51.71
379.738	76.29
379.948	10.75
380.158	4.61
380.369	10.75
380.579	115.2
380.789	14.85
380.999	18.94
381.21	27.14
381.42	61.95
381.63	66.05
381.84	16.9
382.05	-1.54
382.261	18.94
382.471	76.29
382.681	0.51
382.891	27.14
383.101	51.71
383.311	125.44
383.521	18.94
383.731	10.75
383.941	49.66
384.151	88.57
384.361	61.95
384.571	39.42
384.781	-28.16
384.991	51.71
385.201	-19.97
385.411	51.71
385.621	18.94
385.831	25.09
386.041	25.09
386.251	-32.26
386.461	29.18
386.671	2.56
386.881	-28.16
387.091	72.19
387.301	55.81
387.511	18.94
387.72	18.94
387.93	6.66
388.14	92.67
388.35	-7.68
388.56	80.38
388.769	20.99
388.979	64
389.189	8.7
389.399	-44.54
389.609	-26.11
389.818	66.05
390.028	8.7
390.238	61.95
390.447	2.56
390.657	14.85
390.867	70.14
391.076	49.66
391.286	16.9
391.496	-5.63
391.705	55.81
391.915	57.86
392.125	23.04
392.334	20.99
392.544	-13.82
392.753	2.56
392.963	2.56
393.172	94.72
393.382	61.95
393.591	-15.87
393.801	53.76
394.01	88.57
394.22	76.29
394.429	119.29
394.639	104.96
394.848	66.05
395.058	-9.73
395.267	64
395.477	72.19
395.686	86.53
395.895	55.81
396.105	78.33
396.314	4.61
396.524	43.52
396.733	45.57
396.942	88.57
397.152	2.56
397.361	6.66
397.57	-9.73
397.78	39.42
397.989	61.95
398.198	96.77
398.407	12.8
398.617	43.52
398.826	16.9
399.035	66.05
399.244	47.62
399.453	-26.11
399.663	82.43
399.872	86.53
400.081	53.76
400.29	47.62
400.499	37.38
400.708	59.9
400.917	47.62
401.127	18.94
401.336	27.14
401.545	117.25
401.754	113.15
401.963	133.63
402.172	78.33
402.381	76.29
402.59	-1.54
402.799	102.91
403.008	39.42
403.217	43.52
403.426	61.95
403.635	-24.06
403.844	72.19
404.053	154.11
404.262	98.81
404.471	147.97
404.68	68.09
404.888	59.9
405.097	141.82
405.306	96.77
405.515	88.57
405.724	84.48
405.933	29.18
406.142	74.24
406.35	127.49
406.559	96.77
406.768	168.45
406.977	129.53
407.185	178.69
407.394	90.62
407.603	70.14
407.812	135.68
408.02	121.34
408.229	203.26
408.438	174.59
408.646	182.78
408.855	164.35
409.064	158.21
409.272	156.16
409.481	164.35
409.69	188.93
409.898	199.16
410.107	164.35
410.315	236.03
410.524	209.4
410.733	231.93
410.941	147.97
411.15	180.73
411.358	205.31
411.567	180.73
411.775	363
411.984	287.23
412.192	217.6
412.401	295.42
412.609	322.04
412.818	309.76
413.026	365.05
413.234	317.95
413.443	348.67
413.651	344.57
413.86	358.91
414.068	305.66
414.276	395.77
414.485	414.2
414.693	453.11
414.901	420.35
415.11	449.02
415.318	465.4
415.526	541.18
415.734	473.59
415.943	420.35
416.151	543.22
416.359	477.69
416.567	569.85
416.776	563.7
416.984	569.85
417.192	578.04
417.4	641.53
417.608	627.19
417.817	696.82
418.025	692.73
418.233	758.26
418.441	731.64
418.649	735.73
418.857	807.41
419.065	831.99
419.273	780.79
419.481	807.41
419.689	893.43
419.897	948.72
420.105	995.82
420.313	940.53
420.521	1010.16
420.729	1038.83
420.937	1163.76
421.145	1153.52
421.353	1241.58
421.561	1249.77
421.769	1167.85
421.977	1393.13
422.185	1206.77
422.393	1354.22
422.601	1341.93
422.809	1473
423.017	1485.29
423.224	1477.1
423.432	1712.61
423.64	1544.68
423.848	1855.97
424.056	1782.24
424.263	1819.11
424.471	1872.36
424.679	1960.42
424.887	2001.38
425.094	1886.69
425.302	2052.58
425.51	2109.92
425.718	2122.21
425.925	2304.48
426.133	2267.61
426.341	2523.61
426.548	2425.31
426.756	2404.83
426.964	2480.6
427.171	2521.56
427.379	2841.04
427.586	2873.81
427.794	2783.7
428.001	2882
428.209	3275.21
428.417	3092.94
428.624	3361.23
428.832	3281.36
429.039	3246.54
429.247	3217.87
429.454	3697.1
429.662	3865.03
429.869	3549.64
430.076	3807.69
430.284	3744.2
430.491	3850.69
430.699	4118.98
430.906	4196.8
431.114	4188.61
431.321	4288.96
431.528	4508.09
431.736	4684.22
431.943	4841.91
432.15	4676.02
432.358	4880.82
432.565	5122.48
432.772	5075.38
432.979	5384.62
433.187	5401.01
433.394	5390.77
433.601	5788.07
433.808	5857.7
434.016	5841.32
434.223	5984.68
434.43	6547.87
434.637	6289.82
434.844	6769.05
435.052	6797.72
435.259	6848.92
435.466	6936.98
435.673	6979.99
435.88	7053.72
436.087	7588.24
436.294	7604.62
436.501	7465.36
436.708	7659.92
436.915	7668.11
437.122	8212.87
437.329	8122.76
437.537	8458.62
437.743	8571.26
437.95	8456.57
438.157	8917.37
438.364	9372.02
438.571	9116.02
438.778	9402.74
438.985	10144.1
439.192	9793.9
439.399	9982.31
439.606	9787.75
439.813	10355.04
440.02	11202.9
440.227	10625.37
440.433	10686.81
440.64	11100.5
440.847	10801.5
441.054	11221.33
441.261	12034.38
441.467	11893.07
441.674	12044.62
441.881	12648.77
442.088	12644.67
442.294	12325.19
442.501	12790.08
442.708	12849.47
442.914	13347.12
443.121	14037.29
443.328	13590.83
443.534	14543.14
443.741	14090.54
443.948	14147.88
444.154	15083.8
444.361	14932.25
444.568	15034.65
444.774	15135
444.981	15214.87
445.187	15810.83
445.394	16353.54
445.6	16214.28
445.807	17660.15
446.013	16982.27
446.22	17129.72
446.426	17918.19
446.633	17944.81
446.839	18723.04
447.046	18002.16
447.252	18727.14
447.459	18901.22
447.665	18587.88
447.871	19650.77
448.078	20742.34
448.284	19572.95
448.491	20121.8
448.697	20629.7
448.903	21215.42
449.11	21209.28
449.316	21223.61
449.522	21534.9
449.728	21688.5
449.935	21805.24
450.141	21670.07
450.347	22513.83
450.553	21733.56
450.76	21940.4
450.966	22714.53
451.172	22743.2
451.378	23025.82
451.584	22481.06
451.791	23034.02
451.997	22948
452.203	23695.51
452.409	23367.84
452.615	23206.05
452.821	22384.81
453.027	22190.25
453.233	23400.6
453.44	22274.22
453.646	22753.44
453.852	22442.15
454.058	23126.18
454.264	22042.8
454.47	22679.72
454.676	22368.43
454.882	22692.01
455.088	21033.15
455.294	21498.04
455.5	21434.55
455.705	21659.83
455.911	21096.64
456.117	20512.97
456.323	20295.88
456.529	19163.36
456.735	19865.81
456.941	19663.06
457.147	19022.05
457.352	18403.56
457.558	18182.38
457.764	18571.49
457.97	17930.48
458.176	17367.29
458.381	17649.91
458.587	16435.46
458.793	16867.58
458.999	15696.14
459.204	16888.06
459.41	16410.89
459.616	15460.63
459.821	15571.22
460.027	15481.11
460.233	14919.96
460.438	14336.29
460.644	14575.91
460.85	13789.49
461.055	13545.78
461.261	13461.81
461.466	12605.76
461.672	12390.72
461.878	12906.81
462.083	12368.2
462.289	11974.99
462.494	11858.25
462.7	11467.09
462.905	10957.14
463.111	11485.52
463.316	11598.16
463.522	11264.34
463.727	11159.89
463.932	11063.64
464.138	11264.34
464.343	11153.75
464.549	10871.13
464.754	11250
464.959	11192.66
465.165	10889.56
465.37	10660.19
465.575	10291.55
465.781	10873.18
465.986	10705.24
466.191	10432.86
466.397	10178.92
466.602	9689.45
466.807	10088.81
467.012	10117.48
467.218	9949.54
467.423	9814.38
467.628	9929.06
467.833	10482.02
468.038	10060.13
468.244	9746.8
468.449	10416.48
