Data from USB4F104151__109__13-54-51-328.txt Node

Date: Thu Mar 13 13:54:51 EDT 2025
User: louis
Spectrometer: USB4F10415
Trigger mode: 4
Integration Time (sec): 1.000000E-2
Scans to average: 1
Electric dark correction enabled: true
Nonlinearity correction enabled: false
Boxcar width: 0
XAxis mode: Wavelengths
Number of Pixels in Spectrum: 3648
>>>>>Begin Spectral Data<<<<<
178.204	-8.7
178.424	-8.7
178.644	-8.7
178.864	-90.62
179.084	-12.8
179.304	22.02
179.524	-23.04
179.744	44.54
179.964	40.45
180.184	-25.09
180.404	-20.99
180.624	-41.47
180.844	-14.85
181.064	1.54
181.283	52.74
181.503	-14.85
181.723	-20.99
181.943	-2.56
182.163	60.93
182.383	-25.09
182.602	-14.85
182.822	48.64
183.042	-53.76
183.262	-0.51
183.482	-18.94
183.701	34.3
183.921	30.21
184.141	-10.75
184.361	5.63
184.58	11.78
184.8	52.74
185.02	52.74
185.239	77.31
185.459	54.78
185.679	-49.66
185.898	46.59
186.118	69.12
186.338	77.31
186.557	-16.9
186.777	-47.62
186.997	17.92
187.216	32.26
187.436	-12.8
187.655	-8.7
187.875	42.5
188.095	-16.9
188.314	-23.04
188.534	-64
188.753	26.11
188.973	-6.66
189.192	-4.61
189.412	24.06
189.631	62.98
189.851	-14.85
190.07	1.54
190.29	15.87
190.509	42.5
190.729	77.31
190.948	17.92
191.168	46.59
191.387	5.63
191.607	44.54
191.826	3.58
192.045	-43.52
192.265	-10.75
192.484	28.16
192.704	54.78
192.923	-23.04
193.142	50.69
193.362	26.11
193.581	60.93
193.8	32.26
194.02	-10.75
194.239	32.26
194.458	22.02
194.678	-57.86
194.897	-20.99
195.116	7.68
195.335	77.31
195.555	34.3
195.774	13.82
195.993	-2.56
196.212	30.21
196.432	-39.42
196.651	89.6
196.87	-14.85
197.089	62.98
197.308	24.06
197.528	-41.47
197.747	-31.23
197.966	24.06
198.185	-16.9
198.404	26.11
198.623	50.69
198.842	-0.51
199.062	46.59
199.281	-10.75
199.5	40.45
199.719	52.74
199.938	-14.85
200.157	11.78
200.376	-45.57
200.595	5.63
200.814	26.11
201.033	-47.62
201.252	24.06
201.471	22.02
201.69	-35.33
201.909	-6.66
202.128	-70.14
202.347	7.68
202.566	22.02
202.785	-12.8
203.004	-4.61
203.223	38.4
203.442	40.45
203.661	52.74
203.879	-53.76
204.098	101.89
204.317	44.54
204.536	-25.09
204.755	-35.33
204.974	17.92
205.193	19.97
205.411	28.16
205.63	-68.09
205.849	54.78
206.068	5.63
206.287	24.06
206.505	52.74
206.724	46.59
206.943	1.54
207.162	17.92
207.381	40.45
207.599	-20.99
207.818	22.02
208.037	7.68
208.255	30.21
208.474	-0.51
208.693	13.82
208.911	34.3
209.13	15.87
209.349	-16.9
209.567	-0.51
209.786	19.97
210.005	38.4
210.223	58.88
210.442	-41.47
210.661	1.54
210.879	17.92
211.098	1.54
211.316	9.73
211.535	-14.85
211.753	50.69
211.972	1.54
212.191	52.74
212.409	-16.9
212.628	-35.33
212.846	-0.51
213.065	-47.62
213.283	5.63
213.502	-4.61
213.72	9.73
213.938	26.11
214.157	28.16
214.375	28.16
214.594	-47.62
214.812	5.63
215.031	-18.94
215.249	-2.56
215.467	81.41
215.686	17.92
215.904	38.4
216.122	50.69
216.341	81.41
216.559	11.78
216.778	-29.18
216.996	108.03
217.214	-14.85
217.432	89.6
217.651	-0.51
217.869	58.88
218.087	-14.85
218.306	48.64
218.524	38.4
218.742	48.64
218.96	22.02
219.179	-4.61
219.397	50.69
219.615	-2.56
219.833	-14.85
220.051	42.5
220.27	1.54
220.488	-6.66
220.706	-27.14
220.924	46.59
221.142	42.5
221.36	50.69
221.578	-31.23
221.796	56.83
222.015	28.16
222.233	46.59
222.451	11.78
222.669	13.82
222.887	44.54
223.105	-29.18
223.323	-2.56
223.541	15.87
223.759	5.63
223.977	5.63
224.195	7.68
224.413	22.02
224.631	-2.56
224.849	-16.9
225.067	-23.04
225.285	15.87
225.503	42.5
225.721	-27.14
225.939	-18.94
226.157	-23.04
226.375	-37.38
226.592	-27.14
226.81	-25.09
227.028	17.92
227.246	17.92
227.464	69.12
227.682	73.21
227.9	-14.85
228.117	54.78
228.335	67.07
228.553	-0.51
228.771	40.45
228.989	34.3
229.206	1.54
229.424	38.4
229.642	34.3
229.86	-72.19
230.077	24.06
230.295	34.3
230.513	19.97
230.731	60.93
230.948	26.11
231.166	73.21
231.384	15.87
231.601	5.63
231.819	36.35
232.037	-10.75
232.254	17.92
232.472	26.11
232.689	1.54
232.907	19.97
233.125	11.78
233.342	46.59
233.56	13.82
233.777	-29.18
233.995	5.63
234.213	13.82
234.43	15.87
234.648	-49.66
234.865	7.68
235.083	48.64
235.3	-39.42
235.518	-29.18
235.735	19.97
235.953	15.87
236.17	13.82
236.388	-37.38
236.605	-57.86
236.822	46.59
237.04	50.69
237.257	11.78
237.475	60.93
237.692	32.26
237.909	-16.9
238.127	44.54
238.344	9.73
238.562	34.3
238.779	-12.8
238.996	9.73
239.214	17.92
239.431	5.63
239.648	-31.23
239.865	3.58
240.083	-10.75
240.3	46.59
240.517	-2.56
240.735	15.87
240.952	60.93
241.169	-2.56
241.386	67.07
241.603	-8.7
241.821	-41.47
242.038	-2.56
242.255	30.21
242.472	-8.7
242.689	-10.75
242.907	-98.81
243.124	-12.8
243.341	-10.75
243.558	32.26
243.775	-6.66
243.992	17.92
244.209	7.68
244.426	87.55
244.643	65.02
244.86	42.5
245.078	81.41
245.295	-12.8
245.512	-18.94
245.729	-0.51
245.946	34.3
246.163	13.82
246.38	-25.09
246.597	1.54
246.814	34.3
247.031	-53.76
247.248	75.26
247.464	34.3
247.681	26.11
247.898	26.11
248.115	5.63
248.332	13.82
248.549	-25.09
248.766	3.58
248.983	36.35
249.2	22.02
249.417	9.73
249.633	52.74
249.85	13.82
250.067	44.54
250.284	7.68
250.501	79.36
250.717	52.74
250.934	17.92
251.151	-0.51
251.368	87.55
251.585	34.3
251.801	19.97
252.018	36.35
252.235	-0.51
252.451	46.59
252.668	44.54
252.885	77.31
253.102	48.64
253.318	-31.23
253.535	62.98
253.752	48.64
253.968	-25.09
254.185	-51.71
254.401	11.78
254.618	91.65
254.835	-23.04
255.051	30.21
255.268	-14.85
255.484	36.35
255.701	32.26
255.917	54.78
256.134	-18.94
256.351	19.97
256.567	-74.24
256.784	-20.99
257	-14.85
257.217	54.78
257.433	56.83
257.65	38.4
257.866	11.78
258.082	-6.66
258.299	46.59
258.515	69.12
258.732	30.21
258.948	69.12
259.165	28.16
259.381	56.83
259.597	38.4
259.814	19.97
260.03	-4.61
260.246	11.78
260.463	69.12
260.679	-20.99
260.895	-10.75
261.112	-20.99
261.328	-51.71
261.544	-16.9
261.761	-33.28
261.977	50.69
262.193	34.3
262.409	103.93
262.626	52.74
262.842	-2.56
263.058	40.45
263.274	1.54
263.49	-53.76
263.707	-49.66
263.923	-41.47
264.139	7.68
264.355	-8.7
264.571	7.68
264.787	24.06
265.004	116.22
265.22	-18.94
265.436	58.88
265.652	-8.7
265.868	48.64
266.084	11.78
266.3	48.64
266.516	-10.75
266.732	58.88
266.948	91.65
267.164	24.06
267.38	-23.04
267.596	52.74
267.812	-20.99
268.028	44.54
268.244	32.26
268.46	26.11
268.676	-2.56
268.892	-8.7
269.108	3.58
269.324	17.92
269.54	-2.56
269.756	-4.61
269.972	-12.8
270.188	32.26
270.403	103.93
270.619	17.92
270.835	-2.56
271.051	5.63
271.267	17.92
271.483	93.69
271.698	9.73
271.914	-12.8
272.13	5.63
272.346	-18.94
272.562	40.45
272.777	-14.85
272.993	-35.33
273.209	11.78
273.425	83.45
273.64	34.3
273.856	24.06
274.072	-6.66
274.287	-23.04
274.503	65.02
274.719	110.08
274.934	34.3
275.15	-43.52
275.366	56.83
275.581	-74.24
275.797	32.26
276.012	5.63
276.228	24.06
276.444	44.54
276.659	52.74
276.875	-2.56
277.09	15.87
277.306	-2.56
277.521	5.63
277.737	-14.85
277.952	-8.7
278.168	7.68
278.383	44.54
278.599	-10.75
278.814	103.93
279.03	54.78
279.245	52.74
279.461	30.21
279.676	65.02
279.892	-29.18
280.107	-47.62
280.322	-43.52
280.538	32.26
280.753	-51.71
280.969	58.88
281.184	-35.33
281.399	50.69
281.615	73.21
281.83	26.11
282.045	26.11
282.26	11.78
282.476	69.12
282.691	48.64
282.906	17.92
283.122	34.3
283.337	79.36
283.552	89.6
283.767	89.6
283.983	9.73
284.198	17.92
284.413	24.06
284.628	-70.14
284.843	11.78
285.058	19.97
285.274	36.35
285.489	-49.66
285.704	17.92
285.919	-16.9
286.134	40.45
286.349	22.02
286.564	7.68
286.779	40.45
286.995	30.21
287.21	-14.85
287.425	-16.9
287.64	52.74
287.855	9.73
288.07	26.11
288.285	-20.99
288.5	-10.75
288.715	24.06
288.93	-8.7
289.145	77.31
289.36	-27.14
289.575	-20.99
289.79	44.54
290.004	15.87
290.219	13.82
290.434	13.82
290.649	52.74
290.864	-20.99
291.079	-2.56
291.294	-31.23
291.509	-14.85
291.724	19.97
291.938	79.36
292.153	93.69
292.368	-20.99
292.583	77.31
292.798	9.73
293.012	44.54
293.227	-4.61
293.442	-39.42
293.657	97.79
293.871	71.17
294.086	54.78
294.301	52.74
294.516	110.08
294.73	101.89
294.945	13.82
295.16	65.02
295.374	50.69
295.589	58.88
295.804	36.35
296.018	-8.7
296.233	-27.14
296.447	87.55
296.662	-25.09
296.877	58.88
297.091	34.3
297.306	-12.8
297.52	11.78
297.735	60.93
297.949	11.78
298.164	-6.66
298.378	15.87
298.593	-45.57
298.807	-25.09
299.022	-12.8
299.236	-35.33
299.451	-6.66
299.665	22.02
299.88	40.45
300.094	77.31
300.309	52.74
300.523	-0.51
300.737	22.02
300.952	-2.56
301.166	-16.9
301.381	56.83
301.595	24.06
301.809	7.68
302.024	103.93
302.238	30.21
302.452	62.98
302.667	15.87
302.881	67.07
303.095	7.68
303.309	58.88
303.524	13.82
303.738	17.92
303.952	-29.18
304.166	52.74
304.381	15.87
304.595	67.07
304.809	26.11
305.023	-53.76
305.237	99.84
305.452	1.54
305.666	75.26
305.88	19.97
306.094	7.68
306.308	77.31
306.522	17.92
306.736	95.74
306.95	5.63
307.164	26.11
307.379	-51.71
307.593	28.16
307.807	26.11
308.021	3.58
308.235	58.88
308.449	-14.85
308.663	-35.33
308.877	44.54
309.091	38.4
309.305	50.69
309.519	24.06
309.733	52.74
309.947	13.82
310.161	50.69
310.374	-35.33
310.588	71.17
310.802	11.78
311.016	67.07
311.23	34.3
311.444	73.21
311.658	3.58
311.872	-53.76
312.085	-0.51
312.299	65.02
312.513	28.16
312.727	24.06
312.941	48.64
313.154	15.87
313.368	15.87
313.582	-33.28
313.796	-37.38
314.009	11.78
314.223	-25.09
314.437	17.92
314.651	-18.94
314.864	40.45
315.078	32.26
315.292	-47.62
315.505	3.58
315.719	42.5
315.933	62.98
316.146	5.63
316.36	60.93
316.573	11.78
316.787	67.07
317.001	58.88
317.214	-25.09
317.428	-6.66
317.641	3.58
317.855	15.87
318.068	58.88
318.282	97.79
318.495	15.87
318.709	15.87
318.922	69.12
319.136	42.5
319.349	-16.9
319.563	50.69
319.776	11.78
319.99	-16.9
320.203	40.45
320.417	-23.04
320.63	26.11
320.843	99.84
321.057	-10.75
321.27	44.54
321.483	-2.56
321.697	-0.51
321.91	52.74
322.124	-4.61
322.337	103.93
322.55	1.54
322.763	83.45
322.977	9.73
323.19	-4.61
323.403	52.74
323.617	-12.8
323.83	48.64
324.043	-14.85
324.256	1.54
324.469	5.63
324.683	36.35
324.896	62.98
325.109	58.88
325.322	9.73
325.535	67.07
325.748	17.92
325.962	-8.7
326.175	30.21
326.388	48.64
326.601	97.79
326.814	36.35
327.027	9.73
327.24	24.06
327.453	-20.99
327.666	77.31
327.879	-43.52
328.092	-10.75
328.305	9.73
328.518	-25.09
328.731	34.3
328.944	11.78
329.157	1.54
329.37	-14.85
329.583	38.4
329.796	28.16
330.009	-4.61
330.222	42.5
330.435	1.54
330.648	67.07
330.861	19.97
331.073	-12.8
331.286	38.4
331.499	-20.99
331.712	1.54
331.925	75.26
332.138	1.54
332.35	85.5
332.563	44.54
332.776	89.6
332.989	15.87
333.202	-18.94
333.414	-18.94
333.627	3.58
333.84	58.88
334.053	22.02
334.265	42.5
334.478	62.98
334.691	116.22
334.903	-61.95
335.116	-8.7
335.329	114.17
335.541	-6.66
335.754	22.02
335.966	-25.09
336.179	85.5
336.392	26.11
336.604	46.59
336.817	9.73
337.029	30.21
337.242	-6.66
337.454	48.64
337.667	15.87
337.88	48.64
338.092	118.27
338.305	42.5
338.517	-49.66
338.729	-12.8
338.942	42.5
339.154	114.17
339.367	77.31
339.579	-4.61
339.792	44.54
340.004	-8.7
340.217	-23.04
340.429	13.82
340.641	65.02
340.854	56.83
341.066	5.63
341.278	3.58
341.491	85.5
341.703	5.63
341.915	-43.52
342.128	-6.66
342.34	-23.04
342.552	-12.8
342.764	87.55
342.977	-18.94
343.189	1.54
343.401	58.88
343.613	56.83
343.826	46.59
344.038	32.26
344.25	-23.04
344.462	38.4
344.674	13.82
344.886	-0.51
345.099	32.26
345.311	1.54
345.523	28.16
345.735	26.11
345.947	36.35
346.159	9.73
346.371	11.78
346.583	34.3
346.795	65.02
347.007	36.35
347.219	87.55
347.431	62.98
347.643	56.83
347.855	-47.62
348.067	3.58
348.279	17.92
348.491	36.35
348.703	19.97
348.915	34.3
349.127	24.06
349.339	36.35
349.551	58.88
349.763	-27.14
349.975	11.78
350.187	91.65
350.399	19.97
350.61	-31.23
350.822	-41.47
351.034	56.83
351.246	54.78
351.458	44.54
351.669	5.63
351.881	-35.33
352.093	44.54
352.305	54.78
352.517	-12.8
352.728	67.07
352.94	5.63
353.152	30.21
353.363	101.89
353.575	-29.18
353.787	34.3
353.999	46.59
354.21	60.93
354.422	-4.61
354.633	71.17
354.845	3.58
355.057	-39.42
355.268	-37.38
355.48	15.87
355.692	-55.81
355.903	15.87
356.115	44.54
356.326	-41.47
356.538	13.82
356.749	-33.28
356.961	60.93
357.172	13.82
357.384	71.17
357.595	77.31
357.807	52.74
358.018	34.3
358.23	9.73
358.441	87.55
358.653	-64
358.864	44.54
359.075	-27.14
359.287	54.78
359.498	126.46
359.709	56.83
359.921	36.35
360.132	15.87
360.344	-2.56
360.555	60.93
360.766	-29.18
360.977	30.21
361.189	-4.61
361.4	60.93
361.611	99.84
361.823	5.63
362.034	-12.8
362.245	9.73
362.456	36.35
362.667	24.06
362.879	24.06
363.09	-23.04
363.301	15.87
363.512	44.54
363.723	19.97
363.935	-37.38
364.146	77.31
364.357	11.78
364.568	60.93
364.779	60.93
364.99	40.45
365.201	-47.62
365.412	24.06
365.623	9.73
365.834	67.07
366.045	11.78
366.256	46.59
366.467	-47.62
366.678	60.93
366.889	7.68
367.1	-10.75
367.311	1.54
367.522	-45.57
367.733	-14.85
367.944	50.69
368.155	32.26
368.366	19.97
368.577	26.11
368.788	15.87
368.999	19.97
369.209	11.78
369.42	42.5
369.631	58.88
369.842	-55.81
370.053	30.21
370.264	13.82
370.474	17.92
370.685	58.88
370.896	-6.66
371.107	26.11
371.317	19.97
371.528	34.3
371.739	67.07
371.95	26.11
372.16	17.92
372.371	9.73
372.582	-14.85
372.792	77.31
373.003	-18.94
373.214	108.03
373.424	24.06
373.635	28.16
373.846	17.92
374.056	-57.86
374.267	42.5
374.477	71.17
374.688	7.68
374.898	32.26
375.109	69.12
375.319	13.82
375.53	28.16
375.74	87.55
375.951	85.5
376.161	40.45
376.372	17.92
376.582	40.45
376.793	-8.7
377.003	5.63
377.214	48.64
377.424	-2.56
377.635	56.83
377.845	62.98
378.055	44.54
378.266	-10.75
378.476	13.82
378.686	7.68
378.897	1.54
379.107	7.68
379.317	89.6
379.528	3.58
379.738	93.69
379.948	26.11
380.158	46.59
380.369	73.21
380.579	32.26
380.789	3.58
380.999	22.02
381.21	32.26
381.42	19.97
381.63	5.63
381.84	83.45
382.05	46.59
382.261	34.3
382.471	-16.9
382.681	28.16
382.891	26.11
383.101	56.83
383.311	-31.23
383.521	34.3
383.731	1.54
383.941	46.59
384.151	40.45
384.361	60.93
384.571	15.87
384.781	58.88
384.991	73.21
385.201	108.03
385.411	79.36
385.621	54.78
385.831	-31.23
386.041	-18.94
386.251	-2.56
386.461	44.54
386.671	19.97
386.881	26.11
387.091	34.3
387.301	13.82
387.511	52.74
387.72	79.36
387.93	67.07
388.14	-18.94
388.35	62.98
388.56	32.26
388.769	19.97
388.979	32.26
389.189	-41.47
389.399	62.98
389.609	56.83
389.818	50.69
390.028	22.02
390.238	48.64
390.447	-10.75
390.657	83.45
390.867	40.45
391.076	-2.56
391.286	-8.7
391.496	28.16
391.705	1.54
391.915	56.83
392.125	30.21
392.334	42.5
392.544	7.68
392.753	75.26
392.963	-23.04
393.172	52.74
393.382	40.45
393.591	9.73
393.801	58.88
394.01	48.64
394.22	-2.56
394.429	91.65
394.639	-2.56
394.848	56.83
395.058	128.51
395.267	-16.9
395.477	22.02
395.686	-20.99
395.895	32.26
396.105	15.87
396.314	40.45
396.524	46.59
396.733	71.17
396.942	87.55
397.152	32.26
397.361	44.54
397.57	1.54
397.78	83.45
397.989	67.07
398.198	69.12
398.407	42.5
398.617	58.88
398.826	38.4
399.035	89.6
399.244	99.84
399.453	32.26
399.663	36.35
399.872	105.98
400.081	87.55
400.29	52.74
400.499	108.03
400.708	28.16
400.917	54.78
401.127	91.65
401.336	30.21
401.545	89.6
401.754	56.83
401.963	93.69
402.172	24.06
402.381	120.32
402.59	-0.51
402.799	1.54
403.008	103.93
403.217	122.37
403.426	99.84
403.635	44.54
403.844	58.88
404.053	130.56
404.262	103.93
404.471	196.09
404.68	146.94
404.888	146.94
405.097	142.85
405.306	97.79
405.515	71.17
405.724	52.74
405.933	114.17
406.142	83.45
406.35	54.78
406.559	77.31
406.768	85.5
406.977	85.5
407.185	130.56
407.394	65.02
407.603	134.65
407.812	179.71
408.02	124.41
408.229	118.27
408.438	169.47
408.646	194.05
408.855	165.37
409.064	153.09
409.272	130.56
409.481	175.61
409.69	189.95
409.898	163.33
410.107	161.28
410.315	198.14
410.524	230.91
410.733	220.67
410.941	101.89
411.15	165.37
411.358	235
411.567	224.76
411.775	247.29
411.984	247.29
412.192	232.96
412.401	271.87
412.609	280.06
412.818	253.44
413.026	259.58
413.234	202.24
413.443	300.54
413.651	343.55
413.86	304.64
414.068	392.7
414.276	361.98
414.485	292.35
414.693	384.51
414.901	394.75
415.11	292.35
415.318	425.47
415.526	470.52
415.734	546.3
415.943	429.56
416.151	464.38
416.359	413.18
416.567	517.62
416.776	536.06
416.984	527.86
417.192	501.24
417.4	601.59
417.608	470.52
417.817	589.3
418.025	579.06
418.233	611.83
418.441	683.51
418.649	701.94
418.857	660.98
419.065	716.28
419.273	755.19
419.481	808.44
419.689	820.72
419.897	876.02
420.105	876.02
420.313	798.2
420.521	902.64
420.729	839.16
420.937	1007.09
421.145	906.74
421.353	1091.06
421.561	1017.33
421.769	1109.49
421.977	1138.16
422.185	1203.69
422.393	1252.84
422.601	1248.75
422.809	1371.63
423.017	1254.89
423.224	1322.48
423.432	1388.01
423.64	1484.27
423.848	1574.38
424.056	1551.85
424.263	1517.03
424.471	1592.81
424.679	1697.25
424.887	1725.93
425.094	1770.98
425.302	1758.69
425.51	1914.34
425.718	2022.88
425.925	2076.13
426.133	1983.97
426.341	2112.99
426.548	2196.96
426.756	2225.63
426.964	2123.23
427.171	2332.12
427.379	2418.14
427.586	2352.6
427.794	2565.59
428.001	2633.18
428.209	2719.19
428.417	2633.18
428.624	2850.26
428.832	2985.43
429.039	2921.94
429.247	2878.93
429.454	3143.12
429.662	3292.62
429.869	3071.44
430.076	3222.99
430.284	3294.67
430.491	3315.15
430.699	3616.2
430.906	3583.43
431.114	3698.12
431.321	3784.13
431.528	3884.48
431.736	4107.71
431.943	4302.27
432.15	4152.77
432.358	4240.83
432.565	4492.73
432.772	4414.91
432.979	4681.14
433.187	4611.51
433.394	4820.41
433.601	5133.75
433.808	5180.85
434.016	5082.55
434.223	5320.11
434.43	5610.92
434.637	5561.77
434.844	5803.43
435.052	5858.73
435.259	5963.17
435.466	6069.67
435.673	5920.17
435.88	6340
436.087	6763.93
436.294	6559.13
436.501	6460.83
436.708	6641.05
436.915	6864.28
437.122	7327.12
437.329	7150.99
437.537	7294.35
437.743	7361.94
437.95	7460.24
438.157	7904.65
438.364	8066.44
438.571	7992.71
438.778	8242.56
438.985	8947.06
439.192	8392.06
439.399	8967.54
439.606	8439.17
439.813	8887.67
440.02	9487.73
440.227	9502.06
440.433	9555.31
440.64	9762.16
440.847	9586.03
441.054	9866.6
441.261	10274.15
441.467	10218.85
441.674	10599.77
441.881	10874.2
442.088	11003.22
442.294	10816.86
442.501	11240.79
442.708	11570.51
442.914	11713.87
443.121	12123.46
443.328	11947.34
443.534	12680.51
443.741	12291.4
443.948	12391.75
444.154	12959.03
444.361	12873.02
444.568	13274.42
444.774	13004.09
444.981	13493.55
445.187	13841.71
445.394	14443.81
445.6	14019.88
445.807	15627.54
446.013	14619.94
446.22	15084.83
446.426	15516.95
446.633	15846.67
446.839	16295.18
447.046	15746.32
447.252	16502.02
447.459	16522.5
447.665	16538.88
447.871	17077.5
448.078	17992.94
448.284	17179.9
448.491	17540.34
448.697	18119.92
448.903	18740.45
449.11	18597.09
449.316	18072.81
449.522	18603.24
449.728	18859.23
449.935	19172.57
450.141	19322.07
450.347	19614.93
450.553	19127.52
450.76	19465.43
450.966	20157.64
451.172	19330.27
451.378	20163.79
451.584	19780.82
451.791	20257.99
451.997	20284.62
452.203	20753.6
452.409	20419.78
452.615	20335.82
452.821	19616.98
453.027	19367.13
453.233	20563.14
453.44	19645.65
453.646	19655.89
453.852	20131.02
454.058	20257.99
454.264	19674.32
454.47	19840.21
454.676	19565.78
454.882	20477.13
455.088	18767.07
455.294	18892
455.5	19111.13
455.705	19317.98
455.911	18461.93
456.117	18205.93
456.323	17820.91
456.529	16801.02
456.735	17700.08
456.941	17163.51
457.147	17052.92
457.352	16420.1
457.558	16145.67
457.764	16174.35
457.97	15920.4
458.176	15406.36
458.381	15645.97
458.587	14720.29
458.793	14830.88
458.999	13894.96
459.204	14841.12
459.41	14648.61
459.616	13632.82
459.821	13587.76
460.027	13538.61
460.233	13266.23
460.438	12819.77
460.644	12926.27
460.85	12197.19
461.055	12098.89
461.261	12002.63
461.466	11132.25
461.672	10933.59
461.878	11441.49
462.083	10884.44
462.289	10548.58
462.494	10661.21
462.7	10169.7
462.905	9987.43
463.111	10497.38
463.316	10106.21
463.522	9973.1
463.727	9973.1
463.932	10106.21
464.138	10016.1
464.343	9839.98
464.549	9497.97
464.754	9842.03
464.959	9897.32
465.165	9874.79
465.37	9536.88
465.575	9055.61
465.781	9846.12
465.986	9442.67
466.191	9233.78
466.397	9059.7
466.602	8629.63
466.807	9022.84
467.012	8848.76
467.218	8797.56
467.423	8824.19
467.628	8965.5
467.833	9379.18
468.038	8955.26
468.244	8533.37
468.449	9006.45
468.654	8650.11
468.859	8457.6
