Data from USB4F104151__90__13-54-29-430.txt Node

Date: Thu Mar 13 13:54:29 EDT 2025
User: louis
Spectrometer: USB4F10415
Trigger mode: 4
Integration Time (sec): 1.000000E-2
Scans to average: 1
Electric dark correction enabled: true
Nonlinearity correction enabled: false
Boxcar width: 0
XAxis mode: Wavelengths
Number of Pixels in Spectrum: 3648
>>>>>Begin Spectral Data<<<<<
178.204	-5.29
178.424	-5.29
178.644	-5.29
178.864	-64.68
179.084	-58.54
179.304	-27.82
179.524	-7.34
179.744	52.05
179.964	78.68
180.184	-113.83
180.404	60.24
180.624	-3.24
180.844	-42.15
181.064	-36.01
181.283	-17.58
181.503	-27.82
181.723	84.82
181.943	-31.91
182.163	37.72
182.383	76.63
182.602	47.96
182.822	11.09
183.042	31.57
183.262	-29.87
183.482	72.53
183.701	-3.24
183.921	60.24
184.141	-19.63
184.361	29.52
184.58	52.05
184.8	82.77
185.02	17.24
185.239	41.81
185.459	-11.43
185.679	-1.19
185.898	-21.67
186.118	86.87
186.338	13.14
186.557	19.29
186.777	-62.63
186.997	11.09
187.216	-33.96
187.436	123.73
187.655	35.67
187.875	-5.29
188.095	-31.91
188.314	84.82
188.534	33.62
188.753	-40.11
188.973	29.52
189.192	35.67
189.412	62.29
189.631	45.91
189.851	-50.35
190.07	74.58
190.29	-52.39
190.509	50
190.729	23.38
190.948	41.81
191.168	88.92
191.387	9.05
191.607	23.38
191.826	84.82
192.045	74.58
192.265	70.48
192.484	11.09
192.704	25.43
192.923	-68.78
193.142	93.01
193.362	15.19
193.581	95.06
193.8	-5.29
194.02	27.48
194.239	39.76
194.458	21.33
194.678	64.34
194.897	99.16
195.116	-62.63
195.335	35.67
195.555	43.86
195.774	-42.15
195.993	97.11
196.212	39.76
196.432	-31.91
196.651	72.53
196.87	70.48
197.089	45.91
197.308	33.62
197.528	-5.29
197.747	37.72
197.966	-29.87
198.185	-13.48
198.404	-5.29
198.623	13.14
198.842	11.09
199.062	76.63
199.281	39.76
199.5	62.29
199.719	31.57
199.938	-15.53
200.157	-3.24
200.376	80.72
200.595	-29.87
200.814	35.67
201.033	-29.87
201.252	-7.34
201.471	21.33
201.69	54.1
201.909	78.68
202.128	11.09
202.347	56.15
202.566	-7.34
202.785	-27.82
203.004	39.76
203.223	136.02
203.442	25.43
203.661	19.29
203.879	-38.06
204.098	-27.82
204.317	19.29
204.536	-7.34
204.755	17.24
204.974	56.15
205.193	17.24
205.411	80.72
205.63	21.33
205.849	43.86
206.068	-17.58
206.287	45.91
206.505	97.11
206.724	17.24
206.943	-44.2
207.162	-25.77
207.381	11.09
207.599	25.43
207.818	37.72
208.037	68.44
208.255	-46.25
208.474	13.14
208.693	43.86
208.911	-42.15
209.13	17.24
209.349	80.72
209.567	90.96
209.786	62.29
210.005	41.81
210.223	9.05
210.442	11.09
210.661	33.62
210.879	9.05
211.098	-15.53
211.316	33.62
211.535	13.14
211.753	70.48
211.972	2.9
212.191	47.96
212.409	50
212.628	-19.63
212.846	54.1
213.065	-1.19
213.283	39.76
213.502	17.24
213.72	88.92
213.938	2.9
214.157	-23.72
214.375	7
214.594	15.19
214.812	25.43
215.031	62.29
215.249	-25.77
215.467	15.19
215.686	29.52
215.904	2.9
216.122	39.76
216.341	11.09
216.559	-11.43
216.778	80.72
216.996	17.24
217.214	45.91
217.432	2.9
217.651	-7.34
217.869	-54.44
218.087	-11.43
218.306	37.72
218.524	4.95
218.742	-3.24
218.96	19.29
219.179	-1.19
219.397	15.19
219.615	13.14
219.833	17.24
220.051	-52.39
220.27	29.52
220.488	25.43
220.706	17.24
220.924	-25.77
221.142	-46.25
221.36	52.05
221.578	58.2
221.796	-1.19
222.015	-38.06
222.233	11.09
222.451	-1.19
222.669	-17.58
222.887	-40.11
223.105	-36.01
223.323	52.05
223.541	-44.2
223.759	33.62
223.977	0.85
224.195	39.76
224.413	9.05
224.631	-29.87
224.849	11.09
225.067	82.77
225.285	62.29
225.503	-31.91
225.721	-1.19
225.939	43.86
226.157	-17.58
226.375	62.29
226.592	41.81
226.81	76.63
227.028	35.67
227.246	52.05
227.464	68.44
227.682	4.95
227.9	43.86
228.117	-5.29
228.335	13.14
228.553	4.95
228.771	47.96
228.989	88.92
229.206	-19.63
229.424	111.44
229.642	-40.11
229.86	95.06
230.077	7
230.295	64.34
230.513	25.43
230.731	25.43
230.948	-38.06
231.166	35.67
231.384	21.33
231.601	119.64
231.819	33.62
232.037	43.86
232.254	-40.11
232.472	29.52
232.689	41.81
232.907	13.14
233.125	35.67
233.342	50
233.56	27.48
233.777	45.91
233.995	-56.49
234.213	45.91
234.43	39.76
234.648	47.96
234.865	97.11
235.083	95.06
235.3	21.33
235.518	29.52
235.735	52.05
235.953	11.09
236.17	105.3
236.388	-9.39
236.605	101.2
236.822	-46.25
237.04	11.09
237.257	-19.63
237.475	19.29
237.692	25.43
237.909	-15.53
238.127	-17.58
238.344	72.53
238.562	-5.29
238.779	19.29
238.996	-7.34
239.214	21.33
239.431	29.52
239.648	84.82
239.865	-3.24
240.083	86.87
240.3	45.91
240.517	11.09
240.735	35.67
240.952	-13.48
241.169	78.68
241.386	-1.19
241.603	58.2
241.821	2.9
242.038	-5.29
242.255	33.62
242.472	54.1
242.689	-19.63
242.907	11.09
243.124	9.05
243.341	21.33
243.558	-27.82
243.775	-17.58
243.992	29.52
244.209	-13.48
244.426	2.9
244.643	97.11
244.86	0.85
245.078	9.05
245.295	39.76
245.512	23.38
245.729	-9.39
245.946	19.29
246.163	74.58
246.38	66.39
246.597	27.48
246.814	52.05
247.031	90.96
247.248	37.72
247.464	-5.29
247.681	-5.29
247.898	27.48
248.115	27.48
248.332	45.91
248.549	54.1
248.766	13.14
248.983	62.29
249.2	41.81
249.417	125.78
249.633	11.09
249.85	23.38
250.067	-29.87
250.284	148.31
250.501	-23.72
250.717	37.72
250.934	31.57
251.151	-31.91
251.368	103.25
251.585	33.62
251.801	41.81
252.018	27.48
252.235	35.67
252.451	-36.01
252.668	68.44
252.885	-15.53
253.102	-29.87
253.318	78.68
253.535	-3.24
253.752	68.44
253.968	-13.48
254.185	45.91
254.401	2.9
254.618	-3.24
254.835	56.15
255.051	52.05
255.268	25.43
255.484	9.05
255.701	56.15
255.917	86.87
256.134	21.33
256.351	78.68
256.567	9.05
256.784	39.76
257	21.33
257.217	-11.43
257.433	29.52
257.65	60.24
257.866	-17.58
258.082	13.14
258.299	33.62
258.515	76.63
258.732	-42.15
258.948	47.96
259.165	45.91
259.381	72.53
259.597	13.14
259.814	9.05
260.03	-31.91
260.246	45.91
260.463	29.52
260.679	37.72
260.895	43.86
261.112	95.06
261.328	-33.96
261.544	76.63
261.761	93.01
261.977	74.58
262.193	-15.53
262.409	11.09
262.626	11.09
262.842	60.24
263.058	45.91
263.274	80.72
263.49	27.48
263.707	72.53
263.923	13.14
264.139	82.77
264.355	-13.48
264.571	29.52
264.787	37.72
265.004	-29.87
265.22	4.95
265.436	27.48
265.652	21.33
265.868	31.57
266.084	23.38
266.3	-1.19
266.516	56.15
266.732	9.05
266.948	9.05
267.164	58.2
267.38	62.29
267.596	43.86
267.812	43.86
268.028	13.14
268.244	74.58
268.46	52.05
268.676	11.09
268.892	13.14
269.108	-1.19
269.324	72.53
269.54	-7.34
269.756	62.29
269.972	-1.19
270.188	0.85
270.403	13.14
270.619	35.67
270.835	19.29
271.051	2.9
271.267	19.29
271.483	35.67
271.698	47.96
271.914	84.82
272.13	95.06
272.346	97.11
272.562	9.05
272.777	17.24
272.993	-15.53
273.209	84.82
273.425	52.05
273.64	66.39
273.856	37.72
274.072	131.92
274.287	17.24
274.503	31.57
274.719	43.86
274.934	47.96
275.15	0.85
275.366	19.29
275.581	45.91
275.797	82.77
276.012	27.48
276.228	-1.19
276.444	62.29
276.659	25.43
276.875	-3.24
277.09	47.96
277.306	70.48
277.521	-7.34
277.737	35.67
277.952	52.05
278.168	54.1
278.383	13.14
278.599	68.44
278.814	25.43
279.03	50
279.245	101.2
279.461	58.2
279.676	27.48
279.892	86.87
280.107	11.09
280.322	50
280.538	62.29
280.753	19.29
280.969	-11.43
281.184	27.48
281.399	13.14
281.615	-23.72
281.83	25.43
282.045	72.53
282.26	52.05
282.476	2.9
282.691	50
282.906	15.19
283.122	41.81
283.337	-60.59
283.552	68.44
283.767	50
283.983	-38.06
284.198	47.96
284.413	9.05
284.628	-11.43
284.843	15.19
285.058	17.24
285.274	107.35
285.489	-19.63
285.704	84.82
285.919	37.72
286.134	-60.59
286.349	29.52
286.564	-29.87
286.779	-11.43
286.995	29.52
287.21	-21.67
287.425	105.3
287.64	45.91
287.855	0.85
288.07	39.76
288.285	21.33
288.5	-11.43
288.715	-13.48
288.93	68.44
289.145	50
289.36	-21.67
289.575	43.86
289.79	13.14
290.004	-1.19
290.219	9.05
290.434	52.05
290.649	17.24
290.864	19.29
291.079	11.09
291.294	29.52
291.509	11.09
291.724	25.43
291.938	80.72
292.153	25.43
292.368	29.52
292.583	78.68
292.798	-15.53
293.012	60.24
293.227	74.58
293.442	66.39
293.657	-54.44
293.871	11.09
294.086	60.24
294.301	7
294.516	43.86
294.73	43.86
294.945	58.2
295.16	82.77
295.374	25.43
295.589	-29.87
295.804	25.43
296.018	-13.48
296.233	45.91
296.447	111.44
296.662	54.1
296.877	66.39
297.091	109.4
297.306	-1.19
297.52	-19.63
297.735	31.57
297.949	-38.06
298.164	-3.24
298.378	101.2
298.593	15.19
298.807	4.95
299.022	39.76
299.236	107.35
299.451	64.34
299.665	33.62
299.88	58.2
300.094	19.29
300.309	109.4
300.523	-19.63
300.737	13.14
300.952	64.34
301.166	2.9
301.381	13.14
301.595	-5.29
301.809	15.19
302.024	64.34
302.238	-5.29
302.452	41.81
302.667	-5.29
302.881	74.58
303.095	15.19
303.309	64.34
303.524	39.76
303.738	25.43
303.952	-1.19
304.166	9.05
304.381	2.9
304.595	31.57
304.809	43.86
305.023	45.91
305.237	15.19
305.452	74.58
305.666	-1.19
305.88	19.29
306.094	45.91
306.308	62.29
306.522	-11.43
306.736	31.57
306.95	-5.29
307.164	4.95
307.379	68.44
307.593	64.34
307.807	27.48
308.021	17.24
308.235	-9.39
308.449	33.62
308.663	58.2
308.877	29.52
309.091	-9.39
309.305	31.57
309.519	-21.67
309.733	47.96
309.947	13.14
310.161	62.29
310.374	25.43
310.588	52.05
310.802	4.95
311.016	23.38
311.23	7
311.444	29.52
311.658	80.72
311.872	60.24
312.085	-15.53
312.299	37.72
312.513	64.34
312.727	13.14
312.941	72.53
313.154	-3.24
313.368	-33.96
313.582	101.2
313.796	0.85
314.009	54.1
314.223	78.68
314.437	37.72
314.651	60.24
314.864	13.14
315.078	39.76
315.292	60.24
315.505	-1.19
315.719	52.05
315.933	0.85
316.146	-5.29
316.36	39.76
316.573	84.82
316.787	-33.96
317.001	56.15
317.214	17.24
317.428	0.85
317.641	62.29
317.855	138.07
318.068	37.72
318.282	72.53
318.495	60.24
318.709	0.85
318.922	37.72
319.136	68.44
319.349	68.44
319.563	-11.43
319.776	-29.87
319.99	58.2
320.203	39.76
320.417	23.38
320.63	-3.24
320.843	-7.34
321.057	-48.3
321.27	-13.48
321.483	-56.49
321.697	0.85
321.91	-25.77
322.124	17.24
322.337	-15.53
322.55	13.14
322.763	-19.63
322.977	-42.15
323.19	19.29
323.403	19.29
323.617	31.57
323.83	-38.06
324.043	37.72
324.256	58.2
324.469	62.29
324.683	-9.39
324.896	27.48
325.109	95.06
325.322	11.09
325.535	-21.67
325.748	15.19
325.962	-5.29
326.175	2.9
326.388	9.05
326.601	39.76
326.814	23.38
327.027	11.09
327.24	64.34
327.453	43.86
327.666	35.67
327.879	66.39
328.092	99.16
328.305	133.97
328.518	62.29
328.731	35.67
328.944	9.05
329.157	66.39
329.37	33.62
329.583	2.9
329.796	88.92
330.009	-50.35
330.222	31.57
330.435	41.81
330.648	47.96
330.861	43.86
331.073	127.83
331.286	142.16
331.499	-21.67
331.712	13.14
331.925	-27.82
332.138	41.81
332.35	-1.19
332.563	4.95
332.776	-1.19
332.989	7
333.202	78.68
333.414	17.24
333.627	95.06
333.84	43.86
334.053	43.86
334.265	-29.87
334.478	-33.96
334.691	29.52
334.903	68.44
335.116	11.09
335.329	70.48
335.541	47.96
335.754	66.39
335.966	41.81
336.179	-21.67
336.392	2.9
336.604	64.34
336.817	52.05
337.029	70.48
337.242	-9.39
337.454	78.68
337.667	41.81
337.88	52.05
338.092	52.05
338.305	27.48
338.517	52.05
338.729	76.63
338.942	11.09
339.154	21.33
339.367	13.14
339.579	21.33
339.792	4.95
340.004	41.81
340.217	27.48
340.429	86.87
340.641	-17.58
340.854	-42.15
341.066	7
341.278	37.72
341.491	-13.48
341.703	-9.39
341.915	82.77
342.128	62.29
342.34	-33.96
342.552	43.86
342.764	-11.43
342.977	-1.19
343.189	107.35
343.401	54.1
343.613	33.62
343.826	-23.72
344.038	37.72
344.25	52.05
344.462	72.53
344.674	-7.34
344.886	35.67
345.099	9.05
345.311	-21.67
345.523	23.38
345.735	25.43
345.947	27.48
346.159	43.86
346.371	31.57
346.583	-9.39
346.795	103.25
347.007	33.62
347.219	144.21
347.431	-42.15
347.643	140.12
347.855	74.58
348.067	31.57
348.279	62.29
348.491	35.67
348.703	41.81
348.915	9.05
349.127	70.48
349.339	25.43
349.551	88.92
349.763	45.91
349.975	31.57
350.187	23.38
350.399	-13.48
350.61	99.16
350.822	43.86
351.034	68.44
351.246	50
351.458	11.09
351.669	80.72
351.881	15.19
352.093	47.96
352.305	74.58
352.517	-5.29
352.728	93.01
352.94	-11.43
353.152	66.39
353.363	29.52
353.575	47.96
353.787	66.39
353.999	60.24
354.21	80.72
354.422	39.76
354.633	70.48
354.845	13.14
355.057	-17.58
355.268	27.48
355.48	107.35
355.692	33.62
355.903	99.16
356.115	86.87
356.326	-1.19
356.538	33.62
356.749	115.54
356.961	9.05
357.172	-25.77
357.384	-1.19
357.595	21.33
357.807	35.67
358.018	-19.63
358.23	62.29
358.441	9.05
358.653	13.14
358.864	-36.01
359.075	62.29
359.287	0.85
359.498	101.2
359.709	54.1
359.921	54.1
360.132	33.62
360.344	111.44
360.555	45.91
360.766	11.09
360.977	90.96
361.189	74.58
361.4	52.05
361.611	90.96
361.823	66.39
362.034	121.68
362.245	43.86
362.456	64.34
362.667	72.53
362.879	19.29
363.09	-5.29
363.301	-27.82
363.512	-9.39
363.723	93.01
363.935	-50.35
364.146	-1.19
364.357	47.96
364.568	15.19
364.779	45.91
364.99	37.72
365.201	0.85
365.412	64.34
365.623	-13.48
365.834	62.29
366.045	9.05
366.256	86.87
366.467	93.01
366.678	121.68
366.889	-29.87
367.1	-31.91
367.311	29.52
367.522	-31.91
367.733	9.05
367.944	-42.15
368.155	64.34
368.366	35.67
368.577	60.24
368.788	52.05
368.999	52.05
369.209	58.2
369.42	90.96
369.631	78.68
369.842	23.38
370.053	35.67
370.264	25.43
370.474	125.78
370.685	-13.48
370.896	45.91
371.107	56.15
371.317	33.62
371.528	88.92
371.739	-17.58
371.95	72.53
372.16	64.34
372.371	2.9
372.582	-31.91
372.792	45.91
373.003	90.96
373.214	-3.24
373.424	-62.63
373.635	21.33
373.846	76.63
374.056	58.2
374.267	76.63
374.477	17.24
374.688	56.15
374.898	15.19
375.109	35.67
375.319	19.29
375.53	41.81
375.74	-1.19
375.951	54.1
376.161	93.01
376.372	68.44
376.582	101.2
376.793	-7.34
377.003	29.52
377.214	54.1
377.424	54.1
377.635	45.91
377.845	101.2
378.055	76.63
378.266	-3.24
378.476	-5.29
378.686	4.95
378.897	58.2
379.107	64.34
379.317	43.86
379.528	2.9
379.738	56.15
379.948	-64.68
380.158	93.01
380.369	47.96
380.579	62.29
380.789	31.57
380.999	62.29
381.21	50
381.42	101.2
381.63	2.9
381.84	129.88
382.05	13.14
382.261	72.53
382.471	-3.24
382.681	107.35
382.891	52.05
383.101	68.44
383.311	25.43
383.521	21.33
383.731	31.57
383.941	74.58
384.151	11.09
384.361	52.05
384.571	17.24
384.781	-3.24
384.991	33.62
385.201	95.06
385.411	33.62
385.621	62.29
385.831	64.34
386.041	62.29
386.251	82.77
386.461	113.49
386.671	99.16
386.881	35.67
387.091	25.43
387.301	45.91
387.511	21.33
387.72	-15.53
387.93	60.24
388.14	52.05
388.35	82.77
388.56	52.05
388.769	25.43
388.979	56.15
389.189	37.72
389.399	-9.39
389.609	25.43
389.818	50
390.028	-3.24
390.238	97.11
390.447	27.48
390.657	45.91
390.867	45.91
391.076	88.92
391.286	37.72
391.496	-13.48
391.705	97.11
391.915	54.1
392.125	58.2
392.334	35.67
392.544	101.2
392.753	95.06
392.963	25.43
393.172	45.91
393.382	23.38
393.591	82.77
393.801	50
394.01	47.96
394.22	86.87
394.429	80.72
394.639	68.44
394.848	80.72
395.058	88.92
395.267	56.15
395.477	90.96
395.686	37.72
395.895	64.34
396.105	39.76
396.314	70.48
396.524	144.21
396.733	121.68
396.942	33.62
397.152	29.52
397.361	234.32
397.57	101.2
397.78	29.52
397.989	101.2
398.198	95.06
398.407	93.01
398.617	133.97
398.826	84.82
399.035	105.3
399.244	2.9
399.453	101.2
399.663	27.48
399.872	74.58
400.081	25.43
400.29	138.07
400.499	74.58
400.708	86.87
400.917	68.44
401.127	107.35
401.336	154.45
401.545	93.01
401.754	109.4
401.963	105.3
402.172	35.67
402.381	111.44
402.59	101.2
402.799	105.3
403.008	209.75
403.217	56.15
403.426	74.58
403.635	121.68
403.844	131.92
404.053	72.53
404.262	97.11
404.471	111.44
404.68	109.4
404.888	131.92
405.097	95.06
405.306	70.48
405.515	158.55
405.724	164.69
405.933	68.44
406.142	101.2
406.35	199.51
406.559	176.98
406.768	131.92
406.977	185.17
407.185	97.11
407.394	168.79
407.603	140.12
407.812	158.55
408.02	179.03
408.229	105.3
408.438	111.44
408.646	183.12
408.855	176.98
409.064	242.51
409.272	228.18
409.481	236.37
409.69	199.51
409.898	291.66
410.107	238.42
410.315	187.22
410.524	279.38
410.733	269.14
410.941	291.66
411.15	254.8
411.358	267.09
411.567	297.81
411.775	301.9
411.984	275.28
412.192	293.71
412.401	344.91
412.609	353.1
412.818	459.6
413.026	361.3
413.234	330.58
413.443	420.69
413.651	375.63
413.86	412.5
414.068	402.26
414.276	455.5
414.485	453.45
414.693	451.41
414.901	559.95
415.11	535.37
415.318	551.76
415.526	555.85
415.734	498.51
415.943	613.2
416.151	621.39
416.359	619.34
416.567	678.73
416.776	635.72
416.984	691.02
417.192	699.21
417.4	627.53
417.608	750.41
417.817	777.03
418.025	803.66
418.233	910.15
418.441	897.86
418.649	869.19
418.857	916.3
419.065	918.34
419.273	861
419.481	1006.41
419.689	1063.75
419.897	1102.66
420.105	1078.08
420.313	1147.72
420.521	1186.63
420.729	1229.63
420.937	1182.53
421.145	1358.66
421.353	1356.61
421.561	1481.53
421.769	1389.38
421.977	1616.7
422.185	1510.21
422.393	1463.1
422.601	1690.43
422.809	1672
423.017	1682.24
423.224	1659.71
423.432	1878.84
423.64	1940.28
423.848	1915.7
424.056	1895.22
424.263	2089.78
424.471	2075.45
424.679	2159.41
424.887	2255.67
425.094	2247.48
425.302	2276.15
425.51	2478.9
425.718	2433.84
425.925	2468.66
426.133	2544.43
426.341	2640.69
426.548	2714.41
426.756	2853.67
426.964	2894.63
427.171	3195.68
427.379	3173.16
427.586	3134.25
427.794	3308.32
428.001	3451.68
428.209	3500.83
428.417	3388.19
428.624	3830.55
428.832	3758.88
429.039	3781.4
429.247	3824.41
429.454	3926.81
429.662	4354.83
429.869	4160.28
430.076	4336.4
430.284	4213.53
430.491	4301.59
430.699	4737.81
430.906	4700.94
431.114	4846.35
431.321	4995.85
431.528	5083.91
431.736	5229.32
431.943	5528.32
432.15	5452.55
432.358	5425.92
432.565	5806.84
432.772	5769.98
432.979	5954.3
433.187	6181.62
433.394	6265.59
433.601	6619.89
433.808	6761.2
434.016	6683.38
434.223	6912.75
434.43	7265
434.637	7197.42
434.844	7654.11
435.052	7619.3
435.259	7652.06
435.466	7815.9
435.673	7582.43
435.88	8018.65
436.087	8614.61
436.294	8555.22
436.501	8325.85
436.708	8424.15
436.915	8753.87
437.122	9226.95
437.329	9196.23
437.537	9493.19
437.743	9695.94
437.95	9706.18
438.157	10103.48
438.364	10613.43
438.571	10457.78
438.778	10496.69
438.985	11690.66
439.192	10902.19
439.399	11264.68
439.606	11113.13
439.813	11696.8
440.02	12458.65
440.227	12243.61
440.433	12137.12
440.64	12655.25
440.847	12315.29
441.054	12831.38
441.261	13560.45
441.467	13519.5
441.674	13920.9
441.881	14164.61
442.088	14119.55
442.294	14072.45
442.501	14484.09
442.708	14676.6
442.914	15266.41
443.121	15610.47
443.328	15395.43
443.534	16521.82
443.741	15829.6
443.948	15868.52
444.154	16933.46
444.361	16898.64
444.568	16751.19
444.774	17173.07
444.981	17234.51
445.187	17623.62
445.394	18618.94
445.6	18283.07
445.807	20210.21
446.013	19393.07
446.22	19507.76
446.426	20267.55
446.633	20474.4
446.839	21281.3
447.046	20185.63
447.252	21301.78
447.459	21326.35
447.665	21342.74
447.871	22217.22
448.078	22913.53
448.284	22039.05
448.491	22659.58
448.697	23423.47
448.903	23564.78
449.11	24025.57
449.316	23398.9
449.522	23894.5
449.728	24730.08
449.935	24588.77
450.141	24908.25
450.347	25448.91
450.553	24426.98
450.76	25039.32
450.966	25547.22
451.172	25156.05
451.378	25985.48
451.584	25453.01
451.791	26108.36
451.997	26102.22
452.203	26460.61
452.409	26221
452.615	26153.41
452.821	25088.47
453.027	24902.11
453.233	26350.02
453.44	25188.82
453.646	25643.47
453.852	25657.81
454.058	25977.29
454.264	25453.01
454.47	25614.8
454.676	25024.98
454.882	25850.31
455.088	23546.35
455.294	23912.94
455.5	24279.52
455.705	24682.97
455.911	23546.35
456.117	23308.79
456.323	22950.39
456.529	21395.98
456.735	22626.81
456.941	21950.98
457.147	21662.22
457.352	20865.56
457.558	20742.68
457.764	20671
457.97	20468.25
458.176	20132.39
458.381	19862.05
458.587	18815.54
458.793	19061.3
458.999	18092.61
459.204	19190.32
459.41	18655.8
459.616	17461.83
459.821	17492.55
460.027	17404.49
460.233	16908.88
460.438	16271.97
460.644	16302.68
460.85	15473.26
461.055	15231.6
461.261	15235.69
461.466	14408.31
461.672	13980.29
461.878	14654.07
462.083	13830.79
462.289	13464.2
462.494	13499.02
462.7	12989.07
462.905	12432.02
463.111	13085.33
463.316	12841.62
463.522	12835.47
463.727	12735.12
463.932	12774.03
464.138	12733.08
464.343	12874.38
464.549	12409.5
464.754	12649.11
464.959	12776.08
465.165	12679.83
465.37	11862.69
465.575	11737.76
465.781	12067.49
465.986	12257.95
466.191	11756.19
466.397	11492.01
466.602	10937.01
466.807	11348.65
467.012	11229.87
467.218	11309.74
467.423	11102.89
467.628	11276.97
467.833	11764.39
468.038	11248.3
468.244	11039.4
468.449	11403.94
