Data from USB4F104151__186__13-59-10-430.txt Node

Date: Thu Mar 13 13:59:10 EDT 2025
User: louis
Spectrometer: USB4F10415
Trigger mode: 4
Integration Time (sec): 1.000000E-2
Scans to average: 1
Electric dark correction enabled: true
Nonlinearity correction enabled: false
Boxcar width: 0
XAxis mode: Wavelengths
Number of Pixels in Spectrum: 3648
>>>>>Begin Spectral Data<<<<<
178.204	-108.37
178.424	-108.37
178.644	-108.37
178.864	-51.03
179.084	-53.08
179.304	-24.4
179.524	-3.93
179.744	-22.36
179.964	39.08
180.184	20.65
180.404	-48.98
180.624	-5.97
180.844	-20.31
181.064	-20.31
181.283	12.46
181.503	18.6
181.723	55.47
181.943	-53.08
182.163	-20.31
182.383	77.99
182.602	14.51
182.822	-28.5
183.042	-28.5
183.262	59.56
183.482	37.03
183.701	-44.88
183.921	18.6
184.141	45.23
184.361	-48.98
184.58	-30.55
184.8	-8.02
185.02	-12.12
185.239	-57.17
185.459	-3.93
185.679	28.84
185.898	-61.27
186.118	12.46
186.338	-67.41
186.557	59.56
186.777	-75.6
186.997	45.23
187.216	61.61
187.436	-38.74
187.655	-28.5
187.875	-28.5
188.095	-34.64
188.314	39.08
188.534	34.99
188.753	-5.97
188.973	6.31
189.192	30.89
189.412	-12.12
189.631	26.79
189.851	-30.55
190.07	-20.31
190.29	-10.07
190.509	8.36
190.729	-40.79
190.948	22.7
191.168	-12.12
191.387	12.46
191.607	22.7
191.826	57.51
192.045	26.79
192.265	12.46
192.484	0.17
192.704	26.79
192.923	6.31
193.142	102.57
193.362	-38.74
193.581	77.99
193.8	24.75
194.02	4.27
194.239	-3.93
194.458	-14.17
194.678	-91.99
194.897	41.13
195.116	14.51
195.335	-3.93
195.555	-12.12
195.774	-38.74
195.993	51.37
196.212	0.17
196.432	-40.79
196.651	41.13
196.87	55.47
197.089	63.66
197.308	20.65
197.528	39.08
197.747	-42.84
197.966	-28.5
198.185	22.7
198.404	12.46
198.623	-89.94
198.842	-20.31
199.062	-20.31
199.281	53.42
199.5	6.31
199.719	-44.88
199.938	37.03
200.157	-53.08
200.376	34.99
200.595	-16.21
200.814	39.08
201.033	-26.45
201.252	-20.31
201.471	-5.97
201.69	-77.65
201.909	39.08
202.128	24.75
202.347	59.56
202.566	24.75
202.785	-69.46
203.004	-8.02
203.223	86.19
203.442	37.03
203.661	20.65
203.879	-5.97
204.098	24.75
204.317	-8.02
204.536	14.51
204.755	18.6
204.974	12.46
205.193	-61.27
205.411	28.84
205.63	-24.4
205.849	45.23
206.068	-1.88
206.287	-3.93
206.505	75.95
206.724	-12.12
206.943	-10.07
207.162	51.37
207.381	22.7
207.599	100.52
207.818	59.56
208.037	65.71
208.255	14.51
208.474	-16.21
208.693	30.89
208.911	100.52
209.13	41.13
209.349	24.75
209.567	-65.36
209.786	-22.36
210.005	-14.17
210.223	-69.46
210.442	-26.45
210.661	0.17
210.879	-51.03
211.098	2.22
211.316	43.18
211.535	-12.12
211.753	-12.12
211.972	16.55
212.191	2.22
212.409	-1.88
212.628	-48.98
212.846	22.7
213.065	51.37
213.283	-32.6
213.502	-36.69
213.72	18.6
213.938	-20.31
214.157	24.75
214.375	30.89
214.594	30.89
214.812	14.51
215.031	53.42
215.249	8.36
215.467	30.89
215.686	6.31
215.904	18.6
216.122	-30.55
216.341	-18.26
216.559	39.08
216.778	22.7
216.996	51.37
217.214	61.61
217.432	-16.21
217.651	0.17
217.869	-38.74
218.087	55.47
218.306	28.84
218.524	55.47
218.742	-8.02
218.96	45.23
219.179	4.27
219.397	6.31
219.615	47.27
219.833	77.99
220.051	-26.45
220.27	-16.21
220.488	-12.12
220.706	131.24
220.924	-22.36
221.142	92.33
221.36	10.41
221.578	84.14
221.796	-18.26
222.015	-81.75
222.233	69.8
222.451	61.61
222.669	-1.88
222.887	-73.56
223.105	-16.21
223.323	10.41
223.541	16.55
223.759	41.13
223.977	-5.97
224.195	51.37
224.413	-28.5
224.631	14.51
224.849	55.47
225.067	-14.17
225.285	-10.07
225.503	-42.84
225.721	45.23
225.939	16.55
226.157	92.33
226.375	-14.17
226.592	-10.07
226.81	-14.17
227.028	32.94
227.246	98.47
227.464	88.23
227.682	-22.36
227.9	4.27
228.117	8.36
228.335	63.66
228.553	2.22
228.771	47.27
228.989	4.27
229.206	-24.4
229.424	59.56
229.642	-16.21
229.86	53.42
230.077	39.08
230.295	37.03
230.513	41.13
230.731	-44.88
230.948	49.32
231.166	59.56
231.384	-46.93
231.601	-18.26
231.819	-20.31
232.037	86.19
232.254	18.6
232.472	6.31
232.689	-32.6
232.907	-30.55
233.125	-26.45
233.342	-18.26
233.56	-12.12
233.777	22.7
233.995	-32.6
234.213	-10.07
234.43	6.31
234.648	12.46
234.865	-34.64
235.083	-28.5
235.3	-16.21
235.518	12.46
235.735	10.41
235.953	28.84
236.17	-20.31
236.388	-28.5
236.605	-3.93
236.822	-16.21
237.04	4.27
237.257	12.46
237.475	24.75
237.692	-20.31
237.909	22.7
238.127	-8.02
238.344	69.8
238.562	37.03
238.779	-32.6
238.996	94.38
239.214	63.66
239.431	2.22
239.648	-73.56
239.865	14.51
240.083	51.37
240.3	55.47
240.517	20.65
240.735	0.17
240.952	4.27
241.169	45.23
241.386	51.37
241.603	37.03
241.821	24.75
242.038	-1.88
242.255	59.56
242.472	34.99
242.689	55.47
242.907	12.46
243.124	8.36
243.341	-26.45
243.558	-38.74
243.775	-14.17
243.992	-67.41
244.209	37.03
244.426	-34.64
244.643	-12.12
244.86	20.65
245.078	-30.55
245.295	-26.45
245.512	20.65
245.729	-55.12
245.946	22.7
246.163	12.46
246.38	-71.51
246.597	16.55
246.814	-24.4
247.031	32.94
247.248	110.76
247.464	37.03
247.681	-36.69
247.898	30.89
248.115	32.94
248.332	-38.74
248.549	-5.97
248.766	53.42
248.983	10.41
249.2	2.22
249.417	69.8
249.633	-14.17
249.85	-55.12
250.067	24.75
250.284	-16.21
250.501	-69.46
250.717	32.94
250.934	55.47
251.151	67.75
251.368	-48.98
251.585	61.61
251.801	10.41
252.018	8.36
252.235	16.55
252.451	-59.22
252.668	-20.31
252.885	53.42
253.102	45.23
253.318	32.94
253.535	0.17
253.752	-69.46
253.968	-10.07
254.185	98.47
254.401	12.46
254.618	2.22
254.835	-3.93
255.051	28.84
255.268	39.08
255.484	67.75
255.701	-12.12
255.917	65.71
256.134	-12.12
256.351	-5.97
256.567	41.13
256.784	14.51
257	77.99
257.217	102.57
257.433	20.65
257.65	0.17
257.866	24.75
258.082	47.27
258.299	12.46
258.515	-12.12
258.732	47.27
258.948	77.99
259.165	14.51
259.381	-32.6
259.597	-26.45
259.814	39.08
260.03	8.36
260.246	-18.26
260.463	41.13
260.679	102.57
260.895	6.31
261.112	24.75
261.328	-26.45
261.544	6.31
261.761	18.6
261.977	32.94
262.193	2.22
262.409	30.89
262.626	-32.6
262.842	-89.94
263.058	65.71
263.274	80.04
263.49	55.47
263.707	20.65
263.923	37.03
264.139	-12.12
264.355	-77.65
264.571	71.85
264.787	-20.31
265.004	49.32
265.22	-8.02
265.436	-42.84
265.652	8.36
265.868	65.71
266.084	30.89
266.3	57.51
266.516	-14.17
266.732	-14.17
266.948	61.61
267.164	-44.88
267.38	37.03
267.596	12.46
267.812	73.9
268.028	-18.26
268.244	20.65
268.46	-36.69
268.676	26.79
268.892	45.23
269.108	-46.93
269.324	12.46
269.54	6.31
269.756	61.61
269.972	10.41
270.188	-18.26
270.403	-28.5
270.619	-42.84
270.835	24.75
271.051	-57.17
271.267	-63.32
271.483	2.22
271.698	-20.31
271.914	6.31
272.13	-20.31
272.346	-26.45
272.562	22.7
272.777	-8.02
272.993	6.31
273.209	24.75
273.425	45.23
273.64	14.51
273.856	32.94
274.072	-34.64
274.287	55.47
274.503	-10.07
274.719	12.46
274.934	57.51
275.15	-34.64
275.366	30.89
275.581	-28.5
275.797	-8.02
276.012	-40.79
276.228	32.94
276.444	-73.56
276.659	-34.64
276.875	-46.93
277.09	4.27
277.306	-14.17
277.521	-16.21
277.737	49.32
277.952	-16.21
278.168	4.27
278.383	26.79
278.599	16.55
278.814	39.08
279.03	45.23
279.245	20.65
279.461	28.84
279.676	32.94
279.892	2.22
280.107	65.71
280.322	77.99
280.538	47.27
280.753	-51.03
280.969	-1.88
281.184	69.8
281.399	-65.36
281.615	6.31
281.83	41.13
282.045	-5.97
282.26	-10.07
282.476	24.75
282.691	63.66
282.906	-12.12
283.122	30.89
283.337	-46.93
283.552	-42.84
283.767	12.46
283.983	4.27
284.198	14.51
284.413	-48.98
284.628	0.17
284.843	57.51
285.058	-36.69
285.274	20.65
285.489	12.46
285.704	100.52
285.919	-3.93
286.134	2.22
286.349	12.46
286.564	-26.45
286.779	69.8
286.995	-26.45
287.21	-28.5
287.425	4.27
287.64	-36.69
287.855	22.7
288.07	2.22
288.285	45.23
288.5	59.56
288.715	28.84
288.93	-12.12
289.145	22.7
289.36	10.41
289.575	-26.45
289.79	24.75
290.004	-38.74
290.219	71.85
290.434	28.84
290.649	-32.6
290.864	86.19
291.079	30.89
291.294	63.66
291.509	47.27
291.724	4.27
291.938	4.27
292.153	10.41
292.368	12.46
292.583	30.89
292.798	16.55
293.012	-12.12
293.227	37.03
293.442	22.7
293.657	37.03
293.871	80.04
294.086	10.41
294.301	61.61
294.516	-14.17
294.73	-16.21
294.945	-53.08
295.16	16.55
295.374	39.08
295.589	82.09
295.804	-32.6
296.018	32.94
296.233	26.79
296.447	34.99
296.662	12.46
296.877	-10.07
297.091	71.85
297.306	16.55
297.52	14.51
297.735	-12.12
297.949	18.6
298.164	0.17
298.378	-55.12
298.593	28.84
298.807	20.65
299.022	102.57
299.236	4.27
299.451	4.27
299.665	-48.98
299.88	77.99
300.094	90.28
300.309	6.31
300.523	49.32
300.737	-20.31
300.952	10.41
301.166	90.28
301.381	-1.88
301.595	-1.88
301.809	26.79
302.024	-40.79
302.238	-12.12
302.452	71.85
302.667	-42.84
302.881	63.66
303.095	34.99
303.309	34.99
303.524	55.47
303.738	-12.12
303.952	-24.4
304.166	84.14
304.381	10.41
304.595	10.41
304.809	18.6
305.023	14.51
305.237	34.99
305.452	22.7
305.666	-34.64
305.88	59.56
306.094	39.08
306.308	22.7
306.522	14.51
306.736	32.94
306.95	-26.45
307.164	20.65
307.379	80.04
307.593	16.55
307.807	-40.79
308.021	55.47
308.235	26.79
308.449	57.51
308.663	-38.74
308.877	30.89
309.091	2.22
309.305	-48.98
309.519	26.79
309.733	59.56
309.947	30.89
310.161	55.47
310.374	69.8
310.588	0.17
310.802	82.09
311.016	45.23
311.23	-32.6
311.444	4.27
311.658	-16.21
311.872	-32.6
312.085	53.42
312.299	63.66
312.513	75.95
312.727	12.46
312.941	18.6
313.154	45.23
313.368	69.8
313.582	-53.08
313.796	-87.89
314.009	28.84
314.223	26.79
314.437	67.75
314.651	55.47
314.864	-34.64
315.078	4.27
315.292	-12.12
315.505	24.75
315.719	-16.21
315.933	69.8
316.146	-3.93
316.36	75.95
316.573	16.55
316.787	-12.12
317.001	14.51
317.214	-42.84
317.428	4.27
317.641	-32.6
317.855	20.65
318.068	-3.93
318.282	10.41
318.495	-12.12
318.709	69.8
318.922	20.65
319.136	80.04
319.349	-10.07
319.563	-61.27
319.776	80.04
319.99	20.65
320.203	4.27
320.417	-22.36
320.63	28.84
320.843	16.55
321.057	12.46
321.27	28.84
321.483	37.03
321.697	34.99
321.91	-10.07
322.124	-8.02
322.337	-44.88
322.55	2.22
322.763	69.8
322.977	69.8
323.19	55.47
323.403	20.65
323.617	-1.88
323.83	57.51
324.043	-26.45
324.256	-26.45
324.469	-69.46
324.683	67.75
324.896	65.71
325.109	20.65
325.322	-79.7
325.535	82.09
325.748	-8.02
325.962	28.84
326.175	-5.97
326.388	34.99
326.601	102.57
326.814	10.41
327.027	12.46
327.24	30.89
327.453	8.36
327.666	16.55
327.879	20.65
328.092	0.17
328.305	16.55
328.518	49.32
328.731	63.66
328.944	30.89
329.157	22.7
329.37	57.51
329.583	8.36
329.796	30.89
330.009	24.75
330.222	-3.93
330.435	63.66
330.648	53.42
330.861	43.18
331.073	86.19
331.286	-36.69
331.499	49.32
331.712	-12.12
331.925	22.7
332.138	-26.45
332.35	18.6
332.563	-12.12
332.776	6.31
332.989	14.51
333.202	84.14
333.414	-57.17
333.627	65.71
333.84	-16.21
334.053	28.84
334.265	-67.41
334.478	53.42
334.691	20.65
334.903	0.17
335.116	-44.88
335.329	28.84
335.541	4.27
335.754	63.66
335.966	8.36
336.179	0.17
336.392	96.43
336.604	-26.45
336.817	0.17
337.029	6.31
337.242	-16.21
337.454	8.36
337.667	4.27
337.88	100.52
338.092	14.51
338.305	39.08
338.517	53.42
338.729	55.47
338.942	8.36
339.154	-18.26
339.367	84.14
339.579	-24.4
339.792	-20.31
340.004	69.8
340.217	47.27
340.429	-3.93
340.641	-10.07
340.854	-8.02
341.066	-24.4
341.278	67.75
341.491	59.56
341.703	63.66
341.915	26.79
342.128	12.46
342.34	18.6
342.552	73.9
342.764	-30.55
342.977	20.65
343.189	-36.69
343.401	-26.45
343.613	12.46
343.826	-65.36
344.038	20.65
344.25	61.61
344.462	61.61
344.674	-55.12
344.886	73.9
345.099	49.32
345.311	-1.88
345.523	86.19
345.735	26.79
345.947	-14.17
346.159	12.46
346.371	47.27
346.583	59.56
346.795	112.81
347.007	39.08
347.219	14.51
347.431	-18.26
347.643	4.27
347.855	49.32
348.067	77.99
348.279	2.22
348.491	24.75
348.703	59.56
348.915	2.22
349.127	61.61
349.339	30.89
349.551	-36.69
349.763	73.9
349.975	6.31
350.187	2.22
350.399	43.18
350.61	30.89
350.822	6.31
351.034	-18.26
351.246	6.31
351.458	39.08
351.669	16.55
351.881	45.23
352.093	8.36
352.305	94.38
352.517	30.89
352.728	61.61
352.94	-26.45
353.152	-8.02
353.363	18.6
353.575	39.08
353.787	63.66
353.999	22.7
354.21	90.28
354.422	61.61
354.633	16.55
354.845	22.7
355.057	41.13
355.268	-3.93
355.48	-34.64
355.692	-22.36
355.903	59.56
356.115	75.95
356.326	0.17
356.538	55.47
356.749	28.84
356.961	-1.88
357.172	6.31
357.384	22.7
357.595	30.89
357.807	-53.08
358.018	4.27
358.23	-5.97
358.441	47.27
358.653	41.13
358.864	-5.97
359.075	49.32
359.287	6.31
359.498	63.66
359.709	-16.21
359.921	4.27
360.132	12.46
360.344	4.27
360.555	20.65
360.766	61.61
360.977	12.46
361.189	55.47
361.4	8.36
361.611	47.27
361.823	12.46
362.034	37.03
362.245	28.84
362.456	71.85
362.667	12.46
362.879	39.08
363.09	-3.93
363.301	49.32
363.512	59.56
363.723	45.23
363.935	53.42
364.146	-24.4
364.357	-24.4
364.568	10.41
364.779	88.23
364.99	8.36
365.201	69.8
365.412	39.08
365.623	24.75
365.834	-81.75
366.045	61.61
366.256	14.51
366.467	22.7
366.678	30.89
366.889	-40.79
367.1	71.85
367.311	94.38
367.522	0.17
367.733	22.7
367.944	22.7
368.155	12.46
368.366	0.17
368.577	88.23
368.788	-3.93
368.999	-20.31
369.209	98.47
369.42	4.27
369.631	133.29
369.842	34.99
370.053	24.75
370.264	123.05
370.474	-18.26
370.685	86.19
370.896	86.19
371.107	37.03
371.317	127.14
371.528	51.37
371.739	63.66
371.95	28.84
372.16	34.99
372.371	57.51
372.582	-30.55
372.792	20.65
373.003	-8.02
373.214	32.94
373.424	-51.03
373.635	41.13
373.846	14.51
374.056	20.65
374.267	92.33
374.477	49.32
374.688	14.51
374.898	-16.21
375.109	0.17
375.319	102.57
375.53	-5.97
375.74	49.32
375.951	28.84
376.161	37.03
376.372	30.89
376.582	49.32
376.793	-69.46
377.003	45.23
377.214	22.7
377.424	6.31
377.635	26.79
377.845	0.17
378.055	47.27
378.266	30.89
378.476	63.66
378.686	53.42
378.897	14.51
379.107	6.31
379.317	24.75
379.528	24.75
379.738	16.55
379.948	16.55
380.158	12.46
380.369	51.37
380.579	6.31
380.789	-48.98
380.999	88.23
381.21	80.04
381.42	77.99
381.63	55.47
381.84	80.04
382.05	49.32
382.261	77.99
382.471	-40.79
382.681	45.23
382.891	39.08
383.101	55.47
383.311	34.99
383.521	63.66
383.731	39.08
383.941	-3.93
384.151	16.55
384.361	73.9
384.571	6.31
384.781	80.04
384.991	75.95
385.201	51.37
385.411	98.47
385.621	71.85
385.831	57.51
386.041	61.61
386.251	47.27
386.461	69.8
386.671	6.31
386.881	20.65
387.091	-14.17
387.301	32.94
387.511	49.32
387.72	47.27
387.93	24.75
388.14	12.46
388.35	34.99
388.56	88.23
388.769	-20.31
388.979	90.28
389.189	-3.93
389.399	77.99
389.609	63.66
389.818	-3.93
390.028	-18.26
390.238	37.03
390.447	61.61
390.657	67.75
390.867	-8.02
391.076	39.08
391.286	24.75
391.496	14.51
391.705	16.55
391.915	55.47
392.125	18.6
392.334	16.55
392.544	75.95
392.753	45.23
392.963	28.84
393.172	41.13
393.382	-12.12
393.591	90.28
393.801	86.19
394.01	65.71
394.22	43.18
394.429	53.42
394.639	-14.17
394.848	86.19
395.058	30.89
395.267	4.27
395.477	98.47
395.686	123.05
395.895	14.51
396.105	77.99
396.314	24.75
396.524	47.27
396.733	30.89
396.942	82.09
397.152	6.31
397.361	55.47
397.57	69.8
397.78	37.03
397.989	100.52
398.198	20.65
398.407	22.7
398.617	55.47
398.826	77.99
399.035	69.8
399.244	94.38
399.453	73.9
399.663	96.43
399.872	22.7
400.081	10.41
400.29	45.23
400.499	98.47
400.708	16.55
400.917	104.62
401.127	18.6
401.336	20.65
401.545	88.23
401.754	51.37
401.963	67.75
402.172	59.56
402.381	39.08
402.59	55.47
402.799	63.66
403.008	75.95
403.217	147.62
403.426	90.28
403.635	94.38
403.844	45.23
404.053	45.23
404.262	67.75
404.471	65.71
404.68	135.34
404.888	53.42
405.097	73.9
405.306	129.19
405.515	41.13
405.724	55.47
405.933	77.99
406.142	90.28
406.35	131.24
406.559	96.43
406.768	147.62
406.977	80.04
407.185	129.19
407.394	102.57
407.603	94.38
407.812	174.25
408.02	176.3
408.229	159.91
408.438	166.06
408.646	114.86
408.855	151.72
409.064	168.1
409.272	184.49
409.481	168.1
409.69	166.06
409.898	174.25
410.107	149.67
410.315	184.49
410.524	127.14
410.733	209.06
410.941	198.82
411.15	180.39
411.358	235.69
411.567	219.3
411.775	254.12
411.984	258.21
412.192	266.41
412.401	260.26
412.609	274.6
412.818	282.79
413.026	358.57
413.234	282.79
413.443	338.09
413.651	286.89
413.86	340.13
414.068	352.42
414.276	393.38
414.485	344.23
414.693	290.98
414.901	448.68
415.11	372.9
415.318	393.38
415.526	469.16
415.734	407.72
415.943	499.88
416.151	475.3
416.359	508.07
416.567	518.31
416.776	516.26
416.984	569.51
417.192	536.74
417.4	532.64
417.608	602.27
417.817	665.76
418.025	610.47
418.233	667.81
418.441	632.99
418.649	776.35
418.857	721.06
419.065	735.39
419.273	696.48
419.481	813.21
419.689	811.17
419.897	917.66
420.105	880.8
420.313	880.8
420.521	985.24
420.729	927.9
420.937	950.43
421.145	1101.98
421.353	1044.63
421.561	1177.75
421.769	1134.75
421.977	1216.66
422.185	1228.95
422.393	1335.45
422.601	1380.5
422.809	1282.2
423.017	1298.58
423.224	1446.04
423.432	1413.27
423.64	1372.31
423.848	1677.46
424.056	1601.68
424.263	1609.87
424.471	1687.7
424.679	1650.83
424.887	1861.77
425.094	1849.49
425.302	1816.72
425.51	1927.31
425.718	1945.74
425.925	1953.93
426.133	2027.66
426.341	2232.46
426.548	2369.67
426.756	2273.42
426.964	2254.98
427.171	2515.08
427.379	2578.56
427.586	2560.13
427.794	2580.61
428.001	2709.63
428.209	2973.82
428.417	2701.44
428.624	3014.78
428.832	2928.77
429.039	2867.33
429.247	3059.84
429.454	3178.62
429.662	3481.72
429.869	3309.69
430.076	3526.77
430.284	3483.77
430.491	3606.64
430.699	3659.89
430.906	3754.1
431.114	3760.24
431.321	3954.8
431.528	4071.53
431.736	4327.53
431.943	4356.2
432.15	4356.2
432.358	4427.88
432.565	4745.31
432.772	4485.22
432.979	4808.8
433.187	4921.44
433.394	4943.97
433.601	5177.44
433.808	5476.44
434.016	5208.16
434.223	5464.15
434.43	5742.68
434.637	5824.59
434.844	6088.78
435.052	6180.94
435.259	6035.53
435.466	6150.22
435.673	6166.6
435.88	6402.12
436.087	6791.24
436.294	6871.11
436.501	6572.1
436.708	6785.09
436.915	7018.56
437.122	7342.14
437.329	7237.69
437.537	7551.03
437.743	7727.16
437.95	7608.37
438.157	7917.62
438.364	8419.37
438.571	8386.6
438.778	8312.88
438.985	9027.62
439.192	8669.22
439.399	8900.64
439.606	8976.42
439.813	9396.25
440.02	9717.78
440.227	9721.88
440.433	9639.96
440.64	10082.32
440.847	9799.7
441.054	10082.32
441.261	10625.03
441.467	10770.44
441.674	10721.29
441.881	11177.98
442.088	11216.9
442.294	11268.09
442.501	11476.99
442.708	11499.52
442.914	12195.82
443.121	12736.49
443.328	12165.11
443.534	13328.35
443.741	12795.88
443.948	12754.92
444.154	13608.92
444.361	13381.6
444.568	13471.71
444.774	13699.03
444.981	13783
445.187	14346.19
445.394	14776.27
445.6	14528.46
445.807	15976.37
446.013	15265.73
446.22	15620.03
446.426	16089.01
446.633	16187.32
446.839	16955.3
447.046	16048.05
447.252	16924.58
447.459	17143.72
447.665	17002.41
447.871	17584.03
448.078	18544.53
448.284	17551.26
448.491	17856.41
448.697	18970.51
448.903	19191.69
449.11	19093.38
449.316	18794.38
449.522	19441.54
449.728	19728.25
449.935	19904.38
450.141	19767.17
450.347	20537.2
450.553	19582.85
450.76	19982.2
450.966	20664.18
451.172	20365.17
451.378	21073.77
451.584	20397.94
451.791	21032.81
451.997	20959.08
452.203	21135.21
452.409	21100.39
452.615	21466.98
452.821	20649.84
453.027	20074.36
453.233	21217.13
453.44	20125.56
453.646	20594.54
453.852	20604.78
454.058	21034.86
454.264	20750.19
454.47	20926.32
454.676	20219.77
454.882	20961.13
455.088	19128.2
455.294	19365.76
455.5	19765.12
455.705	20055.93
455.911	19355.52
456.117	18960.27
456.323	18435.99
456.529	17598.37
456.735	18489.23
456.941	18010.01
457.147	17768.35
457.352	17219.49
457.558	16789.42
457.764	16955.3
457.97	16773.03
458.176	16347.06
458.381	16232.37
458.587	15779.77
458.793	15474.62
458.999	14946.25
459.204	15691.71
459.41	15085.51
459.616	14391.25
459.821	14098.39
460.027	14286.8
460.233	13809.62
460.438	13350.88
460.644	13606.88
460.85	12812.26
461.055	12685.29
461.261	12619.75
461.466	11665.4
461.672	11458.56
461.878	12251.12
462.083	11472.89
462.289	11188.22
462.494	11128.83
462.7	10692.62
462.905	10268.69
463.111	10622.98
463.316	10770.44
463.522	10410
463.727	10432.52
463.932	10512.39
464.138	10328.08
464.343	10549.26
464.549	10080.27
464.754	10377.23
464.959	10315.79
465.165	10258.45
465.37	9877.52
465.575	9500.7
465.781	9922.58
465.986	9916.44
466.191	9381.92
466.397	9388.06
466.602	8914.98
466.807	9310.24
467.012	9304.09
467.218	9306.14
467.423	9078.82
467.628	9287.71
467.833	9578.52
468.038	9330.72
