Data from USB4F104151__182__13-59-05-750.txt Node

Date: Thu Mar 13 13:59:05 EDT 2025
User: louis
Spectrometer: USB4F10415
Trigger mode: 4
Integration Time (sec): 1.000000E-2
Scans to average: 1
Electric dark correction enabled: true
Nonlinearity correction enabled: false
Boxcar width: 0
XAxis mode: Wavelengths
Number of Pixels in Spectrum: 3648
>>>>>Begin Spectral Data<<<<<
178.204	0.68
178.424	0.68
178.644	0.68
178.864	-109.91
179.084	-40.28
179.304	76.46
179.524	2.73
179.744	8.87
179.964	45.74
180.184	0.68
180.404	-71
180.624	19.11
180.844	-1.37
181.064	-58.71
181.283	33.45
181.503	-38.23
181.723	-17.75
181.943	2.73
182.163	78.51
182.383	19.11
182.602	60.07
182.822	88.75
183.042	-3.41
183.262	-17.75
183.482	15.02
183.701	29.35
183.921	-34.13
184.141	-17.75
184.361	78.51
184.58	49.83
184.8	58.03
185.02	6.83
185.239	31.4
185.459	41.64
185.679	33.45
185.898	31.4
186.118	6.83
186.338	-17.75
186.557	51.88
186.777	101.03
186.997	33.45
187.216	53.93
187.436	66.22
187.655	-5.46
187.875	55.98
188.095	-5.46
188.314	0.68
188.534	-34.13
188.753	37.55
188.973	55.98
189.192	-9.56
189.412	-19.8
189.631	15.02
189.851	0.68
190.07	86.7
190.29	-9.56
190.509	64.17
190.729	55.98
190.948	-27.99
191.168	41.64
191.387	53.93
191.607	-99.67
191.826	-1.37
192.045	-48.47
192.265	47.79
192.484	47.79
192.704	-5.46
192.923	45.74
193.142	94.89
193.362	39.59
193.581	29.35
193.8	80.55
194.02	-1.37
194.239	23.21
194.458	64.17
194.678	15.02
194.897	15.02
195.116	55.98
195.335	15.02
195.555	12.97
195.774	80.55
195.993	45.74
196.212	-15.7
196.432	49.83
196.651	-1.37
196.87	-21.85
197.089	39.59
197.308	8.87
197.528	23.21
197.747	41.64
197.966	31.4
198.185	55.98
198.404	-1.37
198.623	47.79
198.842	39.59
199.062	45.74
199.281	43.69
199.5	15.02
199.719	31.4
199.938	-13.65
200.157	15.02
200.376	25.26
200.595	25.26
200.814	47.79
201.033	-50.52
201.252	17.07
201.471	10.92
201.69	55.98
201.909	43.69
202.128	60.07
202.347	0.68
202.566	70.31
202.785	113.32
203.004	19.11
203.223	55.98
203.442	37.55
203.661	115.37
203.879	-38.23
204.098	41.64
204.317	2.73
204.536	23.21
204.755	82.6
204.974	82.6
205.193	-46.42
205.411	39.59
205.63	-19.8
205.849	-11.61
206.068	21.16
206.287	-15.7
206.505	29.35
206.724	37.55
206.943	-19.8
207.162	53.93
207.381	0.68
207.599	23.21
207.818	-42.32
208.037	39.59
208.255	-7.51
208.474	-23.89
208.693	-66.9
208.911	43.69
209.13	-25.94
209.349	-21.85
209.567	39.59
209.786	58.03
210.005	15.02
210.223	-7.51
210.442	-23.89
210.661	25.26
210.879	4.78
211.098	10.92
211.316	55.98
211.535	8.87
211.753	55.98
211.972	-5.46
212.191	66.22
212.409	58.03
212.628	23.21
212.846	21.16
213.065	6.83
213.283	96.94
213.502	17.07
213.72	68.27
213.938	21.16
214.157	25.26
214.375	37.55
214.594	-27.99
214.812	2.73
215.031	17.07
215.249	80.55
215.467	2.73
215.686	43.69
215.904	12.97
216.122	21.16
216.341	-5.46
216.559	25.26
216.778	55.98
216.996	47.79
217.214	25.26
217.432	8.87
217.651	-17.75
217.869	27.31
218.087	-58.71
218.306	35.5
218.524	37.55
218.742	33.45
218.96	-17.75
219.179	10.92
219.397	27.31
219.615	37.55
219.833	6.83
220.051	-30.04
220.27	103.08
220.488	29.35
220.706	15.02
220.924	19.11
221.142	45.74
221.36	31.4
221.578	15.02
221.796	21.16
222.015	10.92
222.233	31.4
222.451	88.75
222.669	4.78
222.887	-7.51
223.105	-15.7
223.323	23.21
223.541	6.83
223.759	49.83
223.977	15.02
224.195	31.4
224.413	-21.85
224.631	45.74
224.849	92.84
225.067	74.41
225.285	-5.46
225.503	33.45
225.721	-17.75
225.939	10.92
226.157	-21.85
226.375	148.14
226.592	-1.37
226.81	96.94
227.028	-1.37
227.246	-15.7
227.464	33.45
227.682	64.17
227.9	-38.23
228.117	107.18
228.335	27.31
228.553	8.87
228.771	64.17
228.989	55.98
229.206	15.02
229.424	25.26
229.642	8.87
229.86	72.36
230.077	23.21
230.295	41.64
230.513	86.7
230.731	29.35
230.948	66.22
231.166	64.17
231.384	8.87
231.601	62.12
231.819	29.35
232.037	62.12
232.254	43.69
232.472	4.78
232.689	27.31
232.907	15.02
233.125	-1.37
233.342	25.26
233.56	-60.76
233.777	-3.41
233.995	43.69
234.213	88.75
234.43	-11.61
234.648	-32.08
234.865	47.79
235.083	-46.42
235.3	-46.42
235.518	43.69
235.735	10.92
235.953	19.11
236.17	23.21
236.388	60.07
236.605	-38.23
236.822	66.22
237.04	23.21
237.257	10.92
237.475	49.83
237.692	62.12
237.909	27.31
238.127	23.21
238.344	41.64
238.562	35.5
238.779	19.11
238.996	45.74
239.214	-3.41
239.431	10.92
239.648	64.17
239.865	-34.13
240.083	-50.52
240.3	33.45
240.517	-34.13
240.735	55.98
240.952	-11.61
241.169	39.59
241.386	55.98
241.603	19.11
241.821	47.79
242.038	43.69
242.255	-68.95
242.472	12.97
242.689	55.98
242.907	-50.52
243.124	62.12
243.341	10.92
243.558	51.88
243.775	47.79
243.992	76.46
244.209	74.41
244.426	70.31
244.643	6.83
244.86	-19.8
245.078	15.02
245.295	33.45
245.512	49.83
245.729	33.45
245.946	31.4
246.163	-44.37
246.38	-15.7
246.597	-7.51
246.814	-7.51
247.031	23.21
247.248	80.55
247.464	41.64
247.681	74.41
247.898	33.45
248.115	-15.7
248.332	-46.42
248.549	23.21
248.766	70.31
248.983	-17.75
249.2	39.59
249.417	80.55
249.633	33.45
249.85	41.64
250.067	58.03
250.284	55.98
250.501	23.21
250.717	17.07
250.934	0.68
251.151	33.45
251.368	-25.94
251.585	-27.99
251.801	-5.46
252.018	-52.56
252.235	76.46
252.451	10.92
252.668	2.73
252.885	37.55
253.102	12.97
253.318	-7.51
253.535	45.74
253.752	-5.46
253.968	-9.56
254.185	-42.32
254.401	23.21
254.618	51.88
254.835	-19.8
255.051	74.41
255.268	23.21
255.484	33.45
255.701	-15.7
255.917	10.92
256.134	-25.94
256.351	-11.61
256.567	-32.08
256.784	49.83
257	55.98
257.217	72.36
257.433	45.74
257.65	127.66
257.866	31.4
258.082	-1.37
258.299	62.12
258.515	12.97
258.732	33.45
258.948	-23.89
259.165	41.64
259.381	33.45
259.597	39.59
259.814	60.07
260.03	-1.37
260.246	17.07
260.463	8.87
260.679	60.07
260.895	6.83
261.112	92.84
261.328	41.64
261.544	15.02
261.761	74.41
261.977	121.51
262.193	15.02
262.409	72.36
262.626	-19.8
262.842	31.4
263.058	-21.85
263.274	-27.99
263.49	37.55
263.707	31.4
263.923	2.73
264.139	10.92
264.355	33.45
264.571	51.88
264.787	-44.37
265.004	19.11
265.22	53.93
265.436	49.83
265.652	41.64
265.868	60.07
266.084	39.59
266.3	103.08
266.516	-30.04
266.732	53.93
266.948	70.31
267.164	33.45
267.38	96.94
267.596	66.22
267.812	39.59
268.028	33.45
268.244	72.36
268.46	-5.46
268.676	19.11
268.892	37.55
269.108	-23.89
269.324	8.87
269.54	27.31
269.756	96.94
269.972	-46.42
270.188	88.75
270.403	10.92
270.619	-21.85
270.835	31.4
271.051	92.84
271.267	19.11
271.483	33.45
271.698	80.55
271.914	60.07
272.13	51.88
272.346	47.79
272.562	-3.41
272.777	6.83
272.993	-7.51
273.209	39.59
273.425	33.45
273.64	27.31
273.856	53.93
274.072	23.21
274.287	23.21
274.503	80.55
274.719	88.75
274.934	-9.56
275.15	-34.13
275.366	0.68
275.581	-56.66
275.797	35.5
276.012	-60.76
276.228	29.35
276.444	8.87
276.659	-30.04
276.875	49.83
277.09	29.35
277.306	51.88
277.521	39.59
277.737	-17.75
277.952	60.07
278.168	49.83
278.383	39.59
278.599	4.78
278.814	25.26
279.03	0.68
279.245	31.4
279.461	62.12
279.676	96.94
279.892	94.89
280.107	43.69
280.322	6.83
280.538	29.35
280.753	19.11
280.969	23.21
281.184	-17.75
281.399	23.21
281.615	6.83
281.83	74.41
282.045	66.22
282.26	-1.37
282.476	64.17
282.691	6.83
282.906	105.13
283.122	82.6
283.337	41.64
283.552	15.02
283.767	-5.46
283.983	31.4
284.198	-30.04
284.413	64.17
284.628	-52.56
284.843	101.03
285.058	10.92
285.274	66.22
285.489	-5.46
285.704	25.26
285.919	66.22
286.134	53.93
286.349	0.68
286.564	55.98
286.779	58.03
286.995	-5.46
287.21	47.79
287.425	64.17
287.64	-42.32
287.855	96.94
288.07	35.5
288.285	74.41
288.5	62.12
288.715	47.79
288.93	15.02
289.145	-5.46
289.36	-34.13
289.575	58.03
289.79	51.88
290.004	47.79
290.219	107.18
290.434	23.21
290.649	19.11
290.864	35.5
291.079	31.4
291.294	55.98
291.509	15.02
291.724	-9.56
291.938	0.68
292.153	78.51
292.368	8.87
292.583	6.83
292.798	88.75
293.012	10.92
293.227	86.7
293.442	23.21
293.657	49.83
293.871	80.55
294.086	-17.75
294.301	80.55
294.516	82.6
294.73	29.35
294.945	-25.94
295.16	35.5
295.374	37.55
295.589	15.02
295.804	-5.46
296.018	94.89
296.233	-21.85
296.447	78.51
296.662	66.22
296.877	-23.89
297.091	94.89
297.306	53.93
297.52	-1.37
297.735	21.16
297.949	-11.61
298.164	55.98
298.378	25.26
298.593	33.45
298.807	2.73
299.022	-56.66
299.236	55.98
299.451	72.36
299.665	-7.51
299.88	121.51
300.094	25.26
300.309	58.03
300.523	35.5
300.737	23.21
300.952	76.46
301.166	17.07
301.381	78.51
301.595	72.36
301.809	41.64
302.024	43.69
302.238	27.31
302.452	82.6
302.667	43.69
302.881	53.93
303.095	25.26
303.309	35.5
303.524	49.83
303.738	-7.51
303.952	33.45
304.166	39.59
304.381	23.21
304.595	31.4
304.809	-17.75
305.023	33.45
305.237	37.55
305.452	43.69
305.666	47.79
305.88	15.02
306.094	21.16
306.308	2.73
306.522	-54.61
306.736	66.22
306.95	68.27
307.164	45.74
307.379	60.07
307.593	105.13
307.807	-7.51
308.021	33.45
308.235	-5.46
308.449	8.87
308.663	58.03
308.877	25.26
309.091	29.35
309.305	64.17
309.519	98.99
309.733	43.69
309.947	-5.46
310.161	41.64
310.374	84.65
310.588	80.55
310.802	6.83
311.016	49.83
311.23	39.59
311.444	6.83
311.658	72.36
311.872	4.78
312.085	66.22
312.299	35.5
312.513	58.03
312.727	31.4
312.941	29.35
313.154	96.94
313.368	55.98
313.582	74.41
313.796	68.27
314.009	6.83
314.223	74.41
314.437	43.69
314.651	0.68
314.864	-42.32
315.078	51.88
315.292	-17.75
315.505	15.02
315.719	-64.85
315.933	15.02
316.146	-7.51
316.36	-32.08
316.573	51.88
316.787	60.07
317.001	-5.46
317.214	15.02
317.428	-17.75
317.641	37.55
317.855	111.27
318.068	17.07
318.282	92.84
318.495	23.21
318.709	0.68
318.922	37.55
319.136	-13.65
319.349	58.03
319.563	-32.08
319.776	55.98
319.99	-1.37
320.203	55.98
320.417	10.92
320.63	39.59
320.843	47.79
321.057	-11.61
321.27	39.59
321.483	70.31
321.697	88.75
321.91	60.07
322.124	10.92
322.337	43.69
322.55	2.73
322.763	58.03
322.977	49.83
323.19	-1.37
323.403	39.59
323.617	-1.37
323.83	121.51
324.043	-1.37
324.256	-9.56
324.469	33.45
324.683	45.74
324.896	17.07
325.109	39.59
325.322	-79.19
325.535	96.94
325.748	68.27
325.962	90.79
326.175	27.31
326.388	51.88
326.601	25.26
326.814	68.27
327.027	4.78
327.24	92.84
327.453	-9.56
327.666	51.88
327.879	43.69
328.092	-1.37
328.305	68.27
328.518	82.6
328.731	-30.04
328.944	64.17
329.157	27.31
329.37	148.14
329.583	-17.75
329.796	19.11
330.009	4.78
330.222	39.59
330.435	35.5
330.648	84.65
330.861	27.31
331.073	27.31
331.286	39.59
331.499	51.88
331.712	31.4
331.925	58.03
332.138	101.03
332.35	21.16
332.563	47.79
332.776	-3.41
332.989	17.07
333.202	35.5
333.414	39.59
333.627	25.26
333.84	-25.94
334.053	15.02
334.265	47.79
334.478	43.69
334.691	17.07
334.903	41.64
335.116	33.45
335.329	39.59
335.541	117.42
335.754	70.31
335.966	15.02
336.179	43.69
336.392	-1.37
336.604	82.6
336.817	72.36
337.029	117.42
337.242	31.4
337.454	53.93
337.667	-30.04
337.88	72.36
338.092	68.27
338.305	17.07
338.517	80.55
338.729	49.83
338.942	45.74
339.154	96.94
339.367	25.26
339.579	74.41
339.792	39.59
340.004	51.88
340.217	-17.75
340.429	55.98
340.641	66.22
340.854	55.98
341.066	60.07
341.278	49.83
341.491	17.07
341.703	-1.37
341.915	27.31
342.128	-34.13
342.34	98.99
342.552	53.93
342.764	27.31
342.977	-3.41
343.189	27.31
343.401	33.45
343.613	0.68
343.826	45.74
344.038	-19.8
344.25	41.64
344.462	-32.08
344.674	47.79
344.886	96.94
345.099	74.41
345.311	-38.23
345.523	60.07
345.735	10.92
345.947	76.46
346.159	-38.23
346.371	10.92
346.583	66.22
346.795	101.03
347.007	0.68
347.219	96.94
347.431	55.98
347.643	17.07
347.855	25.26
348.067	78.51
348.279	39.59
348.491	84.65
348.703	123.56
348.915	49.83
349.127	127.66
349.339	51.88
349.551	-1.37
349.763	25.26
349.975	84.65
350.187	19.11
350.399	53.93
350.61	82.6
350.822	-25.94
351.034	74.41
351.246	33.45
351.458	117.42
351.669	10.92
351.881	43.69
352.093	98.99
352.305	60.07
352.517	27.31
352.728	37.55
352.94	125.61
353.152	62.12
353.363	43.69
353.575	12.97
353.787	6.83
353.999	6.83
354.21	70.31
354.422	31.4
354.633	-1.37
354.845	49.83
355.057	0.68
355.268	101.03
355.48	10.92
355.692	39.59
355.903	55.98
356.115	82.6
356.326	21.16
356.538	21.16
356.749	19.11
356.961	37.55
357.172	33.45
357.384	25.26
357.595	162.47
357.807	33.45
358.018	33.45
358.23	64.17
358.441	35.5
358.653	6.83
358.864	4.78
359.075	60.07
359.287	0.68
359.498	41.64
359.709	74.41
359.921	-11.61
360.132	15.02
360.344	94.89
360.555	31.4
360.766	45.74
360.977	70.31
361.189	15.02
361.4	23.21
361.611	53.93
361.823	64.17
362.034	49.83
362.245	21.16
362.456	53.93
362.667	6.83
362.879	53.93
363.09	-9.56
363.301	53.93
363.512	-5.46
363.723	49.83
363.935	45.74
364.146	82.6
364.357	-30.04
364.568	76.46
364.779	41.64
364.99	41.64
365.201	37.55
365.412	80.55
365.623	-9.56
365.834	60.07
366.045	45.74
366.256	45.74
366.467	60.07
366.678	60.07
366.889	-19.8
367.1	-27.99
367.311	82.6
367.522	41.64
367.733	72.36
367.944	23.21
368.155	74.41
368.366	-1.37
368.577	88.75
368.788	47.79
368.999	6.83
369.209	17.07
369.42	37.55
369.631	76.46
369.842	6.83
370.053	58.03
370.264	62.12
370.474	55.98
370.685	109.22
370.896	94.89
371.107	19.11
371.317	35.5
371.528	62.12
371.739	58.03
371.95	74.41
372.16	121.51
372.371	19.11
372.582	-54.61
372.792	33.45
373.003	0.68
373.214	68.27
373.424	107.18
373.635	66.22
373.846	74.41
374.056	68.27
374.267	47.79
374.477	33.45
374.688	15.02
374.898	41.64
375.109	82.6
375.319	107.18
375.53	96.94
375.74	43.69
375.951	76.46
376.161	68.27
376.372	103.08
376.582	21.16
376.793	82.6
377.003	12.97
377.214	45.74
377.424	27.31
377.635	27.31
377.845	60.07
378.055	80.55
378.266	-30.04
378.476	109.22
378.686	76.46
378.897	53.93
379.107	47.79
379.317	88.75
379.528	105.13
379.738	70.31
379.948	64.17
380.158	68.27
380.369	33.45
380.579	125.61
380.789	72.36
380.999	2.73
381.21	19.11
381.42	74.41
381.63	2.73
381.84	23.21
382.05	39.59
382.261	66.22
382.471	68.27
382.681	35.5
382.891	29.35
383.101	45.74
383.311	29.35
383.521	53.93
383.731	103.08
383.941	66.22
384.151	31.4
384.361	107.18
384.571	90.79
384.781	6.83
384.991	119.46
385.201	78.51
385.411	51.88
385.621	23.21
385.831	19.11
386.041	74.41
386.251	74.41
386.461	141.99
386.671	-25.94
386.881	76.46
387.091	35.5
387.301	17.07
387.511	80.55
387.72	86.7
387.93	80.55
388.14	68.27
388.35	-13.65
388.56	60.07
388.769	51.88
388.979	66.22
389.189	55.98
389.399	51.88
389.609	-21.85
389.818	12.97
390.028	80.55
390.238	109.22
390.447	64.17
390.657	121.51
390.867	25.26
391.076	68.27
391.286	39.59
391.496	55.98
391.705	47.79
391.915	88.75
392.125	84.65
392.334	105.13
392.544	47.79
392.753	88.75
392.963	17.07
393.172	98.99
393.382	68.27
393.591	129.7
393.801	39.59
394.01	148.14
394.22	74.41
394.429	113.32
394.639	74.41
394.848	98.99
395.058	31.4
395.267	131.75
395.477	94.89
395.686	37.55
395.895	84.65
396.105	82.6
396.314	58.03
396.524	49.83
396.733	107.18
396.942	131.75
397.152	133.8
397.361	98.99
397.57	72.36
397.78	78.51
397.989	115.37
398.198	107.18
398.407	84.65
398.617	105.13
398.826	88.75
399.035	168.62
399.244	80.55
399.453	146.09
399.663	107.18
399.872	105.13
400.081	45.74
400.29	121.51
400.499	58.03
400.708	76.46
400.917	144.04
401.127	109.22
401.336	88.75
401.545	152.23
401.754	88.75
401.963	125.61
402.172	39.59
402.381	125.61
402.59	139.94
402.799	164.52
403.008	96.94
403.217	66.22
403.426	115.37
403.635	141.99
403.844	55.98
404.053	164.52
404.262	105.13
404.471	185
404.68	150.18
404.888	158.38
405.097	113.32
405.306	156.33
405.515	139.94
405.724	166.57
405.933	164.52
406.142	141.99
406.35	168.62
406.559	215.72
406.768	168.62
406.977	203.43
407.185	182.95
407.394	246.44
407.603	166.57
407.812	209.58
408.02	201.38
408.229	213.67
408.438	240.29
408.646	193.19
408.855	211.62
409.064	262.82
409.272	203.43
409.481	262.82
409.69	287.4
409.898	268.97
410.107	324.26
410.315	262.82
410.524	309.93
410.733	346.79
410.941	334.5
411.15	336.55
411.358	301.73
411.567	400.04
411.775	326.31
411.984	322.21
412.192	428.71
412.401	428.71
412.609	461.48
412.818	418.47
413.026	453.28
413.234	488.1
413.443	506.53
413.651	524.96
413.86	533.15
414.068	549.54
414.276	506.53
414.485	608.93
414.693	547.49
414.901	719.52
415.11	635.55
415.318	684.7
415.526	674.46
415.734	721.57
415.943	678.56
416.151	830.11
416.359	768.67
416.567	821.92
416.776	770.72
416.984	860.83
417.192	909.98
417.4	879.26
417.608	893.6
417.817	942.75
418.025	899.74
418.233	1055.39
418.441	1082.01
418.649	1120.92
418.857	1186.46
419.065	1190.55
419.273	1196.7
419.481	1208.98
419.689	1235.61
419.897	1325.72
420.105	1487.51
420.313	1338.01
420.521	1530.52
420.729	1479.32
420.937	1530.52
421.145	1598.1
421.353	1632.91
421.561	1620.63
421.769	1759.89
421.977	1829.52
422.185	1823.37
422.393	2003.6
422.601	2103.95
422.809	2048.65
423.017	2054.8
423.224	2171.53
423.432	2265.74
423.64	2247.3
423.848	2445.96
424.056	2294.41
424.263	2605.7
424.471	2599.55
424.679	2558.6
424.887	2757.25
425.094	2749.06
425.302	2912.89
425.51	2976.38
425.718	2937.47
425.925	2998.91
426.133	3146.36
426.341	3357.3
426.548	3601.01
426.756	3584.63
426.964	3566.2
427.171	3783.28
427.379	3986.03
427.586	3914.35
427.794	3955.31
428.001	4233.83
428.209	4424.3
428.417	4401.77
428.624	4596.32
428.832	4688.48
429.039	4602.47
429.247	4717.15
429.454	5030.49
429.662	5384.79
429.869	4999.77
430.076	5413.46
430.284	5180
430.491	5466.71
430.699	5825.11
430.906	5778
431.114	5839.44
431.321	6122.06
431.528	6171.21
431.736	6486.6
431.943	6826.56
432.15	6709.83
432.358	6853.19
432.565	7111.23
432.772	7170.62
432.979	7352.89
433.187	7758.39
433.394	7514.68
433.601	8047.15
433.808	8210.99
434.016	8153.65
434.223	8438.31
434.43	8878.63
434.637	8718.89
434.844	9245.21
435.052	9286.17
435.259	9323.04
435.466	9572.89
435.673	9378.33
435.88	10230.29
436.087	10805.77
436.294	10598.92
436.501	10267.15
436.708	10576.39
436.915	10906.12
437.122	11215.36
437.329	11262.46
437.537	11790.84
437.743	12016.12
437.95	11854.33
438.157	12415.47
438.364	12851.69
438.571	12810.73
438.778	12882.41
438.985	13961.69
439.192	13443.55
439.399	14225.87
439.606	13457.89
439.813	14449.1
440.02	15331.78
440.227	14991.81
440.433	14977.48
440.64	15315.39
440.847	15423.94
441.054	15772.09
441.261	16654.76
441.467	16345.52
441.674	16859.56
441.881	17389.99
442.088	17494.43
442.294	17258.92
442.501	17889.69
442.708	18233.75
442.914	18653.58
443.121	19538.3
443.328	19032.46
443.534	20253.05
443.741	19616.13
443.948	19523.97
444.154	20996.46
444.361	20697.45
444.568	20842.86
444.774	21029.23
444.981	21565.79
445.187	21539.17
445.394	22663.5
445.6	22565.2
445.807	24473.91
446.013	23431.49
446.22	23869.76
446.426	24869.17
446.633	25272.62
446.839	26046.75
447.046	24807.73
447.252	26317.08
447.459	25997.6
447.665	26491.16
447.871	27293.96
448.078	28498.17
448.284	27027.73
448.491	27996.42
448.697	29217
448.903	29593.83
449.11	29622.5
449.316	28969.2
449.522	29511.91
449.728	30793.94
449.935	30671.06
450.141	30869.72
450.347	31723.72
450.553	30458.07
450.76	30470.36
450.966	31824.07
451.172	31633.61
451.378	32626.87
451.584	31615.18
451.791	32329.92
451.997	32516.28
452.203	33030.32
452.409	33173.68
452.615	32991.41
452.821	31504.59
453.027	31379.66
453.233	33003.7
453.44	31420.62
453.646	31776.97
453.852	31975.62
454.058	32544.95
454.264	31451.34
454.47	32168.13
454.676	31361.23
454.882	32563.39
455.088	29864.16
455.294	29743.33
455.5	30660.82
455.705	31025.36
455.911	30025.95
456.117	29307.12
456.323	28965.1
456.529	27171.08
456.735	28547.32
456.941	27863.3
457.147	27228.43
457.352	26255.64
457.558	26028.32
457.764	26169.63
457.97	25809.18
458.176	25112.88
458.381	24910.13
458.587	23923.01
458.793	23945.53
458.999	22845.77
459.204	24467.77
459.41	23568.71
459.616	22018.39
459.821	22145.37
460.027	22315.35
460.233	21772.64
460.438	20623.73
460.644	20816.24
460.85	19714.43
461.055	19519.87
461.261	19472.77
461.466	18149.78
461.672	17537.44
461.878	19171.72
462.083	17822.11
462.289	17422.75
462.494	17090.98
462.7	16402.86
462.905	16163.25
463.111	16480.69
463.316	16601.52
463.522	16396.72
463.727	16210.36
463.932	16148.92
464.138	16271.79
464.343	16181.68
464.549	15555.01
464.754	16239.03
464.959	15919.54
465.165	15915.45
465.37	15212.99
465.575	14883.27
465.781	15335.87
465.986	15643.07
466.191	15047.11
466.397	14858.7
466.602	14057.94
466.807	14516.69
467.012	14461.39
467.218	14639.56
467.423	14264.78
467.628	14299.6
467.833	14891.46
