Data from USB4F104151__99__13-54-38-489.txt Node

Date: Thu Mar 13 13:54:38 EDT 2025
User: louis
Spectrometer: USB4F10415
Trigger mode: 4
Integration Time (sec): 1.000000E-2
Scans to average: 1
Electric dark correction enabled: true
Nonlinearity correction enabled: false
Boxcar width: 0
XAxis mode: Wavelengths
Number of Pixels in Spectrum: 3648
>>>>>Begin Spectral Data<<<<<
178.204	-13.48
178.424	-13.48
178.644	-13.48
178.864	-64.68
179.084	-1.19
179.304	62.29
179.524	-15.53
179.744	15.19
179.964	-21.67
180.184	-9.39
180.404	-5.29
180.624	-21.67
180.844	-44.2
181.064	39.76
181.283	9.05
181.503	-3.24
181.723	-5.29
181.943	-95.4
182.163	17.24
182.383	64.34
182.602	68.44
182.822	58.2
183.042	50
183.262	15.19
183.482	7
183.701	-13.48
183.921	31.57
184.141	19.29
184.361	76.63
184.58	21.33
184.8	-38.06
185.02	50
185.239	39.76
185.459	-9.39
185.679	82.77
185.898	-21.67
186.118	66.39
186.338	0.85
186.557	27.48
186.777	-5.29
186.997	35.67
187.216	60.24
187.436	-23.72
187.655	60.24
187.875	35.67
188.095	31.57
188.314	47.96
188.534	56.15
188.753	25.43
188.973	9.05
189.192	23.38
189.412	64.34
189.631	62.29
189.851	56.15
190.07	93.01
190.29	23.38
190.509	15.19
190.729	9.05
190.948	-9.39
191.168	56.15
191.387	-25.77
191.607	-9.39
191.826	11.09
192.045	-40.11
192.265	-19.63
192.484	-36.01
192.704	0.85
192.923	25.43
193.142	45.91
193.362	52.05
193.581	-7.34
193.8	-9.39
194.02	41.81
194.239	72.53
194.458	74.58
194.678	47.96
194.897	23.38
195.116	50
195.335	19.29
195.555	35.67
195.774	15.19
195.993	19.29
196.212	-13.48
196.432	-19.63
196.651	43.86
196.87	11.09
197.089	111.44
197.308	70.48
197.528	15.19
197.747	2.9
197.966	-81.07
198.185	47.96
198.404	7
198.623	17.24
198.842	-11.43
199.062	80.72
199.281	21.33
199.5	72.53
199.719	13.14
199.938	68.44
200.157	29.52
200.376	-38.06
200.595	-38.06
200.814	-42.15
201.033	58.2
201.252	78.68
201.471	-9.39
201.69	-66.73
201.909	-25.77
202.128	2.9
202.347	-3.24
202.566	17.24
202.785	-11.43
203.004	9.05
203.223	11.09
203.442	15.19
203.661	-42.15
203.879	88.92
204.098	52.05
204.317	74.58
204.536	31.57
204.755	56.15
204.974	-42.15
205.193	-5.29
205.411	41.81
205.63	68.44
205.849	70.48
206.068	-23.72
206.287	23.38
206.505	27.48
206.724	39.76
206.943	17.24
207.162	86.87
207.381	29.52
207.599	31.57
207.818	31.57
208.037	47.96
208.255	58.2
208.474	21.33
208.693	70.48
208.911	54.1
209.13	33.62
209.349	31.57
209.567	15.19
209.786	33.62
210.005	7
210.223	13.14
210.442	-33.96
210.661	99.16
210.879	21.33
211.098	-33.96
211.316	62.29
211.535	23.38
211.753	123.73
211.972	99.16
212.191	72.53
212.409	-42.15
212.628	21.33
212.846	70.48
213.065	109.4
213.283	-21.67
213.502	13.14
213.72	-13.48
213.938	88.92
214.157	41.81
214.375	27.48
214.594	35.67
214.812	15.19
215.031	62.29
215.249	80.72
215.467	-31.91
215.686	64.34
215.904	-72.87
216.122	-31.91
216.341	70.48
216.559	-29.87
216.778	62.29
216.996	-1.19
217.214	47.96
217.432	13.14
217.651	19.29
217.869	13.14
218.087	39.76
218.306	41.81
218.524	-7.34
218.742	37.72
218.96	25.43
219.179	60.24
219.397	9.05
219.615	29.52
219.833	15.19
220.051	52.05
220.27	-1.19
220.488	-36.01
220.706	60.24
220.924	21.33
221.142	58.2
221.36	43.86
221.578	64.34
221.796	41.81
222.015	60.24
222.233	15.19
222.451	50
222.669	-40.11
222.887	56.15
223.105	-25.77
223.323	15.19
223.541	70.48
223.759	23.38
223.977	58.2
224.195	50
224.413	0.85
224.631	45.91
224.849	-5.29
225.067	97.11
225.285	29.52
225.503	84.82
225.721	50
225.939	27.48
226.157	-7.34
226.375	86.87
226.592	13.14
226.81	0.85
227.028	21.33
227.246	84.82
227.464	4.95
227.682	15.19
227.9	11.09
228.117	25.43
228.335	47.96
228.553	23.38
228.771	-11.43
228.989	60.24
229.206	90.96
229.424	11.09
229.642	-19.63
229.86	13.14
230.077	-9.39
230.295	43.86
230.513	-5.29
230.731	-15.53
230.948	39.76
231.166	62.29
231.384	101.2
231.601	60.24
231.819	35.67
232.037	60.24
232.254	9.05
232.472	-52.39
232.689	17.24
232.907	60.24
233.125	-50.35
233.342	50
233.56	-64.68
233.777	50
233.995	-3.24
234.213	-13.48
234.43	-1.19
234.648	-3.24
234.865	39.76
235.083	97.11
235.3	-11.43
235.518	7
235.735	37.72
235.953	56.15
236.17	-27.82
236.388	113.49
236.605	64.34
236.822	74.58
237.04	37.72
237.257	11.09
237.475	7
237.692	41.81
237.909	0.85
238.127	-25.77
238.344	76.63
238.562	-31.91
238.779	-21.67
238.996	0.85
239.214	27.48
239.431	31.57
239.648	84.82
239.865	70.48
240.083	33.62
240.3	-46.25
240.517	35.67
240.735	54.1
240.952	54.1
241.169	58.2
241.386	13.14
241.603	45.91
241.821	35.67
242.038	31.57
242.255	35.67
242.472	45.91
242.689	45.91
242.907	88.92
243.124	144.21
243.341	37.72
243.558	-7.34
243.775	68.44
243.992	-1.19
244.209	-1.19
244.426	50
244.643	7
244.86	-7.34
245.078	0.85
245.295	-3.24
245.512	2.9
245.729	-21.67
245.946	4.95
246.163	11.09
246.38	0.85
246.597	25.43
246.814	7
247.031	-15.53
247.248	72.53
247.464	29.52
247.681	-19.63
247.898	82.77
248.115	64.34
248.332	-40.11
248.549	62.29
248.766	111.44
248.983	146.26
249.2	15.19
249.417	17.24
249.633	41.81
249.85	74.58
250.067	17.24
250.284	-1.19
250.501	25.43
250.717	0.85
250.934	62.29
251.151	111.44
251.368	31.57
251.585	11.09
251.801	29.52
252.018	-13.48
252.235	76.63
252.451	-31.91
252.668	-7.34
252.885	68.44
253.102	60.24
253.318	9.05
253.535	-19.63
253.752	4.95
253.968	9.05
254.185	37.72
254.401	58.2
254.618	-13.48
254.835	35.67
255.051	-42.15
255.268	68.44
255.484	66.39
255.701	41.81
255.917	41.81
256.134	115.54
256.351	64.34
256.567	-23.72
256.784	31.57
257	27.48
257.217	41.81
257.433	21.33
257.65	25.43
257.866	0.85
258.082	-15.53
258.299	-21.67
258.515	4.95
258.732	2.9
258.948	-50.35
259.165	21.33
259.381	29.52
259.597	43.86
259.814	9.05
260.03	62.29
260.246	70.48
260.463	2.9
260.679	25.43
260.895	39.76
261.112	72.53
261.328	-7.34
261.544	19.29
261.761	-5.29
261.977	7
262.193	39.76
262.409	62.29
262.626	-33.96
262.842	11.09
263.058	4.95
263.274	-9.39
263.49	-64.68
263.707	43.86
263.923	68.44
264.139	78.68
264.355	78.68
264.571	13.14
264.787	43.86
265.004	62.29
265.22	66.39
265.436	-33.96
265.652	15.19
265.868	82.77
266.084	50
266.3	88.92
266.516	-7.34
266.732	7
266.948	68.44
267.164	64.34
267.38	-21.67
267.596	7
267.812	-7.34
268.028	-7.34
268.244	-54.44
268.46	-50.35
268.676	21.33
268.892	-1.19
269.108	-40.11
269.324	23.38
269.54	-21.67
269.756	-5.29
269.972	50
270.188	-79.02
270.403	9.05
270.619	37.72
270.835	88.92
271.051	-17.58
271.267	-31.91
271.483	17.24
271.698	2.9
271.914	37.72
272.13	-54.44
272.346	60.24
272.562	21.33
272.777	43.86
272.993	39.76
273.209	78.68
273.425	33.62
273.64	72.53
273.856	25.43
274.072	-1.19
274.287	37.72
274.503	64.34
274.719	19.29
274.934	-27.82
275.15	-23.72
275.366	84.82
275.581	64.34
275.797	64.34
276.012	60.24
276.228	45.91
276.444	52.05
276.659	60.24
276.875	-9.39
277.09	15.19
277.306	-17.58
277.521	80.72
277.737	33.62
277.952	-17.58
278.168	7
278.383	119.64
278.599	86.87
278.814	72.53
279.03	11.09
279.245	45.91
279.461	52.05
279.676	27.48
279.892	72.53
280.107	39.76
280.322	35.67
280.538	31.57
280.753	13.14
280.969	25.43
281.184	13.14
281.399	60.24
281.615	-38.06
281.83	4.95
282.045	86.87
282.26	56.15
282.476	76.63
282.691	43.86
282.906	70.48
283.122	9.05
283.337	37.72
283.552	105.3
283.767	45.91
283.983	31.57
284.198	47.96
284.413	25.43
284.628	58.2
284.843	21.33
285.058	2.9
285.274	74.58
285.489	31.57
285.704	56.15
285.919	23.38
286.134	25.43
286.349	56.15
286.564	15.19
286.779	66.39
286.995	115.54
287.21	13.14
287.425	50
287.64	39.76
287.855	25.43
288.07	17.24
288.285	-7.34
288.5	90.96
288.715	17.24
288.93	86.87
289.145	7
289.36	70.48
289.575	25.43
289.79	101.2
290.004	58.2
290.219	11.09
290.434	72.53
290.649	45.91
290.864	66.39
291.079	21.33
291.294	-11.43
291.509	2.9
291.724	7
291.938	56.15
292.153	47.96
292.368	54.1
292.583	58.2
292.798	82.77
293.012	58.2
293.227	50
293.442	-13.48
293.657	-17.58
293.871	52.05
294.086	-9.39
294.301	19.29
294.516	33.62
294.73	17.24
294.945	9.05
295.16	56.15
295.374	88.92
295.589	68.44
295.804	68.44
296.018	-46.25
296.233	45.91
296.447	60.24
296.662	-7.34
296.877	103.25
297.091	99.16
297.306	19.29
297.52	4.95
297.735	31.57
297.949	33.62
298.164	127.83
298.378	62.29
298.593	27.48
298.807	56.15
299.022	62.29
299.236	19.29
299.451	72.53
299.665	70.48
299.88	47.96
300.094	72.53
300.309	31.57
300.523	13.14
300.737	56.15
300.952	-87.21
301.166	35.67
301.381	107.35
301.595	45.91
301.809	21.33
302.024	101.2
302.238	0.85
302.452	58.2
302.667	47.96
302.881	-25.77
303.095	29.52
303.309	29.52
303.524	7
303.738	72.53
303.952	47.96
304.166	95.06
304.381	-52.39
304.595	93.01
304.809	56.15
305.023	64.34
305.237	25.43
305.452	25.43
305.666	35.67
305.88	19.29
306.094	35.67
306.308	64.34
306.522	45.91
306.736	66.39
306.95	82.77
307.164	43.86
307.379	0.85
307.593	76.63
307.807	-1.19
308.021	23.38
308.235	84.82
308.449	33.62
308.663	2.9
308.877	86.87
309.091	54.1
309.305	39.76
309.519	-9.39
309.733	50
309.947	37.72
310.161	-9.39
310.374	0.85
310.588	103.25
310.802	86.87
311.016	84.82
311.23	21.33
311.444	29.52
311.658	-19.63
311.872	82.77
312.085	11.09
312.299	19.29
312.513	60.24
312.727	13.14
312.941	70.48
313.154	17.24
313.368	74.58
313.582	58.2
313.796	62.29
314.009	15.19
314.223	45.91
314.437	-7.34
314.651	9.05
314.864	19.29
315.078	19.29
315.292	74.58
315.505	56.15
315.719	72.53
315.933	50
316.146	68.44
316.36	52.05
316.573	54.1
316.787	68.44
317.001	95.06
317.214	-19.63
317.428	54.1
317.641	45.91
317.855	39.76
318.068	41.81
318.282	25.43
318.495	84.82
318.709	-9.39
318.922	0.85
319.136	37.72
319.349	0.85
319.563	29.52
319.776	47.96
319.99	50
320.203	33.62
320.417	19.29
320.63	29.52
320.843	13.14
321.057	54.1
321.27	93.01
321.483	27.48
321.697	70.48
321.91	25.43
322.124	47.96
322.337	-5.29
322.55	-15.53
322.763	41.81
322.977	82.77
323.19	39.76
323.403	35.67
323.617	-23.72
323.83	0.85
324.043	-13.48
324.256	4.95
324.469	19.29
324.683	31.57
324.896	31.57
325.109	58.2
325.322	23.38
325.535	56.15
325.748	41.81
325.962	117.59
326.175	-19.63
326.388	64.34
326.601	76.63
326.814	9.05
327.027	113.49
327.24	41.81
327.453	-11.43
327.666	43.86
327.879	17.24
328.092	90.96
328.305	31.57
328.518	33.62
328.731	70.48
328.944	-29.87
329.157	90.96
329.37	-15.53
329.583	80.72
329.796	4.95
330.009	4.95
330.222	58.2
330.435	80.72
330.648	58.2
330.861	13.14
331.073	29.52
331.286	86.87
331.499	101.2
331.712	25.43
331.925	37.72
332.138	111.44
332.35	-38.06
332.563	-19.63
332.776	31.57
332.989	27.48
333.202	23.38
333.414	9.05
333.627	25.43
333.84	76.63
334.053	50
334.265	17.24
334.478	11.09
334.691	15.19
334.903	97.11
335.116	33.62
335.329	47.96
335.541	82.77
335.754	50
335.966	82.77
336.179	47.96
336.392	-13.48
336.604	72.53
336.817	80.72
337.029	-38.06
337.242	17.24
337.454	29.52
337.667	105.3
337.88	27.48
338.092	-23.72
338.305	80.72
338.517	13.14
338.729	23.38
338.942	4.95
339.154	72.53
339.367	-17.58
339.579	86.87
339.792	21.33
340.004	15.19
340.217	109.4
340.429	56.15
340.641	35.67
340.854	-40.11
341.066	-31.91
341.278	11.09
341.491	33.62
341.703	99.16
341.915	45.91
342.128	82.77
342.34	17.24
342.552	76.63
342.764	-5.29
342.977	7
343.189	21.33
343.401	62.29
343.613	-119.98
343.826	70.48
344.038	54.1
344.25	88.92
344.462	-21.67
344.674	37.72
344.886	35.67
345.099	23.38
345.311	50
345.523	31.57
345.735	-7.34
345.947	35.67
346.159	93.01
346.371	84.82
346.583	101.2
346.795	13.14
347.007	-1.19
347.219	88.92
347.431	33.62
347.643	37.72
347.855	56.15
348.067	84.82
348.279	29.52
348.491	58.2
348.703	64.34
348.915	25.43
349.127	82.77
349.339	-13.48
349.551	68.44
349.763	21.33
349.975	-33.96
350.187	58.2
350.399	13.14
350.61	58.2
350.822	39.76
351.034	58.2
351.246	47.96
351.458	117.59
351.669	-3.24
351.881	29.52
352.093	58.2
352.305	117.59
352.517	82.77
352.728	82.77
352.94	78.68
353.152	125.78
353.363	19.29
353.575	74.58
353.787	45.91
353.999	138.07
354.21	76.63
354.422	45.91
354.633	29.52
354.845	-19.63
355.057	68.44
355.268	47.96
355.48	15.19
355.692	35.67
355.903	27.48
356.115	21.33
356.326	21.33
356.538	56.15
356.749	74.58
356.961	45.91
357.172	23.38
357.384	19.29
357.595	82.77
357.807	62.29
358.018	74.58
358.23	11.09
358.441	99.16
358.653	35.67
358.864	17.24
359.075	123.73
359.287	70.48
359.498	99.16
359.709	97.11
359.921	39.76
360.132	2.9
360.344	54.1
360.555	33.62
360.766	129.88
360.977	15.19
361.189	35.67
361.4	50
361.611	62.29
361.823	50
362.034	37.72
362.245	37.72
362.456	-1.19
362.667	105.3
362.879	39.76
363.09	84.82
363.301	-9.39
363.512	23.38
363.723	47.96
363.935	54.1
364.146	-5.29
364.357	74.58
364.568	7
364.779	78.68
364.99	37.72
365.201	9.05
365.412	58.2
365.623	35.67
365.834	-11.43
366.045	19.29
366.256	64.34
366.467	62.29
366.678	97.11
366.889	29.52
367.1	80.72
367.311	80.72
367.522	33.62
367.733	-17.58
367.944	115.54
368.155	95.06
368.366	60.24
368.577	76.63
368.788	97.11
368.999	29.52
369.209	-5.29
369.42	56.15
369.631	52.05
369.842	45.91
370.053	-5.29
370.264	50
370.474	107.35
370.685	-17.58
370.896	84.82
371.107	54.1
371.317	-13.48
371.528	68.44
371.739	52.05
371.95	66.39
372.16	39.76
372.371	-33.96
372.582	43.86
372.792	-42.15
373.003	52.05
373.214	0.85
373.424	58.2
373.635	45.91
373.846	-11.43
374.056	60.24
374.267	31.57
374.477	33.62
374.688	78.68
374.898	54.1
375.109	35.67
375.319	11.09
375.53	35.67
375.74	37.72
375.951	62.29
376.161	56.15
376.372	80.72
376.582	66.39
376.793	-33.96
377.003	52.05
377.214	74.58
377.424	45.91
377.635	72.53
377.845	82.77
378.055	68.44
378.266	68.44
378.476	-13.48
378.686	86.87
378.897	74.58
379.107	109.4
379.317	101.2
379.528	45.91
379.738	-33.96
379.948	54.1
380.158	21.33
380.369	66.39
380.579	-7.34
380.789	43.86
380.999	62.29
381.21	93.01
381.42	93.01
381.63	19.29
381.84	33.62
382.05	43.86
382.261	90.96
382.471	62.29
382.681	72.53
382.891	37.72
383.101	27.48
383.311	78.68
383.521	33.62
383.731	21.33
383.941	129.88
384.151	121.68
384.361	86.87
384.571	7
384.781	58.2
384.991	35.67
385.201	99.16
385.411	60.24
385.621	-33.96
385.831	70.48
386.041	103.25
386.251	15.19
386.461	76.63
386.671	133.97
386.881	39.76
387.091	29.52
387.301	113.49
387.511	15.19
387.72	103.25
387.93	82.77
388.14	54.1
388.35	-42.15
388.56	93.01
388.769	70.48
388.979	78.68
389.189	45.91
389.399	70.48
389.609	88.92
389.818	21.33
390.028	78.68
390.238	93.01
390.447	82.77
390.657	78.68
390.867	62.29
391.076	25.43
391.286	82.77
391.496	84.82
391.705	50
391.915	131.92
392.125	21.33
392.334	47.96
392.544	99.16
392.753	60.24
392.963	66.39
393.172	97.11
393.382	115.54
393.591	146.26
393.801	25.43
394.01	97.11
394.22	78.68
394.429	50
394.639	50
394.848	39.76
395.058	21.33
395.267	0.85
395.477	41.81
395.686	39.76
395.895	56.15
396.105	60.24
396.314	80.72
396.524	125.78
396.733	78.68
396.942	78.68
397.152	80.72
397.361	107.35
397.57	76.63
397.78	19.29
397.989	97.11
398.198	74.58
398.407	64.34
398.617	27.48
398.826	84.82
399.035	62.29
399.244	125.78
399.453	158.55
399.663	43.86
399.872	45.91
400.081	62.29
400.29	58.2
400.499	41.81
400.708	64.34
400.917	4.95
401.127	31.57
401.336	93.01
401.545	43.86
401.754	121.68
401.963	158.55
402.172	144.21
402.381	121.68
402.59	70.48
402.799	215.89
403.008	107.35
403.217	136.02
403.426	238.42
403.635	119.64
403.844	56.15
404.053	197.46
404.262	35.67
404.471	109.4
404.68	60.24
404.888	125.78
405.097	45.91
405.306	195.41
405.515	133.97
405.724	93.01
405.933	95.06
406.142	150.36
406.35	80.72
406.559	117.59
406.768	144.21
406.977	133.97
407.185	144.21
407.394	60.24
407.603	136.02
407.812	148.31
408.02	119.64
408.229	213.84
408.438	232.27
408.646	166.74
408.855	205.65
409.064	252.75
409.272	201.55
409.481	234.32
409.69	316.24
409.898	191.31
410.107	146.26
410.315	260.95
410.524	308.05
410.733	262.99
410.941	205.65
411.15	314.19
411.358	258.9
411.567	295.76
411.775	303.95
411.984	320.34
412.192	318.29
412.401	396.11
412.609	389.97
412.818	312.14
413.026	301.9
413.234	416.59
413.443	465.74
413.651	424.78
413.86	394.06
414.068	453.45
414.276	512.85
414.485	426.83
414.693	414.54
414.901	506.7
415.11	564.04
415.318	566.09
415.526	455.5
415.734	584.52
415.943	576.33
416.151	465.74
416.359	635.72
416.567	680.78
416.776	670.54
416.984	613.2
417.192	682.83
417.4	619.34
417.608	717.64
417.817	711.5
418.025	725.83
418.233	842.57
418.441	807.75
418.649	910.15
418.857	912.2
419.065	977.73
419.273	875.34
419.481	1082.18
419.689	1098.56
419.897	1059.65
420.105	1014.6
420.313	1065.8
420.521	1106.76
420.729	1106.76
420.937	1235.78
421.145	1340.22
421.353	1370.94
421.561	1383.23
421.769	1358.66
421.977	1467.2
422.185	1440.58
422.393	1667.9
422.601	1715
422.809	1735.48
423.017	1633.08
423.224	1780.54
423.432	1835.83
423.64	1866.55
423.848	1985.34
424.056	1962.81
424.263	2122.55
424.471	1973.05
424.679	2153.27
424.887	2134.84
425.094	2206.52
425.302	2388.78
425.51	2372.4
425.718	2407.22
425.925	2558.77
426.133	2534.19
426.341	2616.11
426.548	2837.29
426.756	2818.86
426.964	2855.72
427.171	2931.5
427.379	3009.32
427.586	3226.4
427.794	3300.13
428.001	3394.34
428.209	3595.04
428.417	3556.13
428.624	3701.53
428.832	3771.16
429.039	3779.36
429.247	3560.22
429.454	4104.98
429.662	4424.47
429.869	4088.6
430.076	4553.49
430.284	4315.92
430.491	4350.74
430.699	4719.37
430.906	4733.71
431.114	4889.35
431.321	5081.86
431.528	5096.2
431.736	5243.65
431.943	5610.24
432.15	5468.93
432.358	5507.84
432.565	5647.1
432.772	5784.32
432.979	6095.61
433.187	6077.18
433.394	6050.55
433.601	6525.68
433.808	6685.42
434.016	6568.69
434.223	6789.87
434.43	7187.18
434.637	7080.68
434.844	7576.29
435.052	7674.59
435.259	7543.52
435.466	7600.87
435.673	7639.78
435.88	8141.53
436.087	8639.19
436.294	8616.66
436.501	8403.67
436.708	8510.16
436.915	8757.97
437.122	9224.9
437.329	9355.97
437.537	9749.18
437.743	9673.41
437.95	9509.57
438.157	10252.98
438.364	10293.94
438.571	10558.13
438.778	10508.98
438.985	11475.62
439.192	10904.24
439.399	11100.84
439.606	10932.91
439.813	11731.62
440.02	12290.71
440.227	12214.94
440.433	12051.1
440.64	12614.29
440.847	12380.82
441.054	12614.29
441.261	13595.27
441.467	13351.56
441.674	13769.35
441.881	14162.56
442.088	14262.91
442.294	14084.73
442.501	14537.34
442.708	14871.15
442.914	15213.17
443.121	15630.95
443.328	15268.46
443.534	16470.62
443.741	15864.42
443.948	15960.67
444.154	17089.1
444.361	16755.29
444.568	17171.02
444.774	16812.63
444.981	17095.25
445.187	17822.28
445.394	18303.55
445.6	18205.25
445.807	19995.17
446.013	19030.58
446.22	19630.63
446.426	20240.93
446.633	20437.53
446.839	20750.87
447.046	20253.22
447.252	21176.85
447.459	21275.15
447.665	21281.3
447.871	22327.81
448.078	23132.66
448.284	22092.29
448.491	22616.57
448.697	23333.36
448.903	23953.9
449.11	23874.03
449.316	23677.42
449.522	23935.46
449.728	24414.69
449.935	24695.26
450.141	24760.8
450.347	25119.19
450.553	24584.67
450.76	24642.01
450.966	25395.67
451.172	25223.64
451.378	25620.94
451.584	25313.75
451.791	25881.03
451.997	25960.91
452.203	26364.36
452.409	26356.16
452.615	25878.99
452.821	24887.77
453.027	24834.52
453.233	26083.78
453.44	25184.73
453.646	25573.84
453.852	25459.15
454.058	26030.54
454.264	25133.53
454.47	25692.62
454.676	24965.59
454.882	25897.42
455.088	23947.75
455.294	23919.08
455.5	24201.7
455.705	24609.25
455.911	23771.63
456.117	23337.46
456.323	22888.95
456.529	21512.72
456.735	22630.91
456.941	22155.78
457.147	21643.79
457.352	20746.78
457.558	20955.67
457.764	20873.75
457.97	20357.66
458.176	19884.58
458.381	19886.63
458.587	19079.73
458.793	18932.28
458.999	18055.75
459.204	19206.7
459.41	18881.08
459.616	17754.69
459.821	17416.78
460.027	17324.62
460.233	16935.51
460.438	16235.1
460.644	16423.51
460.85	15628.9
461.055	15608.42
461.261	15436.39
461.466	14369.4
461.672	13910.66
461.878	14756.47
462.083	13929.09
462.289	13646.47
462.494	13460.1
462.7	13120.14
462.905	12544.66
463.111	13085.33
463.316	12987.02
463.522	12755.6
463.727	12753.55
463.932	12774.03
464.138	12718.74
464.343	12479.13
464.549	12264.09
464.754	12675.73
464.959	12647.06
465.165	12417.69
465.37	12026.53
465.575	11659.94
465.781	12284.57
465.986	12016.29
466.191	11932.32
466.397	11604.64
466.602	11043.5
466.807	11315.88
467.012	11471.53
467.218	11528.87
467.423	10928.81
467.628	11344.55
467.833	11616.93
468.038	11307.69
468.244	11000.49
468.449	11463.33
468.654	11164.33
468.859	11094.7
469.064	10957.49
469.269	10486.45
469.474	10457.78
