Data from USB4F104151__32__13-52-50-001.txt Node

Date: Thu Mar 13 13:52:50 EDT 2025
User: louis
Spectrometer: USB4F10415
Trigger mode: 4
Integration Time (sec): 1.000000E-2
Scans to average: 1
Electric dark correction enabled: true
Nonlinearity correction enabled: false
Boxcar width: 0
XAxis mode: Wavelengths
Number of Pixels in Spectrum: 3648
>>>>>Begin Spectral Data<<<<<
178.204	-67.24
178.424	-67.24
178.644	-67.24
178.864	6.49
179.084	-42.67
179.304	12.63
179.524	6.49
179.744	8.53
179.964	57.68
180.184	-16.04
180.404	-9.9
180.624	-44.71
180.844	0.34
181.064	-5.8
181.283	-18.09
181.503	2.39
181.723	6.49
181.943	-11.95
182.163	24.92
182.383	-22.19
182.602	14.68
182.822	26.96
183.042	-5.8
183.262	39.25
183.482	-9.9
183.701	-36.52
183.921	20.82
184.141	41.3
184.361	37.2
184.58	-16.04
184.8	6.49
185.02	-32.43
185.239	-36.52
185.459	-3.75
185.679	-30.38
185.898	-11.95
186.118	35.16
186.338	-20.14
186.557	-34.47
186.777	47.44
186.997	-54.95
187.216	-28.33
187.436	76.12
187.655	-22.19
187.875	-18.09
188.095	24.92
188.314	35.16
188.534	8.53
188.753	-5.8
188.973	4.44
189.192	53.59
189.412	14.68
189.631	-1.71
189.851	-1.71
190.07	-44.71
190.29	-34.47
190.509	-13.99
190.729	-42.67
190.948	18.77
191.168	0.34
191.387	16.73
191.607	-16.04
191.826	35.16
192.045	-46.76
192.265	-46.76
192.484	-44.71
192.704	14.68
192.923	2.39
193.142	31.06
193.362	-61.1
193.581	69.97
193.8	-52.91
194.02	-9.9
194.239	2.39
194.458	-48.81
194.678	20.82
194.897	37.2
195.116	-59.05
195.335	-26.28
195.555	-46.76
195.774	-30.38
195.993	20.82
196.212	14.68
196.432	-116.39
196.651	31.06
196.87	-11.95
197.089	4.44
197.308	-48.81
197.528	-13.99
197.747	-42.67
197.966	6.49
198.185	-46.76
198.404	10.58
198.623	18.77
198.842	24.92
199.062	-77.48
199.281	76.12
199.5	-30.38
199.719	-83.63
199.938	-52.91
200.157	57.68
200.376	-26.28
200.595	31.06
200.814	-26.28
201.033	-50.86
201.252	-38.57
201.471	37.2
201.69	-28.33
201.909	31.06
202.128	-16.04
202.347	-38.57
202.566	0.34
202.785	41.3
203.004	-3.75
203.223	59.73
203.442	16.73
203.661	-16.04
203.879	53.59
204.098	10.58
204.317	-32.43
204.536	74.07
204.755	29.01
204.974	-16.04
205.193	10.58
205.411	22.87
205.63	8.53
205.849	-3.75
206.068	2.39
206.287	-20.14
206.505	31.06
206.724	37.2
206.943	-1.71
207.162	-83.63
207.381	-26.28
207.599	80.21
207.818	22.87
208.037	69.97
208.255	-32.43
208.474	6.49
208.693	-16.04
208.911	61.78
209.13	20.82
209.349	-3.75
209.567	-3.75
209.786	35.16
210.005	-20.14
210.223	-32.43
210.442	-73.39
210.661	59.73
210.879	29.01
211.098	-7.85
211.316	33.11
211.535	96.6
211.753	18.77
211.972	-18.09
212.191	-44.71
212.409	76.12
212.628	-61.1
212.846	39.25
213.065	35.16
213.283	18.77
213.502	-34.47
213.72	-67.24
213.938	6.49
214.157	-69.29
214.375	2.39
214.594	61.78
214.812	-59.05
215.031	74.07
215.249	-44.71
215.467	35.16
215.686	2.39
215.904	49.49
216.122	-1.71
216.341	-34.47
216.559	39.25
216.778	35.16
216.996	33.11
217.214	37.2
217.432	-91.82
217.651	26.96
217.869	-16.04
218.087	29.01
218.306	-13.99
218.524	88.4
218.742	-22.19
218.96	22.87
219.179	22.87
219.397	41.3
219.615	45.4
219.833	-7.85
220.051	-16.04
220.27	10.58
220.488	-34.47
220.706	10.58
220.924	-24.23
221.142	-28.33
221.36	-57
221.578	-11.95
221.796	-3.75
222.015	47.44
222.233	-7.85
222.451	-5.8
222.669	8.53
222.887	-36.52
223.105	-26.28
223.323	-18.09
223.541	-50.86
223.759	16.73
223.977	-11.95
224.195	16.73
224.413	10.58
224.631	16.73
224.849	-28.33
225.067	-24.23
225.285	-26.28
225.503	14.68
225.721	-18.09
225.939	-26.28
226.157	20.82
226.375	-20.14
226.592	-1.71
226.81	67.92
227.028	10.58
227.246	16.73
227.464	22.87
227.682	-30.38
227.9	39.25
228.117	20.82
228.335	-5.8
228.553	16.73
228.771	-7.85
228.989	-13.99
229.206	57.68
229.424	-18.09
229.642	16.73
229.86	-71.34
230.077	8.53
230.295	63.83
230.513	-9.9
230.731	18.77
230.948	16.73
231.166	10.58
231.384	-1.71
231.601	-26.28
231.819	47.44
232.037	8.53
232.254	-22.19
232.472	8.53
232.689	-9.9
232.907	-16.04
233.125	18.77
233.342	24.92
233.56	22.87
233.777	-54.95
233.995	72.02
234.213	33.11
234.43	4.44
234.648	63.83
234.865	-11.95
235.083	117.08
235.3	6.49
235.518	35.16
235.735	2.39
235.953	47.44
236.17	61.78
236.388	6.49
236.605	-57
236.822	76.12
237.04	-7.85
237.257	-79.53
237.475	18.77
237.692	53.59
237.909	-9.9
238.127	2.39
238.344	-44.71
238.562	-16.04
238.779	59.73
238.996	20.82
239.214	31.06
239.431	67.92
239.648	-1.71
239.865	29.01
240.083	2.39
240.3	2.39
240.517	76.12
240.735	12.63
240.952	-1.71
241.169	2.39
241.386	10.58
241.603	4.44
241.821	29.01
242.038	-7.85
242.255	51.54
242.472	24.92
242.689	-20.14
242.907	-26.28
243.124	43.35
243.341	-69.29
243.558	18.77
243.775	-7.85
243.992	2.39
244.209	49.49
244.426	-1.71
244.643	37.2
244.86	20.82
245.078	57.68
245.295	-5.8
245.512	35.16
245.729	-34.47
245.946	10.58
246.163	8.53
246.38	-7.85
246.597	-13.99
246.814	86.36
247.031	45.4
247.248	92.5
247.464	-5.8
247.681	33.11
247.898	39.25
248.115	-65.19
248.332	14.68
248.549	33.11
248.766	47.44
248.983	-26.28
249.2	49.49
249.417	49.49
249.633	-18.09
249.85	72.02
250.067	10.58
250.284	22.87
250.501	55.64
250.717	-13.99
250.934	-79.53
251.151	-48.81
251.368	-9.9
251.585	26.96
251.801	-26.28
252.018	41.3
252.235	-34.47
252.451	53.59
252.668	6.49
252.885	-3.75
253.102	18.77
253.318	12.63
253.535	-9.9
253.752	-28.33
253.968	-24.23
254.185	33.11
254.401	-22.19
254.618	31.06
254.835	10.58
255.051	-3.75
255.268	10.58
255.484	-20.14
255.701	0.34
255.917	-18.09
256.134	-7.85
256.351	10.58
256.567	-16.04
256.784	55.64
257	-18.09
257.217	-28.33
257.433	51.54
257.65	-54.95
257.866	-3.75
258.082	-9.9
258.299	-3.75
258.515	-48.81
258.732	-7.85
258.948	-13.99
259.165	-30.38
259.381	-1.71
259.597	74.07
259.814	12.63
260.03	49.49
260.246	59.73
260.463	-50.86
260.679	8.53
260.895	8.53
261.112	-30.38
261.328	-20.14
261.544	49.49
261.761	4.44
261.977	18.77
262.193	14.68
262.409	22.87
262.626	-75.43
262.842	26.96
263.058	-32.43
263.274	63.83
263.49	0.34
263.707	-11.95
263.923	31.06
264.139	12.63
264.355	14.68
264.571	33.11
264.787	-18.09
265.004	90.45
265.22	33.11
265.436	-61.1
265.652	39.25
265.868	51.54
266.084	-16.04
266.3	33.11
266.516	-20.14
266.732	63.83
266.948	31.06
267.164	-34.47
267.38	-13.99
267.596	-13.99
267.812	-3.75
268.028	63.83
268.244	18.77
268.46	-38.57
268.676	-40.62
268.892	-52.91
269.108	-20.14
269.324	-67.24
269.54	-1.71
269.756	0.34
269.972	8.53
270.188	-5.8
270.403	86.36
270.619	-3.75
270.835	-42.67
271.051	43.35
271.267	-48.81
271.483	35.16
271.698	8.53
271.914	84.31
272.13	18.77
272.346	-11.95
272.562	63.83
272.777	-18.09
272.993	-16.04
273.209	-40.62
273.425	35.16
273.64	18.77
273.856	-34.47
274.072	-16.04
274.287	-11.95
274.503	45.4
274.719	-3.75
274.934	2.39
275.15	-5.8
275.366	63.83
275.581	-9.9
275.797	-20.14
276.012	0.34
276.228	14.68
276.444	4.44
276.659	10.58
276.875	35.16
277.09	-3.75
277.306	-11.95
277.521	33.11
277.737	61.78
277.952	4.44
278.168	-30.38
278.383	-22.19
278.599	2.39
278.814	55.64
279.03	22.87
279.245	-20.14
279.461	31.06
279.676	61.78
279.892	-79.53
280.107	-28.33
280.322	37.2
280.538	-3.75
280.753	-59.05
280.969	-13.99
281.184	-46.76
281.399	4.44
281.615	-3.75
281.83	-34.47
282.045	-3.75
282.26	14.68
282.476	4.44
282.691	26.96
282.906	-16.04
283.122	29.01
283.337	-1.71
283.552	24.92
283.767	14.68
283.983	16.73
284.198	-36.52
284.413	29.01
284.628	-26.28
284.843	14.68
285.058	-48.81
285.274	-61.1
285.489	26.96
285.704	26.96
285.919	-54.95
286.134	22.87
286.349	43.35
286.564	-3.75
286.779	24.92
286.995	0.34
287.21	4.44
287.425	43.35
287.64	-16.04
287.855	-93.87
288.07	-22.19
288.285	-13.99
288.5	6.49
288.715	47.44
288.93	8.53
289.145	-24.23
289.36	14.68
289.575	55.64
289.79	-28.33
290.004	43.35
290.219	-77.48
290.434	-22.19
290.649	41.3
290.864	35.16
291.079	63.83
291.294	67.92
291.509	-44.71
291.724	-1.71
291.938	-5.8
292.153	55.64
292.368	31.06
292.583	-18.09
292.798	31.06
293.012	88.4
293.227	2.39
293.442	43.35
293.657	10.58
293.871	20.82
294.086	37.2
294.301	14.68
294.516	-38.57
294.73	37.2
294.945	-9.9
295.16	10.58
295.374	18.77
295.589	61.78
295.804	-1.71
296.018	78.16
296.233	-28.33
296.447	20.82
296.662	57.68
296.877	16.73
297.091	4.44
297.306	-24.23
297.52	10.58
297.735	59.73
297.949	2.39
298.164	-48.81
298.378	18.77
298.593	-38.57
298.807	37.2
299.022	39.25
299.236	49.49
299.451	51.54
299.665	-30.38
299.88	18.77
300.094	-9.9
300.309	6.49
300.523	26.96
300.737	43.35
300.952	-42.67
301.166	18.77
301.381	2.39
301.595	-18.09
301.809	80.21
302.024	-5.8
302.238	24.92
302.452	6.49
302.667	43.35
302.881	33.11
303.095	29.01
303.309	-5.8
303.524	14.68
303.738	2.39
303.952	0.34
304.166	31.06
304.381	-22.19
304.595	43.35
304.809	20.82
305.023	12.63
305.237	43.35
305.452	37.2
305.666	33.11
305.88	-44.71
306.094	-42.67
306.308	18.77
306.522	0.34
306.736	96.6
306.95	-34.47
307.164	31.06
307.379	-46.76
307.593	-87.72
307.807	45.4
308.021	-1.71
308.235	-9.9
308.449	-40.62
308.663	6.49
308.877	57.68
309.091	104.79
309.305	16.73
309.519	-57
309.733	16.73
309.947	-3.75
310.161	-42.67
310.374	37.2
310.588	-7.85
310.802	-34.47
311.016	-18.09
311.23	18.77
311.444	82.26
311.658	-65.19
311.872	76.12
312.085	41.3
312.299	2.39
312.513	26.96
312.727	20.82
312.941	-32.43
313.154	45.4
313.368	-20.14
313.582	14.68
313.796	2.39
314.009	6.49
314.223	-20.14
314.437	110.93
314.651	26.96
314.864	41.3
315.078	-24.23
315.292	26.96
315.505	-40.62
315.719	-18.09
315.933	-20.14
316.146	55.64
316.36	12.63
316.573	26.96
316.787	-16.04
317.001	35.16
317.214	8.53
317.428	14.68
317.641	-20.14
317.855	-36.52
318.068	-1.71
318.282	24.92
318.495	51.54
318.709	-1.71
318.922	4.44
319.136	-42.67
319.349	-32.43
319.563	-11.95
319.776	76.12
319.99	80.21
320.203	-16.04
320.417	12.63
320.63	-13.99
320.843	26.96
321.057	-16.04
321.27	-42.67
321.483	49.49
321.697	31.06
321.91	47.44
322.124	16.73
322.337	39.25
322.55	-38.57
322.763	-16.04
322.977	37.2
323.19	45.4
323.403	29.01
323.617	-1.71
323.83	-22.19
324.043	0.34
324.256	49.49
324.469	-20.14
324.683	45.4
324.896	-11.95
325.109	10.58
325.322	0.34
325.535	74.07
325.748	12.63
325.962	33.11
326.175	-9.9
326.388	-13.99
326.601	14.68
326.814	2.39
327.027	41.3
327.24	67.92
327.453	-42.67
327.666	74.07
327.879	6.49
328.092	51.54
328.305	59.73
328.518	65.88
328.731	-1.71
328.944	24.92
329.157	-52.91
329.37	8.53
329.583	45.4
329.796	0.34
330.009	-36.52
330.222	49.49
330.435	-5.8
330.648	0.34
330.861	29.01
331.073	-1.71
331.286	67.92
331.499	-5.8
331.712	-57
331.925	-7.85
332.138	35.16
332.35	24.92
332.563	-73.39
332.776	61.78
332.989	26.96
333.202	4.44
333.414	-26.28
333.627	35.16
333.84	-28.33
334.053	-1.71
334.265	-26.28
334.478	37.2
334.691	16.73
334.903	18.77
335.116	-48.81
335.329	47.44
335.541	10.58
335.754	-32.43
335.966	45.4
336.179	-38.57
336.392	-18.09
336.604	53.59
336.817	-7.85
337.029	-20.14
337.242	65.88
337.454	2.39
337.667	8.53
337.88	-1.71
338.092	4.44
338.305	49.49
338.517	-48.81
338.729	100.69
338.942	51.54
339.154	59.73
339.367	6.49
339.579	0.34
339.792	24.92
340.004	47.44
340.217	12.63
340.429	59.73
340.641	-24.23
340.854	-11.95
341.066	22.87
341.278	-5.8
341.491	16.73
341.703	94.55
341.915	49.49
342.128	88.4
342.34	55.64
342.552	29.01
342.764	43.35
342.977	-3.75
343.189	29.01
343.401	-24.23
343.613	14.68
343.826	-5.8
344.038	24.92
344.25	45.4
344.462	-28.33
344.674	16.73
344.886	31.06
345.099	-3.75
345.311	16.73
345.523	-65.19
345.735	4.44
345.947	4.44
346.159	-46.76
346.371	49.49
346.583	37.2
346.795	4.44
347.007	41.3
347.219	6.49
347.431	8.53
347.643	-11.95
347.855	22.87
348.067	24.92
348.279	-52.91
348.491	29.01
348.703	43.35
348.915	43.35
349.127	12.63
349.339	2.39
349.551	-36.52
349.763	10.58
349.975	-5.8
350.187	51.54
350.399	-38.57
350.61	-1.71
350.822	8.53
351.034	41.3
351.246	88.4
351.458	8.53
351.669	16.73
351.881	4.44
352.093	-34.47
352.305	86.36
352.517	-32.43
352.728	69.97
352.94	20.82
353.152	22.87
353.363	-18.09
353.575	-52.91
353.787	10.58
353.999	-16.04
354.21	20.82
354.422	-22.19
354.633	24.92
354.845	2.39
355.057	-24.23
355.268	24.92
355.48	33.11
355.692	-69.29
355.903	29.01
356.115	16.73
356.326	57.68
356.538	84.31
356.749	16.73
356.961	67.92
357.172	8.53
357.384	24.92
357.595	-11.95
357.807	67.92
358.018	24.92
358.23	31.06
358.441	35.16
358.653	26.96
358.864	47.44
359.075	-50.86
359.287	55.64
359.498	53.59
359.709	43.35
359.921	24.92
360.132	37.2
360.344	37.2
360.555	-13.99
360.766	10.58
360.977	12.63
361.189	76.12
361.4	24.92
361.611	6.49
361.823	-67.24
362.034	4.44
362.245	-11.95
362.456	29.01
362.667	-22.19
362.879	-30.38
363.09	-24.23
363.301	78.16
363.512	-32.43
363.723	78.16
363.935	-26.28
364.146	37.2
364.357	-11.95
364.568	82.26
364.779	14.68
364.99	94.55
365.201	31.06
365.412	-9.9
365.623	-9.9
365.834	-1.71
366.045	47.44
366.256	33.11
366.467	-5.8
366.678	-1.71
366.889	4.44
367.1	-1.71
367.311	63.83
367.522	-7.85
367.733	-36.52
367.944	37.2
368.155	61.78
368.366	26.96
368.577	-7.85
368.788	45.4
368.999	12.63
369.209	6.49
369.42	16.73
369.631	18.77
369.842	-7.85
370.053	117.08
370.264	63.83
370.474	-7.85
370.685	-40.62
370.896	-3.75
371.107	29.01
371.317	-24.23
371.528	49.49
371.739	96.6
371.95	45.4
372.16	-59.05
372.371	10.58
372.582	53.59
372.792	33.11
373.003	20.82
373.214	-1.71
373.424	61.78
373.635	-16.04
373.846	117.08
374.056	24.92
374.267	98.64
374.477	-24.23
374.688	31.06
374.898	24.92
375.109	80.21
375.319	18.77
375.53	-16.04
375.74	-1.71
375.951	94.55
376.161	67.92
376.372	57.68
376.582	-7.85
376.793	2.39
377.003	45.4
377.214	31.06
377.424	35.16
377.635	45.4
377.845	24.92
378.055	29.01
378.266	53.59
378.476	4.44
378.686	-63.15
378.897	39.25
379.107	29.01
379.317	43.35
379.528	-1.71
379.738	33.11
379.948	-34.47
380.158	22.87
380.369	-9.9
380.579	-9.9
380.789	49.49
380.999	47.44
381.21	82.26
381.42	-24.23
381.63	29.01
381.84	24.92
382.05	-11.95
382.261	37.2
382.471	2.39
382.681	80.21
382.891	16.73
383.101	-1.71
383.311	22.87
383.521	18.77
383.731	72.02
383.941	57.68
384.151	-44.71
384.361	-5.8
384.571	26.96
384.781	49.49
384.991	59.73
385.201	53.59
385.411	51.54
385.621	2.39
385.831	24.92
386.041	102.74
386.251	4.44
386.461	74.07
386.671	92.5
386.881	29.01
387.091	47.44
387.301	16.73
387.511	33.11
387.72	61.78
387.93	55.64
388.14	78.16
388.35	80.21
388.56	18.77
388.769	41.3
388.979	92.5
389.189	2.39
389.399	22.87
389.609	16.73
389.818	76.12
390.028	49.49
390.238	53.59
390.447	96.6
390.657	49.49
390.867	35.16
391.076	-13.99
391.286	-9.9
391.496	-69.29
391.705	-22.19
391.915	20.82
392.125	33.11
392.334	35.16
392.544	61.78
392.753	49.49
392.963	55.64
393.172	110.93
393.382	26.96
393.591	14.68
393.801	33.11
394.01	74.07
394.22	-13.99
394.429	26.96
394.639	16.73
394.848	37.2
395.058	18.77
395.267	22.87
395.477	16.73
395.686	57.68
395.895	92.5
396.105	82.26
396.314	69.97
396.524	78.16
396.733	39.25
396.942	84.31
397.152	57.68
397.361	12.63
397.57	33.11
397.78	135.51
397.989	57.68
398.198	14.68
398.407	-5.8
398.617	0.34
398.826	51.54
399.035	96.6
399.244	98.64
399.453	100.69
399.663	43.35
399.872	96.6
400.081	45.4
400.29	51.54
400.499	24.92
400.708	45.4
400.917	49.49
401.127	80.21
401.336	123.22
401.545	90.45
401.754	12.63
401.963	41.3
402.172	67.92
402.381	-5.8
402.59	104.79
402.799	76.12
403.008	110.93
403.217	76.12
403.426	53.59
403.635	26.96
403.844	139.6
404.053	102.74
404.262	49.49
404.471	76.12
404.68	51.54
404.888	135.51
405.097	49.49
405.306	69.97
405.515	86.36
405.724	155.99
405.933	110.93
406.142	72.02
406.35	26.96
406.559	127.32
406.768	100.69
406.977	147.8
407.185	119.12
407.394	110.93
407.603	149.84
407.812	182.61
408.02	137.56
408.229	141.65
408.438	98.64
408.646	127.32
408.855	170.32
409.064	209.23
409.272	151.89
409.481	182.61
409.69	233.81
409.898	172.37
410.107	198.99
410.315	217.43
410.524	139.6
410.733	180.56
410.941	151.89
411.15	258.39
411.358	276.82
411.567	227.67
411.775	246.1
411.984	270.67
412.192	221.52
412.401	225.62
412.609	278.87
412.818	295.25
413.026	217.43
413.234	282.96
413.443	301.39
413.651	360.78
413.86	383.31
414.068	360.78
414.276	371.02
414.485	471.37
414.693	334.16
414.901	469.33
415.11	473.42
415.318	483.66
415.526	481.61
415.734	475.47
415.943	463.18
416.151	473.42
416.359	479.57
416.567	573.77
416.776	551.24
416.984	553.29
417.192	569.68
417.4	618.83
417.608	606.54
417.817	725.32
418.025	674.12
418.233	706.89
418.441	753.99
418.649	762.19
418.857	819.53
419.065	774.47
419.273	846.15
419.481	891.21
419.689	917.83
419.897	1001.8
420.105	987.46
420.313	1067.33
420.521	973.13
420.729	1122.63
420.937	1134.92
421.145	1077.57
421.353	1212.74
421.561	1184.07
421.769	1265.99
421.977	1302.85
422.185	1259.84
422.393	1403.2
422.601	1513.79
422.809	1397.06
423.017	1495.36
423.224	1474.88
423.432	1612.09
423.64	1624.38
423.848	1638.72
424.056	1745.21
424.263	1843.51
424.471	1898.81
424.679	1829.18
424.887	2015.54
425.094	2040.12
425.302	2025.78
425.51	2183.48
425.718	2099.51
425.925	2244.92
426.133	2310.45
426.341	2439.47
426.548	2418.99
426.756	2576.69
426.964	2529.58
427.171	2812.2
427.379	2881.83
427.586	2779.43
427.794	3002.66
428.001	2990.38
428.209	3193.12
428.417	3103.01
428.624	3320.1
428.832	3365.15
429.039	3377.44
429.247	3324.19
429.454	3594.53
429.662	3834.14
429.869	3701.02
430.076	3827.99
430.284	3795.23
430.491	4024.6
430.699	4124.95
430.906	4192.53
431.114	4200.73
431.321	4356.37
431.528	4516.11
431.736	4661.52
431.943	4991.24
432.15	4866.32
432.358	4917.51
432.565	5112.07
432.772	5122.31
432.979	5415.17
433.187	5628.16
433.394	5523.71
433.601	5722.37
433.808	5800.19
434.016	5732.61
434.223	6099.19
434.43	6394.1
434.637	6174.97
434.844	6697.2
435.052	6807.79
435.259	6818.03
435.466	6697.2
435.673	6777.07
435.88	7336.17
436.087	7704.8
436.294	7616.74
436.501	7383.27
436.708	7801.05
436.915	7899.36
437.122	8356.05
437.329	8116.44
437.537	8440.02
437.743	8702.16
437.95	8550.61
438.157	9070.79
438.364	9306.31
438.571	9320.65
438.778	9214.15
438.985	10174.65
439.192	9803.97
439.399	10205.37
439.606	9945.28
439.813	10520.76
440.02	10948.78
440.227	10809.52
440.433	10643.63
440.64	11200.68
440.847	11172.01
441.054	11481.25
441.261	12241.05
441.467	12046.49
441.674	12218.52
441.881	12800.15
442.088	12685.46
442.294	12302.49
442.501	12734.61
442.708	13176.97
442.914	13803.65
443.121	14256.25
443.328	13697.16
443.534	14622.84
443.741	14289.02
443.948	14336.12
444.154	15194.22
444.361	15038.58
444.568	15458.41
444.774	15409.26
444.981	15276.14
445.187	15941.73
445.394	16631.9
445.6	16556.12
445.807	17838.15
446.013	17127.5
446.22	17457.23
446.426	18135.1
446.633	18466.88
446.839	19005.49
447.046	18276.41
447.252	19349.55
447.459	18911.28
447.665	18933.81
447.871	19853.35
448.078	20520.99
448.284	19865.64
448.491	20226.08
448.697	20903.96
448.903	21012.5
449.11	21569.55
449.316	21274.64
449.522	21387.28
449.728	22011.91
449.935	22198.27
450.141	22484.99
450.347	22818.81
450.553	21841.93
450.76	22310.91
450.966	22775.8
451.172	22747.13
451.378	23322.61
451.584	22740.99
451.791	23336.95
451.997	23359.47
452.203	23478.26
452.409	23531.5
452.615	23263.22
452.821	22716.41
453.027	22573.05
453.233	23515.12
453.44	22761.47
453.646	22620.16
453.852	23132.15
454.058	23367.66
454.264	22661.12
454.47	22910.97
454.676	22245.38
454.882	23121.91
455.088	21159.95
455.294	21598.22
455.5	21862.41
455.705	22169.6
455.911	21190.67
456.117	20781.08
456.323	20346.91
456.529	19277.87
456.735	20000.8
456.941	19529.77
457.147	19140.66
457.352	18643
457.558	18507.83
457.764	18585.66
457.97	18020.42
458.176	17653.83
458.381	17932.36
458.587	16734.29
458.793	16902.23
458.999	15855.72
459.204	17182.8
459.41	16490.59
459.616	15540.33
459.821	15689.83
460.027	15579.24
460.233	15052.91
460.438	14622.84
460.644	14805.11
460.85	13914.24
461.055	13824.13
461.261	13856.9
461.466	12677.27
461.672	12341.4
461.878	13142.16
462.083	12257.43
462.289	11942.05
462.494	11692.19
462.7	11579.56
462.905	11348.14
463.111	11538.6
463.316	11364.52
463.522	11479.21
463.727	11366.57
463.932	11258.03
464.138	11178.15
464.343	11288.75
464.549	11040.94
464.754	11411.62
464.959	11292.84
465.165	11192.49
465.37	10805.42
465.575	10397.88
465.781	10731.7
465.986	10948.78
466.191	10619.06
466.397	10227.9
466.602	9834.69
466.807	10332.34
467.012	10318.01
467.218	10262.71
467.423	9996.48
467.628	10133.69
467.833	10651.83
