Data from USB4F104151__70__13-53-55-474.txt Node

Date: Thu Mar 13 13:53:55 EDT 2025
User: louis
Spectrometer: USB4F10415
Trigger mode: 4
Integration Time (sec): 1.000000E-2
Scans to average: 1
Electric dark correction enabled: true
Nonlinearity correction enabled: false
Boxcar width: 0
XAxis mode: Wavelengths
Number of Pixels in Spectrum: 3648
>>>>>Begin Spectral Data<<<<<
178.204	-27.65
178.424	-27.65
178.644	-27.65
178.864	-21.5
179.084	-35.84
179.304	21.5
179.524	25.6
179.744	-13.31
179.964	13.31
180.184	-41.98
180.404	3.07
180.624	11.26
180.844	-27.65
181.064	21.5
181.283	11.26
181.503	-7.17
181.723	-17.41
181.943	-27.65
182.163	89.09
182.383	29.7
182.602	-1.02
182.822	-19.46
183.042	17.41
183.262	37.89
183.482	-31.74
183.701	-13.31
183.921	13.31
184.141	-7.17
184.361	-7.17
184.58	23.55
184.8	37.89
185.02	68.61
185.239	44.03
185.459	-23.55
185.679	-37.89
185.898	17.41
186.118	-21.5
186.338	-5.12
186.557	11.26
186.777	-5.12
186.997	11.26
187.216	-19.46
187.436	95.23
187.655	37.89
187.875	27.65
188.095	-46.08
188.314	-3.07
188.534	1.02
188.753	-3.07
188.973	37.89
189.192	13.31
189.412	-11.26
189.631	23.55
189.851	-7.17
190.07	78.85
190.29	-13.31
190.509	-41.98
190.729	-74.75
190.948	35.84
191.168	27.65
191.387	-11.26
191.607	-44.03
191.826	29.7
192.045	-58.37
192.265	-80.89
192.484	-80.89
192.704	9.22
192.923	-25.6
193.142	50.18
193.362	-19.46
193.581	-7.17
193.8	1.02
194.02	-1.02
194.239	5.12
194.458	-5.12
194.678	-91.13
194.897	-15.36
195.116	-76.8
195.335	9.22
195.555	13.31
195.774	27.65
195.993	-3.07
196.212	27.65
196.432	3.07
196.651	-35.84
196.87	-48.13
197.089	48.13
197.308	50.18
197.528	80.89
197.747	19.46
197.966	25.6
198.185	31.74
198.404	-19.46
198.623	-21.5
198.842	-78.85
199.062	89.09
199.281	123.9
199.5	-41.98
199.719	46.08
199.938	-9.22
200.157	-15.36
200.376	-9.22
200.595	41.98
200.814	13.31
201.033	-7.17
201.252	17.41
201.471	-11.26
201.69	44.03
201.909	-41.98
202.128	15.36
202.347	17.41
202.566	-29.7
202.785	-52.22
203.004	15.36
203.223	39.94
203.442	-60.42
203.661	-54.27
203.879	33.79
204.098	5.12
204.317	15.36
204.536	-13.31
204.755	-11.26
204.974	25.6
205.193	70.65
205.411	5.12
205.63	-13.31
205.849	-66.56
206.068	-48.13
206.287	-11.26
206.505	13.31
206.724	27.65
206.943	62.46
207.162	-35.84
207.381	56.32
207.599	-7.17
207.818	48.13
208.037	-29.7
208.255	21.5
208.474	1.02
208.693	-25.6
208.911	-19.46
209.13	60.42
209.349	44.03
209.567	-52.22
209.786	-5.12
210.005	-25.6
210.223	29.7
210.442	-31.74
210.661	64.51
210.879	19.46
211.098	64.51
211.316	19.46
211.535	-23.55
211.753	-27.65
211.972	39.94
212.191	-39.94
212.409	17.41
212.628	76.8
212.846	-5.12
213.065	91.13
213.283	-7.17
213.502	-68.61
213.72	27.65
213.938	31.74
214.157	7.17
214.375	-44.03
214.594	-5.12
214.812	17.41
215.031	9.22
215.249	58.37
215.467	-13.31
215.686	11.26
215.904	-9.22
216.122	1.02
216.341	-3.07
216.559	-1.02
216.778	-5.12
216.996	58.37
217.214	-19.46
217.432	-19.46
217.651	-17.41
217.869	35.84
218.087	11.26
218.306	-5.12
218.524	-5.12
218.742	-25.6
218.96	13.31
219.179	-64.51
219.397	25.6
219.615	33.79
219.833	-15.36
220.051	-21.5
220.27	-19.46
220.488	128
220.706	-1.02
220.924	7.17
221.142	1.02
221.36	-39.94
221.578	-1.02
221.796	-62.46
222.015	29.7
222.233	-46.08
222.451	62.46
222.669	-56.32
222.887	52.22
223.105	5.12
223.323	27.65
223.541	-29.7
223.759	58.37
223.977	33.79
224.195	54.27
224.413	-15.36
224.631	78.85
224.849	48.13
225.067	25.6
225.285	-15.36
225.503	-23.55
225.721	-17.41
225.939	-7.17
226.157	41.98
226.375	66.56
226.592	-15.36
226.81	11.26
227.028	70.65
227.246	-17.41
227.464	5.12
227.682	72.7
227.9	-13.31
228.117	21.5
228.335	21.5
228.553	15.36
228.771	-11.26
228.989	-5.12
229.206	27.65
229.424	-1.02
229.642	13.31
229.86	27.65
230.077	-3.07
230.295	50.18
230.513	-25.6
230.731	87.04
230.948	13.31
231.166	11.26
231.384	-84.99
231.601	7.17
231.819	15.36
232.037	-52.22
232.254	-72.7
232.472	-39.94
232.689	-31.74
232.907	39.94
233.125	-68.61
233.342	9.22
233.56	-17.41
233.777	-5.12
233.995	7.17
234.213	-35.84
234.43	89.09
234.648	21.5
234.865	-7.17
235.083	-3.07
235.3	99.33
235.518	134.14
235.735	-111.61
235.953	58.37
236.17	21.5
236.388	13.31
236.605	-9.22
236.822	50.18
237.04	3.07
237.257	121.85
237.475	-60.42
237.692	-46.08
237.909	101.37
238.127	-9.22
238.344	-39.94
238.562	37.89
238.779	27.65
238.996	-44.03
239.214	27.65
239.431	-11.26
239.648	-70.65
239.865	91.13
240.083	9.22
240.3	3.07
240.517	-21.5
240.735	13.31
240.952	41.98
241.169	7.17
241.386	58.37
241.603	1.02
241.821	11.26
242.038	-21.5
242.255	52.22
242.472	-9.22
242.689	48.13
242.907	11.26
243.124	-5.12
243.341	35.84
243.558	-9.22
243.775	-11.26
243.992	-74.75
244.209	3.07
244.426	-11.26
244.643	1.02
244.86	25.6
245.078	37.89
245.295	-54.27
245.512	62.46
245.729	-29.7
245.946	13.31
246.163	66.56
246.38	35.84
246.597	13.31
246.814	-50.18
247.031	37.89
247.248	31.74
247.464	-54.27
247.681	13.31
247.898	56.32
248.115	-9.22
248.332	-1.02
248.549	62.46
248.766	66.56
248.983	-11.26
249.2	21.5
249.417	9.22
249.633	99.33
249.85	95.23
250.067	-72.7
250.284	3.07
250.501	9.22
250.717	-39.94
250.934	-13.31
251.151	25.6
251.368	41.98
251.585	31.74
251.801	13.31
252.018	-52.22
252.235	7.17
252.451	-11.26
252.668	7.17
252.885	-93.18
253.102	-5.12
253.318	11.26
253.535	-76.8
253.752	56.32
253.968	-25.6
254.185	-19.46
254.401	27.65
254.618	52.22
254.835	11.26
255.051	23.55
255.268	-72.7
255.484	-27.65
255.701	1.02
255.917	44.03
256.134	33.79
256.351	23.55
256.567	-54.27
256.784	25.6
257	29.7
257.217	33.79
257.433	19.46
257.65	19.46
257.866	7.17
258.082	35.84
258.299	29.7
258.515	17.41
258.732	33.79
258.948	-23.55
259.165	5.12
259.381	5.12
259.597	-50.18
259.814	58.37
260.03	11.26
260.246	-29.7
260.463	46.08
260.679	-27.65
260.895	35.84
261.112	64.51
261.328	44.03
261.544	-5.12
261.761	-1.02
261.977	-64.51
262.193	-54.27
262.409	35.84
262.626	-17.41
262.842	31.74
263.058	-15.36
263.274	56.32
263.49	-31.74
263.707	78.85
263.923	-11.26
264.139	-9.22
264.355	52.22
264.571	50.18
264.787	15.36
265.004	19.46
265.22	27.65
265.436	9.22
265.652	58.37
265.868	27.65
266.084	-1.02
266.3	25.6
266.516	7.17
266.732	44.03
266.948	-19.46
267.164	64.51
267.38	17.41
267.596	21.5
267.812	25.6
268.028	-5.12
268.244	25.6
268.46	-41.98
268.676	31.74
268.892	54.27
269.108	11.26
269.324	3.07
269.54	13.31
269.756	70.65
269.972	-33.79
270.188	-25.6
270.403	-31.74
270.619	-19.46
270.835	29.7
271.051	89.09
271.267	-27.65
271.483	-17.41
271.698	68.61
271.914	-31.74
272.13	13.31
272.346	-9.22
272.562	29.7
272.777	39.94
272.993	-13.31
273.209	101.37
273.425	31.74
273.64	23.55
273.856	-11.26
274.072	-25.6
274.287	3.07
274.503	-13.31
274.719	-19.46
274.934	15.36
275.15	19.46
275.366	17.41
275.581	101.37
275.797	97.28
276.012	-11.26
276.228	-1.02
276.444	-17.41
276.659	56.32
276.875	13.31
277.09	44.03
277.306	-7.17
277.521	7.17
277.737	15.36
277.952	-29.7
278.168	25.6
278.383	-13.31
278.599	-11.26
278.814	-41.98
279.03	-23.55
279.245	91.13
279.461	-15.36
279.676	99.33
279.892	-7.17
280.107	3.07
280.322	142.33
280.538	-80.89
280.753	-7.17
280.969	-1.02
281.184	-17.41
281.399	46.08
281.615	-25.6
281.83	48.13
282.045	5.12
282.26	31.74
282.476	50.18
282.691	9.22
282.906	3.07
283.122	44.03
283.337	9.22
283.552	33.79
283.767	37.89
283.983	19.46
284.198	1.02
284.413	60.42
284.628	5.12
284.843	-60.42
285.058	27.65
285.274	56.32
285.489	74.75
285.704	56.32
285.919	5.12
286.134	-21.5
286.349	72.7
286.564	23.55
286.779	62.46
286.995	-19.46
287.21	21.5
287.425	-39.94
287.64	-17.41
287.855	11.26
288.07	-52.22
288.285	-17.41
288.5	25.6
288.715	-7.17
288.93	-21.5
289.145	52.22
289.36	-50.18
289.575	-13.31
289.79	-15.36
290.004	-33.79
290.219	-25.6
290.434	-19.46
290.649	27.65
290.864	3.07
291.079	-3.07
291.294	64.51
291.509	-15.36
291.724	19.46
291.938	31.74
292.153	1.02
292.368	25.6
292.583	-21.5
292.798	15.36
293.012	-3.07
293.227	33.79
293.442	-44.03
293.657	11.26
293.871	-35.84
294.086	3.07
294.301	109.57
294.516	17.41
294.73	11.26
294.945	27.65
295.16	-15.36
295.374	21.5
295.589	125.95
295.804	-33.79
296.018	-44.03
296.233	70.65
296.447	9.22
296.662	29.7
296.877	19.46
297.091	-13.31
297.306	52.22
297.52	-25.6
297.735	66.56
297.949	46.08
298.164	15.36
298.378	-56.32
298.593	7.17
298.807	-13.31
299.022	-27.65
299.236	48.13
299.451	33.79
299.665	-7.17
299.88	78.85
300.094	5.12
300.309	101.37
300.523	25.6
300.737	-7.17
300.952	37.89
301.166	-50.18
301.381	-23.55
301.595	-5.12
301.809	-7.17
302.024	-3.07
302.238	-17.41
302.452	64.51
302.667	-37.89
302.881	21.5
303.095	-62.46
303.309	13.31
303.524	-17.41
303.738	-21.5
303.952	-23.55
304.166	41.98
304.381	-15.36
304.595	29.7
304.809	-1.02
305.023	35.84
305.237	15.36
305.452	9.22
305.666	-5.12
305.88	1.02
306.094	-23.55
306.308	7.17
306.522	1.02
306.736	1.02
306.95	-58.37
307.164	-23.55
307.379	58.37
307.593	17.41
307.807	19.46
308.021	7.17
308.235	7.17
308.449	11.26
308.663	56.32
308.877	78.85
309.091	9.22
309.305	-44.03
309.519	37.89
309.733	76.8
309.947	-74.75
310.161	82.94
310.374	35.84
310.588	52.22
310.802	3.07
311.016	46.08
311.23	-1.02
311.444	17.41
311.658	-39.94
311.872	-58.37
312.085	9.22
312.299	60.42
312.513	17.41
312.727	25.6
312.941	48.13
313.154	7.17
313.368	-7.17
313.582	-39.94
313.796	-19.46
314.009	44.03
314.223	13.31
314.437	-29.7
314.651	-5.12
314.864	60.42
315.078	58.37
315.292	23.55
315.505	29.7
315.719	-37.89
315.933	11.26
316.146	-1.02
316.36	44.03
316.573	37.89
316.787	5.12
317.001	-37.89
317.214	-62.46
317.428	5.12
317.641	5.12
317.855	48.13
318.068	-29.7
318.282	-29.7
318.495	50.18
318.709	3.07
318.922	-15.36
319.136	56.32
319.349	89.09
319.563	5.12
319.776	-35.84
319.99	29.7
320.203	17.41
320.417	-56.32
320.63	-31.74
320.843	48.13
321.057	17.41
321.27	17.41
321.483	-50.18
321.697	41.98
321.91	-66.56
322.124	-7.17
322.337	-11.26
322.55	3.07
322.763	58.37
322.977	76.8
323.19	-17.41
323.403	-52.22
323.617	-33.79
323.83	9.22
324.043	-27.65
324.256	1.02
324.469	-17.41
324.683	7.17
324.896	-15.36
325.109	23.55
325.322	44.03
325.535	-9.22
325.748	-66.56
325.962	-7.17
326.175	21.5
326.388	50.18
326.601	44.03
326.814	-9.22
327.027	39.94
327.24	68.61
327.453	21.5
327.666	39.94
327.879	3.07
328.092	13.31
328.305	-3.07
328.518	-17.41
328.731	-11.26
328.944	-23.55
329.157	1.02
329.37	-11.26
329.583	27.65
329.796	-58.37
330.009	-35.84
330.222	41.98
330.435	78.85
330.648	19.46
330.861	-7.17
331.073	115.71
331.286	52.22
331.499	50.18
331.712	-29.7
331.925	17.41
332.138	-19.46
332.35	31.74
332.563	29.7
332.776	52.22
332.989	-33.79
333.202	50.18
333.414	-84.99
333.627	44.03
333.84	1.02
334.053	13.31
334.265	-7.17
334.478	41.98
334.691	17.41
334.903	9.22
335.116	17.41
335.329	33.79
335.541	-35.84
335.754	19.46
335.966	-5.12
336.179	33.79
336.392	-5.12
336.604	-1.02
336.817	48.13
337.029	29.7
337.242	11.26
337.454	29.7
337.667	13.31
337.88	95.23
338.092	46.08
338.305	17.41
338.517	-9.22
338.729	19.46
338.942	58.37
339.154	-29.7
339.367	-25.6
339.579	46.08
339.792	-1.02
340.004	11.26
340.217	27.65
340.429	-7.17
340.641	-19.46
340.854	9.22
341.066	-68.61
341.278	3.07
341.491	1.02
341.703	-19.46
341.915	13.31
342.128	-23.55
342.34	29.7
342.552	-37.89
342.764	31.74
342.977	3.07
343.189	27.65
343.401	35.84
343.613	21.5
343.826	1.02
344.038	-109.57
344.25	-23.55
344.462	48.13
344.674	9.22
344.886	-41.98
345.099	76.8
345.311	54.27
345.523	1.02
345.735	15.36
345.947	-1.02
346.159	17.41
346.371	15.36
346.583	33.79
346.795	7.17
347.007	17.41
347.219	33.79
347.431	-46.08
347.643	80.89
347.855	37.89
348.067	-58.37
348.279	-7.17
348.491	56.32
348.703	27.65
348.915	15.36
349.127	-46.08
349.339	-1.02
349.551	23.55
349.763	-62.46
349.975	15.36
350.187	44.03
350.399	-3.07
350.61	82.94
350.822	23.55
351.034	29.7
351.246	72.7
351.458	29.7
351.669	33.79
351.881	35.84
352.093	-5.12
352.305	-13.31
352.517	-56.32
352.728	37.89
352.94	-41.98
353.152	37.89
353.363	-25.6
353.575	74.75
353.787	52.22
353.999	13.31
354.21	-29.7
354.422	-3.07
354.633	-1.02
354.845	74.75
355.057	7.17
355.268	35.84
355.48	-9.22
355.692	15.36
355.903	-21.5
356.115	-62.46
356.326	11.26
356.538	68.61
356.749	39.94
356.961	21.5
357.172	39.94
357.384	-27.65
357.595	56.32
357.807	44.03
358.018	3.07
358.23	-52.22
358.441	-27.65
358.653	-1.02
358.864	17.41
359.075	-1.02
359.287	-21.5
359.498	33.79
359.709	35.84
359.921	35.84
360.132	52.22
360.344	37.89
360.555	-23.55
360.766	-21.5
360.977	44.03
361.189	7.17
361.4	29.7
361.611	29.7
361.823	13.31
362.034	15.36
362.245	17.41
362.456	33.79
362.667	-7.17
362.879	37.89
363.09	76.8
363.301	-31.74
363.512	-37.89
363.723	9.22
363.935	29.7
364.146	-3.07
364.357	33.79
364.568	15.36
364.779	25.6
364.99	89.09
365.201	-1.02
365.412	50.18
365.623	31.74
365.834	41.98
366.045	19.46
366.256	66.56
366.467	-13.31
366.678	-17.41
366.889	74.75
367.1	76.8
367.311	13.31
367.522	48.13
367.733	-31.74
367.944	115.71
368.155	-35.84
368.366	84.99
368.577	-27.65
368.788	95.23
368.999	-35.84
369.209	19.46
369.42	-15.36
369.631	-33.79
369.842	35.84
370.053	-39.94
370.264	19.46
370.474	-9.22
370.685	33.79
370.896	56.32
371.107	29.7
371.317	-3.07
371.528	-25.6
371.739	-13.31
371.95	-3.07
372.16	29.7
372.371	-11.26
372.582	31.74
372.792	37.89
373.003	17.41
373.214	-5.12
373.424	3.07
373.635	33.79
373.846	35.84
374.056	11.26
374.267	-11.26
374.477	64.51
374.688	-37.89
374.898	37.89
375.109	48.13
375.319	13.31
375.53	11.26
375.74	-1.02
375.951	25.6
376.161	-29.7
376.372	44.03
376.582	5.12
376.793	-19.46
377.003	17.41
377.214	17.41
377.424	48.13
377.635	35.84
377.845	56.32
378.055	9.22
378.266	56.32
378.476	91.13
378.686	3.07
378.897	84.99
379.107	15.36
379.317	105.47
379.528	37.89
379.738	1.02
379.948	5.12
380.158	44.03
380.369	-37.89
380.579	54.27
380.789	1.02
380.999	72.7
381.21	11.26
381.42	21.5
381.63	-17.41
381.84	58.37
382.05	-1.02
382.261	33.79
382.471	27.65
382.681	50.18
382.891	-17.41
383.101	25.6
383.311	-25.6
383.521	9.22
383.731	9.22
383.941	25.6
384.151	35.84
384.361	-37.89
384.571	33.79
384.781	19.46
384.991	-25.6
385.201	-3.07
385.411	-11.26
385.621	-1.02
385.831	-7.17
386.041	15.36
386.251	27.65
386.461	37.89
386.671	9.22
386.881	31.74
387.091	66.56
387.301	50.18
387.511	1.02
387.72	3.07
387.93	-3.07
388.14	-9.22
388.35	-5.12
388.56	52.22
388.769	-54.27
388.979	3.07
389.189	15.36
389.399	-39.94
389.609	52.22
389.818	62.46
390.028	-5.12
390.238	44.03
390.447	-19.46
390.657	50.18
390.867	15.36
391.076	21.5
391.286	-27.65
391.496	23.55
391.705	31.74
391.915	144.38
392.125	82.94
392.334	-23.55
392.544	27.65
392.753	9.22
392.963	7.17
393.172	-17.41
393.382	29.7
393.591	-3.07
393.801	13.31
394.01	-17.41
394.22	33.79
394.429	13.31
394.639	11.26
394.848	56.32
395.058	13.31
395.267	-21.5
395.477	56.32
395.686	64.51
395.895	-11.26
396.105	84.99
396.314	48.13
396.524	52.22
396.733	-1.02
396.942	58.37
397.152	97.28
397.361	54.27
397.57	27.65
397.78	72.7
397.989	29.7
398.198	46.08
398.407	19.46
398.617	46.08
398.826	39.94
399.035	103.42
399.244	66.56
399.453	44.03
399.663	64.51
399.872	66.56
400.081	37.89
400.29	111.61
400.499	31.74
400.708	62.46
400.917	11.26
401.127	64.51
401.336	72.7
401.545	39.94
401.754	44.03
401.963	54.27
402.172	39.94
402.381	29.7
402.59	68.61
402.799	46.08
403.008	17.41
403.217	52.22
403.426	41.98
403.635	48.13
403.844	-7.17
404.053	37.89
404.262	29.7
404.471	111.61
404.68	62.46
404.888	82.94
405.097	68.61
405.306	-17.41
405.515	97.28
405.724	52.22
405.933	74.75
406.142	97.28
406.35	56.32
406.559	64.51
406.768	31.74
406.977	44.03
407.185	37.89
407.394	9.22
407.603	23.55
407.812	89.09
408.02	66.56
408.229	80.89
408.438	64.51
408.646	162.81
408.855	136.19
409.064	130.05
409.272	121.85
409.481	111.61
409.69	148.48
409.898	105.47
410.107	156.67
410.315	144.38
410.524	97.28
410.733	119.81
410.941	113.66
411.15	185.34
411.358	187.39
411.567	162.81
411.775	181.25
411.984	185.34
412.192	140.29
412.401	185.34
412.609	293.88
412.818	128
413.026	254.97
413.234	218.11
413.443	252.92
413.651	158.72
413.86	252.92
414.068	259.07
414.276	287.74
414.485	248.83
414.693	289.79
414.901	295.93
415.11	316.41
415.318	386.04
415.526	226.3
415.734	334.84
415.943	338.94
416.151	394.23
416.359	326.65
416.567	388.09
416.776	375.8
416.984	418.81
417.192	406.52
417.4	457.72
417.608	416.76
417.817	420.86
418.025	412.67
418.233	486.39
418.441	547.83
418.649	525.3
418.857	584.7
419.065	547.83
419.273	498.68
419.481	617.46
419.689	629.75
419.897	660.47
420.105	639.99
420.313	672.76
420.521	709.62
420.729	637.94
420.937	760.82
421.145	824.31
421.353	857.07
421.561	916.47
421.769	877.55
421.977	1004.53
422.185	842.74
422.393	877.55
422.601	986.1
422.809	1090.54
423.017	1012.72
423.224	1014.77
423.432	1078.26
423.64	969.71
423.848	1143.79
424.056	1229.81
424.263	1227.76
424.471	1270.76
424.679	1215.47
424.887	1344.49
425.094	1360.88
425.302	1424.36
425.51	1530.86
425.718	1489.9
425.925	1502.19
426.133	1467.37
426.341	1606.63
426.548	1844.2
426.756	1696.74
426.964	1829.86
427.171	1872.87
427.379	1981.41
427.586	1881.06
427.794	1965.03
428.001	2040.8
428.209	2198.49
428.417	2042.85
428.624	2278.37
428.832	2231.26
429.039	2264.03
429.247	2282.46
429.454	2628.57
429.662	2626.52
429.869	2460.63
430.076	2632.66
430.284	2532.31
430.491	2730.97
430.699	2868.18
430.906	2880.47
431.114	2970.58
431.321	2907.09
431.528	2989.01
431.736	3429.32
431.943	3361.74
432.15	3296.21
432.358	3388.36
432.565	3521.48
432.772	3541.96
432.979	3763.14
433.187	3718.09
433.394	3720.14
433.601	3996.61
433.808	3961.8
434.016	3963.84
434.223	4172.74
434.43	4385.73
434.637	4318.14
434.844	4582.33
435.052	4701.11
435.259	4541.37
435.466	4713.4
435.673	4680.63
435.88	4961.2
436.087	5237.68
436.294	5088.18
436.501	5110.71
436.708	5100.47
436.915	5323.69
437.122	5561.26
437.329	5591.98
437.537	5690.28
437.743	5933.99
437.95	5794.73
438.157	6116.26
438.364	6335.39
438.571	6288.29
438.778	6253.47
438.985	6927.25
439.192	6532
439.399	6947.73
439.606	6779.8
439.813	7091.09
440.02	7441.29
440.227	7293.84
440.433	7422.86
440.64	7416.72
440.847	7330.7
441.054	7578.51
441.261	8129.41
441.467	8022.92
441.674	8379.26
441.881	8506.24
442.088	8528.77
442.294	8590.2
442.501	8743.8
442.708	8840.06
442.914	9259.89
443.121	9708.4
443.328	9280.37
443.534	9945.96
443.741	9735.02
443.948	9335.67
444.154	10324.83
444.361	10234.72
444.568	10527.58
444.774	10376.03
444.981	10515.3
445.187	10783.58
445.394	11053.91
445.6	11127.64
445.807	12204.87
446.013	11682.64
446.22	11791.18
446.426	12096.33
446.633	12411.71
446.839	12809.02
447.046	12133.19
447.252	13030.2
447.459	12948.28
447.665	13157.18
447.871	13505.33
448.078	13994.79
448.284	13368.12
448.491	13833
448.697	14160.68
448.903	14613.28
449.11	14408.48
449.316	14304.04
449.522	14570.27
449.728	15074.07
449.935	15082.27
450.141	15086.36
450.347	15418.13
450.553	15201.05
450.76	15115.03
450.966	15581.97
451.172	15553.3
451.378	15774.48
451.584	15362.84
451.791	15508.24
451.997	15610.64
452.203	15807.25
452.409	16016.14
452.615	15655.7
452.821	15317.78
453.027	15334.17
453.233	16050.96
453.44	15221.53
453.646	15717.14
453.852	15297.3
454.058	15876.88
454.264	14992.16
454.47	15635.22
454.676	15174.42
454.882	15524.63
455.088	14422.82
455.294	14684.96
455.5	14891.8
455.705	14689.06
455.911	14328.61
456.117	13968.17
456.323	13800.24
456.529	13148.98
456.735	13527.86
456.941	13128.5
457.147	13050.68
457.352	12723.01
457.558	12528.45
457.764	12444.48
457.97	12188.49
458.176	12030.79
458.381	11860.81
458.587	11397.97
458.793	11600.72
458.999	11152.21
459.204	11535.18
459.41	11238.23
459.616	10492.77
459.821	10632.03
460.027	10636.13
460.233	10208.1
460.438	9798.51
460.644	9948.01
460.85	9300.85
461.055	9364.34
461.261	9352.05
461.466	8590.2
461.672	8221.57
461.878	8911.74
462.083	8518.53
462.289	8027.01
462.494	8139.65
462.7	7777.16
462.905	7658.38
463.111	7822.22
463.316	7807.88
463.522	7629.71
463.727	7721.87
463.932	7779.21
464.138	7660.43
464.343	7674.76
464.549	7404.43
464.754	7541.64
464.959	7646.09
465.165	7472.01
465.37	7263.12
465.575	6925.21
465.781	7586.7
465.986	7388.05
466.191	7299.98
466.397	6935.45
466.602	6632.35
466.807	6910.87
467.012	7136.15
467.218	6921.11
467.423	6695.83
467.628	6779.8
467.833	7021.46
468.038	6747.03
468.244	6501.28
468.449	6689.69
468.654	6683.55
468.859	6769.56
