Data from USB4F104151__95__13-54-33-890.txt Node

Date: Thu Mar 13 13:54:33 EDT 2025
User: louis
Spectrometer: USB4F10415
Trigger mode: 4
Integration Time (sec): 1.000000E-2
Scans to average: 1
Electric dark correction enabled: true
Nonlinearity correction enabled: false
Boxcar width: 0
XAxis mode: Wavelengths
Number of Pixels in Spectrum: 3648
>>>>>Begin Spectral Data<<<<<
178.204	-14.34
178.424	-14.34
178.644	-14.34
178.864	22.53
179.084	-10.24
179.304	-45.06
179.524	-4.1
179.744	43.01
179.964	51.2
180.184	-6.14
180.404	18.43
180.624	75.77
180.844	8.19
181.064	-28.67
181.283	-6.14
181.503	-63.49
181.723	-43.01
181.943	12.29
182.163	53.25
182.383	-24.58
182.602	16.38
182.822	38.91
183.042	22.53
183.262	-28.67
183.482	-32.77
183.701	24.58
183.921	-2.05
184.141	53.25
184.361	10.24
184.58	10.24
184.8	24.58
185.02	-10.24
185.239	22.53
185.459	4.1
185.679	18.43
185.898	14.34
186.118	-24.58
186.338	-32.77
186.557	57.34
186.777	65.53
186.997	40.96
187.216	55.3
187.436	10.24
187.655	73.73
187.875	22.53
188.095	-28.67
188.314	-4.1
188.534	40.96
188.753	20.48
188.973	14.34
189.192	6.14
189.412	-20.48
189.631	-12.29
189.851	26.62
190.07	18.43
190.29	28.67
190.509	12.29
190.729	40.96
190.948	20.48
191.168	69.63
191.387	40.96
191.607	92.16
191.826	43.01
192.045	10.24
192.265	24.58
192.484	-20.48
192.704	34.82
192.923	40.96
193.142	24.58
193.362	96.25
193.581	22.53
193.8	10.24
194.02	51.2
194.239	55.3
194.458	18.43
194.678	59.39
194.897	18.43
195.116	-4.1
195.335	4.1
195.555	4.1
195.774	40.96
195.993	51.2
196.212	-63.49
196.432	2.05
196.651	55.3
196.87	-69.63
197.089	43.01
197.308	4.1
197.528	38.91
197.747	38.91
197.966	26.62
198.185	32.77
198.404	-26.62
198.623	10.24
198.842	53.25
199.062	12.29
199.281	40.96
199.5	34.82
199.719	-40.96
199.938	88.06
200.157	4.1
200.376	77.82
200.595	-10.24
200.814	-36.86
201.033	18.43
201.252	-14.34
201.471	55.3
201.69	-28.67
201.909	-14.34
202.128	-14.34
202.347	30.72
202.566	47.1
202.785	-24.58
203.004	-4.1
203.223	16.38
203.442	53.25
203.661	-30.72
203.879	-8.19
204.098	92.16
204.317	-22.53
204.536	40.96
204.755	4.1
204.974	38.91
205.193	12.29
205.411	98.3
205.63	-12.29
205.849	-14.34
206.068	8.19
206.287	55.3
206.505	12.29
206.724	-51.2
206.943	0
207.162	-30.72
207.381	65.53
207.599	8.19
207.818	2.05
208.037	24.58
208.255	-18.43
208.474	51.2
208.693	-8.19
208.911	10.24
209.13	32.77
209.349	59.39
209.567	10.24
209.786	12.29
210.005	36.86
210.223	16.38
210.442	-20.48
210.661	51.2
210.879	28.67
211.098	81.92
211.316	8.19
211.535	59.39
211.753	28.67
211.972	10.24
212.191	16.38
212.409	-71.68
212.628	-55.3
212.846	-18.43
213.065	28.67
213.283	59.39
213.502	16.38
213.72	77.82
213.938	51.2
214.157	10.24
214.375	45.06
214.594	12.29
214.812	-14.34
215.031	69.63
215.249	16.38
215.467	6.14
215.686	34.82
215.904	8.19
216.122	-8.19
216.341	12.29
216.559	61.44
216.778	-40.96
216.996	51.2
217.214	34.82
217.432	-10.24
217.651	47.1
217.869	26.62
218.087	83.97
218.306	57.34
218.524	30.72
218.742	32.77
218.96	57.34
219.179	-38.91
219.397	26.62
219.615	43.01
219.833	-28.67
220.051	14.34
220.27	81.92
220.488	-30.72
220.706	-6.14
220.924	26.62
221.142	63.49
221.36	20.48
221.578	24.58
221.796	-16.38
222.015	12.29
222.233	-6.14
222.451	57.34
222.669	-28.67
222.887	67.58
223.105	38.91
223.323	51.2
223.541	26.62
223.759	8.19
223.977	12.29
224.195	16.38
224.413	-8.19
224.631	4.1
224.849	-55.3
225.067	28.67
225.285	79.87
225.503	-100.35
225.721	8.19
225.939	92.16
226.157	83.97
226.375	81.92
226.592	34.82
226.81	59.39
227.028	-59.39
227.246	32.77
227.464	0
227.682	92.16
227.9	32.77
228.117	-10.24
228.335	-30.72
228.553	98.3
228.771	20.48
228.989	-20.48
229.206	14.34
229.424	40.96
229.642	16.38
229.86	14.34
230.077	40.96
230.295	116.73
230.513	49.15
230.731	40.96
230.948	-22.53
231.166	59.39
231.384	14.34
231.601	59.39
231.819	20.48
232.037	-22.53
232.254	26.62
232.472	40.96
232.689	12.29
232.907	61.44
233.125	20.48
233.342	67.58
233.56	-53.25
233.777	4.1
233.995	71.68
234.213	-8.19
234.43	106.49
234.648	14.34
234.865	8.19
235.083	4.1
235.3	28.67
235.518	77.82
235.735	96.25
235.953	20.48
236.17	-53.25
236.388	12.29
236.605	26.62
236.822	61.44
237.04	-8.19
237.257	22.53
237.475	45.06
237.692	43.01
237.909	92.16
238.127	26.62
238.344	57.34
238.562	45.06
238.779	18.43
238.996	18.43
239.214	28.67
239.431	75.77
239.648	14.34
239.865	16.38
240.083	6.14
240.3	-14.34
240.517	63.49
240.735	49.15
240.952	122.88
241.169	96.25
241.386	26.62
241.603	8.19
241.821	24.58
242.038	63.49
242.255	30.72
242.472	34.82
242.689	34.82
242.907	12.29
243.124	-6.14
243.341	-73.73
243.558	6.14
243.775	20.48
243.992	0
244.209	43.01
244.426	98.3
244.643	75.77
244.86	61.44
245.078	135.17
245.295	-28.67
245.512	34.82
245.729	-49.15
245.946	81.92
246.163	-14.34
246.38	57.34
246.597	63.49
246.814	83.97
247.031	38.91
247.248	114.69
247.464	51.2
247.681	36.86
247.898	10.24
248.115	69.63
248.332	24.58
248.549	40.96
248.766	8.19
248.983	81.92
249.2	20.48
249.417	-45.06
249.633	0
249.85	34.82
250.067	-2.05
250.284	-69.63
250.501	2.05
250.717	36.86
250.934	-6.14
251.151	79.87
251.368	-10.24
251.585	12.29
251.801	43.01
252.018	53.25
252.235	51.2
252.451	63.49
252.668	38.91
252.885	-43.01
253.102	-20.48
253.318	8.19
253.535	-63.49
253.752	73.73
253.968	40.96
254.185	79.87
254.401	28.67
254.618	88.06
254.835	10.24
255.051	53.25
255.268	18.43
255.484	135.17
255.701	-2.05
255.917	32.77
256.134	12.29
256.351	-36.86
256.567	-38.91
256.784	79.87
257	81.92
257.217	-12.29
257.433	-12.29
257.65	51.2
257.866	47.1
258.082	59.39
258.299	-22.53
258.515	32.77
258.732	6.14
258.948	2.05
259.165	22.53
259.381	-14.34
259.597	86.01
259.814	18.43
260.03	12.29
260.246	-20.48
260.463	0
260.679	43.01
260.895	-77.82
261.112	2.05
261.328	36.86
261.544	24.58
261.761	69.63
261.977	-4.1
262.193	0
262.409	-24.58
262.626	-8.19
262.842	32.77
263.058	-57.34
263.274	155.65
263.49	6.14
263.707	69.63
263.923	28.67
264.139	38.91
264.355	18.43
264.571	24.58
264.787	8.19
265.004	63.49
265.22	-2.05
265.436	-14.34
265.652	26.62
265.868	75.77
266.084	-40.96
266.3	-6.14
266.516	34.82
266.732	6.14
266.948	47.1
267.164	69.63
267.38	79.87
267.596	10.24
267.812	-49.15
268.028	-18.43
268.244	79.87
268.46	57.34
268.676	90.11
268.892	16.38
269.108	26.62
269.324	-4.1
269.54	-2.05
269.756	20.48
269.972	-38.91
270.188	-57.34
270.403	24.58
270.619	40.96
270.835	-2.05
271.051	59.39
271.267	65.53
271.483	-4.1
271.698	24.58
271.914	-8.19
272.13	-8.19
272.346	32.77
272.562	63.49
272.777	12.29
272.993	30.72
273.209	0
273.425	-61.44
273.64	77.82
273.856	16.38
274.072	86.01
274.287	67.58
274.503	71.68
274.719	63.49
274.934	2.05
275.15	8.19
275.366	18.43
275.581	22.53
275.797	32.77
276.012	32.77
276.228	24.58
276.444	43.01
276.659	47.1
276.875	-14.34
277.09	36.86
277.306	104.45
277.521	6.14
277.737	-22.53
277.952	18.43
278.168	-12.29
278.383	-18.43
278.599	0
278.814	86.01
279.03	40.96
279.245	88.06
279.461	65.53
279.676	98.3
279.892	18.43
280.107	67.58
280.322	53.25
280.538	75.77
280.753	2.05
280.969	-10.24
281.184	81.92
281.399	-6.14
281.615	-8.19
281.83	32.77
282.045	59.39
282.26	51.2
282.476	-16.38
282.691	30.72
282.906	10.24
283.122	63.49
283.337	-22.53
283.552	92.16
283.767	2.05
283.983	55.3
284.198	30.72
284.413	-49.15
284.628	28.67
284.843	32.77
285.058	45.06
285.274	69.63
285.489	0
285.704	-6.14
285.919	-26.62
286.134	16.38
286.349	2.05
286.564	-14.34
286.779	51.2
286.995	-28.67
287.21	-8.19
287.425	12.29
287.64	22.53
287.855	24.58
288.07	55.3
288.285	10.24
288.5	22.53
288.715	112.64
288.93	8.19
289.145	16.38
289.36	-32.77
289.575	20.48
289.79	71.68
290.004	34.82
290.219	4.1
290.434	53.25
290.649	30.72
290.864	71.68
291.079	36.86
291.294	53.25
291.509	18.43
291.724	8.19
291.938	22.53
292.153	32.77
292.368	57.34
292.583	-16.38
292.798	102.4
293.012	-6.14
293.227	14.34
293.442	24.58
293.657	69.63
293.871	135.17
294.086	-4.1
294.301	26.62
294.516	28.67
294.73	71.68
294.945	34.82
295.16	120.83
295.374	63.49
295.589	57.34
295.804	57.34
296.018	71.68
296.233	81.92
296.447	-4.1
296.662	-24.58
296.877	-18.43
297.091	12.29
297.306	59.39
297.52	4.1
297.735	75.77
297.949	-20.48
298.164	47.1
298.378	55.3
298.593	63.49
298.807	49.15
299.022	10.24
299.236	-18.43
299.451	20.48
299.665	-18.43
299.88	6.14
300.094	-28.67
300.309	38.91
300.523	79.87
300.737	0
300.952	-18.43
301.166	40.96
301.381	26.62
301.595	43.01
301.809	73.73
302.024	-10.24
302.238	20.48
302.452	32.77
302.667	63.49
302.881	51.2
303.095	18.43
303.309	-8.19
303.524	40.96
303.738	-8.19
303.952	122.88
304.166	63.49
304.381	10.24
304.595	55.3
304.809	-18.43
305.023	73.73
305.237	-20.48
305.452	18.43
305.666	26.62
305.88	8.19
306.094	-4.1
306.308	81.92
306.522	43.01
306.736	-24.58
306.95	34.82
307.164	24.58
307.379	-18.43
307.593	79.87
307.807	6.14
308.021	61.44
308.235	59.39
308.449	18.43
308.663	6.14
308.877	65.53
309.091	14.34
309.305	26.62
309.519	-49.15
309.733	43.01
309.947	32.77
310.161	69.63
310.374	114.69
310.588	16.38
310.802	45.06
311.016	36.86
311.23	20.48
311.444	30.72
311.658	-26.62
311.872	77.82
312.085	16.38
312.299	120.83
312.513	-12.29
312.727	-43.01
312.941	18.43
313.154	53.25
313.368	38.91
313.582	-36.86
313.796	8.19
314.009	32.77
314.223	22.53
314.437	-32.77
314.651	34.82
314.864	40.96
315.078	-24.58
315.292	12.29
315.505	14.34
315.719	8.19
315.933	-30.72
316.146	-20.48
316.36	67.58
316.573	43.01
316.787	-22.53
317.001	-16.38
317.214	86.01
317.428	-20.48
317.641	-16.38
317.855	69.63
318.068	-28.67
318.282	18.43
318.495	55.3
318.709	53.25
318.922	30.72
319.136	59.39
319.349	14.34
319.563	26.62
319.776	47.1
319.99	4.1
320.203	73.73
320.417	49.15
320.63	-20.48
320.843	-6.14
321.057	47.1
321.27	-22.53
321.483	59.39
321.697	63.49
321.91	30.72
322.124	81.92
322.337	16.38
322.55	118.78
322.763	20.48
322.977	86.01
323.19	12.29
323.403	47.1
323.617	69.63
323.83	18.43
324.043	83.97
324.256	59.39
324.469	49.15
324.683	2.05
324.896	4.1
325.109	61.44
325.322	18.43
325.535	32.77
325.748	-10.24
325.962	4.1
326.175	36.86
326.388	61.44
326.601	61.44
326.814	10.24
327.027	57.34
327.24	55.3
327.453	18.43
327.666	88.06
327.879	67.58
328.092	63.49
328.305	100.35
328.518	14.34
328.731	55.3
328.944	18.43
329.157	36.86
329.37	57.34
329.583	61.44
329.796	49.15
330.009	67.58
330.222	77.82
330.435	-4.1
330.648	43.01
330.861	22.53
331.073	51.2
331.286	45.06
331.499	-12.29
331.712	10.24
331.925	20.48
332.138	4.1
332.35	61.44
332.563	65.53
332.776	8.19
332.989	0
333.202	0
333.414	32.77
333.627	-6.14
333.84	53.25
334.053	45.06
334.265	-57.34
334.478	55.3
334.691	-4.1
334.903	79.87
335.116	-2.05
335.329	59.39
335.541	45.06
335.754	59.39
335.966	12.29
336.179	63.49
336.392	40.96
336.604	28.67
336.817	-12.29
337.029	10.24
337.242	77.82
337.454	34.82
337.667	2.05
337.88	86.01
338.092	47.1
338.305	65.53
338.517	24.58
338.729	32.77
338.942	67.58
339.154	57.34
339.367	-94.21
339.579	20.48
339.792	-30.72
340.004	51.2
340.217	75.77
340.429	45.06
340.641	36.86
340.854	-4.1
341.066	-36.86
341.278	69.63
341.491	59.39
341.703	92.16
341.915	32.77
342.128	53.25
342.34	59.39
342.552	71.68
342.764	14.34
342.977	12.29
343.189	16.38
343.401	32.77
343.613	-14.34
343.826	18.43
344.038	51.2
344.25	-18.43
344.462	-18.43
344.674	83.97
344.886	24.58
345.099	34.82
345.311	8.19
345.523	69.63
345.735	61.44
345.947	69.63
346.159	114.69
346.371	0
346.583	22.53
346.795	69.63
347.007	16.38
347.219	8.19
347.431	59.39
347.643	18.43
347.855	24.58
348.067	38.91
348.279	-22.53
348.491	51.2
348.703	32.77
348.915	43.01
349.127	-10.24
349.339	59.39
349.551	16.38
349.763	102.4
349.975	69.63
350.187	0
350.399	102.4
350.61	24.58
350.822	8.19
351.034	4.1
351.246	28.67
351.458	6.14
351.669	32.77
351.881	120.83
352.093	10.24
352.305	51.2
352.517	83.97
352.728	51.2
352.94	36.86
353.152	53.25
353.363	36.86
353.575	114.69
353.787	-6.14
353.999	30.72
354.21	45.06
354.422	43.01
354.633	-38.91
354.845	-4.1
355.057	32.77
355.268	49.15
355.48	28.67
355.692	28.67
355.903	12.29
356.115	43.01
356.326	75.77
356.538	77.82
356.749	2.05
356.961	-2.05
357.172	20.48
357.384	38.91
357.595	43.01
357.807	51.2
358.018	-8.19
358.23	18.43
358.441	20.48
358.653	108.54
358.864	73.73
359.075	83.97
359.287	45.06
359.498	4.1
359.709	57.34
359.921	-2.05
360.132	79.87
360.344	67.58
360.555	51.2
360.766	55.3
360.977	-4.1
361.189	73.73
361.4	98.3
361.611	-18.43
361.823	59.39
362.034	-22.53
362.245	65.53
362.456	32.77
362.667	10.24
362.879	28.67
363.09	-6.14
363.301	-32.77
363.512	22.53
363.723	36.86
363.935	12.29
364.146	-10.24
364.357	51.2
364.568	2.05
364.779	-28.67
364.99	137.21
365.201	30.72
365.412	73.73
365.623	47.1
365.834	4.1
366.045	-18.43
366.256	4.1
366.467	-61.44
366.678	83.97
366.889	-10.24
367.1	20.48
367.311	36.86
367.522	63.49
367.733	18.43
367.944	4.1
368.155	40.96
368.366	83.97
368.577	47.1
368.788	43.01
368.999	-16.38
369.209	51.2
369.42	38.91
369.631	129.02
369.842	14.34
370.053	57.34
370.264	20.48
370.474	90.11
370.685	51.2
370.896	40.96
371.107	24.58
371.317	83.97
371.528	12.29
371.739	75.77
371.95	28.67
372.16	59.39
372.371	49.15
372.582	98.3
372.792	40.96
373.003	22.53
373.214	30.72
373.424	10.24
373.635	-36.86
373.846	24.58
374.056	98.3
374.267	6.14
374.477	14.34
374.688	32.77
374.898	81.92
375.109	49.15
375.319	8.19
375.53	77.82
375.74	30.72
375.951	69.63
376.161	-8.19
376.372	116.73
376.582	55.3
376.793	-18.43
377.003	90.11
377.214	28.67
377.424	43.01
377.635	36.86
377.845	10.24
378.055	67.58
378.266	-57.34
378.476	73.73
378.686	2.05
378.897	-2.05
379.107	-20.48
379.317	61.44
379.528	-18.43
379.738	40.96
379.948	36.86
380.158	114.69
380.369	32.77
380.579	43.01
380.789	-43.01
380.999	81.92
381.21	8.19
381.42	28.67
381.63	-28.67
381.84	65.53
382.05	79.87
382.261	61.44
382.471	102.4
382.681	30.72
382.891	18.43
383.101	57.34
383.311	-6.14
383.521	32.77
383.731	28.67
383.941	16.38
384.151	55.3
384.361	73.73
384.571	-22.53
384.781	22.53
384.991	65.53
385.201	34.82
385.411	73.73
385.621	8.19
385.831	135.17
386.041	-22.53
386.251	53.25
386.461	61.44
386.671	73.73
386.881	45.06
387.091	26.62
387.301	0
387.511	22.53
387.72	40.96
387.93	90.11
388.14	38.91
388.35	2.05
388.56	108.54
388.769	88.06
388.979	81.92
389.189	22.53
389.399	30.72
389.609	83.97
389.818	-38.91
390.028	114.69
390.238	63.49
390.447	69.63
390.657	14.34
390.867	79.87
391.076	18.43
391.286	81.92
391.496	118.78
391.705	30.72
391.915	100.35
392.125	90.11
392.334	24.58
392.544	67.58
392.753	96.25
392.963	61.44
393.172	98.3
393.382	32.77
393.591	61.44
393.801	71.68
394.01	38.91
394.22	75.77
394.429	24.58
394.639	57.34
394.848	65.53
395.058	12.29
395.267	83.97
395.477	6.14
395.686	77.82
395.895	51.2
396.105	137.21
396.314	24.58
396.524	22.53
396.733	77.82
396.942	38.91
397.152	98.3
397.361	100.35
397.57	108.54
397.78	32.77
397.989	-6.14
398.198	153.6
398.407	43.01
398.617	73.73
398.826	108.54
399.035	100.35
399.244	73.73
399.453	86.01
399.663	116.73
399.872	135.17
400.081	108.54
400.29	65.53
400.499	133.12
400.708	34.82
400.917	61.44
401.127	-6.14
401.336	43.01
401.545	45.06
401.754	61.44
401.963	94.21
402.172	69.63
402.381	43.01
402.59	38.91
402.799	81.92
403.008	34.82
403.217	118.78
403.426	28.67
403.635	6.14
403.844	38.91
404.053	65.53
404.262	30.72
404.471	118.78
404.68	94.21
404.888	73.73
405.097	55.3
405.306	90.11
405.515	83.97
405.724	114.69
405.933	124.93
406.142	122.88
406.35	38.91
406.559	75.77
406.768	145.41
406.977	90.11
407.185	67.58
407.394	98.3
407.603	90.11
407.812	129.02
408.02	102.4
408.229	104.45
408.438	83.97
408.646	129.02
408.855	131.07
409.064	4.1
409.272	163.84
409.481	227.32
409.69	190.46
409.898	176.13
410.107	139.26
410.315	182.27
410.524	186.37
410.733	208.89
410.941	133.12
411.15	243.71
411.358	180.22
411.567	108.54
411.775	219.13
411.984	194.56
412.192	225.28
412.401	210.94
412.609	227.32
412.818	268.28
413.026	231.42
413.234	243.71
413.443	217.08
413.651	292.86
413.86	284.67
414.068	296.96
414.276	239.61
414.485	282.62
414.693	288.76
414.901	395.26
415.11	274.43
415.318	344.06
415.526	296.96
415.734	372.73
415.943	350.2
416.151	387.07
416.359	436.22
416.567	417.79
416.776	335.87
416.984	499.7
417.192	483.32
417.4	477.18
417.608	407.55
417.817	473.08
418.025	452.6
418.233	565.24
418.441	536.57
418.649	585.72
418.857	565.24
419.065	602.1
419.273	591.86
419.481	626.68
419.689	688.12
419.897	673.78
420.105	741.36
420.313	720.88
420.521	786.42
420.729	739.32
420.937	669.69
421.145	880.63
421.353	790.52
421.561	878.58
421.769	858.1
421.977	933.87
422.185	944.11
422.393	1017.84
422.601	1023.98
422.809	1023.98
423.017	1075.18
423.224	1110
423.432	1114.1
423.64	1085.42
423.848	1288.17
424.056	1277.93
424.263	1357.8
424.471	1378.28
424.679	1359.85
424.887	1398.76
425.094	1515.5
425.302	1472.49
425.51	1521.64
425.718	1593.32
425.925	1589.22
426.133	1593.32
426.341	1615.85
426.548	1742.82
426.756	1859.56
426.964	1759.21
427.171	1953.76
427.379	1892.32
427.586	2062.3
427.794	2054.11
428.001	2101.22
428.209	2248.67
428.417	2209.76
428.624	2252.77
428.832	2461.66
429.039	2324.44
429.247	2295.77
429.454	2557.91
429.662	2678.74
429.869	2654.17
430.076	2738.13
430.284	2539.48
430.491	2699.22
430.699	2881.49
430.906	2875.35
431.114	3012.56
431.321	3100.62
431.528	3157.97
431.736	3336.14
431.943	3401.68
432.15	3256.27
432.358	3342.28
432.565	3600.33
432.772	3430.35
432.979	3676.1
433.187	3872.71
433.394	3815.37
433.601	4145.09
433.808	4044.74
434.016	3899.33
434.223	4274.11
434.43	4427.71
434.637	4247.49
434.844	4575.16
435.052	4646.84
435.259	4698.04
435.466	4671.42
435.673	4695.99
435.88	5048.24
436.087	5283.76
436.294	5046.19
436.501	5146.55
436.708	5289.9
436.915	5396.4
437.122	5560.24
437.329	5582.76
437.537	5679.02
437.743	6016.93
437.95	5849
438.157	6250.4
438.364	6389.66
438.571	6365.09
438.778	6410.14
438.985	6827.93
439.192	6746.01
439.399	6934.42
439.606	6920.09
439.813	7126.93
440.02	7624.59
440.227	7387.02
440.433	7307.15
440.64	7722.89
440.847	7669.64
441.054	7708.55
441.261	8245.12
441.467	8216.45
441.674	8316.8
441.881	8580.99
442.088	8597.37
442.294	8531.84
442.501	8630.14
442.708	8939.38
442.914	9193.33
443.121	9824.11
443.328	9547.63
443.534	10053.48
443.741	9840.49
443.948	9635.69
444.154	10358.63
444.361	10350.43
444.568	10350.43
444.774	10577.76
444.981	10311.52
445.187	10567.52
445.394	11298.64
445.6	11061.08
445.807	12171.08
446.013	11761.48
446.22	11796.3
446.426	12347.2
446.633	12549.95
446.839	12808
447.046	12175.17
447.252	12994.36
447.459	12746.56
447.665	12941.11
447.871	13373.24
448.078	14028.59
448.284	13371.19
448.491	13805.36
448.697	14214.95
448.903	14442.28
449.11	14626.59
449.316	14274.34
449.522	14698.27
449.728	14825.25
449.935	15013.66
450.141	14937.88
450.347	15367.96
450.553	14831.39
450.76	14944.03
450.966	15580.95
451.172	15267.61
451.378	16056.07
451.584	15384.34
451.791	15951.63
451.997	15585.04
452.203	15982.35
452.409	15836.94
452.615	15808.27
452.821	15378.2
453.027	15056.67
453.233	15861.52
453.44	15126.3
453.646	15478.55
453.852	15521.56
454.058	15724.3
454.264	15091.48
454.47	15382.29
454.676	15015.71
454.882	15830.8
455.088	14438.18
455.294	14225.19
455.5	14821.15
455.705	14716.7
455.911	14081.83
456.117	14020.39
456.323	13498.16
456.529	12986.17
456.735	13494.07
456.941	13039.42
457.147	12758.85
457.352	12500.8
457.558	12529.47
457.764	12560.19
457.97	12312.39
458.176	12007.24
458.381	11919.18
458.587	11163.48
458.793	11261.78
458.999	10788.7
459.204	11497.3
459.41	11239.25
459.616	10372.96
459.821	10434.4
460.027	10389.35
460.233	10006.38
460.438	9740.14
460.644	9863.02
460.85	9416.56
461.055	9082.74
461.261	9092.98
461.466	8468.35
461.672	8193.92
461.878	8869.75
462.083	8195.97
462.289	8157.06
462.494	8048.52
462.7	7769.99
462.905	7405.45
463.111	7739.27
463.316	7776.14
463.522	7528.33
463.727	7712.65
463.932	7595.92
464.138	7683.98
464.343	7546.76
464.549	7405.45
464.754	7675.79
464.959	7464.85
465.165	7692.17
465.37	7245.71
465.575	7118.74
465.781	7264.15
465.986	7315.34
466.191	6942.61
466.397	6793.11
466.602	6557.6
466.807	6815.64
467.012	6881.18
467.218	6797.21
467.423	6772.63
467.628	6735.77
467.833	7116.69
468.038	6922.13
468.244	6721.43
468.449	6893.46
468.654	6680.47
468.859	6655.9
469.064	6676.38
469.269	6387.61
469.474	6320.03
469.679	6469.53
469.885	6459.29
470.09	6309.79
470.295	6358.94
