Data from USB4F104151__18__13-52-31-603.txt Node

Date: Thu Mar 13 13:52:31 EDT 2025
User: louis
Spectrometer: USB4F10415
Trigger mode: 4
Integration Time (sec): 1.000000E-2
Scans to average: 1
Electric dark correction enabled: true
Nonlinearity correction enabled: false
Boxcar width: 0
XAxis mode: Wavelengths
Number of Pixels in Spectrum: 3648
>>>>>Begin Spectral Data<<<<<
178.204	-63.49
178.424	-63.49
178.644	-63.49
178.864	-24.58
179.084	-43.01
179.304	-2.05
179.524	-0
179.744	55.3
179.964	-47.1
180.184	-28.67
180.404	-30.72
180.624	38.91
180.844	10.24
181.064	-8.19
181.283	2.05
181.503	-2.05
181.723	12.29
181.943	28.67
182.163	22.53
182.383	-14.34
182.602	92.16
182.822	126.97
183.042	30.72
183.262	4.1
183.482	32.77
183.701	67.58
183.921	-26.62
184.141	-0
184.361	22.53
184.58	22.53
184.8	-8.19
185.02	59.39
185.239	34.82
185.459	22.53
185.679	-20.48
185.898	38.91
186.118	18.43
186.338	16.38
186.557	26.62
186.777	4.1
186.997	59.39
187.216	20.48
187.436	38.91
187.655	47.1
187.875	-8.19
188.095	4.1
188.314	-0
188.534	45.06
188.753	49.15
188.973	55.3
189.192	-22.53
189.412	-8.19
189.631	110.59
189.851	45.06
190.07	49.15
190.29	-4.1
190.509	40.96
190.729	43.01
190.948	-8.19
191.168	102.4
191.387	65.53
191.607	4.1
191.826	34.82
192.045	55.3
192.265	63.49
192.484	53.25
192.704	120.83
192.923	49.15
193.142	45.06
193.362	57.34
193.581	34.82
193.8	40.96
194.02	-8.19
194.239	53.25
194.458	55.3
194.678	43.01
194.897	86.01
195.116	-4.1
195.335	-8.19
195.555	94.21
195.774	110.59
195.993	34.82
196.212	71.68
196.432	40.96
196.651	36.86
196.87	47.1
197.089	40.96
197.308	53.25
197.528	30.72
197.747	-4.1
197.966	75.77
198.185	-16.38
198.404	38.91
198.623	18.43
198.842	32.77
199.062	69.63
199.281	104.45
199.5	18.43
199.719	49.15
199.938	4.1
200.157	145.41
200.376	108.54
200.595	114.69
200.814	-0
201.033	14.34
201.252	-30.72
201.471	36.86
201.69	40.96
201.909	30.72
202.128	30.72
202.347	4.1
202.566	86.01
202.785	-0
203.004	4.1
203.223	12.29
203.442	94.21
203.661	43.01
203.879	-12.29
204.098	-6.14
204.317	32.77
204.536	83.97
204.755	71.68
204.974	69.63
205.193	47.1
205.411	79.87
205.63	-18.43
205.849	30.72
206.068	12.29
206.287	28.67
206.505	28.67
206.724	63.49
206.943	-28.67
207.162	-8.19
207.381	83.97
207.599	104.45
207.818	-4.1
208.037	-8.19
208.255	-8.19
208.474	86.01
208.693	190.46
208.911	40.96
209.13	34.82
209.349	22.53
209.567	24.58
209.786	55.3
210.005	8.19
210.223	36.86
210.442	12.29
210.661	63.49
210.879	71.68
211.098	43.01
211.316	79.87
211.535	26.62
211.753	2.05
211.972	-14.34
212.191	-20.48
212.409	55.3
212.628	96.25
212.846	26.62
213.065	-8.19
213.283	55.3
213.502	16.38
213.72	12.29
213.938	61.44
214.157	-6.14
214.375	-0
214.594	43.01
214.812	90.11
215.031	-12.29
215.249	12.29
215.467	26.62
215.686	14.34
215.904	81.92
216.122	67.58
216.341	55.3
216.559	-8.19
216.778	114.69
216.996	45.06
217.214	32.77
217.432	-4.1
217.651	-34.82
217.869	83.97
218.087	49.15
218.306	-24.58
218.524	-0
218.742	28.67
218.96	51.2
219.179	104.45
219.397	86.01
219.615	57.34
219.833	69.63
220.051	20.48
220.27	6.14
220.488	40.96
220.706	36.86
220.924	45.06
221.142	24.58
221.36	51.2
221.578	45.06
221.796	22.53
222.015	38.91
222.233	102.4
222.451	47.1
222.669	30.72
222.887	26.62
223.105	112.64
223.323	4.1
223.541	6.14
223.759	-8.19
223.977	-20.48
224.195	55.3
224.413	43.01
224.631	-28.67
224.849	59.39
225.067	32.77
225.285	34.82
225.503	45.06
225.721	-26.62
225.939	-22.53
226.157	-22.53
226.375	79.87
226.592	63.49
226.81	-0
227.028	18.43
227.246	26.62
227.464	24.58
227.682	116.73
227.9	108.54
228.117	-28.67
228.335	4.1
228.553	28.67
228.771	14.34
228.989	20.48
229.206	14.34
229.424	59.39
229.642	61.44
229.86	100.35
230.077	69.63
230.295	49.15
230.513	86.01
230.731	-4.1
230.948	-47.1
231.166	69.63
231.384	45.06
231.601	32.77
231.819	26.62
232.037	24.58
232.254	-26.62
232.472	-61.44
232.689	-8.19
232.907	-2.05
233.125	-30.72
233.342	16.38
233.56	75.77
233.777	71.68
233.995	4.1
234.213	30.72
234.43	12.29
234.648	55.3
234.865	-40.96
235.083	57.34
235.3	20.48
235.518	65.53
235.735	67.58
235.953	88.06
236.17	24.58
236.388	77.82
236.605	51.2
236.822	86.01
237.04	45.06
237.257	38.91
237.475	-28.67
237.692	73.73
237.909	81.92
238.127	20.48
238.344	75.77
238.562	-2.05
238.779	61.44
238.996	69.63
239.214	104.45
239.431	49.15
239.648	10.24
239.865	92.16
240.083	65.53
240.3	83.97
240.517	-26.62
240.735	71.68
240.952	49.15
241.169	-24.58
241.386	16.38
241.603	61.44
241.821	36.86
242.038	69.63
242.255	88.06
242.472	36.86
242.689	34.82
242.907	16.38
243.124	22.53
243.341	32.77
243.558	73.73
243.775	-63.49
243.992	26.62
244.209	18.43
244.426	12.29
244.643	10.24
244.86	34.82
245.078	16.38
245.295	61.44
245.512	90.11
245.729	-20.48
245.946	30.72
246.163	63.49
246.38	51.2
246.597	12.29
246.814	53.25
247.031	73.73
247.248	77.82
247.464	38.91
247.681	104.45
247.898	-49.15
248.115	49.15
248.332	-55.3
248.549	45.06
248.766	59.39
248.983	71.68
249.2	63.49
249.417	28.67
249.633	-14.34
249.85	83.97
250.067	61.44
250.284	43.01
250.501	26.62
250.717	34.82
250.934	26.62
251.151	26.62
251.368	49.15
251.585	114.69
251.801	34.82
252.018	-18.43
252.235	-22.53
252.451	26.62
252.668	32.77
252.885	43.01
253.102	57.34
253.318	-26.62
253.535	75.77
253.752	34.82
253.968	-24.58
254.185	47.1
254.401	59.39
254.618	133.12
254.835	32.77
255.051	32.77
255.268	6.14
255.484	-36.86
255.701	40.96
255.917	-34.82
256.134	-8.19
256.351	-2.05
256.567	43.01
256.784	79.87
257	22.53
257.217	26.62
257.433	92.16
257.65	92.16
257.866	63.49
258.082	96.25
258.299	-10.24
258.515	6.14
258.732	22.53
258.948	22.53
259.165	47.1
259.381	51.2
259.597	22.53
259.814	-10.24
260.03	92.16
260.246	32.77
260.463	86.01
260.679	-79.87
260.895	26.62
261.112	-6.14
261.328	49.15
261.544	24.58
261.761	106.49
261.977	32.77
262.193	-22.53
262.409	18.43
262.626	98.3
262.842	57.34
263.058	73.73
263.274	59.39
263.49	129.02
263.707	32.77
263.923	18.43
264.139	16.38
264.355	88.06
264.571	53.25
264.787	-28.67
265.004	20.48
265.22	65.53
265.436	6.14
265.652	51.2
265.868	69.63
266.084	24.58
266.3	135.17
266.516	32.77
266.732	141.31
266.948	53.25
267.164	71.68
267.38	67.58
267.596	102.4
267.812	43.01
268.028	75.77
268.244	141.31
268.46	116.73
268.676	-22.53
268.892	51.2
269.108	26.62
269.324	69.63
269.54	88.06
269.756	55.3
269.972	14.34
270.188	26.62
270.403	98.3
270.619	40.96
270.835	61.44
271.051	10.24
271.267	49.15
271.483	51.2
271.698	22.53
271.914	81.92
272.13	-8.19
272.346	43.01
272.562	26.62
272.777	34.82
272.993	53.25
273.209	16.38
273.425	81.92
273.64	38.91
273.856	88.06
274.072	81.92
274.287	20.48
274.503	28.67
274.719	14.34
274.934	161.79
275.15	28.67
275.366	43.01
275.581	88.06
275.797	67.58
276.012	-0
276.228	69.63
276.444	73.73
276.659	43.01
276.875	88.06
277.09	47.1
277.306	104.45
277.521	53.25
277.737	22.53
277.952	47.1
278.168	-38.91
278.383	14.34
278.599	51.2
278.814	-18.43
279.03	22.53
279.245	100.35
279.461	-45.06
279.676	86.01
279.892	14.34
280.107	24.58
280.322	67.58
280.538	49.15
280.753	57.34
280.969	69.63
281.184	55.3
281.399	65.53
281.615	32.77
281.83	-22.53
282.045	16.38
282.26	-2.05
282.476	51.2
282.691	14.34
282.906	38.91
283.122	30.72
283.337	6.14
283.552	53.25
283.767	20.48
283.983	32.77
284.198	40.96
284.413	116.73
284.628	67.58
284.843	8.19
285.058	6.14
285.274	63.49
285.489	34.82
285.704	55.3
285.919	18.43
286.134	81.92
286.349	22.53
286.564	-10.24
286.779	94.21
286.995	-45.06
287.21	30.72
287.425	92.16
287.64	49.15
287.855	63.49
288.07	-8.19
288.285	-18.43
288.5	65.53
288.715	79.87
288.93	32.77
289.145	53.25
289.36	22.53
289.575	112.64
289.79	45.06
290.004	43.01
290.219	40.96
290.434	63.49
290.649	14.34
290.864	61.44
291.079	79.87
291.294	10.24
291.509	-34.82
291.724	34.82
291.938	20.48
292.153	18.43
292.368	-28.67
292.583	75.77
292.798	69.63
293.012	71.68
293.227	59.39
293.442	92.16
293.657	45.06
293.871	-0
294.086	-12.29
294.301	77.82
294.516	47.1
294.73	49.15
294.945	-14.34
295.16	18.43
295.374	79.87
295.589	43.01
295.804	36.86
296.018	57.34
296.233	67.58
296.447	16.38
296.662	45.06
296.877	63.49
297.091	34.82
297.306	65.53
297.52	30.72
297.735	96.25
297.949	49.15
298.164	100.35
298.378	28.67
298.593	90.11
298.807	69.63
299.022	-2.05
299.236	12.29
299.451	26.62
299.665	71.68
299.88	10.24
300.094	75.77
300.309	51.2
300.523	63.49
300.737	16.38
300.952	28.67
301.166	24.58
301.381	4.1
301.595	-4.1
301.809	110.59
302.024	88.06
302.238	32.77
302.452	43.01
302.667	51.2
302.881	51.2
303.095	75.77
303.309	92.16
303.524	-16.38
303.738	-18.43
303.952	49.15
304.166	92.16
304.381	32.77
304.595	40.96
304.809	-36.86
305.023	59.39
305.237	53.25
305.452	61.44
305.666	26.62
305.88	40.96
306.094	45.06
306.308	55.3
306.522	45.06
306.736	-26.62
306.95	108.54
307.164	59.39
307.379	-2.05
307.593	67.58
307.807	-8.19
308.021	43.01
308.235	34.82
308.449	77.82
308.663	49.15
308.877	69.63
309.091	30.72
309.305	45.06
309.519	47.1
309.733	71.68
309.947	43.01
310.161	49.15
310.374	75.77
310.588	-6.14
310.802	30.72
311.016	-20.48
311.23	-4.1
311.444	14.34
311.658	30.72
311.872	73.73
312.085	69.63
312.299	10.24
312.513	67.58
312.727	67.58
312.941	20.48
313.154	36.86
313.368	-2.05
313.582	36.86
313.796	65.53
314.009	36.86
314.223	28.67
314.437	-2.05
314.651	43.01
314.864	36.86
315.078	14.34
315.292	40.96
315.505	-22.53
315.719	81.92
315.933	32.77
316.146	47.1
316.36	75.77
316.573	47.1
316.787	4.1
317.001	59.39
317.214	28.67
317.428	102.4
317.641	12.29
317.855	79.87
318.068	43.01
318.282	8.19
318.495	14.34
318.709	38.91
318.922	71.68
319.136	38.91
319.349	57.34
319.563	139.26
319.776	57.34
319.99	28.67
320.203	-34.82
320.417	59.39
320.63	34.82
320.843	98.3
321.057	49.15
321.27	-10.24
321.483	77.82
321.697	157.69
321.91	38.91
322.124	81.92
322.337	61.44
322.55	90.11
322.763	14.34
322.977	71.68
323.19	53.25
323.403	88.06
323.617	2.05
323.83	124.93
324.043	55.3
324.256	53.25
324.469	4.1
324.683	69.63
324.896	79.87
325.109	14.34
325.322	-38.91
325.535	20.48
325.748	65.53
325.962	153.6
326.175	102.4
326.388	45.06
326.601	59.39
326.814	12.29
327.027	49.15
327.24	75.77
327.453	-2.05
327.666	77.82
327.879	106.49
328.092	55.3
328.305	83.97
328.518	61.44
328.731	59.39
328.944	81.92
329.157	69.63
329.37	51.2
329.583	34.82
329.796	12.29
330.009	77.82
330.222	65.53
330.435	49.15
330.648	73.73
330.861	75.77
331.073	81.92
331.286	98.3
331.499	55.3
331.712	-20.48
331.925	102.4
332.138	40.96
332.35	106.49
332.563	-26.62
332.776	26.62
332.989	69.63
333.202	100.35
333.414	61.44
333.627	40.96
333.84	26.62
334.053	-10.24
334.265	-49.15
334.478	28.67
334.691	-53.25
334.903	63.49
335.116	12.29
335.329	12.29
335.541	36.86
335.754	28.67
335.966	40.96
336.179	55.3
336.392	6.14
336.604	45.06
336.817	24.58
337.029	112.64
337.242	112.64
337.454	79.87
337.667	47.1
337.88	75.77
338.092	67.58
338.305	61.44
338.517	-2.05
338.729	63.49
338.942	16.38
339.154	67.58
339.367	43.01
339.579	88.06
339.792	51.2
340.004	67.58
340.217	-22.53
340.429	53.25
340.641	49.15
340.854	34.82
341.066	104.45
341.278	-4.1
341.491	75.77
341.703	-2.05
341.915	10.24
342.128	28.67
342.34	104.45
342.552	65.53
342.764	28.67
342.977	126.97
343.189	57.34
343.401	57.34
343.613	-16.38
343.826	90.11
344.038	22.53
344.25	61.44
344.462	24.58
344.674	75.77
344.886	-22.53
345.099	118.78
345.311	16.38
345.523	67.58
345.735	67.58
345.947	75.77
346.159	53.25
346.371	65.53
346.583	104.45
346.795	81.92
347.007	83.97
347.219	49.15
347.431	32.77
347.643	14.34
347.855	12.29
348.067	116.73
348.279	-10.24
348.491	81.92
348.703	40.96
348.915	106.49
349.127	-14.34
349.339	55.3
349.551	28.67
349.763	73.73
349.975	61.44
350.187	96.25
350.399	141.31
350.61	18.43
350.822	43.01
351.034	32.77
351.246	43.01
351.458	83.97
351.669	106.49
351.881	28.67
352.093	71.68
352.305	81.92
352.517	83.97
352.728	40.96
352.94	32.77
353.152	36.86
353.363	92.16
353.575	79.87
353.787	55.3
353.999	36.86
354.21	4.1
354.422	112.64
354.633	90.11
354.845	22.53
355.057	40.96
355.268	57.34
355.48	102.4
355.692	47.1
355.903	8.19
356.115	18.43
356.326	43.01
356.538	116.73
356.749	65.53
356.961	57.34
357.172	83.97
357.384	131.07
357.595	55.3
357.807	28.67
358.018	55.3
358.23	94.21
358.441	57.34
358.653	104.45
358.864	92.16
359.075	88.06
359.287	57.34
359.498	59.39
359.709	30.72
359.921	59.39
360.132	71.68
360.344	94.21
360.555	-4.1
360.766	65.53
360.977	122.88
361.189	47.1
361.4	18.43
361.611	63.49
361.823	28.67
362.034	61.44
362.245	34.82
362.456	6.14
362.667	18.43
362.879	90.11
363.09	8.19
363.301	79.87
363.512	28.67
363.723	98.3
363.935	63.49
364.146	86.01
364.357	8.19
364.568	65.53
364.779	88.06
364.99	106.49
365.201	104.45
365.412	114.69
365.623	28.67
365.834	38.91
366.045	26.62
366.256	124.93
366.467	43.01
366.678	145.41
366.889	-8.19
367.1	28.67
367.311	6.14
367.522	-38.91
367.733	149.5
367.944	49.15
368.155	124.93
368.366	55.3
368.577	-4.1
368.788	88.06
368.999	67.58
369.209	100.35
369.42	59.39
369.631	47.1
369.842	10.24
370.053	79.87
370.264	79.87
370.474	2.05
370.685	32.77
370.896	63.49
371.107	22.53
371.317	43.01
371.528	77.82
371.739	106.49
371.95	79.87
372.16	32.77
372.371	30.72
372.582	106.49
372.792	88.06
373.003	69.63
373.214	22.53
373.424	73.73
373.635	69.63
373.846	81.92
374.056	133.12
374.267	-18.43
374.477	120.83
374.688	-0
374.898	2.05
375.109	47.1
375.319	88.06
375.53	81.92
375.74	108.54
375.951	69.63
376.161	14.34
376.372	61.44
376.582	75.77
376.793	57.34
377.003	61.44
377.214	67.58
377.424	98.3
377.635	100.35
377.845	53.25
378.055	71.68
378.266	43.01
378.476	51.2
378.686	18.43
378.897	24.58
379.107	108.54
379.317	104.45
379.528	81.92
379.738	92.16
379.948	65.53
380.158	38.91
380.369	28.67
380.579	92.16
380.789	30.72
380.999	51.2
381.21	83.97
381.42	73.73
381.63	73.73
381.84	145.41
382.05	57.34
382.261	116.73
382.471	67.58
382.681	88.06
382.891	43.01
383.101	118.78
383.311	104.45
383.521	65.53
383.731	90.11
383.941	51.2
384.151	53.25
384.361	108.54
384.571	22.53
384.781	79.87
384.991	92.16
385.201	79.87
385.411	102.4
385.621	67.58
385.831	53.25
386.041	141.31
386.251	69.63
386.461	59.39
386.671	65.53
386.881	94.21
387.091	71.68
387.301	18.43
387.511	73.73
387.72	53.25
387.93	145.41
388.14	4.1
388.35	63.49
388.56	63.49
388.769	75.77
388.979	104.45
389.189	59.39
389.399	92.16
389.609	112.64
389.818	122.88
390.028	106.49
390.238	120.83
390.447	20.48
390.657	69.63
390.867	57.34
391.076	61.44
391.286	59.39
391.496	40.96
391.705	77.82
391.915	67.58
392.125	63.49
392.334	57.34
392.544	69.63
392.753	65.53
392.963	65.53
393.172	126.97
393.382	108.54
393.591	184.32
393.801	106.49
394.01	83.97
394.22	92.16
394.429	118.78
394.639	88.06
394.848	190.46
395.058	88.06
395.267	139.26
395.477	145.41
395.686	112.64
395.895	118.78
396.105	83.97
396.314	184.32
396.524	90.11
396.733	61.44
396.942	59.39
397.152	145.41
397.361	67.58
397.57	67.58
397.78	141.31
397.989	81.92
398.198	149.5
398.407	122.88
398.617	104.45
398.826	110.59
399.035	110.59
399.244	145.41
399.453	161.79
399.663	77.82
399.872	36.86
400.081	38.91
400.29	212.99
400.499	96.25
400.708	98.3
400.917	94.21
401.127	116.73
401.336	126.97
401.545	92.16
401.754	147.45
401.963	174.08
402.172	98.3
402.381	194.56
402.59	137.21
402.799	143.36
403.008	149.5
403.217	165.89
403.426	165.89
403.635	106.49
403.844	149.5
404.053	151.55
404.262	169.98
404.471	221.18
404.68	159.74
404.888	163.84
405.097	126.97
405.306	112.64
405.515	219.13
405.724	190.46
405.933	178.17
406.142	239.61
406.35	229.37
406.559	81.92
406.768	282.62
406.977	212.99
407.185	163.84
407.394	223.23
407.603	167.93
407.812	239.61
408.02	198.65
408.229	229.37
408.438	221.18
408.646	301.05
408.855	161.79
409.064	348.15
409.272	251.9
409.481	294.91
409.69	292.86
409.898	317.44
410.107	294.91
410.315	299
410.524	311.29
410.733	335.87
410.941	329.72
411.15	378.87
411.358	364.54
411.567	425.98
411.775	499.7
411.984	452.6
412.192	425.98
412.401	454.65
412.609	464.89
412.818	475.13
413.026	518.14
413.234	509.94
413.443	598.01
413.651	608.25
413.86	550.9
414.068	649.21
414.276	657.4
414.485	661.49
414.693	641.01
414.901	708.6
415.11	772.08
415.318	729.08
415.526	727.03
415.734	767.99
415.943	847.86
416.151	935.92
416.359	882.67
416.567	917.49
416.776	923.63
416.984	1001.46
417.192	1077.23
417.4	1064.94
417.608	1087.47
417.817	1069.04
418.025	1171.44
418.233	1208.3
418.441	1232.88
418.649	1382.38
418.857	1382.38
419.065	1363.95
419.273	1357.8
419.481	1576.94
419.689	1419.24
419.897	1615.85
420.105	1540.07
420.313	1615.85
420.521	1673.19
420.729	1648.61
420.937	1873.89
421.145	1798.12
421.353	1951.71
421.561	2007.01
421.769	2037.73
421.977	2105.31
422.185	2199.52
422.393	2353.12
422.601	2367.45
422.809	2369.5
423.017	2404.32
423.224	2508.76
423.432	2680.79
423.64	2629.59
423.848	2762.71
424.056	2783.19
424.263	3047.38
424.471	3049.43
424.679	3026.9
424.887	3260.37
425.094	3330
425.302	3282.89
425.51	3432.4
425.718	3514.31
425.925	3661.77
426.133	3758.02
426.341	3928
426.548	4124.61
426.756	4143.04
426.964	4231.1
427.171	4427.71
427.379	4650.94
427.586	4485.05
427.794	4829.11
428.001	4997.04
428.209	5048.24
428.417	4978.61
428.624	5629.87
428.832	5468.08
429.039	5466.03
429.247	5420.97
429.454	5916.58
429.662	6420.38
429.869	5881.77
430.076	6332.32
430.284	6326.18
430.491	6426.53
430.699	6811.54
430.906	6713.24
431.114	6981.53
431.321	7128.98
431.528	7182.23
431.736	7800.71
431.943	8077.19
432.15	7784.33
432.358	7970.69
432.565	8347.52
432.772	8331.14
432.979	8828.79
433.187	8843.13
433.394	8931.19
433.601	9508.72
433.808	9647.98
434.016	9613.17
434.223	10090.34
434.43	10626.91
434.637	10389.35
434.844	11079.51
435.052	11016.02
435.259	11128.66
435.466	11310.93
435.673	11505.49
435.88	11822.92
436.087	12437.31
436.294	12621.63
436.501	12185.41
436.708	12539.71
436.915	12887.87
437.122	13444.91
437.329	13340.47
437.537	13930.28
437.743	14075.69
437.95	14028.59
438.157	14683.94
438.364	15327
438.571	15388.44
438.778	15630.1
438.985	16549.64
439.192	16072.46
439.399	16606.98
439.606	16324.36
439.813	17245.94
440.02	17944.3
440.227	17848.05
440.433	17524.47
440.64	18261.74
440.847	18333.42
441.054	18704.1
441.261	19846.87
441.467	19568.34
441.674	20082.38
441.881	20436.68
442.088	20512.45
442.294	20473.54
442.501	21034.69
442.708	21163.71
442.914	22294.19
443.121	23133.85
443.328	22517.42
443.534	24190.61
443.741	23328.41
443.948	23148.19
444.154	24999.55
444.361	24759.94
444.568	24692.36
444.774	24817.29
444.981	25456.25
445.187	26107.51
445.394	27229.79
445.6	26898.02
445.807	29089.35
446.013	28024.4
446.22	28446.29
446.426	29791.8
446.633	29705.79
446.839	30828.07
447.046	29539.9
447.252	31350.31
447.459	31268.39
447.665	31239.72
447.871	32626.19
448.078	34063.86
448.284	32132.63
448.491	33173
448.697	34338.29
448.903	34813.42
449.11	35108.33
449.316	34557.42
449.522	35352.04
449.728	35851.74
449.935	36359.64
450.141	36351.45
450.347	36918.73
450.553	35751.39
450.76	36140.5
450.966	37604.8
451.172	37184.97
451.378	37881.28
451.584	36951.5
451.791	37875.13
451.997	37633.47
452.203	38391.22
452.409	38407.61
452.615	37850.56
452.821	36951.5
453.027	36394.45
453.233	38608.31
453.44	36773.33
453.646	37436.87
453.852	37522.88
454.058	37666.24
454.264	36482.52
454.47	37346.76
454.676	36572.63
454.882	37721.54
455.088	34463.22
455.294	34784.75
455.5	35444.2
455.705	35954.14
455.911	34319.86
456.117	33496.58
456.323	33228.29
456.529	31620.64
456.735	32636.43
456.941	31921.69
457.147	31354.4
457.352	30488.11
457.558	30182.96
457.764	30131.76
457.97	29484.61
458.176	28749.39
458.381	28878.41
458.587	27498.08
458.793	27600.47
458.999	25915
459.204	27833.94
459.41	27256.42
459.616	25423.48
459.821	25286.27
460.027	25349.76
460.233	24610.44
460.438	23299.74
460.644	23883.41
460.85	22750.88
461.055	22310.57
461.261	22030
461.466	21036.74
461.672	20213.45
461.878	21583.54
462.083	20139.72
462.289	19830.48
462.494	19334.87
462.7	18548.45
462.905	18050.8
463.111	18792.16
463.316	18923.23
463.522	18487.01
463.727	18458.34
463.932	18503.4
464.138	18108.14
464.343	18343.66
464.549	17673.97
464.754	18251.5
464.959	18204.39
465.165	18429.67
465.37	17135.35
465.575	16903.93
465.781	17592.05
465.986	17608.44
466.191	17225.47
466.397	16592.64
466.602	15898.38
466.807	16703.23
467.012	16318.22
467.218	16303.88
467.423	16090.89
467.628	16539.4
467.833	17098.49
