Data from USB4F104151__188__13-59-11-529.txt Node

Date: Thu Mar 13 13:59:11 EDT 2025
User: louis
Spectrometer: USB4F10415
Trigger mode: 4
Integration Time (sec): 1.000000E-2
Scans to average: 1
Electric dark correction enabled: true
Nonlinearity correction enabled: false
Boxcar width: 0
XAxis mode: Wavelengths
Number of Pixels in Spectrum: 3648
>>>>>Begin Spectral Data<<<<<
178.204	-39.76
178.424	-39.76
178.644	-39.76
178.864	-27.48
179.084	-13.14
179.304	7.34
179.524	-13.14
179.744	42.15
179.964	-4.95
180.184	42.15
180.404	-33.62
180.624	9.39
180.844	9.39
181.064	-31.57
181.283	-7
181.503	-54.1
181.723	33.96
181.943	33.96
182.163	15.53
182.383	-25.43
182.602	-41.81
182.822	42.15
183.042	50.35
183.262	3.24
183.482	33.96
183.701	1.19
183.921	60.59
184.141	13.48
184.361	9.39
184.58	25.77
184.8	-37.72
185.02	64.68
185.239	-66.39
185.459	9.39
185.679	56.49
185.898	25.77
186.118	52.39
186.338	105.64
186.557	-15.19
186.777	23.72
186.997	36.01
187.216	13.48
187.436	-21.33
187.655	19.63
187.875	-4.95
188.095	76.97
188.314	60.59
188.534	33.96
188.753	21.67
188.973	68.78
189.192	48.3
189.412	21.67
189.631	-68.44
189.851	-15.19
190.07	97.45
190.29	-47.96
190.509	52.39
190.729	-37.72
190.948	5.29
191.168	27.82
191.387	23.72
191.607	17.58
191.826	91.31
192.045	29.87
192.265	83.11
192.484	31.91
192.704	-0.85
192.923	-11.09
193.142	33.96
193.362	58.54
193.581	11.43
193.8	31.91
194.02	40.11
194.239	25.77
194.458	-35.67
194.678	-4.95
194.897	40.11
195.116	40.11
195.335	-7
195.555	74.92
195.774	7.34
195.993	31.91
196.212	40.11
196.432	40.11
196.651	27.82
196.87	-13.14
197.089	68.78
197.308	15.53
197.528	-39.76
197.747	7.34
197.966	-37.72
198.185	81.07
198.404	21.67
198.623	50.35
198.842	50.35
199.062	31.91
199.281	76.97
199.5	38.06
199.719	25.77
199.938	23.72
200.157	52.39
200.376	115.88
200.595	66.73
200.814	-17.24
201.033	-11.09
201.252	-41.81
201.471	56.49
201.69	48.3
201.909	64.68
202.128	15.53
202.347	38.06
202.566	17.58
202.785	-29.52
203.004	-4.95
203.223	54.44
203.442	56.49
203.661	25.77
203.879	79.02
204.098	52.39
204.317	-72.53
204.536	66.73
204.755	1.19
204.974	15.53
205.193	19.63
205.411	48.3
205.63	-4.95
205.849	40.11
206.068	-7
206.287	1.19
206.505	7.34
206.724	15.53
206.943	42.15
207.162	48.3
207.381	48.3
207.599	48.3
207.818	31.91
208.037	-7
208.255	-15.19
208.474	31.91
208.693	72.87
208.911	58.54
209.13	-23.38
209.349	93.35
209.567	36.01
209.786	21.67
210.005	9.39
210.223	3.24
210.442	15.53
210.661	68.78
210.879	-39.76
211.098	-13.14
211.316	36.01
211.535	-0.85
211.753	46.25
211.972	23.72
212.191	-39.76
212.409	107.69
212.628	-7
212.846	15.53
213.065	52.39
213.283	81.07
213.502	9.39
213.72	42.15
213.938	72.87
214.157	107.69
214.375	1.19
214.594	33.96
214.812	60.59
215.031	66.73
215.249	-23.38
215.467	-7
215.686	62.63
215.904	25.77
216.122	-21.33
216.341	81.07
216.559	56.49
216.778	15.53
216.996	85.16
217.214	72.87
217.432	-2.9
217.651	25.77
217.869	54.44
218.087	29.87
218.306	-23.38
218.524	58.54
218.742	15.53
218.96	3.24
219.179	40.11
219.397	15.53
219.615	31.91
219.833	-35.67
220.051	17.58
220.27	72.87
220.488	-19.29
220.706	7.34
220.924	33.96
221.142	76.97
221.36	11.43
221.578	27.82
221.796	33.96
222.015	62.63
222.233	-11.09
222.451	3.24
222.669	42.15
222.887	-43.86
223.105	64.68
223.323	91.31
223.541	23.72
223.759	7.34
223.977	-0.85
224.195	68.78
224.413	19.63
224.631	23.72
224.849	-25.43
225.067	99.5
225.285	-0.85
225.503	17.58
225.721	3.24
225.939	25.77
226.157	25.77
226.375	64.68
226.592	48.3
226.81	95.4
227.028	15.53
227.246	1.19
227.464	50.35
227.682	68.78
227.9	81.07
228.117	50.35
228.335	-11.09
228.553	74.92
228.771	33.96
228.989	-0.85
229.206	87.21
229.424	3.24
229.642	15.53
229.86	60.59
230.077	56.49
230.295	54.44
230.513	99.5
230.731	62.63
230.948	42.15
231.166	76.97
231.384	87.21
231.601	-60.24
231.819	21.67
232.037	56.49
232.254	-47.96
232.472	31.91
232.689	15.53
232.907	-35.67
233.125	54.44
233.342	1.19
233.56	-13.14
233.777	5.29
233.995	58.54
234.213	72.87
234.43	-7
234.648	7.34
234.865	33.96
235.083	99.5
235.3	-39.76
235.518	23.72
235.735	36.01
235.953	17.58
236.17	-25.43
236.388	21.67
236.605	21.67
236.822	38.06
237.04	-31.57
237.257	44.2
237.475	19.63
237.692	109.74
237.909	-17.24
238.127	9.39
238.344	-17.24
238.562	68.78
238.779	64.68
238.996	-7
239.214	17.58
239.431	54.44
239.648	-4.95
239.865	48.3
240.083	56.49
240.3	97.45
240.517	33.96
240.735	7.34
240.952	44.2
241.169	44.2
241.386	48.3
241.603	38.06
241.821	-9.05
242.038	3.24
242.255	103.59
242.472	-11.09
242.689	50.35
242.907	56.49
243.124	70.83
243.341	91.31
243.558	29.87
243.775	17.58
243.992	-4.95
244.209	31.91
244.426	66.73
244.643	-29.52
244.86	-43.86
245.078	81.07
245.295	25.77
245.512	5.29
245.729	-54.1
245.946	126.12
246.163	-4.95
246.38	-9.05
246.597	11.43
246.814	17.58
247.031	74.92
247.248	17.58
247.464	31.91
247.681	42.15
247.898	-19.29
248.115	33.96
248.332	11.43
248.549	58.54
248.766	15.53
248.983	-9.05
249.2	3.24
249.417	81.07
249.633	-17.24
249.85	60.59
250.067	-64.34
250.284	-35.67
250.501	31.91
250.717	25.77
250.934	40.11
251.151	-29.52
251.368	72.87
251.585	54.44
251.801	-9.05
252.018	-11.09
252.235	105.64
252.451	46.25
252.668	3.24
252.885	91.31
253.102	7.34
253.318	5.29
253.535	134.31
253.752	19.63
253.968	81.07
254.185	-7
254.401	9.39
254.618	60.59
254.835	-0.85
255.051	46.25
255.268	31.91
255.484	-0.85
255.701	-13.14
255.917	-23.38
256.134	42.15
256.351	33.96
256.567	42.15
256.784	93.35
257	29.87
257.217	58.54
257.433	11.43
257.65	38.06
257.866	70.83
258.082	42.15
258.299	-4.95
258.515	5.29
258.732	68.78
258.948	89.26
259.165	-9.05
259.381	50.35
259.597	23.72
259.814	66.73
260.03	27.82
260.246	17.58
260.463	17.58
260.679	38.06
260.895	70.83
261.112	66.73
261.328	-33.62
261.544	54.44
261.761	64.68
261.977	5.29
262.193	62.63
262.409	17.58
262.626	-13.14
262.842	42.15
263.058	40.11
263.274	11.43
263.49	-68.44
263.707	44.2
263.923	11.43
264.139	54.44
264.355	93.35
264.571	7.34
264.787	27.82
265.004	101.55
265.22	29.87
265.436	-41.81
265.652	50.35
265.868	48.3
266.084	-0.85
266.3	89.26
266.516	-17.24
266.732	66.73
266.948	29.87
267.164	66.73
267.38	81.07
267.596	50.35
267.812	29.87
268.028	95.4
268.244	-9.05
268.46	36.01
268.676	74.92
268.892	91.31
269.108	11.43
269.324	29.87
269.54	25.77
269.756	40.11
269.972	-25.43
270.188	44.2
270.403	15.53
270.619	5.29
270.835	91.31
271.051	31.91
271.267	50.35
271.483	46.25
271.698	50.35
271.914	62.63
272.13	74.92
272.346	27.82
272.562	17.58
272.777	48.3
272.993	36.01
273.209	36.01
273.425	54.44
273.64	-15.19
273.856	33.96
274.072	36.01
274.287	-4.95
274.503	-9.05
274.719	29.87
274.934	21.67
275.15	76.97
275.366	-27.48
275.581	68.78
275.797	3.24
276.012	42.15
276.228	91.31
276.444	36.01
276.659	19.63
276.875	50.35
277.09	56.49
277.306	27.82
277.521	40.11
277.737	-17.24
277.952	81.07
278.168	-9.05
278.383	42.15
278.599	-33.62
278.814	81.07
279.03	-15.19
279.245	36.01
279.461	38.06
279.676	33.96
279.892	109.74
280.107	89.26
280.322	25.77
280.538	50.35
280.753	-62.29
280.969	15.53
281.184	62.63
281.399	58.54
281.615	23.72
281.83	54.44
282.045	48.3
282.26	52.39
282.476	89.26
282.691	1.19
282.906	19.63
283.122	50.35
283.337	15.53
283.552	-31.57
283.767	74.92
283.983	68.78
284.198	38.06
284.413	23.72
284.628	-50
284.843	31.91
285.058	-4.95
285.274	29.87
285.489	-41.81
285.704	58.54
285.919	76.97
286.134	89.26
286.349	46.25
286.564	7.34
286.779	89.26
286.995	56.49
287.21	1.19
287.425	-27.48
287.64	31.91
287.855	99.5
288.07	36.01
288.285	66.73
288.5	66.73
288.715	54.44
288.93	17.58
289.145	27.82
289.36	46.25
289.575	66.73
289.79	76.97
290.004	101.55
290.219	19.63
290.434	25.77
290.649	40.11
290.864	-21.33
291.079	-35.67
291.294	-25.43
291.509	66.73
291.724	3.24
291.938	40.11
292.153	72.87
292.368	-2.9
292.583	25.77
292.798	46.25
293.012	85.16
293.227	66.73
293.442	-15.19
293.657	58.54
293.871	85.16
294.086	101.55
294.301	52.39
294.516	11.43
294.73	-39.76
294.945	38.06
295.16	1.19
295.374	-2.9
295.589	87.21
295.804	27.82
296.018	-37.72
296.233	19.63
296.447	9.39
296.662	52.39
296.877	40.11
297.091	19.63
297.306	56.49
297.52	21.67
297.735	134.31
297.949	15.53
298.164	40.11
298.378	-41.81
298.593	68.78
298.807	46.25
299.022	38.06
299.236	105.64
299.451	29.87
299.665	9.39
299.88	79.02
300.094	-52.05
300.309	7.34
300.523	25.77
300.737	9.39
300.952	42.15
301.166	50.35
301.381	85.16
301.595	60.59
301.809	-52.05
302.024	42.15
302.238	-74.58
302.452	48.3
302.667	76.97
302.881	66.73
303.095	-23.38
303.309	-13.14
303.524	42.15
303.738	13.48
303.952	50.35
304.166	44.2
304.381	36.01
304.595	68.78
304.809	36.01
305.023	44.2
305.237	56.49
305.452	72.87
305.666	50.35
305.88	5.29
306.094	-4.95
306.308	15.53
306.522	60.59
306.736	9.39
306.95	29.87
307.164	-29.52
307.379	87.21
307.593	42.15
307.807	91.31
308.021	111.78
308.235	68.78
308.449	7.34
308.663	-15.19
308.877	-4.95
309.091	58.54
309.305	105.64
309.519	17.58
309.733	-15.19
309.947	27.82
310.161	64.68
310.374	3.24
310.588	68.78
310.802	40.11
311.016	101.55
311.23	-33.62
311.444	76.97
311.658	27.82
311.872	70.83
312.085	-43.86
312.299	58.54
312.513	64.68
312.727	-2.9
312.941	40.11
313.154	89.26
313.368	31.91
313.582	103.59
313.796	-23.38
314.009	23.72
314.223	9.39
314.437	40.11
314.651	46.25
314.864	36.01
315.078	15.53
315.292	-23.38
315.505	52.39
315.719	97.45
315.933	56.49
316.146	48.3
316.36	11.43
316.573	46.25
316.787	5.29
317.001	87.21
317.214	29.87
317.428	60.59
317.641	-13.14
317.855	-25.43
318.068	-0.85
318.282	5.29
318.495	48.3
318.709	64.68
318.922	27.82
319.136	50.35
319.349	25.77
319.563	23.72
319.776	50.35
319.99	40.11
320.203	-29.52
320.417	-15.19
320.63	107.69
320.843	68.78
321.057	31.91
321.27	64.68
321.483	9.39
321.697	87.21
321.91	27.82
322.124	76.97
322.337	33.96
322.55	17.58
322.763	58.54
322.977	7.34
323.19	-2.9
323.403	36.01
323.617	101.55
323.83	119.98
324.043	52.39
324.256	-2.9
324.469	-17.24
324.683	50.35
324.896	68.78
325.109	50.35
325.322	109.74
325.535	52.39
325.748	50.35
325.962	-33.62
326.175	7.34
326.388	60.59
326.601	3.24
326.814	42.15
327.027	50.35
327.24	9.39
327.453	-9.05
327.666	50.35
327.879	62.63
328.092	52.39
328.305	7.34
328.518	105.64
328.731	21.67
328.944	52.39
329.157	60.59
329.37	38.06
329.583	72.87
329.796	1.19
330.009	11.43
330.222	124.07
330.435	60.59
330.648	-4.95
330.861	72.87
331.073	36.01
331.286	-21.33
331.499	25.77
331.712	17.58
331.925	-7
332.138	9.39
332.35	107.69
332.563	42.15
332.776	33.96
332.989	-4.95
333.202	31.91
333.414	33.96
333.627	68.78
333.84	36.01
334.053	72.87
334.265	9.39
334.478	21.67
334.691	-50
334.903	40.11
335.116	52.39
335.329	5.29
335.541	-19.29
335.754	-4.95
335.966	56.49
336.179	56.49
336.392	81.07
336.604	38.06
336.817	134.31
337.029	50.35
337.242	-4.95
337.454	33.96
337.667	62.63
337.88	74.92
338.092	21.67
338.305	3.24
338.517	27.82
338.729	33.96
338.942	7.34
339.154	21.67
339.367	1.19
339.579	33.96
339.792	19.63
340.004	66.73
340.217	27.82
340.429	13.48
340.641	11.43
340.854	68.78
341.066	83.11
341.278	11.43
341.491	48.3
341.703	27.82
341.915	25.77
342.128	48.3
342.34	9.39
342.552	23.72
342.764	-4.95
342.977	99.5
343.189	13.48
343.401	25.77
343.613	13.48
343.826	33.96
344.038	44.2
344.25	74.92
344.462	56.49
344.674	44.2
344.886	70.83
345.099	31.91
345.311	62.63
345.523	50.35
345.735	-29.52
345.947	68.78
346.159	101.55
346.371	81.07
346.583	50.35
346.795	85.16
347.007	56.49
347.219	36.01
347.431	154.79
347.643	19.63
347.855	40.11
348.067	50.35
348.279	56.49
348.491	1.19
348.703	-0.85
348.915	171.18
349.127	42.15
349.339	126.12
349.551	44.2
349.763	74.92
349.975	105.64
350.187	66.73
350.399	3.24
350.61	-13.14
350.822	44.2
351.034	70.83
351.246	66.73
351.458	52.39
351.669	23.72
351.881	-31.57
352.093	46.25
352.305	9.39
352.517	-17.24
352.728	40.11
352.94	66.73
353.152	31.91
353.363	3.24
353.575	85.16
353.787	-41.81
353.999	72.87
354.21	81.07
354.422	132.26
354.633	54.44
354.845	58.54
355.057	124.07
355.268	-19.29
355.48	38.06
355.692	56.49
355.903	48.3
356.115	-27.48
356.326	54.44
356.538	31.91
356.749	15.53
356.961	85.16
357.172	-29.52
357.384	-15.19
357.595	42.15
357.807	56.49
358.018	17.58
358.23	-27.48
358.441	130.22
358.653	56.49
358.864	-47.96
359.075	23.72
359.287	27.82
359.498	-13.14
359.709	29.87
359.921	7.34
360.132	36.01
360.344	52.39
360.555	97.45
360.766	46.25
360.977	56.49
361.189	42.15
361.4	72.87
361.611	-37.72
361.823	29.87
362.034	-19.29
362.245	40.11
362.456	56.49
362.667	74.92
362.879	25.77
363.09	11.43
363.301	27.82
363.512	38.06
363.723	64.68
363.935	48.3
364.146	31.91
364.357	40.11
364.568	64.68
364.779	25.77
364.99	31.91
365.201	72.87
365.412	76.97
365.623	-58.2
365.834	68.78
366.045	85.16
366.256	76.97
366.467	31.91
366.678	89.26
366.889	-4.95
367.1	44.2
367.311	15.53
367.522	23.72
367.733	48.3
367.944	64.68
368.155	95.4
368.366	85.16
368.577	17.58
368.788	68.78
368.999	23.72
369.209	42.15
369.42	33.96
369.631	76.97
369.842	15.53
370.053	97.45
370.264	64.68
370.474	68.78
370.685	-9.05
370.896	70.83
371.107	85.16
371.317	54.44
371.528	13.48
371.739	54.44
371.95	93.35
372.16	-31.57
372.371	23.72
372.582	5.29
372.792	-29.52
373.003	19.63
373.214	-50
373.424	68.78
373.635	70.83
373.846	54.44
374.056	56.49
374.267	54.44
374.477	38.06
374.688	38.06
374.898	36.01
375.109	85.16
375.319	52.39
375.53	3.24
375.74	56.49
375.951	48.3
376.161	64.68
376.372	64.68
376.582	9.39
376.793	-19.29
377.003	42.15
377.214	31.91
377.424	-0.85
377.635	107.69
377.845	52.39
378.055	66.73
378.266	13.48
378.476	50.35
378.686	62.63
378.897	52.39
379.107	42.15
379.317	-2.9
379.528	48.3
379.738	89.26
379.948	42.15
380.158	7.34
380.369	13.48
380.579	89.26
380.789	79.02
380.999	-13.14
381.21	66.73
381.42	99.5
381.63	60.59
381.84	115.88
382.05	40.11
382.261	103.59
382.471	54.44
382.681	48.3
382.891	56.49
383.101	66.73
383.311	3.24
383.521	101.55
383.731	21.67
383.941	87.21
384.151	27.82
384.361	87.21
384.571	7.34
384.781	7.34
384.991	64.68
385.201	23.72
385.411	-33.62
385.621	74.92
385.831	79.02
386.041	109.74
386.251	-9.05
386.461	48.3
386.671	1.19
386.881	99.5
387.091	23.72
387.301	68.78
387.511	11.43
387.72	15.53
387.93	72.87
388.14	29.87
388.35	29.87
388.56	111.78
388.769	36.01
388.979	91.31
389.189	54.44
389.399	13.48
389.609	87.21
389.818	74.92
390.028	138.41
390.238	36.01
390.447	111.78
390.657	99.5
390.867	76.97
391.076	87.21
391.286	72.87
391.496	81.07
391.705	15.53
391.915	89.26
392.125	29.87
392.334	54.44
392.544	89.26
392.753	72.87
392.963	1.19
393.172	103.59
393.382	115.88
393.591	107.69
393.801	-23.38
394.01	105.64
394.22	83.11
394.429	60.59
394.639	44.2
394.848	31.91
395.058	68.78
395.267	64.68
395.477	3.24
395.686	31.91
395.895	72.87
396.105	56.49
396.314	42.15
396.524	66.73
396.733	38.06
396.942	74.92
397.152	79.02
397.361	66.73
397.57	60.59
397.78	97.45
397.989	62.63
398.198	101.55
398.407	64.68
398.617	-0.85
398.826	83.11
399.035	19.63
399.244	50.35
399.453	76.97
399.663	130.22
399.872	83.11
400.081	42.15
400.29	52.39
400.499	93.35
400.708	68.78
400.917	97.45
401.127	130.22
401.336	81.07
401.545	101.55
401.754	44.2
401.963	177.32
402.172	42.15
402.381	7.34
402.59	130.22
402.799	95.4
403.008	44.2
403.217	144.55
403.426	7.34
403.635	87.21
403.844	40.11
404.053	79.02
404.262	99.5
404.471	91.31
404.68	46.25
404.888	40.11
405.097	156.84
405.306	197.8
405.515	58.54
405.724	109.74
405.933	72.87
406.142	199.85
406.35	113.83
406.559	115.88
406.768	103.59
406.977	83.11
407.185	134.31
407.394	103.59
407.603	48.3
407.812	228.52
408.02	201.9
408.229	199.85
408.438	199.85
408.646	99.5
408.855	158.89
409.064	205.99
409.272	181.42
409.481	146.6
409.69	234.66
409.898	160.94
410.107	169.13
410.315	214.18
410.524	185.51
410.733	302.25
410.941	208.04
411.15	244.9
411.358	261.29
411.567	189.61
411.775	185.51
411.984	255.14
412.192	281.77
412.401	259.24
412.609	312.49
412.818	308.39
413.026	318.63
413.234	337.06
413.443	332.97
413.651	337.06
413.86	296.1
414.068	351.4
414.276	382.12
414.485	378.02
414.693	398.5
414.901	472.23
415.11	429.22
415.318	423.08
415.526	396.45
415.734	509.09
415.943	521.38
416.151	603.3
416.359	545.95
416.567	486.56
416.776	517.28
416.984	507.04
417.192	564.39
417.4	519.33
417.608	595.11
417.817	576.67
418.025	693.41
418.233	685.22
418.441	660.64
418.649	763.04
418.857	756.9
419.065	830.62
419.273	713.89
419.481	787.61
419.689	926.88
419.897	957.6
420.105	902.3
420.313	935.07
420.521	933.02
420.729	908.44
420.937	1053.85
421.145	976.03
421.353	1127.58
421.561	1215.64
421.769	1154.2
421.977	1162.39
422.185	1248.41
422.393	1303.7
422.601	1356.95
422.809	1391.77
423.017	1408.15
423.224	1410.2
423.432	1399.96
423.64	1524.88
423.848	1602.71
424.056	1555.6
424.263	1674.39
424.471	1612.95
424.679	1698.96
424.887	1842.32
425.094	1852.56
425.302	1836.17
425.51	1977.48
425.718	1854.61
425.925	2063.5
426.133	2071.69
426.341	2129.03
426.548	2286.73
426.756	2229.38
426.964	2299.02
427.171	2469
427.379	2518.15
427.586	2487.43
427.794	2610.31
428.001	2759.81
428.209	2899.07
428.417	2749.57
428.624	2944.13
428.832	3044.48
429.039	2989.18
429.247	3079.29
429.454	3234.94
429.662	3333.24
429.869	3318.9
430.076	3470.45
430.284	3431.54
430.491	3488.89
430.699	3839.09
430.906	3689.59
431.114	3718.26
431.321	3869.81
431.528	4064.36
431.736	4275.31
431.943	4553.83
432.15	4252.78
432.358	4342.89
432.565	4602.98
432.772	4705.38
432.979	4777.06
433.187	4889.7
433.394	4887.65
433.601	5180.51
433.808	5231.71
434.016	5327.96
434.223	5399.64
434.43	5751.89
434.637	5727.32
434.844	6087.76
435.052	6052.94
435.259	6069.33
435.466	6200.4
435.673	6085.71
435.88	6302.79
436.087	6857.79
436.294	6771.78
436.501	6644.81
436.708	6777.92
436.915	7185.47
437.122	7332.92
437.329	7494.71
437.537	7431.23
437.743	7584.82
437.95	7609.4
438.157	8115.25
438.364	8164.4
438.571	8193.07
438.778	8295.47
438.985	9133.09
439.192	8868.9
439.399	9028.64
439.606	8778.79
439.813	9432.09
440.02	9841.68
440.227	9602.07
440.433	9425.95
440.64	10015.76
440.847	9821.2
441.054	10169.36
441.261	10857.48
441.467	10478.6
441.674	10957.83
441.881	11197.44
442.088	11056.13
442.294	11015.17
442.501	11557.88
442.708	11723.77
442.914	12196.85
443.121	12622.83
443.328	12151.79
443.534	13042.66
443.741	12739.56
443.948	12368.88
444.154	13618.14
444.361	13177.83
444.568	13423.58
444.774	13458.4
444.981	13689.82
445.187	14123.99
445.394	14545.87
445.6	14341.07
445.807	15752.12
446.013	15045.57
446.22	15504.32
446.426	15938.49
446.633	16100.28
446.839	16606.13
447.046	15795.13
447.252	16935.85
447.459	16929.7
447.665	16804.78
447.871	17615.77
448.078	18402.19
448.284	17456.03
448.491	18090.9
448.697	18664.33
448.903	19065.74
449.11	18967.43
449.316	18678.67
449.522	19311.49
449.728	19809.15
449.935	19835.77
450.141	19952.51
450.347	20183.93
450.553	19243.91
450.76	19753.85
450.966	20462.45
451.172	20200.31
451.378	20878.19
451.584	20140.92
451.791	20704.11
451.997	20697.97
452.203	21156.71
452.409	21039.98
452.615	21128.04
452.821	20501.36
453.027	20095.86
453.233	21052.27
453.44	20331.38
453.646	20431.73
453.852	20536.18
454.058	20843.37
454.264	20343.67
454.47	21001.07
454.676	20112.25
454.882	20945.77
455.088	19170.18
455.294	19422.08
455.5	19743.61
455.705	19798.91
455.911	19004.3
456.117	18682.77
456.323	18547.6
456.529	17820.57
456.735	18256.79
456.941	17902.49
457.147	17566.62
457.352	17079.21
457.558	16980.9
457.764	16923.56
457.97	16524.21
458.176	16083.89
458.381	16106.42
458.587	15322.05
458.793	15416.26
458.999	14701.51
459.204	15821.75
459.41	15209.41
459.616	14281.68
459.821	14289.87
460.027	14328.78
460.233	13794.26
460.438	13327.33
460.644	13503.45
460.85	12788.71
461.055	12432.36
461.261	12362.73
461.466	11594.75
461.672	11265.02
461.878	11998.2
462.083	11236.35
462.289	11181.06
462.494	11017.22
462.7	10482.7
462.905	10202.13
463.111	10533.9
463.316	10662.92
463.522	10482.7
463.727	10474.51
463.932	10640.39
464.138	10269.71
464.343	10454.03
464.549	10165.26
464.754	10335.24
464.959	10271.76
465.165	10247.18
465.37	9958.42
465.575	9712.66
465.781	10120.21
465.986	10001.43
466.191	9724.95
466.397	9542.68
466.602	9180.19
466.807	9266.21
467.012	9411.61
467.218	9311.26
467.423	9284.64
467.628	9317.4
467.833	9491.48
468.038	9427.99
468.244	9014.31
468.449	9583.64
468.654	9188.38
468.859	9002.02
469.064	8813.6
469.269	8475.69
