Data from USB4F104151__247__14-01-29-365.txt Node

Date: Thu Mar 13 14:01:29 EDT 2025
User: louis
Spectrometer: USB4F10415
Trigger mode: 4
Integration Time (sec): 1.000000E-2
Scans to average: 1
Electric dark correction enabled: true
Nonlinearity correction enabled: false
Boxcar width: 0
XAxis mode: Wavelengths
Number of Pixels in Spectrum: 3648
>>>>>Begin Spectral Data<<<<<
178.204	-12.97
178.424	-12.97
178.644	-12.97
178.864	-58.03
179.084	-72.36
179.304	-55.98
179.524	-0.68
179.744	3.41
179.964	15.7
180.184	-35.5
180.404	-35.5
180.624	38.23
180.844	11.61
181.064	3.41
181.283	46.42
181.503	3.41
181.723	5.46
181.943	-33.45
182.163	-4.78
182.383	1.37
182.602	-0.68
182.822	-8.87
183.042	32.08
183.262	36.18
183.482	38.23
183.701	-49.83
183.921	3.41
184.141	23.89
184.361	81.24
184.58	89.43
184.8	34.13
185.02	50.52
185.239	30.04
185.459	42.32
185.679	48.47
185.898	-25.26
186.118	21.85
186.338	32.08
186.557	44.37
186.777	42.32
186.997	66.9
187.216	-19.11
187.436	56.66
187.655	-4.78
187.875	7.51
188.095	21.85
188.314	36.18
188.534	9.56
188.753	-4.78
188.973	62.8
189.192	13.65
189.412	50.52
189.631	11.61
189.851	13.65
190.07	93.52
190.29	-21.16
190.509	-35.5
190.729	27.99
190.948	44.37
191.168	-8.87
191.387	-12.97
191.607	54.61
191.826	40.28
192.045	87.38
192.265	-47.79
192.484	62.8
192.704	-66.22
192.923	11.61
193.142	-19.11
193.362	68.95
193.581	56.66
193.8	-0.68
194.02	-19.11
194.239	44.37
194.458	36.18
194.678	93.52
194.897	23.89
195.116	54.61
195.335	27.99
195.555	9.56
195.774	23.89
195.993	58.71
196.212	27.99
196.432	-8.87
196.651	52.56
196.87	19.8
197.089	89.43
197.308	17.75
197.528	-51.88
197.747	97.62
197.966	19.8
198.185	118.1
198.404	73.04
198.623	7.51
198.842	23.89
199.062	93.52
199.281	101.72
199.5	48.47
199.719	27.99
199.938	34.13
200.157	44.37
200.376	15.7
200.595	50.52
200.814	27.99
201.033	-29.35
201.252	109.91
201.471	42.32
201.69	-0.68
201.909	71
202.128	81.24
202.347	46.42
202.566	-68.27
202.785	38.23
203.004	11.61
203.223	62.8
203.442	40.28
203.661	-53.93
203.879	62.8
204.098	56.66
204.317	-0.68
204.536	52.56
204.755	-17.07
204.974	46.42
205.193	48.47
205.411	93.52
205.63	7.51
205.849	-27.31
206.068	3.41
206.287	60.76
206.505	7.51
206.724	32.08
206.943	58.71
207.162	56.66
207.381	5.46
207.599	-19.11
207.818	23.89
208.037	-12.97
208.255	21.85
208.474	23.89
208.693	52.56
208.911	30.04
209.13	64.85
209.349	27.99
209.567	-10.92
209.786	-8.87
210.005	3.41
210.223	130.39
210.442	23.89
210.661	81.24
210.879	13.65
211.098	21.85
211.316	21.85
211.535	52.56
211.753	5.46
211.972	19.8
212.191	-19.11
212.409	56.66
212.628	54.61
212.846	-10.92
213.065	101.72
213.283	64.85
213.502	103.76
213.72	1.37
213.938	7.51
214.157	89.43
214.375	7.51
214.594	-12.97
214.812	19.8
215.031	-29.35
215.249	38.23
215.467	38.23
215.686	-2.73
215.904	79.19
216.122	-25.26
216.341	21.85
216.559	46.42
216.778	42.32
216.996	60.76
217.214	54.61
217.432	-31.4
217.651	56.66
217.869	36.18
218.087	42.32
218.306	17.75
218.524	23.89
218.742	68.95
218.96	32.08
219.179	25.94
219.397	9.56
219.615	101.72
219.833	-45.74
220.051	-4.78
220.27	-27.31
220.488	62.8
220.706	-12.97
220.924	48.47
221.142	7.51
221.36	23.89
221.578	109.91
221.796	5.46
222.015	-2.73
222.233	85.33
222.451	32.08
222.669	68.95
222.887	81.24
223.105	21.85
223.323	-15.02
223.541	64.85
223.759	3.41
223.977	-41.64
224.195	30.04
224.413	30.04
224.631	11.61
224.849	32.08
225.067	-45.74
225.285	5.46
225.503	27.99
225.721	11.61
225.939	-29.35
226.157	38.23
226.375	50.52
226.592	54.61
226.81	40.28
227.028	-2.73
227.246	60.76
227.464	3.41
227.682	97.62
227.9	-6.83
228.117	32.08
228.335	81.24
228.553	87.38
228.771	-35.5
228.989	99.67
229.206	62.8
229.424	11.61
229.642	-2.73
229.86	52.56
230.077	32.08
230.295	11.61
230.513	-58.03
230.731	73.04
230.948	60.76
231.166	19.8
231.384	21.85
231.601	109.91
231.819	5.46
232.037	17.75
232.254	-29.35
232.472	13.65
232.689	52.56
232.907	34.13
233.125	13.65
233.342	-39.59
233.56	52.56
233.777	62.8
233.995	32.08
234.213	30.04
234.43	71
234.648	-6.83
234.865	-0.68
235.083	21.85
235.3	9.56
235.518	44.37
235.735	27.99
235.953	66.9
236.17	93.52
236.388	13.65
236.605	34.13
236.822	19.8
237.04	21.85
237.257	50.52
237.475	52.56
237.692	-0.68
237.909	13.65
238.127	46.42
238.344	7.51
238.562	62.8
238.779	-12.97
238.996	-15.02
239.214	-12.97
239.431	32.08
239.648	-29.35
239.865	54.61
240.083	36.18
240.3	27.99
240.517	7.51
240.735	85.33
240.952	50.52
241.169	19.8
241.386	34.13
241.603	52.56
241.821	52.56
242.038	-33.45
242.255	68.95
242.472	46.42
242.689	21.85
242.907	68.95
243.124	54.61
243.341	1.37
243.558	48.47
243.775	-6.83
243.992	34.13
244.209	68.95
244.426	64.85
244.643	66.9
244.86	1.37
245.078	71
245.295	36.18
245.512	40.28
245.729	-8.87
245.946	52.56
246.163	66.9
246.38	58.71
246.597	23.89
246.814	36.18
247.031	77.14
247.248	42.32
247.464	-29.35
247.681	3.41
247.898	68.95
248.115	116.05
248.332	77.14
248.549	32.08
248.766	46.42
248.983	126.29
249.2	44.37
249.417	95.57
249.633	25.94
249.85	32.08
250.067	-0.68
250.284	-17.07
250.501	42.32
250.717	9.56
250.934	17.75
251.151	66.9
251.368	-8.87
251.585	5.46
251.801	73.04
252.018	-35.5
252.235	3.41
252.451	21.85
252.668	83.28
252.885	140.63
253.102	40.28
253.318	44.37
253.535	36.18
253.752	3.41
253.968	27.99
254.185	27.99
254.401	13.65
254.618	11.61
254.835	11.61
255.051	44.37
255.268	1.37
255.484	13.65
255.701	21.85
255.917	-2.73
256.134	-8.87
256.351	42.32
256.567	21.85
256.784	77.14
257	-23.21
257.217	136.53
257.433	30.04
257.65	1.37
257.866	105.81
258.082	52.56
258.299	-29.35
258.515	58.71
258.732	75.09
258.948	3.41
259.165	73.04
259.381	27.99
259.597	13.65
259.814	38.23
260.03	15.7
260.246	-2.73
260.463	85.33
260.679	-21.16
260.895	-15.02
261.112	21.85
261.328	38.23
261.544	81.24
261.761	13.65
261.977	48.47
262.193	48.47
262.409	11.61
262.626	23.89
262.842	103.76
263.058	21.85
263.274	81.24
263.49	56.66
263.707	7.51
263.923	-27.31
264.139	60.76
264.355	71
264.571	-2.73
264.787	27.99
265.004	30.04
265.22	5.46
265.436	38.23
265.652	-0.68
265.868	27.99
266.084	-37.55
266.3	3.41
266.516	17.75
266.732	77.14
266.948	15.7
267.164	-21.16
267.38	27.99
267.596	-0.68
267.812	95.57
268.028	11.61
268.244	3.41
268.46	-12.97
268.676	36.18
268.892	38.23
269.108	-25.26
269.324	79.19
269.54	-0.68
269.756	11.61
269.972	-15.02
270.188	42.32
270.403	15.7
270.619	11.61
270.835	-2.73
271.051	13.65
271.267	-8.87
271.483	44.37
271.698	68.95
271.914	71
272.13	11.61
272.346	73.04
272.562	-4.78
272.777	44.37
272.993	56.66
273.209	5.46
273.425	-0.68
273.64	-41.64
273.856	48.47
274.072	32.08
274.287	-0.68
274.503	68.95
274.719	73.04
274.934	-58.03
275.15	107.86
275.366	73.04
275.581	-15.02
275.797	23.89
276.012	25.94
276.228	-8.87
276.444	19.8
276.659	73.04
276.875	3.41
277.09	3.41
277.306	-27.31
277.521	27.99
277.737	85.33
277.952	62.8
278.168	36.18
278.383	21.85
278.599	-12.97
278.814	9.56
279.03	-8.87
279.245	89.43
279.461	68.95
279.676	60.76
279.892	-0.68
280.107	-4.78
280.322	-60.07
280.538	3.41
280.753	23.89
280.969	54.61
281.184	-15.02
281.399	36.18
281.615	21.85
281.83	60.76
282.045	60.76
282.26	-2.73
282.476	36.18
282.691	73.04
282.906	13.65
283.122	-21.16
283.337	32.08
283.552	50.52
283.767	46.42
283.983	42.32
284.198	-8.87
284.413	44.37
284.628	-10.92
284.843	23.89
285.058	34.13
285.274	-37.55
285.489	85.33
285.704	64.85
285.919	-60.07
286.134	38.23
286.349	19.8
286.564	116.05
286.779	60.76
286.995	-12.97
287.21	64.85
287.425	21.85
287.64	44.37
287.855	21.85
288.07	27.99
288.285	-45.74
288.5	13.65
288.715	81.24
288.93	34.13
289.145	-4.78
289.36	15.7
289.575	73.04
289.79	52.56
290.004	71
290.219	36.18
290.434	109.91
290.649	75.09
290.864	13.65
291.079	-53.93
291.294	-4.78
291.509	71
291.724	56.66
291.938	44.37
292.153	-8.87
292.368	36.18
292.583	11.61
292.798	25.94
293.012	40.28
293.227	77.14
293.442	73.04
293.657	34.13
293.871	15.7
294.086	7.51
294.301	17.75
294.516	68.95
294.73	13.65
294.945	15.7
295.16	19.8
295.374	101.72
295.589	58.71
295.804	36.18
296.018	52.56
296.233	48.47
296.447	68.95
296.662	36.18
296.877	46.42
297.091	40.28
297.306	17.75
297.52	19.8
297.735	5.46
297.949	27.99
298.164	48.47
298.378	60.76
298.593	15.7
298.807	13.65
299.022	44.37
299.236	7.51
299.451	11.61
299.665	9.56
299.88	-43.69
300.094	3.41
300.309	87.38
300.523	36.18
300.737	-29.35
300.952	105.81
301.166	54.61
301.381	95.57
301.595	44.37
301.809	81.24
302.024	75.09
302.238	11.61
302.452	44.37
302.667	91.48
302.881	-21.16
303.095	44.37
303.309	32.08
303.524	56.66
303.738	56.66
303.952	9.56
304.166	-23.21
304.381	7.51
304.595	40.28
304.809	5.46
305.023	68.95
305.237	91.48
305.452	9.56
305.666	60.76
305.88	73.04
306.094	30.04
306.308	68.95
306.522	46.42
306.736	-60.07
306.95	-4.78
307.164	85.33
307.379	3.41
307.593	17.75
307.807	81.24
308.021	109.91
308.235	11.61
308.449	-17.07
308.663	21.85
308.877	5.46
309.091	-0.68
309.305	66.9
309.519	-8.87
309.733	23.89
309.947	-10.92
310.161	109.91
310.374	58.71
310.588	7.51
310.802	23.89
311.016	32.08
311.23	27.99
311.444	48.47
311.658	52.56
311.872	87.38
312.085	27.99
312.299	30.04
312.513	77.14
312.727	7.51
312.941	-6.83
313.154	21.85
313.368	19.8
313.582	-0.68
313.796	54.61
314.009	54.61
314.223	-21.16
314.437	50.52
314.651	-15.02
314.864	38.23
315.078	27.99
315.292	-12.97
315.505	-25.26
315.719	66.9
315.933	32.08
316.146	44.37
316.36	-6.83
316.573	32.08
316.787	34.13
317.001	44.37
317.214	-0.68
317.428	46.42
317.641	15.7
317.855	103.76
318.068	54.61
318.282	48.47
318.495	-8.87
318.709	103.76
318.922	50.52
319.136	64.85
319.349	-27.31
319.563	97.62
319.776	-21.16
319.99	58.71
320.203	3.41
320.417	15.7
320.63	38.23
320.843	109.91
321.057	9.56
321.27	13.65
321.483	36.18
321.697	50.52
321.91	7.51
322.124	-2.73
322.337	-15.02
322.55	5.46
322.763	34.13
322.977	71
323.19	58.71
323.403	116.05
323.617	62.8
323.83	44.37
324.043	30.04
324.256	44.37
324.469	34.13
324.683	52.56
324.896	40.28
325.109	95.57
325.322	27.99
325.535	58.71
325.748	-29.35
325.962	-45.74
326.175	5.46
326.388	25.94
326.601	13.65
326.814	36.18
327.027	9.56
327.24	15.7
327.453	50.52
327.666	77.14
327.879	44.37
328.092	40.28
328.305	15.7
328.518	44.37
328.731	56.66
328.944	1.37
329.157	66.9
329.37	13.65
329.583	85.33
329.796	13.65
330.009	-15.02
330.222	11.61
330.435	48.47
330.648	79.19
330.861	19.8
331.073	56.66
331.286	48.47
331.499	66.9
331.712	54.61
331.925	60.76
332.138	30.04
332.35	58.71
332.563	-55.98
332.776	62.8
332.989	89.43
333.202	11.61
333.414	3.41
333.627	36.18
333.84	-37.55
334.053	15.7
334.265	-4.78
334.478	32.08
334.691	46.42
334.903	-21.16
335.116	71
335.329	-0.68
335.541	83.28
335.754	73.04
335.966	48.47
336.179	-53.93
336.392	-31.4
336.604	62.8
336.817	40.28
337.029	32.08
337.242	66.9
337.454	38.23
337.667	27.99
337.88	95.57
338.092	-6.83
338.305	32.08
338.517	79.19
338.729	7.51
338.942	-4.78
339.154	30.04
339.367	36.18
339.579	54.61
339.792	66.9
340.004	-29.35
340.217	7.51
340.429	7.51
340.641	7.51
340.854	46.42
341.066	11.61
341.278	89.43
341.491	30.04
341.703	89.43
341.915	19.8
342.128	75.09
342.34	17.75
342.552	36.18
342.764	11.61
342.977	1.37
343.189	34.13
343.401	-29.35
343.613	32.08
343.826	48.47
344.038	-0.68
344.25	60.76
344.462	-4.78
344.674	71
344.886	-4.78
345.099	71
345.311	54.61
345.523	3.41
345.735	27.99
345.947	42.32
346.159	27.99
346.371	-15.02
346.583	50.52
346.795	-15.02
347.007	64.85
347.219	11.61
347.431	71
347.643	44.37
347.855	46.42
348.067	21.85
348.279	44.37
348.491	62.8
348.703	13.65
348.915	15.7
349.127	27.99
349.339	19.8
349.551	21.85
349.763	71
349.975	-15.02
350.187	-19.11
350.399	34.13
350.61	-2.73
350.822	30.04
351.034	40.28
351.246	-31.4
351.458	50.52
351.669	-2.73
351.881	30.04
352.093	44.37
352.305	25.94
352.517	93.52
352.728	13.65
352.94	13.65
353.152	-43.69
353.363	-35.5
353.575	95.57
353.787	132.44
353.999	52.56
354.21	56.66
354.422	-6.83
354.633	5.46
354.845	44.37
355.057	-23.21
355.268	52.56
355.48	99.67
355.692	85.33
355.903	34.13
356.115	103.76
356.326	1.37
356.538	68.95
356.749	40.28
356.961	93.52
357.172	21.85
357.384	77.14
357.595	87.38
357.807	13.65
358.018	50.52
358.23	15.7
358.441	58.71
358.653	17.75
358.864	-37.55
359.075	-25.26
359.287	52.56
359.498	30.04
359.709	-21.16
359.921	36.18
360.132	-0.68
360.344	36.18
360.555	60.76
360.766	38.23
360.977	44.37
361.189	48.47
361.4	30.04
361.611	3.41
361.823	52.56
362.034	-12.97
362.245	60.76
362.456	111.96
362.667	77.14
362.879	64.85
363.09	-0.68
363.301	91.48
363.512	48.47
363.723	120.15
363.935	-6.83
364.146	-17.07
364.357	-4.78
364.568	9.56
364.779	122.2
364.99	99.67
365.201	-10.92
365.412	23.89
365.623	-19.11
365.834	9.56
366.045	7.51
366.256	3.41
366.467	58.71
366.678	27.99
366.889	48.47
367.1	13.65
367.311	-0.68
367.522	52.56
367.733	54.61
367.944	46.42
368.155	56.66
368.366	23.89
368.577	50.52
368.788	89.43
368.999	52.56
369.209	36.18
369.42	89.43
369.631	68.95
369.842	68.95
370.053	52.56
370.264	11.61
370.474	60.76
370.685	68.95
370.896	-10.92
371.107	81.24
371.317	42.32
371.528	-10.92
371.739	107.86
371.95	38.23
372.16	54.61
372.371	52.56
372.582	13.65
372.792	40.28
373.003	66.9
373.214	27.99
373.424	27.99
373.635	30.04
373.846	46.42
374.056	103.76
374.267	30.04
374.477	30.04
374.688	109.91
374.898	77.14
375.109	27.99
375.319	91.48
375.53	95.57
375.74	46.42
375.951	19.8
376.161	30.04
376.372	77.14
376.582	38.23
376.793	36.18
377.003	-10.92
377.214	48.47
377.424	34.13
377.635	42.32
377.845	-2.73
378.055	-4.78
378.266	73.04
378.476	60.76
378.686	83.28
378.897	85.33
379.107	-2.73
379.317	11.61
379.528	73.04
379.738	46.42
379.948	17.75
380.158	13.65
380.369	71
380.579	15.7
380.789	-10.92
380.999	62.8
381.21	19.8
381.42	66.9
381.63	38.23
381.84	48.47
382.05	58.71
382.261	77.14
382.471	58.71
382.681	93.52
382.891	73.04
383.101	32.08
383.311	15.7
383.521	32.08
383.731	-4.78
383.941	54.61
384.151	27.99
384.361	36.18
384.571	79.19
384.781	17.75
384.991	60.76
385.201	68.95
385.411	71
385.621	27.99
385.831	9.56
386.041	93.52
386.251	68.95
386.461	44.37
386.671	56.66
386.881	105.81
387.091	40.28
387.301	95.57
387.511	52.56
387.72	87.38
387.93	15.7
388.14	36.18
388.35	66.9
388.56	56.66
388.769	68.95
388.979	5.46
389.189	52.56
389.399	21.85
389.609	13.65
389.818	77.14
390.028	122.2
390.238	73.04
390.447	19.8
390.657	7.51
390.867	19.8
391.076	54.61
391.286	62.8
391.496	71
391.705	3.41
391.915	42.32
392.125	114
392.334	25.94
392.544	130.39
392.753	60.76
392.963	60.76
393.172	64.85
393.382	-25.26
393.591	120.15
393.801	60.76
394.01	32.08
394.22	21.85
394.429	71
394.639	64.85
394.848	46.42
395.058	62.8
395.267	46.42
395.477	81.24
395.686	85.33
395.895	34.13
396.105	126.29
396.314	87.38
396.524	118.1
396.733	32.08
396.942	73.04
397.152	87.38
397.361	46.42
397.57	71
397.78	152.92
397.989	85.33
398.198	87.38
398.407	111.96
398.617	44.37
398.826	21.85
399.035	103.76
399.244	91.48
399.453	81.24
399.663	48.47
399.872	111.96
400.081	-4.78
400.29	126.29
400.499	83.28
400.708	95.57
400.917	-19.11
401.127	79.19
401.336	142.68
401.545	118.1
401.754	150.87
401.963	48.47
402.172	64.85
402.381	99.67
402.59	111.96
402.799	89.43
403.008	134.48
403.217	68.95
403.426	124.24
403.635	71
403.844	79.19
404.053	130.39
404.262	30.04
404.471	91.48
404.68	54.61
404.888	73.04
405.097	95.57
405.306	27.99
405.515	66.9
405.724	77.14
405.933	89.43
406.142	91.48
406.35	134.48
406.559	136.53
406.768	95.57
406.977	134.48
407.185	103.76
407.394	142.68
407.603	142.68
407.812	148.82
408.02	154.96
408.229	142.68
408.438	183.63
408.646	142.68
408.855	107.86
409.064	62.8
409.272	124.24
409.481	144.72
409.69	114
409.898	202.07
410.107	189.78
410.315	247.12
410.524	142.68
410.733	232.79
410.941	228.69
411.15	232.79
411.358	175.44
411.567	238.93
411.775	206.16
411.984	220.5
412.192	265.55
412.401	312.66
412.609	337.23
412.818	345.42
413.026	281.94
413.234	253.27
413.443	316.75
413.651	294.22
413.86	326.99
414.068	326.99
414.276	361.81
414.485	355.66
414.693	300.37
414.901	445.77
415.11	396.62
415.318	388.43
415.526	474.45
415.734	437.58
415.943	447.82
416.151	478.54
416.359	591.18
416.567	539.98
416.776	449.87
416.984	515.41
417.192	619.85
417.4	535.89
417.608	474.45
417.817	603.47
418.025	587.08
418.233	568.65
418.441	585.04
418.649	648.52
418.857	726.35
419.065	683.34
419.273	693.58
419.481	871.75
419.689	791.88
419.897	820.55
420.105	808.27
420.313	851.27
420.521	927.05
420.729	933.19
420.937	892.23
421.145	965.96
421.353	988.49
421.561	1011.01
421.769	1070.41
421.977	1109.32
422.185	1154.37
422.393	1197.38
422.601	1260.87
422.809	1344.83
423.017	1273.15
423.224	1336.64
423.432	1340.74
423.64	1416.51
423.848	1551.68
424.056	1533.25
424.263	1633.6
424.471	1631.55
424.679	1670.46
424.887	1660.22
425.094	1742.14
425.302	1754.43
425.51	1828.15
425.718	1813.82
425.925	1903.93
426.133	1953.08
426.341	2067.77
426.548	2295.09
426.756	2145.59
426.964	2137.4
427.171	2315.57
427.379	2370.87
427.586	2501.94
427.794	2579.76
428.001	2604.33
428.209	2716.97
428.417	2694.44
428.624	2878.76
428.832	2800.94
429.039	2776.36
429.247	2841.9
429.454	3009.83
429.662	3290.4
429.869	3075.37
430.076	3319.07
430.284	3183.91
430.491	3456.29
430.699	3630.37
430.906	3560.73
431.114	3632.41
431.321	3812.64
431.528	3865.88
431.736	4042.01
431.943	4244.76
432.15	4042.01
432.358	4236.56
432.565	4375.83
432.772	4320.53
432.979	4607.25
433.187	4652.3
433.394	4799.76
433.601	4959.5
433.808	5010.7
434.016	4844.81
434.223	5160.2
434.43	5508.35
434.637	5399.81
434.844	5768.45
435.052	5795.07
435.259	5684.48
435.466	5737.73
435.673	5879.04
435.88	6202.61
436.087	6378.74
436.294	6384.88
436.501	6186.23
436.708	6362.36
436.915	6597.87
437.122	6954.22
437.329	6991.08
437.537	7081.19
437.743	7376.1
437.95	7335.14
438.157	7752.93
438.364	7830.75
438.571	7732.45
438.778	7890.14
438.985	8686.8
439.192	8074.46
439.399	8459.48
439.606	8453.33
439.813	8770.77
440.02	9399.49
440.227	9182.41
440.433	9000.14
440.64	9278.66
440.847	9561.28
441.054	9542.85
441.261	10319.03
441.467	10017.98
441.674	10235.07
441.881	10783.92
442.088	10591.41
442.294	10454.2
442.501	10706.1
442.708	11152.56
442.914	11463.85
443.121	11777.19
443.328	11613.35
443.534	12414.1
443.741	11943.07
443.948	12008.61
444.154	12739.73
444.361	12522.65
444.568	12784.79
444.774	12827.79
444.981	12930.19
445.187	13223.05
445.394	13980.8
445.6	13587.59
445.807	15058.03
446.013	14288
446.22	14599.29
446.426	15113.33
446.633	15244.4
446.839	15787.11
447.046	15225.97
447.252	15957.09
447.459	15963.23
447.665	15836.26
447.871	16641.11
448.078	17402.96
448.284	16860.24
448.491	16962.64
448.697	17341.52
448.903	17830.98
449.11	17837.13
449.316	17591.37
449.522	17937.48
449.728	18848.82
449.935	18775.09
450.141	18857.01
450.347	19194.93
450.553	18562.11
450.76	18660.41
450.966	19254.32
451.172	19242.03
451.378	19422.25
451.584	18940.98
451.791	19743.78
451.997	19381.29
452.203	19944.49
452.409	19944.49
452.615	19704.87
452.821	18998.32
453.027	19057.71
453.233	19995.68
453.44	19215.41
453.646	19278.9
453.852	19260.46
454.058	19688.49
454.264	19115.06
454.47	19598.38
454.676	18879.54
454.882	19516.46
455.088	18246.72
455.294	18236.48
455.5	18498.62
455.705	18717.75
455.911	18021.44
456.117	17751.11
456.323	17310.8
456.529	16512.09
456.735	17042.51
456.941	16739.41
457.147	16272.48
457.352	16002.15
457.558	15795.3
457.764	15697
457.97	15797.35
458.176	15178.86
458.381	15010.93
458.587	14517.37
458.793	14543.99
458.999	13945.98
459.204	14810.23
459.41	14480.5
459.616	13356.17
459.821	13190.28
460.027	13606.02
460.233	12915.86
460.438	12393.62
460.644	12504.21
460.85	11988.13
461.055	11920.54
461.261	11637.92
461.466	11011.25
461.672	10669.23
461.878	11412.65
462.083	10603.7
462.289	10474.68
462.494	10183.87
462.7	9925.82
462.905	9768.13
463.111	9878.72
463.316	9983.17
463.522	9743.55
463.727	9876.67
463.932	9704.64
464.138	9544.9
464.343	9759.94
464.549	9424.07
464.754	9764.03
464.959	9667.78
465.165	9524.42
465.37	9254.09
465.575	8989.9
465.781	9417.93
465.986	9256.14
466.191	9180.36
466.397	8756.43
466.602	8518.87
466.807	8742.1
467.012	8570.07
467.218	8664.27
467.423	8686.8
467.628	8654.03
467.833	8875.21
468.038	8641.75
468.244	8508.63
468.449	8744.14
468.654	8482
468.859	8457.43
469.064	8457.43
469.269	8004.83
469.474	8006.88
469.679	8185.05
469.885	8004.83
470.09	8180.95
