Data from USB4F104151__228__14-00-22-822.txt Node

Date: Thu Mar 13 14:00:22 EDT 2025
User: louis
Spectrometer: USB4F10415
Trigger mode: 4
Integration Time (sec): 1.000000E-2
Scans to average: 1
Electric dark correction enabled: true
Nonlinearity correction enabled: false
Boxcar width: 0
XAxis mode: Wavelengths
Number of Pixels in Spectrum: 3648
>>>>>Begin Spectral Data<<<<<
178.204	-38.23
178.424	-38.23
178.644	-38.23
178.864	-58.71
179.084	-46.42
179.304	2.73
179.524	58.03
179.744	4.78
179.964	6.83
180.184	45.74
180.404	-30.04
180.624	-5.46
180.844	-21.85
181.064	-83.28
181.283	29.35
181.503	-34.13
181.723	27.31
181.943	-36.18
182.163	21.16
182.383	90.79
182.602	39.59
182.822	-62.8
183.042	90.79
183.262	-79.19
183.482	64.17
183.701	19.11
183.921	-5.46
184.141	-42.32
184.361	29.35
184.58	39.59
184.8	6.83
185.02	-54.61
185.239	90.79
185.459	-64.85
185.679	64.17
185.898	-38.23
186.118	-40.28
186.338	21.16
186.557	58.03
186.777	-44.37
186.997	33.45
187.216	8.87
187.436	39.59
187.655	15.02
187.875	82.6
188.095	-27.99
188.314	12.97
188.534	-50.52
188.753	27.31
188.973	27.31
189.192	29.35
189.412	-15.7
189.631	45.74
189.851	-23.89
190.07	55.98
190.29	4.78
190.509	0.68
190.729	90.79
190.948	12.97
191.168	19.11
191.387	4.78
191.607	21.16
191.826	-17.75
192.045	21.16
192.265	84.65
192.484	-17.75
192.704	19.11
192.923	53.93
193.142	82.6
193.362	8.87
193.581	-5.46
193.8	66.22
194.02	-44.37
194.239	-54.61
194.458	-17.75
194.678	-13.65
194.897	-71
195.116	29.35
195.335	43.69
195.555	64.17
195.774	51.88
195.993	-15.7
196.212	4.78
196.432	12.97
196.651	-3.41
196.87	60.07
197.089	27.31
197.308	39.59
197.528	10.92
197.747	55.98
197.966	88.75
198.185	27.31
198.404	-38.23
198.623	37.55
198.842	-19.8
199.062	-7.51
199.281	29.35
199.5	39.59
199.719	53.93
199.938	19.11
200.157	-3.41
200.376	45.74
200.595	62.12
200.814	53.93
201.033	8.87
201.252	60.07
201.471	23.21
201.69	41.64
201.909	-50.52
202.128	23.21
202.347	-3.41
202.566	58.03
202.785	-17.75
203.004	-68.95
203.223	43.69
203.442	10.92
203.661	45.74
203.879	2.73
204.098	27.31
204.317	6.83
204.536	10.92
204.755	78.51
204.974	17.07
205.193	33.45
205.411	-1.37
205.63	-15.7
205.849	-13.65
206.068	6.83
206.287	19.11
206.505	31.4
206.724	27.31
206.943	15.02
207.162	25.26
207.381	39.59
207.599	64.17
207.818	21.16
208.037	19.11
208.255	-38.23
208.474	35.5
208.693	19.11
208.911	51.88
209.13	4.78
209.349	29.35
209.567	62.12
209.786	27.31
210.005	117.42
210.223	6.83
210.442	19.11
210.661	45.74
210.879	10.92
211.098	-15.7
211.316	-23.89
211.535	-13.65
211.753	62.12
211.972	51.88
212.191	35.5
212.409	60.07
212.628	21.16
212.846	10.92
213.065	47.79
213.283	-9.56
213.502	-1.37
213.72	37.55
213.938	-1.37
214.157	-5.46
214.375	53.93
214.594	43.69
214.812	19.11
215.031	12.97
215.249	66.22
215.467	-5.46
215.686	47.79
215.904	2.73
216.122	37.55
216.341	47.79
216.559	25.26
216.778	-5.46
216.996	-5.46
217.214	-21.85
217.432	-36.18
217.651	19.11
217.869	29.35
218.087	-30.04
218.306	2.73
218.524	-15.7
218.742	10.92
218.96	68.27
219.179	-5.46
219.397	51.88
219.615	37.55
219.833	49.83
220.051	19.11
220.27	-21.85
220.488	45.74
220.706	62.12
220.924	-25.94
221.142	76.46
221.36	60.07
221.578	27.31
221.796	51.88
222.015	27.31
222.233	4.78
222.451	10.92
222.669	31.4
222.887	45.74
223.105	-30.04
223.323	-5.46
223.541	-36.18
223.759	23.21
223.977	-7.51
224.195	29.35
224.413	92.84
224.631	66.22
224.849	-17.75
225.067	51.88
225.285	72.36
225.503	70.31
225.721	23.21
225.939	-44.37
226.157	23.21
226.375	25.26
226.592	-81.24
226.81	19.11
227.028	0.68
227.246	60.07
227.464	35.5
227.682	21.16
227.9	-50.52
228.117	51.88
228.335	86.7
228.553	35.5
228.771	4.78
228.989	-21.85
229.206	10.92
229.424	-54.61
229.642	80.55
229.86	37.55
230.077	-36.18
230.295	45.74
230.513	-5.46
230.731	29.35
230.948	137.9
231.166	45.74
231.384	27.31
231.601	0.68
231.819	60.07
232.037	10.92
232.254	53.93
232.472	78.51
232.689	-7.51
232.907	19.11
233.125	21.16
233.342	58.03
233.56	19.11
233.777	51.88
233.995	27.31
234.213	19.11
234.43	0.68
234.648	35.5
234.865	8.87
235.083	-34.13
235.3	25.26
235.518	4.78
235.735	27.31
235.953	78.51
236.17	15.02
236.388	-23.89
236.605	49.83
236.822	47.79
237.04	49.83
237.257	-60.76
237.475	-25.94
237.692	70.31
237.909	-44.37
238.127	45.74
238.344	35.5
238.562	-89.43
238.779	-58.71
238.996	21.16
239.214	-11.61
239.431	55.98
239.648	-17.75
239.865	21.16
240.083	19.11
240.3	74.41
240.517	53.93
240.735	19.11
240.952	2.73
241.169	21.16
241.386	-5.46
241.603	70.31
241.821	27.31
242.038	37.55
242.255	39.59
242.472	15.02
242.689	17.07
242.907	86.7
243.124	41.64
243.341	27.31
243.558	53.93
243.775	12.97
243.992	8.87
244.209	27.31
244.426	19.11
244.643	31.4
244.86	49.83
245.078	39.59
245.295	64.17
245.512	29.35
245.729	8.87
245.946	51.88
246.163	68.27
246.38	39.59
246.597	41.64
246.814	51.88
247.031	25.26
247.248	12.97
247.464	-38.23
247.681	101.03
247.898	-50.52
248.115	-46.42
248.332	31.4
248.549	37.55
248.766	49.83
248.983	8.87
249.2	12.97
249.417	76.46
249.633	-21.85
249.85	55.98
250.067	45.74
250.284	131.75
250.501	15.02
250.717	12.97
250.934	51.88
251.151	-11.61
251.368	41.64
251.585	4.78
251.801	4.78
252.018	-32.08
252.235	21.16
252.451	25.26
252.668	-19.8
252.885	-38.23
253.102	103.08
253.318	33.45
253.535	33.45
253.752	15.02
253.968	-48.47
254.185	-68.95
254.401	6.83
254.618	33.45
254.835	-11.61
255.051	80.55
255.268	-13.65
255.484	31.4
255.701	-30.04
255.917	27.31
256.134	12.97
256.351	45.74
256.567	35.5
256.784	12.97
257	51.88
257.217	27.31
257.433	8.87
257.65	-32.08
257.866	-21.85
258.082	43.69
258.299	2.73
258.515	78.51
258.732	51.88
258.948	45.74
259.165	-7.51
259.381	-15.7
259.597	-52.56
259.814	-9.56
260.03	33.45
260.246	43.69
260.463	-23.89
260.679	-44.37
260.895	-25.94
261.112	6.83
261.328	19.11
261.544	6.83
261.761	2.73
261.977	27.31
262.193	25.26
262.409	29.35
262.626	29.35
262.842	31.4
263.058	-17.75
263.274	78.51
263.49	68.27
263.707	-54.61
263.923	51.88
264.139	10.92
264.355	84.65
264.571	2.73
264.787	68.27
265.004	-17.75
265.22	60.07
265.436	74.41
265.652	-7.51
265.868	15.02
266.084	-40.28
266.3	15.02
266.516	-9.56
266.732	17.07
266.948	-36.18
267.164	88.75
267.38	25.26
267.596	-44.37
267.812	-1.37
268.028	19.11
268.244	37.55
268.46	21.16
268.676	68.27
268.892	-3.41
269.108	-27.99
269.324	-60.76
269.54	2.73
269.756	43.69
269.972	-38.23
270.188	2.73
270.403	43.69
270.619	51.88
270.835	25.26
271.051	35.5
271.267	27.31
271.483	68.27
271.698	25.26
271.914	35.5
272.13	31.4
272.346	41.64
272.562	23.21
272.777	27.31
272.993	-19.8
273.209	51.88
273.425	74.41
273.64	-62.8
273.856	60.07
274.072	47.79
274.287	51.88
274.503	-5.46
274.719	78.51
274.934	47.79
275.15	0.68
275.366	23.21
275.581	-5.46
275.797	4.78
276.012	35.5
276.228	37.55
276.444	15.02
276.659	19.11
276.875	0.68
277.09	-1.37
277.306	33.45
277.521	41.64
277.737	-17.75
277.952	-7.51
278.168	6.83
278.383	41.64
278.599	-30.04
278.814	55.98
279.03	-5.46
279.245	111.27
279.461	-36.18
279.676	-13.65
279.892	-1.37
280.107	70.31
280.322	-5.46
280.538	-1.37
280.753	-21.85
280.969	64.17
281.184	-7.51
281.399	53.93
281.615	4.78
281.83	19.11
282.045	-19.8
282.26	10.92
282.476	-3.41
282.691	51.88
282.906	27.31
283.122	-36.18
283.337	19.11
283.552	10.92
283.767	-11.61
283.983	-19.8
284.198	25.26
284.413	29.35
284.628	47.79
284.843	15.02
285.058	43.69
285.274	17.07
285.489	-56.66
285.704	19.11
285.919	35.5
286.134	10.92
286.349	15.02
286.564	19.11
286.779	2.73
286.995	-5.46
287.21	4.78
287.425	6.83
287.64	2.73
287.855	4.78
288.07	45.74
288.285	45.74
288.5	41.64
288.715	53.93
288.93	-30.04
289.145	-60.76
289.36	6.83
289.575	29.35
289.79	25.26
290.004	47.79
290.219	62.12
290.434	-32.08
290.649	25.26
290.864	76.46
291.079	58.03
291.294	35.5
291.509	101.03
291.724	41.64
291.938	-15.7
292.153	4.78
292.368	4.78
292.583	39.59
292.798	-25.94
293.012	-9.56
293.227	47.79
293.442	45.74
293.657	39.59
293.871	53.93
294.086	10.92
294.301	29.35
294.516	-17.75
294.73	31.4
294.945	33.45
295.16	10.92
295.374	45.74
295.589	51.88
295.804	19.11
296.018	-15.7
296.233	33.45
296.447	37.55
296.662	17.07
296.877	27.31
297.091	-42.32
297.306	47.79
297.52	21.16
297.735	31.4
297.949	4.78
298.164	8.87
298.378	-48.47
298.593	19.11
298.807	31.4
299.022	35.5
299.236	27.31
299.451	0.68
299.665	12.97
299.88	-11.61
300.094	-5.46
300.309	45.74
300.523	-7.51
300.737	76.46
300.952	49.83
301.166	0.68
301.381	21.16
301.595	96.94
301.809	-38.23
302.024	58.03
302.238	53.93
302.452	51.88
302.667	17.07
302.881	37.55
303.095	35.5
303.309	19.11
303.524	15.02
303.738	12.97
303.952	-34.13
304.166	53.93
304.381	51.88
304.595	2.73
304.809	19.11
305.023	31.4
305.237	10.92
305.452	27.31
305.666	-1.37
305.88	27.31
306.094	21.16
306.308	37.55
306.522	6.83
306.736	17.07
306.95	35.5
307.164	29.35
307.379	39.59
307.593	-1.37
307.807	64.17
308.021	-9.56
308.235	25.26
308.449	17.07
308.663	-5.46
308.877	-1.37
309.091	27.31
309.305	-15.7
309.519	23.21
309.733	78.51
309.947	2.73
310.161	-9.56
310.374	117.42
310.588	90.79
310.802	72.36
311.016	43.69
311.23	-1.37
311.444	-38.23
311.658	-71
311.872	76.46
312.085	0.68
312.299	45.74
312.513	88.75
312.727	111.27
312.941	-3.41
313.154	49.83
313.368	-1.37
313.582	53.93
313.796	45.74
314.009	72.36
314.223	92.84
314.437	60.07
314.651	64.17
314.864	-5.46
315.078	15.02
315.292	47.79
315.505	15.02
315.719	62.12
315.933	41.64
316.146	60.07
316.36	43.69
316.573	53.93
316.787	-32.08
317.001	4.78
317.214	2.73
317.428	25.26
317.641	37.55
317.855	68.27
318.068	51.88
318.282	-7.51
318.495	25.26
318.709	35.5
318.922	25.26
319.136	103.08
319.349	-7.51
319.563	10.92
319.776	-9.56
319.99	10.92
320.203	-17.75
320.417	76.46
320.63	25.26
320.843	2.73
321.057	33.45
321.27	17.07
321.483	8.87
321.697	4.78
321.91	45.74
322.124	80.55
322.337	21.16
322.55	-5.46
322.763	-38.23
322.977	-30.04
323.19	31.4
323.403	43.69
323.617	17.07
323.83	62.12
324.043	6.83
324.256	62.12
324.469	12.97
324.683	39.59
324.896	-30.04
325.109	70.31
325.322	4.78
325.535	92.84
325.748	64.17
325.962	-30.04
326.175	21.16
326.388	107.18
326.601	45.74
326.814	29.35
327.027	4.78
327.24	55.98
327.453	-17.75
327.666	19.11
327.879	-7.51
328.092	123.56
328.305	21.16
328.518	23.21
328.731	21.16
328.944	31.4
329.157	51.88
329.37	37.55
329.583	-87.38
329.796	82.6
330.009	8.87
330.222	70.31
330.435	66.22
330.648	19.11
330.861	51.88
331.073	-46.42
331.286	2.73
331.499	19.11
331.712	4.78
331.925	70.31
332.138	31.4
332.35	94.89
332.563	6.83
332.776	94.89
332.989	27.31
333.202	25.26
333.414	19.11
333.627	78.51
333.84	39.59
334.053	68.27
334.265	19.11
334.478	62.12
334.691	49.83
334.903	94.89
335.116	45.74
335.329	103.08
335.541	6.83
335.754	86.7
335.966	8.87
336.179	-7.51
336.392	19.11
336.604	31.4
336.817	6.83
337.029	47.79
337.242	-38.23
337.454	35.5
337.667	60.07
337.88	43.69
338.092	43.69
338.305	-19.8
338.517	12.97
338.729	45.74
338.942	19.11
339.154	4.78
339.367	25.26
339.579	43.69
339.792	19.11
340.004	2.73
340.217	82.6
340.429	19.11
340.641	45.74
340.854	-23.89
341.066	39.59
341.278	12.97
341.491	2.73
341.703	96.94
341.915	-32.08
342.128	64.17
342.34	23.21
342.552	-32.08
342.764	10.92
342.977	-34.13
343.189	37.55
343.401	70.31
343.613	70.31
343.826	19.11
344.038	-38.23
344.25	47.79
344.462	-1.37
344.674	29.35
344.886	43.69
345.099	47.79
345.311	43.69
345.523	51.88
345.735	-11.61
345.947	-3.41
346.159	66.22
346.371	23.21
346.583	2.73
346.795	27.31
347.007	15.02
347.219	25.26
347.431	10.92
347.643	12.97
347.855	15.02
348.067	12.97
348.279	-17.75
348.491	33.45
348.703	12.97
348.915	58.03
349.127	31.4
349.339	15.02
349.551	39.59
349.763	-1.37
349.975	51.88
350.187	15.02
350.399	60.07
350.61	6.83
350.822	15.02
351.034	-13.65
351.246	41.64
351.458	12.97
351.669	55.98
351.881	41.64
352.093	-5.46
352.305	15.02
352.517	92.84
352.728	21.16
352.94	-17.75
353.152	-3.41
353.363	39.59
353.575	37.55
353.787	45.74
353.999	133.8
354.21	15.02
354.422	-3.41
354.633	58.03
354.845	51.88
355.057	33.45
355.268	2.73
355.48	-1.37
355.692	49.83
355.903	-1.37
356.115	10.92
356.326	8.87
356.538	-27.99
356.749	-11.61
356.961	146.09
357.172	-7.51
357.384	62.12
357.595	49.83
357.807	23.21
358.018	-9.56
358.23	-5.46
358.441	72.36
358.653	19.11
358.864	4.78
359.075	23.21
359.287	60.07
359.498	-36.18
359.709	2.73
359.921	74.41
360.132	35.5
360.344	45.74
360.555	4.78
360.766	-17.75
360.977	2.73
361.189	51.88
361.4	84.65
361.611	62.12
361.823	27.31
362.034	53.93
362.245	17.07
362.456	-5.46
362.667	39.59
362.879	43.69
363.09	31.4
363.301	84.65
363.512	62.12
363.723	-3.41
363.935	2.73
364.146	68.27
364.357	10.92
364.568	133.8
364.779	23.21
364.99	45.74
365.201	2.73
365.412	29.35
365.623	-15.7
365.834	101.03
366.045	-5.46
366.256	37.55
366.467	51.88
366.678	64.17
366.889	35.5
367.1	8.87
367.311	76.46
367.522	-54.61
367.733	51.88
367.944	92.84
368.155	45.74
368.366	51.88
368.577	-52.56
368.788	31.4
368.999	41.64
369.209	35.5
369.42	88.75
369.631	51.88
369.842	-17.75
370.053	76.46
370.264	-1.37
370.474	68.27
370.685	45.74
370.896	12.97
371.107	90.79
371.317	-30.04
371.528	4.78
371.739	80.55
371.95	35.5
372.16	47.79
372.371	27.31
372.582	19.11
372.792	53.93
373.003	53.93
373.214	27.31
373.424	47.79
373.635	58.03
373.846	23.21
374.056	-1.37
374.267	19.11
374.477	-1.37
374.688	64.17
374.898	43.69
375.109	37.55
375.319	39.59
375.53	76.46
375.74	19.11
375.951	27.31
376.161	-1.37
376.372	80.55
376.582	80.55
376.793	19.11
377.003	29.35
377.214	-17.75
377.424	-36.18
377.635	-32.08
377.845	41.64
378.055	0.68
378.266	47.79
378.476	31.4
378.686	8.87
378.897	10.92
379.107	84.65
379.317	84.65
379.528	-30.04
379.738	-15.7
379.948	119.46
380.158	55.98
380.369	21.16
380.579	125.61
380.789	78.51
380.999	53.93
381.21	27.31
381.42	103.08
381.63	8.87
381.84	21.16
382.05	43.69
382.261	103.08
382.471	68.27
382.681	-1.37
382.891	82.6
383.101	60.07
383.311	-11.61
383.521	-21.85
383.731	55.98
383.941	12.97
384.151	43.69
384.361	64.17
384.571	55.98
384.781	25.26
384.991	96.94
385.201	33.45
385.411	12.97
385.621	105.13
385.831	39.59
386.041	45.74
386.251	10.92
386.461	51.88
386.671	51.88
386.881	19.11
387.091	45.74
387.301	19.11
387.511	98.99
387.72	37.55
387.93	2.73
388.14	23.21
388.35	64.17
388.56	-30.04
388.769	0.68
388.979	111.27
389.189	15.02
389.399	-1.37
389.609	33.45
389.818	111.27
390.028	31.4
390.238	6.83
390.447	37.55
390.657	33.45
390.867	53.93
391.076	101.03
391.286	111.27
391.496	49.83
391.705	12.97
391.915	66.22
392.125	19.11
392.334	6.83
392.544	80.55
392.753	86.7
392.963	60.07
393.172	53.93
393.382	86.7
393.591	37.55
393.801	60.07
394.01	21.16
394.22	115.37
394.429	35.5
394.639	68.27
394.848	88.75
395.058	60.07
395.267	37.55
395.477	31.4
395.686	74.41
395.895	105.13
396.105	25.26
396.314	23.21
396.524	4.78
396.733	64.17
396.942	68.27
397.152	66.22
397.361	86.7
397.57	72.36
397.78	55.98
397.989	109.22
398.198	101.03
398.407	150.18
398.617	78.51
398.826	41.64
399.035	55.98
399.244	29.35
399.453	109.22
399.663	58.03
399.872	164.52
400.081	25.26
400.29	74.41
400.499	25.26
400.708	47.79
400.917	64.17
401.127	21.16
401.336	117.42
401.545	82.6
401.754	133.8
401.963	119.46
402.172	66.22
402.381	68.27
402.59	8.87
402.799	60.07
403.008	78.51
403.217	84.65
403.426	135.85
403.635	60.07
403.844	66.22
404.053	74.41
404.262	125.61
404.471	127.66
404.68	98.99
404.888	123.56
405.097	76.46
405.306	160.42
405.515	90.79
405.724	174.76
405.933	70.31
406.142	51.88
406.35	96.94
406.559	96.94
406.768	86.7
406.977	84.65
407.185	234.15
407.394	103.08
407.603	150.18
407.812	113.32
408.02	164.52
408.229	176.81
408.438	193.19
408.646	96.94
408.855	240.29
409.064	158.38
409.272	195.24
409.481	199.34
409.69	174.76
409.898	197.29
410.107	113.32
410.315	219.82
410.524	191.14
410.733	264.87
410.941	281.25
411.15	191.14
411.358	301.73
411.567	228.01
411.775	297.64
411.984	297.64
412.192	299.69
412.401	363.17
412.609	283.3
412.818	348.84
413.026	354.98
413.234	342.69
413.443	350.89
413.651	334.5
413.86	350.89
414.068	375.46
414.276	422.56
414.485	299.69
414.693	377.51
414.901	457.38
415.11	422.56
415.318	426.66
415.526	414.37
415.734	529.06
415.943	430.76
416.151	527.01
416.359	449.19
416.567	514.72
416.776	658.08
416.984	576.16
417.192	561.83
417.4	561.83
417.608	637.6
417.817	670.37
418.025	686.75
418.233	760.48
418.441	684.7
418.649	703.14
418.857	783.01
419.065	834.21
419.273	817.82
419.481	922.27
419.689	838.3
419.897	924.32
420.105	877.21
420.313	928.41
420.521	993.95
420.729	965.28
420.937	1002.14
421.145	1133.21
421.353	1133.21
421.561	1284.76
421.769	1194.65
421.977	1231.51
422.185	1249.94
422.393	1335.96
422.601	1409.69
422.809	1444.5
423.017	1483.41
423.224	1368.73
423.432	1507.99
423.64	1587.86
423.848	1716.88
424.056	1602.19
424.263	1745.55
424.471	1731.22
424.679	1778.32
424.887	1860.24
425.094	1954.44
425.302	1972.88
425.51	2017.93
425.718	2009.74
425.925	2069.13
426.133	2267.78
426.341	2249.35
426.548	2378.37
426.756	2351.75
426.964	2554.5
427.171	2642.56
427.379	2747.01
427.586	2681.47
427.794	2747.01
428.001	2781.82
428.209	3017.34
428.417	2919.04
428.624	3189.37
428.832	3115.64
429.039	3154.55
429.247	3089.02
429.454	3404.41
429.662	3572.34
429.869	3385.97
430.076	3517.05
430.284	3527.28
430.491	3621.49
430.699	3940.97
430.906	3859.06
431.114	3879.54
431.321	4156.01
431.528	4129.39
431.736	4498.02
431.943	4620.9
432.15	4518.5
432.358	4557.41
432.565	4631.14
432.772	4850.27
432.979	5089.88
433.187	5190.24
433.394	5180
433.601	5442.14
433.808	5556.82
434.016	5347.93
434.223	5724.76
434.43	6189.64
434.637	5821.01
434.844	6302.28
435.052	6484.55
435.259	6459.98
435.466	6441.54
435.673	6267.47
435.88	6914.63
436.087	7164.48
436.294	7221.82
436.501	6980.16
436.708	7111.23
436.915	7359.03
437.122	7619.13
437.329	7699
437.537	7989.81
437.743	8106.54
437.95	7971.38
438.157	8391.21
438.364	8571.43
438.571	8710.69
438.778	8571.43
438.985	9533.98
439.192	9189.92
439.399	9394.72
439.606	9404.96
439.813	9947.67
440.02	10240.53
440.227	10314.25
440.433	10019.35
440.64	10385.93
440.847	10279.44
441.054	10594.82
441.261	11086.34
441.467	11006.47
441.674	11233.79
441.881	11653.62
442.088	11796.98
442.294	11583.99
442.501	11698.68
442.708	12347.89
442.914	12589.55
443.121	13134.31
443.328	12931.56
443.534	13806.04
443.741	13316.58
443.948	13412.83
444.154	14170.58
444.361	13924.82
444.568	14031.32
444.774	14152.15
444.981	14453.2
445.187	14731.72
445.394	15268.29
445.6	14963.14
445.807	16714.16
446.013	15759.8
446.22	16239.03
446.426	16871.85
446.633	17050.02
446.839	17580.45
447.046	16861.61
447.252	17676.7
447.459	17770.91
447.665	17672.6
447.871	18491.79
448.078	19159.43
448.284	18125.21
448.491	18772.36
448.697	19317.12
448.903	20134.26
449.11	19792.25
449.316	19630.46
449.522	19917.18
449.728	20388.21
449.935	20396.4
450.141	20605.3
450.347	21168.49
450.553	20103.54
450.76	20668.78
450.966	21510.5
451.172	21107.05
451.378	21907.8
451.584	21236.07
451.791	21956.96
451.997	21604.7
452.203	22020.44
452.409	22010.2
452.615	21909.85
452.821	21105
453.027	20859.24
453.233	21971.29
453.44	21123.43
453.646	21354.85
453.852	21588.32
454.058	21971.29
454.264	21094.76
454.47	21270.89
454.676	20939.12
454.882	22092.12
455.088	19505.54
455.294	19997.05
455.5	20187.51
455.705	20918.64
455.911	19763.58
456.117	19511.68
456.323	19124.61
456.529	17977.75
456.735	18749.84
456.941	18479.5
457.147	17973.66
457.352	17582.49
457.558	17242.53
457.764	17248.68
457.97	17086.89
458.176	16771.5
458.381	16744.88
458.587	15972.79
458.793	16056.76
458.999	15221.19
459.204	16181.68
459.41	15598.01
459.616	14531.02
459.821	14764.49
460.027	14496.21
460.233	14369.23
460.438	13779.42
460.644	13720.03
460.85	13169.12
461.055	12886.5
461.261	12931.56
461.466	12241.39
461.672	11731.45
461.878	12450.28
462.083	11938.29
462.289	11452.92
462.494	11235.84
462.7	10811.91
462.905	10615.3
463.111	11000.32
463.316	10854.92
463.522	10736.13
463.727	10779.14
463.932	10754.57
464.138	10580.49
464.343	10543.63
464.549	10222.09
464.754	10539.53
464.959	10635.78
465.165	10529.29
465.37	9996.82
465.575	9769.49
465.781	10160.66
465.986	10281.49
466.191	9873.94
466.397	9804.31
466.602	9415.19
466.807	9796.12
467.012	9425.43
467.218	9634.33
467.423	9615.9
467.628	9636.38
467.833	9767.45
468.038	9550.36
468.244	9337.37
468.449	9667.1
468.654	9411.1
468.859	9318.94
