Data from USB4F104151__170__13-58-52-651.txt Node

Date: Thu Mar 13 13:58:52 EDT 2025
User: louis
Spectrometer: USB4F10415
Trigger mode: 4
Integration Time (sec): 1.000000E-2
Scans to average: 1
Electric dark correction enabled: true
Nonlinearity correction enabled: false
Boxcar width: 0
XAxis mode: Wavelengths
Number of Pixels in Spectrum: 3648
>>>>>Begin Spectral Data<<<<<
178.204	-30.21
178.424	-30.21
178.644	-30.21
178.864	-112.13
179.084	-22.02
179.304	4.61
179.524	39.42
179.744	-22.02
179.964	2.56
180.184	12.8
180.404	-40.45
180.624	-9.73
180.844	-13.82
181.064	-34.3
181.283	33.28
181.503	6.66
181.723	20.99
181.943	-58.88
182.163	-11.78
182.383	55.81
182.602	2.56
182.822	2.56
183.042	82.43
183.262	88.57
183.482	-26.11
183.701	16.9
183.921	16.9
184.141	23.04
184.361	-13.82
184.58	-22.02
184.8	2.56
185.02	-1.54
185.239	4.61
185.459	35.33
185.679	-9.73
185.898	31.23
186.118	45.57
186.338	61.95
186.557	51.71
186.777	37.38
186.997	-19.97
187.216	-30.21
187.436	0.51
187.655	23.04
187.875	8.7
188.095	-46.59
188.314	6.66
188.534	-11.78
188.753	-5.63
188.973	41.47
189.192	-1.54
189.412	47.62
189.631	25.09
189.851	14.85
190.07	-13.82
190.29	10.75
190.509	-5.63
190.729	12.8
190.948	23.04
191.168	64
191.387	47.62
191.607	14.85
191.826	-30.21
192.045	16.9
192.265	-11.78
192.484	18.94
192.704	27.14
192.923	-85.5
193.142	23.04
193.362	-58.88
193.581	70.14
193.8	29.18
194.02	47.62
194.239	61.95
194.458	-26.11
194.678	-60.93
194.897	55.81
195.116	14.85
195.335	-19.97
195.555	-3.58
195.774	-17.92
195.993	-34.3
196.212	2.56
196.432	2.56
196.651	88.57
196.87	4.61
197.089	6.66
197.308	10.75
197.528	-9.73
197.747	37.38
197.966	-3.58
198.185	49.66
198.404	8.7
198.623	-1.54
198.842	4.61
199.062	-60.93
199.281	51.71
199.5	-36.35
199.719	2.56
199.938	127.49
200.157	49.66
200.376	23.04
200.595	10.75
200.814	6.66
201.033	90.62
201.252	23.04
201.471	-7.68
201.69	-38.4
201.909	39.42
202.128	2.56
202.347	51.71
202.566	31.23
202.785	-1.54
203.004	-15.87
203.223	-5.63
203.442	-9.73
203.661	10.75
203.879	39.42
204.098	111.1
204.317	-11.78
204.536	37.38
204.755	47.62
204.974	29.18
205.193	31.23
205.411	18.94
205.63	20.99
205.849	-30.21
206.068	10.75
206.287	6.66
206.505	-28.16
206.724	18.94
206.943	64
207.162	35.33
207.381	2.56
207.599	-24.06
207.818	-60.93
208.037	-15.87
208.255	6.66
208.474	68.09
208.693	57.86
208.911	18.94
209.13	2.56
209.349	-19.97
209.567	-19.97
209.786	20.99
210.005	10.75
210.223	51.71
210.442	23.04
210.661	6.66
210.879	-67.07
211.098	10.75
211.316	20.99
211.535	-19.97
211.753	53.76
211.972	27.14
212.191	12.8
212.409	45.57
212.628	6.66
212.846	-36.35
213.065	6.66
213.283	37.38
213.502	35.33
213.72	78.33
213.938	-34.3
214.157	-32.26
214.375	39.42
214.594	-3.58
214.812	-13.82
215.031	39.42
215.249	2.56
215.467	14.85
215.686	-22.02
215.904	-17.92
216.122	12.8
216.341	-30.21
216.559	27.14
216.778	37.38
216.996	-7.68
217.214	-17.92
217.432	-22.02
217.651	-3.58
217.869	39.42
218.087	94.72
218.306	68.09
218.524	23.04
218.742	-67.07
218.96	4.61
219.179	-13.82
219.397	-11.78
219.615	23.04
219.833	10.75
220.051	-77.31
220.27	-30.21
220.488	-3.58
220.706	45.57
220.924	-38.4
221.142	-1.54
221.36	10.75
221.578	2.56
221.796	68.09
222.015	18.94
222.233	-15.87
222.451	57.86
222.669	-56.83
222.887	72.19
223.105	0.51
223.323	-26.11
223.541	37.38
223.759	61.95
223.977	8.7
224.195	61.95
224.413	-71.17
224.631	-11.78
224.849	-22.02
225.067	41.47
225.285	-30.21
225.503	-13.82
225.721	37.38
225.939	33.28
226.157	20.99
226.375	37.38
226.592	25.09
226.81	64
227.028	-19.97
227.246	70.14
227.464	4.61
227.682	39.42
227.9	-36.35
228.117	-46.59
228.335	47.62
228.553	59.9
228.771	8.7
228.989	35.33
229.206	20.99
229.424	6.66
229.642	100.86
229.86	-58.88
230.077	35.33
230.295	-26.11
230.513	-17.92
230.731	64
230.948	-26.11
231.166	35.33
231.384	29.18
231.601	-22.02
231.819	12.8
232.037	23.04
232.254	23.04
232.472	16.9
232.689	0.51
232.907	0.51
233.125	-5.63
233.342	74.24
233.56	12.8
233.777	0.51
233.995	35.33
234.213	64
234.43	49.66
234.648	51.71
234.865	-13.82
235.083	2.56
235.3	-56.83
235.518	-1.54
235.735	76.29
235.953	-22.02
236.17	-67.07
236.388	76.29
236.605	16.9
236.822	-13.82
237.04	10.75
237.257	43.52
237.475	49.66
237.692	-11.78
237.909	23.04
238.127	43.52
238.344	-17.92
238.562	8.7
238.779	18.94
238.996	80.38
239.214	-50.69
239.431	12.8
239.648	12.8
239.865	47.62
240.083	-22.02
240.3	45.57
240.517	37.38
240.735	-19.97
240.952	-24.06
241.169	29.18
241.386	-36.35
241.603	29.18
241.821	-60.93
242.038	109.05
242.255	10.75
242.472	51.71
242.689	-28.16
242.907	66.05
243.124	41.47
243.341	47.62
243.558	-62.98
243.775	16.9
243.992	8.7
244.209	29.18
244.426	-11.78
244.643	2.56
244.86	10.75
245.078	37.38
245.295	25.09
245.512	23.04
245.729	55.81
245.946	18.94
246.163	51.71
246.38	-42.5
246.597	12.8
246.814	29.18
247.031	-62.98
247.248	59.9
247.464	0.51
247.681	35.33
247.898	25.09
248.115	29.18
248.332	-19.97
248.549	-40.45
248.766	53.76
248.983	45.57
249.2	29.18
249.417	-62.98
249.633	2.56
249.85	35.33
250.067	-26.11
250.284	43.52
250.501	41.47
250.717	86.53
250.934	39.42
251.151	55.81
251.368	25.09
251.585	-50.69
251.801	-30.21
252.018	-5.63
252.235	10.75
252.451	43.52
252.668	-19.97
252.885	25.09
253.102	16.9
253.318	6.66
253.535	-36.35
253.752	45.57
253.968	84.48
254.185	-46.59
254.401	18.94
254.618	39.42
254.835	-5.63
255.051	12.8
255.268	6.66
255.484	10.75
255.701	-5.63
255.917	27.14
256.134	-5.63
256.351	49.66
256.567	-44.54
256.784	66.05
257	74.24
257.217	33.28
257.433	-9.73
257.65	-5.63
257.866	-13.82
258.082	49.66
258.299	-17.92
258.515	6.66
258.732	-60.93
258.948	29.18
259.165	53.76
259.381	-1.54
259.597	12.8
259.814	-22.02
260.03	-9.73
260.246	12.8
260.463	33.28
260.679	43.52
260.895	2.56
261.112	37.38
261.328	-48.64
261.544	53.76
261.761	59.9
261.977	-13.82
262.193	29.18
262.409	10.75
262.626	64
262.842	10.75
263.058	-7.68
263.274	35.33
263.49	8.7
263.707	53.76
263.923	92.67
264.139	68.09
264.355	-36.35
264.571	41.47
264.787	-42.5
265.004	76.29
265.22	10.75
265.436	-50.69
265.652	51.71
265.868	41.47
266.084	-32.26
266.3	23.04
266.516	-5.63
266.732	4.61
266.948	61.95
267.164	70.14
267.38	-7.68
267.596	45.57
267.812	-3.58
268.028	-11.78
268.244	39.42
268.46	-42.5
268.676	6.66
268.892	4.61
269.108	-32.26
269.324	8.7
269.54	31.23
269.756	35.33
269.972	-13.82
270.188	35.33
270.403	20.99
270.619	-11.78
270.835	14.85
271.051	-44.54
271.267	-77.31
271.483	47.62
271.698	64
271.914	92.67
272.13	-91.65
272.346	76.29
272.562	6.66
272.777	18.94
272.993	39.42
273.209	-19.97
273.425	-9.73
273.64	39.42
273.856	-44.54
274.072	6.66
274.287	6.66
274.503	27.14
274.719	18.94
274.934	6.66
275.15	-19.97
275.366	35.33
275.581	-24.06
275.797	49.66
276.012	-17.92
276.228	-19.97
276.444	37.38
276.659	37.38
276.875	16.9
277.09	39.42
277.306	-40.45
277.521	39.42
277.737	-22.02
277.952	45.57
278.168	-1.54
278.383	-15.87
278.599	25.09
278.814	-28.16
279.03	98.81
279.245	102.91
279.461	92.67
279.676	76.29
279.892	33.28
280.107	37.38
280.322	-22.02
280.538	41.47
280.753	-9.73
280.969	-15.87
281.184	-17.92
281.399	37.38
281.615	-22.02
281.83	-3.58
282.045	47.62
282.26	-42.5
282.476	78.33
282.691	20.99
282.906	45.57
283.122	39.42
283.337	64
283.552	-9.73
283.767	-38.4
283.983	47.62
284.198	-3.58
284.413	10.75
284.628	51.71
284.843	35.33
285.058	25.09
285.274	35.33
285.489	-54.78
285.704	45.57
285.919	94.72
286.134	55.81
286.349	14.85
286.564	72.19
286.779	45.57
286.995	18.94
287.21	-32.26
287.425	86.53
287.64	29.18
287.855	12.8
288.07	10.75
288.285	6.66
288.5	27.14
288.715	59.9
288.93	-30.21
289.145	8.7
289.36	-17.92
289.575	68.09
289.79	27.14
290.004	18.94
290.219	-19.97
290.434	-5.63
290.649	41.47
290.864	-36.35
291.079	-26.11
291.294	-26.11
291.509	-50.69
291.724	-9.73
291.938	18.94
292.153	53.76
292.368	0.51
292.583	-38.4
292.798	-11.78
293.012	39.42
293.227	27.14
293.442	41.47
293.657	35.33
293.871	8.7
294.086	-3.58
294.301	45.57
294.516	35.33
294.73	53.76
294.945	37.38
295.16	-22.02
295.374	31.23
295.589	20.99
295.804	59.9
296.018	113.15
296.233	35.33
296.447	35.33
296.662	-48.64
296.877	-15.87
297.091	23.04
297.306	8.7
297.52	92.67
297.735	51.71
297.949	47.62
298.164	76.29
298.378	-3.58
298.593	27.14
298.807	27.14
299.022	29.18
299.236	37.38
299.451	-15.87
299.665	53.76
299.88	2.56
300.094	72.19
300.309	29.18
300.523	-65.02
300.737	27.14
300.952	6.66
301.166	-26.11
301.381	29.18
301.595	-1.54
301.809	-3.58
302.024	70.14
302.238	10.75
302.452	23.04
302.667	-9.73
302.881	68.09
303.095	43.52
303.309	23.04
303.524	-62.98
303.738	25.09
303.952	-44.54
304.166	10.75
304.381	43.52
304.595	61.95
304.809	-13.82
305.023	51.71
305.237	2.56
305.452	-9.73
305.666	51.71
305.88	61.95
306.094	-34.3
306.308	-28.16
306.522	-1.54
306.736	-28.16
306.95	-1.54
307.164	41.47
307.379	-3.58
307.593	-5.63
307.807	49.66
308.021	43.52
308.235	90.62
308.449	-11.78
308.663	35.33
308.877	80.38
309.091	-30.21
309.305	-69.12
309.519	29.18
309.733	37.38
309.947	35.33
310.161	6.66
310.374	-7.68
310.588	51.71
310.802	66.05
311.016	18.94
311.23	14.85
311.444	-5.63
311.658	109.05
311.872	16.9
312.085	-32.26
312.299	23.04
312.513	92.67
312.727	12.8
312.941	29.18
313.154	35.33
313.368	59.9
313.582	70.14
313.796	-24.06
314.009	37.38
314.223	-13.82
314.437	47.62
314.651	10.75
314.864	-42.5
315.078	-11.78
315.292	86.53
315.505	8.7
315.719	0.51
315.933	49.66
316.146	39.42
316.36	20.99
316.573	12.8
316.787	-1.54
317.001	27.14
317.214	18.94
317.428	2.56
317.641	-3.58
317.855	-36.35
318.068	-30.21
318.282	68.09
318.495	31.23
318.709	-19.97
318.922	18.94
319.136	18.94
319.349	12.8
319.563	-54.78
319.776	-1.54
319.99	-11.78
320.203	119.29
320.417	0.51
320.63	-13.82
320.843	61.95
321.057	100.86
321.27	92.67
321.483	90.62
321.697	123.39
321.91	23.04
322.124	-13.82
322.337	-13.82
322.55	-13.82
322.763	-3.58
322.977	76.29
323.19	-26.11
323.403	-19.97
323.617	23.04
323.83	43.52
324.043	4.61
324.256	-52.74
324.469	-5.63
324.683	-22.02
324.896	-11.78
325.109	6.66
325.322	-22.02
325.535	0.51
325.748	72.19
325.962	-30.21
326.175	18.94
326.388	27.14
326.601	20.99
326.814	4.61
327.027	94.72
327.24	39.42
327.453	2.56
327.666	-36.35
327.879	27.14
328.092	43.52
328.305	76.29
328.518	6.66
328.731	43.52
328.944	35.33
329.157	-32.26
329.37	6.66
329.583	-19.97
329.796	61.95
330.009	45.57
330.222	-75.26
330.435	12.8
330.648	29.18
330.861	-5.63
331.073	-9.73
331.286	2.56
331.499	-13.82
331.712	-9.73
331.925	2.56
332.138	70.14
332.35	45.57
332.563	72.19
332.776	-7.68
332.989	29.18
333.202	-13.82
333.414	18.94
333.627	-1.54
333.84	64
334.053	82.43
334.265	31.23
334.478	27.14
334.691	-56.83
334.903	-44.54
335.116	2.56
335.329	41.47
335.541	-60.93
335.754	18.94
335.966	27.14
336.179	10.75
336.392	-11.78
336.604	68.09
336.817	18.94
337.029	57.86
337.242	-5.63
337.454	-7.68
337.667	12.8
337.88	-24.06
338.092	16.9
338.305	23.04
338.517	6.66
338.729	35.33
338.942	-36.35
339.154	-3.58
339.367	12.8
339.579	47.62
339.792	-28.16
340.004	51.71
340.217	72.19
340.429	84.48
340.641	-42.5
340.854	98.81
341.066	41.47
341.278	-5.63
341.491	-24.06
341.703	35.33
341.915	49.66
342.128	2.56
342.34	16.9
342.552	23.04
342.764	-7.68
342.977	45.57
343.189	-5.63
343.401	2.56
343.613	10.75
343.826	53.76
344.038	45.57
344.25	94.72
344.462	14.85
344.674	12.8
344.886	-32.26
345.099	-1.54
345.311	-13.82
345.523	84.48
345.735	-50.69
345.947	47.62
346.159	16.9
346.371	94.72
346.583	-46.59
346.795	14.85
347.007	59.9
347.219	49.66
347.431	14.85
347.643	-15.87
347.855	8.7
348.067	43.52
348.279	35.33
348.491	66.05
348.703	25.09
348.915	-32.26
349.127	45.57
349.339	39.42
349.551	10.75
349.763	12.8
349.975	23.04
350.187	51.71
350.399	35.33
350.61	43.52
350.822	-13.82
351.034	14.85
351.246	4.61
351.458	59.9
351.669	31.23
351.881	0.51
352.093	4.61
352.305	18.94
352.517	61.95
352.728	-13.82
352.94	-46.59
353.152	8.7
353.363	76.29
353.575	84.48
353.787	20.99
353.999	-17.92
354.21	84.48
354.422	23.04
354.633	-30.21
354.845	20.99
355.057	-1.54
355.268	25.09
355.48	47.62
355.692	27.14
355.903	-5.63
356.115	84.48
356.326	-13.82
356.538	31.23
356.749	43.52
356.961	-9.73
357.172	2.56
357.384	49.66
357.595	51.71
357.807	23.04
358.018	10.75
358.23	55.81
358.441	90.62
358.653	20.99
358.864	64
359.075	-11.78
359.287	-40.45
359.498	82.43
359.709	8.7
359.921	-5.63
360.132	-1.54
360.344	-9.73
360.555	-38.4
360.766	0.51
360.977	29.18
361.189	29.18
361.4	64
361.611	104.96
361.823	90.62
362.034	43.52
362.245	18.94
362.456	-9.73
362.667	37.38
362.879	31.23
363.09	-7.68
363.301	37.38
363.512	121.34
363.723	-26.11
363.935	-17.92
364.146	84.48
364.357	70.14
364.568	64
364.779	-50.69
364.99	37.38
365.201	25.09
365.412	53.76
365.623	8.7
365.834	25.09
366.045	92.67
366.256	12.8
366.467	51.71
366.678	27.14
366.889	51.71
367.1	4.61
367.311	23.04
367.522	102.91
367.733	-46.59
367.944	-11.78
368.155	4.61
368.366	61.95
368.577	70.14
368.788	88.57
368.999	-40.45
369.209	47.62
369.42	8.7
369.631	127.49
369.842	-7.68
370.053	-1.54
370.264	-40.45
370.474	-44.54
370.685	74.24
370.896	68.09
371.107	2.56
371.317	53.76
371.528	35.33
371.739	35.33
371.95	84.48
372.16	61.95
372.371	33.28
372.582	-1.54
372.792	-40.45
373.003	49.66
373.214	72.19
373.424	-40.45
373.635	39.42
373.846	51.71
374.056	18.94
374.267	41.47
374.477	66.05
374.688	57.86
374.898	-15.87
375.109	12.8
375.319	-17.92
375.53	64
375.74	12.8
375.951	10.75
376.161	-26.11
376.372	29.18
376.582	94.72
376.793	43.52
377.003	-36.35
377.214	29.18
377.424	-19.97
377.635	-40.45
377.845	-7.68
378.055	72.19
378.266	18.94
378.476	86.53
378.686	55.81
378.897	29.18
379.107	16.9
379.317	47.62
379.528	92.67
379.738	-11.78
379.948	25.09
380.158	31.23
380.369	-24.06
380.579	72.19
380.789	39.42
380.999	6.66
381.21	41.47
381.42	51.71
381.63	66.05
381.84	23.04
382.05	61.95
382.261	72.19
382.471	43.52
382.681	-28.16
382.891	117.25
383.101	72.19
383.311	25.09
383.521	-32.26
383.731	123.39
383.941	10.75
384.151	12.8
384.361	59.9
384.571	-54.78
384.781	37.38
384.991	31.23
385.201	41.47
385.411	37.38
385.621	111.1
385.831	72.19
386.041	6.66
386.251	-3.58
386.461	43.52
386.671	23.04
386.881	64
387.091	20.99
387.301	55.81
387.511	2.56
387.72	25.09
387.93	31.23
388.14	35.33
388.35	74.24
388.56	84.48
388.769	12.8
388.979	14.85
389.189	29.18
389.399	33.28
389.609	0.51
389.818	16.9
390.028	31.23
390.238	113.15
390.447	43.52
390.657	45.57
390.867	27.14
391.076	76.29
391.286	-9.73
391.496	25.09
391.705	117.25
391.915	27.14
392.125	27.14
392.334	86.53
392.544	66.05
392.753	55.81
392.963	-19.97
393.172	70.14
393.382	53.76
393.591	98.81
393.801	-17.92
394.01	176.64
394.22	0.51
394.429	25.09
394.639	37.38
394.848	111.1
395.058	70.14
395.267	51.71
395.477	2.56
395.686	98.81
395.895	18.94
396.105	84.48
396.314	35.33
396.524	74.24
396.733	-65.02
396.942	39.42
397.152	61.95
397.361	68.09
397.57	158.21
397.78	43.52
397.989	43.52
398.198	72.19
398.407	57.86
398.617	51.71
398.826	76.29
399.035	92.67
399.244	59.9
399.453	104.96
399.663	51.71
399.872	39.42
400.081	59.9
400.29	133.63
400.499	102.91
400.708	57.86
400.917	55.81
401.127	27.14
401.336	10.75
401.545	88.57
401.754	20.99
401.963	72.19
402.172	59.9
402.381	115.2
402.59	61.95
402.799	16.9
403.008	14.85
403.217	64
403.426	72.19
403.635	80.38
403.844	96.77
404.053	139.77
404.262	-5.63
404.471	74.24
404.68	39.42
404.888	115.2
405.097	49.66
405.306	86.53
405.515	145.92
405.724	84.48
405.933	139.77
406.142	121.34
406.35	211.45
406.559	172.54
406.768	37.38
406.977	96.77
407.185	129.53
407.394	139.77
407.603	74.24
407.812	82.43
408.02	174.59
408.229	162.3
408.438	139.77
408.646	154.11
408.855	197.12
409.064	170.49
409.272	150.01
409.481	125.44
409.69	145.92
409.898	270.84
410.107	262.65
410.315	244.22
410.524	141.82
410.733	190.97
410.941	229.88
411.15	225.79
411.358	233.98
411.567	201.21
411.775	176.64
411.984	215.55
412.192	297.47
412.401	313.85
412.609	285.18
412.818	309.76
413.026	356.86
413.234	287.23
413.443	360.95
413.651	299.52
413.86	297.47
414.068	383.48
414.276	430.59
414.485	336.38
414.693	455.16
414.901	403.96
415.11	438.78
415.318	412.15
415.526	453.11
415.734	498.17
415.943	465.4
416.151	522.74
416.359	557.56
416.567	543.22
416.776	496.12
416.984	565.75
417.192	594.42
417.4	567.8
417.608	553.46
417.817	662.01
418.025	649.72
418.233	686.58
418.441	731.64
418.649	731.64
418.857	778.74
419.065	768.5
419.273	762.36
419.481	838.13
419.689	852.47
419.897	899.57
420.105	885.23
420.313	971.25
420.521	1053.17
420.729	1012.21
420.937	1016.3
421.145	1044.98
421.353	1141.23
421.561	1174
421.769	1198.57
421.977	1237.49
422.185	1239.53
422.393	1354.22
422.601	1341.93
422.809	1454.57
423.017	1374.7
423.224	1427.95
423.432	1534.44
423.64	1528.3
423.848	1636.84
424.056	1683.94
424.263	1710.57
424.471	1706.47
424.679	1669.61
424.887	1815.01
425.094	1874.4
425.302	1837.54
425.51	1978.85
425.718	1987.04
425.925	2099.68
426.133	2144.74
426.341	2249.18
426.548	2370.01
426.756	2437.59
426.964	2345.44
427.171	2552.28
427.379	2533.85
427.586	2544.09
427.794	2634.2
428.001	3021.27
428.209	2992.59
428.417	2927.06
428.624	3148.24
428.832	3152.34
429.039	3197.39
429.247	3092.94
429.454	3330.51
429.662	3693
429.869	3385.8
430.076	3666.38
430.284	3559.88
430.491	3893.7
430.699	3914.18
430.906	3955.14
431.114	3932.61
431.321	4057.54
431.528	4221.38
431.736	4393.4
431.943	4567.48
432.15	4512.19
432.358	4395.45
432.565	4723.13
432.772	4901.3
432.979	5190.06
433.187	5360.05
433.394	5116.34
433.601	5398.96
433.808	5556.65
434.016	5374.38
434.223	5790.12
434.43	6046.12
434.637	5857.7
434.844	6298.02
435.052	6529.44
435.259	6328.74
435.466	6398.37
435.673	6373.79
435.88	6877.59
436.087	7121.3
436.294	7109.01
436.501	6947.22
436.708	7166.35
436.915	7397.78
437.122	7555.47
437.329	7768.46
437.537	7965.06
437.743	8046.98
437.95	7930.25
438.157	8452.48
438.364	8688
438.571	8673.66
438.778	8661.37
438.985	9509.23
439.192	9165.17
439.399	9351.54
439.606	9249.14
439.813	9861.48
440.02	10193.25
440.227	10152.29
440.433	9961.83
440.64	10254.69
440.847	10082.66
441.054	10545.5
441.261	11145.56
441.467	11327.83
441.674	11207
441.881	11815.24
442.088	11739.47
442.294	11753.8
442.501	11972.94
442.708	12087.62
442.914	12640.58
443.121	12933.43
443.328	12761.41
443.534	13625.65
443.741	13435.19
443.948	13070.65
444.154	14000.43
444.361	14117.16
444.568	14180.65
444.774	13895.98
444.981	14297.38
445.187	14817.57
445.394	15210.78
445.6	15165.72
445.807	16496.9
446.013	15685.9
446.22	16191.75
446.426	16931.07
446.633	16707.84
446.839	17371.38
447.046	16701.7
447.252	17676.53
447.459	18043.12
447.665	17549.56
447.871	18286.82
448.078	19267.8
448.284	18186.47
448.491	18845.92
448.697	19648.72
448.903	19837.14
449.11	20140.24
449.316	19835.09
449.522	20148.43
449.728	20623.56
449.935	20605.13
450.141	20699.33
450.347	21102.78
450.553	20279.5
450.76	20713.67
450.966	21313.72
451.172	21033.15
451.378	21573.81
451.584	21262.52
451.791	21745.84
451.997	21711.03
452.203	21903.54
452.409	22173.87
452.615	21846.19
452.821	20836.55
453.027	20793.54
453.233	22114.48
453.44	21110.97
453.646	21366.97
453.852	21233.85
454.058	21563.57
454.264	20830.4
454.47	21770.42
454.676	21012.67
454.882	21856.43
455.088	19843.28
455.294	20310.22
455.5	20396.23
455.705	20555.97
455.911	19726.55
456.117	19292.38
456.323	19122.4
456.529	18252.01
456.735	18792.67
456.941	18469.09
457.147	17899.76
457.352	17551.6
457.558	17318.14
457.764	17467.64
457.97	16939.26
458.176	17006.84
458.381	16804.1
458.587	15870.22
458.793	15825.17
458.999	14915.87
459.204	16144.65
459.41	15601.94
459.616	14758.17
459.821	14668.06
460.027	14600.48
460.233	14336.29
460.438	13535.54
460.644	13830.44
460.85	13048.12
461.055	12998.97
461.261	12996.92
461.466	12130.63
461.672	11686.22
461.878	12546.37
462.083	11665.74
462.289	11647.31
462.494	11426.13
462.7	10805.6
462.905	10426.72
463.111	11151.7
463.316	10979.67
463.522	10801.5
463.727	10787.16
463.932	10668.38
464.138	10424.67
464.343	10516.83
464.549	10264.93
464.754	10871.13
464.959	10479.97
465.165	10541.41
465.37	10293.6
465.575	9816.43
465.781	10396
465.986	10213.73
466.191	9720.17
466.397	9611.63
466.602	9326.96
466.807	9777.51
467.012	9881.96
467.218	9720.17
467.423	9406.83
467.628	9552.24
467.833	10000.74
468.038	9560.43
468.244	9331.06
468.449	9671.02
468.654	9455.98
468.859	9226.61
