Data from USB4F104151__92__13-54-32-290.txt Node

Date: Thu Mar 13 13:54:32 EDT 2025
User: louis
Spectrometer: USB4F10415
Trigger mode: 4
Integration Time (sec): 1.000000E-2
Scans to average: 1
Electric dark correction enabled: true
Nonlinearity correction enabled: false
Boxcar width: 0
XAxis mode: Wavelengths
Number of Pixels in Spectrum: 3648
>>>>>Begin Spectral Data<<<<<
178.204	-81.58
178.424	-81.58
178.644	-81.58
178.864	24.92
179.084	-22.19
179.304	-3.75
179.524	10.58
179.744	65.88
179.964	29.01
180.184	-20.14
180.404	-26.28
180.624	-46.76
180.844	14.68
181.064	0.34
181.283	-52.91
181.503	14.68
181.723	14.68
181.943	-7.85
182.163	2.39
182.383	82.26
182.602	-26.28
182.822	98.64
183.042	49.49
183.262	65.88
183.482	31.06
183.701	-32.43
183.921	-44.71
184.141	-48.81
184.361	-7.85
184.58	78.16
184.8	20.82
185.02	16.73
185.239	51.54
185.459	61.78
185.679	29.01
185.898	6.49
186.118	22.87
186.338	20.82
186.557	115.03
186.777	55.64
186.997	100.69
187.216	57.68
187.436	-18.09
187.655	-46.76
187.875	6.49
188.095	-16.04
188.314	22.87
188.534	8.53
188.753	-9.9
188.973	6.49
189.192	4.44
189.412	31.06
189.631	61.78
189.851	16.73
190.07	-16.04
190.29	55.64
190.509	26.96
190.729	80.21
190.948	65.88
191.168	-75.43
191.387	33.11
191.607	49.49
191.826	43.35
192.045	47.44
192.265	24.92
192.484	26.96
192.704	63.83
192.923	0.34
193.142	57.68
193.362	20.82
193.581	51.54
193.8	31.06
194.02	45.4
194.239	14.68
194.458	100.69
194.678	2.39
194.897	-7.85
195.116	26.96
195.335	67.92
195.555	86.36
195.774	-13.99
195.993	18.77
196.212	16.73
196.432	-28.33
196.651	49.49
196.87	43.35
197.089	47.44
197.308	-28.33
197.528	69.97
197.747	14.68
197.966	35.16
198.185	-36.52
198.404	0.34
198.623	18.77
198.842	-24.23
199.062	55.64
199.281	4.44
199.5	-1.71
199.719	57.68
199.938	43.35
200.157	84.31
200.376	-32.43
200.595	47.44
200.814	45.4
201.033	94.55
201.252	-9.9
201.471	82.26
201.69	39.25
201.909	29.01
202.128	16.73
202.347	8.53
202.566	22.87
202.785	61.78
203.004	20.82
203.223	41.3
203.442	41.3
203.661	67.92
203.879	49.49
204.098	69.97
204.317	-22.19
204.536	2.39
204.755	98.64
204.974	18.77
205.193	-18.09
205.411	51.54
205.63	57.68
205.849	20.82
206.068	31.06
206.287	45.4
206.505	-7.85
206.724	55.64
206.943	4.44
207.162	74.07
207.381	26.96
207.599	12.63
207.818	16.73
208.037	80.21
208.255	33.11
208.474	0.34
208.693	43.35
208.911	24.92
209.13	41.3
209.349	18.77
209.567	49.49
209.786	0.34
210.005	8.53
210.223	55.64
210.442	-26.28
210.661	-46.76
210.879	31.06
211.098	49.49
211.316	-1.71
211.535	41.3
211.753	-42.67
211.972	14.68
212.191	45.4
212.409	55.64
212.628	20.82
212.846	-5.8
213.065	31.06
213.283	-7.85
213.502	61.78
213.72	47.44
213.938	12.63
214.157	22.87
214.375	6.49
214.594	39.25
214.812	-7.85
215.031	-63.15
215.249	-13.99
215.467	43.35
215.686	-24.23
215.904	20.82
216.122	39.25
216.341	0.34
216.559	26.96
216.778	8.53
216.996	2.39
217.214	55.64
217.432	127.32
217.651	-3.75
217.869	65.88
218.087	49.49
218.306	49.49
218.524	37.2
218.742	26.96
218.96	57.68
219.179	29.01
219.397	84.31
219.615	6.49
219.833	37.2
220.051	37.2
220.27	31.06
220.488	-20.14
220.706	98.64
220.924	80.21
221.142	26.96
221.36	8.53
221.578	16.73
221.796	31.06
222.015	131.41
222.233	45.4
222.451	84.31
222.669	49.49
222.887	39.25
223.105	4.44
223.323	-24.23
223.541	57.68
223.759	59.73
223.977	18.77
224.195	53.59
224.413	14.68
224.631	8.53
224.849	67.92
225.067	53.59
225.285	65.88
225.503	-18.09
225.721	12.63
225.939	49.49
226.157	45.4
226.375	67.92
226.592	45.4
226.81	121.17
227.028	4.44
227.246	4.44
227.464	8.53
227.682	0.34
227.9	76.12
228.117	41.3
228.335	67.92
228.553	-1.71
228.771	-5.8
228.989	20.82
229.206	12.63
229.424	80.21
229.642	20.82
229.86	-24.23
230.077	10.58
230.295	41.3
230.513	67.92
230.731	-18.09
230.948	35.16
231.166	67.92
231.384	-3.75
231.601	0.34
231.819	90.45
232.037	35.16
232.254	31.06
232.472	24.92
232.689	43.35
232.907	12.63
233.125	29.01
233.342	-13.99
233.56	4.44
233.777	72.02
233.995	10.58
234.213	39.25
234.43	72.02
234.648	33.11
234.865	41.3
235.083	33.11
235.3	29.01
235.518	16.73
235.735	-11.95
235.953	26.96
236.17	98.64
236.388	63.83
236.605	-5.8
236.822	-7.85
237.04	74.07
237.257	35.16
237.475	-11.95
237.692	6.49
237.909	-42.67
238.127	18.77
238.344	-20.14
238.562	-20.14
238.779	-3.75
238.996	-67.24
239.214	78.16
239.431	88.4
239.648	67.92
239.865	8.53
240.083	14.68
240.3	18.77
240.517	16.73
240.735	41.3
240.952	26.96
241.169	43.35
241.386	98.64
241.603	55.64
241.821	8.53
242.038	45.4
242.255	18.77
242.472	29.01
242.689	59.73
242.907	49.49
243.124	14.68
243.341	29.01
243.558	41.3
243.775	43.35
243.992	45.4
244.209	20.82
244.426	37.2
244.643	51.54
244.86	-40.62
245.078	43.35
245.295	82.26
245.512	-9.9
245.729	-9.9
245.946	55.64
246.163	67.92
246.38	53.59
246.597	33.11
246.814	106.84
247.031	82.26
247.248	22.87
247.464	76.12
247.681	49.49
247.898	33.11
248.115	65.88
248.332	29.01
248.549	88.4
248.766	18.77
248.983	24.92
249.2	6.49
249.417	33.11
249.633	37.2
249.85	10.58
250.067	-32.43
250.284	74.07
250.501	24.92
250.717	-30.38
250.934	29.01
251.151	6.49
251.368	47.44
251.585	57.68
251.801	2.39
252.018	41.3
252.235	69.97
252.451	-5.8
252.668	69.97
252.885	69.97
253.102	67.92
253.318	98.64
253.535	14.68
253.752	39.25
253.968	76.12
254.185	24.92
254.401	65.88
254.618	39.25
254.835	98.64
255.051	33.11
255.268	37.2
255.484	10.58
255.701	-3.75
255.917	41.3
256.134	-34.47
256.351	39.25
256.567	72.02
256.784	39.25
257	8.53
257.217	8.53
257.433	35.16
257.65	-22.19
257.866	90.45
258.082	-5.8
258.299	16.73
258.515	43.35
258.732	22.87
258.948	20.82
259.165	10.58
259.381	67.92
259.597	76.12
259.814	20.82
260.03	16.73
260.246	8.53
260.463	-1.71
260.679	22.87
260.895	10.58
261.112	31.06
261.328	-1.71
261.544	47.44
261.761	67.92
261.977	86.36
262.193	-24.23
262.409	16.73
262.626	45.4
262.842	18.77
263.058	45.4
263.274	-9.9
263.49	18.77
263.707	69.97
263.923	-61.1
264.139	37.2
264.355	31.06
264.571	6.49
264.787	-44.71
265.004	94.55
265.22	-48.81
265.436	22.87
265.652	-11.95
265.868	26.96
266.084	84.31
266.3	35.16
266.516	18.77
266.732	72.02
266.948	8.53
267.164	20.82
267.38	29.01
267.596	-11.95
267.812	10.58
268.028	-24.23
268.244	-57
268.46	14.68
268.676	29.01
268.892	47.44
269.108	35.16
269.324	31.06
269.54	45.4
269.756	112.98
269.972	-5.8
270.188	33.11
270.403	110.93
270.619	53.59
270.835	-50.86
271.051	57.68
271.267	82.26
271.483	4.44
271.698	43.35
271.914	51.54
272.13	53.59
272.346	24.92
272.562	67.92
272.777	47.44
272.993	10.58
273.209	41.3
273.425	33.11
273.64	49.49
273.856	59.73
274.072	98.64
274.287	16.73
274.503	37.2
274.719	35.16
274.934	-63.15
275.15	24.92
275.366	43.35
275.581	14.68
275.797	63.83
276.012	-18.09
276.228	76.12
276.444	-18.09
276.659	-11.95
276.875	-52.91
277.09	47.44
277.306	35.16
277.521	20.82
277.737	31.06
277.952	51.54
278.168	63.83
278.383	63.83
278.599	88.4
278.814	14.68
279.03	-5.8
279.245	35.16
279.461	41.3
279.676	12.63
279.892	29.01
280.107	14.68
280.322	37.2
280.538	-16.04
280.753	16.73
280.969	-1.71
281.184	59.73
281.399	-9.9
281.615	82.26
281.83	63.83
282.045	37.2
282.26	22.87
282.476	-22.19
282.691	76.12
282.906	-13.99
283.122	35.16
283.337	-79.53
283.552	45.4
283.767	59.73
283.983	92.5
284.198	51.54
284.413	20.82
284.628	24.92
284.843	35.16
285.058	74.07
285.274	86.36
285.489	33.11
285.704	8.53
285.919	43.35
286.134	18.77
286.349	35.16
286.564	39.25
286.779	24.92
286.995	-11.95
287.21	100.69
287.425	67.92
287.64	-24.23
287.855	0.34
288.07	31.06
288.285	39.25
288.5	26.96
288.715	26.96
288.93	49.49
289.145	0.34
289.36	72.02
289.575	4.44
289.79	61.78
290.004	92.5
290.219	18.77
290.434	-26.28
290.649	65.88
290.864	18.77
291.079	51.54
291.294	22.87
291.509	96.6
291.724	63.83
291.938	12.63
292.153	117.08
292.368	78.16
292.583	55.64
292.798	18.77
293.012	4.44
293.227	-7.85
293.442	12.63
293.657	14.68
293.871	0.34
294.086	0.34
294.301	51.54
294.516	94.55
294.73	31.06
294.945	16.73
295.16	78.16
295.374	-32.43
295.589	33.11
295.804	63.83
296.018	26.96
296.233	-13.99
296.447	24.92
296.662	90.45
296.877	18.77
297.091	104.79
297.306	26.96
297.52	55.64
297.735	39.25
297.949	47.44
298.164	86.36
298.378	20.82
298.593	20.82
298.807	110.93
299.022	59.73
299.236	41.3
299.451	24.92
299.665	26.96
299.88	37.2
300.094	78.16
300.309	55.64
300.523	67.92
300.737	59.73
300.952	31.06
301.166	-11.95
301.381	-22.19
301.595	57.68
301.809	-3.75
302.024	24.92
302.238	26.96
302.452	14.68
302.667	47.44
302.881	33.11
303.095	8.53
303.309	31.06
303.524	51.54
303.738	35.16
303.952	47.44
304.166	47.44
304.381	41.3
304.595	22.87
304.809	-13.99
305.023	-13.99
305.237	110.93
305.452	-16.04
305.666	59.73
305.88	55.64
306.094	2.39
306.308	-7.85
306.522	20.82
306.736	29.01
306.95	35.16
307.164	22.87
307.379	43.35
307.593	59.73
307.807	41.3
308.021	35.16
308.235	90.45
308.449	14.68
308.663	33.11
308.877	14.68
309.091	39.25
309.305	82.26
309.519	-3.75
309.733	63.83
309.947	12.63
310.161	47.44
310.374	106.84
310.588	39.25
310.802	51.54
311.016	39.25
311.23	90.45
311.444	22.87
311.658	-18.09
311.872	125.27
312.085	10.58
312.299	102.74
312.513	90.45
312.727	-44.71
312.941	92.5
313.154	47.44
313.368	4.44
313.582	8.53
313.796	69.97
314.009	65.88
314.223	98.64
314.437	29.01
314.651	53.59
314.864	41.3
315.078	65.88
315.292	43.35
315.505	6.49
315.719	-9.9
315.933	35.16
316.146	67.92
316.36	45.4
316.573	63.83
316.787	72.02
317.001	24.92
317.214	0.34
317.428	8.53
317.641	2.39
317.855	67.92
318.068	10.58
318.282	108.88
318.495	14.68
318.709	37.2
318.922	31.06
319.136	96.6
319.349	8.53
319.563	18.77
319.776	51.54
319.99	119.12
320.203	45.4
320.417	53.59
320.63	33.11
320.843	10.58
321.057	26.96
321.27	82.26
321.483	74.07
321.697	43.35
321.91	47.44
322.124	37.2
322.337	112.98
322.55	49.49
322.763	4.44
322.977	110.93
323.19	-24.23
323.403	-9.9
323.617	20.82
323.83	29.01
324.043	-3.75
324.256	-22.19
324.469	35.16
324.683	78.16
324.896	-5.8
325.109	-16.04
325.322	10.58
325.535	74.07
325.748	14.68
325.962	31.06
326.175	16.73
326.388	14.68
326.601	102.74
326.814	41.3
327.027	8.53
327.24	115.03
327.453	20.82
327.666	104.79
327.879	-40.62
328.092	67.92
328.305	45.4
328.518	53.59
328.731	24.92
328.944	53.59
329.157	35.16
329.37	33.11
329.583	59.73
329.796	69.97
330.009	110.93
330.222	37.2
330.435	24.92
330.648	41.3
330.861	4.44
331.073	57.68
331.286	84.31
331.499	0.34
331.712	61.78
331.925	39.25
332.138	-5.8
332.35	49.49
332.563	8.53
332.776	37.2
332.989	43.35
333.202	-13.99
333.414	72.02
333.627	96.6
333.84	-18.09
334.053	39.25
334.265	6.49
334.478	-16.04
334.691	-20.14
334.903	29.01
335.116	-30.38
335.329	82.26
335.541	92.5
335.754	92.5
335.966	6.49
336.179	35.16
336.392	-13.99
336.604	45.4
336.817	37.2
337.029	78.16
337.242	37.2
337.454	55.64
337.667	33.11
337.88	37.2
338.092	49.49
338.305	6.49
338.517	-24.23
338.729	59.73
338.942	49.49
339.154	29.01
339.367	-13.99
339.579	39.25
339.792	37.2
340.004	4.44
340.217	43.35
340.429	72.02
340.641	57.68
340.854	31.06
341.066	61.78
341.278	90.45
341.491	72.02
341.703	33.11
341.915	61.78
342.128	33.11
342.34	67.92
342.552	18.77
342.764	0.34
342.977	49.49
343.189	12.63
343.401	59.73
343.613	-24.23
343.826	-48.81
344.038	24.92
344.25	35.16
344.462	49.49
344.674	82.26
344.886	24.92
345.099	59.73
345.311	72.02
345.523	49.49
345.735	74.07
345.947	59.73
346.159	88.4
346.371	74.07
346.583	43.35
346.795	24.92
347.007	57.68
347.219	-16.04
347.431	8.53
347.643	41.3
347.855	0.34
348.067	94.55
348.279	31.06
348.491	39.25
348.703	41.3
348.915	6.49
349.127	82.26
349.339	24.92
349.551	14.68
349.763	112.98
349.975	-100.01
350.187	74.07
350.399	6.49
350.61	26.96
350.822	55.64
351.034	57.68
351.246	90.45
351.458	37.2
351.669	-5.8
351.881	84.31
352.093	92.5
352.305	41.3
352.517	67.92
352.728	33.11
352.94	47.44
353.152	-7.85
353.363	41.3
353.575	24.92
353.787	10.58
353.999	35.16
354.21	20.82
354.422	-32.43
354.633	45.4
354.845	22.87
355.057	-5.8
355.268	72.02
355.48	78.16
355.692	49.49
355.903	2.39
356.115	92.5
356.326	47.44
356.538	37.2
356.749	-24.23
356.961	22.87
357.172	59.73
357.384	8.53
357.595	100.69
357.807	31.06
358.018	59.73
358.23	47.44
358.441	24.92
358.653	92.5
358.864	39.25
359.075	49.49
359.287	61.78
359.498	51.54
359.709	47.44
359.921	-42.67
360.132	35.16
360.344	45.4
360.555	80.21
360.766	33.11
360.977	78.16
361.189	94.55
361.4	29.01
361.611	104.79
361.823	37.2
362.034	63.83
362.245	55.64
362.456	49.49
362.667	26.96
362.879	18.77
363.09	47.44
363.301	51.54
363.512	51.54
363.723	37.2
363.935	59.73
364.146	-13.99
364.357	-44.71
364.568	37.2
364.779	22.87
364.99	24.92
365.201	-13.99
365.412	41.3
365.623	6.49
365.834	18.77
366.045	45.4
366.256	57.68
366.467	43.35
366.678	-26.28
366.889	-9.9
367.1	22.87
367.311	41.3
367.522	41.3
367.733	119.12
367.944	41.3
368.155	-28.33
368.366	92.5
368.577	47.44
368.788	121.17
368.999	119.12
369.209	-69.29
369.42	12.63
369.631	90.45
369.842	92.5
370.053	74.07
370.264	12.63
370.474	29.01
370.685	10.58
370.896	63.83
371.107	-5.8
371.317	49.49
371.528	45.4
371.739	57.68
371.95	35.16
372.16	47.44
372.371	41.3
372.582	16.73
372.792	69.97
373.003	53.59
373.214	125.27
373.424	115.03
373.635	20.82
373.846	41.3
374.056	63.83
374.267	35.16
374.477	31.06
374.688	51.54
374.898	45.4
375.109	-1.71
375.319	61.78
375.53	63.83
375.74	106.84
375.951	69.97
376.161	80.21
376.372	47.44
376.582	47.44
376.793	35.16
377.003	-7.85
377.214	59.73
377.424	96.6
377.635	69.97
377.845	59.73
378.055	37.2
378.266	55.64
378.476	-7.85
378.686	45.4
378.897	-5.8
379.107	47.44
379.317	0.34
379.528	-40.62
379.738	61.78
379.948	-9.9
380.158	108.88
380.369	33.11
380.579	-26.28
380.789	55.64
380.999	80.21
381.21	14.68
381.42	39.25
381.63	-9.9
381.84	96.6
382.05	59.73
382.261	69.97
382.471	80.21
382.681	24.92
382.891	-36.52
383.101	47.44
383.311	35.16
383.521	10.58
383.731	33.11
383.941	14.68
384.151	47.44
384.361	82.26
384.571	-28.33
384.781	51.54
384.991	106.84
385.201	74.07
385.411	26.96
385.621	76.12
385.831	6.49
386.041	63.83
386.251	24.92
386.461	22.87
386.671	123.22
386.881	47.44
387.091	31.06
387.301	45.4
387.511	74.07
387.72	98.64
387.93	94.55
388.14	24.92
388.35	33.11
388.56	55.64
388.769	35.16
388.979	31.06
389.189	41.3
389.399	108.88
389.609	88.4
389.818	29.01
390.028	53.59
390.238	6.49
390.447	41.3
390.657	53.59
390.867	31.06
391.076	74.07
391.286	74.07
391.496	20.82
391.705	37.2
391.915	74.07
392.125	22.87
392.334	104.79
392.544	51.54
392.753	127.32
392.963	74.07
393.172	51.54
393.382	69.97
393.591	53.59
393.801	67.92
394.01	76.12
394.22	55.64
394.429	49.49
394.639	69.97
394.848	26.96
395.058	18.77
395.267	18.77
395.477	67.92
395.686	29.01
395.895	94.55
396.105	53.59
396.314	43.35
396.524	74.07
396.733	33.11
396.942	72.02
397.152	26.96
397.361	59.73
397.57	39.25
397.78	80.21
397.989	98.64
398.198	39.25
398.407	29.01
398.617	65.88
398.826	33.11
399.035	47.44
399.244	12.63
399.453	55.64
399.663	84.31
399.872	82.26
400.081	51.54
400.29	96.6
400.499	67.92
400.708	22.87
400.917	35.16
401.127	39.25
401.336	22.87
401.545	84.31
401.754	55.64
401.963	57.68
402.172	51.54
402.381	123.22
402.59	37.2
402.799	98.64
403.008	100.69
403.217	35.16
403.426	80.21
403.635	37.2
403.844	100.69
404.053	131.41
404.262	43.35
404.471	102.74
404.68	55.64
404.888	82.26
405.097	80.21
405.306	133.46
405.515	57.68
405.724	63.83
405.933	112.98
406.142	145.75
406.35	129.36
406.559	84.31
406.768	139.6
406.977	98.64
407.185	112.98
407.394	141.65
407.603	141.65
407.812	69.97
408.02	155.99
408.229	90.45
408.438	86.36
408.646	55.64
408.855	141.65
409.064	160.08
409.272	112.98
409.481	115.03
409.69	123.22
409.898	162.13
410.107	160.08
410.315	205.14
410.524	139.6
410.733	98.64
410.941	149.84
411.15	176.47
411.358	147.8
411.567	112.98
411.775	178.51
411.984	260.43
412.192	151.89
412.401	201.04
412.609	231.76
412.818	325.97
413.026	237.91
413.234	260.43
413.443	274.77
413.651	274.77
413.86	260.43
414.068	325.97
414.276	260.43
414.485	317.78
414.693	305.49
414.901	276.82
415.11	411.98
415.318	313.68
415.526	319.82
415.734	354.64
415.943	414.03
416.151	395.6
416.359	385.36
416.567	416.08
416.776	373.07
416.984	416.08
417.192	432.46
417.4	489.81
417.608	530.77
417.817	543.05
418.025	446.8
418.233	532.81
418.441	504.14
418.649	498
418.857	600.4
419.065	622.92
419.273	645.45
419.481	584.01
419.689	678.22
419.897	729.42
420.105	633.16
420.313	653.64
420.521	686.41
420.729	768.33
420.937	760.14
421.145	721.23
421.353	831.82
421.561	887.11
421.769	958.79
421.977	938.31
422.185	956.74
422.393	1016.13
422.601	1059.14
422.809	1077.57
423.017	1050.95
423.224	1079.62
423.432	1136.96
423.64	1075.52
423.848	1292.61
424.056	1112.39
424.263	1286.47
424.471	1268.03
424.679	1304.9
424.887	1331.52
425.094	1454.4
425.302	1454.4
425.51	1558.85
425.718	1466.69
425.925	1524.03
426.133	1532.22
426.341	1593.66
426.548	1782.07
426.756	1655.1
426.964	1730.87
427.171	1898.81
427.379	2046.26
427.586	1935.67
427.794	1970.49
428.001	2148.66
428.209	2183.48
428.417	2160.95
428.624	2332.98
428.832	2269.49
429.039	2373.94
429.247	2261.3
429.454	2545.97
429.662	2693.42
429.869	2500.91
430.076	2703.66
430.284	2584.88
430.491	2697.52
430.699	2883.88
430.906	2892.07
431.114	2924.84
431.321	3053.86
431.528	2892.07
431.736	3203.36
431.943	3471.65
432.15	3356.96
432.358	3338.53
432.565	3442.98
432.772	3541.28
432.979	3647.77
433.187	3834.14
433.394	3768.6
433.601	3993.88
433.808	4219.16
434.016	4004.12
434.223	3971.35
434.43	4454.67
434.637	4253.97
434.844	4464.91
435.052	4772.11
435.259	4702.48
435.466	4669.71
435.673	4823.31
435.88	4937.99
436.087	5286.15
436.294	5169.41
436.501	5181.7
436.708	5241.09
436.915	5325.06
437.122	5570.82
437.329	5579.01
437.537	5816.57
437.743	5914.88
437.95	5771.52
438.157	6215.93
438.364	6476.02
438.571	6347
438.778	6379.76
438.985	7026.92
439.192	6648.05
439.399	6840.56
439.606	6756.59
439.813	7198.95
440.02	7479.52
440.227	7401.7
440.433	7278.82
440.64	7520.48
440.847	7489.76
441.054	7618.79
441.261	8186.07
441.467	8067.29
441.674	8231.13
441.881	8640.72
442.088	8364.25
442.294	8628.43
442.501	8843.47
442.708	8999.12
442.914	9177.29
443.121	9652.42
443.328	9275.59
443.534	9969.85
443.741	9953.47
443.948	9760.96
444.154	10305.72
444.361	10199.23
444.568	10414.26
444.774	10248.38
444.981	10617.01
445.187	10870.96
445.394	11337.9
445.6	11219.11
445.807	11940
446.013	11714.72
446.22	11991.2
446.426	12325.02
446.633	12497.05
446.839	12761.23
447.046	12325.02
447.252	13058.19
447.459	12978.32
447.665	12644.5
447.871	13447.3
448.078	13944.96
448.284	13455.5
448.491	13590.66
448.697	14215.29
448.903	14250.11
449.11	14571.64
449.316	14360.7
449.522	14694.52
449.728	14790.77
449.935	15122.54
450.141	15188.08
450.347	15282.28
450.553	14880.88
450.76	15071.34
450.966	15396.97
451.172	15573.1
451.378	15784.04
451.584	15431.79
451.791	15794.28
451.997	15657.06
452.203	15999.07
452.409	16164.96
452.615	15804.52
452.821	15198.32
453.027	14825.59
453.233	15685.73
453.44	14909.55
453.646	15390.83
453.852	15536.23
454.058	15661.16
454.264	15087.73
454.47	15489.13
454.676	14989.42
454.882	15644.77
455.088	14131.33
455.294	14477.43
455.5	14538.87
455.705	14733.43
455.911	14051.45
456.117	13844.61
456.323	13637.77
456.529	12961.94
456.735	13365.39
456.941	13228.17
457.147	12914.83
457.352	12519.57
457.558	12451.99
457.764	12368.02
457.97	12085.4
458.176	11722.91
458.381	11821.22
458.587	10989.74
458.793	11559.08
458.999	10750.13
459.204	11571.36
459.41	11079.85
459.616	10426.55
459.821	10444.98
460.027	10442.93
460.233	10100.92
460.438	9650.37
460.644	9853.12
460.85	9466.05
461.055	9089.23
461.261	9064.65
461.466	8571.09
461.672	8237.27
461.878	8923.34
462.083	8362.2
462.289	8071.39
462.494	7981.28
462.7	7756
462.905	7512.29
463.111	7721.18
463.316	7725.28
463.522	7557.35
463.727	7717.09
463.932	7778.53
464.138	7686.37
464.343	7590.11
464.549	7385.32
464.754	7565.54
464.959	7641.31
465.165	7543.01
465.37	7114.98
465.575	6988.01
465.781	7434.47
465.986	7332.07
466.191	7184.62
466.397	7059.69
466.602	6598.9
466.807	6758.64
467.012	6881.52
467.218	6791.41
467.423	6865.13
467.628	6777.07
467.833	7112.94
468.038	6809.84
468.244	6871.28
468.449	6897.9
468.654	6727.92
468.859	6756.59
469.064	6447.35
469.269	6316.28
469.474	6340.85
469.679	6349.04
469.885	6134.01
470.09	6314.23
470.295	6314.23
470.5	6220.02
470.705	6138.1
