Data from USB4F104151__219__14-00-11-463.txt Node

Date: Thu Mar 13 14:00:11 EDT 2025
User: louis
Spectrometer: USB4F10415
Trigger mode: 4
Integration Time (sec): 1.000000E-2
Scans to average: 1
Electric dark correction enabled: true
Nonlinearity correction enabled: false
Boxcar width: 0
XAxis mode: Wavelengths
Number of Pixels in Spectrum: 3648
>>>>>Begin Spectral Data<<<<<
178.204	-48.47
178.424	-48.47
178.644	-48.47
178.864	-52.56
179.084	-62.8
179.304	-38.23
179.524	-13.65
179.744	33.45
179.964	35.5
180.184	-71
180.404	-25.94
180.624	-34.13
180.844	15.02
181.064	41.64
181.283	6.83
181.503	25.26
181.723	25.26
181.943	-30.04
182.163	-5.46
182.383	39.59
182.602	55.98
182.822	49.83
183.042	-19.8
183.262	58.03
183.482	27.31
183.701	-21.85
183.921	35.5
184.141	-71
184.361	4.78
184.58	43.69
184.8	51.88
185.02	47.79
185.239	49.83
185.459	19.11
185.679	-19.8
185.898	23.21
186.118	4.78
186.338	19.11
186.557	-1.37
186.777	43.69
186.997	6.83
187.216	60.07
187.436	19.11
187.655	4.78
187.875	25.26
188.095	43.69
188.314	29.35
188.534	74.41
188.753	64.17
188.973	127.66
189.192	35.5
189.412	51.88
189.631	-7.51
189.851	27.31
190.07	2.73
190.29	-40.28
190.509	19.11
190.729	2.73
190.948	17.07
191.168	23.21
191.387	-32.08
191.607	8.87
191.826	-36.18
192.045	49.83
192.265	10.92
192.484	47.79
192.704	-15.7
192.923	21.16
193.142	58.03
193.362	33.45
193.581	98.99
193.8	68.27
194.02	62.12
194.239	37.55
194.458	8.87
194.678	6.83
194.897	6.83
195.116	33.45
195.335	35.5
195.555	-44.37
195.774	-15.7
195.993	4.78
196.212	29.35
196.432	-3.41
196.651	2.73
196.87	17.07
197.089	-13.65
197.308	23.21
197.528	21.16
197.747	41.64
197.966	21.16
198.185	0.68
198.404	53.93
198.623	-3.41
198.842	10.92
199.062	131.75
199.281	6.83
199.5	19.11
199.719	51.88
199.938	-27.99
200.157	68.27
200.376	115.37
200.595	-7.51
200.814	-23.89
201.033	17.07
201.252	0.68
201.471	35.5
201.69	12.97
201.909	51.88
202.128	29.35
202.347	66.22
202.566	53.93
202.785	8.87
203.004	-21.85
203.223	33.45
203.442	68.27
203.661	-1.37
203.879	-11.61
204.098	27.31
204.317	-11.61
204.536	74.41
204.755	-7.51
204.974	21.16
205.193	78.51
205.411	10.92
205.63	-15.7
205.849	37.55
206.068	17.07
206.287	-38.23
206.505	-23.89
206.724	49.83
206.943	41.64
207.162	6.83
207.381	29.35
207.599	55.98
207.818	8.87
208.037	37.55
208.255	66.22
208.474	51.88
208.693	45.74
208.911	70.31
209.13	-13.65
209.349	33.45
209.567	-7.51
209.786	43.69
210.005	58.03
210.223	74.41
210.442	4.78
210.661	35.5
210.879	2.73
211.098	10.92
211.316	27.31
211.535	62.12
211.753	-9.56
211.972	29.35
212.191	58.03
212.409	43.69
212.628	-44.37
212.846	-40.28
213.065	49.83
213.283	-5.46
213.502	33.45
213.72	19.11
213.938	-9.56
214.157	123.56
214.375	4.78
214.594	58.03
214.812	31.4
215.031	33.45
215.249	-58.71
215.467	31.4
215.686	0.68
215.904	113.32
216.122	0.68
216.341	17.07
216.559	15.02
216.778	6.83
216.996	23.21
217.214	10.92
217.432	62.12
217.651	4.78
217.869	53.93
218.087	17.07
218.306	12.97
218.524	31.4
218.742	-44.37
218.96	10.92
219.179	-32.08
219.397	25.26
219.615	76.46
219.833	15.02
220.051	72.36
220.27	90.79
220.488	60.07
220.706	19.11
220.924	82.6
221.142	51.88
221.36	15.02
221.578	29.35
221.796	33.45
222.015	27.31
222.233	10.92
222.451	53.93
222.669	-58.71
222.887	103.08
223.105	53.93
223.323	15.02
223.541	49.83
223.759	-9.56
223.977	-11.61
224.195	135.85
224.413	-11.61
224.631	-15.7
224.849	68.27
225.067	21.16
225.285	-56.66
225.503	51.88
225.721	-60.76
225.939	-25.94
226.157	68.27
226.375	72.36
226.592	29.35
226.81	-58.71
227.028	10.92
227.246	29.35
227.464	68.27
227.682	-11.61
227.9	-13.65
228.117	64.17
228.335	146.09
228.553	-38.23
228.771	19.11
228.989	33.45
229.206	-19.8
229.424	66.22
229.642	-15.7
229.86	41.64
230.077	35.5
230.295	103.08
230.513	-15.7
230.731	0.68
230.948	49.83
231.166	33.45
231.384	-5.46
231.601	12.97
231.819	-21.85
232.037	45.74
232.254	-15.7
232.472	90.79
232.689	-15.7
232.907	10.92
233.125	49.83
233.342	-7.51
233.56	-42.32
233.777	41.64
233.995	51.88
234.213	70.31
234.43	17.07
234.648	39.59
234.865	-11.61
235.083	0.68
235.3	2.73
235.518	39.59
235.735	43.69
235.953	51.88
236.17	15.02
236.388	-30.04
236.605	-9.56
236.822	43.69
237.04	-27.99
237.257	-1.37
237.475	25.26
237.692	17.07
237.909	-17.75
238.127	43.69
238.344	12.97
238.562	66.22
238.779	-5.46
238.996	8.87
239.214	12.97
239.431	-44.37
239.648	29.35
239.865	-34.13
240.083	-15.7
240.3	-36.18
240.517	37.55
240.735	-58.71
240.952	53.93
241.169	68.27
241.386	21.16
241.603	37.55
241.821	58.03
242.038	17.07
242.255	58.03
242.472	-30.04
242.689	6.83
242.907	68.27
243.124	27.31
243.341	29.35
243.558	19.11
243.775	-7.51
243.992	-109.91
244.209	37.55
244.426	35.5
244.643	12.97
244.86	31.4
245.078	53.93
245.295	37.55
245.512	86.7
245.729	27.31
245.946	8.87
246.163	41.64
246.38	76.46
246.597	-32.08
246.814	-7.51
247.031	-48.47
247.248	68.27
247.464	8.87
247.681	41.64
247.898	-19.8
248.115	92.84
248.332	35.5
248.549	47.79
248.766	31.4
248.983	-3.41
249.2	-38.23
249.417	21.16
249.633	35.5
249.85	66.22
250.067	55.98
250.284	51.88
250.501	0.68
250.717	45.74
250.934	51.88
251.151	94.89
251.368	2.73
251.585	55.98
251.801	-13.65
252.018	58.03
252.235	6.83
252.451	-27.99
252.668	72.36
252.885	2.73
253.102	43.69
253.318	0.68
253.535	-3.41
253.752	4.78
253.968	-15.7
254.185	27.31
254.401	78.51
254.618	29.35
254.835	19.11
255.051	41.64
255.268	-40.28
255.484	4.78
255.701	27.31
255.917	66.22
256.134	41.64
256.351	-5.46
256.567	-44.37
256.784	10.92
257	70.31
257.217	-1.37
257.433	51.88
257.65	51.88
257.866	103.08
258.082	45.74
258.299	-32.08
258.515	92.84
258.732	-32.08
258.948	45.74
259.165	21.16
259.381	45.74
259.597	-19.8
259.814	58.03
260.03	10.92
260.246	66.22
260.463	45.74
260.679	33.45
260.895	0.68
261.112	74.41
261.328	45.74
261.544	47.79
261.761	6.83
261.977	25.26
262.193	37.55
262.409	68.27
262.626	53.93
262.842	49.83
263.058	41.64
263.274	4.78
263.49	51.88
263.707	60.07
263.923	-48.47
264.139	4.78
264.355	27.31
264.571	35.5
264.787	-9.56
265.004	31.4
265.22	60.07
265.436	39.59
265.652	-17.75
265.868	103.08
266.084	84.65
266.3	29.35
266.516	27.31
266.732	6.83
266.948	21.16
267.164	35.5
267.38	74.41
267.596	45.74
267.812	76.46
268.028	15.02
268.244	66.22
268.46	84.65
268.676	62.12
268.892	-21.85
269.108	117.42
269.324	84.65
269.54	12.97
269.756	25.26
269.972	25.26
270.188	-50.52
270.403	-5.46
270.619	-7.51
270.835	19.11
271.051	49.83
271.267	8.87
271.483	37.55
271.698	33.45
271.914	66.22
272.13	-11.61
272.346	-13.65
272.562	53.93
272.777	103.08
272.993	-9.56
273.209	45.74
273.425	-9.56
273.64	31.4
273.856	-13.65
274.072	103.08
274.287	33.45
274.503	10.92
274.719	17.07
274.934	47.79
275.15	66.22
275.366	15.02
275.581	90.79
275.797	90.79
276.012	21.16
276.228	49.83
276.444	88.75
276.659	109.22
276.875	23.21
277.09	-114
277.306	-46.42
277.521	43.69
277.737	35.5
277.952	60.07
278.168	129.7
278.383	107.18
278.599	-15.7
278.814	51.88
279.03	-13.65
279.245	88.75
279.461	49.83
279.676	4.78
279.892	15.02
280.107	2.73
280.322	15.02
280.538	103.08
280.753	35.5
280.969	-15.7
281.184	62.12
281.399	62.12
281.615	25.26
281.83	25.26
282.045	25.26
282.26	-1.37
282.476	-34.13
282.691	62.12
282.906	-48.47
283.122	68.27
283.337	-38.23
283.552	-40.28
283.767	10.92
283.983	15.02
284.198	35.5
284.413	25.26
284.628	15.02
284.843	17.07
285.058	78.51
285.274	23.21
285.489	2.73
285.704	66.22
285.919	2.73
286.134	-30.04
286.349	23.21
286.564	21.16
286.779	25.26
286.995	92.84
287.21	51.88
287.425	49.83
287.64	49.83
287.855	115.37
288.07	-50.52
288.285	25.26
288.5	51.88
288.715	-15.7
288.93	-1.37
289.145	51.88
289.36	86.7
289.575	31.4
289.79	23.21
290.004	90.79
290.219	90.79
290.434	17.07
290.649	-52.56
290.864	6.83
291.079	21.16
291.294	2.73
291.509	-27.99
291.724	-15.7
291.938	68.27
292.153	35.5
292.368	-15.7
292.583	10.92
292.798	55.98
293.012	8.87
293.227	-13.65
293.442	8.87
293.657	88.75
293.871	109.22
294.086	74.41
294.301	35.5
294.516	60.07
294.73	15.02
294.945	41.64
295.16	12.97
295.374	21.16
295.589	51.88
295.804	6.83
296.018	-13.65
296.233	74.41
296.447	72.36
296.662	19.11
296.877	68.27
297.091	33.45
297.306	31.4
297.52	10.92
297.735	19.11
297.949	39.59
298.164	19.11
298.378	4.78
298.593	2.73
298.807	37.55
299.022	49.83
299.236	27.31
299.451	-15.7
299.665	-5.46
299.88	45.74
300.094	-38.23
300.309	76.46
300.523	41.64
300.737	17.07
300.952	41.64
301.166	-46.42
301.381	8.87
301.595	41.64
301.809	-7.51
302.024	82.6
302.238	-64.85
302.452	51.88
302.667	-52.56
302.881	70.31
303.095	-15.7
303.309	58.03
303.524	-25.94
303.738	39.59
303.952	17.07
304.166	45.74
304.381	-11.61
304.595	-11.61
304.809	68.27
305.023	47.79
305.237	-19.8
305.452	-13.65
305.666	-11.61
305.88	45.74
306.094	21.16
306.308	43.69
306.522	33.45
306.736	47.79
306.95	25.26
307.164	49.83
307.379	-32.08
307.593	51.88
307.807	98.99
308.021	29.35
308.235	58.03
308.449	37.55
308.663	-9.56
308.877	60.07
309.091	12.97
309.305	55.98
309.519	107.18
309.733	80.55
309.947	25.26
310.161	4.78
310.374	64.17
310.588	58.03
310.802	-3.41
311.016	17.07
311.23	-23.89
311.444	58.03
311.658	119.46
311.872	84.65
312.085	47.79
312.299	47.79
312.513	51.88
312.727	-30.04
312.941	43.69
313.154	86.7
313.368	23.21
313.582	51.88
313.796	4.78
314.009	101.03
314.223	68.27
314.437	68.27
314.651	-56.66
314.864	86.7
315.078	49.83
315.292	80.55
315.505	49.83
315.719	43.69
315.933	37.55
316.146	72.36
316.36	31.4
316.573	68.27
316.787	-11.61
317.001	-13.65
317.214	47.79
317.428	70.31
317.641	33.45
317.855	-5.46
318.068	-13.65
318.282	84.65
318.495	109.22
318.709	78.51
318.922	0.68
319.136	60.07
319.349	58.03
319.563	74.41
319.776	131.75
319.99	49.83
320.203	41.64
320.417	37.55
320.63	25.26
320.843	23.21
321.057	-50.52
321.27	23.21
321.483	45.74
321.697	76.46
321.91	-11.61
322.124	47.79
322.337	25.26
322.55	-32.08
322.763	74.41
322.977	25.26
323.19	-5.46
323.403	58.03
323.617	55.98
323.83	66.22
324.043	17.07
324.256	74.41
324.469	0.68
324.683	78.51
324.896	12.97
325.109	64.17
325.322	31.4
325.535	27.31
325.748	49.83
325.962	109.22
326.175	45.74
326.388	66.22
326.601	90.79
326.814	43.69
327.027	27.31
327.24	88.75
327.453	-17.75
327.666	-23.89
327.879	2.73
328.092	45.74
328.305	-11.61
328.518	62.12
328.731	19.11
328.944	66.22
329.157	-11.61
329.37	29.35
329.583	129.7
329.796	107.18
330.009	-11.61
330.222	90.79
330.435	49.83
330.648	-9.56
330.861	-1.37
331.073	66.22
331.286	29.35
331.499	45.74
331.712	76.46
331.925	76.46
332.138	-56.66
332.35	-1.37
332.563	0.68
332.776	27.31
332.989	21.16
333.202	21.16
333.414	12.97
333.627	27.31
333.84	31.4
334.053	-30.04
334.265	31.4
334.478	19.11
334.691	-32.08
334.903	58.03
335.116	51.88
335.329	60.07
335.541	19.11
335.754	27.31
335.966	84.65
336.179	53.93
336.392	6.83
336.604	86.7
336.817	45.74
337.029	74.41
337.242	19.11
337.454	43.69
337.667	29.35
337.88	58.03
338.092	-34.13
338.305	101.03
338.517	41.64
338.729	76.46
338.942	51.88
339.154	66.22
339.367	-17.75
339.579	119.46
339.792	47.79
340.004	92.84
340.217	17.07
340.429	53.93
340.641	25.26
340.854	17.07
341.066	35.5
341.278	17.07
341.491	17.07
341.703	-19.8
341.915	17.07
342.128	76.46
342.34	-15.7
342.552	-21.85
342.764	84.65
342.977	141.99
343.189	70.31
343.401	-13.65
343.613	19.11
343.826	17.07
344.038	70.31
344.25	41.64
344.462	72.36
344.674	41.64
344.886	66.22
345.099	17.07
345.311	19.11
345.523	33.45
345.735	21.16
345.947	-48.47
346.159	27.31
346.371	76.46
346.583	37.55
346.795	12.97
347.007	6.83
347.219	94.89
347.431	0.68
347.643	-40.28
347.855	19.11
348.067	31.4
348.279	-5.46
348.491	23.21
348.703	41.64
348.915	-5.46
349.127	31.4
349.339	41.64
349.551	47.79
349.763	19.11
349.975	-38.23
350.187	70.31
350.399	103.08
350.61	94.89
350.822	49.83
351.034	92.84
351.246	-36.18
351.458	19.11
351.669	84.65
351.881	66.22
352.093	12.97
352.305	35.5
352.517	41.64
352.728	-30.04
352.94	92.84
353.152	74.41
353.363	-5.46
353.575	-7.51
353.787	19.11
353.999	109.22
354.21	58.03
354.422	19.11
354.633	8.87
354.845	47.79
355.057	88.75
355.268	84.65
355.48	113.32
355.692	29.35
355.903	-25.94
356.115	60.07
356.326	-30.04
356.538	45.74
356.749	74.41
356.961	76.46
357.172	6.83
357.384	62.12
357.595	47.79
357.807	47.79
358.018	-5.46
358.23	37.55
358.441	62.12
358.653	-7.51
358.864	35.5
359.075	-3.41
359.287	19.11
359.498	109.22
359.709	0.68
359.921	76.46
360.132	53.93
360.344	53.93
360.555	78.51
360.766	35.5
360.977	2.73
361.189	10.92
361.4	-1.37
361.611	96.94
361.823	72.36
362.034	68.27
362.245	80.55
362.456	51.88
362.667	76.46
362.879	23.21
363.09	62.12
363.301	92.84
363.512	47.79
363.723	49.83
363.935	-5.46
364.146	117.42
364.357	39.59
364.568	109.22
364.779	49.83
364.99	-1.37
365.201	55.98
365.412	23.21
365.623	10.92
365.834	92.84
366.045	51.88
366.256	17.07
366.467	-17.75
366.678	82.6
366.889	0.68
367.1	17.07
367.311	58.03
367.522	84.65
367.733	27.31
367.944	72.36
368.155	-7.51
368.366	23.21
368.577	53.93
368.788	98.99
368.999	25.26
369.209	55.98
369.42	96.94
369.631	35.5
369.842	10.92
370.053	139.94
370.264	-13.65
370.474	41.64
370.685	-17.75
370.896	8.87
371.107	70.31
371.317	78.51
371.528	90.79
371.739	45.74
371.95	53.93
372.16	58.03
372.371	68.27
372.582	-13.65
372.792	66.22
373.003	12.97
373.214	49.83
373.424	64.17
373.635	37.55
373.846	101.03
374.056	4.78
374.267	27.31
374.477	125.61
374.688	66.22
374.898	60.07
375.109	21.16
375.319	127.66
375.53	60.07
375.74	2.73
375.951	62.12
376.161	49.83
376.372	15.02
376.582	12.97
376.793	76.46
377.003	10.92
377.214	64.17
377.424	33.45
377.635	84.65
377.845	86.7
378.055	31.4
378.266	66.22
378.476	17.07
378.686	41.64
378.897	41.64
379.107	82.6
379.317	33.45
379.528	62.12
379.738	150.18
379.948	17.07
380.158	86.7
380.369	-19.8
380.579	49.83
380.789	92.84
380.999	-21.85
381.21	72.36
381.42	-7.51
381.63	49.83
381.84	103.08
382.05	-19.8
382.261	58.03
382.471	96.94
382.681	-5.46
382.891	60.07
383.101	-19.8
383.311	60.07
383.521	68.27
383.731	49.83
383.941	66.22
384.151	58.03
384.361	55.98
384.571	78.51
384.781	86.7
384.991	19.11
385.201	25.26
385.411	53.93
385.621	60.07
385.831	2.73
386.041	27.31
386.251	49.83
386.461	90.79
386.671	47.79
386.881	17.07
387.091	117.42
387.301	17.07
387.511	90.79
387.72	68.27
387.93	53.93
388.14	47.79
388.35	72.36
388.56	109.22
388.769	25.26
388.979	66.22
389.189	-13.65
389.399	96.94
389.609	-23.89
389.818	119.46
390.028	64.17
390.238	68.27
390.447	133.8
390.657	156.33
390.867	58.03
391.076	17.07
391.286	96.94
391.496	115.37
391.705	70.31
391.915	41.64
392.125	-13.65
392.334	55.98
392.544	86.7
392.753	96.94
392.963	86.7
393.172	55.98
393.382	80.55
393.591	107.18
393.801	90.79
394.01	62.12
394.22	76.46
394.429	35.5
394.639	58.03
394.848	111.27
395.058	101.03
395.267	113.32
395.477	127.66
395.686	103.08
395.895	90.79
396.105	96.94
396.314	90.79
396.524	121.51
396.733	25.26
396.942	117.42
397.152	64.17
397.361	96.94
397.57	117.42
397.78	107.18
397.989	90.79
398.198	94.89
398.407	103.08
398.617	117.42
398.826	107.18
399.035	66.22
399.244	86.7
399.453	96.94
399.663	201.38
399.872	101.03
400.081	68.27
400.29	86.7
400.499	0.68
400.708	111.27
400.917	25.26
401.127	178.86
401.336	27.31
401.545	139.94
401.754	168.62
401.963	123.56
402.172	86.7
402.381	58.03
402.59	37.55
402.799	156.33
403.008	105.13
403.217	168.62
403.426	125.61
403.635	125.61
403.844	121.51
404.053	74.41
404.262	109.22
404.471	166.57
404.68	98.99
404.888	141.99
405.097	131.75
405.306	117.42
405.515	174.76
405.724	137.9
405.933	199.34
406.142	101.03
406.35	242.34
406.559	160.42
406.768	197.29
406.977	238.25
407.185	199.34
407.394	195.24
407.603	193.19
407.812	174.76
408.02	266.92
408.229	203.43
408.438	185
408.646	279.21
408.855	297.64
409.064	252.58
409.272	293.54
409.481	367.27
409.69	225.96
409.898	303.78
410.107	279.21
410.315	228.01
410.524	342.69
410.733	328.36
410.941	293.54
411.15	363.17
411.358	289.45
411.567	387.75
411.775	365.22
411.984	408.23
412.192	453.28
412.401	447.14
412.609	438.95
412.818	545.44
413.026	449.19
413.234	535.2
413.443	559.78
413.651	645.79
413.86	475.81
414.068	527.01
414.276	570.02
414.485	594.59
414.693	610.98
414.901	658.08
415.11	686.75
415.318	678.56
415.526	682.66
415.734	748.19
415.943	717.47
416.151	815.77
416.359	819.87
416.567	799.39
416.776	852.64
416.984	866.97
417.192	903.84
417.4	942.75
417.608	1014.43
417.817	1032.86
418.025	1118.87
418.233	1110.68
418.441	1161.88
418.649	1198.74
418.857	1274.52
419.065	1280.66
419.273	1319.57
419.481	1254.04
419.689	1460.88
419.897	1426.07
420.105	1518.23
420.313	1528.47
420.521	1614.48
420.729	1534.61
420.937	1682.06
421.145	1671.83
421.353	1880.72
421.561	1845.9
421.769	1958.54
421.977	2048.65
422.185	1897.1
422.393	2028.17
422.601	2189.96
422.809	2237.06
423.017	2198.15
423.224	2372.23
423.432	2417.29
423.64	2464.39
423.848	2634.37
424.056	2458.25
424.263	2810.5
424.471	2777.73
424.679	2790.02
424.887	3113.6
425.094	3142.27
425.302	3121.79
425.51	3213.95
425.718	3383.93
425.925	3494.52
426.133	3465.85
426.341	3570.29
426.548	3791.47
426.756	3660.4
426.964	3840.62
427.171	4106.86
427.379	4260.46
427.586	4287.08
427.794	4289.13
428.001	4581.99
428.209	4778.59
428.417	4770.4
428.624	4889.18
428.832	4987.49
429.039	5116.51
429.247	4893.28
429.454	5425.75
429.662	5884.5
429.869	5491.29
430.076	5878.35
430.284	5761.62
430.491	6054.48
430.699	6230.6
430.906	6443.59
431.114	6359.63
431.321	6570.57
431.528	6900.29
431.736	6885.95
431.943	7596.6
432.15	7248.44
432.358	7141.95
432.565	7668.28
432.772	7770.68
432.979	8137.26
433.187	8362.54
433.394	8354.35
433.601	8741.41
433.808	8806.95
434.016	8806.95
434.223	9280.03
434.43	9757.21
434.637	9538.07
434.844	10152.46
435.052	10240.53
435.259	10168.85
435.466	10400.27
435.673	10316.3
435.88	10924.55
436.087	11618.81
436.294	11538.94
436.501	11309.57
436.708	11579.9
436.915	11958.77
437.122	12345.84
437.329	12345.84
437.537	12780.01
437.743	13113.83
437.95	12880.36
438.157	13562.33
438.364	14074.32
438.571	14006.74
438.778	13982.17
438.985	15264.19
439.192	14518.73
439.399	15018.44
439.606	14721.48
439.813	15593.92
440.02	16658.86
440.227	16257.46
440.433	16073.14
440.64	16699.82
440.847	16617.9
441.054	17007.02
441.261	18147.73
441.467	17973.66
441.674	18221.46
441.881	18954.63
442.088	18862.47
442.294	18682.25
442.501	19204.49
442.708	19755.39
442.914	20433.27
443.121	21242.21
443.328	20808.05
443.534	22165.85
443.741	21287.27
443.948	21072.23
444.154	22700.37
444.361	22473.04
444.568	23021.9
444.774	22972.75
444.981	22896.97
445.187	23515.46
445.394	24985.9
445.6	24385.85
445.807	27001.1
446.013	25506.09
446.22	26013.98
446.426	26980.62
446.633	26878.22
446.839	28172.54
447.046	27031.82
447.252	28358.91
447.459	28594.42
447.665	28254.46
447.871	29440.23
448.078	30929.11
448.284	29343.98
448.491	30347.48
448.697	31629.51
448.903	31860.93
449.11	31959.24
449.316	31363.28
449.522	31836.36
449.728	32731.32
449.935	33269.93
450.141	32876.72
450.347	34199.71
450.553	32932.02
450.76	33159.34
450.966	34031.78
451.172	33562.79
451.378	34781.34
451.584	33949.86
451.791	35145.87
451.997	34873.49
452.203	35575.95
452.409	35172.5
452.615	34955.41
452.821	33931.43
453.027	33304.75
453.233	35125.39
453.44	34085.03
453.646	34273.44
453.852	34168.99
454.058	34773.14
454.264	34076.83
454.47	34652.31
454.676	33894.57
454.882	34826.39
455.088	31715.53
455.294	32551.1
455.5	32952.5
455.705	33161.39
455.911	32018.63
456.117	30931.15
456.323	30773.46
456.529	29126.89
456.735	30660.82
456.941	29638.89
457.147	29198.57
457.352	28571.89
457.558	27869.44
457.764	28213.5
457.97	27248.91
458.176	26618.13
458.381	26767.63
458.587	25862.43
458.793	25510.18
458.999	24410.42
459.204	25889.06
459.41	25450.79
459.616	23679.3
459.821	23746.88
460.027	23654.72
460.233	23144.78
460.438	21862.75
460.644	22317.4
460.85	21256.55
461.055	20687.22
461.261	20812.14
461.466	19505.54
461.672	18479.5
461.878	20234.61
462.083	18712.97
462.289	18446.74
462.494	18241.94
462.7	17861.02
462.905	16953.77
463.111	17564.06
463.316	17631.65
463.522	17342.88
463.727	17498.53
463.932	17379.75
464.138	17043.88
464.343	17080.74
464.549	16535.98
464.754	17443.23
464.959	17152.42
465.165	17191.33
465.37	16472.5
465.575	16040.37
465.781	16540.08
465.986	16470.45
466.191	16064.95
466.397	15659.45
466.602	14985.67
466.807	15286.72
467.012	15661.5
467.218	15460.8
467.423	15051.21
