Data from USB4F104151__242__14-01-17-976.txt Node

Date: Thu Mar 13 14:01:17 EDT 2025
User: louis
Spectrometer: USB4F10415
Trigger mode: 4
Integration Time (sec): 1.000000E-2
Scans to average: 1
Electric dark correction enabled: true
Nonlinearity correction enabled: false
Boxcar width: 0
XAxis mode: Wavelengths
Number of Pixels in Spectrum: 3648
>>>>>Begin Spectral Data<<<<<
178.204	-68.78
178.424	-68.78
178.644	-68.78
178.864	-33.96
179.084	-54.44
179.304	-1.19
179.524	-46.25
179.744	17.24
179.964	19.29
180.184	7
180.404	11.09
180.624	4.95
180.844	-15.53
181.064	7
181.283	50
181.503	-62.63
181.723	9.05
181.943	23.38
182.163	17.24
182.383	-23.72
182.602	88.92
182.822	17.24
183.042	70.48
183.262	-60.59
183.482	17.24
183.701	-9.39
183.921	-11.43
184.141	-72.87
184.361	64.34
184.58	37.72
184.8	-31.91
185.02	-15.53
185.239	103.25
185.459	56.15
185.679	76.63
185.898	2.9
186.118	13.14
186.338	45.91
186.557	50
186.777	31.57
186.997	0.85
187.216	-48.3
187.436	17.24
187.655	43.86
187.875	72.53
188.095	-15.53
188.314	119.64
188.534	25.43
188.753	25.43
188.973	-29.87
189.192	50
189.412	90.96
189.631	-56.49
189.851	-3.24
190.07	0.85
190.29	-56.49
190.509	9.05
190.729	11.09
190.948	7
191.168	11.09
191.387	29.52
191.607	62.29
191.826	41.81
192.045	117.59
192.265	70.48
192.484	11.09
192.704	52.05
192.923	43.86
193.142	101.2
193.362	-42.15
193.581	66.39
193.8	33.62
194.02	99.16
194.239	17.24
194.458	-7.34
194.678	41.81
194.897	56.15
195.116	27.48
195.335	78.68
195.555	47.96
195.774	27.48
195.993	60.24
196.212	2.9
196.432	-50.35
196.651	58.2
196.87	43.86
197.089	60.24
197.308	19.29
197.528	-38.06
197.747	-27.82
197.966	64.34
198.185	90.96
198.404	52.05
198.623	11.09
198.842	78.68
199.062	78.68
199.281	-1.19
199.5	7
199.719	66.39
199.938	4.95
200.157	25.43
200.376	43.86
200.595	13.14
200.814	70.48
201.033	25.43
201.252	19.29
201.471	29.52
201.69	29.52
201.909	-38.06
202.128	117.59
202.347	4.95
202.566	9.05
202.785	-1.19
203.004	45.91
203.223	70.48
203.442	52.05
203.661	-7.34
203.879	66.39
204.098	11.09
204.317	-17.58
204.536	19.29
204.755	68.44
204.974	17.24
205.193	-13.48
205.411	74.58
205.63	-17.58
205.849	37.72
206.068	-3.24
206.287	35.67
206.505	43.86
206.724	33.62
206.943	70.48
207.162	13.14
207.381	41.81
207.599	62.29
207.818	111.44
208.037	25.43
208.255	-15.53
208.474	27.48
208.693	76.63
208.911	27.48
209.13	-21.67
209.349	11.09
209.567	54.1
209.786	-1.19
210.005	33.62
210.223	62.29
210.442	4.95
210.661	52.05
210.879	9.05
211.098	35.67
211.316	25.43
211.535	58.2
211.753	-11.43
211.972	-17.58
212.191	0.85
212.409	70.48
212.628	37.72
212.846	11.09
213.065	56.15
213.283	74.58
213.502	35.67
213.72	78.68
213.938	-19.63
214.157	86.87
214.375	-9.39
214.594	68.44
214.812	17.24
215.031	17.24
215.249	-9.39
215.467	11.09
215.686	33.62
215.904	11.09
216.122	29.52
216.341	-1.19
216.559	25.43
216.778	88.92
216.996	88.92
217.214	62.29
217.432	78.68
217.651	-13.48
217.869	17.24
218.087	54.1
218.306	15.19
218.524	-81.07
218.742	76.63
218.96	-46.25
219.179	64.34
219.397	13.14
219.615	68.44
219.833	-3.24
220.051	-38.06
220.27	43.86
220.488	-40.11
220.706	82.77
220.924	19.29
221.142	15.19
221.36	2.9
221.578	43.86
221.796	-11.43
222.015	115.54
222.233	25.43
222.451	35.67
222.669	47.96
222.887	35.67
223.105	35.67
223.323	-31.91
223.541	17.24
223.759	84.82
223.977	-19.63
224.195	-15.53
224.413	35.67
224.631	13.14
224.849	0.85
225.067	78.68
225.285	-15.53
225.503	64.34
225.721	23.38
225.939	62.29
226.157	13.14
226.375	140.12
226.592	-9.39
226.81	19.29
227.028	41.81
227.246	-38.06
227.464	7
227.682	74.58
227.9	70.48
228.117	50
228.335	-7.34
228.553	58.2
228.771	23.38
228.989	54.1
229.206	-5.29
229.424	58.2
229.642	37.72
229.86	13.14
230.077	31.57
230.295	-7.34
230.513	29.52
230.731	-48.3
230.948	50
231.166	33.62
231.384	-5.29
231.601	43.86
231.819	29.52
232.037	11.09
232.254	109.4
232.472	15.19
232.689	-15.53
232.907	33.62
233.125	60.24
233.342	62.29
233.56	74.58
233.777	19.29
233.995	45.91
234.213	-7.34
234.43	-23.72
234.648	62.29
234.865	54.1
235.083	-33.96
235.3	0.85
235.518	29.52
235.735	88.92
235.953	21.33
236.17	33.62
236.388	68.44
236.605	-25.77
236.822	27.48
237.04	97.11
237.257	11.09
237.475	74.58
237.692	60.24
237.909	25.43
238.127	41.81
238.344	64.34
238.562	39.76
238.779	-48.3
238.996	11.09
239.214	-3.24
239.431	45.91
239.648	37.72
239.865	25.43
240.083	-19.63
240.3	93.01
240.517	76.63
240.735	35.67
240.952	52.05
241.169	76.63
241.386	68.44
241.603	13.14
241.821	25.43
242.038	52.05
242.255	74.58
242.472	9.05
242.689	43.86
242.907	93.01
243.124	45.91
243.341	17.24
243.558	-27.82
243.775	103.25
243.992	2.9
244.209	0.85
244.426	43.86
244.643	90.96
244.86	64.34
245.078	115.54
245.295	-15.53
245.512	41.81
245.729	-44.2
245.946	13.14
246.163	23.38
246.38	33.62
246.597	23.38
246.814	60.24
247.031	66.39
247.248	86.87
247.464	35.67
247.681	50
247.898	84.82
248.115	80.72
248.332	0.85
248.549	33.62
248.766	60.24
248.983	31.57
249.2	33.62
249.417	-17.58
249.633	54.1
249.85	86.87
250.067	-1.19
250.284	33.62
250.501	17.24
250.717	4.95
250.934	33.62
251.151	31.57
251.368	80.72
251.585	-9.39
251.801	15.19
252.018	33.62
252.235	86.87
252.451	17.24
252.668	-62.63
252.885	-52.39
253.102	39.76
253.318	52.05
253.535	33.62
253.752	19.29
253.968	27.48
254.185	2.9
254.401	70.48
254.618	-21.67
254.835	33.62
255.051	47.96
255.268	-27.82
255.484	7
255.701	66.39
255.917	129.88
256.134	-23.72
256.351	0.85
256.567	33.62
256.784	29.52
257	47.96
257.217	-36.01
257.433	76.63
257.65	41.81
257.866	39.76
258.082	33.62
258.299	-19.63
258.515	70.48
258.732	31.57
258.948	9.05
259.165	-1.19
259.381	50
259.597	82.77
259.814	37.72
260.03	74.58
260.246	41.81
260.463	13.14
260.679	101.2
260.895	66.39
261.112	82.77
261.328	-11.43
261.544	29.52
261.761	115.54
261.977	76.63
262.193	-1.19
262.409	41.81
262.626	-23.72
262.842	47.96
263.058	72.53
263.274	33.62
263.49	4.95
263.707	66.39
263.923	70.48
264.139	-54.44
264.355	64.34
264.571	21.33
264.787	54.1
265.004	86.87
265.22	101.2
265.436	84.82
265.652	41.81
265.868	-3.24
266.084	27.48
266.3	80.72
266.516	64.34
266.732	88.92
266.948	-19.63
267.164	19.29
267.38	35.67
267.596	105.3
267.812	19.29
268.028	37.72
268.244	29.52
268.46	86.87
268.676	-27.82
268.892	0.85
269.108	54.1
269.324	-13.48
269.54	31.57
269.756	43.86
269.972	-29.87
270.188	45.91
270.403	-9.39
270.619	19.29
270.835	7
271.051	-11.43
271.267	-11.43
271.483	62.29
271.698	64.34
271.914	9.05
272.13	45.91
272.346	9.05
272.562	54.1
272.777	60.24
272.993	-23.72
273.209	70.48
273.425	35.67
273.64	19.29
273.856	-40.11
274.072	-19.63
274.287	25.43
274.503	74.58
274.719	-64.68
274.934	70.48
275.15	13.14
275.366	35.67
275.581	41.81
275.797	33.62
276.012	0.85
276.228	43.86
276.444	4.95
276.659	45.91
276.875	0.85
277.09	0.85
277.306	50
277.521	9.05
277.737	88.92
277.952	54.1
278.168	64.34
278.383	58.2
278.599	35.67
278.814	-58.54
279.03	-17.58
279.245	60.24
279.461	52.05
279.676	33.62
279.892	25.43
280.107	90.96
280.322	84.82
280.538	90.96
280.753	35.67
280.969	17.24
281.184	4.95
281.399	33.62
281.615	0.85
281.83	25.43
282.045	-3.24
282.26	82.77
282.476	52.05
282.691	109.4
282.906	4.95
283.122	56.15
283.337	43.86
283.552	66.39
283.767	70.48
283.983	74.58
284.198	27.48
284.413	82.77
284.628	52.05
284.843	25.43
285.058	41.81
285.274	25.43
285.489	-19.63
285.704	11.09
285.919	17.24
286.134	-17.58
286.349	2.9
286.564	21.33
286.779	17.24
286.995	45.91
287.21	45.91
287.425	50
287.64	78.68
287.855	93.01
288.07	88.92
288.285	93.01
288.5	86.87
288.715	50
288.93	45.91
289.145	0.85
289.36	-3.24
289.575	70.48
289.79	27.48
290.004	74.58
290.219	41.81
290.434	25.43
290.649	64.34
290.864	62.29
291.079	15.19
291.294	43.86
291.509	31.57
291.724	72.53
291.938	-21.67
292.153	41.81
292.368	-23.72
292.583	74.58
292.798	33.62
293.012	76.63
293.227	19.29
293.442	43.86
293.657	52.05
293.871	60.24
294.086	62.29
294.301	54.1
294.516	84.82
294.73	41.81
294.945	27.48
295.16	105.3
295.374	27.48
295.589	35.67
295.804	-21.67
296.018	45.91
296.233	23.38
296.447	76.63
296.662	25.43
296.877	93.01
297.091	15.19
297.306	86.87
297.52	43.86
297.735	82.77
297.949	23.38
298.164	72.53
298.378	-46.25
298.593	19.29
298.807	54.1
299.022	68.44
299.236	80.72
299.451	66.39
299.665	-36.01
299.88	41.81
300.094	-7.34
300.309	74.58
300.523	93.01
300.737	31.57
300.952	-7.34
301.166	115.54
301.381	-52.39
301.595	66.39
301.809	2.9
302.024	15.19
302.238	-11.43
302.452	50
302.667	29.52
302.881	58.2
303.095	84.82
303.309	-5.29
303.524	13.14
303.738	58.2
303.952	109.4
304.166	21.33
304.381	0.85
304.595	17.24
304.809	50
305.023	58.2
305.237	33.62
305.452	50
305.666	45.91
305.88	150.36
306.094	41.81
306.308	-1.19
306.522	-19.63
306.736	23.38
306.95	29.52
307.164	43.86
307.379	0.85
307.593	-7.34
307.807	27.48
308.021	37.72
308.235	64.34
308.449	-21.67
308.663	54.1
308.877	86.87
309.091	60.24
309.305	86.87
309.519	21.33
309.733	119.64
309.947	82.77
310.161	-36.01
310.374	117.59
310.588	58.2
310.802	-15.53
311.016	74.58
311.23	62.29
311.444	-23.72
311.658	35.67
311.872	74.58
312.085	-38.06
312.299	56.15
312.513	82.77
312.727	50
312.941	4.95
313.154	129.88
313.368	15.19
313.582	17.24
313.796	33.62
314.009	95.06
314.223	4.95
314.437	25.43
314.651	-52.39
314.864	9.05
315.078	21.33
315.292	64.34
315.505	19.29
315.719	86.87
315.933	33.62
316.146	78.68
316.36	25.43
316.573	66.39
316.787	27.48
317.001	-7.34
317.214	131.92
317.428	60.24
317.641	35.67
317.855	-33.96
318.068	0.85
318.282	0.85
318.495	56.15
318.709	60.24
318.922	17.24
319.136	41.81
319.349	90.96
319.563	107.35
319.776	-11.43
319.99	9.05
320.203	15.19
320.417	66.39
320.63	50
320.843	37.72
321.057	29.52
321.27	17.24
321.483	68.44
321.697	15.19
321.91	66.39
322.124	4.95
322.337	0.85
322.55	43.86
322.763	37.72
322.977	54.1
323.19	-1.19
323.403	76.63
323.617	97.11
323.83	17.24
324.043	50
324.256	41.81
324.469	29.52
324.683	88.92
324.896	66.39
325.109	-23.72
325.322	0.85
325.535	74.58
325.748	107.35
325.962	66.39
326.175	37.72
326.388	90.96
326.601	7
326.814	95.06
327.027	80.72
327.24	82.77
327.453	11.09
327.666	90.96
327.879	54.1
328.092	29.52
328.305	47.96
328.518	72.53
328.731	35.67
328.944	90.96
329.157	45.91
329.37	35.67
329.583	-19.63
329.796	33.62
330.009	47.96
330.222	33.62
330.435	-13.48
330.648	66.39
330.861	25.43
331.073	-56.49
331.286	76.63
331.499	50
331.712	82.77
331.925	-5.29
332.138	-17.58
332.35	107.35
332.563	-54.44
332.776	72.53
332.989	17.24
333.202	99.16
333.414	58.2
333.627	25.43
333.84	33.62
334.053	19.29
334.265	84.82
334.478	7
334.691	52.05
334.903	37.72
335.116	93.01
335.329	70.48
335.541	78.68
335.754	58.2
335.966	33.62
336.179	70.48
336.392	52.05
336.604	62.29
336.817	54.1
337.029	0.85
337.242	43.86
337.454	93.01
337.667	78.68
337.88	15.19
338.092	-44.2
338.305	-15.53
338.517	-62.63
338.729	70.48
338.942	43.86
339.154	15.19
339.367	74.58
339.579	23.38
339.792	-58.54
340.004	74.58
340.217	58.2
340.429	58.2
340.641	88.92
340.854	19.29
341.066	39.76
341.278	107.35
341.491	90.96
341.703	123.73
341.915	27.48
342.128	43.86
342.34	52.05
342.552	41.81
342.764	52.05
342.977	35.67
343.189	33.62
343.401	35.67
343.613	11.09
343.826	35.67
344.038	-21.67
344.25	19.29
344.462	86.87
344.674	54.1
344.886	33.62
345.099	39.76
345.311	58.2
345.523	58.2
345.735	101.2
345.947	-21.67
346.159	70.48
346.371	50
346.583	-1.19
346.795	105.3
347.007	90.96
347.219	121.68
347.431	56.15
347.643	136.02
347.855	52.05
348.067	50
348.279	17.24
348.491	19.29
348.703	39.76
348.915	13.14
349.127	4.95
349.339	-1.19
349.551	17.24
349.763	9.05
349.975	54.1
350.187	17.24
350.399	21.33
350.61	60.24
350.822	35.67
351.034	43.86
351.246	7
351.458	58.2
351.669	13.14
351.881	88.92
352.093	84.82
352.305	74.58
352.517	97.11
352.728	54.1
352.94	-21.67
353.152	58.2
353.363	17.24
353.575	84.82
353.787	148.31
353.999	66.39
354.21	80.72
354.422	70.48
354.633	23.38
354.845	17.24
355.057	54.1
355.268	-7.34
355.48	43.86
355.692	142.16
355.903	35.67
356.115	-15.53
356.326	0.85
356.538	99.16
356.749	19.29
356.961	115.54
357.172	11.09
357.384	9.05
357.595	25.43
357.807	31.57
358.018	107.35
358.23	50
358.441	93.01
358.653	45.91
358.864	2.9
359.075	45.91
359.287	52.05
359.498	80.72
359.709	74.58
359.921	56.15
360.132	60.24
360.344	54.1
360.555	23.38
360.766	52.05
360.977	-1.19
361.189	58.2
361.4	111.44
361.611	21.33
361.823	33.62
362.034	54.1
362.245	-5.29
362.456	-1.19
362.667	41.81
362.879	80.72
363.09	29.52
363.301	7
363.512	66.39
363.723	41.81
363.935	4.95
364.146	66.39
364.357	17.24
364.568	115.54
364.779	80.72
364.99	27.48
365.201	41.81
365.412	70.48
365.623	60.24
365.834	80.72
366.045	43.86
366.256	11.09
366.467	76.63
366.678	68.44
366.889	31.57
367.1	136.02
367.311	60.24
367.522	25.43
367.733	101.2
367.944	68.44
368.155	-31.91
368.366	93.01
368.577	33.62
368.788	25.43
368.999	138.07
369.209	64.34
369.42	41.81
369.631	74.58
369.842	70.48
370.053	19.29
370.264	76.63
370.474	86.87
370.685	23.38
370.896	50
371.107	107.35
371.317	97.11
371.528	60.24
371.739	99.16
371.95	41.81
372.16	84.82
372.371	107.35
372.582	19.29
372.792	68.44
373.003	13.14
373.214	76.63
373.424	31.57
373.635	90.96
373.846	76.63
374.056	86.87
374.267	113.49
374.477	-15.53
374.688	39.76
374.898	15.19
375.109	131.92
375.319	7
375.53	107.35
375.74	13.14
375.951	86.87
376.161	84.82
376.372	29.52
376.582	-5.29
376.793	23.38
377.003	37.72
377.214	39.76
377.424	7
377.635	33.62
377.845	9.05
378.055	62.29
378.266	35.67
378.476	25.43
378.686	13.14
378.897	109.4
379.107	66.39
379.317	2.9
379.528	15.19
379.738	54.1
379.948	72.53
380.158	97.11
380.369	56.15
380.579	56.15
380.789	-68.78
380.999	82.77
381.21	-11.43
381.42	119.64
381.63	113.49
381.84	-3.24
382.05	74.58
382.261	82.77
382.471	45.91
382.681	50
382.891	68.44
383.101	50
383.311	43.86
383.521	-3.24
383.731	136.02
383.941	33.62
384.151	2.9
384.361	111.44
384.571	-19.63
384.781	17.24
384.991	41.81
385.201	88.92
385.411	4.95
385.621	33.62
385.831	52.05
386.041	27.48
386.251	60.24
386.461	50
386.671	50
386.881	70.48
387.091	43.86
387.301	70.48
387.511	9.05
387.72	62.29
387.93	133.97
388.14	37.72
388.35	47.96
388.56	56.15
388.769	62.29
388.979	58.2
389.189	74.58
389.399	62.29
389.609	56.15
389.818	39.76
390.028	11.09
390.238	123.73
390.447	-19.63
390.657	19.29
390.867	54.1
391.076	-1.19
391.286	84.82
391.496	41.81
391.705	19.29
391.915	117.59
392.125	17.24
392.334	-3.24
392.544	121.68
392.753	88.92
392.963	72.53
393.172	90.96
393.382	25.43
393.591	78.68
393.801	50
394.01	37.72
394.22	45.91
394.429	123.73
394.639	47.96
394.848	19.29
395.058	84.82
395.267	35.67
395.477	33.62
395.686	129.88
395.895	113.49
396.105	15.19
396.314	68.44
396.524	27.48
396.733	148.31
396.942	64.34
397.152	107.35
397.361	29.52
397.57	54.1
397.78	-21.67
397.989	97.11
398.198	99.16
398.407	140.12
398.617	138.07
398.826	76.63
399.035	95.06
399.244	99.16
399.453	125.78
399.663	107.35
399.872	33.62
400.081	70.48
400.29	84.82
400.499	95.06
400.708	103.25
400.917	82.77
401.127	90.96
401.336	74.58
401.545	109.4
401.754	148.31
401.963	131.92
402.172	131.92
402.381	121.68
402.59	66.39
402.799	103.25
403.008	101.2
403.217	174.93
403.426	50
403.635	113.49
403.844	50
404.053	50
404.262	127.83
404.471	138.07
404.68	127.83
404.888	74.58
405.097	101.2
405.306	117.59
405.515	101.2
405.724	131.92
405.933	158.55
406.142	183.12
406.35	105.3
406.559	109.4
406.768	43.86
406.977	136.02
407.185	109.4
407.394	179.03
407.603	117.59
407.812	152.4
408.02	162.64
408.229	166.74
408.438	109.4
408.646	205.65
408.855	103.25
409.064	230.23
409.272	78.68
409.481	168.79
409.69	172.88
409.898	228.18
410.107	191.31
410.315	224.08
410.524	193.36
410.733	185.17
410.941	219.99
411.15	232.27
411.358	215.89
411.567	248.66
411.775	258.9
411.984	297.81
412.192	287.57
412.401	318.29
412.609	238.42
412.818	254.8
413.026	258.9
413.234	310.1
413.443	367.44
413.651	308.05
413.86	326.48
414.068	320.34
414.276	342.86
414.485	353.1
414.693	445.26
414.901	361.3
415.11	435.02
415.318	396.11
415.526	402.26
415.734	482.13
415.943	451.41
416.151	447.31
416.359	484.17
416.567	557.9
416.776	535.37
416.984	602.96
417.192	598.86
417.4	529.23
417.608	545.61
417.817	627.53
418.025	559.95
418.233	774.99
418.441	674.64
418.649	715.59
418.857	742.22
419.065	729.93
419.273	736.07
419.481	725.83
419.689	840.52
419.897	955.21
420.105	824.14
420.313	883.53
420.521	885.58
420.729	942.92
420.937	1012.55
421.145	953.16
421.353	1131.33
421.561	1100.61
421.769	1157.96
421.977	1135.43
422.185	1106.76
422.393	1186.63
422.601	1356.61
422.809	1284.93
423.017	1366.85
423.224	1362.75
423.432	1475.39
423.64	1416
423.848	1557.31
424.056	1518.4
424.263	1663.8
424.471	1692.48
424.679	1626.94
424.887	1700.67
425.094	1755.96
425.302	1846.07
425.51	1884.98
425.718	1897.27
425.925	1925.94
426.133	2118.45
426.341	2284.34
426.548	2296.63
426.756	2181.94
426.964	2270
427.171	2388.78
427.379	2501.42
427.586	2425.65
427.794	2519.85
428.001	2726.7
428.209	2698.03
428.417	2728.75
428.624	2941.74
428.832	2894.63
429.039	2915.11
429.247	2917.16
429.454	3273.51
429.662	3355.43
429.869	3195.68
430.076	3455.78
430.284	3316.51
430.491	3343.14
430.699	3556.13
430.906	3707.68
431.114	3597.09
431.321	3875.61
431.528	3875.61
431.736	4119.32
431.943	4432.66
432.15	4277.01
432.358	4211.48
432.565	4438.8
432.772	4469.52
432.979	4735.76
433.187	4842.25
433.394	4702.99
433.601	5071.62
433.808	5149.45
434.016	5122.82
434.223	5440.26
434.43	5640.96
434.637	5505.79
434.844	5786.37
435.052	6023.93
435.259	5872.38
435.466	5911.29
435.673	5866.24
435.88	6337.27
436.087	6621.94
436.294	6648.56
436.501	6544.11
436.708	6576.88
436.915	6857.45
437.122	7107.3
437.329	7234.28
437.537	7299.81
437.743	7463.65
437.95	7387.88
438.157	7611.11
438.364	7981.79
438.571	8000.22
438.778	8094.43
438.985	8653.52
439.192	8501.97
439.399	8585.94
439.606	8405.72
439.813	9204.42
440.02	9646.79
440.227	9315.02
440.433	9386.69
440.64	9560.77
440.847	9648.83
441.054	9802.43
441.261	10367.67
441.467	10384.05
441.674	10449.59
441.881	10998.45
442.088	10941.1
442.294	10900.14
442.501	11143.85
442.708	11375.27
442.914	11776.67
443.121	12104.35
443.328	11969.18
443.534	12956.3
443.741	12188.32
443.948	12225.18
444.154	13095.57
444.361	12855.95
444.568	12962.45
444.774	13105.81
444.981	13097.61
445.187	13544.07
445.394	14150.27
445.6	13939.33
445.807	15182.45
446.013	14946.93
446.22	15084.14
446.426	15389.29
446.633	15782.5
446.839	16085.6
447.046	15518.31
447.252	16411.23
447.459	16310.88
447.665	16532.06
447.871	17099.34
448.078	17627.72
448.284	16978.51
448.491	17455.69
448.697	18242.11
448.903	18129.47
449.11	18358.85
449.316	18094.66
449.522	18487.87
449.728	18971.19
449.935	18938.42
450.141	19059.25
450.347	19591.72
450.553	18973.24
450.76	19235.38
450.966	19980.84
451.172	19765.8
451.378	20324.9
451.584	19653.16
451.791	20273.7
451.997	20050.47
452.203	20337.18
452.409	20566.56
452.615	20300.32
452.821	19718.7
453.027	19493.42
453.233	20681.24
453.44	19667.5
453.646	20029.99
453.852	20095.52
454.058	20220.45
454.264	19608.11
454.47	20036.13
454.676	19327.53
454.882	20144.67
455.088	18514.49
455.294	18721.34
455.5	18932.28
455.705	19163.7
455.911	18434.62
456.117	18274.88
456.323	17506.89
456.529	16865.88
456.735	17775.17
456.941	17326.67
457.147	16976.47
457.352	16671.32
457.558	16239.2
457.764	16292.44
457.97	16005.73
458.176	15544.94
458.381	15606.38
458.587	15088.24
458.793	14559.86
458.999	14127.74
459.204	15123.05
459.41	14590.58
459.616	13689.48
459.821	13724.29
460.027	13873.79
460.233	13363.85
460.438	12876.43
460.644	12782.23
460.85	12104.35
461.055	12065.44
461.261	12026.53
461.466	11139.76
461.672	10988.21
461.878	11575.97
462.083	10998.45
462.289	10732.21
462.494	10707.63
462.7	10083
462.905	9677.51
463.111	10025.66
463.316	10076.86
463.522	9816.77
463.727	10027.71
463.932	9960.13
464.138	9880.25
464.343	10035.9
464.549	9673.41
464.754	9933.5
464.959	9843.39
465.165	9913.02
465.37	9349.83
465.575	9224.9
465.781	9665.22
465.986	9720.51
466.191	9210.57
466.397	9093.83
466.602	8663.76
466.807	8958.67
467.012	8833.74
467.218	8981.2
467.423	8897.23
467.628	8903.37
467.833	9157.32
468.038	8817.36
468.244	8495.83
468.449	9188.04
468.654	8639.19
468.859	8610.51
469.064	8649.43
469.269	8139.48
469.474	8295.13
469.679	8438.48
469.885	8432.34
470.09	8192.73
470.295	8295.13
