Data from USB4F104151__4__13-52-06-586.txt Node

Date: Thu Mar 13 13:52:06 EDT 2025
User: louis
Spectrometer: USB4F10415
Trigger mode: 4
Integration Time (sec): 1.000000E-2
Scans to average: 1
Electric dark correction enabled: true
Nonlinearity correction enabled: false
Boxcar width: 0
XAxis mode: Wavelengths
Number of Pixels in Spectrum: 3648
>>>>>Begin Spectral Data<<<<<
178.204	-57.34
178.424	-57.34
178.644	-57.34
178.864	-10.24
179.084	-32.77
179.304	26.62
179.524	26.62
179.744	12.29
179.964	-26.62
180.184	-28.67
180.404	10.24
180.624	-26.62
180.844	-6.14
181.064	12.29
181.283	28.67
181.503	-4.1
181.723	-24.58
181.943	-24.58
182.163	-8.19
182.383	-32.77
182.602	20.48
182.822	-20.48
183.042	22.53
183.262	-14.34
183.482	98.3
183.701	-18.43
183.921	32.77
184.141	-18.43
184.361	61.44
184.58	49.15
184.8	26.62
185.02	43.01
185.239	63.49
185.459	14.34
185.679	45.06
185.898	-61.44
186.118	-43.01
186.338	59.39
186.557	4.1
186.777	34.82
186.997	-43.01
187.216	30.72
187.436	43.01
187.655	-38.91
187.875	-40.96
188.095	-8.19
188.314	114.69
188.534	20.48
188.753	4.1
188.973	100.35
189.192	8.19
189.412	38.91
189.631	14.34
189.851	71.68
190.07	43.01
190.29	12.29
190.509	69.63
190.729	26.62
190.948	49.15
191.168	122.88
191.387	10.24
191.607	4.1
191.826	22.53
192.045	2.05
192.265	-45.06
192.484	-14.34
192.704	12.29
192.923	32.77
193.142	45.06
193.362	30.72
193.581	-4.1
193.8	69.63
194.02	36.86
194.239	26.62
194.458	79.87
194.678	14.34
194.897	47.1
195.116	12.29
195.335	26.62
195.555	83.97
195.774	26.62
195.993	49.15
196.212	51.2
196.432	92.16
196.651	-26.62
196.87	14.34
197.089	43.01
197.308	6.14
197.528	81.92
197.747	73.73
197.966	-2.05
198.185	18.43
198.404	26.62
198.623	49.15
198.842	65.53
199.062	6.14
199.281	43.01
199.5	16.38
199.719	28.67
199.938	57.34
200.157	20.48
200.376	24.58
200.595	45.06
200.814	43.01
201.033	-8.19
201.252	53.25
201.471	-8.19
201.69	118.78
201.909	104.45
202.128	-20.48
202.347	53.25
202.566	4.1
202.785	0
203.004	32.77
203.223	49.15
203.442	30.72
203.661	-26.62
203.879	6.14
204.098	86.01
204.317	73.73
204.536	20.48
204.755	14.34
204.974	26.62
205.193	-10.24
205.411	32.77
205.63	65.53
205.849	102.4
206.068	34.82
206.287	24.58
206.505	0
206.724	16.38
206.943	-14.34
207.162	-8.19
207.381	65.53
207.599	28.67
207.818	45.06
208.037	-2.05
208.255	59.39
208.474	106.49
208.693	16.38
208.911	-8.19
209.13	36.86
209.349	53.25
209.567	22.53
209.786	71.68
210.005	-12.29
210.223	-2.05
210.442	0
210.661	133.12
210.879	-6.14
211.098	-36.86
211.316	57.34
211.535	12.29
211.753	43.01
211.972	20.48
212.191	-69.63
212.409	59.39
212.628	63.49
212.846	32.77
213.065	65.53
213.283	28.67
213.502	-34.82
213.72	2.05
213.938	34.82
214.157	43.01
214.375	28.67
214.594	81.92
214.812	12.29
215.031	51.2
215.249	32.77
215.467	18.43
215.686	49.15
215.904	-47.1
216.122	18.43
216.341	32.77
216.559	65.53
216.778	104.45
216.996	86.01
217.214	51.2
217.432	18.43
217.651	45.06
217.869	28.67
218.087	-40.96
218.306	24.58
218.524	-12.29
218.742	2.05
218.96	34.82
219.179	-30.72
219.397	38.91
219.615	16.38
219.833	75.77
220.051	69.63
220.27	43.01
220.488	24.58
220.706	20.48
220.924	30.72
221.142	45.06
221.36	20.48
221.578	8.19
221.796	34.82
222.015	24.58
222.233	75.77
222.451	38.91
222.669	32.77
222.887	38.91
223.105	18.43
223.323	49.15
223.541	6.14
223.759	57.34
223.977	16.38
224.195	129.02
224.413	51.2
224.631	10.24
224.849	61.44
225.067	40.96
225.285	61.44
225.503	65.53
225.721	-81.92
225.939	14.34
226.157	59.39
226.375	40.96
226.592	-12.29
226.81	83.97
227.028	2.05
227.246	34.82
227.464	24.58
227.682	36.86
227.9	26.62
228.117	6.14
228.335	-6.14
228.553	34.82
228.771	20.48
228.989	20.48
229.206	45.06
229.424	16.38
229.642	34.82
229.86	-16.38
230.077	12.29
230.295	96.25
230.513	36.86
230.731	47.1
230.948	120.83
231.166	124.93
231.384	34.82
231.601	18.43
231.819	-63.49
232.037	34.82
232.254	45.06
232.472	-4.1
232.689	4.1
232.907	2.05
233.125	22.53
233.342	-10.24
233.56	45.06
233.777	73.73
233.995	26.62
234.213	30.72
234.43	8.19
234.648	32.77
234.865	8.19
235.083	-55.3
235.3	73.73
235.518	65.53
235.735	81.92
235.953	30.72
236.17	40.96
236.388	69.63
236.605	12.29
236.822	12.29
237.04	-26.62
237.257	57.34
237.475	47.1
237.692	14.34
237.909	18.43
238.127	71.68
238.344	98.3
238.562	73.73
238.779	26.62
238.996	26.62
239.214	71.68
239.431	10.24
239.648	16.38
239.865	47.1
240.083	69.63
240.3	57.34
240.517	28.67
240.735	32.77
240.952	90.11
241.169	114.69
241.386	18.43
241.603	-4.1
241.821	-53.25
242.038	30.72
242.255	-30.72
242.472	49.15
242.689	61.44
242.907	79.87
243.124	45.06
243.341	65.53
243.558	-10.24
243.775	10.24
243.992	34.82
244.209	86.01
244.426	71.68
244.643	20.48
244.86	18.43
245.078	59.39
245.295	34.82
245.512	59.39
245.729	26.62
245.946	43.01
246.163	14.34
246.38	59.39
246.597	51.2
246.814	30.72
247.031	43.01
247.248	106.49
247.464	8.19
247.681	-6.14
247.898	38.91
248.115	45.06
248.332	65.53
248.549	-6.14
248.766	40.96
248.983	32.77
249.2	10.24
249.417	94.21
249.633	-10.24
249.85	71.68
250.067	22.53
250.284	22.53
250.501	30.72
250.717	102.4
250.934	38.91
251.151	94.21
251.368	110.59
251.585	79.87
251.801	2.05
252.018	88.06
252.235	16.38
252.451	-16.38
252.668	22.53
252.885	88.06
253.102	6.14
253.318	-4.1
253.535	12.29
253.752	32.77
253.968	-88.06
254.185	40.96
254.401	-2.05
254.618	8.19
254.835	24.58
255.051	30.72
255.268	75.77
255.484	79.87
255.701	14.34
255.917	34.82
256.134	55.3
256.351	40.96
256.567	69.63
256.784	-2.05
257	-8.19
257.217	38.91
257.433	51.2
257.65	18.43
257.866	71.68
258.082	77.82
258.299	-12.29
258.515	81.92
258.732	-34.82
258.948	71.68
259.165	8.19
259.381	51.2
259.597	28.67
259.814	12.29
260.03	49.15
260.246	8.19
260.463	77.82
260.679	51.2
260.895	53.25
261.112	10.24
261.328	-10.24
261.544	51.2
261.761	36.86
261.977	-2.05
262.193	-6.14
262.409	36.86
262.626	108.54
262.842	55.3
263.058	-2.05
263.274	67.58
263.49	-12.29
263.707	81.92
263.923	61.44
264.139	55.3
264.355	26.62
264.571	40.96
264.787	45.06
265.004	51.2
265.22	55.3
265.436	88.06
265.652	8.19
265.868	106.49
266.084	18.43
266.3	20.48
266.516	71.68
266.732	32.77
266.948	43.01
267.164	118.78
267.38	30.72
267.596	22.53
267.812	63.49
268.028	36.86
268.244	20.48
268.46	10.24
268.676	94.21
268.892	18.43
269.108	-12.29
269.324	22.53
269.54	16.38
269.756	-20.48
269.972	40.96
270.188	122.88
270.403	73.73
270.619	28.67
270.835	69.63
271.051	4.1
271.267	71.68
271.483	34.82
271.698	4.1
271.914	24.58
272.13	51.2
272.346	10.24
272.562	81.92
272.777	43.01
272.993	79.87
273.209	73.73
273.425	-32.77
273.64	20.48
273.856	-34.82
274.072	61.44
274.287	2.05
274.503	90.11
274.719	69.63
274.934	49.15
275.15	10.24
275.366	12.29
275.581	-34.82
275.797	-4.1
276.012	53.25
276.228	53.25
276.444	12.29
276.659	141.31
276.875	65.53
277.09	55.3
277.306	-10.24
277.521	18.43
277.737	24.58
277.952	16.38
278.168	47.1
278.383	69.63
278.599	45.06
278.814	49.15
279.03	65.53
279.245	51.2
279.461	14.34
279.676	30.72
279.892	-32.77
280.107	26.62
280.322	34.82
280.538	38.91
280.753	-65.54
280.969	98.3
281.184	26.62
281.399	49.15
281.615	43.01
281.83	61.44
282.045	-4.1
282.26	110.59
282.476	43.01
282.691	61.44
282.906	-10.24
283.122	36.86
283.337	104.45
283.552	116.73
283.767	-88.06
283.983	4.1
284.198	6.14
284.413	14.34
284.628	32.77
284.843	53.25
285.058	36.86
285.274	22.53
285.489	24.58
285.704	16.38
285.919	59.39
286.134	40.96
286.349	-51.2
286.564	59.39
286.779	36.86
286.995	47.1
287.21	30.72
287.425	0
287.64	67.58
287.855	26.62
288.07	57.34
288.285	43.01
288.5	59.39
288.715	94.21
288.93	28.67
289.145	-32.77
289.36	67.58
289.575	47.1
289.79	20.48
290.004	36.86
290.219	61.44
290.434	36.86
290.649	67.58
290.864	75.77
291.079	10.24
291.294	75.77
291.509	26.62
291.724	45.06
291.938	8.19
292.153	-16.38
292.368	49.15
292.583	4.1
292.798	36.86
293.012	63.49
293.227	12.29
293.442	61.44
293.657	94.21
293.871	63.49
294.086	79.87
294.301	2.05
294.516	43.01
294.73	34.82
294.945	57.34
295.16	-2.05
295.374	71.68
295.589	63.49
295.804	30.72
296.018	22.53
296.233	34.82
296.447	108.54
296.662	55.3
296.877	-32.77
297.091	47.1
297.306	30.72
297.52	45.06
297.735	57.34
297.949	-12.29
298.164	-38.91
298.378	63.49
298.593	2.05
298.807	-2.05
299.022	69.63
299.236	2.05
299.451	122.88
299.665	49.15
299.88	45.06
300.094	4.1
300.309	22.53
300.523	-34.82
300.737	83.97
300.952	77.82
301.166	55.3
301.381	61.44
301.595	43.01
301.809	40.96
302.024	81.92
302.238	8.19
302.452	24.58
302.667	75.77
302.881	57.34
303.095	6.14
303.309	-10.24
303.524	69.63
303.738	73.73
303.952	65.53
304.166	36.86
304.381	57.34
304.595	-16.38
304.809	24.58
305.023	12.29
305.237	2.05
305.452	-4.1
305.666	-14.34
305.88	40.96
306.094	61.44
306.308	79.87
306.522	-16.38
306.736	-14.34
306.95	16.38
307.164	-16.38
307.379	51.2
307.593	28.67
307.807	94.21
308.021	63.49
308.235	-12.29
308.449	40.96
308.663	-16.38
308.877	20.48
309.091	-4.1
309.305	65.53
309.519	-14.34
309.733	14.34
309.947	43.01
310.161	24.58
310.374	59.39
310.588	57.34
310.802	26.62
311.016	26.62
311.23	12.29
311.444	63.49
311.658	40.96
311.872	104.45
312.085	75.77
312.299	59.39
312.513	-8.19
312.727	26.62
312.941	51.2
313.154	20.48
313.368	28.67
313.582	59.39
313.796	28.67
314.009	100.35
314.223	28.67
314.437	51.2
314.651	18.43
314.864	-12.29
315.078	73.73
315.292	114.69
315.505	18.43
315.719	43.01
315.933	4.1
316.146	83.97
316.36	57.34
316.573	71.68
316.787	32.77
317.001	43.01
317.214	-55.3
317.428	67.58
317.641	51.2
317.855	108.54
318.068	36.86
318.282	67.58
318.495	112.64
318.709	8.19
318.922	-45.06
319.136	69.63
319.349	16.38
319.563	38.91
319.776	20.48
319.99	28.67
320.203	145.41
320.417	102.4
320.63	-28.67
320.843	51.2
321.057	65.53
321.27	71.68
321.483	79.87
321.697	40.96
321.91	20.48
322.124	34.82
322.337	53.25
322.55	-43.01
322.763	-20.48
322.977	34.82
323.19	-8.19
323.403	-20.48
323.617	16.38
323.83	45.06
324.043	38.91
324.256	4.1
324.469	43.01
324.683	51.2
324.896	26.62
325.109	65.53
325.322	96.25
325.535	83.97
325.748	77.82
325.962	71.68
326.175	126.97
326.388	92.16
326.601	83.97
326.814	28.67
327.027	-4.1
327.24	45.06
327.453	-45.06
327.666	38.91
327.879	4.1
328.092	57.34
328.305	73.73
328.518	57.34
328.731	14.34
328.944	30.72
329.157	22.53
329.37	57.34
329.583	61.44
329.796	49.15
330.009	51.2
330.222	110.59
330.435	40.96
330.648	45.06
330.861	26.62
331.073	108.54
331.286	-14.34
331.499	30.72
331.712	28.67
331.925	67.58
332.138	73.73
332.35	32.77
332.563	108.54
332.776	20.48
332.989	4.1
333.202	12.29
333.414	83.97
333.627	47.1
333.84	141.31
334.053	53.25
334.265	75.77
334.478	28.67
334.691	28.67
334.903	51.2
335.116	-14.34
335.329	12.29
335.541	32.77
335.754	14.34
335.966	6.14
336.179	43.01
336.392	96.25
336.604	28.67
336.817	53.25
337.029	104.45
337.242	8.19
337.454	40.96
337.667	102.4
337.88	-8.19
338.092	116.73
338.305	90.11
338.517	67.58
338.729	61.44
338.942	-24.58
339.154	55.3
339.367	-22.53
339.579	69.63
339.792	71.68
340.004	67.58
340.217	86.01
340.429	94.21
340.641	86.01
340.854	6.14
341.066	40.96
341.278	71.68
341.491	45.06
341.703	20.48
341.915	-12.29
342.128	45.06
342.34	43.01
342.552	-8.19
342.764	-2.05
342.977	57.34
343.189	0
343.401	63.49
343.613	32.77
343.826	28.67
344.038	0
344.25	22.53
344.462	51.2
344.674	40.96
344.886	106.49
345.099	57.34
345.311	67.58
345.523	47.1
345.735	-16.38
345.947	28.67
346.159	53.25
346.371	53.25
346.583	61.44
346.795	40.96
347.007	96.25
347.219	65.53
347.431	-38.91
347.643	73.73
347.855	61.44
348.067	-8.19
348.279	71.68
348.491	4.1
348.703	45.06
348.915	114.69
349.127	32.77
349.339	28.67
349.551	34.82
349.763	-55.3
349.975	14.34
350.187	49.15
350.399	38.91
350.61	12.29
350.822	12.29
351.034	16.38
351.246	40.96
351.458	32.77
351.669	75.77
351.881	51.2
352.093	96.25
352.305	51.2
352.517	49.15
352.728	61.44
352.94	45.06
353.152	59.39
353.363	-45.06
353.575	49.15
353.787	90.11
353.999	51.2
354.21	51.2
354.422	18.43
354.633	8.19
354.845	69.63
355.057	51.2
355.268	32.77
355.48	34.82
355.692	-10.24
355.903	36.86
356.115	120.83
356.326	26.62
356.538	102.4
356.749	32.77
356.961	53.25
357.172	57.34
357.384	71.68
357.595	18.43
357.807	53.25
358.018	-43.01
358.23	88.06
358.441	40.96
358.653	59.39
358.864	26.62
359.075	-45.06
359.287	22.53
359.498	88.06
359.709	67.58
359.921	24.58
360.132	83.97
360.344	59.39
360.555	81.92
360.766	59.39
360.977	-32.77
361.189	126.97
361.4	57.34
361.611	57.34
361.823	49.15
362.034	22.53
362.245	40.96
362.456	2.05
362.667	96.25
362.879	12.29
363.09	65.53
363.301	28.67
363.512	40.96
363.723	69.63
363.935	0
364.146	55.3
364.357	-2.05
364.568	30.72
364.779	28.67
364.99	20.48
365.201	61.44
365.412	73.73
365.623	14.34
365.834	133.12
366.045	4.1
366.256	96.25
366.467	30.72
366.678	77.82
366.889	81.92
367.1	79.87
367.311	12.29
367.522	-22.53
367.733	61.44
367.944	-30.72
368.155	43.01
368.366	36.86
368.577	-34.82
368.788	16.38
368.999	69.63
369.209	36.86
369.42	65.53
369.631	77.82
369.842	43.01
370.053	55.3
370.264	-12.29
370.474	155.65
370.685	47.1
370.896	47.1
371.107	86.01
371.317	-2.05
371.528	-63.49
371.739	104.45
371.95	18.43
372.16	40.96
372.371	-12.29
372.582	86.01
372.792	34.82
373.003	26.62
373.214	126.97
373.424	59.39
373.635	49.15
373.846	45.06
374.056	-73.73
374.267	36.86
374.477	88.06
374.688	-61.44
374.898	75.77
375.109	57.34
375.319	57.34
375.53	104.45
375.74	26.62
375.951	36.86
376.161	88.06
376.372	79.87
376.582	12.29
376.793	86.01
377.003	61.44
377.214	59.39
377.424	8.19
377.635	-8.19
377.845	79.87
378.055	24.58
378.266	49.15
378.476	59.39
378.686	69.63
378.897	57.34
379.107	-34.82
379.317	92.16
379.528	36.86
379.738	67.58
379.948	51.2
380.158	51.2
380.369	86.01
380.579	79.87
380.789	14.34
380.999	122.88
381.21	47.1
381.42	22.53
381.63	73.73
381.84	69.63
382.05	18.43
382.261	49.15
382.471	61.44
382.681	12.29
382.891	79.87
383.101	86.01
383.311	4.1
383.521	32.77
383.731	8.19
383.941	51.2
384.151	40.96
384.361	40.96
384.571	36.86
384.781	4.1
384.991	65.53
385.201	57.34
385.411	63.49
385.621	40.96
385.831	45.06
386.041	30.72
386.251	12.29
386.461	59.39
386.671	116.73
386.881	20.48
387.091	38.91
387.301	59.39
387.511	53.25
387.72	167.93
387.93	94.21
388.14	45.06
388.35	51.2
388.56	38.91
388.769	90.11
388.979	86.01
389.189	92.16
389.399	-6.14
389.609	61.44
389.818	8.19
390.028	32.77
390.238	59.39
390.447	40.96
390.657	36.86
390.867	86.01
391.076	61.44
391.286	67.58
391.496	-4.1
391.705	59.39
391.915	81.92
392.125	71.68
392.334	88.06
392.544	73.73
392.753	100.35
392.963	88.06
393.172	151.55
393.382	65.53
393.591	135.17
393.801	4.1
394.01	129.02
394.22	47.1
394.429	79.87
394.639	45.06
394.848	69.63
395.058	10.24
395.267	4.1
395.477	65.53
395.686	79.87
395.895	38.91
396.105	112.64
396.314	45.06
396.524	12.29
396.733	110.59
396.942	86.01
397.152	81.92
397.361	71.68
397.57	167.93
397.78	38.91
397.989	90.11
398.198	67.58
398.407	88.06
398.617	38.91
398.826	71.68
399.035	102.4
399.244	102.4
399.453	120.83
399.663	61.44
399.872	116.73
400.081	40.96
400.29	108.54
400.499	155.65
400.708	167.93
400.917	106.49
401.127	167.93
401.336	86.01
401.545	124.93
401.754	118.78
401.963	79.87
402.172	163.84
402.381	96.25
402.59	24.58
402.799	133.12
403.008	112.64
403.217	98.3
403.426	71.68
403.635	83.97
403.844	182.27
404.053	106.49
404.262	53.25
404.471	169.98
404.68	96.25
404.888	83.97
405.097	192.51
405.306	141.31
405.515	188.41
405.724	112.64
405.933	253.95
406.142	190.46
406.35	124.93
406.559	188.41
406.768	145.41
406.977	174.08
407.185	167.93
407.394	172.03
407.603	208.89
407.812	157.69
408.02	169.98
408.229	204.8
408.438	184.32
408.646	133.12
408.855	210.94
409.064	274.43
409.272	176.13
409.481	262.14
409.69	223.23
409.898	290.81
410.107	243.71
410.315	321.53
410.524	272.38
410.733	305.15
410.941	251.9
411.15	299
411.358	301.05
411.567	333.82
411.775	329.72
411.984	352.25
412.192	378.87
412.401	380.92
412.609	440.31
412.818	489.46
413.026	370.68
413.234	428.03
413.443	434.17
413.651	458.74
413.86	536.57
414.068	509.94
414.276	561.14
414.485	608.25
414.693	485.37
414.901	618.49
415.11	479.22
415.318	669.69
415.526	585.72
415.734	667.64
415.943	649.21
416.151	628.73
416.359	659.45
416.567	681.97
416.776	851.95
416.984	788.47
417.192	753.65
417.4	751.6
417.608	856.05
417.817	915.44
418.025	970.74
418.233	925.68
418.441	946.16
418.649	940.02
418.857	1110
419.065	1032.18
419.273	1001.46
419.481	1179.63
419.689	1218.54
419.897	1179.63
420.105	1357.8
420.313	1347.56
420.521	1462.25
420.729	1265.64
420.937	1411.05
421.145	1570.79
421.353	1486.83
421.561	1660.9
421.769	1490.92
421.977	1691.62
422.185	1638.38
422.393	1732.58
422.601	1941.47
422.809	1869.8
423.017	1935.33
423.224	1972.19
423.432	1890.28
423.64	1925.09
423.848	2213.85
424.056	2179.04
424.263	2318.3
424.471	2340.83
424.679	2469.85
424.887	2559.96
425.094	2545.63
425.302	2535.39
425.51	2660.31
425.718	2830.29
425.925	2832.34
426.133	2922.45
426.341	3082.19
426.548	3198.93
426.756	3217.36
426.964	3291.09
427.171	3424.2
427.379	3491.79
427.586	3661.77
427.794	3641.29
428.001	3809.22
428.209	4042.69
428.417	4100.03
428.624	4270.01
428.832	4241.34
429.039	4415.42
429.247	4110.27
429.454	4667.32
429.662	4863.93
429.869	4681.66
430.076	4988.85
430.284	4792.25
430.491	4972.47
430.699	5384.11
430.906	5377.97
431.114	5359.53
431.321	5519.28
431.528	5593
431.736	6029.22
431.943	6354.85
432.15	6139.81
432.358	6320.03
432.565	6442.91
432.772	6463.39
432.979	6881.17
433.187	6913.94
433.394	6903.7
433.601	7466.89
433.808	7387.02
434.016	7315.34
434.223	7786.38
434.43	8155.01
434.637	7978.89
434.844	8644.48
435.052	8687.48
435.259	8585.08
435.466	8572.8
435.673	8736.63
435.88	9381.74
436.087	9772.91
436.294	9701.23
436.501	9545.58
436.708	9748.33
436.915	9996.14
437.122	10458.98
437.329	10317.67
437.537	10706.78
437.743	11112.28
437.95	10860.38
438.157	11458.39
438.364	11847.5
438.571	11663.18
438.778	11902.79
438.985	13078.33
439.192	12474.18
439.399	12703.55
439.606	12474.18
439.813	13061.94
440.02	14163.75
440.227	13997.87
440.433	13575.98
440.64	14049.07
440.847	14079.79
441.054	14456.61
441.261	15195.93
441.467	15077.15
441.674	15320.85
441.881	15703.82
442.088	16105.23
442.294	16064.27
442.501	16576.26
442.708	16342.79
442.914	17327.86
443.121	18038.51
443.328	17424.12
443.534	18677.47
443.741	18093.8
443.948	17948.4
444.154	19150.56
444.361	19130.08
444.568	19164.89
444.774	19371.74
444.981	19547.86
445.187	20018.89
445.394	20795.07
445.6	20594.37
445.807	22601.38
446.013	21704.37
446.22	22253.23
446.426	23056.03
446.633	22933.15
446.839	23801.49
447.046	22748.84
447.252	24102.54
447.459	24045.2
447.665	24172.18
447.871	25147.01
448.078	26060.4
448.284	24608.39
448.491	25675.38
448.697	26668.65
448.903	26992.23
449.11	27037.28
449.316	26545.77
449.522	27305.57
449.728	27709.02
449.935	28411.47
450.141	28139.09
450.347	28405.33
450.553	27928.15
450.76	28128.85
450.966	28972.61
451.172	28366.42
451.378	29228.61
451.584	28325.46
451.791	29365.82
451.997	29142.6
452.203	29826.62
452.409	29605.44
452.615	29249.09
452.821	28235.35
453.027	27973.21
453.233	29324.86
453.44	28298.83
453.646	28268.11
453.852	28724.81
454.058	28993.09
454.264	27952.73
454.47	28620.36
454.676	28171.86
454.882	28665.42
455.088	26394.22
455.294	27299.42
455.5	26969.7
455.705	27151.97
455.911	26257.01
456.117	25843.32
456.323	25540.22
456.529	23889.56
456.735	25114.24
456.941	24495.75
457.147	23946.9
457.352	23334.56
457.558	22980.26
457.764	22849.19
457.97	22300.33
458.176	22050.48
458.381	22005.42
458.587	21055.17
458.793	20883.14
458.999	19777.23
459.204	21141.18
459.41	20580.04
459.616	19121.88
459.821	19551.96
460.027	19322.59
460.233	19013.34
460.438	18075.37
460.644	18028.27
460.85	17395.45
461.055	17131.26
461.261	17090.3
461.466	15619.86
461.672	15269.65
461.878	16328.45
462.083	15116.06
462.289	15060.76
462.494	14747.42
462.7	14257.96
462.905	13797.17
463.111	14264.1
463.316	14192.42
463.522	14161.7
463.727	14239.53
463.932	14128.94
464.138	13924.14
464.343	14077.74
464.549	13451.06
464.754	13907.76
464.959	13856.56
465.165	13803.31
465.37	13344.56
465.575	13010.75
465.781	13401.91
465.986	13514.55
466.191	13070.14
466.397	12752.7
466.602	12279.62
466.807	12683.07
467.012	12283.72
467.218	12625.73
467.423	12140.36
467.628	12592.96
467.833	12957.5
468.038	12521.28
468.244	12298.05
468.449	12533.57
