Data from USB4F104151__262__14-01-57-262.txt Node

Date: Thu Mar 13 14:01:57 EDT 2025
User: louis
Spectrometer: USB4F10415
Trigger mode: 4
Integration Time (sec): 1.000000E-2
Scans to average: 1
Electric dark correction enabled: true
Nonlinearity correction enabled: false
Boxcar width: 0
XAxis mode: Wavelengths
Number of Pixels in Spectrum: 3648
>>>>>Begin Spectral Data<<<<<
178.204	-3.41
178.424	-3.41
178.644	-3.41
178.864	-64.85
179.084	-87.38
179.304	8.87
179.524	-54.61
179.744	-27.99
179.964	-5.46
180.184	60.07
180.404	-15.7
180.624	-3.41
180.844	-36.18
181.064	27.31
181.283	-32.08
181.503	43.69
181.723	35.5
181.943	-60.76
182.163	-13.65
182.383	25.26
182.602	-3.41
182.822	-7.51
183.042	-7.51
183.262	-1.37
183.482	12.97
183.701	6.83
183.921	-11.61
184.141	25.26
184.361	-42.32
184.58	-3.41
184.8	10.92
185.02	-9.56
185.239	88.75
185.459	-46.42
185.679	-30.04
185.898	12.97
186.118	4.78
186.338	39.59
186.557	60.07
186.777	-42.32
186.997	23.21
187.216	27.31
187.436	10.92
187.655	-15.7
187.875	49.83
188.095	82.6
188.314	25.26
188.534	15.02
188.753	6.83
188.973	31.4
189.192	64.17
189.412	23.21
189.631	80.55
189.851	64.17
190.07	47.79
190.29	10.92
190.509	-3.41
190.729	45.74
190.948	90.79
191.168	49.83
191.387	10.92
191.607	37.55
191.826	21.16
192.045	45.74
192.265	43.69
192.484	-1.37
192.704	15.02
192.923	80.55
193.142	60.07
193.362	76.46
193.581	21.16
193.8	25.26
194.02	27.31
194.239	8.87
194.458	10.92
194.678	-9.56
194.897	-44.37
195.116	-3.41
195.335	15.02
195.555	25.26
195.774	33.45
195.993	15.02
196.212	35.5
196.432	-11.61
196.651	45.74
196.87	43.69
197.089	58.03
197.308	15.02
197.528	62.12
197.747	-111.96
197.966	-68.95
198.185	-9.56
198.404	-3.41
198.623	19.11
198.842	-9.56
199.062	-48.47
199.281	27.31
199.5	51.88
199.719	-9.56
199.938	47.79
200.157	-1.37
200.376	-1.37
200.595	70.31
200.814	-9.56
201.033	12.97
201.252	23.21
201.471	-7.51
201.69	4.78
201.909	19.11
202.128	2.73
202.347	4.78
202.566	47.79
202.785	76.46
203.004	-19.8
203.223	-17.75
203.442	-34.13
203.661	-17.75
203.879	31.4
204.098	-3.41
204.317	-19.8
204.536	-42.32
204.755	43.69
204.974	-79.19
205.193	-1.37
205.411	33.45
205.63	96.94
205.849	-38.23
206.068	17.07
206.287	-13.65
206.505	12.97
206.724	51.88
206.943	35.5
207.162	-23.89
207.381	70.31
207.599	-1.37
207.818	-21.85
208.037	0.68
208.255	-1.37
208.474	2.73
208.693	19.11
208.911	53.93
209.13	43.69
209.349	66.22
209.567	53.93
209.786	15.02
210.005	4.78
210.223	-36.18
210.442	-34.13
210.661	58.03
210.879	29.35
211.098	60.07
211.316	53.93
211.535	49.83
211.753	39.59
211.972	-27.99
212.191	2.73
212.409	19.11
212.628	27.31
212.846	4.78
213.065	72.36
213.283	35.5
213.502	41.64
213.72	12.97
213.938	-1.37
214.157	19.11
214.375	8.87
214.594	41.64
214.812	37.55
215.031	55.98
215.249	68.27
215.467	-5.46
215.686	21.16
215.904	17.07
216.122	-15.7
216.341	45.74
216.559	39.59
216.778	10.92
216.996	35.5
217.214	31.4
217.432	6.83
217.651	-42.32
217.869	35.5
218.087	31.4
218.306	21.16
218.524	109.23
218.742	21.16
218.96	27.31
219.179	-23.89
219.397	47.79
219.615	80.55
219.833	74.41
220.051	-58.71
220.27	78.51
220.488	17.07
220.706	-21.85
220.924	66.22
221.142	103.08
221.36	-1.37
221.578	62.12
221.796	66.22
222.015	10.92
222.233	6.83
222.451	31.4
222.669	35.5
222.887	-3.41
223.105	6.83
223.323	10.92
223.541	19.11
223.759	21.16
223.977	27.31
224.195	27.31
224.413	4.78
224.631	80.55
224.849	-9.56
225.067	29.35
225.285	-25.94
225.503	23.21
225.721	-25.94
225.939	-75.09
226.157	35.5
226.375	135.85
226.592	33.45
226.81	2.73
227.028	37.55
227.246	21.16
227.464	-23.89
227.682	-30.04
227.9	15.02
228.117	-103.76
228.335	51.88
228.553	4.78
228.771	2.73
228.989	76.46
229.206	51.88
229.424	68.27
229.642	41.64
229.86	17.07
230.077	90.79
230.295	84.65
230.513	-21.85
230.731	-21.85
230.948	-1.37
231.166	51.88
231.384	25.26
231.601	19.11
231.819	-27.99
232.037	35.5
232.254	21.16
232.472	21.16
232.689	-44.37
232.907	60.07
233.125	-58.71
233.342	-9.56
233.56	39.59
233.777	12.97
233.995	2.73
234.213	2.73
234.43	17.07
234.648	17.07
234.865	74.41
235.083	72.36
235.3	29.35
235.518	76.46
235.735	72.36
235.953	15.02
236.17	68.27
236.388	-38.23
236.605	-21.85
236.822	84.65
237.04	-17.75
237.257	-21.85
237.475	41.64
237.692	68.27
237.909	31.4
238.127	29.35
238.344	47.79
238.562	33.45
238.779	-9.56
238.996	39.59
239.214	17.07
239.431	37.55
239.648	-44.37
239.865	55.98
240.083	-38.23
240.3	70.31
240.517	2.73
240.735	39.59
240.952	-21.85
241.169	19.11
241.386	-5.46
241.603	21.16
241.821	51.88
242.038	43.69
242.255	62.12
242.472	12.97
242.689	-38.23
242.907	-9.56
243.124	-3.41
243.341	31.4
243.558	35.5
243.775	8.87
243.992	-40.28
244.209	-44.37
244.426	64.17
244.643	35.5
244.86	-1.37
245.078	-27.99
245.295	47.79
245.512	6.83
245.729	10.92
245.946	-36.18
246.163	-5.46
246.38	8.87
246.597	-27.99
246.814	31.4
247.031	12.97
247.248	23.21
247.464	-54.61
247.681	27.31
247.898	55.98
248.115	51.88
248.332	-15.7
248.549	78.51
248.766	49.83
248.983	88.75
249.2	-9.56
249.417	74.41
249.633	41.64
249.85	-21.85
250.067	51.88
250.284	12.97
250.501	-71
250.717	53.93
250.934	29.35
251.151	51.88
251.368	-9.56
251.585	29.35
251.801	60.07
252.018	-5.46
252.235	45.74
252.451	-5.46
252.668	-44.37
252.885	70.31
253.102	49.83
253.318	-30.04
253.535	68.27
253.752	-30.04
253.968	-3.41
254.185	-21.85
254.401	4.78
254.618	15.02
254.835	43.69
255.051	76.46
255.268	-7.51
255.484	64.17
255.701	37.55
255.917	60.07
256.134	41.64
256.351	-48.47
256.567	27.31
256.784	15.02
257	21.16
257.217	60.07
257.433	10.92
257.65	64.17
257.866	33.45
258.082	49.83
258.299	37.55
258.515	74.41
258.732	43.69
258.948	-44.37
259.165	-17.75
259.381	25.26
259.597	35.5
259.814	17.07
260.03	15.02
260.246	35.5
260.463	27.31
260.679	25.26
260.895	-25.94
261.112	53.93
261.328	62.12
261.544	12.97
261.761	125.61
261.977	-56.66
262.193	-25.94
262.409	64.17
262.626	8.87
262.842	10.92
263.058	-32.08
263.274	29.35
263.49	12.97
263.707	55.98
263.923	35.5
264.139	53.93
264.355	4.78
264.571	49.83
264.787	-3.41
265.004	68.27
265.22	2.73
265.436	-66.9
265.652	-21.85
265.868	43.69
266.084	68.27
266.3	23.21
266.516	37.55
266.732	37.55
266.948	27.31
267.164	37.55
267.38	19.11
267.596	76.46
267.812	70.31
268.028	58.03
268.244	-23.89
268.46	15.02
268.676	-34.13
268.892	70.31
269.108	72.36
269.324	2.73
269.54	-19.8
269.756	53.93
269.972	35.5
270.188	-58.71
270.403	-34.13
270.619	-11.61
270.835	29.35
271.051	-5.46
271.267	51.88
271.483	19.11
271.698	60.07
271.914	-50.52
272.13	27.31
272.346	15.02
272.562	2.73
272.777	29.35
272.993	51.88
273.209	68.27
273.425	29.35
273.64	68.27
273.856	70.31
274.072	27.31
274.287	19.11
274.503	15.02
274.719	-17.75
274.934	37.55
275.15	19.11
275.366	6.83
275.581	45.74
275.797	92.84
276.012	-5.46
276.228	-32.08
276.444	35.5
276.659	78.51
276.875	-21.85
277.09	25.26
277.306	-34.13
277.521	51.88
277.737	4.78
277.952	-11.61
278.168	-17.75
278.383	4.78
278.599	51.88
278.814	39.59
279.03	19.11
279.245	66.22
279.461	21.16
279.676	6.83
279.892	-27.99
280.107	31.4
280.322	64.17
280.538	103.08
280.753	51.88
280.969	23.21
281.184	49.83
281.399	98.99
281.615	-56.66
281.83	39.59
282.045	-1.37
282.26	4.78
282.476	19.11
282.691	94.89
282.906	-5.46
283.122	68.27
283.337	8.87
283.552	72.36
283.767	-30.04
283.983	-5.46
284.198	-25.94
284.413	23.21
284.628	39.59
284.843	10.92
285.058	31.4
285.274	74.41
285.489	15.02
285.704	-7.51
285.919	10.92
286.134	66.22
286.349	-19.8
286.564	60.07
286.779	0.68
286.995	115.37
287.21	-11.61
287.425	64.17
287.64	12.97
287.855	51.88
288.07	-7.51
288.285	35.5
288.5	23.21
288.715	94.89
288.93	94.89
289.145	37.55
289.36	62.12
289.575	39.59
289.79	113.32
290.004	41.64
290.219	51.88
290.434	-11.61
290.649	-36.18
290.864	17.07
291.079	23.21
291.294	86.7
291.509	-44.37
291.724	21.16
291.938	43.69
292.153	-32.08
292.368	-3.41
292.583	29.35
292.798	74.41
293.012	-1.37
293.227	47.79
293.442	92.84
293.657	35.5
293.871	-13.65
294.086	21.16
294.301	101.03
294.516	29.35
294.73	-42.32
294.945	19.11
295.16	78.51
295.374	-30.04
295.589	15.02
295.804	27.31
296.018	4.78
296.233	51.88
296.447	101.03
296.662	-58.71
296.877	43.69
297.091	19.11
297.306	15.02
297.52	-9.56
297.735	17.07
297.949	-30.04
298.164	33.45
298.378	10.92
298.593	23.21
298.807	-50.52
299.022	41.64
299.236	51.88
299.451	6.83
299.665	2.73
299.88	27.31
300.094	-3.41
300.309	4.78
300.523	-36.18
300.737	2.73
300.952	17.07
301.166	23.21
301.381	-27.99
301.595	62.12
301.809	29.35
302.024	43.69
302.238	39.59
302.452	64.17
302.667	-7.51
302.881	86.7
303.095	53.93
303.309	35.5
303.524	29.35
303.738	88.75
303.952	29.35
304.166	96.94
304.381	-42.32
304.595	64.17
304.809	31.4
305.023	37.55
305.237	-30.04
305.452	4.78
305.666	39.59
305.88	84.65
306.094	-3.41
306.308	49.83
306.522	19.11
306.736	2.73
306.95	-9.56
307.164	23.21
307.379	8.87
307.593	-11.61
307.807	62.12
308.021	10.92
308.235	47.79
308.449	8.87
308.663	55.98
308.877	21.16
309.091	15.02
309.305	47.79
309.519	-1.37
309.733	-56.66
309.947	31.4
310.161	35.5
310.374	21.16
310.588	-3.41
310.802	4.78
311.016	25.26
311.23	33.45
311.444	-13.65
311.658	27.31
311.872	51.88
312.085	62.12
312.299	17.07
312.513	51.88
312.727	45.74
312.941	-60.76
313.154	27.31
313.368	10.92
313.582	21.16
313.796	-13.65
314.009	35.5
314.223	45.74
314.437	43.69
314.651	53.93
314.864	45.74
315.078	51.88
315.292	39.59
315.505	86.7
315.719	-9.56
315.933	29.35
316.146	-11.61
316.36	68.27
316.573	105.13
316.787	53.93
317.001	70.31
317.214	-38.23
317.428	-32.08
317.641	68.27
317.855	45.74
318.068	-36.18
318.282	90.79
318.495	-11.61
318.709	111.27
318.922	-30.04
319.136	60.07
319.349	19.11
319.563	-21.85
319.776	37.55
319.99	25.26
320.203	-11.61
320.417	53.93
320.63	25.26
320.843	-38.23
321.057	4.78
321.27	-19.8
321.483	25.26
321.697	17.07
321.91	-3.41
322.124	43.69
322.337	39.59
322.55	53.93
322.763	92.84
322.977	39.59
323.19	41.64
323.403	-21.85
323.617	-58.71
323.83	53.93
324.043	21.16
324.256	12.97
324.469	-9.56
324.683	29.35
324.896	8.87
325.109	60.07
325.322	-83.28
325.535	23.21
325.748	-64.85
325.962	51.88
326.175	58.03
326.388	29.35
326.601	-13.65
326.814	4.78
327.027	66.22
327.24	-13.65
327.453	-38.23
327.666	51.88
327.879	45.74
328.092	49.83
328.305	58.03
328.518	72.36
328.731	17.07
328.944	12.97
329.157	4.78
329.37	-9.56
329.583	39.59
329.796	25.26
330.009	-99.67
330.222	-42.32
330.435	45.74
330.648	33.45
330.861	37.55
331.073	62.12
331.286	41.64
331.499	-5.46
331.712	-17.75
331.925	70.31
332.138	19.11
332.35	66.22
332.563	21.16
332.776	60.07
332.989	29.35
333.202	51.88
333.414	53.93
333.627	133.8
333.84	62.12
334.053	125.61
334.265	62.12
334.478	-30.04
334.691	15.02
334.903	47.79
335.116	45.74
335.329	21.16
335.541	80.55
335.754	60.07
335.966	-54.61
336.179	39.59
336.392	94.89
336.604	-17.75
336.817	-11.61
337.029	19.11
337.242	-19.8
337.454	-13.65
337.667	88.75
337.88	58.03
338.092	-3.41
338.305	-15.7
338.517	51.88
338.729	82.6
338.942	35.5
339.154	45.74
339.367	37.55
339.579	49.83
339.792	-60.76
340.004	103.08
340.217	17.07
340.429	19.11
340.641	-17.75
340.854	-11.61
341.066	-19.8
341.278	10.92
341.491	-5.46
341.703	35.5
341.915	-3.41
342.128	21.16
342.34	47.79
342.552	47.79
342.764	51.88
342.977	68.27
343.189	-17.75
343.401	129.7
343.613	-21.85
343.826	72.36
344.038	-5.46
344.25	78.51
344.462	49.83
344.674	0.68
344.886	90.79
345.099	109.23
345.311	-32.08
345.523	64.17
345.735	-13.65
345.947	23.21
346.159	64.17
346.371	23.21
346.583	-5.46
346.795	27.31
347.007	-30.04
347.219	8.87
347.431	19.11
347.643	111.27
347.855	29.35
348.067	76.46
348.279	27.31
348.491	47.79
348.703	84.65
348.915	35.5
349.127	62.12
349.339	78.51
349.551	33.45
349.763	43.69
349.975	49.83
350.187	-3.41
350.399	-15.7
350.61	-21.85
350.822	41.64
351.034	-44.37
351.246	41.64
351.458	2.73
351.669	45.74
351.881	60.07
352.093	-36.18
352.305	94.89
352.517	58.03
352.728	51.88
352.94	-27.99
353.152	68.27
353.363	27.31
353.575	-64.85
353.787	80.55
353.999	84.65
354.21	41.64
354.422	12.97
354.633	4.78
354.845	4.78
355.057	53.93
355.268	60.07
355.48	-34.13
355.692	86.7
355.903	64.17
356.115	27.31
356.326	33.45
356.538	12.97
356.749	41.64
356.961	-3.41
357.172	-13.65
357.384	37.55
357.595	141.99
357.807	-5.46
358.018	37.55
358.23	70.31
358.441	39.59
358.653	2.73
358.864	-44.37
359.075	15.02
359.287	-17.75
359.498	60.07
359.709	31.4
359.921	-30.04
360.132	15.02
360.344	53.93
360.555	17.07
360.766	60.07
360.977	15.02
361.189	-21.85
361.4	8.87
361.611	76.46
361.823	-46.42
362.034	6.83
362.245	66.22
362.456	78.51
362.667	17.07
362.879	-3.41
363.09	21.16
363.301	60.07
363.512	78.51
363.723	84.65
363.935	-11.61
364.146	41.64
364.357	19.11
364.568	43.69
364.779	19.11
364.99	68.27
365.201	35.5
365.412	55.98
365.623	64.17
365.834	60.07
366.045	55.98
366.256	23.21
366.467	49.83
366.678	72.36
366.889	-9.56
367.1	53.93
367.311	39.59
367.522	21.16
367.733	-17.75
367.944	82.6
368.155	25.26
368.366	70.31
368.577	31.4
368.788	88.75
368.999	58.03
369.209	51.88
369.42	55.98
369.631	182.95
369.842	60.07
370.053	74.41
370.264	-21.85
370.474	6.83
370.685	88.75
370.896	8.87
371.107	72.36
371.317	72.36
371.528	72.36
371.739	55.98
371.95	43.69
372.16	62.12
372.371	39.59
372.582	66.22
372.792	31.4
373.003	2.73
373.214	86.7
373.424	55.98
373.635	31.4
373.846	98.99
374.056	4.78
374.267	45.74
374.477	-44.37
374.688	90.79
374.898	10.92
375.109	64.17
375.319	12.97
375.53	2.73
375.74	29.35
375.951	17.07
376.161	25.26
376.372	-13.65
376.582	2.73
376.793	-3.41
377.003	27.31
377.214	35.5
377.424	-11.61
377.635	90.79
377.845	64.17
378.055	47.79
378.266	-27.99
378.476	76.46
378.686	41.64
378.897	55.98
379.107	53.93
379.317	25.26
379.528	-75.09
379.738	72.36
379.948	80.55
380.158	19.11
380.369	68.27
380.579	123.56
380.789	-19.8
380.999	8.87
381.21	53.93
381.42	-40.28
381.63	76.46
381.84	96.94
382.05	51.88
382.261	37.55
382.471	88.75
382.681	39.59
382.891	55.98
383.101	107.18
383.311	-11.61
383.521	27.31
383.731	62.12
383.941	78.51
384.151	19.11
384.361	86.7
384.571	76.46
384.781	21.16
384.991	58.03
385.201	10.92
385.411	78.51
385.621	19.11
385.831	35.5
386.041	51.88
386.251	62.12
386.461	117.42
386.671	25.26
386.881	39.59
387.091	84.65
387.301	31.4
387.511	88.75
387.72	37.55
387.93	64.17
388.14	47.79
388.35	21.16
388.56	17.07
388.769	41.64
388.979	-40.28
389.189	53.93
389.399	10.92
389.609	68.27
389.818	47.79
390.028	12.97
390.238	43.69
390.447	115.37
390.657	-27.99
390.867	21.16
391.076	139.94
391.286	-5.46
391.496	31.4
391.705	-9.56
391.915	47.79
392.125	68.27
392.334	-19.8
392.544	45.74
392.753	94.89
392.963	55.98
393.172	62.12
393.382	68.27
393.591	21.16
393.801	23.21
394.01	80.55
394.22	53.93
394.429	101.03
394.639	53.93
394.848	119.46
395.058	-1.37
395.267	92.84
395.477	37.55
395.686	84.65
395.895	51.88
396.105	127.66
396.314	31.4
396.524	-1.37
396.733	113.32
396.942	101.03
397.152	51.88
397.361	21.16
397.57	119.46
397.78	135.85
397.989	39.59
398.198	74.41
398.407	12.97
398.617	94.89
398.826	156.33
399.035	133.8
399.244	101.03
399.453	8.87
399.663	88.75
399.872	109.23
400.081	80.55
400.29	137.9
400.499	15.02
400.708	62.12
400.917	111.27
401.127	154.28
401.336	103.08
401.545	103.08
401.754	162.47
401.963	113.32
402.172	35.5
402.381	92.84
402.59	109.23
402.799	84.65
403.008	92.84
403.217	101.03
403.426	152.23
403.635	86.7
403.844	70.31
404.053	109.23
404.262	154.28
404.471	158.38
404.68	72.36
404.888	127.66
405.097	141.99
405.306	137.9
405.515	174.76
405.724	125.61
405.933	187.05
406.142	117.42
406.35	148.14
406.559	168.62
406.768	213.67
406.977	191.14
407.185	141.99
407.394	168.62
407.603	262.82
407.812	180.9
408.02	174.76
408.229	168.62
408.438	148.14
408.646	166.57
408.855	213.67
409.064	223.91
409.272	174.76
409.481	342.69
409.69	187.05
409.898	264.87
410.107	199.34
410.315	301.73
410.524	277.16
410.733	254.63
410.941	191.14
411.15	273.06
411.358	287.4
411.567	373.41
411.775	264.87
411.984	391.84
412.192	309.93
412.401	395.94
412.609	369.32
412.818	326.31
413.026	498.34
413.234	461.48
413.443	449.19
413.651	453.28
413.86	436.9
414.068	410.28
414.276	443.04
414.485	473.76
414.693	539.3
414.901	615.07
415.11	608.93
415.318	498.34
415.526	608.93
415.734	551.59
415.943	627.36
416.151	635.55
416.359	633.51
416.567	715.42
416.776	694.94
416.984	821.92
417.192	797.34
417.4	778.91
417.608	783.01
417.817	828.06
418.025	881.31
418.233	930.46
418.441	1020.57
418.649	1045.15
418.857	1141.4
419.065	1122.97
419.273	1047.19
419.481	1104.54
419.689	1147.55
419.897	1233.56
420.105	1319.57
420.313	1268.38
420.521	1419.93
420.729	1350.29
420.937	1346.2
421.145	1477.27
421.353	1483.41
421.561	1616.53
421.769	1643.15
421.977	1634.96
422.185	1688.21
422.393	1821.33
422.601	1964.68
422.809	1835.66
423.017	1989.26
423.224	2001.55
423.432	2105.99
423.64	2120.33
423.848	2278.02
424.056	2222.73
424.263	2368.13
424.471	2366.09
424.679	2474.63
424.887	2611.84
425.094	2620.03
425.302	2648.71
425.51	2622.08
425.718	2724.48
425.925	2620.03
426.133	2945.66
426.341	3127.93
426.548	3189.37
426.756	3316.34
426.964	3287.67
427.171	3408.5
427.379	3498.61
427.586	3564.15
427.794	3783.28
428.001	3875.44
428.209	4123.24
428.417	3902.06
428.624	4223.59
428.832	4147.82
429.039	4360.81
429.247	4256.36
429.454	4573.8
429.662	4942.43
429.869	4526.69
430.076	4868.7
430.284	4831.84
430.491	4919.9
430.699	5239.39
430.906	5272.15
431.114	5386.84
431.321	5665.36
431.528	5589.59
431.736	6060.62
431.943	6302.28
432.15	6144.59
432.358	6255.18
432.565	6670.92
432.772	6257.23
432.979	6941.25
433.187	6945.34
433.394	7133.76
433.601	7504.44
433.808	7404.09
434.016	7483.96
434.223	7836.21
434.43	8145.45
434.637	8071.73
434.844	8731.17
435.052	8532.52
435.259	8727.08
435.466	8837.67
435.673	8684.07
435.88	9198.11
436.087	9732.63
436.294	9859.6
436.501	9433.63
436.708	9667.1
436.915	10015.25
437.122	10338.83
437.329	10494.47
437.537	10723.85
437.743	11033.09
437.95	10859.01
438.157	11186.69
438.364	11864.57
438.571	11770.36
438.778	11727.35
438.985	12978.66
439.192	12495.34
439.399	12843.49
439.606	12687.85
439.813	13208.03
440.02	13922.77
440.227	13724.12
440.433	13803.99
440.64	14174.67
440.847	13978.07
441.054	14285.26
441.261	15256
441.467	15378.88
441.674	15528.38
441.881	15964.6
442.088	16191.92
442.294	15675.84
442.501	16404.91
442.708	16523.69
442.914	17332.64
443.121	18008.47
443.328	17308.07
443.534	18651.53
443.741	18131.35
443.948	17891.74
444.154	19032.46
444.361	19239.3
444.568	19106.18
444.774	19300.74
444.981	19569.02
445.187	20154.74
445.394	21088.62
445.6	20240.76
445.807	22356.31
446.013	21469.54
446.22	21956.96
446.426	22858.06
446.633	22825.29
446.839	23613.76
447.046	23030.09
447.252	24199.48
447.459	24011.07
447.665	23742.78
447.871	25055.53
448.078	26056.99
448.284	24922.41
448.491	25465.13
448.697	26833.17
448.903	26933.52
449.11	26867.98
449.316	26818.83
449.522	27152.65
449.728	27967.74
449.935	27975.94
450.141	28082.43
450.347	28406.01
450.553	27635.97
450.76	27990.27
450.966	29001.97
451.172	28799.22
451.378	29337.83
451.584	28444.92
451.791	29188.33
451.997	29092.08
452.203	29823.2
452.409	30167.26
452.615	29876.45
452.821	28285.18
453.027	28236.03
453.233	29792.48
453.44	28373.24
453.646	28801.27
453.852	28829.94
454.058	29391.08
454.264	28678.39
454.47	28999.92
454.676	28500.22
454.882	29122.8
455.088	26462.49
455.294	27140.36
455.5	27455.75
455.705	28047.61
455.911	26452.25
456.117	26343.7
456.323	25577.76
456.529	24451.38
456.735	25262.38
456.941	24832.3
457.147	24629.55
457.352	23578.95
457.558	23193.93
457.764	23562.56
457.97	22813.01
458.176	22460.76
458.381	22399.32
458.587	21283.17
458.793	21535.07
458.999	20484.47
459.204	21768.54
459.41	21307.75
459.616	19710.33
459.821	19732.86
460.027	19792.25
460.233	19331.46
460.438	18551.18
460.644	18610.57
460.85	17772.96
461.055	17367.46
461.261	17439.14
461.466	16208.31
461.672	15878.58
461.878	16947.62
462.083	15475.13
462.289	15153.6
462.494	14995.91
462.7	14678.47
462.905	14070.23
463.111	14635.47
463.316	14643.66
463.522	14412.24
463.727	14688.71
463.932	14574.03
464.138	14315.98
464.343	14369.23
464.549	14010.84
464.754	14412.24
464.959	14283.22
465.165	14100.95
465.37	13447.65
465.575	13294.05
465.781	13674.97
465.986	13711.83
466.191	13443.55
466.397	13081.06
466.602	12493.29
466.807	13029.86
467.012	12802.54
467.218	12825.06
