Data from USB4F104151__45__13-53-19-478.txt Node

Date: Thu Mar 13 13:53:19 EDT 2025
User: louis
Spectrometer: USB4F10415
Trigger mode: 4
Integration Time (sec): 1.000000E-2
Scans to average: 1
Electric dark correction enabled: true
Nonlinearity correction enabled: false
Boxcar width: 0
XAxis mode: Wavelengths
Number of Pixels in Spectrum: 3648
>>>>>Begin Spectral Data<<<<<
178.204	1.02
178.424	1.02
178.644	1.02
178.864	-99.33
179.084	-39.94
179.304	15.36
179.524	3.07
179.744	-68.61
179.964	13.31
180.184	37.89
180.404	44.03
180.624	-1.02
180.844	-1.02
181.064	-31.74
181.283	27.65
181.503	-13.31
181.723	-25.6
181.943	21.5
182.163	82.94
182.383	-15.36
182.602	93.18
182.822	-9.22
183.042	7.17
183.262	46.08
183.482	117.76
183.701	50.18
183.921	60.42
184.141	5.12
184.361	29.7
184.58	-5.12
184.8	50.18
185.02	7.17
185.239	60.42
185.459	1.02
185.679	56.32
185.898	7.17
186.118	41.98
186.338	-7.17
186.557	7.17
186.777	-1.02
186.997	31.74
187.216	-15.36
187.436	48.13
187.655	23.55
187.875	-27.65
188.095	-1.02
188.314	9.22
188.534	23.55
188.753	7.17
188.973	39.94
189.192	72.7
189.412	13.31
189.631	44.03
189.851	64.51
190.07	-15.36
190.29	-11.26
190.509	39.94
190.729	23.55
190.948	1.02
191.168	76.8
191.387	9.22
191.607	29.7
191.826	13.31
192.045	-1.02
192.265	-64.51
192.484	7.17
192.704	48.13
192.923	21.5
193.142	-21.5
193.362	-7.17
193.581	-27.65
193.8	-19.46
194.02	41.98
194.239	9.22
194.458	60.42
194.678	44.03
194.897	113.66
195.116	-25.6
195.335	15.36
195.555	56.32
195.774	-15.36
195.993	11.26
196.212	13.31
196.432	-31.74
196.651	15.36
196.87	-31.74
197.089	13.31
197.308	-9.22
197.528	-44.03
197.747	58.37
197.966	60.42
198.185	37.89
198.404	-7.17
198.623	9.22
198.842	78.85
199.062	-11.26
199.281	64.51
199.5	-5.12
199.719	87.04
199.938	-52.22
200.157	-41.98
200.376	68.61
200.595	39.94
200.814	46.08
201.033	-29.7
201.252	1.02
201.471	19.46
201.69	64.51
201.909	25.6
202.128	25.6
202.347	-9.22
202.566	25.6
202.785	-5.12
203.004	19.46
203.223	-27.65
203.442	64.51
203.661	44.03
203.879	7.17
204.098	39.94
204.317	-23.55
204.536	80.89
204.755	21.5
204.974	99.33
205.193	33.79
205.411	21.5
205.63	84.99
205.849	74.75
206.068	44.03
206.287	52.22
206.505	41.98
206.724	19.46
206.943	33.79
207.162	48.13
207.381	-31.74
207.599	-31.74
207.818	31.74
208.037	-1.02
208.255	-19.46
208.474	7.17
208.693	-25.6
208.911	48.13
209.13	-27.65
209.349	33.79
209.567	66.56
209.786	21.5
210.005	78.85
210.223	-13.31
210.442	27.65
210.661	89.09
210.879	3.07
211.098	7.17
211.316	66.56
211.535	64.51
211.753	115.71
211.972	-17.41
212.191	-27.65
212.409	58.37
212.628	93.18
212.846	99.33
213.065	-11.26
213.283	27.65
213.502	25.6
213.72	21.5
213.938	58.37
214.157	7.17
214.375	23.55
214.594	-17.41
214.812	82.94
215.031	1.02
215.249	15.36
215.467	31.74
215.686	15.36
215.904	5.12
216.122	-29.7
216.341	58.37
216.559	19.46
216.778	44.03
216.996	19.46
217.214	-44.03
217.432	-39.94
217.651	17.41
217.869	25.6
218.087	9.22
218.306	11.26
218.524	-1.02
218.742	33.79
218.96	33.79
219.179	60.42
219.397	-11.26
219.615	52.22
219.833	-23.55
220.051	-37.89
220.27	15.36
220.488	31.74
220.706	46.08
220.924	46.08
221.142	-46.08
221.36	56.32
221.578	3.07
221.796	-9.22
222.015	41.98
222.233	48.13
222.451	70.65
222.669	46.08
222.887	87.04
223.105	68.61
223.323	78.85
223.541	58.37
223.759	15.36
223.977	19.46
224.195	58.37
224.413	13.31
224.631	31.74
224.849	64.51
225.067	-7.17
225.285	7.17
225.503	37.89
225.721	-58.37
225.939	25.6
226.157	58.37
226.375	5.12
226.592	52.22
226.81	-9.22
227.028	-25.6
227.246	-15.36
227.464	-9.22
227.682	19.46
227.9	41.98
228.117	54.27
228.335	-35.84
228.553	35.84
228.771	13.31
228.989	33.79
229.206	-13.31
229.424	-23.55
229.642	68.61
229.86	-62.46
230.077	7.17
230.295	-19.46
230.513	68.61
230.731	-5.12
230.948	58.37
231.166	60.42
231.384	-3.07
231.601	78.85
231.819	-5.12
232.037	-13.31
232.254	35.84
232.472	31.74
232.689	44.03
232.907	-31.74
233.125	-11.26
233.342	-33.79
233.56	-41.98
233.777	-29.7
233.995	39.94
234.213	17.41
234.43	-29.7
234.648	72.7
234.865	23.55
235.083	23.55
235.3	64.51
235.518	41.98
235.735	-9.22
235.953	74.75
236.17	-7.17
236.388	17.41
236.605	27.65
236.822	76.8
237.04	23.55
237.257	50.18
237.475	13.31
237.692	29.7
237.909	70.65
238.127	-13.31
238.344	25.6
238.562	5.12
238.779	-1.02
238.996	-50.18
239.214	-5.12
239.431	-3.07
239.648	50.18
239.865	5.12
240.083	62.46
240.3	21.5
240.517	19.46
240.735	-21.5
240.952	-62.46
241.169	76.8
241.386	3.07
241.603	13.31
241.821	-3.07
242.038	31.74
242.255	35.84
242.472	13.31
242.689	-3.07
242.907	21.5
243.124	46.08
243.341	19.46
243.558	-39.94
243.775	1.02
243.992	19.46
244.209	-1.02
244.426	39.94
244.643	27.65
244.86	52.22
245.078	56.32
245.295	-13.31
245.512	-19.46
245.729	1.02
245.946	84.99
246.163	48.13
246.38	62.46
246.597	15.36
246.814	37.89
247.031	-29.7
247.248	15.36
247.464	9.22
247.681	-35.84
247.898	60.42
248.115	-21.5
248.332	19.46
248.549	5.12
248.766	105.47
248.983	-33.79
249.2	-5.12
249.417	3.07
249.633	-9.22
249.85	35.84
250.067	19.46
250.284	35.84
250.501	11.26
250.717	41.98
250.934	-41.98
251.151	9.22
251.368	64.51
251.585	68.61
251.801	27.65
252.018	48.13
252.235	7.17
252.451	25.6
252.668	-5.12
252.885	66.56
253.102	87.04
253.318	68.61
253.535	35.84
253.752	84.99
253.968	-19.46
254.185	89.09
254.401	5.12
254.618	62.46
254.835	23.55
255.051	58.37
255.268	-17.41
255.484	46.08
255.701	23.55
255.917	11.26
256.134	37.89
256.351	74.75
256.567	37.89
256.784	25.6
257	-7.17
257.217	31.74
257.433	-7.17
257.65	-7.17
257.866	19.46
258.082	7.17
258.299	15.36
258.515	44.03
258.732	9.22
258.948	-3.07
259.165	-5.12
259.381	29.7
259.597	41.98
259.814	76.8
260.03	97.28
260.246	21.5
260.463	-46.08
260.679	9.22
260.895	15.36
261.112	60.42
261.328	-3.07
261.544	80.89
261.761	7.17
261.977	19.46
262.193	-11.26
262.409	82.94
262.626	-21.5
262.842	15.36
263.058	76.8
263.274	50.18
263.49	23.55
263.707	91.13
263.923	25.6
264.139	39.94
264.355	-21.5
264.571	35.84
264.787	17.41
265.004	7.17
265.22	11.26
265.436	1.02
265.652	11.26
265.868	46.08
266.084	39.94
266.3	-19.46
266.516	-17.41
266.732	56.32
266.948	70.65
267.164	-35.84
267.38	-5.12
267.596	11.26
267.812	41.98
268.028	21.5
268.244	7.17
268.46	64.51
268.676	35.84
268.892	50.18
269.108	-7.17
269.324	-44.03
269.54	58.37
269.756	107.52
269.972	-25.6
270.188	-35.84
270.403	56.32
270.619	3.07
270.835	27.65
271.051	-46.08
271.267	33.79
271.483	-27.65
271.698	-33.79
271.914	76.8
272.13	58.37
272.346	-9.22
272.562	19.46
272.777	64.51
272.993	-5.12
273.209	82.94
273.425	37.89
273.64	70.65
273.856	93.18
274.072	-19.46
274.287	11.26
274.503	82.94
274.719	5.12
274.934	105.47
275.15	74.75
275.366	21.5
275.581	-29.7
275.797	-25.6
276.012	-3.07
276.228	-37.89
276.444	-48.13
276.659	41.98
276.875	-31.74
277.09	9.22
277.306	9.22
277.521	-17.41
277.737	37.89
277.952	21.5
278.168	3.07
278.383	56.32
278.599	21.5
278.814	13.31
279.03	1.02
279.245	-27.65
279.461	9.22
279.676	19.46
279.892	13.31
280.107	105.47
280.322	23.55
280.538	76.8
280.753	-29.7
280.969	70.65
281.184	-41.98
281.399	25.6
281.615	111.61
281.83	76.8
282.045	-68.61
282.26	21.5
282.476	9.22
282.691	54.27
282.906	5.12
283.122	11.26
283.337	54.27
283.552	58.37
283.767	-27.65
283.983	31.74
284.198	-11.26
284.413	58.37
284.628	48.13
284.843	7.17
285.058	3.07
285.274	50.18
285.489	31.74
285.704	41.98
285.919	35.84
286.134	-31.74
286.349	64.51
286.564	-17.41
286.779	9.22
286.995	80.89
287.21	31.74
287.425	21.5
287.64	74.75
287.855	48.13
288.07	-3.07
288.285	76.8
288.5	-9.22
288.715	29.7
288.93	7.17
289.145	-1.02
289.36	17.41
289.575	23.55
289.79	21.5
290.004	41.98
290.219	87.04
290.434	23.55
290.649	-19.46
290.864	3.07
291.079	44.03
291.294	35.84
291.509	33.79
291.724	-3.07
291.938	-7.17
292.153	76.8
292.368	-37.89
292.583	35.84
292.798	87.04
293.012	-13.31
293.227	50.18
293.442	39.94
293.657	31.74
293.871	60.42
294.086	25.6
294.301	93.18
294.516	9.22
294.73	9.22
294.945	-33.79
295.16	50.18
295.374	37.89
295.589	-46.08
295.804	-7.17
296.018	44.03
296.233	3.07
296.447	21.5
296.662	-41.98
296.877	29.7
297.091	31.74
297.306	109.57
297.52	91.13
297.735	39.94
297.949	17.41
298.164	23.55
298.378	80.89
298.593	33.79
298.807	-37.89
299.022	7.17
299.236	9.22
299.451	-27.65
299.665	44.03
299.88	25.6
300.094	-46.08
300.309	48.13
300.523	64.51
300.737	54.27
300.952	52.22
301.166	-15.36
301.381	-29.7
301.595	44.03
301.809	41.98
302.024	-23.55
302.238	87.04
302.452	78.85
302.667	58.37
302.881	27.65
303.095	25.6
303.309	-5.12
303.524	-15.36
303.738	74.75
303.952	5.12
304.166	97.28
304.381	27.65
304.595	11.26
304.809	-19.46
305.023	-5.12
305.237	66.56
305.452	64.51
305.666	21.5
305.88	66.56
306.094	21.5
306.308	64.51
306.522	78.85
306.736	33.79
306.95	41.98
307.164	9.22
307.379	-41.98
307.593	-9.22
307.807	11.26
308.021	50.18
308.235	-5.12
308.449	39.94
308.663	9.22
308.877	-41.98
309.091	29.7
309.305	31.74
309.519	78.85
309.733	93.18
309.947	1.02
310.161	-25.6
310.374	-5.12
310.588	48.13
310.802	-9.22
311.016	82.94
311.23	19.46
311.444	25.6
311.658	29.7
311.872	35.84
312.085	78.85
312.299	-58.37
312.513	72.7
312.727	35.84
312.941	-13.31
313.154	13.31
313.368	37.89
313.582	62.46
313.796	23.55
314.009	64.51
314.223	-7.17
314.437	9.22
314.651	70.65
314.864	89.09
315.078	56.32
315.292	37.89
315.505	33.79
315.719	13.31
315.933	-35.84
316.146	48.13
316.36	-74.75
316.573	87.04
316.787	-9.22
317.001	48.13
317.214	9.22
317.428	-39.94
317.641	31.74
317.855	33.79
318.068	21.5
318.282	-74.75
318.495	13.31
318.709	21.5
318.922	1.02
319.136	68.61
319.349	25.6
319.563	99.33
319.776	-56.32
319.99	44.03
320.203	15.36
320.417	60.42
320.63	60.42
320.843	-17.41
321.057	25.6
321.27	101.37
321.483	44.03
321.697	78.85
321.91	3.07
322.124	21.5
322.337	3.07
322.55	23.55
322.763	13.31
322.977	-25.6
323.19	39.94
323.403	25.6
323.617	25.6
323.83	54.27
324.043	-27.65
324.256	50.18
324.469	-7.17
324.683	84.99
324.896	35.84
325.109	70.65
325.322	9.22
325.535	13.31
325.748	41.98
325.962	-17.41
326.175	70.65
326.388	-11.26
326.601	-15.36
326.814	17.41
327.027	33.79
327.24	41.98
327.453	46.08
327.666	60.42
327.879	52.22
328.092	109.57
328.305	95.23
328.518	-3.07
328.731	48.13
328.944	-1.02
329.157	46.08
329.37	1.02
329.583	78.85
329.796	64.51
330.009	91.13
330.222	-3.07
330.435	1.02
330.648	37.89
330.861	62.46
331.073	97.28
331.286	44.03
331.499	39.94
331.712	-78.85
331.925	54.27
332.138	25.6
332.35	31.74
332.563	39.94
332.776	64.51
332.989	7.17
333.202	-31.74
333.414	27.65
333.627	44.03
333.84	17.41
334.053	19.46
334.265	80.89
334.478	44.03
334.691	74.75
334.903	-13.31
335.116	68.61
335.329	97.28
335.541	29.7
335.754	48.13
335.966	-35.84
336.179	29.7
336.392	54.27
336.604	60.42
336.817	31.74
337.029	27.65
337.242	44.03
337.454	99.33
337.667	3.07
337.88	89.09
338.092	25.6
338.305	62.46
338.517	13.31
338.729	31.74
338.942	3.07
339.154	103.42
339.367	3.07
339.579	-84.99
339.792	82.94
340.004	89.09
340.217	37.89
340.429	15.36
340.641	82.94
340.854	-3.07
341.066	3.07
341.278	56.32
341.491	-9.22
341.703	21.5
341.915	-19.46
342.128	39.94
342.34	44.03
342.552	-11.26
342.764	48.13
342.977	5.12
343.189	29.7
343.401	107.52
343.613	-1.02
343.826	78.85
344.038	21.5
344.25	23.55
344.462	64.51
344.674	41.98
344.886	101.37
345.099	89.09
345.311	1.02
345.523	119.81
345.735	-13.31
345.947	-1.02
346.159	-3.07
346.371	68.61
346.583	-44.03
346.795	72.7
347.007	-17.41
347.219	72.7
347.431	-21.5
347.643	109.57
347.855	15.36
348.067	-17.41
348.279	64.51
348.491	37.89
348.703	-25.6
348.915	19.46
349.127	23.55
349.339	17.41
349.551	21.5
349.763	109.57
349.975	-33.79
350.187	48.13
350.399	64.51
350.61	64.51
350.822	15.36
351.034	13.31
351.246	27.65
351.458	-1.02
351.669	-1.02
351.881	27.65
352.093	27.65
352.305	48.13
352.517	17.41
352.728	64.51
352.94	82.94
353.152	50.18
353.363	-11.26
353.575	13.31
353.787	-1.02
353.999	115.71
354.21	54.27
354.422	82.94
354.633	-9.22
354.845	31.74
355.057	-3.07
355.268	31.74
355.48	68.61
355.692	48.13
355.903	-37.89
356.115	15.36
356.326	7.17
356.538	17.41
356.749	-7.17
356.961	89.09
357.172	27.65
357.384	-27.65
357.595	23.55
357.807	9.22
358.018	48.13
358.23	74.75
358.441	89.09
358.653	84.99
358.864	25.6
359.075	87.04
359.287	54.27
359.498	72.7
359.709	60.42
359.921	11.26
360.132	58.37
360.344	54.27
360.555	33.79
360.766	48.13
360.977	17.41
361.189	27.65
361.4	60.42
361.611	89.09
361.823	72.7
362.034	29.7
362.245	70.65
362.456	50.18
362.667	29.7
362.879	82.94
363.09	-11.26
363.301	15.36
363.512	15.36
363.723	19.46
363.935	-11.26
364.146	31.74
364.357	60.42
364.568	80.89
364.779	-35.84
364.99	21.5
365.201	33.79
365.412	31.74
365.623	58.37
365.834	31.74
366.045	-37.89
366.256	44.03
366.467	50.18
366.678	27.65
366.889	-3.07
367.1	56.32
367.311	50.18
367.522	41.98
367.733	82.94
367.944	31.74
368.155	35.84
368.366	41.98
368.577	70.65
368.788	80.89
368.999	97.28
369.209	29.7
369.42	76.8
369.631	41.98
369.842	37.89
370.053	-7.17
370.264	39.94
370.474	60.42
370.685	13.31
370.896	48.13
371.107	-39.94
371.317	-37.89
371.528	11.26
371.739	56.32
371.95	58.37
372.16	-17.41
372.371	15.36
372.582	115.71
372.792	91.13
373.003	56.32
373.214	56.32
373.424	-41.98
373.635	1.02
373.846	46.08
374.056	76.8
374.267	-54.27
374.477	33.79
374.688	-27.65
374.898	70.65
375.109	19.46
375.319	89.09
375.53	-44.03
375.74	31.74
375.951	-13.31
376.161	11.26
376.372	87.04
376.582	31.74
376.793	23.55
377.003	72.7
377.214	9.22
377.424	31.74
377.635	23.55
377.845	19.46
378.055	84.99
378.266	-33.79
378.476	44.03
378.686	48.13
378.897	25.6
379.107	17.41
379.317	105.47
379.528	54.27
379.738	17.41
379.948	37.89
380.158	105.47
380.369	-25.6
380.579	80.89
380.789	89.09
380.999	87.04
381.21	107.52
381.42	91.13
381.63	-19.46
381.84	23.55
382.05	-13.31
382.261	41.98
382.471	33.79
382.681	39.94
382.891	19.46
383.101	82.94
383.311	50.18
383.521	39.94
383.731	52.22
383.941	41.98
384.151	-13.31
384.361	1.02
384.571	82.94
384.781	15.36
384.991	29.7
385.201	111.61
385.411	74.75
385.621	107.52
385.831	21.5
386.041	46.08
386.251	19.46
386.461	91.13
386.671	31.74
386.881	64.51
387.091	56.32
387.301	179.2
387.511	89.09
387.72	41.98
387.93	84.99
388.14	-7.17
388.35	48.13
388.56	-17.41
388.769	84.99
388.979	-9.22
389.189	46.08
389.399	64.51
389.609	44.03
389.818	64.51
390.028	115.71
390.238	29.7
390.447	46.08
390.657	-11.26
390.867	68.61
391.076	-60.42
391.286	-3.07
391.496	23.55
391.705	54.27
391.915	60.42
392.125	19.46
392.334	99.33
392.544	58.37
392.753	52.22
392.963	50.18
393.172	89.09
393.382	70.65
393.591	105.47
393.801	76.8
394.01	70.65
394.22	-13.31
394.429	66.56
394.639	60.42
394.848	60.42
395.058	54.27
395.267	48.13
395.477	56.32
395.686	107.52
395.895	109.57
396.105	52.22
396.314	70.65
396.524	107.52
396.733	23.55
396.942	64.51
397.152	105.47
397.361	125.95
397.57	93.18
397.78	21.5
397.989	64.51
398.198	115.71
398.407	35.84
398.617	62.46
398.826	56.32
399.035	35.84
399.244	76.8
399.453	-17.41
399.663	78.85
399.872	27.65
400.081	74.75
400.29	134.14
400.499	58.37
400.708	142.33
400.917	54.27
401.127	46.08
401.336	66.56
401.545	119.81
401.754	44.03
401.963	91.13
402.172	97.28
402.381	97.28
402.59	99.33
402.799	87.04
403.008	132.09
403.217	89.09
403.426	97.28
403.635	109.57
403.844	60.42
404.053	144.38
404.262	82.94
404.471	87.04
404.68	132.09
404.888	93.18
405.097	109.57
405.306	136.19
405.515	162.81
405.724	68.61
405.933	64.51
406.142	87.04
406.35	150.53
406.559	111.61
406.768	156.67
406.977	68.61
407.185	99.33
407.394	130.05
407.603	154.62
407.812	220.16
408.02	76.8
408.229	156.67
408.438	105.47
408.646	115.71
408.855	119.81
409.064	197.63
409.272	111.61
409.481	171.01
409.69	152.57
409.898	175.1
410.107	191.49
410.315	226.3
410.524	175.1
410.733	357.37
410.941	214.01
411.15	211.96
411.358	209.92
411.567	279.55
411.775	275.45
411.984	273.4
412.192	267.26
412.401	216.06
412.609	242.68
412.818	332.79
413.026	318.46
413.234	293.88
413.443	287.74
413.651	345.08
413.86	355.32
414.068	365.56
414.276	349.18
414.485	336.89
414.693	422.91
414.901	398.33
415.11	361.47
415.318	388.09
415.526	467.96
415.734	467.96
415.943	453.63
416.151	480.25
416.359	549.88
416.567	474.1
416.776	551.93
416.984	541.69
417.192	556.02
417.4	539.64
417.608	570.36
417.817	637.94
418.025	584.7
418.233	674.81
418.441	623.61
418.649	631.8
418.857	736.24
419.065	713.72
419.273	773.11
419.481	801.78
419.689	742.39
419.897	861.17
420.105	805.88
420.313	908.27
420.521	846.84
420.729	1012.72
420.937	967.67
421.145	1041.39
421.353	1065.97
421.561	1098.74
421.769	1164.27
421.977	1240.05
422.185	1182.7
422.393	1199.09
422.601	1283.05
422.809	1293.29
423.017	1313.77
423.224	1354.73
423.432	1405.93
423.64	1491.95
423.848	1559.53
424.056	1459.18
424.263	1629.16
424.471	1596.39
424.679	1606.63
424.887	1694.69
425.094	1811.43
425.302	1831.91
425.51	1911.78
425.718	1879.01
425.925	2012.13
426.133	2081.76
426.341	2122.72
426.548	2198.49
426.756	2192.35
426.964	2206.69
427.171	2411.48
427.379	2368.48
427.586	2542.55
427.794	2599.9
428.001	2603.99
428.209	2821.08
428.417	2757.59
428.624	2855.89
428.832	2874.32
429.039	3099.6
429.247	3009.49
429.454	3281.87
429.662	3316.69
429.869	3210.19
430.076	3423.18
430.284	3333.07
430.491	3335.12
430.699	3648.46
430.906	3709.9
431.114	3800.01
431.321	3789.77
431.528	3902.4
431.736	4250.56
431.943	4486.08
432.15	4318.14
432.358	4273.09
432.565	4588.47
432.772	4510.65
432.979	4717.5
433.187	4889.53
433.394	4885.43
433.601	5157.81
433.808	5258.16
434.016	5307.31
434.223	5495.72
434.43	5757.86
434.637	5557.16
434.844	6087.59
435.052	5956.52
435.259	6026.15
435.466	6073.25
435.673	6128.55
435.88	6316.96
436.087	6843.29
436.294	6867.86
436.501	6536.09
436.708	6710.17
436.915	7025.56
437.122	7318.42
437.329	7037.84
437.537	7629.71
437.743	7596.94
437.95	7594.89
438.157	7906.18
438.364	8174.47
438.571	8168.32
438.778	8201.09
438.985	9108.34
439.192	8629.12
439.399	8872.82
439.606	8649.6
439.813	9145.2
440.02	9765.74
440.227	9542.51
440.433	9366.39
440.64	9700.2
440.847	9864.04
441.054	9935.72
441.261	10611.55
441.467	10552.16
441.674	10883.93
441.881	10978.14
442.088	11135.83
442.294	11090.77
442.501	11213.65
442.708	11641.68
442.914	12161.86
443.121	12634.94
443.328	12118.86
443.534	13013.82
443.741	12428.1
443.948	12553.02
444.154	13585.2
444.361	13454.13
444.568	13501.23
444.774	13318.96
444.981	13738.8
445.187	14060.33
445.394	14621.47
445.6	14316.33
445.807	15942.41
446.013	15041.31
446.22	15260.44
446.426	15825.68
446.633	16061.19
446.839	16610.05
447.046	15891.21
447.252	16710.4
447.459	17046.27
447.665	17103.61
447.871	17566.45
448.078	18285.29
448.284	17341.18
448.491	17955.57
448.697	18621.16
448.903	18838.24
449.11	18987.74
449.316	18711.27
449.522	18926.3
449.728	19387.1
449.935	19573.46
450.141	19692.24
450.347	19862.22
450.553	19292.89
450.76	19266.27
450.966	20021.97
451.172	20142.8
451.378	20665.03
451.584	20218.57
451.791	20456.14
451.997	20509.38
452.203	20806.34
452.409	20865.73
452.615	20746.95
452.821	20130.51
453.027	20058.83
453.233	20857.54
453.44	20167.37
453.646	20337.35
453.852	20126.41
454.058	20538.05
454.264	20001.49
454.47	20490.95
454.676	20003.53
454.882	20585.16
455.088	18711.27
455.294	19124.96
455.5	19395.29
455.705	19213.02
455.911	18510.57
456.117	17994.48
456.323	18146.03
456.529	16872.19
456.735	17787.63
456.941	17527.54
457.147	17085.18
457.352	16429.83
457.558	16208.65
457.764	16462.6
457.97	16034.57
458.176	15461.14
458.381	15870.73
458.587	15043.35
458.793	14951.2
458.999	14058.28
459.204	15297.3
459.41	14838.56
459.616	13738.8
459.821	13808.43
460.027	13757.23
460.233	13517.62
460.438	12985.15
460.644	12827.45
460.85	12151.62
461.055	12204.87
461.261	12071.75
461.466	11129.69
461.672	10980.18
461.878	11627.34
462.083	11109.21
462.289	10769.24
462.494	10662.75
462.7	10083.17
462.905	10046.31
463.111	10085.22
463.316	10359.65
463.522	9972.58
463.727	9880.43
463.932	10148.71
464.138	9870.19
464.343	10077.03
464.549	9804.65
464.754	9993.06
464.959	10154.85
465.165	9821.03
465.37	9354.1
465.575	9266.03
465.781	9589.61
465.986	9882.47
466.191	9350
466.397	9085.81
466.602	8569.73
466.807	8977.27
467.012	9026.42
467.218	8905.59
467.423	8973.18
467.628	8897.4
467.833	9085.81
468.038	9155.44
468.244	8766.33
468.449	9151.35
468.654	8676.22
468.859	8502.14
469.064	8618.88
