Data from USB4F104151__238__14-00-56-098.txt Node

Date: Thu Mar 13 14:00:56 EDT 2025
User: louis
Spectrometer: USB4F10415
Trigger mode: 4
Integration Time (sec): 1.000000E-2
Scans to average: 1
Electric dark correction enabled: true
Nonlinearity correction enabled: false
Boxcar width: 0
XAxis mode: Wavelengths
Number of Pixels in Spectrum: 3648
>>>>>Begin Spectral Data<<<<<
178.204	-44.71
178.424	-44.71
178.644	-44.71
178.864	-18.09
179.084	-32.43
179.304	-75.43
179.524	31.06
179.744	-24.23
179.964	-7.85
180.184	53.59
180.404	-38.57
180.624	2.39
180.844	6.49
181.064	10.58
181.283	43.35
181.503	-24.23
181.723	22.87
181.943	8.53
182.163	22.87
182.383	12.63
182.602	6.49
182.822	100.69
183.042	-34.47
183.262	33.11
183.482	20.82
183.701	-18.09
183.921	26.96
184.141	20.82
184.361	39.25
184.58	-7.85
184.8	84.31
185.02	6.49
185.239	41.3
185.459	-48.81
185.679	6.49
185.898	49.49
186.118	18.77
186.338	-20.14
186.557	51.54
186.777	37.2
186.997	24.92
187.216	31.06
187.436	31.06
187.655	117.08
187.875	18.77
188.095	18.77
188.314	-40.62
188.534	104.79
188.753	59.73
188.973	20.82
189.192	0.34
189.412	4.44
189.631	57.68
189.851	6.49
190.07	-1.71
190.29	-26.28
190.509	2.39
190.729	49.49
190.948	18.77
191.168	55.64
191.387	35.16
191.607	-24.23
191.826	-65.19
192.045	-26.28
192.265	-16.04
192.484	-13.99
192.704	35.16
192.923	37.2
193.142	-44.71
193.362	20.82
193.581	33.11
193.8	14.68
194.02	10.58
194.239	-50.86
194.458	72.02
194.678	-26.28
194.897	-34.47
195.116	115.03
195.335	6.49
195.555	10.58
195.774	82.26
195.993	4.44
196.212	76.12
196.432	26.96
196.651	88.4
196.87	41.3
197.089	33.11
197.308	65.88
197.528	4.44
197.747	35.16
197.966	35.16
198.185	24.92
198.404	6.49
198.623	72.02
198.842	31.06
199.062	90.45
199.281	51.54
199.5	-9.9
199.719	43.35
199.938	18.77
200.157	59.73
200.376	12.63
200.595	33.11
200.814	20.82
201.033	26.96
201.252	67.92
201.471	115.03
201.69	76.12
201.909	49.49
202.128	39.25
202.347	12.63
202.566	-18.09
202.785	98.64
203.004	-42.67
203.223	10.58
203.442	14.68
203.661	33.11
203.879	-16.04
204.098	51.54
204.317	43.35
204.536	88.4
204.755	8.53
204.974	55.64
205.193	39.25
205.411	39.25
205.63	-40.62
205.849	26.96
206.068	55.64
206.287	6.49
206.505	-18.09
206.724	57.68
206.943	33.11
207.162	35.16
207.381	37.2
207.599	-7.85
207.818	78.16
208.037	47.44
208.255	33.11
208.474	2.39
208.693	110.93
208.911	10.58
209.13	47.44
209.349	-3.75
209.567	49.49
209.786	88.4
210.005	80.21
210.223	33.11
210.442	-24.23
210.661	39.25
210.879	33.11
211.098	14.68
211.316	31.06
211.535	20.82
211.753	4.44
211.972	33.11
212.191	24.92
212.409	-5.8
212.628	24.92
212.846	8.53
213.065	-5.8
213.283	8.53
213.502	-9.9
213.72	86.36
213.938	-16.04
214.157	18.77
214.375	41.3
214.594	-18.09
214.812	-16.04
215.031	8.53
215.249	-30.38
215.467	65.88
215.686	-18.09
215.904	51.54
216.122	-16.04
216.341	49.49
216.559	8.53
216.778	88.4
216.996	45.4
217.214	0.34
217.432	-1.71
217.651	108.88
217.869	57.68
218.087	41.3
218.306	43.35
218.524	57.68
218.742	96.6
218.96	-59.05
219.179	39.25
219.397	78.16
219.615	-20.14
219.833	57.68
220.051	26.96
220.27	59.73
220.488	16.73
220.706	43.35
220.924	100.69
221.142	55.64
221.36	0.34
221.578	51.54
221.796	67.92
222.015	39.25
222.233	63.83
222.451	-5.8
222.669	-24.23
222.887	6.49
223.105	-26.28
223.323	-16.04
223.541	18.77
223.759	14.68
223.977	8.53
224.195	43.35
224.413	104.79
224.631	57.68
224.849	-5.8
225.067	86.36
225.285	-3.75
225.503	49.49
225.721	-38.57
225.939	133.46
226.157	2.39
226.375	55.64
226.592	6.49
226.81	-18.09
227.028	72.02
227.246	4.44
227.464	6.49
227.682	14.68
227.9	88.4
228.117	65.88
228.335	-32.43
228.553	59.73
228.771	108.88
228.989	96.6
229.206	16.73
229.424	2.39
229.642	-13.99
229.86	47.44
230.077	37.2
230.295	57.68
230.513	-67.24
230.731	35.16
230.948	6.49
231.166	-7.85
231.384	39.25
231.601	14.68
231.819	24.92
232.037	-13.99
232.254	-34.47
232.472	-16.04
232.689	-18.09
232.907	72.02
233.125	-16.04
233.342	55.64
233.56	47.44
233.777	24.92
233.995	-26.28
234.213	-11.95
234.43	6.49
234.648	59.73
234.865	-26.28
235.083	57.68
235.3	51.54
235.518	80.21
235.735	55.64
235.953	16.73
236.17	43.35
236.388	47.44
236.605	69.97
236.822	26.96
237.04	6.49
237.257	10.58
237.475	12.63
237.692	29.01
237.909	63.83
238.127	65.88
238.344	26.96
238.562	-1.71
238.779	-54.95
238.996	-48.81
239.214	-34.47
239.431	47.44
239.648	-54.95
239.865	80.21
240.083	-7.85
240.3	53.59
240.517	-1.71
240.735	22.87
240.952	-3.75
241.169	82.26
241.386	45.4
241.603	47.44
241.821	6.49
242.038	26.96
242.255	51.54
242.472	37.2
242.689	49.49
242.907	22.87
243.124	92.5
243.341	12.63
243.558	35.16
243.775	41.3
243.992	72.02
244.209	31.06
244.426	-1.71
244.643	-26.28
244.86	18.77
245.078	61.78
245.295	-57
245.512	55.64
245.729	31.06
245.946	-5.8
246.163	72.02
246.38	57.68
246.597	31.06
246.814	67.92
247.031	59.73
247.248	6.49
247.464	-28.33
247.681	22.87
247.898	-11.95
248.115	63.83
248.332	8.53
248.549	86.36
248.766	26.96
248.983	22.87
249.2	-7.85
249.417	-16.04
249.633	80.21
249.85	35.16
250.067	59.73
250.284	63.83
250.501	51.54
250.717	108.88
250.934	-30.38
251.151	6.49
251.368	31.06
251.585	10.58
251.801	10.58
252.018	78.16
252.235	35.16
252.451	-38.57
252.668	-20.14
252.885	67.92
253.102	45.4
253.318	-13.99
253.535	-3.75
253.752	-34.47
253.968	24.92
254.185	24.92
254.401	-11.95
254.618	16.73
254.835	-20.14
255.051	45.4
255.268	104.79
255.484	14.68
255.701	51.54
255.917	37.2
256.134	2.39
256.351	2.39
256.567	2.39
256.784	6.49
257	-40.62
257.217	59.73
257.433	10.58
257.65	10.58
257.866	74.07
258.082	14.68
258.299	-59.05
258.515	18.77
258.732	-28.33
258.948	33.11
259.165	65.88
259.381	-16.04
259.597	53.59
259.814	31.06
260.03	-9.9
260.246	-28.33
260.463	-26.28
260.679	57.68
260.895	-11.95
261.112	6.49
261.328	-24.23
261.544	53.59
261.761	74.07
261.977	112.98
262.193	-9.9
262.409	4.44
262.626	8.53
262.842	74.07
263.058	4.44
263.274	37.2
263.49	47.44
263.707	158.03
263.923	16.73
264.139	-1.71
264.355	55.64
264.571	24.92
264.787	67.92
265.004	102.74
265.22	-42.67
265.436	10.58
265.652	0.34
265.868	-24.23
266.084	4.44
266.3	57.68
266.516	67.92
266.732	88.4
266.948	-52.91
267.164	88.4
267.38	67.92
267.596	-34.47
267.812	-9.9
268.028	59.73
268.244	-44.71
268.46	-7.85
268.676	-46.76
268.892	78.16
269.108	49.49
269.324	-34.47
269.54	20.82
269.756	80.21
269.972	69.97
270.188	43.35
270.403	31.06
270.619	45.4
270.835	86.36
271.051	4.44
271.267	43.35
271.483	26.96
271.698	55.64
271.914	59.73
272.13	6.49
272.346	39.25
272.562	47.44
272.777	-9.9
272.993	74.07
273.209	20.82
273.425	37.2
273.64	24.92
273.856	55.64
274.072	-40.62
274.287	31.06
274.503	78.16
274.719	43.35
274.934	82.26
275.15	-18.09
275.366	24.92
275.581	63.83
275.797	22.87
276.012	35.16
276.228	2.39
276.444	26.96
276.659	0.34
276.875	49.49
277.09	8.53
277.306	22.87
277.521	82.26
277.737	-57
277.952	41.3
278.168	6.49
278.383	63.83
278.599	-1.71
278.814	-11.95
279.03	-73.39
279.245	65.88
279.461	22.87
279.676	80.21
279.892	24.92
280.107	-22.19
280.322	-34.47
280.538	49.49
280.753	39.25
280.969	45.4
281.184	-1.71
281.399	29.01
281.615	4.44
281.83	155.99
282.045	14.68
282.26	26.96
282.476	-34.47
282.691	55.64
282.906	51.54
283.122	14.68
283.337	-11.95
283.552	74.07
283.767	47.44
283.983	14.68
284.198	37.2
284.413	26.96
284.628	-1.71
284.843	-42.67
285.058	10.58
285.274	8.53
285.489	10.58
285.704	16.73
285.919	43.35
286.134	51.54
286.349	22.87
286.564	-7.85
286.779	20.82
286.995	67.92
287.21	-20.14
287.425	20.82
287.64	41.3
287.855	31.06
288.07	51.54
288.285	24.92
288.5	-3.75
288.715	4.44
288.93	26.96
289.145	51.54
289.36	55.64
289.575	65.88
289.79	14.68
290.004	39.25
290.219	-32.43
290.434	88.4
290.649	10.58
290.864	-9.9
291.079	78.16
291.294	0.34
291.509	14.68
291.724	67.92
291.938	6.49
292.153	72.02
292.368	43.35
292.583	6.49
292.798	67.92
293.012	39.25
293.227	24.92
293.442	43.35
293.657	-30.38
293.871	47.44
294.086	-34.47
294.301	41.3
294.516	39.25
294.73	74.07
294.945	-5.8
295.16	80.21
295.374	47.44
295.589	80.21
295.804	4.44
296.018	94.55
296.233	129.36
296.447	47.44
296.662	59.73
296.877	153.94
297.091	-13.99
297.306	22.87
297.52	65.88
297.735	69.97
297.949	63.83
298.164	57.68
298.378	43.35
298.593	63.83
298.807	67.92
299.022	20.82
299.236	31.06
299.451	55.64
299.665	53.59
299.88	33.11
300.094	106.84
300.309	-3.75
300.523	-9.9
300.737	72.02
300.952	24.92
301.166	-11.95
301.381	43.35
301.595	22.87
301.809	74.07
302.024	14.68
302.238	47.44
302.452	47.44
302.667	63.83
302.881	16.73
303.095	33.11
303.309	-1.71
303.524	-30.38
303.738	8.53
303.952	-32.43
304.166	22.87
304.381	-71.34
304.595	82.26
304.809	22.87
305.023	49.49
305.237	63.83
305.452	57.68
305.666	137.56
305.88	26.96
306.094	37.2
306.308	67.92
306.522	-24.23
306.736	2.39
306.95	65.88
307.164	86.36
307.379	14.68
307.593	35.16
307.807	-16.04
308.021	86.36
308.235	72.02
308.449	2.39
308.663	-3.75
308.877	20.82
309.091	37.2
309.305	47.44
309.519	-20.14
309.733	12.63
309.947	-9.9
310.161	57.68
310.374	12.63
310.588	67.92
310.802	43.35
311.016	2.39
311.23	-30.38
311.444	55.64
311.658	18.77
311.872	35.16
312.085	59.73
312.299	31.06
312.513	2.39
312.727	0.34
312.941	16.73
313.154	-13.99
313.368	49.49
313.582	72.02
313.796	12.63
314.009	63.83
314.223	35.16
314.437	39.25
314.651	55.64
314.864	26.96
315.078	16.73
315.292	47.44
315.505	2.39
315.719	63.83
315.933	14.68
316.146	96.6
316.36	39.25
316.573	121.17
316.787	12.63
317.001	22.87
317.214	2.39
317.428	20.82
317.641	10.58
317.855	49.49
318.068	14.68
318.282	20.82
318.495	4.44
318.709	35.16
318.922	86.36
319.136	96.6
319.349	94.55
319.563	26.96
319.776	61.78
319.99	6.49
320.203	33.11
320.417	-7.85
320.63	16.73
320.843	45.4
321.057	112.98
321.27	31.06
321.483	29.01
321.697	74.07
321.91	-13.99
322.124	10.58
322.337	-9.9
322.55	51.54
322.763	-32.43
322.977	55.64
323.19	2.39
323.403	82.26
323.617	45.4
323.83	115.03
324.043	22.87
324.256	26.96
324.469	2.39
324.683	121.17
324.896	43.35
325.109	90.45
325.322	4.44
325.535	-7.85
325.748	10.58
325.962	6.49
326.175	47.44
326.388	49.49
326.601	10.58
326.814	88.4
327.027	-46.76
327.24	29.01
327.453	-3.75
327.666	69.97
327.879	22.87
328.092	-36.52
328.305	78.16
328.518	39.25
328.731	92.5
328.944	55.64
329.157	119.12
329.37	-5.8
329.583	112.98
329.796	63.83
330.009	8.53
330.222	145.75
330.435	88.4
330.648	-11.95
330.861	20.82
331.073	-9.9
331.286	82.26
331.499	55.64
331.712	-13.99
331.925	69.97
332.138	22.87
332.35	16.73
332.563	57.68
332.776	90.45
332.989	88.4
333.202	67.92
333.414	43.35
333.627	129.36
333.84	39.25
334.053	41.3
334.265	14.68
334.478	31.06
334.691	33.11
334.903	80.21
335.116	47.44
335.329	18.77
335.541	115.03
335.754	80.21
335.966	-26.28
336.179	57.68
336.392	4.44
336.604	47.44
336.817	133.46
337.029	102.74
337.242	35.16
337.454	76.12
337.667	22.87
337.88	-20.14
338.092	24.92
338.305	41.3
338.517	-11.95
338.729	63.83
338.942	24.92
339.154	37.2
339.367	-32.43
339.579	53.59
339.792	45.4
340.004	-18.09
340.217	-13.99
340.429	33.11
340.641	2.39
340.854	-3.75
341.066	84.31
341.278	106.84
341.491	18.77
341.703	49.49
341.915	26.96
342.128	22.87
342.34	4.44
342.552	24.92
342.764	-9.9
342.977	31.06
343.189	37.2
343.401	82.26
343.613	10.58
343.826	100.69
344.038	-54.95
344.25	84.31
344.462	-24.23
344.674	94.55
344.886	39.25
345.099	16.73
345.311	57.68
345.523	31.06
345.735	-1.71
345.947	61.78
346.159	-24.23
346.371	-30.38
346.583	37.2
346.795	31.06
347.007	35.16
347.219	98.64
347.431	51.54
347.643	4.44
347.855	18.77
348.067	35.16
348.279	-13.99
348.491	65.88
348.703	41.3
348.915	20.82
349.127	35.16
349.339	117.08
349.551	18.77
349.763	98.64
349.975	-11.95
350.187	-1.71
350.399	31.06
350.61	67.92
350.822	-61.1
351.034	26.96
351.246	94.55
351.458	82.26
351.669	2.39
351.881	88.4
352.093	90.45
352.305	55.64
352.517	33.11
352.728	69.97
352.94	59.73
353.152	78.16
353.363	26.96
353.575	26.96
353.787	0.34
353.999	26.96
354.21	82.26
354.422	145.75
354.633	10.58
354.845	59.73
355.057	49.49
355.268	100.69
355.48	67.92
355.692	92.5
355.903	102.74
356.115	55.64
356.326	-9.9
356.538	57.68
356.749	90.45
356.961	35.16
357.172	20.82
357.384	119.12
357.595	33.11
357.807	-26.28
358.018	84.31
358.23	-5.8
358.441	12.63
358.653	18.77
358.864	63.83
359.075	24.92
359.287	72.02
359.498	10.58
359.709	57.68
359.921	90.45
360.132	67.92
360.344	55.64
360.555	2.39
360.766	98.64
360.977	72.02
361.189	43.35
361.4	51.54
361.611	24.92
361.823	94.55
362.034	37.2
362.245	-63.15
362.456	18.77
362.667	6.49
362.879	31.06
363.09	26.96
363.301	84.31
363.512	-28.33
363.723	53.59
363.935	31.06
364.146	24.92
364.357	6.49
364.568	39.25
364.779	18.77
364.99	88.4
365.201	2.39
365.412	80.21
365.623	0.34
365.834	47.44
366.045	26.96
366.256	22.87
366.467	16.73
366.678	63.83
366.889	0.34
367.1	49.49
367.311	29.01
367.522	51.54
367.733	37.2
367.944	76.12
368.155	31.06
368.366	63.83
368.577	108.88
368.788	61.78
368.999	35.16
369.209	67.92
369.42	51.54
369.631	57.68
369.842	45.4
370.053	-16.04
370.264	-52.91
370.474	-18.09
370.685	16.73
370.896	6.49
371.107	72.02
371.317	6.49
371.528	39.25
371.739	10.58
371.95	112.98
372.16	39.25
372.371	49.49
372.582	51.54
372.792	90.45
373.003	-26.28
373.214	6.49
373.424	63.83
373.635	59.73
373.846	51.54
374.056	-20.14
374.267	43.35
374.477	22.87
374.688	24.92
374.898	35.16
375.109	39.25
375.319	-50.86
375.53	-22.19
375.74	98.64
375.951	6.49
376.161	14.68
376.372	37.2
376.582	67.92
376.793	26.96
377.003	-63.15
377.214	22.87
377.424	22.87
377.635	69.97
377.845	82.26
378.055	125.27
378.266	-13.99
378.476	26.96
378.686	67.92
378.897	22.87
379.107	135.51
379.317	6.49
379.528	41.3
379.738	78.16
379.948	29.01
380.158	51.54
380.369	16.73
380.579	86.36
380.789	-13.99
380.999	47.44
381.21	100.69
381.42	-24.23
381.63	-50.86
381.84	51.54
382.05	63.83
382.261	39.25
382.471	55.64
382.681	-3.75
382.891	131.41
383.101	35.16
383.311	12.63
383.521	24.92
383.731	55.64
383.941	72.02
384.151	2.39
384.361	20.82
384.571	6.49
384.781	53.59
384.991	98.64
385.201	98.64
385.411	76.12
385.621	55.64
385.831	-9.9
386.041	117.08
386.251	82.26
386.461	53.59
386.671	88.4
386.881	24.92
387.091	55.64
387.301	65.88
387.511	33.11
387.72	119.12
387.93	31.06
388.14	-7.85
388.35	26.96
388.56	14.68
388.769	-22.19
388.979	39.25
389.189	51.54
389.399	63.83
389.609	39.25
389.818	-32.43
390.028	55.64
390.238	49.49
390.447	47.44
390.657	112.98
390.867	47.44
391.076	92.5
391.286	57.68
391.496	88.4
391.705	76.12
391.915	45.4
392.125	43.35
392.334	86.36
392.544	51.54
392.753	35.16
392.963	119.12
393.172	90.45
393.382	45.4
393.591	135.51
393.801	-9.9
394.01	106.84
394.22	78.16
394.429	69.97
394.639	86.36
394.848	24.92
395.058	29.01
395.267	65.88
395.477	53.59
395.686	88.4
395.895	24.92
396.105	110.93
396.314	145.75
396.524	55.64
396.733	96.6
396.942	137.56
397.152	22.87
397.361	112.98
397.57	10.58
397.78	47.44
397.989	121.17
398.198	102.74
398.407	22.87
398.617	88.4
398.826	100.69
399.035	84.31
399.244	92.5
399.453	110.93
399.663	35.16
399.872	82.26
400.081	63.83
400.29	90.45
400.499	84.31
400.708	121.17
400.917	35.16
401.127	86.36
401.336	127.32
401.545	86.36
401.754	135.51
401.963	72.02
402.172	84.31
402.381	59.73
402.59	2.39
402.799	98.64
403.008	151.89
403.217	112.98
403.426	145.75
403.635	88.4
403.844	92.5
404.053	59.73
404.262	158.03
404.471	49.49
404.68	78.16
404.888	129.36
405.097	51.54
405.306	139.6
405.515	78.16
405.724	129.36
405.933	155.99
406.142	94.55
406.35	164.18
406.559	145.75
406.768	151.89
406.977	219.47
407.185	125.27
407.394	162.13
407.603	168.27
407.812	153.94
408.02	176.47
408.229	145.75
408.438	166.23
408.646	155.99
408.855	180.56
409.064	211.28
409.272	151.89
409.481	145.75
409.69	170.32
409.898	260.43
410.107	227.67
410.315	190.8
410.524	213.33
410.733	237.91
410.941	196.95
411.15	287.06
411.358	307.54
411.567	235.86
411.775	272.72
411.984	352.59
412.192	246.1
412.401	321.87
412.609	317.78
412.818	358.74
413.026	325.97
413.234	285.01
413.443	332.11
413.651	371.02
413.86	368.98
414.068	362.83
414.276	418.13
414.485	440.65
414.693	446.8
414.901	500.05
415.11	506.19
415.318	438.61
415.526	506.19
415.734	498
415.943	491.85
416.151	538.96
416.359	543.05
416.567	653.64
416.776	665.93
416.984	672.08
417.192	649.55
417.4	604.49
417.608	670.03
417.817	655.69
418.025	786.76
418.233	813.38
418.441	692.55
418.649	856.39
418.857	885.06
419.065	854.34
419.273	831.82
419.481	895.3
419.689	997.7
419.897	1059.14
420.105	987.46
420.313	893.26
420.521	1096
420.729	1171.78
420.937	1153.35
421.145	1229.12
421.353	1120.58
421.561	1329.47
421.769	1331.52
421.977	1431.87
422.185	1304.9
422.393	1448.26
422.601	1569.09
422.809	1519.93
423.017	1554.75
423.224	1562.94
423.432	1689.92
423.64	1724.73
423.848	1741.11
424.056	1710.4
424.263	1810.75
424.471	1915.19
424.679	1790.27
424.887	1931.58
425.094	1980.73
425.302	1909.05
425.51	2169.14
425.718	2218.29
425.925	2212.15
426.133	2402.61
426.341	2550.06
426.548	2660.65
426.756	2568.49
426.964	2595.12
427.171	2625.84
427.379	2797.87
427.586	2906.41
427.794	3053.86
428.001	3060.01
428.209	3178.79
428.417	3055.91
428.624	3442.98
428.832	3359.01
429.039	3340.58
429.247	3430.69
429.454	3649.82
429.662	3842.33
429.869	3713.31
430.076	3975.45
430.284	3840.28
430.491	3954.97
430.699	4309.27
430.906	4104.47
431.114	4094.23
431.321	4489.49
431.528	4475.15
431.736	4692.24
431.943	5005.58
432.15	4806.92
432.358	4907.27
432.565	5212.42
432.772	5054.73
432.979	5417.22
433.187	5591.3
433.394	5478.66
433.601	5964.03
433.808	5859.58
434.016	5835
434.223	6093.05
434.43	6439.16
434.637	6453.49
434.844	6664.43
435.052	6873.32
435.259	6815.98
435.466	6840.56
435.673	6830.32
435.88	7358.69
436.087	7577.83
436.294	7622.88
436.501	7403.75
436.708	7561.44
436.915	7923.93
437.122	8384.73
437.329	8243.42
437.537	8900.81
437.743	8827.09
437.95	8442.07
438.157	9111.75
438.364	9357.51
438.571	9115.85
438.778	9312.46
438.985	10166.46
439.192	9885.89
439.399	10041.53
439.606	9820.35
439.813	10567.86
440.02	11188.39
440.227	10819.76
440.433	10844.34
440.64	11223.21
440.847	11036.84
441.054	11278.51
441.261	12081.31
441.467	12044.45
441.674	12384.41
441.881	12570.77
442.088	12808.34
442.294	12384.41
442.501	12679.32
442.708	13082.77
442.914	13336.71
443.121	14084.22
443.328	13502.6
443.534	14682.23
443.741	14309.5
443.948	14033.02
444.154	14934.13
444.361	15110.25
444.568	15128.69
444.774	15061.1
444.981	15210.61
445.187	15489.13
445.394	16408.67
445.6	16248.93
445.807	17832.01
446.013	17035.35
446.22	17277.01
446.426	17965.12
446.633	17774.66
446.839	18722.87
447.046	17735.75
447.252	18833.46
447.459	18726.97
447.665	18585.66
447.871	19832.87
448.078	20770.84
448.284	19406.89
448.491	20201.51
448.697	20604.95
448.903	21196.82
449.11	21235.73
449.316	20875.29
449.522	21495.82
449.728	21633.04
449.935	21694.47
450.141	21915.65
450.347	22284.29
450.553	22085.64
450.76	22097.92
450.966	22798.33
451.172	22482.94
451.378	23156.72
451.584	22761.47
451.791	23267.31
451.997	23183.35
452.203	23519.21
452.409	23562.22
452.615	23308.27
452.821	22333.44
453.027	22063.11
453.233	23365.62
453.44	22525.95
453.646	22853.62
453.852	22611.96
454.058	23214.07
454.264	22421.5
454.47	22921.21
454.676	22167.56
454.882	23261.17
455.088	21243.92
455.294	21403.66
455.5	21665.8
455.705	21827.59
455.911	20721.69
456.117	20846.62
456.323	20455.45
456.529	19220.53
456.735	19843.11
456.941	19535.92
457.147	19118.13
457.352	18735.16
457.558	18466.88
457.764	18462.78
457.97	17983.55
458.176	17856.58
458.381	17776.71
458.587	16820.31
458.793	16838.74
458.999	16158.81
459.204	17152.08
459.41	16744.53
459.616	15689.83
459.821	15683.69
460.027	15714.41
460.233	15079.54
460.438	14540.92
460.644	14706.8
460.85	13844.61
461.055	13813.89
461.261	13904
461.466	12722.32
461.672	12533.91
461.878	13283.47
462.083	12226.71
462.289	12200.09
462.494	12089.5
462.7	11176.11
462.905	11110.57
463.111	11554.98
463.316	11618.47
463.522	11423.91
463.727	11608.23
463.932	11497.64
464.138	11063.47
464.343	11276.46
464.549	11223.21
464.754	11327.66
464.959	11133.1
465.165	11049.13
465.37	10670.26
465.575	10449.08
465.781	10887.34
465.986	11024.56
466.191	10684.59
466.397	10469.56
466.602	9828.54
466.807	10281.14
467.012	10246.33
467.218	10023.1
467.423	10143.93
467.628	10234.04
467.833	10541.24
468.038	9922.75
468.244	9867.45
468.449	10145.98
