Data from USB4F104151__273__14-02-20-639.txt Node

Date: Thu Mar 13 14:02:20 EDT 2025
User: louis
Spectrometer: USB4F10415
Trigger mode: 4
Integration Time (sec): 1.000000E-2
Scans to average: 1
Electric dark correction enabled: true
Nonlinearity correction enabled: false
Boxcar width: 0
XAxis mode: Wavelengths
Number of Pixels in Spectrum: 3648
>>>>>Begin Spectral Data<<<<<
178.204	-93.52
178.424	-93.52
178.644	-93.52
178.864	-103.76
179.084	2.73
179.304	33.45
179.524	23.21
179.744	47.79
179.964	-38.23
180.184	-60.76
180.404	47.79
180.624	0.68
180.844	-19.8
181.064	-52.56
181.283	2.73
181.503	31.4
181.723	-15.7
181.943	23.21
182.163	29.35
182.383	23.21
182.602	27.31
182.822	6.83
183.042	84.65
183.262	35.5
183.482	33.45
183.701	2.73
183.921	43.69
184.141	37.55
184.361	10.92
184.58	51.88
184.8	27.31
185.02	-38.23
185.239	31.4
185.459	33.45
185.679	37.55
185.898	-9.56
186.118	53.93
186.338	-54.61
186.557	80.55
186.777	-34.13
186.997	-17.75
187.216	12.97
187.436	-21.85
187.655	39.59
187.875	60.07
188.095	39.59
188.314	64.17
188.534	33.45
188.753	-42.32
188.973	35.5
189.192	4.78
189.412	31.4
189.631	-5.46
189.851	-21.85
190.07	27.31
190.29	17.07
190.509	-21.85
190.729	25.26
190.948	-44.37
191.168	49.83
191.387	103.08
191.607	-13.65
191.826	35.5
192.045	43.69
192.265	49.83
192.484	39.59
192.704	-5.46
192.923	-7.51
193.142	64.17
193.362	-11.61
193.581	35.5
193.8	-19.8
194.02	-1.37
194.239	60.07
194.458	62.12
194.678	-21.85
194.897	29.35
195.116	37.55
195.335	68.27
195.555	-13.65
195.774	23.21
195.993	-58.71
196.212	19.11
196.432	15.02
196.651	39.59
196.87	-11.61
197.089	49.83
197.308	55.98
197.528	-5.46
197.747	-44.37
197.966	68.27
198.185	31.4
198.404	19.11
198.623	96.94
198.842	64.17
199.062	-19.8
199.281	70.31
199.5	-36.18
199.719	-42.32
199.938	-17.75
200.157	4.78
200.376	-83.28
200.595	2.73
200.814	58.03
201.033	-3.41
201.252	23.21
201.471	-27.99
201.69	64.17
201.909	19.11
202.128	21.16
202.347	-7.51
202.566	68.27
202.785	45.74
203.004	-11.61
203.223	19.11
203.442	37.55
203.661	-54.61
203.879	0.68
204.098	19.11
204.317	17.07
204.536	-3.41
204.755	-23.89
204.974	-3.41
205.193	35.5
205.411	47.79
205.63	10.92
205.849	103.08
206.068	-38.23
206.287	-11.61
206.505	80.55
206.724	-30.04
206.943	49.83
207.162	21.16
207.381	2.73
207.599	49.83
207.818	39.59
208.037	47.79
208.255	-34.13
208.474	33.45
208.693	-5.46
208.911	-15.7
209.13	10.92
209.349	64.17
209.567	15.02
209.786	2.73
210.005	53.93
210.223	-56.66
210.442	-9.56
210.661	-19.8
210.879	39.59
211.098	8.87
211.316	8.87
211.535	60.07
211.753	53.93
211.972	-23.89
212.191	12.97
212.409	31.4
212.628	-19.8
212.846	47.79
213.065	-11.61
213.283	70.31
213.502	17.07
213.72	21.16
213.938	2.73
214.157	25.26
214.375	29.35
214.594	125.61
214.812	43.69
215.031	-9.56
215.249	-83.28
215.467	60.07
215.686	15.02
215.904	39.59
216.122	-3.41
216.341	70.31
216.559	19.11
216.778	31.4
216.996	35.5
217.214	47.79
217.432	12.97
217.651	21.16
217.869	45.74
218.087	-7.51
218.306	-15.7
218.524	55.98
218.742	10.92
218.96	4.78
219.179	-38.23
219.397	-5.46
219.615	12.97
219.833	37.55
220.051	31.4
220.27	70.31
220.488	27.31
220.706	-27.99
220.924	27.31
221.142	21.16
221.36	39.59
221.578	74.41
221.796	47.79
222.015	51.88
222.233	19.11
222.451	72.36
222.669	35.5
222.887	68.27
223.105	4.78
223.323	19.11
223.541	33.45
223.759	-11.61
223.977	-25.94
224.195	29.35
224.413	-56.66
224.631	-50.52
224.849	2.73
225.067	4.78
225.285	29.35
225.503	25.26
225.721	23.21
225.939	23.21
226.157	-3.41
226.375	103.08
226.592	-27.99
226.81	37.55
227.028	76.46
227.246	51.88
227.464	43.69
227.682	27.31
227.9	45.74
228.117	43.69
228.335	58.03
228.553	41.64
228.771	74.41
228.989	41.64
229.206	-85.33
229.424	19.11
229.642	103.08
229.86	-38.23
230.077	21.16
230.295	47.79
230.513	-60.76
230.731	64.17
230.948	15.02
231.166	21.16
231.384	33.45
231.601	76.46
231.819	21.16
232.037	53.93
232.254	62.12
232.472	51.88
232.689	4.78
232.907	86.7
233.125	10.92
233.342	37.55
233.56	-13.65
233.777	62.12
233.995	4.78
234.213	35.5
234.43	47.79
234.648	76.46
234.865	-17.75
235.083	19.11
235.3	35.5
235.518	43.69
235.735	53.93
235.953	55.98
236.17	58.03
236.388	70.31
236.605	-58.71
236.822	15.02
237.04	49.83
237.257	0.68
237.475	49.83
237.692	33.45
237.909	92.84
238.127	68.27
238.344	-7.51
238.562	31.4
238.779	72.36
238.996	76.46
239.214	-1.37
239.431	101.03
239.648	-23.89
239.865	111.27
240.083	62.12
240.3	-21.85
240.517	35.5
240.735	103.08
240.952	27.31
241.169	109.23
241.386	58.03
241.603	-11.61
241.821	47.79
242.038	62.12
242.255	47.79
242.472	51.88
242.689	41.64
242.907	27.31
243.124	39.59
243.341	-13.65
243.558	41.64
243.775	41.64
243.992	-50.52
244.209	19.11
244.426	-34.13
244.643	72.36
244.86	2.73
245.078	88.75
245.295	-1.37
245.512	35.5
245.729	21.16
245.946	8.87
246.163	41.64
246.38	47.79
246.597	4.78
246.814	49.83
247.031	-3.41
247.248	84.65
247.464	33.45
247.681	15.02
247.898	94.89
248.115	64.17
248.332	10.92
248.549	55.98
248.766	39.59
248.983	35.5
249.2	45.74
249.417	58.03
249.633	-30.04
249.85	19.11
250.067	68.27
250.284	17.07
250.501	29.35
250.717	78.51
250.934	64.17
251.151	33.45
251.368	49.83
251.585	68.27
251.801	31.4
252.018	17.07
252.235	-3.41
252.451	51.88
252.668	33.45
252.885	-56.66
253.102	35.5
253.318	53.93
253.535	43.69
253.752	74.41
253.968	8.87
254.185	49.83
254.401	-11.61
254.618	31.4
254.835	8.87
255.051	53.93
255.268	47.79
255.484	31.4
255.701	47.79
255.917	60.07
256.134	51.88
256.351	4.78
256.567	17.07
256.784	84.65
257	-9.56
257.217	84.65
257.433	-13.65
257.65	88.75
257.866	84.65
258.082	-21.85
258.299	-27.99
258.515	66.22
258.732	-32.08
258.948	-7.51
259.165	-13.65
259.381	-83.28
259.597	6.83
259.814	49.83
260.03	19.11
260.246	72.36
260.463	60.07
260.679	68.27
260.895	-48.47
261.112	15.02
261.328	101.03
261.544	45.74
261.761	55.98
261.977	0.68
262.193	58.03
262.409	6.83
262.626	23.21
262.842	-11.61
263.058	23.21
263.274	66.22
263.49	51.88
263.707	51.88
263.923	45.74
264.139	6.83
264.355	-13.65
264.571	-13.65
264.787	41.64
265.004	94.89
265.22	-11.61
265.436	21.16
265.652	27.31
265.868	23.21
266.084	4.78
266.3	31.4
266.516	58.03
266.732	27.31
266.948	74.41
267.164	2.73
267.38	82.6
267.596	35.5
267.812	25.26
268.028	10.92
268.244	51.88
268.46	68.27
268.676	60.07
268.892	66.22
269.108	45.74
269.324	12.97
269.54	62.12
269.756	21.16
269.972	27.31
270.188	41.64
270.403	35.5
270.619	-9.56
270.835	-3.41
271.051	111.27
271.267	66.22
271.483	47.79
271.698	-5.46
271.914	64.17
272.13	27.31
272.346	-27.99
272.562	21.16
272.777	12.97
272.993	76.46
273.209	27.31
273.425	8.87
273.64	60.07
273.856	19.11
274.072	51.88
274.287	62.12
274.503	-21.85
274.719	10.92
274.934	68.27
275.15	51.88
275.366	-56.66
275.581	43.69
275.797	25.26
276.012	72.36
276.228	-36.18
276.444	8.87
276.659	94.89
276.875	8.87
277.09	78.51
277.306	27.31
277.521	43.69
277.737	90.79
277.952	78.51
278.168	66.22
278.383	-1.37
278.599	-3.41
278.814	74.41
279.03	107.18
279.245	6.83
279.461	41.64
279.676	15.02
279.892	25.26
280.107	43.69
280.322	10.92
280.538	10.92
280.753	29.35
280.969	-3.41
281.184	-5.46
281.399	62.12
281.615	27.31
281.83	68.27
282.045	68.27
282.26	45.74
282.476	35.5
282.691	-5.46
282.906	-3.41
283.122	-17.75
283.337	8.87
283.552	19.11
283.767	84.65
283.983	55.98
284.198	-21.85
284.413	123.56
284.628	27.31
284.843	64.17
285.058	29.35
285.274	21.16
285.489	21.16
285.704	88.75
285.919	47.79
286.134	-27.99
286.349	31.4
286.564	45.74
286.779	39.59
286.995	94.89
287.21	2.73
287.425	19.11
287.64	135.85
287.855	10.92
288.07	-1.37
288.285	55.98
288.5	10.92
288.715	60.07
288.93	35.5
289.145	8.87
289.36	37.55
289.575	-13.65
289.79	101.03
290.004	51.88
290.219	62.12
290.434	15.02
290.649	10.92
290.864	72.36
291.079	47.79
291.294	25.26
291.509	31.4
291.724	31.4
291.938	43.69
292.153	45.74
292.368	101.03
292.583	31.4
292.798	55.98
293.012	88.75
293.227	41.64
293.442	12.97
293.657	51.88
293.871	58.03
294.086	4.78
294.301	2.73
294.516	64.17
294.73	37.55
294.945	-83.28
295.16	90.79
295.374	64.17
295.589	82.6
295.804	39.59
296.018	2.73
296.233	64.17
296.447	-44.37
296.662	39.59
296.877	21.16
297.091	15.02
297.306	76.46
297.52	58.03
297.735	27.31
297.949	-50.52
298.164	31.4
298.378	27.31
298.593	39.59
298.807	-11.61
299.022	64.17
299.236	76.46
299.451	62.12
299.665	51.88
299.88	19.11
300.094	6.83
300.309	23.21
300.523	47.79
300.737	101.03
300.952	78.51
301.166	25.26
301.381	58.03
301.595	62.12
301.809	-32.08
302.024	94.89
302.238	6.83
302.452	84.65
302.667	86.7
302.881	6.83
303.095	-13.65
303.309	2.73
303.524	144.04
303.738	37.55
303.952	45.74
304.166	135.85
304.381	-15.7
304.595	58.03
304.809	17.07
305.023	-3.41
305.237	21.16
305.452	51.88
305.666	15.02
305.88	-3.41
306.094	12.97
306.308	17.07
306.522	84.65
306.736	55.98
306.95	78.51
307.164	4.78
307.379	49.83
307.593	113.32
307.807	74.41
308.021	82.6
308.235	62.12
308.449	31.4
308.663	37.55
308.877	55.98
309.091	27.31
309.305	45.74
309.519	0.68
309.733	105.13
309.947	23.21
310.161	31.4
310.374	51.88
310.588	39.59
310.802	2.73
311.016	25.26
311.23	-21.85
311.444	39.59
311.658	-38.23
311.872	88.75
312.085	96.94
312.299	45.74
312.513	35.5
312.727	15.02
312.941	68.27
313.154	21.16
313.368	31.4
313.582	55.98
313.796	-1.37
314.009	10.92
314.223	60.07
314.437	31.4
314.651	-13.65
314.864	47.79
315.078	12.97
315.292	58.03
315.505	-1.37
315.719	33.45
315.933	-17.75
316.146	60.07
316.36	88.75
316.573	39.59
316.787	35.5
317.001	15.02
317.214	43.69
317.428	49.83
317.641	68.27
317.855	10.92
318.068	43.69
318.282	62.12
318.495	62.12
318.709	35.5
318.922	78.51
319.136	49.83
319.349	-30.04
319.563	45.74
319.776	-3.41
319.99	70.31
320.203	19.11
320.417	68.27
320.63	19.11
320.843	45.74
321.057	92.84
321.27	27.31
321.483	58.03
321.697	62.12
321.91	-58.71
322.124	23.21
322.337	60.07
322.55	37.55
322.763	23.21
322.977	103.08
323.19	-13.65
323.403	39.59
323.617	98.99
323.83	12.97
324.043	47.79
324.256	96.94
324.469	12.97
324.683	-40.28
324.896	-11.61
325.109	96.94
325.322	47.79
325.535	45.74
325.748	88.75
325.962	-62.8
326.175	62.12
326.388	84.65
326.601	43.69
326.814	141.99
327.027	49.83
327.24	78.51
327.453	43.69
327.666	19.11
327.879	74.41
328.092	53.93
328.305	53.93
328.518	-58.71
328.731	45.74
328.944	0.68
329.157	64.17
329.37	31.4
329.583	121.51
329.796	105.13
330.009	37.55
330.222	86.7
330.435	17.07
330.648	15.02
330.861	-17.75
331.073	41.64
331.286	76.46
331.499	19.11
331.712	8.87
331.925	64.17
332.138	113.32
332.35	35.5
332.563	25.26
332.776	-17.75
332.989	43.69
333.202	23.21
333.414	39.59
333.627	84.65
333.84	-5.46
334.053	12.97
334.265	23.21
334.478	23.21
334.691	66.22
334.903	45.74
335.116	-19.8
335.329	58.03
335.541	43.69
335.754	60.07
335.966	-3.41
336.179	66.22
336.392	0.68
336.604	-34.13
336.817	17.07
337.029	47.79
337.242	-5.46
337.454	125.61
337.667	33.45
337.88	62.12
338.092	-42.32
338.305	21.16
338.517	53.93
338.729	51.88
338.942	55.98
339.154	39.59
339.367	-30.04
339.579	10.92
339.792	80.55
340.004	19.11
340.217	35.5
340.429	49.83
340.641	12.97
340.854	111.27
341.066	49.83
341.278	33.45
341.491	60.07
341.703	88.75
341.915	64.17
342.128	-9.56
342.34	-21.85
342.552	23.21
342.764	109.23
342.977	8.87
343.189	27.31
343.401	8.87
343.613	-9.56
343.826	-19.8
344.038	-11.61
344.25	101.03
344.462	43.69
344.674	111.27
344.886	41.64
345.099	125.61
345.311	74.41
345.523	-60.76
345.735	17.07
345.947	70.31
346.159	55.98
346.371	105.13
346.583	68.27
346.795	33.45
347.007	88.75
347.219	88.75
347.431	23.21
347.643	43.69
347.855	-32.08
348.067	31.4
348.279	39.59
348.491	45.74
348.703	17.07
348.915	27.31
349.127	58.03
349.339	78.51
349.551	45.74
349.763	92.84
349.975	70.31
350.187	47.79
350.399	125.61
350.61	82.6
350.822	62.12
351.034	82.6
351.246	47.79
351.458	101.03
351.669	10.92
351.881	55.98
352.093	-3.41
352.305	90.79
352.517	148.14
352.728	68.27
352.94	35.5
353.152	92.84
353.363	72.36
353.575	39.59
353.787	49.83
353.999	115.37
354.21	64.17
354.422	96.94
354.633	90.79
354.845	82.6
355.057	80.55
355.268	78.51
355.48	-17.75
355.692	23.21
355.903	-5.46
356.115	80.55
356.326	33.45
356.538	94.89
356.749	39.59
356.961	96.94
357.172	78.51
357.384	27.31
357.595	51.88
357.807	62.12
358.018	45.74
358.23	-13.65
358.441	0.68
358.653	84.65
358.864	70.31
359.075	43.69
359.287	72.36
359.498	103.08
359.709	74.41
359.921	60.07
360.132	39.59
360.344	70.31
360.555	90.79
360.766	84.65
360.977	86.7
361.189	19.11
361.4	19.11
361.611	96.94
361.823	64.17
362.034	70.31
362.245	43.69
362.456	109.23
362.667	12.97
362.879	64.17
363.09	25.26
363.301	55.98
363.512	10.92
363.723	94.89
363.935	82.6
364.146	37.55
364.357	8.87
364.568	51.88
364.779	31.4
364.99	51.88
365.201	94.89
365.412	84.65
365.623	-15.7
365.834	92.84
366.045	-11.61
366.256	74.41
366.467	90.79
366.678	103.08
366.889	70.31
367.1	70.31
367.311	66.22
367.522	23.21
367.733	111.27
367.944	84.65
368.155	90.79
368.366	70.31
368.577	19.11
368.788	96.94
368.999	39.59
369.209	68.27
369.42	88.75
369.631	84.65
369.842	31.4
370.053	88.75
370.264	105.13
370.474	35.5
370.685	62.12
370.896	53.93
371.107	25.26
371.317	94.89
371.528	53.93
371.739	80.55
371.95	60.07
372.16	47.79
372.371	43.69
372.582	62.12
372.792	117.42
373.003	113.32
373.214	31.4
373.424	66.22
373.635	47.79
373.846	111.27
374.056	41.64
374.267	43.69
374.477	84.65
374.688	72.36
374.898	23.21
375.109	19.11
375.319	17.07
375.53	12.97
375.74	35.5
375.951	53.93
376.161	107.18
376.372	39.59
376.582	53.93
376.793	92.84
377.003	84.65
377.214	105.13
377.424	88.75
377.635	27.31
377.845	78.51
378.055	121.51
378.266	12.97
378.476	27.31
378.686	109.23
378.897	25.26
379.107	72.36
379.317	8.87
379.528	103.08
379.738	47.79
379.948	129.7
380.158	2.73
380.369	76.46
380.579	60.07
380.789	135.85
380.999	10.92
381.21	70.31
381.42	35.5
381.63	10.92
381.84	88.75
382.05	39.59
382.261	80.55
382.471	68.27
382.681	27.31
382.891	92.84
383.101	92.84
383.311	31.4
383.521	84.65
383.731	17.07
383.941	86.7
384.151	68.27
384.361	94.89
384.571	51.88
384.781	2.73
384.991	105.13
385.201	72.36
385.411	105.13
385.621	37.55
385.831	-34.13
386.041	43.69
386.251	60.07
386.461	64.17
386.671	103.08
386.881	78.51
387.091	84.65
387.301	117.42
387.511	80.55
387.72	49.83
387.93	0.68
388.14	74.41
388.35	60.07
388.56	111.27
388.769	70.31
388.979	45.74
389.189	-17.75
389.399	146.09
389.609	70.31
389.818	90.79
390.028	66.22
390.238	66.22
390.447	55.98
390.657	115.37
390.867	43.69
391.076	92.84
391.286	68.27
391.496	98.99
391.705	2.73
391.915	82.6
392.125	117.42
392.334	141.99
392.544	62.12
392.753	29.35
392.963	60.07
393.172	92.84
393.382	21.16
393.591	162.47
393.801	12.97
394.01	105.13
394.22	58.03
394.429	68.27
394.639	111.27
394.848	86.7
395.058	123.56
395.267	117.42
395.477	78.51
395.686	119.46
395.895	76.46
396.105	78.51
396.314	88.75
396.524	92.84
396.733	101.03
396.942	70.31
397.152	127.66
397.361	195.24
397.57	66.22
397.78	68.27
397.989	105.13
398.198	72.36
398.407	113.32
398.617	160.42
398.826	90.79
399.035	92.84
399.244	139.94
399.453	105.13
399.663	201.38
399.872	156.33
400.081	168.62
400.29	125.61
400.499	105.13
400.708	129.7
400.917	60.07
401.127	160.42
401.336	131.75
401.545	125.61
401.754	144.04
401.963	168.62
402.172	172.71
402.381	185
402.59	141.99
402.799	101.03
403.008	127.66
403.217	141.99
403.426	162.47
403.635	133.8
403.844	117.42
404.053	195.24
404.262	129.7
404.471	230.06
404.68	105.13
404.888	209.58
405.097	180.9
405.306	217.77
405.515	185
405.724	166.57
405.933	152.23
406.142	264.87
406.35	164.52
406.559	236.2
406.768	170.66
406.977	211.62
407.185	264.87
407.394	273.06
407.603	228.01
407.812	225.96
408.02	211.62
408.229	238.25
408.438	281.25
408.646	289.45
408.855	273.06
409.064	336.55
409.272	328.36
409.481	330.41
409.69	357.03
409.898	389.8
410.107	297.64
410.315	391.84
410.524	375.46
410.733	367.27
410.941	404.13
411.15	385.7
411.358	385.7
411.567	451.24
411.775	486.05
411.984	498.34
412.192	484
412.401	508.58
412.609	547.49
412.818	527.01
413.026	557.73
413.234	606.88
413.443	592.55
413.651	527.01
413.86	625.31
414.068	723.62
414.276	688.8
414.485	643.74
414.693	733.86
414.901	783.01
415.11	826.01
415.318	764.57
415.526	905.88
415.734	930.46
415.943	858.78
416.151	1004.19
416.359	952.99
416.567	961.18
416.776	973.47
416.984	1102.49
417.192	1102.49
417.4	1125.02
417.608	1034.91
417.817	1192.6
418.025	1190.55
418.233	1329.81
418.441	1323.67
418.649	1338.01
418.857	1518.23
419.065	1432.21
419.273	1456.79
419.481	1555.09
419.689	1669.78
419.897	1616.53
420.105	1757.84
420.313	1708.69
420.521	1843.85
420.729	1839.76
420.937	1899.15
421.145	1987.21
421.353	2142.86
421.561	2192.01
421.769	2329.22
421.977	2392.71
422.185	2353.8
422.393	2480.77
422.601	2515.59
422.809	2607.75
423.017	2517.64
423.224	2597.51
423.432	2833.02
423.64	2867.84
423.848	2990.72
424.056	3000.96
424.263	3140.22
424.471	3213.95
424.679	3136.12
424.887	3576.44
425.094	3609.2
425.302	3541.62
425.51	3654.26
425.718	3809.9
425.925	3889.78
426.133	3959.41
426.341	4160.11
426.548	4489.83
426.756	4409.96
426.964	4405.86
427.171	4737.63
427.379	4835.94
427.586	5032.54
427.794	5057.12
428.001	5161.56
428.209	5474.9
428.417	5354.07
428.624	5765.71
428.832	5870.16
429.039	5835.35
429.247	5814.87
429.454	6382.15
429.662	6707.78
429.869	6298.19
430.076	6824.51
430.284	6545.99
430.491	6861.38
430.699	7391.8
430.906	7383.61
431.114	7453.24
431.321	7690.81
431.528	7797.3
431.736	8266.28
431.943	8557.1
432.15	8632.87
432.358	8587.82
432.565	8958.5
432.772	9132.58
432.979	9380.38
433.187	9775.64
433.394	9591.32
433.601	10349.07
433.808	10205.71
434.016	10330.64
434.223	10797.57
434.43	11188.74
434.637	10902.02
434.844	11758.07
435.052	11864.57
435.259	11950.58
435.466	11977.2
435.673	11895.29
435.88	12765.67
436.087	13322.72
436.294	13285.86
436.501	12980.71
436.708	13105.63
436.915	13840.86
437.122	14528.97
437.329	14195.15
437.537	14801.35
437.743	14823.88
437.95	14838.22
438.157	15618.49
438.364	16263.6
438.571	16036.28
438.778	16445.87
438.985	17652.13
439.192	17101.22
439.399	17566.11
439.606	17263.01
439.813	18184.6
440.02	19399.04
440.227	18719.12
440.433	18917.77
440.64	19435.91
440.847	19233.16
441.054	19659.13
441.261	21041.51
441.467	20855.15
441.674	21469.54
441.881	21858.65
442.088	21893.47
442.294	21711.2
442.501	22165.85
442.708	22751.57
442.914	23722.3
443.121	24518.96
443.328	24062.27
443.534	25588
443.741	24762.67
443.948	24310.07
444.154	26284.31
444.361	25909.54
444.568	26722.58
444.774	26333.46
444.981	26509.59
445.187	27433.22
445.394	28479.74
445.6	28303.61
445.807	30922.96
446.013	29313.26
446.22	30025.95
446.426	31262.93
446.633	31596.74
446.839	32420.03
447.046	31193.29
447.252	32647.35
447.459	33077.43
447.665	32735.42
447.871	34551.96
448.078	35311.76
448.284	34234.53
448.491	35254.42
448.697	35942.53
448.903	36810.87
449.11	37011.57
449.316	36374.66
449.522	36823.16
449.728	37720.17
449.935	38662.24
450.141	38361.19
450.347	38994.01
450.553	38205.54
450.76	38371.43
450.966	39536.72
451.172	39225.43
451.378	40149.06
451.584	39030.87
451.791	40183.88
451.997	40136.77
452.203	40931.39
452.409	40409.15
452.615	40562.75
452.821	38520.93
453.027	38705.24
453.233	40159.3
453.44	38701.15
453.646	39186.52
453.852	39295.06
454.058	39882.83
454.264	39080.02
454.47	39866.44
454.676	38756.44
454.882	40429.63
455.088	36413.57
455.294	37539.95
455.5	37691.5
455.705	37904.49
455.911	36495.49
456.117	35954.82
456.323	35489.93
456.529	33282.22
456.735	35188.88
456.941	33820.84
457.147	33908.9
457.352	32886.96
457.558	32063.68
457.764	32329.92
457.97	31418.57
458.176	31150.29
458.381	30779.6
458.587	29489.38
458.793	29534.44
458.999	28190.97
459.204	30091.49
459.41	29042.93
459.616	27363.59
459.821	27195.66
460.027	27134.22
460.233	26618.13
460.438	25303.34
460.644	25454.89
460.85	24396.09
461.055	24066.36
461.261	24219.96
461.466	22409.56
461.672	21444.96
461.878	23064.91
462.083	21614.94
462.289	21272.93
462.494	21078.38
462.7	19904.89
462.905	19663.23
463.111	20201.85
463.316	20216.18
463.522	19992.95
463.727	19958.14
463.932	19712.38
464.138	19696
464.343	19808.64
464.549	19016.07
464.754	19765.63
464.959	19517.82
465.165	19452.29
465.37	18510.22
465.575	18229.65
465.781	18923.91
465.986	18973.07
466.191	18139.54
466.397	18008.47
466.602	17002.92
466.807	17836.44
467.012	17736.09
467.218	17725.85
