Data from USB4F104151__264__14-34-32-879.txt Node

Date: Thu Mar 13 14:34:32 EDT 2025
User: louis
Spectrometer: USB4F10415
Trigger mode: 4
Integration Time (sec): 2.500000E-2
Scans to average: 1
Electric dark correction enabled: true
Nonlinearity correction enabled: false
Boxcar width: 0
XAxis mode: Wavelengths
Number of Pixels in Spectrum: 3648
>>>>>Begin Spectral Data<<<<<
178.204	-208.38
178.424	-208.38
178.644	-208.38
178.864	-161.28
179.084	-210.43
179.304	33.28
179.524	-19.97
179.744	-32.26
179.964	16.9
180.184	6.66
180.404	-34.3
180.624	0.51
180.844	23.04
181.064	-1.54
181.283	14.85
181.503	-24.06
181.723	16.9
181.943	-83.45
182.163	33.28
182.383	6.66
182.602	-9.73
182.822	-9.73
183.042	51.71
183.262	-1.54
183.482	8.7
183.701	-9.73
183.921	31.23
184.141	-89.6
184.361	27.14
184.58	23.04
184.8	-30.21
185.02	-19.97
185.239	6.66
185.459	-7.68
185.679	43.52
185.898	-95.74
186.118	-24.06
186.338	-9.73
186.557	23.04
186.777	31.23
186.997	-15.87
187.216	6.66
187.436	-5.63
187.655	16.9
187.875	33.28
188.095	-13.82
188.314	64
188.534	59.9
188.753	-34.3
188.973	-50.69
189.192	43.52
189.412	6.66
189.631	55.81
189.851	-7.68
190.07	47.62
190.29	-54.78
190.509	25.09
190.729	25.09
190.948	14.85
191.168	129.53
191.387	31.23
191.607	45.57
191.826	-1.54
192.045	-9.73
192.265	-3.58
192.484	-42.5
192.704	47.62
192.923	-3.58
193.142	92.67
193.362	-32.26
193.581	43.52
193.8	16.9
194.02	-9.73
194.239	-13.82
194.458	64
194.678	-5.63
194.897	47.62
195.116	72.19
195.335	27.14
195.555	23.04
195.774	49.66
195.993	6.66
196.212	-22.02
196.432	-15.87
196.651	-81.41
196.87	-42.5
197.089	115.2
197.308	-22.02
197.528	80.38
197.747	43.52
197.966	47.62
198.185	113.15
198.404	-1.54
198.623	68.09
198.842	31.23
199.062	88.57
199.281	139.77
199.5	-26.11
199.719	2.56
199.938	100.86
200.157	27.14
200.376	35.33
200.595	33.28
200.814	6.66
201.033	-83.45
201.252	33.28
201.471	-7.68
201.69	-38.4
201.909	-32.26
202.128	27.14
202.347	-7.68
202.566	-71.17
202.785	-19.97
203.004	2.56
203.223	64
203.442	61.95
203.661	6.66
203.879	-30.21
204.098	25.09
204.317	23.04
204.536	68.09
204.755	-9.73
204.974	37.38
205.193	10.75
205.411	96.77
205.63	59.9
205.849	72.19
206.068	-9.73
206.287	72.19
206.505	-3.58
206.724	-28.16
206.943	-40.45
207.162	-24.06
207.381	16.9
207.599	-75.26
207.818	14.85
208.037	23.04
208.255	33.28
208.474	96.77
208.693	39.42
208.911	4.61
209.13	-17.92
209.349	43.52
209.567	31.23
209.786	16.9
210.005	31.23
210.223	-17.92
210.442	-54.78
210.661	23.04
210.879	47.62
211.098	-1.54
211.316	0.51
211.535	2.56
211.753	-7.68
211.972	-22.02
212.191	16.9
212.409	88.57
212.628	31.23
212.846	-24.06
213.065	-26.11
213.283	35.33
213.502	-7.68
213.72	43.52
213.938	-9.73
214.157	29.18
214.375	23.04
214.594	-19.97
214.812	14.85
215.031	-9.73
215.249	-48.64
215.467	4.61
215.686	-38.4
215.904	18.94
216.122	-75.26
216.341	119.29
216.559	45.57
216.778	82.43
216.996	82.43
217.214	35.33
217.432	-1.54
217.651	23.04
217.869	-1.54
218.087	-15.87
218.306	-38.4
218.524	-17.92
218.742	-38.4
218.96	43.52
219.179	31.23
219.397	-9.73
219.615	123.39
219.833	6.66
220.051	-79.36
220.27	27.14
220.488	47.62
220.706	64
220.924	-83.45
221.142	-26.11
221.36	41.47
221.578	90.62
221.796	-44.54
222.015	-9.73
222.233	-17.92
222.451	41.47
222.669	25.09
222.887	76.29
223.105	-24.06
223.323	33.28
223.541	6.66
223.759	55.81
223.977	-3.58
224.195	82.43
224.413	51.71
224.631	0.51
224.849	-1.54
225.067	43.52
225.285	14.85
225.503	84.48
225.721	-15.87
225.939	27.14
226.157	14.85
226.375	145.92
226.592	55.81
226.81	-1.54
227.028	35.33
227.246	47.62
227.464	6.66
227.682	57.86
227.9	74.24
228.117	14.85
228.335	-34.3
228.553	-9.73
228.771	-19.97
228.989	-17.92
229.206	-7.68
229.424	-34.3
229.642	-46.59
229.86	4.61
230.077	33.28
230.295	-19.97
230.513	43.52
230.731	57.86
230.948	47.62
231.166	80.38
231.384	-62.98
231.601	-7.68
231.819	10.75
232.037	14.85
232.254	-24.06
232.472	18.94
232.689	-73.21
232.907	25.09
233.125	41.47
233.342	-13.82
233.56	-65.02
233.777	23.04
233.995	23.04
234.213	2.56
234.43	-17.92
234.648	-9.73
234.865	6.66
235.083	64
235.3	-17.92
235.518	2.56
235.735	2.56
235.953	61.95
236.17	64
236.388	-34.3
236.605	82.43
236.822	72.19
237.04	39.42
237.257	74.24
237.475	-24.06
237.692	66.05
237.909	6.66
238.127	-56.83
238.344	70.14
238.562	35.33
238.779	-136.7
238.996	-62.98
239.214	53.76
239.431	2.56
239.648	64
239.865	31.23
240.083	8.7
240.3	31.23
240.517	-22.02
240.735	4.61
240.952	-17.92
241.169	64
241.386	-62.98
241.603	-48.64
241.821	-58.88
242.038	23.04
242.255	-40.45
242.472	-7.68
242.689	55.81
242.907	35.33
243.124	8.7
243.341	2.56
243.558	-67.07
243.775	-56.83
243.992	-83.45
244.209	-67.07
244.426	96.77
244.643	25.09
244.86	45.57
245.078	8.7
245.295	0.51
245.512	-13.82
245.729	-24.06
245.946	25.09
246.163	18.94
246.38	-79.36
246.597	-28.16
246.814	-1.54
247.031	-9.73
247.248	27.14
247.464	14.85
247.681	10.75
247.898	-17.92
248.115	90.62
248.332	-73.21
248.549	14.85
248.766	20.99
248.983	-5.63
249.2	47.62
249.417	31.23
249.633	12.8
249.85	88.57
250.067	18.94
250.284	8.7
250.501	-50.69
250.717	-15.87
250.934	-50.69
251.151	-26.11
251.368	-50.69
251.585	-9.73
251.801	-42.5
252.018	84.48
252.235	31.23
252.451	-34.3
252.668	57.86
252.885	61.95
253.102	25.09
253.318	-50.69
253.535	8.7
253.752	43.52
253.968	39.42
254.185	-13.82
254.401	-77.31
254.618	41.47
254.835	-30.21
255.051	59.9
255.268	31.23
255.484	-9.73
255.701	-32.26
255.917	27.14
256.134	-69.12
256.351	-130.56
256.567	-120.32
256.784	23.04
257	-60.93
257.217	2.56
257.433	8.7
257.65	84.48
257.866	2.56
258.082	-26.11
258.299	6.66
258.515	16.9
258.732	23.04
258.948	74.24
259.165	-36.35
259.381	-46.59
259.597	-15.87
259.814	49.66
260.03	2.56
260.246	2.56
260.463	23.04
260.679	25.09
260.895	-9.73
261.112	-5.63
261.328	-9.73
261.544	-1.54
261.761	88.57
261.977	14.85
262.193	-46.59
262.409	55.81
262.626	84.48
262.842	14.85
263.058	107.01
263.274	14.85
263.49	68.09
263.707	57.86
263.923	-17.92
264.139	-73.21
264.355	-73.21
264.571	127.49
264.787	47.62
265.004	64
265.22	127.49
265.436	-9.73
265.652	-34.3
265.868	6.66
266.084	-9.73
266.3	-36.35
266.516	-65.02
266.732	23.04
266.948	-26.11
267.164	47.62
267.38	-1.54
267.596	8.7
267.812	82.43
268.028	18.94
268.244	4.61
268.46	-42.5
268.676	-46.59
268.892	92.67
269.108	-32.26
269.324	-67.07
269.54	2.56
269.756	45.57
269.972	-42.5
270.188	57.86
270.403	-9.73
270.619	31.23
270.835	55.81
271.051	6.66
271.267	-13.82
271.483	43.52
271.698	2.56
271.914	14.85
272.13	-1.54
272.346	-17.92
272.562	12.8
272.777	23.04
272.993	-32.26
273.209	14.85
273.425	2.56
273.64	-40.45
273.856	10.75
274.072	27.14
274.287	6.66
274.503	92.67
274.719	31.23
274.934	55.81
275.15	-50.69
275.366	10.75
275.581	14.85
275.797	55.81
276.012	-50.69
276.228	49.66
276.444	14.85
276.659	47.62
276.875	18.94
277.09	14.85
277.306	31.23
277.521	2.56
277.737	14.85
277.952	-7.68
278.168	-34.3
278.383	-13.82
278.599	-62.98
278.814	41.47
279.03	-50.69
279.245	35.33
279.461	14.85
279.676	-26.11
279.892	-67.07
280.107	6.66
280.322	-9.73
280.538	4.61
280.753	6.66
280.969	-17.92
281.184	-24.06
281.399	72.19
281.615	-67.07
281.83	-58.88
282.045	-52.74
282.26	29.18
282.476	-17.92
282.691	82.43
282.906	31.23
283.122	6.66
283.337	-56.83
283.552	-7.68
283.767	53.76
283.983	55.81
284.198	0.51
284.413	6.66
284.628	-54.78
284.843	23.04
285.058	-3.58
285.274	14.85
285.489	37.38
285.704	23.04
285.919	-34.3
286.134	47.62
286.349	2.56
286.564	-34.3
286.779	51.71
286.995	31.23
287.21	-108.03
287.425	98.81
287.64	-17.92
287.855	55.81
288.07	-28.16
288.285	14.85
288.5	-15.87
288.715	23.04
288.93	-50.69
289.145	-7.68
289.36	47.62
289.575	8.7
289.79	55.81
290.004	39.42
290.219	23.04
290.434	33.28
290.649	-67.07
290.864	70.14
291.079	-44.54
291.294	96.77
291.509	39.42
291.724	-15.87
291.938	-30.21
292.153	-9.73
292.368	8.7
292.583	29.18
292.798	47.62
293.012	57.86
293.227	49.66
293.442	-13.82
293.657	18.94
293.871	64
294.086	-7.68
294.301	66.05
294.516	117.25
294.73	98.81
294.945	-38.4
295.16	-48.64
295.374	76.29
295.589	-3.58
295.804	6.66
296.018	-26.11
296.233	39.42
296.447	-17.92
296.662	68.09
296.877	-24.06
297.091	82.43
297.306	-26.11
297.52	-5.63
297.735	23.04
297.949	39.42
298.164	-17.92
298.378	45.57
298.593	-13.82
298.807	-79.36
299.022	-17.92
299.236	35.33
299.451	33.28
299.665	-42.5
299.88	-38.4
300.094	2.56
300.309	64
300.523	35.33
300.737	16.9
300.952	23.04
301.166	-32.26
301.381	-15.87
301.595	-9.73
301.809	-26.11
302.024	51.71
302.238	31.23
302.452	49.66
302.667	25.09
302.881	23.04
303.095	88.57
303.309	12.8
303.524	51.71
303.738	10.75
303.952	-79.36
304.166	68.09
304.381	-26.11
304.595	45.57
304.809	-24.06
305.023	35.33
305.237	25.09
305.452	-26.11
305.666	-13.82
305.88	82.43
306.094	57.86
306.308	35.33
306.522	10.75
306.736	43.52
306.95	31.23
307.164	-46.59
307.379	-3.58
307.593	55.81
307.807	14.85
308.021	31.23
308.235	-42.5
308.449	31.23
308.663	47.62
308.877	96.77
309.091	-40.45
309.305	8.7
309.519	-26.11
309.733	35.33
309.947	-38.4
310.161	12.8
310.374	64
310.588	88.57
310.802	-17.92
311.016	8.7
311.23	18.94
311.444	6.66
311.658	-40.45
311.872	47.62
312.085	57.86
312.299	33.28
312.513	68.09
312.727	64
312.941	-24.06
313.154	35.33
313.368	-9.73
313.582	18.94
313.796	23.04
314.009	23.04
314.223	47.62
314.437	14.85
314.651	4.61
314.864	16.9
315.078	59.9
315.292	-67.07
315.505	8.7
315.719	-7.68
315.933	2.56
316.146	8.7
316.36	-87.55
316.573	64
316.787	76.29
317.001	88.57
317.214	29.18
317.428	2.56
317.641	-26.11
317.855	-17.92
318.068	-9.73
318.282	-1.54
318.495	92.67
318.709	-50.69
318.922	8.7
319.136	2.56
319.349	0.51
319.563	-58.88
319.776	80.38
319.99	-5.63
320.203	-34.3
320.417	0.51
320.63	-17.92
320.843	51.71
321.057	45.57
321.27	23.04
321.483	37.38
321.697	31.23
321.91	8.7
322.124	51.71
322.337	-13.82
322.55	43.52
322.763	23.04
322.977	14.85
323.19	37.38
323.403	35.33
323.617	27.14
323.83	6.66
324.043	-38.4
324.256	80.38
324.469	-22.02
324.683	-52.74
324.896	-15.87
325.109	31.23
325.322	-24.06
325.535	64
325.748	51.71
325.962	25.09
326.175	-56.83
326.388	-9.73
326.601	47.62
326.814	2.56
327.027	-13.82
327.24	96.77
327.453	-15.87
327.666	39.42
327.879	86.53
328.092	0.51
328.305	-83.45
328.518	6.66
328.731	-22.02
328.944	-22.02
329.157	-52.74
329.37	8.7
329.583	16.9
329.796	66.05
330.009	-26.11
330.222	-7.68
330.435	16.9
330.648	35.33
330.861	47.62
331.073	90.62
331.286	8.7
331.499	74.24
331.712	-40.45
331.925	-1.54
332.138	-38.4
332.35	-30.21
332.563	-7.68
332.776	-5.63
332.989	-56.83
333.202	4.61
333.414	-1.54
333.627	16.9
333.84	35.33
334.053	96.77
334.265	29.18
334.478	-34.3
334.691	47.62
334.903	47.62
335.116	14.85
335.329	31.23
335.541	64
335.754	100.86
335.966	23.04
336.179	-17.92
336.392	16.9
336.604	49.66
336.817	96.77
337.029	25.09
337.242	-28.16
337.454	10.75
337.667	-34.3
337.88	109.05
338.092	45.57
338.305	-15.87
338.517	-60.93
338.729	31.23
338.942	35.33
339.154	-34.3
339.367	-42.5
339.579	57.86
339.792	-9.73
340.004	68.09
340.217	-26.11
340.429	14.85
340.641	-34.3
340.854	20.99
341.066	-9.73
341.278	25.09
341.491	-1.54
341.703	57.86
341.915	41.47
342.128	-1.54
342.34	10.75
342.552	41.47
342.764	-5.63
342.977	31.23
343.189	10.75
343.401	107.01
343.613	4.61
343.826	6.66
344.038	39.42
344.25	14.85
344.462	0.51
344.674	45.57
344.886	-42.5
345.099	2.56
345.311	8.7
345.523	33.28
345.735	-60.93
345.947	-30.21
346.159	29.18
346.371	35.33
346.583	23.04
346.795	64
347.007	18.94
347.219	68.09
347.431	-7.68
347.643	33.28
347.855	-40.45
348.067	59.9
348.279	47.62
348.491	-28.16
348.703	23.04
348.915	70.14
349.127	25.09
349.339	-9.73
349.551	-40.45
349.763	49.66
349.975	51.71
350.187	90.62
350.399	-42.5
350.61	-44.54
350.822	-13.82
351.034	72.19
351.246	-46.59
351.458	-15.87
351.669	-9.73
351.881	-17.92
352.093	96.77
352.305	27.14
352.517	68.09
352.728	68.09
352.94	12.8
353.152	2.56
353.363	-22.02
353.575	-1.54
353.787	23.04
353.999	43.52
354.21	64
354.422	-34.3
354.633	-44.54
354.845	31.23
355.057	6.66
355.268	-9.73
355.48	35.33
355.692	12.8
355.903	-7.68
356.115	14.85
356.326	12.8
356.538	90.62
356.749	90.62
356.961	57.86
357.172	25.09
357.384	-17.92
357.595	68.09
357.807	-38.4
358.018	31.23
358.23	88.57
358.441	66.05
358.653	25.09
358.864	88.57
359.075	64
359.287	-9.73
359.498	45.57
359.709	-48.64
359.921	51.71
360.132	2.56
360.344	-15.87
360.555	-9.73
360.766	-1.54
360.977	29.18
361.189	64
361.4	-1.54
361.611	72.19
361.823	29.18
362.034	37.38
362.245	-11.78
362.456	-13.82
362.667	47.62
362.879	-54.78
363.09	23.04
363.301	-24.06
363.512	-5.63
363.723	-42.5
363.935	6.66
364.146	129.53
364.357	57.86
364.568	70.14
364.779	4.61
364.99	129.53
365.201	31.23
365.412	16.9
365.623	-42.5
365.834	49.66
366.045	14.85
366.256	70.14
366.467	45.57
366.678	64
366.889	14.85
367.1	-85.5
367.311	-9.73
367.522	-7.68
367.733	-56.83
367.944	33.28
368.155	12.8
368.366	84.48
368.577	2.56
368.788	0.51
368.999	64
369.209	6.66
369.42	66.05
369.631	80.38
369.842	33.28
370.053	8.7
370.264	59.9
370.474	-1.54
370.685	-46.59
370.896	-7.68
371.107	27.14
371.317	39.42
371.528	14.85
371.739	14.85
371.95	8.7
372.16	-1.54
372.371	-26.11
372.582	47.62
372.792	45.57
373.003	14.85
373.214	-19.97
373.424	70.14
373.635	-7.68
373.846	129.53
374.056	33.28
374.267	27.14
374.477	66.05
374.688	-22.02
374.898	-50.69
375.109	20.99
375.319	29.18
375.53	-42.5
375.74	-9.73
375.951	-1.54
376.161	0.51
376.372	55.81
376.582	8.7
376.793	10.75
377.003	31.23
377.214	14.85
377.424	59.9
377.635	27.14
377.845	-34.3
378.055	55.81
378.266	16.9
378.476	72.19
378.686	23.04
378.897	14.85
379.107	18.94
379.317	98.81
379.528	8.7
379.738	61.95
379.948	25.09
380.158	-17.92
380.369	-60.93
380.579	6.66
380.789	74.24
380.999	98.81
381.21	18.94
381.42	10.75
381.63	64
381.84	59.9
382.05	92.67
382.261	-1.54
382.471	104.96
382.681	80.38
382.891	43.52
383.101	-9.73
383.311	-26.11
383.521	47.62
383.731	57.86
383.941	43.52
384.151	4.61
384.361	18.94
384.571	41.47
384.781	-7.68
384.991	143.87
385.201	53.76
385.411	51.71
385.621	-5.63
385.831	0.51
386.041	20.99
386.251	-32.26
386.461	-17.92
386.671	6.66
386.881	49.66
387.091	-11.78
387.301	-48.64
387.511	2.56
387.72	115.2
387.93	23.04
388.14	-26.11
388.35	-58.88
388.56	139.77
388.769	14.85
388.979	-9.73
389.189	23.04
389.399	-24.06
389.609	-1.54
389.818	0.51
390.028	18.94
390.238	51.71
390.447	51.71
390.657	59.9
390.867	-1.54
391.076	-42.5
391.286	-9.73
391.496	51.71
391.705	-5.63
391.915	31.23
392.125	10.75
392.334	14.85
392.544	68.09
392.753	-28.16
392.963	2.56
393.172	51.71
393.382	-7.68
393.591	10.75
393.801	-17.92
394.01	45.57
394.22	-24.06
394.429	23.04
394.639	35.33
394.848	33.28
395.058	41.47
395.267	18.94
395.477	6.66
395.686	72.19
395.895	35.33
396.105	115.2
396.314	88.57
396.524	27.14
396.733	72.19
396.942	6.66
397.152	88.57
397.361	57.86
397.57	88.57
397.78	6.66
397.989	-7.68
398.198	109.05
398.407	150.01
398.617	137.73
398.826	16.9
399.035	-15.87
399.244	64
399.453	55.81
399.663	55.81
399.872	86.53
400.081	-28.16
400.29	117.25
400.499	74.24
400.708	137.73
400.917	6.66
401.127	80.38
401.336	-9.73
401.545	129.53
401.754	76.29
401.963	90.62
402.172	107.01
402.381	90.62
402.59	92.67
402.799	72.19
403.008	31.23
403.217	47.62
403.426	47.62
403.635	84.48
403.844	76.29
404.053	64
404.262	98.81
404.471	150.01
404.68	129.53
404.888	72.19
405.097	162.3
405.306	74.24
405.515	133.63
405.724	113.15
405.933	186.88
406.142	164.35
406.35	178.69
406.559	92.67
406.768	111.1
406.977	178.69
407.185	145.92
407.394	166.4
407.603	84.48
407.812	147.97
408.02	154.11
408.229	203.26
408.438	160.25
408.646	170.49
408.855	104.96
409.064	190.97
409.272	252.41
409.481	229.88
409.69	274.94
409.898	219.64
410.107	215.55
410.315	223.74
410.524	188.93
410.733	330.23
410.941	242.17
411.15	311.8
411.358	242.17
411.567	332.28
411.775	350.71
411.984	330.23
412.192	379.39
412.401	297.47
412.609	375.29
412.818	358.91
413.026	420.35
413.234	391.67
413.443	387.58
413.651	418.3
413.86	451.07
414.068	502.26
414.276	551.42
414.485	494.07
414.693	444.92
414.901	573.94
415.11	571.9
415.318	489.98
415.526	588.28
415.734	559.61
415.943	598.52
416.151	694.77
416.359	694.77
416.567	729.59
416.776	817.65
416.984	831.99
417.192	786.93
417.4	784.88
417.608	750.07
417.817	858.61
418.025	969.2
418.233	1008.11
418.441	909.81
418.649	924.15
418.857	899.57
419.065	1040.88
419.273	1010.16
419.481	1155.57
419.689	1186.29
419.897	1231.34
420.105	1145.33
420.313	1235.44
420.521	1278.44
420.729	1395.18
420.937	1366.51
421.145	1358.32
421.353	1475.05
421.561	1571.3
421.769	1597.93
421.977	1663.46
422.185	1573.35
422.393	1753.57
422.601	1751.53
422.809	1876.45
423.017	1765.86
423.224	1966.56
423.432	2071.01
423.64	1952.23
423.848	2169.31
424.056	2097.63
424.263	2277.85
424.471	2349.53
424.679	2327
424.887	2443.74
425.094	2488.79
425.302	2505.18
425.51	2714.07
425.718	2660.82
425.925	2845.14
426.133	2908.63
426.341	3004.88
426.548	3164.62
426.756	3156.43
426.964	3178.96
427.171	3398.09
427.379	3434.96
427.586	3494.35
427.794	3666.38
428.001	3672.52
428.209	3934.66
428.417	3891.65
428.624	4186.56
428.832	4143.55
429.039	4176.32
429.247	4135.36
429.454	4413.88
429.662	4630.97
429.869	4561.34
430.076	4794.81
430.284	4489.66
430.491	4864.44
430.699	5122.48
430.906	5206.45
431.114	5188.02
431.321	5374.38
431.528	5396.91
431.736	6035.88
431.943	6031.78
432.15	5978.53
432.358	5849.51
432.565	6408.61
432.772	6322.59
432.979	6570.4
433.187	6607.26
433.394	6670.75
433.601	7195.03
433.808	7326.1
434.016	6994.33
434.223	7389.58
434.43	7905.67
434.637	7797.13
434.844	8169.86
435.052	8331.65
435.259	8157.57
435.466	8247.68
435.673	8290.69
435.88	8663.42
436.087	9189.75
436.294	9402.74
436.501	9165.17
436.708	9144.69
436.915	9333.11
437.122	9918.82
437.329	9902.44
437.537	10197.35
437.743	10484.06
437.95	10357.09
438.157	10781.02
438.364	11004.25
438.571	11080.02
438.778	11198.81
438.985	12235.08
439.192	11565.39
439.399	12058.95
439.606	11796.81
439.813	12554.56
440.02	13269.3
440.227	12902.72
440.433	12917.05
440.64	13494.58
440.847	13224.25
441.054	13484.34
441.261	14301.48
441.467	14442.79
441.674	14467.36
441.881	15098.14
442.088	14952.73
442.294	14948.64
442.501	15354.13
442.708	15464.72
442.914	16175.37
443.121	16625.92
443.328	16359.69
443.534	17506.55
443.741	16922.88
443.948	16668.93
444.154	17981.68
444.361	17946.86
444.568	17957.1
444.774	18149.61
444.981	17971.44
445.187	18505.96
445.394	19599.57
445.6	19218.65
445.807	21182.65
446.013	20179.15
446.22	20687.04
446.426	21522.62
446.633	21426.36
446.839	22626.47
447.046	21565.62
447.252	22456.49
447.459	22782.12
447.665	22593.7
447.871	23304.35
448.078	24428.68
448.284	23222.43
448.491	24041.62
448.697	24854.66
448.903	25161.86
449.11	25124.99
449.316	25032.83
449.522	25575.55
449.728	25763.96
449.935	26294.38
450.141	26542.19
450.347	26916.97
450.553	26177.65
450.76	26355.82
450.966	27121.76
451.172	27111.52
451.378	27959.38
451.584	26937.44
451.791	27998.29
451.997	27711.58
452.203	28151.89
452.409	28274.77
452.615	28323.92
452.821	26822.76
453.027	26648.68
453.233	27842.65
453.44	26992.74
453.646	27392.09
453.852	27371.61
454.058	27813.98
454.264	26708.07
454.47	27480.16
454.676	26566.76
454.882	27521.12
455.088	25452.67
455.294	25454.72
455.5	26189.94
455.705	26155.12
455.911	25053.31
456.117	24680.58
456.323	24559.75
456.529	22868.13
456.735	24107.15
456.941	23247.01
457.147	22911.14
457.352	22522.02
457.558	22038.7
457.764	22276.27
457.97	21713.08
458.176	21113.02
458.381	21301.43
458.587	19974.35
458.793	19951.82
458.999	18981.09
459.204	20316.36
459.41	19683.54
459.616	18813.15
459.821	18325.74
460.027	18114.8
460.233	17910
460.438	17088.76
460.644	17195.26
460.85	16253.19
461.055	16042.25
461.261	16279.82
461.466	14803.23
461.672	14227.75
461.878	15618.32
462.083	14506.27
462.289	14100.78
462.494	13932.84
462.7	13359.41
462.905	13295.93
463.111	13367.6
463.316	13285.69
463.522	13244.73
463.727	13164.86
463.932	13295.93
464.138	12779.84
464.343	13199.67
464.549	12591.42
464.754	12910.91
464.959	12937.53
465.165	12583.23
465.37	12153.16
465.575	12142.92
465.781	12292.42
465.986	12360
466.191	12130.63
466.397	11927.88
466.602	11077.97
466.807	11430.23
467.012	11592.02
467.218	11618.64
467.423	11278.68
467.628	11383.12
467.833	11780.43
468.038	11166.04
