Data from USB4F104151__88__14-30-38-871.txt Node

Date: Thu Mar 13 14:30:38 EDT 2025
User: louis
Spectrometer: USB4F10415
Trigger mode: 4
Integration Time (sec): 2.500000E-2
Scans to average: 1
Electric dark correction enabled: true
Nonlinearity correction enabled: false
Boxcar width: 0
XAxis mode: Wavelengths
Number of Pixels in Spectrum: 3648
>>>>>Begin Spectral Data<<<<<
178.204	-118.27
178.424	-118.27
178.644	-118.27
178.864	-124.41
179.084	-128.51
179.304	-54.78
179.524	55.81
179.744	-28.16
179.964	25.09
180.184	14.85
180.404	29.18
180.624	23.04
180.844	-30.21
181.064	-30.21
181.283	-9.73
181.503	-11.78
181.723	16.9
181.943	-32.26
182.163	53.76
182.383	8.7
182.602	-11.78
182.822	68.09
183.042	10.75
183.262	2.56
183.482	-69.12
183.701	18.94
183.921	18.94
184.141	23.04
184.361	94.72
184.58	31.23
184.8	-13.82
185.02	72.19
185.239	35.33
185.459	31.23
185.679	41.47
185.898	-85.5
186.118	121.34
186.338	10.75
186.557	47.62
186.777	-3.58
186.997	-11.78
187.216	-54.78
187.436	102.91
187.655	14.85
187.875	18.94
188.095	37.38
188.314	35.33
188.534	92.67
188.753	39.42
188.973	51.71
189.192	68.09
189.412	92.67
189.631	51.71
189.851	-1.54
190.07	86.53
190.29	16.9
190.509	74.24
190.729	18.94
190.948	39.42
191.168	209.4
191.387	76.29
191.607	31.23
191.826	-3.58
192.045	-1.54
192.265	29.18
192.484	2.56
192.704	53.76
192.923	-62.98
193.142	84.48
193.362	61.95
193.581	27.14
193.8	-7.68
194.02	59.9
194.239	25.09
194.458	-30.21
194.678	-22.02
194.897	2.56
195.116	18.94
195.335	18.94
195.555	-38.4
195.774	-38.4
195.993	100.86
196.212	-30.21
196.432	8.7
196.651	-5.63
196.87	68.09
197.089	158.21
197.308	59.9
197.528	10.75
197.747	-11.78
197.966	6.66
198.185	125.44
198.404	43.52
198.623	125.44
198.842	51.71
199.062	23.04
199.281	72.19
199.5	43.52
199.719	78.33
199.938	57.86
200.157	68.09
200.376	47.62
200.595	76.29
200.814	-15.87
201.033	2.56
201.252	6.66
201.471	76.29
201.69	59.9
201.909	49.66
202.128	59.9
202.347	35.33
202.566	51.71
202.785	-15.87
203.004	-26.11
203.223	168.45
203.442	-13.82
203.661	18.94
203.879	2.56
204.098	61.95
204.317	43.52
204.536	100.86
204.755	61.95
204.974	-15.87
205.193	33.28
205.411	92.67
205.63	-9.73
205.849	10.75
206.068	18.94
206.287	2.56
206.505	20.99
206.724	94.72
206.943	18.94
207.162	-5.63
207.381	78.33
207.599	53.76
207.818	33.28
208.037	14.85
208.255	-36.35
208.474	6.66
208.693	70.14
208.911	35.33
209.13	51.71
209.349	78.33
209.567	-40.45
209.786	68.09
210.005	-5.63
210.223	80.38
210.442	-17.92
210.661	121.34
210.879	55.81
211.098	14.85
211.316	39.42
211.535	55.81
211.753	-11.78
211.972	70.14
212.191	119.29
212.409	43.52
212.628	41.47
212.846	35.33
213.065	43.52
213.283	59.9
213.502	16.9
213.72	47.62
213.938	14.85
214.157	14.85
214.375	27.14
214.594	-26.11
214.812	37.38
215.031	64
215.249	41.47
215.467	-17.92
215.686	23.04
215.904	59.9
216.122	27.14
216.341	20.99
216.559	45.57
216.778	84.48
216.996	27.14
217.214	78.33
217.432	10.75
217.651	-9.73
217.869	-15.87
218.087	14.85
218.306	45.57
218.524	39.42
218.742	-9.73
218.96	84.48
219.179	43.52
219.397	94.72
219.615	117.25
219.833	102.91
220.051	18.94
220.27	51.71
220.488	20.99
220.706	-5.63
220.924	37.38
221.142	-30.21
221.36	4.61
221.578	147.97
221.796	6.66
222.015	20.99
222.233	84.48
222.451	66.05
222.669	68.09
222.887	10.75
223.105	86.53
223.323	-5.63
223.541	27.14
223.759	64
223.977	92.67
224.195	59.9
224.413	92.67
224.631	76.29
224.849	107.01
225.067	119.29
225.285	2.56
225.503	35.33
225.721	-62.98
225.939	12.8
226.157	70.14
226.375	96.77
226.592	43.52
226.81	27.14
227.028	100.86
227.246	61.95
227.464	61.95
227.682	70.14
227.9	29.18
228.117	12.8
228.335	20.99
228.553	59.9
228.771	2.56
228.989	80.38
229.206	29.18
229.424	10.75
229.642	-9.73
229.86	6.66
230.077	25.09
230.295	18.94
230.513	47.62
230.731	88.57
230.948	92.67
231.166	27.14
231.384	109.05
231.601	16.9
231.819	68.09
232.037	47.62
232.254	14.85
232.472	-11.78
232.689	-7.68
232.907	100.86
233.125	39.42
233.342	-19.97
233.56	64
233.777	33.28
233.995	104.96
234.213	39.42
234.43	59.9
234.648	51.71
234.865	25.09
235.083	29.18
235.3	61.95
235.518	123.39
235.735	84.48
235.953	68.09
236.17	20.99
236.388	51.71
236.605	92.67
236.822	-67.07
237.04	33.28
237.257	39.42
237.475	0.51
237.692	92.67
237.909	-34.3
238.127	2.56
238.344	29.18
238.562	43.52
238.779	-22.02
238.996	27.14
239.214	18.94
239.431	131.58
239.648	0.51
239.865	6.66
240.083	72.19
240.3	-22.02
240.517	6.66
240.735	76.29
240.952	92.67
241.169	-1.54
241.386	8.7
241.603	74.24
241.821	-19.97
242.038	10.75
242.255	27.14
242.472	47.62
242.689	100.86
242.907	43.52
243.124	49.66
243.341	59.9
243.558	45.57
243.775	2.56
243.992	-22.02
244.209	37.38
244.426	84.48
244.643	49.66
244.86	59.9
245.078	84.48
245.295	55.81
245.512	47.62
245.729	6.66
245.946	33.28
246.163	84.48
246.38	23.04
246.597	23.04
246.814	20.99
247.031	96.77
247.248	-9.73
247.464	2.56
247.681	27.14
247.898	2.56
248.115	59.9
248.332	35.33
248.549	37.38
248.766	76.29
248.983	61.95
249.2	25.09
249.417	70.14
249.633	-1.54
249.85	55.81
250.067	76.29
250.284	27.14
250.501	92.67
250.717	-28.16
250.934	53.76
251.151	27.14
251.368	-38.4
251.585	-1.54
251.801	18.94
252.018	-1.54
252.235	53.76
252.451	14.85
252.668	0.51
252.885	68.09
253.102	102.91
253.318	68.09
253.535	78.33
253.752	43.52
253.968	6.66
254.185	8.7
254.401	39.42
254.618	64
254.835	55.81
255.051	49.66
255.268	31.23
255.484	61.95
255.701	55.81
255.917	55.81
256.134	6.66
256.351	64
256.567	20.99
256.784	117.25
257	86.53
257.217	68.09
257.433	70.14
257.65	49.66
257.866	107.01
258.082	-30.21
258.299	-9.73
258.515	88.57
258.732	55.81
258.948	10.75
259.165	20.99
259.381	23.04
259.597	31.23
259.814	-5.63
260.03	-50.69
260.246	51.71
260.463	59.9
260.679	76.29
260.895	51.71
261.112	31.23
261.328	10.75
261.544	35.33
261.761	113.15
261.977	23.04
262.193	20.99
262.409	-38.4
262.626	-5.63
262.842	102.91
263.058	0.51
263.274	47.62
263.49	51.71
263.707	74.24
263.923	51.71
264.139	-44.54
264.355	-17.92
264.571	68.09
264.787	53.76
265.004	76.29
265.22	-17.92
265.436	27.14
265.652	29.18
265.868	-9.73
266.084	-5.63
266.3	64
266.516	-30.21
266.732	20.99
266.948	53.76
267.164	-19.97
267.38	61.95
267.596	53.76
267.812	92.67
268.028	43.52
268.244	68.09
268.46	61.95
268.676	-1.54
268.892	8.7
269.108	16.9
269.324	49.66
269.54	-26.11
269.756	143.87
269.972	-44.54
270.188	39.42
270.403	41.47
270.619	80.38
270.835	-17.92
271.051	92.67
271.267	-54.78
271.483	80.38
271.698	16.9
271.914	-77.31
272.13	39.42
272.346	20.99
272.562	104.96
272.777	51.71
272.993	-52.74
273.209	43.52
273.425	68.09
273.64	-22.02
273.856	51.71
274.072	117.25
274.287	-32.26
274.503	39.42
274.719	18.94
274.934	84.48
275.15	-34.3
275.366	84.48
275.581	2.56
275.797	18.94
276.012	68.09
276.228	53.76
276.444	35.33
276.659	43.52
276.875	-46.59
277.09	27.14
277.306	29.18
277.521	35.33
277.737	29.18
277.952	20.99
278.168	72.19
278.383	-5.63
278.599	2.56
278.814	64
279.03	47.62
279.245	39.42
279.461	49.66
279.676	123.39
279.892	29.18
280.107	6.66
280.322	-60.93
280.538	53.76
280.753	80.38
280.969	49.66
281.184	4.61
281.399	113.15
281.615	76.29
281.83	80.38
282.045	23.04
282.26	20.99
282.476	35.33
282.691	23.04
282.906	127.49
283.122	12.8
283.337	51.71
283.552	68.09
283.767	20.99
283.983	51.71
284.198	-9.73
284.413	51.71
284.628	59.9
284.843	80.38
285.058	80.38
285.274	8.7
285.489	10.75
285.704	37.38
285.919	6.66
286.134	29.18
286.349	37.38
286.564	84.48
286.779	59.9
286.995	53.76
287.21	29.18
287.425	80.38
287.64	14.85
287.855	51.71
288.07	-50.69
288.285	76.29
288.5	72.19
288.715	121.34
288.93	29.18
289.145	43.52
289.36	129.53
289.575	64
289.79	84.48
290.004	37.38
290.219	70.14
290.434	16.9
290.649	23.04
290.864	20.99
291.079	25.09
291.294	-5.63
291.509	66.05
291.724	68.09
291.938	51.71
292.153	27.14
292.368	12.8
292.583	109.05
292.798	94.72
293.012	104.96
293.227	27.14
293.442	55.81
293.657	12.8
293.871	76.29
294.086	14.85
294.301	29.18
294.516	102.91
294.73	100.86
294.945	-75.26
295.16	59.9
295.374	96.77
295.589	111.1
295.804	76.29
296.018	78.33
296.233	68.09
296.447	64
296.662	45.57
296.877	109.05
297.091	80.38
297.306	68.09
297.52	61.95
297.735	109.05
297.949	31.23
298.164	104.96
298.378	61.95
298.593	43.52
298.807	-7.68
299.022	64
299.236	45.57
299.451	2.56
299.665	51.71
299.88	33.28
300.094	29.18
300.309	37.38
300.523	20.99
300.737	72.19
300.952	53.76
301.166	16.9
301.381	-22.02
301.595	-5.63
301.809	-7.68
302.024	31.23
302.238	6.66
302.452	82.43
302.667	61.95
302.881	61.95
303.095	18.94
303.309	68.09
303.524	80.38
303.738	-9.73
303.952	49.66
304.166	18.94
304.381	-38.4
304.595	12.8
304.809	76.29
305.023	133.63
305.237	-22.02
305.452	2.56
305.666	-46.59
305.88	64
306.094	78.33
306.308	39.42
306.522	41.47
306.736	53.76
306.95	109.05
307.164	92.67
307.379	12.8
307.593	168.45
307.807	72.19
308.021	76.29
308.235	27.14
308.449	-15.87
308.663	76.29
308.877	68.09
309.091	23.04
309.305	35.33
309.519	-34.3
309.733	111.1
309.947	-28.16
310.161	100.86
310.374	64
310.588	70.14
310.802	-3.58
311.016	64
311.23	59.9
311.444	51.71
311.658	2.56
311.872	111.1
312.085	94.72
312.299	20.99
312.513	55.81
312.727	68.09
312.941	-3.58
313.154	68.09
313.368	72.19
313.582	78.33
313.796	23.04
314.009	10.75
314.223	115.2
314.437	12.8
314.651	35.33
314.864	4.61
315.078	20.99
315.292	2.56
315.505	16.9
315.719	12.8
315.933	59.9
316.146	16.9
316.36	27.14
316.573	111.1
316.787	39.42
317.001	102.91
317.214	18.94
317.428	6.66
317.641	35.33
317.855	-11.78
318.068	47.62
318.282	-3.58
318.495	80.38
318.709	61.95
318.922	59.9
319.136	51.71
319.349	43.52
319.563	10.75
319.776	29.18
319.99	0.51
320.203	-19.97
320.417	-1.54
320.63	53.76
320.843	152.06
321.057	27.14
321.27	51.71
321.483	66.05
321.697	137.73
321.91	47.62
322.124	59.9
322.337	20.99
322.55	14.85
322.763	80.38
322.977	-13.82
323.19	0.51
323.403	78.33
323.617	70.14
323.83	-28.16
324.043	47.62
324.256	61.95
324.469	45.57
324.683	35.33
324.896	80.38
325.109	53.76
325.322	51.71
325.535	94.72
325.748	35.33
325.962	35.33
326.175	18.94
326.388	68.09
326.601	-3.58
326.814	55.81
327.027	-5.63
327.24	53.76
327.453	16.9
327.666	39.42
327.879	86.53
328.092	59.9
328.305	47.62
328.518	72.19
328.731	33.28
328.944	4.61
329.157	-34.3
329.37	12.8
329.583	72.19
329.796	113.15
330.009	37.38
330.222	96.77
330.435	43.52
330.648	53.76
330.861	113.15
331.073	102.91
331.286	96.77
331.499	43.52
331.712	86.53
331.925	92.67
332.138	92.67
332.35	-30.21
332.563	37.38
332.776	29.18
332.989	45.57
333.202	53.76
333.414	55.81
333.627	117.25
333.84	100.86
334.053	31.23
334.265	43.52
334.478	43.52
334.691	18.94
334.903	59.9
335.116	-13.82
335.329	92.67
335.541	47.62
335.754	76.29
335.966	35.33
336.179	72.19
336.392	2.56
336.604	117.25
336.817	92.67
337.029	84.48
337.242	47.62
337.454	55.81
337.667	-26.11
337.88	88.57
338.092	98.81
338.305	61.95
338.517	27.14
338.729	18.94
338.942	-30.21
339.154	109.05
339.367	-44.54
339.579	10.75
339.792	-62.98
340.004	37.38
340.217	109.05
340.429	64
340.641	47.62
340.854	16.9
341.066	45.57
341.278	102.91
341.491	35.33
341.703	41.47
341.915	57.86
342.128	119.29
342.34	47.62
342.552	35.33
342.764	117.25
342.977	-11.78
343.189	111.1
343.401	-9.73
343.613	2.56
343.826	78.33
344.038	-1.54
344.25	51.71
344.462	86.53
344.674	64
344.886	102.91
345.099	25.09
345.311	53.76
345.523	59.9
345.735	31.23
345.947	39.42
346.159	68.09
346.371	76.29
346.583	-15.87
346.795	123.39
347.007	37.38
347.219	-1.54
347.431	129.53
347.643	119.29
347.855	59.9
348.067	51.71
348.279	45.57
348.491	29.18
348.703	88.57
348.915	80.38
349.127	72.19
349.339	78.33
349.551	-11.78
349.763	166.4
349.975	18.94
350.187	104.96
350.399	121.34
350.61	76.29
350.822	-15.87
351.034	76.29
351.246	2.56
351.458	76.29
351.669	45.57
351.881	68.09
352.093	70.14
352.305	45.57
352.517	23.04
352.728	117.25
352.94	68.09
353.152	84.48
353.363	33.28
353.575	53.76
353.787	51.71
353.999	70.14
354.21	117.25
354.422	59.9
354.633	92.67
354.845	43.52
355.057	37.38
355.268	78.33
355.48	72.19
355.692	-19.97
355.903	51.71
356.115	10.75
356.326	43.52
356.538	121.34
356.749	88.57
356.961	76.29
357.172	-5.63
357.384	68.09
357.595	80.38
357.807	35.33
358.018	-22.02
358.23	72.19
358.441	117.25
358.653	109.05
358.864	-5.63
359.075	84.48
359.287	31.23
359.498	96.77
359.709	86.53
359.921	6.66
360.132	55.81
360.344	104.96
360.555	59.9
360.766	59.9
360.977	100.86
361.189	111.1
361.4	39.42
361.611	68.09
361.823	125.44
362.034	59.9
362.245	59.9
362.456	100.86
362.667	102.91
362.879	49.66
363.09	43.52
363.301	145.92
363.512	68.09
363.723	-3.58
363.935	29.18
364.146	51.71
364.357	100.86
364.568	78.33
364.779	78.33
364.99	55.81
365.201	61.95
365.412	29.18
365.623	18.94
365.834	129.53
366.045	51.71
366.256	119.29
366.467	127.49
366.678	84.48
366.889	100.86
367.1	47.62
367.311	78.33
367.522	12.8
367.733	51.71
367.944	100.86
368.155	18.94
368.366	90.62
368.577	84.48
368.788	55.81
368.999	6.66
369.209	109.05
369.42	115.2
369.631	74.24
369.842	102.91
370.053	141.82
370.264	129.53
370.474	51.71
370.685	51.71
370.896	47.62
371.107	-5.63
371.317	64
371.528	47.62
371.739	31.23
371.95	92.67
372.16	59.9
372.371	51.71
372.582	31.23
372.792	80.38
373.003	94.72
373.214	119.29
373.424	59.9
373.635	51.71
373.846	133.63
374.056	18.94
374.267	59.9
374.477	123.39
374.688	37.38
374.898	92.67
375.109	111.1
375.319	66.05
375.53	39.42
375.74	80.38
375.951	55.81
376.161	109.05
376.372	100.86
376.582	33.28
376.793	129.53
377.003	100.86
377.214	68.09
377.424	86.53
377.635	70.14
377.845	-15.87
378.055	92.67
378.266	18.94
378.476	51.71
378.686	141.82
378.897	76.29
379.107	168.45
379.317	74.24
379.528	55.81
379.738	35.33
379.948	37.38
380.158	109.05
380.369	14.85
380.579	92.67
380.789	102.91
380.999	61.95
381.21	14.85
381.42	158.21
381.63	47.62
381.84	43.52
382.05	84.48
382.261	59.9
382.471	20.99
382.681	70.14
382.891	16.9
383.101	121.34
383.311	-19.97
383.521	14.85
383.731	53.76
383.941	78.33
384.151	61.95
384.361	78.33
384.571	78.33
384.781	76.29
384.991	119.29
385.201	117.25
385.411	53.76
385.621	10.75
385.831	84.48
386.041	113.15
386.251	10.75
386.461	35.33
386.671	43.52
386.881	92.67
387.091	25.09
387.301	125.44
387.511	70.14
387.72	121.34
387.93	133.63
388.14	39.42
388.35	55.81
388.56	59.9
388.769	55.81
388.979	80.38
389.189	-19.97
389.399	94.72
389.609	64
389.818	133.63
390.028	96.77
390.238	96.77
390.447	80.38
390.657	51.71
390.867	86.53
391.076	29.18
391.286	84.48
391.496	117.25
391.705	53.76
391.915	125.44
392.125	172.54
392.334	12.8
392.544	141.82
392.753	170.49
392.963	-13.82
393.172	94.72
393.382	20.99
393.591	18.94
393.801	113.15
394.01	100.86
394.22	137.73
394.429	68.09
394.639	92.67
394.848	178.69
395.058	78.33
395.267	111.1
395.477	207.36
395.686	133.63
395.895	158.21
396.105	104.96
396.314	168.45
396.524	96.77
396.733	82.43
396.942	111.1
397.152	172.54
397.361	176.64
397.57	193.02
397.78	143.87
397.989	176.64
398.198	131.58
398.407	59.9
398.617	168.45
398.826	186.88
399.035	53.76
399.244	211.45
399.453	203.26
399.663	170.49
399.872	182.78
400.081	111.1
400.29	201.21
400.499	193.02
400.708	150.01
400.917	117.25
401.127	141.82
401.336	111.1
401.545	250.36
401.754	135.68
401.963	213.5
402.172	188.93
402.381	92.67
402.59	113.15
402.799	119.29
403.008	176.64
403.217	141.82
403.426	145.92
403.635	199.16
403.844	182.78
404.053	174.59
404.262	78.33
404.471	236.03
404.68	178.69
404.888	244.22
405.097	174.59
405.306	221.69
405.515	252.41
405.724	160.25
405.933	322.04
406.142	203.26
406.35	266.75
406.559	223.74
406.768	244.22
406.977	293.37
407.185	246.27
407.394	242.17
407.603	227.84
407.812	369.15
408.02	264.7
408.229	428.54
408.438	274.94
408.646	422.39
408.855	311.8
409.064	424.44
409.272	420.35
409.481	461.3
409.69	489.98
409.898	453.11
410.107	471.54
410.315	395.77
410.524	520.7
410.733	477.69
410.941	485.88
411.15	547.32
411.358	545.27
411.567	571.9
411.775	559.61
411.984	625.14
412.192	674.29
412.401	616.95
412.609	752.12
412.818	727.54
413.026	733.68
413.234	725.49
413.443	752.12
413.651	750.07
413.86	854.51
414.068	903.67
414.276	907.76
414.485	897.52
414.693	938.48
414.901	1051.12
415.11	1059.31
415.318	1042.93
415.526	1149.42
415.734	1124.85
415.943	1186.29
416.151	1298.92
416.359	1270.25
416.567	1280.49
416.776	1358.32
416.984	1477.1
417.192	1415.66
417.4	1413.61
417.608	1413.61
417.817	1503.72
418.025	1741.29
418.233	1745.38
418.441	1731.05
418.649	1788.39
418.857	1898.98
419.065	1946.08
419.273	1954.27
419.481	2085.34
419.689	2230.75
419.897	2169.31
420.105	2240.99
420.313	2429.4
420.521	2429.4
420.729	2427.35
420.937	2570.71
421.145	2662.87
421.353	2748.89
421.561	2925.01
421.769	2904.53
421.977	3068.37
422.185	3129.81
422.393	3181.01
422.601	3482.06
422.809	3506.63
423.017	3365.32
423.224	3647.94
423.432	3707.34
423.64	3791.3
423.848	4055.49
424.056	3975.62
424.263	4352.45
424.471	4243.9
424.679	4387.26
424.887	4532.67
425.094	4737.46
425.302	4655.54
425.51	4835.77
425.718	5044.66
425.925	5159.35
426.133	5337.52
426.341	5581.23
426.548	6039.97
426.756	5872.04
426.964	5843.37
427.171	6240.67
427.379	6470.05
427.586	6566.3
427.794	6787.48
428.001	7129.49
428.209	7383.44
428.417	7283.09
428.624	7768.46
428.832	7711.11
429.039	7584.14
429.247	7727.5
429.454	8626.56
429.662	9070.97
429.869	8542.59
430.076	9087.35
430.284	8894.84
430.491	9150.84
430.699	9718.12
430.906	9816.43
431.114	9607.53
431.321	10242.4
431.528	10447.2
431.736	11037.02
431.943	11325.78
432.15	11186.52
432.358	11241.81
432.565	11909.45
432.772	12099.91
432.979	12732.73
433.187	12747.07
433.394	12863.8
433.601	13799.73
433.808	13769.01
434.016	13740.33
434.223	14014.76
434.43	14913.82
434.637	14766.37
434.844	15718.67
435.052	16058.63
435.259	15751.44
435.466	15933.71
435.673	15558.93
435.88	16926.97
436.087	17684.72
436.294	17801.46
436.501	17139.96
436.708	17699.06
436.915	18252.01
437.122	18913.5
437.329	18950.37
437.537	19734.74
437.743	19601.62
437.95	19810.51
438.157	20842.69
438.364	21280.96
438.571	21106.88
438.778	21711.03
438.985	23486.62
439.192	22251.69
439.399	23189.66
439.606	22601.9
439.813	23900.31
440.02	25309.31
440.227	24772.74
440.433	24684.68
440.64	25602.17
440.847	25211.01
441.054	26120.31
441.261	27787.35
441.467	27318.37
441.674	27781.21
441.881	28864.58
442.088	28958.79
442.294	28702.79
442.501	29104.2
442.708	30042.17
442.914	30994.47
443.121	32520.21
443.328	31379.49
443.534	33644.54
443.741	32765.96
443.948	32471.06
444.154	34873.32
444.361	34207.73
444.568	34711.53
444.774	34770.93
444.981	34920.43
445.187	36179.93
445.394	37648.32
445.6	37365.7
445.807	40560.53
446.013	38903.73
446.22	39497.64
446.426	41142.16
446.633	41295.75
446.839	42559.35
447.046	41107.34
447.252	43116.4
447.459	43505.51
447.665	43167.6
447.871	44998.48
448.078	46972.72
448.284	44668.76
448.491	45956.93
448.697	47638.31
448.903	48123.68
449.11	48789.27
449.316	47787.81
449.522	48449.31
449.728	49911.56
449.935	49819.4
450.141	50108.16
450.347	50941.69
450.553	49950.47
450.76	50388.74
450.966	51582.7
451.172	51181.3
451.378	52492
451.584	51486.45
451.791	52428.51
451.997	52248.29
452.203	53540.56
452.409	53262.04
452.615	52819.67
452.821	50886.39
453.027	50937.59
453.233	53257.94
453.44	51027.7
453.646	51777.26
453.852	51822.31
454.058	52555.49
454.264	51142.39
454.47	52217.57
454.676	50714.36
454.882	52508.38
455.088	48217.89
455.294	48742.17
455.5	49495.82
455.705	50419.45
455.911	47677.22
456.117	47144.75
456.323	46489.4
456.529	44519.26
456.735	46131.01
456.941	45010.77
457.147	43900.77
457.352	42712.95
457.558	42426.23
457.764	42246.01
457.97	41459.59
458.176	40650.64
458.381	40837.01
458.587	38643.63
458.793	38969.26
458.999	36956.11
459.204	39399.33
459.41	38334.39
459.616	35958.75
459.821	35573.73
460.027	35481.57
460.233	34924.52
460.438	33232.9
460.644	33886.2
460.85	31903.77
461.055	31688.73
461.261	31492.13
461.466	29243.46
461.672	28174.42
461.878	30418.99
462.083	28424.27
462.289	27719.77
462.494	27646.04
462.7	26361.97
462.905	25827.45
463.111	26353.77
463.316	26646.63
463.522	25997.43
463.727	26243.18
463.932	25989.24
464.138	26214.51
464.343	26075.25
464.549	25178.24
464.754	26050.67
464.959	25800.82
465.165	25374.84
465.37	24316.04
465.575	23644.31
465.781	24463.5
465.986	25038.98
466.191	23906.45
466.397	23390.36
466.602	22503.59
466.807	23482.52
467.012	23134.37
