Data from USB4F104151__95__14-30-46-593.txt Node

Date: Thu Mar 13 14:30:46 EDT 2025
User: louis
Spectrometer: USB4F10415
Trigger mode: 4
Integration Time (sec): 2.500000E-2
Scans to average: 1
Electric dark correction enabled: true
Nonlinearity correction enabled: false
Boxcar width: 0
XAxis mode: Wavelengths
Number of Pixels in Spectrum: 3648
>>>>>Begin Spectral Data<<<<<
178.204	-121.85
178.424	-121.85
178.644	-121.85
178.864	-119.81
179.084	-132.09
179.304	7.17
179.524	-5.12
179.744	-17.41
179.964	-3.07
180.184	56.32
180.404	31.74
180.624	17.41
180.844	11.26
181.064	-23.55
181.283	-17.41
181.503	-78.85
181.723	21.5
181.943	-17.41
182.163	173.05
182.383	31.74
182.602	39.94
182.822	91.13
183.042	48.13
183.262	76.8
183.482	80.89
183.701	-31.74
183.921	50.18
184.141	15.36
184.361	64.51
184.58	68.61
184.8	64.51
185.02	103.42
185.239	97.28
185.459	23.55
185.679	58.37
185.898	78.85
186.118	44.03
186.338	17.41
186.557	105.47
186.777	21.5
186.997	101.37
187.216	68.61
187.436	123.9
187.655	35.84
187.875	113.66
188.095	29.7
188.314	70.65
188.534	107.52
188.753	17.41
188.973	-9.22
189.192	66.56
189.412	29.7
189.631	74.75
189.851	62.46
190.07	74.75
190.29	13.31
190.509	-5.12
190.729	105.47
190.948	109.57
191.168	93.18
191.387	162.81
191.607	66.56
191.826	74.75
192.045	35.84
192.265	66.56
192.484	15.36
192.704	39.94
192.923	39.94
193.142	125.95
193.362	105.47
193.581	113.66
193.8	103.42
194.02	66.56
194.239	9.22
194.458	113.66
194.678	52.22
194.897	39.94
195.116	-13.31
195.335	68.61
195.555	60.42
195.774	58.37
195.993	31.74
196.212	37.89
196.432	11.26
196.651	91.13
196.87	31.74
197.089	156.67
197.308	99.33
197.528	115.71
197.747	39.94
197.966	130.05
198.185	105.47
198.404	60.42
198.623	123.9
198.842	95.23
199.062	105.47
199.281	91.13
199.5	17.41
199.719	132.09
199.938	64.51
200.157	23.55
200.376	11.26
200.595	109.57
200.814	66.56
201.033	48.13
201.252	113.66
201.471	70.65
201.69	39.94
201.909	58.37
202.128	84.99
202.347	91.13
202.566	68.61
202.785	76.8
203.004	-5.12
203.223	113.66
203.442	82.94
203.661	50.18
203.879	41.98
204.098	87.04
204.317	-1.02
204.536	82.94
204.755	5.12
204.974	31.74
205.193	72.7
205.411	113.66
205.63	80.89
205.849	87.04
206.068	17.41
206.287	31.74
206.505	150.53
206.724	17.41
206.943	46.08
207.162	64.51
207.381	60.42
207.599	41.98
207.818	-54.27
208.037	27.65
208.255	101.37
208.474	113.66
208.693	37.89
208.911	29.7
209.13	15.36
209.349	93.18
209.567	113.66
209.786	80.89
210.005	64.51
210.223	74.75
210.442	-7.17
210.661	7.17
210.879	80.89
211.098	-9.22
211.316	105.47
211.535	52.22
211.753	56.32
211.972	84.99
212.191	33.79
212.409	128
212.628	44.03
212.846	80.89
213.065	119.81
213.283	48.13
213.502	23.55
213.72	70.65
213.938	62.46
214.157	41.98
214.375	39.94
214.594	107.52
214.812	80.89
215.031	113.66
215.249	29.7
215.467	70.65
215.686	107.52
215.904	89.09
216.122	58.37
216.341	64.51
216.559	41.98
216.778	89.09
216.996	91.13
217.214	33.79
217.432	23.55
217.651	7.17
217.869	-5.12
218.087	97.28
218.306	56.32
218.524	29.7
218.742	56.32
218.96	80.89
219.179	15.36
219.397	84.99
219.615	105.47
219.833	93.18
220.051	72.7
220.27	80.89
220.488	58.37
220.706	52.22
220.924	58.37
221.142	39.94
221.36	80.89
221.578	1.02
221.796	-54.27
222.015	175.1
222.233	31.74
222.451	113.66
222.669	23.55
222.887	97.28
223.105	-39.94
223.323	48.13
223.541	15.36
223.759	107.52
223.977	64.51
224.195	138.24
224.413	44.03
224.631	121.85
224.849	-17.41
225.067	82.94
225.285	66.56
225.503	15.36
225.721	-15.36
225.939	60.42
226.157	15.36
226.375	214.01
226.592	35.84
226.81	97.28
227.028	64.51
227.246	91.13
227.464	64.51
227.682	140.29
227.9	93.18
228.117	78.85
228.335	29.7
228.553	60.42
228.771	97.28
228.989	56.32
229.206	58.37
229.424	48.13
229.642	109.57
229.86	33.79
230.077	97.28
230.295	107.52
230.513	168.96
230.731	56.32
230.948	15.36
231.166	93.18
231.384	50.18
231.601	68.61
231.819	66.56
232.037	25.6
232.254	27.65
232.472	-7.17
232.689	64.51
232.907	44.03
233.125	33.79
233.342	76.8
233.56	91.13
233.777	56.32
233.995	54.27
234.213	50.18
234.43	50.18
234.648	39.94
234.865	-15.36
235.083	80.89
235.3	64.51
235.518	66.56
235.735	97.28
235.953	179.2
236.17	56.32
236.388	113.66
236.605	74.75
236.822	70.65
237.04	15.36
237.257	25.6
237.475	72.7
237.692	105.47
237.909	29.7
238.127	162.81
238.344	128
238.562	78.85
238.779	39.94
238.996	31.74
239.214	23.55
239.431	93.18
239.648	52.22
239.865	74.75
240.083	107.52
240.3	56.32
240.517	93.18
240.735	103.42
240.952	130.05
241.169	103.42
241.386	54.27
241.603	82.94
241.821	41.98
242.038	113.66
242.255	142.33
242.472	-3.07
242.689	82.94
242.907	134.14
243.124	7.17
243.341	84.99
243.558	25.6
243.775	56.32
243.992	23.55
244.209	64.51
244.426	138.24
244.643	41.98
244.86	31.74
245.078	58.37
245.295	80.89
245.512	37.89
245.729	-27.65
245.946	74.75
246.163	7.17
246.38	56.32
246.597	17.41
246.814	97.28
247.031	44.03
247.248	89.09
247.464	130.05
247.681	82.94
247.898	70.65
248.115	76.8
248.332	56.32
248.549	146.43
248.766	48.13
248.983	97.28
249.2	115.71
249.417	39.94
249.633	23.55
249.85	97.28
250.067	23.55
250.284	64.51
250.501	48.13
250.717	130.05
250.934	-21.5
251.151	31.74
251.368	-9.22
251.585	41.98
251.801	117.76
252.018	76.8
252.235	89.09
252.451	7.17
252.668	134.14
252.885	113.66
253.102	19.46
253.318	50.18
253.535	11.26
253.752	82.94
253.968	23.55
254.185	-7.17
254.401	66.56
254.618	21.5
254.835	-5.12
255.051	89.09
255.268	29.7
255.484	72.7
255.701	39.94
255.917	80.89
256.134	39.94
256.351	70.65
256.567	46.08
256.784	39.94
257	78.85
257.217	101.37
257.433	148.48
257.65	93.18
257.866	39.94
258.082	56.32
258.299	50.18
258.515	125.95
258.732	9.22
258.948	46.08
259.165	37.89
259.381	-21.5
259.597	56.32
259.814	56.32
260.03	66.56
260.246	-7.17
260.463	111.61
260.679	87.04
260.895	19.46
261.112	101.37
261.328	80.89
261.544	52.22
261.761	95.23
261.977	46.08
262.193	-9.22
262.409	68.61
262.626	115.71
262.842	82.94
263.058	-13.31
263.274	50.18
263.49	121.85
263.707	84.99
263.923	103.42
264.139	7.17
264.355	7.17
264.571	78.85
264.787	35.84
265.004	64.51
265.22	117.76
265.436	76.8
265.652	76.8
265.868	41.98
266.084	66.56
266.3	91.13
266.516	11.26
266.732	70.65
266.948	39.94
267.164	64.51
267.38	60.42
267.596	60.42
267.812	89.09
268.028	44.03
268.244	66.56
268.46	89.09
268.676	97.28
268.892	95.23
269.108	-13.31
269.324	33.79
269.54	93.18
269.756	166.91
269.972	50.18
270.188	39.94
270.403	48.13
270.619	62.46
270.835	66.56
271.051	109.57
271.267	13.31
271.483	89.09
271.698	66.56
271.914	91.13
272.13	11.26
272.346	33.79
272.562	113.66
272.777	80.89
272.993	97.28
273.209	68.61
273.425	72.7
273.64	25.6
273.856	66.56
274.072	44.03
274.287	66.56
274.503	44.03
274.719	56.32
274.934	95.23
275.15	11.26
275.366	80.89
275.581	82.94
275.797	105.47
276.012	64.51
276.228	41.98
276.444	60.42
276.659	72.7
276.875	31.74
277.09	101.37
277.306	48.13
277.521	89.09
277.737	17.41
277.952	56.32
278.168	113.66
278.383	44.03
278.599	41.98
278.814	23.55
279.03	44.03
279.245	140.29
279.461	33.79
279.676	109.57
279.892	84.99
280.107	25.6
280.322	132.09
280.538	48.13
280.753	48.13
280.969	56.32
281.184	56.32
281.399	168.96
281.615	25.6
281.83	109.57
282.045	-1.02
282.26	48.13
282.476	101.37
282.691	72.7
282.906	80.89
283.122	109.57
283.337	64.51
283.552	7.17
283.767	17.41
283.983	17.41
284.198	48.13
284.413	23.55
284.628	-29.7
284.843	74.75
285.058	37.89
285.274	48.13
285.489	29.7
285.704	54.27
285.919	58.37
286.134	62.46
286.349	78.85
286.564	9.22
286.779	113.66
286.995	82.94
287.21	25.6
287.425	37.89
287.64	-1.02
287.855	93.18
288.07	84.99
288.285	107.52
288.5	72.7
288.715	99.33
288.93	29.7
289.145	91.13
289.36	56.32
289.575	39.94
289.79	146.43
290.004	39.94
290.219	87.04
290.434	93.18
290.649	3.07
290.864	50.18
291.079	23.55
291.294	60.42
291.509	74.75
291.724	89.09
291.938	80.89
292.153	3.07
292.368	72.7
292.583	56.32
292.798	7.17
293.012	91.13
293.227	48.13
293.442	7.17
293.657	66.56
293.871	64.51
294.086	68.61
294.301	64.51
294.516	25.6
294.73	-7.17
294.945	56.32
295.16	84.99
295.374	78.85
295.589	148.48
295.804	58.37
296.018	-50.18
296.233	115.71
296.447	15.36
296.662	60.42
296.877	107.52
297.091	72.7
297.306	50.18
297.52	19.46
297.735	146.43
297.949	44.03
298.164	74.75
298.378	68.61
298.593	64.51
298.807	44.03
299.022	54.27
299.236	101.37
299.451	64.51
299.665	11.26
299.88	72.7
300.094	140.29
300.309	56.32
300.523	87.04
300.737	37.89
300.952	56.32
301.166	11.26
301.381	117.76
301.595	64.51
301.809	54.27
302.024	39.94
302.238	-37.89
302.452	64.51
302.667	56.32
302.881	84.99
303.095	115.71
303.309	37.89
303.524	107.52
303.738	64.51
303.952	50.18
304.166	115.71
304.381	15.36
304.595	99.33
304.809	80.89
305.023	89.09
305.237	72.7
305.452	101.37
305.666	64.51
305.88	152.57
306.094	97.28
306.308	82.94
306.522	138.24
306.736	39.94
306.95	23.55
307.164	105.47
307.379	-1.02
307.593	107.52
307.807	56.32
308.021	89.09
308.235	82.94
308.449	25.6
308.663	39.94
308.877	158.72
309.091	97.28
309.305	134.14
309.519	23.55
309.733	99.33
309.947	50.18
310.161	123.9
310.374	56.32
310.588	87.04
310.802	56.32
311.016	84.99
311.23	142.33
311.444	48.13
311.658	44.03
311.872	156.67
312.085	113.66
312.299	66.56
312.513	148.48
312.727	181.25
312.941	93.18
313.154	125.95
313.368	113.66
313.582	48.13
313.796	-7.17
314.009	23.55
314.223	44.03
314.437	48.13
314.651	74.75
314.864	27.65
315.078	84.99
315.292	31.74
315.505	60.42
315.719	60.42
315.933	84.99
316.146	19.46
316.36	44.03
316.573	105.47
316.787	31.74
317.001	39.94
317.214	56.32
317.428	97.28
317.641	44.03
317.855	48.13
318.068	74.75
318.282	15.36
318.495	134.14
318.709	58.37
318.922	84.99
319.136	50.18
319.349	76.8
319.563	25.6
319.776	64.51
319.99	48.13
320.203	33.79
320.417	11.26
320.63	60.42
320.843	58.37
321.057	156.67
321.27	97.28
321.483	91.13
321.697	56.32
321.91	48.13
322.124	113.66
322.337	107.52
322.55	56.32
322.763	35.84
322.977	9.22
323.19	-9.22
323.403	48.13
323.617	13.31
323.83	115.71
324.043	130.05
324.256	80.89
324.469	-5.12
324.683	160.77
324.896	95.23
325.109	56.32
325.322	31.74
325.535	74.75
325.748	107.52
325.962	66.56
326.175	39.94
326.388	89.09
326.601	113.66
326.814	56.32
327.027	99.33
327.24	138.24
327.453	15.36
327.666	95.23
327.879	142.33
328.092	58.37
328.305	119.81
328.518	89.09
328.731	-5.12
328.944	52.22
329.157	125.95
329.37	74.75
329.583	91.13
329.796	58.37
330.009	19.46
330.222	89.09
330.435	58.37
330.648	29.7
330.861	76.8
331.073	27.65
331.286	91.13
331.499	17.41
331.712	-15.36
331.925	148.48
332.138	101.37
332.35	74.75
332.563	39.94
332.776	97.28
332.989	72.7
333.202	23.55
333.414	82.94
333.627	66.56
333.84	58.37
334.053	33.79
334.265	80.89
334.478	48.13
334.691	101.37
334.903	37.89
335.116	44.03
335.329	87.04
335.541	80.89
335.754	76.8
335.966	91.13
336.179	19.46
336.392	113.66
336.604	136.19
336.817	31.74
337.029	109.57
337.242	58.37
337.454	148.48
337.667	68.61
337.88	76.8
338.092	87.04
338.305	107.52
338.517	41.98
338.729	130.05
338.942	136.19
339.154	41.98
339.367	82.94
339.579	91.13
339.792	64.51
340.004	68.61
340.217	68.61
340.429	93.18
340.641	95.23
340.854	130.05
341.066	93.18
341.278	76.8
341.491	89.09
341.703	52.22
341.915	39.94
342.128	140.29
342.34	44.03
342.552	48.13
342.764	62.46
342.977	64.51
343.189	66.56
343.401	39.94
343.613	52.22
343.826	66.56
344.038	-5.12
344.25	52.22
344.462	109.57
344.674	154.62
344.886	121.85
345.099	76.8
345.311	7.17
345.523	52.22
345.735	72.7
345.947	84.99
346.159	109.57
346.371	115.71
346.583	156.67
346.795	140.29
347.007	84.99
347.219	76.8
347.431	97.28
347.643	97.28
347.855	91.13
348.067	142.33
348.279	31.74
348.491	132.09
348.703	138.24
348.915	123.9
349.127	56.32
349.339	66.56
349.551	89.09
349.763	74.75
349.975	3.07
350.187	115.71
350.399	97.28
350.61	70.65
350.822	117.76
351.034	39.94
351.246	156.67
351.458	162.81
351.669	117.76
351.881	138.24
352.093	125.95
352.305	181.25
352.517	68.61
352.728	150.53
352.94	80.89
353.152	39.94
353.363	9.22
353.575	138.24
353.787	117.76
353.999	74.75
354.21	187.39
354.422	162.81
354.633	97.28
354.845	-1.02
355.057	103.42
355.268	152.57
355.48	46.08
355.692	-46.08
355.903	101.37
356.115	60.42
356.326	7.17
356.538	105.47
356.749	134.14
356.961	91.13
357.172	87.04
357.384	33.79
357.595	117.76
357.807	89.09
358.018	66.56
358.23	107.52
358.441	152.57
358.653	105.47
358.864	48.13
359.075	17.41
359.287	44.03
359.498	125.95
359.709	136.19
359.921	66.56
360.132	25.6
360.344	82.94
360.555	82.94
360.766	66.56
360.977	91.13
361.189	113.66
361.4	105.47
361.611	125.95
361.823	142.33
362.034	56.32
362.245	-21.5
362.456	72.7
362.667	62.46
362.879	41.98
363.09	64.51
363.301	138.24
363.512	156.67
363.723	105.47
363.935	80.89
364.146	144.38
364.357	125.95
364.568	107.52
364.779	105.47
364.99	142.33
365.201	37.89
365.412	130.05
365.623	89.09
365.834	15.36
366.045	109.57
366.256	160.77
366.467	82.94
366.678	17.41
366.889	132.09
367.1	89.09
367.311	117.76
367.522	84.99
367.733	58.37
367.944	111.61
368.155	37.89
368.366	93.18
368.577	39.94
368.788	48.13
368.999	68.61
369.209	80.89
369.42	162.81
369.631	205.82
369.842	80.89
370.053	39.94
370.264	146.43
370.474	72.7
370.685	99.33
370.896	66.56
371.107	58.37
371.317	146.43
371.528	23.55
371.739	203.77
371.95	109.57
372.16	156.67
372.371	99.33
372.582	72.7
372.792	76.8
373.003	82.94
373.214	136.19
373.424	74.75
373.635	21.5
373.846	64.51
374.056	87.04
374.267	117.76
374.477	76.8
374.688	115.71
374.898	66.56
375.109	154.62
375.319	113.66
375.53	162.81
375.74	154.62
375.951	25.6
376.161	125.95
376.372	146.43
376.582	52.22
376.793	128
377.003	78.85
377.214	93.18
377.424	52.22
377.635	146.43
377.845	50.18
378.055	140.29
378.266	173.05
378.476	105.47
378.686	80.89
378.897	113.66
379.107	121.85
379.317	87.04
379.528	105.47
379.738	130.05
379.948	62.46
380.158	95.23
380.369	64.51
380.579	64.51
380.789	60.42
380.999	179.2
381.21	117.76
381.42	134.14
381.63	119.81
381.84	91.13
382.05	89.09
382.261	148.48
382.471	193.53
382.681	99.33
382.891	48.13
383.101	56.32
383.311	117.76
383.521	66.56
383.731	175.1
383.941	140.29
384.151	64.51
384.361	66.56
384.571	76.8
384.781	130.05
384.991	144.38
385.201	168.96
385.411	68.61
385.621	162.81
385.831	87.04
386.041	97.28
386.251	11.26
386.461	171.01
386.671	105.47
386.881	56.32
387.091	74.75
387.301	109.57
387.511	44.03
387.72	162.81
387.93	144.38
388.14	101.37
388.35	177.15
388.56	138.24
388.769	150.53
388.979	125.95
389.189	91.13
389.399	130.05
389.609	150.53
389.818	125.95
390.028	93.18
390.238	113.66
390.447	97.28
390.657	72.7
390.867	91.13
391.076	84.99
391.286	125.95
391.496	220.16
391.705	105.47
391.915	130.05
392.125	148.48
392.334	93.18
392.544	115.71
392.753	91.13
392.963	62.46
393.172	130.05
393.382	156.67
393.591	203.77
393.801	132.09
394.01	144.38
394.22	162.81
394.429	101.37
394.639	107.52
394.848	211.96
395.058	132.09
395.267	103.42
395.477	109.57
395.686	183.29
395.895	228.35
396.105	185.34
396.314	130.05
396.524	132.09
396.733	134.14
396.942	173.05
397.152	156.67
397.361	132.09
397.57	97.28
397.78	164.86
397.989	214.01
398.198	203.77
398.407	130.05
398.617	158.72
398.826	113.66
399.035	189.44
399.244	214.01
399.453	236.54
399.663	150.53
399.872	205.82
400.081	140.29
400.29	252.92
400.499	105.47
400.708	271.36
400.917	203.77
401.127	224.25
401.336	89.09
401.545	240.64
401.754	195.58
401.963	238.59
402.172	103.42
402.381	205.82
402.59	150.53
402.799	205.82
403.008	207.87
403.217	279.55
403.426	211.96
403.635	183.29
403.844	164.86
404.053	216.06
404.262	156.67
404.471	297.98
404.68	191.49
404.888	236.54
405.097	162.81
405.306	226.3
405.515	261.12
405.724	244.73
405.933	326.65
406.142	232.44
406.35	277.5
406.559	269.31
406.768	302.08
406.977	330.75
407.185	277.5
407.394	297.98
407.603	363.51
407.812	287.74
408.02	406.52
408.229	400.38
408.438	334.84
408.646	345.08
408.855	351.23
409.064	355.32
409.272	394.23
409.481	394.23
409.69	435.19
409.898	416.76
410.107	490.49
410.315	490.49
410.524	500.73
410.733	523.26
410.941	478.2
411.15	596.98
411.358	564.22
411.567	654.33
411.775	599.03
411.984	592.89
412.192	736.24
412.401	642.04
412.609	631.8
412.818	697.33
413.026	699.38
413.234	799.73
413.443	752.63
413.651	764.92
413.86	877.55
414.068	928.75
414.276	895.99
414.485	902.13
414.693	1029.1
414.901	1068.02
415.11	1027.06
415.318	1104.88
415.526	1088.5
415.734	1162.22
415.943	1238
416.151	1266.67
416.359	1217.52
416.567	1248.24
416.776	1264.62
416.984	1387.5
417.192	1547.24
417.4	1453.03
417.608	1387.5
417.817	1534.95
418.025	1592.3
418.233	1868.77
418.441	1657.83
418.649	1784.8
418.857	1778.66
419.065	1795.04
419.273	1756.13
419.481	2026.47
419.689	2137.06
419.897	2235.36
420.105	2235.36
420.313	2294.75
420.521	2304.99
420.729	2522.07
420.937	2417.63
421.145	2628.57
421.353	2753.49
421.561	2759.64
421.769	2894.8
421.977	3128.27
422.185	3015.63
422.393	3185.62
422.601	3261.39
422.809	3337.17
423.017	3406.8
423.224	3541.96
423.432	3746.76
423.64	3572.68
423.848	3963.84
424.056	3818.44
424.263	3947.46
424.471	4256.7
424.679	4373.44
424.887	4545.47
425.094	4729.78
425.302	4660.15
425.51	4856.76
425.718	4842.42
425.925	4993.97
426.133	5438.38
426.341	5462.96
426.548	5686.19
426.756	5581.74
426.964	5749.67
427.171	6202.27
427.379	6265.76
427.586	6308.77
427.794	6503.32
428.001	6826.9
428.209	7021.46
428.417	6880.15
428.624	7580.56
428.832	7568.27
429.039	7486.35
429.247	7547.79
429.454	8170.37
429.662	8719.23
429.869	8321.92
430.076	8571.77
430.284	8534.91
430.491	8940.41
430.699	9485.17
430.906	9231.22
431.114	9407.34
431.321	9843.56
431.528	9968.49
431.736	10539.87
431.943	10976.09
432.15	10871.64
432.358	11029.34
432.565	11561.81
432.772	11539.28
432.979	12122.95
433.187	12073.8
433.394	12438.34
433.601	12995.39
433.808	13177.65
434.016	12942.14
434.223	13800.24
434.43	14435.11
434.637	14232.36
434.844	15045.4
435.052	15610.64
435.259	15389.46
435.466	15305.49
435.673	15203.1
435.88	16268.04
436.087	17185.53
436.294	17228.54
436.501	16847.61
436.708	17081.08
436.915	17779.44
437.122	18318.06
437.329	18553.57
437.537	19118.81
437.743	19188.44
437.95	19270.36
438.157	20040.4
438.364	20509.38
438.571	20701.89
438.778	20759.24
438.985	22661.8
439.192	21961.39
439.399	22397.61
439.606	21889.71
439.813	22944.42
440.02	24519.31
440.227	24345.23
440.433	23900.82
440.64	24402.57
440.847	24273.55
441.054	25361.02
441.261	26673.77
441.467	26358.38
441.674	26806.89
441.881	27830.87
442.088	27896.41
442.294	27880.02
442.501	28342.86
442.708	28756.55
442.914	30155.32
443.121	31011.37
443.328	30282.29
443.534	32541.2
443.741	31355.43
443.948	30872.1
444.154	33499.65
444.361	33198.6
444.568	33499.65
444.774	33659.39
444.981	33774.08
445.187	34666.99
445.394	36182.49
445.6	35576.29
445.807	38889.9
446.013	37398.98
446.22	38549.94
446.426	39137.71
446.633	39866.78
446.839	41468.3
447.046	39702.95
447.252	41595.27
447.459	41904.51
447.665	41646.47
447.871	43704.68
448.078	45093.2
448.284	42946.93
448.491	44231.01
448.697	46057.79
448.903	46907.7
449.11	46514.49
449.316	46233.92
449.522	46985.52
449.728	47911.2
449.935	48398.62
450.141	48419.1
450.347	49320.21
450.553	47698.22
450.76	48761.11
450.966	49914.12
451.172	49539.34
451.378	50444.54
451.584	49727.75
451.791	51034.36
451.997	50954.49
452.203	51804.39
452.409	51589.36
452.615	51446
452.821	49277.2
453.027	48992.53
453.233	51267.83
453.44	49533.2
453.646	50336
453.852	50204.93
454.058	51564.78
454.264	49297.68
454.47	50745.59
454.676	49154.32
454.882	50823.42
455.088	46526.78
455.294	47425.84
455.5	47937.83
455.705	48365.85
455.911	46543.16
456.117	46115.14
456.323	45070.67
456.529	42918.26
456.735	44677.46
456.941	43569.51
457.147	43034.99
457.352	41568.65
457.558	40962.45
457.764	41021.84
457.97	40231.32
458.176	39590.31
458.381	39459.24
458.587	37577.15
458.793	37874.11
458.999	35910.11
459.204	38013.37
459.41	37003.72
459.616	34841.07
459.821	34767.34
460.027	34623.98
460.233	33708.54
460.438	32076.31
460.644	32965.13
460.85	31187.49
461.055	30880.3
461.261	30548.53
461.466	28340.82
461.672	27505.24
461.878	29450.81
462.083	28004.95
462.289	26782.31
462.494	26466.92
462.7	25676.41
462.905	24828.55
463.111	26036.85
463.316	26014.32
463.522	25088.64
463.727	25313.92
463.932	24853.12
464.138	24900.23
464.343	25107.07
464.549	24230.54
464.754	25123.46
464.959	24971.91
465.165	24492.68
