Data from USB4F104151__257__14-34-19-483.txt Node

Date: Thu Mar 13 14:34:19 EDT 2025
User: louis
Spectrometer: USB4F10415
Trigger mode: 4
Integration Time (sec): 2.500000E-2
Scans to average: 1
Electric dark correction enabled: true
Nonlinearity correction enabled: false
Boxcar width: 0
XAxis mode: Wavelengths
Number of Pixels in Spectrum: 3648
>>>>>Begin Spectral Data<<<<<
178.204	-219.47
178.424	-219.47
178.644	-219.47
178.864	-158.03
179.084	-158.03
179.304	-14.68
179.524	-57.68
179.744	-14.68
179.964	77.48
180.184	46.76
180.404	-6.49
180.624	-8.53
180.844	-14.68
181.064	-33.11
181.283	-6.49
181.503	-22.87
181.723	54.95
181.943	-39.25
182.163	69.29
182.383	59.05
182.602	54.95
182.822	-0.34
183.042	95.91
183.262	-59.73
183.482	-29.01
183.701	-18.77
183.921	9.9
184.141	11.95
184.361	50.86
184.58	24.23
184.8	59.05
185.02	-6.49
185.239	18.09
185.459	22.19
185.679	79.53
185.898	-51.54
186.118	81.58
186.338	42.67
186.557	108.2
186.777	9.9
186.997	50.86
187.216	-31.06
187.436	28.33
187.655	57
187.875	16.04
188.095	-10.58
188.314	57
188.534	54.95
188.753	44.71
188.973	5.8
189.192	106.15
189.412	32.43
189.631	1.71
189.851	18.09
190.07	73.39
190.29	-29.01
190.509	-31.06
190.729	-35.16
190.948	89.77
191.168	186.02
191.387	87.72
191.607	5.8
191.826	5.8
192.045	95.91
192.265	24.23
192.484	-49.49
192.704	79.53
192.923	32.43
193.142	104.11
193.362	32.43
193.581	-2.39
193.8	52.91
194.02	50.86
194.239	28.33
194.458	22.19
194.678	54.95
194.897	112.3
195.116	63.15
195.335	16.04
195.555	67.24
195.774	77.48
195.993	-10.58
196.212	-6.49
196.432	26.28
196.651	11.95
196.87	-35.16
197.089	42.67
197.308	57
197.528	36.52
197.747	-39.25
197.966	67.24
198.185	104.11
198.404	50.86
198.623	-4.44
198.842	5.8
199.062	120.49
199.281	118.44
199.5	-0.34
199.719	63.15
199.938	9.9
200.157	5.8
200.376	87.72
200.595	48.81
200.814	40.62
201.033	20.14
201.252	79.53
201.471	7.85
201.69	38.57
201.909	-8.53
202.128	5.8
202.347	85.67
202.566	30.38
202.785	26.28
203.004	-0.34
203.223	57
203.442	50.86
203.661	-8.53
203.879	67.24
204.098	24.23
204.317	28.33
204.536	79.53
204.755	7.85
204.974	87.72
205.193	40.62
205.411	71.34
205.63	-10.58
205.849	-63.83
206.068	-10.58
206.287	48.81
206.505	118.44
206.724	16.04
206.943	46.76
207.162	28.33
207.381	9.9
207.599	-22.87
207.818	77.48
208.037	5.8
208.255	3.75
208.474	34.47
208.693	106.15
208.911	-12.63
209.13	-4.44
209.349	75.43
209.567	95.91
209.786	93.87
210.005	85.67
210.223	38.57
210.442	30.38
210.661	52.91
210.879	81.58
211.098	-8.53
211.316	36.52
211.535	46.76
211.753	114.34
211.972	65.19
212.191	26.28
212.409	59.05
212.628	5.8
212.846	67.24
213.065	18.09
213.283	73.39
213.502	-2.39
213.72	30.38
213.938	40.62
214.157	18.09
214.375	42.67
214.594	-0.34
214.812	38.57
215.031	30.38
215.249	22.19
215.467	100.01
215.686	46.76
215.904	-0.34
216.122	61.1
216.341	69.29
216.559	22.19
216.778	32.43
216.996	54.95
217.214	-67.92
217.432	13.99
217.651	40.62
217.869	48.81
218.087	26.28
218.306	-0.34
218.524	108.2
218.742	-16.73
218.96	63.15
219.179	9.9
219.397	-26.96
219.615	104.11
219.833	-2.39
220.051	1.71
220.27	91.82
220.488	54.95
220.706	32.43
220.924	13.99
221.142	73.39
221.36	44.71
221.578	16.04
221.796	73.39
222.015	104.11
222.233	34.47
222.451	5.8
222.669	36.52
222.887	30.38
223.105	5.8
223.323	46.76
223.541	-18.77
223.759	-14.68
223.977	54.95
224.195	1.71
224.413	40.62
224.631	59.05
224.849	38.57
225.067	79.53
225.285	-8.53
225.503	28.33
225.721	-8.53
225.939	-33.11
226.157	67.24
226.375	136.87
226.592	-18.77
226.81	63.15
227.028	63.15
227.246	87.72
227.464	5.8
227.682	30.38
227.9	24.23
228.117	-2.39
228.335	79.53
228.553	48.81
228.771	22.19
228.989	57
229.206	13.99
229.424	48.81
229.642	11.95
229.86	16.04
230.077	112.3
230.295	13.99
230.513	22.19
230.731	67.24
230.948	106.15
231.166	112.3
231.384	42.67
231.601	16.04
231.819	130.73
232.037	1.71
232.254	-14.68
232.472	-2.39
232.689	-35.16
232.907	79.53
233.125	46.76
233.342	-26.96
233.56	34.47
233.777	26.28
233.995	46.76
234.213	5.8
234.43	36.52
234.648	83.63
234.865	20.14
235.083	81.58
235.3	42.67
235.518	46.76
235.735	120.49
235.953	48.81
236.17	120.49
236.388	140.97
236.605	63.15
236.822	36.52
237.04	46.76
237.257	59.05
237.475	-12.63
237.692	65.19
237.909	87.72
238.127	59.05
238.344	-0.34
238.562	79.53
238.779	67.24
238.996	-24.92
239.214	18.09
239.431	40.62
239.648	20.14
239.865	120.49
240.083	120.49
240.3	-43.35
240.517	-31.06
240.735	71.34
240.952	-10.58
241.169	118.44
241.386	46.76
241.603	-10.58
241.821	5.8
242.038	52.91
242.255	13.99
242.472	-8.53
242.689	65.19
242.907	69.29
243.124	9.9
243.341	18.09
243.558	-6.49
243.775	11.95
243.992	71.34
244.209	97.96
244.426	95.91
244.643	65.19
244.86	63.15
245.078	5.8
245.295	104.11
245.512	-20.82
245.729	-2.39
245.946	7.85
246.163	-35.16
246.38	57
246.597	63.15
246.814	67.24
247.031	54.95
247.248	63.15
247.464	42.67
247.681	-2.39
247.898	18.09
248.115	40.62
248.332	18.09
248.549	38.57
248.766	149.16
248.983	28.33
249.2	73.39
249.417	24.23
249.633	40.62
249.85	87.72
250.067	-59.73
250.284	7.85
250.501	18.09
250.717	63.15
250.934	-51.54
251.151	24.23
251.368	73.39
251.585	42.67
251.801	-22.87
252.018	63.15
252.235	52.91
252.451	54.95
252.668	5.8
252.885	89.77
253.102	54.95
253.318	13.99
253.535	-16.73
253.752	5.8
253.968	20.14
254.185	9.9
254.401	7.85
254.618	91.82
254.835	-76.12
255.051	28.33
255.268	30.38
255.484	46.76
255.701	13.99
255.917	79.53
256.134	-47.44
256.351	54.95
256.567	-12.63
256.784	16.04
257	-14.68
257.217	71.34
257.433	28.33
257.65	30.38
257.866	104.11
258.082	34.47
258.299	-2.39
258.515	32.43
258.732	73.39
258.948	-2.39
259.165	79.53
259.381	22.19
259.597	73.39
259.814	38.57
260.03	63.15
260.246	83.63
260.463	65.19
260.679	57
260.895	57
261.112	95.91
261.328	-10.58
261.544	34.47
261.761	112.3
261.977	11.95
262.193	-92.5
262.409	91.82
262.626	-22.87
262.842	-26.96
263.058	-16.73
263.274	3.75
263.49	69.29
263.707	65.19
263.923	114.34
264.139	-41.3
264.355	26.28
264.571	79.53
264.787	54.95
265.004	13.99
265.22	-61.78
265.436	22.19
265.652	122.54
265.868	34.47
266.084	-24.92
266.3	22.19
266.516	73.39
266.732	93.87
266.948	57
267.164	95.91
267.38	46.76
267.596	-31.06
267.812	46.76
268.028	-2.39
268.244	100.01
268.46	-43.35
268.676	9.9
268.892	57
269.108	59.05
269.324	22.19
269.54	22.19
269.756	63.15
269.972	-41.3
270.188	-2.39
270.403	24.23
270.619	73.39
270.835	106.15
271.051	89.77
271.267	-33.11
271.483	-26.96
271.698	20.14
271.914	32.43
272.13	40.62
272.346	-47.44
272.562	42.67
272.777	-16.73
272.993	-16.73
273.209	13.99
273.425	20.14
273.64	-33.11
273.856	5.8
274.072	67.24
274.287	-18.77
274.503	-37.2
274.719	36.52
274.934	36.52
275.15	-39.25
275.366	71.34
275.581	-26.96
275.797	50.86
276.012	57
276.228	-2.39
276.444	36.52
276.659	57
276.875	30.38
277.09	89.77
277.306	52.91
277.521	128.68
277.737	73.39
277.952	42.67
278.168	46.76
278.383	-16.73
278.599	48.81
278.814	-4.44
279.03	73.39
279.245	93.87
279.461	59.05
279.676	46.76
279.892	-51.54
280.107	85.67
280.322	1.71
280.538	34.47
280.753	-6.49
280.969	13.99
281.184	61.1
281.399	57
281.615	-51.54
281.83	46.76
282.045	-37.2
282.26	18.09
282.476	24.23
282.691	89.77
282.906	48.81
283.122	13.99
283.337	-55.64
283.552	179.88
283.767	13.99
283.983	-2.39
284.198	16.04
284.413	13.99
284.628	-35.16
284.843	54.95
285.058	38.57
285.274	-6.49
285.489	-18.77
285.704	73.39
285.919	59.05
286.134	65.19
286.349	38.57
286.564	75.43
286.779	32.43
286.995	24.23
287.21	-6.49
287.425	61.1
287.64	48.81
287.855	106.15
288.07	-16.73
288.285	59.05
288.5	54.95
288.715	18.09
288.93	-8.53
289.145	22.19
289.36	24.23
289.575	40.62
289.79	9.9
290.004	13.99
290.219	54.95
290.434	91.82
290.649	7.85
290.864	22.19
291.079	34.47
291.294	38.57
291.509	63.15
291.724	30.38
291.938	32.43
292.153	83.63
292.368	-16.73
292.583	-4.44
292.798	89.77
293.012	7.85
293.227	-10.58
293.442	61.1
293.657	116.39
293.871	57
294.086	-22.87
294.301	124.58
294.516	36.52
294.73	7.85
294.945	38.57
295.16	50.86
295.374	54.95
295.589	83.63
295.804	52.91
296.018	136.87
296.233	-4.44
296.447	122.54
296.662	38.57
296.877	30.38
297.091	75.43
297.306	30.38
297.52	5.8
297.735	38.57
297.949	26.28
298.164	38.57
298.378	52.91
298.593	87.72
298.807	22.19
299.022	44.71
299.236	116.39
299.451	73.39
299.665	5.8
299.88	-43.35
300.094	30.38
300.309	3.75
300.523	-37.2
300.737	16.04
300.952	7.85
301.166	50.86
301.381	28.33
301.595	-20.82
301.809	95.91
302.024	46.76
302.238	9.9
302.452	18.09
302.667	-2.39
302.881	87.72
303.095	-24.92
303.309	1.71
303.524	-31.06
303.738	36.52
303.952	36.52
304.166	1.71
304.381	9.9
304.595	75.43
304.809	-31.06
305.023	79.53
305.237	38.57
305.452	-49.49
305.666	38.57
305.88	32.43
306.094	67.24
306.308	73.39
306.522	63.15
306.736	79.53
306.95	48.81
307.164	38.57
307.379	-8.53
307.593	59.05
307.807	46.76
308.021	46.76
308.235	9.9
308.449	-47.44
308.663	30.38
308.877	87.72
309.091	-2.39
309.305	63.15
309.519	-29.01
309.733	73.39
309.947	-39.25
310.161	93.87
310.374	81.58
310.588	59.05
310.802	22.19
311.016	71.34
311.23	54.95
311.444	-43.35
311.658	32.43
311.872	54.95
312.085	104.11
312.299	69.29
312.513	11.95
312.727	-2.39
312.941	20.14
313.154	48.81
313.368	73.39
313.582	38.57
313.796	24.23
314.009	18.09
314.223	52.91
314.437	63.15
314.651	79.53
314.864	13.99
315.078	46.76
315.292	48.81
315.505	32.43
315.719	28.33
315.933	87.72
316.146	79.53
316.36	-49.49
316.573	81.58
316.787	61.1
317.001	81.58
317.214	34.47
317.428	-8.53
317.641	-14.68
317.855	48.81
318.068	-24.92
318.282	-29.01
318.495	54.95
318.709	89.77
318.922	34.47
319.136	63.15
319.349	65.19
319.563	-2.39
319.776	20.14
319.99	50.86
320.203	83.63
320.417	46.76
320.63	81.58
320.843	52.91
321.057	65.19
321.27	-24.92
321.483	13.99
321.697	50.86
321.91	40.62
322.124	54.95
322.337	114.34
322.55	34.47
322.763	-35.16
322.977	-92.5
323.19	40.62
323.403	75.43
323.617	32.43
323.83	75.43
324.043	57
324.256	22.19
324.469	3.75
324.683	63.15
324.896	-67.92
325.109	9.9
325.322	-10.58
325.535	104.11
325.748	71.34
325.962	63.15
326.175	40.62
326.388	59.05
326.601	22.19
326.814	63.15
327.027	7.85
327.24	153.26
327.453	-16.73
327.666	57
327.879	-12.63
328.092	54.95
328.305	-26.96
328.518	-51.54
328.731	65.19
328.944	-0.34
329.157	7.85
329.37	46.76
329.583	120.49
329.796	110.25
330.009	38.57
330.222	79.53
330.435	30.38
330.648	42.67
330.861	69.29
331.073	18.09
331.286	46.76
331.499	22.19
331.712	7.85
331.925	-10.58
332.138	81.58
332.35	38.57
332.563	-57.68
332.776	83.63
332.989	-41.3
333.202	24.23
333.414	54.95
333.627	-43.35
333.84	38.57
334.053	106.15
334.265	40.62
334.478	46.76
334.691	32.43
334.903	22.19
335.116	11.95
335.329	65.19
335.541	54.95
335.754	79.53
335.966	-6.49
336.179	24.23
336.392	71.34
336.604	44.71
336.817	79.53
337.029	128.68
337.242	83.63
337.454	13.99
337.667	-16.73
337.88	95.91
338.092	71.34
338.305	42.67
338.517	-2.39
338.729	120.49
338.942	100.01
339.154	1.71
339.367	7.85
339.579	83.63
339.792	11.95
340.004	97.96
340.217	-8.53
340.429	120.49
340.641	20.14
340.854	5.8
341.066	-2.39
341.278	83.63
341.491	30.38
341.703	63.15
341.915	-14.68
342.128	50.86
342.34	9.9
342.552	24.23
342.764	38.57
342.977	112.3
343.189	46.76
343.401	13.99
343.613	3.75
343.826	67.24
344.038	32.43
344.25	30.38
344.462	46.76
344.674	79.53
344.886	7.85
345.099	-2.39
345.311	-61.78
345.523	5.8
345.735	36.52
345.947	59.05
346.159	32.43
346.371	28.33
346.583	-26.96
346.795	106.15
347.007	1.71
347.219	38.57
347.431	-24.92
347.643	65.19
347.855	-41.3
348.067	122.54
348.279	-24.92
348.491	97.96
348.703	91.82
348.915	-26.96
349.127	-10.58
349.339	30.38
349.551	36.52
349.763	89.77
349.975	46.76
350.187	57
350.399	75.43
350.61	-24.92
350.822	-8.53
351.034	87.72
351.246	110.25
351.458	24.23
351.669	26.28
351.881	73.39
352.093	81.58
352.305	46.76
352.517	79.53
352.728	50.86
352.94	30.38
353.152	71.34
353.363	9.9
353.575	40.62
353.787	120.49
353.999	46.76
354.21	54.95
354.422	9.9
354.633	95.91
354.845	5.8
355.057	97.96
355.268	46.76
355.48	30.38
355.692	22.19
355.903	48.81
356.115	1.71
356.326	-10.58
356.538	52.91
356.749	-10.58
356.961	42.67
357.172	75.43
357.384	30.38
357.595	108.2
357.807	100.01
358.018	11.95
358.23	50.86
358.441	112.3
358.653	104.11
358.864	5.8
359.075	22.19
359.287	26.28
359.498	48.81
359.709	54.95
359.921	30.38
360.132	48.81
360.344	134.82
360.555	7.85
360.766	83.63
360.977	87.72
361.189	44.71
361.4	1.71
361.611	79.53
361.823	126.63
362.034	38.57
362.245	-6.49
362.456	-10.58
362.667	16.04
362.879	22.19
363.09	22.19
363.301	97.96
363.512	87.72
363.723	104.11
363.935	63.15
364.146	89.77
364.357	40.62
364.568	13.99
364.779	5.8
364.99	106.15
365.201	-35.16
365.412	24.23
365.623	-2.39
365.834	116.39
366.045	71.34
366.256	75.43
366.467	54.95
366.678	7.85
366.889	42.67
367.1	46.76
367.311	24.23
367.522	-2.39
367.733	73.39
367.944	50.86
368.155	48.81
368.366	112.3
368.577	87.72
368.788	122.54
368.999	-20.82
369.209	-29.01
369.42	126.63
369.631	61.1
369.842	-18.77
370.053	18.09
370.264	67.24
370.474	11.95
370.685	-10.58
370.896	30.38
371.107	65.19
371.317	120.49
371.528	52.91
371.739	65.19
371.95	40.62
372.16	40.62
372.371	5.8
372.582	122.54
372.792	50.86
373.003	116.39
373.214	1.71
373.424	106.15
373.635	13.99
373.846	102.06
374.056	46.76
374.267	106.15
374.477	79.53
374.688	30.38
374.898	63.15
375.109	50.86
375.319	116.39
375.53	89.77
375.74	83.63
375.951	67.24
376.161	75.43
376.372	71.34
376.582	81.58
376.793	75.43
377.003	-35.16
377.214	28.33
377.424	67.24
377.635	28.33
377.845	26.28
378.055	165.54
378.266	95.91
378.476	5.8
378.686	87.72
378.897	71.34
379.107	73.39
379.317	116.39
379.528	-37.2
379.738	120.49
379.948	59.05
380.158	71.34
380.369	-0.34
380.579	46.76
380.789	34.47
380.999	22.19
381.21	-6.49
381.42	134.82
381.63	22.19
381.84	75.43
382.05	104.11
382.261	38.57
382.471	42.67
382.681	30.38
382.891	89.77
383.101	83.63
383.311	-41.3
383.521	7.85
383.731	153.26
383.941	85.67
384.151	54.95
384.361	7.85
384.571	46.76
384.781	89.77
384.991	120.49
385.201	120.49
385.411	79.53
385.621	132.78
385.831	81.58
386.041	38.57
386.251	38.57
386.461	75.43
386.671	40.62
386.881	63.15
387.091	69.29
387.301	57
387.511	87.72
387.72	34.47
387.93	130.73
388.14	5.8
388.35	75.43
388.56	112.3
388.769	97.96
388.979	71.34
389.189	91.82
389.399	136.87
389.609	95.91
389.818	138.92
390.028	75.43
390.238	59.05
390.447	63.15
390.657	44.71
390.867	24.23
391.076	48.81
391.286	16.04
391.496	-0.34
391.705	26.28
391.915	38.57
392.125	63.15
392.334	38.57
392.544	100.01
392.753	32.43
392.963	75.43
393.172	138.92
393.382	116.39
393.591	132.78
393.801	57
394.01	169.64
394.22	106.15
394.429	5.8
394.639	71.34
394.848	65.19
395.058	112.3
395.267	65.19
395.477	153.26
395.686	112.3
395.895	134.82
396.105	171.69
396.314	186.02
396.524	104.11
396.733	89.77
396.942	126.63
397.152	110.25
397.361	112.3
397.57	100.01
397.78	52.91
397.989	85.67
398.198	196.26
398.407	65.19
398.617	124.58
398.826	87.72
399.035	48.81
399.244	38.57
399.453	48.81
399.663	83.63
399.872	161.45
400.081	153.26
400.29	175.78
400.499	140.97
400.708	128.68
400.917	149.16
401.127	186.02
401.336	140.97
401.545	149.16
401.754	136.87
401.963	155.3
402.172	91.82
402.381	116.39
402.59	97.96
402.799	126.63
403.008	179.88
403.217	116.39
403.426	104.11
403.635	81.58
403.844	145.06
404.053	104.11
404.262	73.39
404.471	153.26
404.68	102.06
404.888	177.83
405.097	194.22
405.306	120.49
405.515	186.02
405.724	202.41
405.933	169.64
406.142	222.89
406.35	220.84
406.559	292.52
406.768	235.18
406.977	245.41
407.185	196.26
407.394	190.12
407.603	155.3
407.812	212.65
408.02	284.33
408.229	302.76
408.438	300.71
408.646	247.46
408.855	218.79
409.064	278.18
409.272	331.43
409.481	374.44
409.69	302.76
409.898	331.43
410.107	319.14
410.315	423.59
410.524	419.49
410.733	415.4
410.941	372.39
411.15	454.31
411.358	407.2
411.567	532.13
411.775	487.08
411.984	464.55
412.192	544.42
412.401	530.08
412.609	507.55
412.818	528.03
413.026	517.79
413.234	571.04
413.443	630.43
413.651	624.29
413.86	595.62
414.068	732.83
414.276	775.84
414.485	767.65
414.693	695.97
414.901	886.43
415.11	902.81
415.318	845.47
415.526	870.05
415.734	876.19
415.943	876.19
416.151	1017.5
416.359	941.72
416.567	1029.79
416.776	1031.83
416.984	1078.94
417.192	1193.62
417.4	1085.08
417.608	1230.49
417.817	1250.97
418.025	1343.13
418.233	1357.46
418.441	1363.61
418.649	1359.51
418.857	1455.76
419.065	1562.26
419.273	1525.4
419.481	1660.56
419.689	1676.95
419.897	1678.99
420.105	1758.86
420.313	1853.07
420.521	2027.15
420.729	2006.67
420.937	1943.18
421.145	2068.11
421.353	2162.31
421.561	2336.39
421.769	2389.64
421.977	2369.16
422.185	2393.73
422.393	2621.06
422.601	2623.11
422.809	2711.17
423.017	2676.35
423.224	2842.24
423.432	2850.43
423.64	2840.19
423.848	3079.8
424.056	3282.55
424.263	3276.41
424.471	3323.51
424.679	3323.51
424.887	3739.25
425.094	3706.48
425.302	3751.54
425.51	3847.79
425.718	4081.26
425.925	4152.94
426.133	4177.51
426.341	4466.28
426.548	4642.4
426.756	4576.87
426.964	4640.36
427.171	5052
427.379	5113.44
427.586	5195.36
427.794	5371.48
428.001	5512.79
428.209	5764.69
428.417	5750.35
428.624	6061.65
428.832	5957.2
429.039	6053.45
429.247	6092.37
429.454	6710.85
429.662	7022.14
429.869	6393.42
430.076	6932.03
430.284	6823.49
430.491	7132.73
430.699	7779.89
430.906	7542.33
431.114	7652.92
431.321	7962.16
431.528	8101.42
431.736	8644.13
431.943	8861.22
432.15	8717.86
432.358	8965.67
432.565	9319.96
432.772	9348.64
432.979	9713.17
433.187	10018.32
433.394	9883.16
433.601	10679.82
433.808	10501.64
434.016	10649.1
434.223	10991.11
434.43	11826.68
434.637	11451.9
434.844	12131.83
435.052	12279.28
435.259	12301.81
435.466	12371.44
435.673	12244.46
435.88	12908.01
436.087	13704.67
436.294	13759.96
436.501	13712.86
436.708	13786.58
436.915	14288.34
437.122	14542.28
437.329	14669.26
437.537	15123.91
437.743	15463.87
437.95	15371.71
438.157	16000.44
438.364	16774.57
438.571	16434.61
438.778	16731.56
438.985	17943.96
439.192	17585.57
439.399	18044.31
439.606	17446.3
439.813	18714
440.02	19715.45
440.227	19471.75
440.433	19113.35
440.64	19821.95
440.847	19527.04
441.054	20010.36
441.261	21501.28
441.467	21226.85
441.674	21577.06
441.881	22187.35
442.088	22369.62
442.294	22117.72
442.501	22375.77
442.708	23295.3
442.914	24108.35
443.121	24937.77
443.328	24433.97
443.534	25863.46
443.741	25478.44
443.948	25259.31
444.154	26873.1
444.361	26629.4
444.568	26744.08
444.774	26520.85
444.981	26823.95
445.187	27800.83
445.394	28941.55
445.6	28769.52
445.807	31341.77
446.013	29867.23
446.22	30379.23
446.426	31698.12
446.633	32171.2
446.839	33010.87
447.046	31894.72
447.252	33465.52
447.459	33940.64
447.665	33682.6
447.871	34913.43
448.078	36308.1
448.284	34778.26
448.491	35841.16
448.697	36766.84
448.903	37442.67
449.11	37528.69
449.316	37428.34
449.522	37813.35
449.728	38618.21
449.935	38978.65
450.141	38851.67
450.347	39889.99
450.553	38685.79
450.76	39156.82
450.966	40133.7
451.172	40012.87
451.378	41083.96
451.584	40315.97
451.791	41364.53
451.997	41069.62
452.203	41411.63
452.409	41964.59
452.615	41819.18
452.821	40019.02
453.027	39543.89
453.233	41593.9
453.44	39734.35
453.646	40358.98
453.852	40625.21
454.058	41288.76
454.264	39818.32
454.47	40744
454.676	39736.4
454.882	41434.16
455.088	37692.52
455.294	38372.45
455.5	38937.69
455.705	38900.83
455.911	37618.8
456.117	37162.1
456.323	36637.82
456.529	34481.31
456.735	36166.79
456.941	35255.44
457.147	34622.62
457.352	33524.91
457.558	33131.7
457.764	33313.97
457.97	32648.38
458.176	31769.8
458.381	31524.04
458.587	30336.22
458.793	30090.46
458.999	28658.93
459.204	30690.52
459.41	30264.54
459.616	27671.81
459.821	27872.51
460.027	27841.79
460.233	27364.62
460.438	26252.57
460.644	26174.75
460.85	24716.59
461.055	24569.14
461.261	24499.51
461.466	22506.84
461.672	22117.72
461.878	23469.38
462.083	21960.03
462.289	21261.67
462.494	21171.56
462.7	20465.01
462.905	19668.35
463.111	20299.12
463.316	20397.43
463.522	20090.23
463.727	20141.43
463.932	19776.89
464.138	19578.24
464.343	19694.97
464.549	19150.21
464.754	20043.13
464.959	19584.38
465.165	19166.6
465.37	18525.58
465.575	17958.3
465.781	18969.99
465.986	18945.42
466.191	18249.11
466.397	17943.96
466.602	16942.5
466.807	17442.21
467.012	17706.4
467.218	17276.32
467.423	17096.1
