Data from USB4F104151__71__14-30-24-025.txt Node

Date: Thu Mar 13 14:30:24 EDT 2025
User: louis
Spectrometer: USB4F10415
Trigger mode: 4
Integration Time (sec): 2.500000E-2
Scans to average: 1
Electric dark correction enabled: true
Nonlinearity correction enabled: false
Boxcar width: 0
XAxis mode: Wavelengths
Number of Pixels in Spectrum: 3648
>>>>>Begin Spectral Data<<<<<
178.204	-102.57
178.424	-102.57
178.644	-102.57
178.864	-100.52
179.084	-143.53
179.304	-8.36
179.524	-34.99
179.744	38.74
179.964	77.65
180.184	18.26
180.404	46.93
180.624	-4.27
180.844	-20.65
181.064	-69.8
181.283	-8.36
181.503	5.97
181.723	-41.13
181.943	-6.31
182.163	77.65
182.383	87.89
182.602	63.32
182.822	-10.41
183.042	-28.84
183.262	28.5
183.482	-2.22
183.701	-16.55
183.921	-18.6
184.141	-20.65
184.361	65.36
184.58	3.93
184.8	26.45
185.02	14.17
185.239	81.75
185.459	-6.31
185.679	24.4
185.898	-65.71
186.118	69.46
186.338	18.26
186.557	38.74
186.777	-28.84
186.997	-6.31
187.216	28.5
187.436	28.5
187.655	48.98
187.875	48.98
188.095	-37.03
188.314	61.27
188.534	-6.31
188.753	1.88
188.973	69.46
189.192	30.55
189.412	20.31
189.631	-28.84
189.851	67.41
190.07	118.61
190.29	-26.79
190.509	-53.42
190.729	-12.46
190.948	20.31
191.168	110.42
191.387	96.08
191.607	-22.7
191.826	24.4
192.045	-8.36
192.265	-20.65
192.484	12.12
192.704	85.84
192.923	12.12
193.142	38.74
193.362	-53.42
193.581	28.5
193.8	28.5
194.02	22.36
194.239	12.12
194.458	114.52
194.678	-10.41
194.897	44.88
195.116	24.4
195.335	32.6
195.555	-0.17
195.774	30.55
195.993	40.79
196.212	-0.17
196.432	-12.46
196.651	20.31
196.87	28.5
197.089	40.79
197.308	44.88
197.528	63.32
197.747	8.02
197.966	28.5
198.185	-2.22
198.404	-18.6
198.623	46.93
198.842	-4.27
199.062	-12.46
199.281	67.41
199.5	-24.75
199.719	32.6
199.938	-6.31
200.157	63.32
200.376	36.69
200.595	-8.36
200.814	-32.94
201.033	20.31
201.252	69.46
201.471	3.93
201.69	20.31
201.909	20.31
202.128	102.23
202.347	-28.84
202.566	-8.36
202.785	18.26
203.004	-53.42
203.223	143.19
203.442	18.26
203.661	55.12
203.879	36.69
204.098	12.12
204.317	85.84
204.536	30.55
204.755	24.4
204.974	110.42
205.193	59.22
205.411	98.13
205.63	-20.65
205.849	61.27
206.068	8.02
206.287	-2.22
206.505	36.69
206.724	12.12
206.943	-24.75
207.162	-34.99
207.381	12.12
207.599	-45.23
207.818	-8.36
208.037	40.79
208.255	-65.71
208.474	36.69
208.693	20.31
208.911	-18.6
209.13	32.6
209.349	61.27
209.567	14.17
209.786	53.08
210.005	14.17
210.223	5.97
210.442	-100.52
210.661	20.31
210.879	-16.55
211.098	-20.65
211.316	30.55
211.535	-12.46
211.753	69.46
211.972	38.74
212.191	-6.31
212.409	-43.18
212.628	22.36
212.846	8.02
213.065	12.12
213.283	36.69
213.502	24.4
213.72	3.93
213.938	1.88
214.157	61.27
214.375	-18.6
214.594	-53.42
214.812	104.28
215.031	112.47
215.249	8.02
215.467	114.52
215.686	-45.23
215.904	57.17
216.122	-16.55
216.341	36.69
216.559	26.45
216.778	32.6
216.996	24.4
217.214	36.69
217.432	12.12
217.651	-0.17
217.869	42.84
218.087	-20.65
218.306	12.12
218.524	44.88
218.742	-2.22
218.96	8.02
219.179	-45.23
219.397	14.17
219.615	94.04
219.833	53.08
220.051	-49.32
220.27	87.89
220.488	36.69
220.706	79.7
220.924	-4.27
221.142	-41.13
221.36	30.55
221.578	-14.51
221.796	28.5
222.015	-0.17
222.233	22.36
222.451	8.02
222.669	38.74
222.887	98.13
223.105	26.45
223.323	-18.6
223.541	-100.52
223.759	-0.17
223.977	-51.37
224.195	26.45
224.413	55.12
224.631	73.56
224.849	-14.51
225.067	36.69
225.285	61.27
225.503	-34.99
225.721	-37.03
225.939	65.36
226.157	22.36
226.375	85.84
226.592	-47.27
226.81	36.69
227.028	61.27
227.246	145.24
227.464	20.31
227.682	-10.41
227.9	75.6
228.117	46.93
228.335	36.69
228.553	-49.32
228.771	57.17
228.989	-20.65
229.206	38.74
229.424	81.75
229.642	-84.14
229.86	-37.03
230.077	108.37
230.295	-61.61
230.513	73.56
230.731	71.51
230.948	28.5
231.166	104.28
231.384	-49.32
231.601	-55.47
231.819	102.23
232.037	1.88
232.254	81.75
232.472	-18.6
232.689	8.02
232.907	44.88
233.125	3.93
233.342	-12.46
233.56	26.45
233.777	-55.47
233.995	-10.41
234.213	20.31
234.43	83.8
234.648	16.21
234.865	-8.36
235.083	36.69
235.3	18.26
235.518	63.32
235.735	85.84
235.953	94.04
236.17	8.02
236.388	61.27
236.605	46.93
236.822	26.45
237.04	-55.47
237.257	-32.94
237.475	44.88
237.692	-0.17
237.909	-14.51
238.127	20.31
238.344	30.55
238.562	145.24
238.779	-26.79
238.996	-45.23
239.214	12.12
239.431	8.02
239.648	-20.65
239.865	57.17
240.083	28.5
240.3	5.97
240.517	3.93
240.735	75.6
240.952	61.27
241.169	98.13
241.386	-37.03
241.603	20.31
241.821	8.02
242.038	87.89
242.255	14.17
242.472	-16.55
242.689	14.17
242.907	28.5
243.124	20.31
243.341	38.74
243.558	32.6
243.775	61.27
243.992	5.97
244.209	81.75
244.426	94.04
244.643	44.88
244.86	38.74
245.078	53.08
245.295	98.13
245.512	-28.84
245.729	-37.03
245.946	94.04
246.163	18.26
246.38	48.98
246.597	14.17
246.814	-6.31
247.031	36.69
247.248	-32.94
247.464	46.93
247.681	69.46
247.898	40.79
248.115	98.13
248.332	-16.55
248.549	36.69
248.766	89.94
248.983	46.93
249.2	61.27
249.417	-26.79
249.633	3.93
249.85	22.36
250.067	16.21
250.284	28.5
250.501	-12.46
250.717	36.69
250.934	-2.22
251.151	20.31
251.368	61.27
251.585	44.88
251.801	8.02
252.018	-57.51
252.235	67.41
252.451	-61.61
252.668	-18.6
252.885	40.79
253.102	-20.65
253.318	-0.17
253.535	-24.75
253.752	5.97
253.968	44.88
254.185	55.12
254.401	53.08
254.618	-2.22
254.835	22.36
255.051	69.46
255.268	22.36
255.484	55.12
255.701	-53.42
255.917	38.74
256.134	-45.23
256.351	53.08
256.567	-26.79
256.784	44.88
257	-45.23
257.217	26.45
257.433	-16.55
257.65	-8.36
257.866	89.94
258.082	-20.65
258.299	-51.37
258.515	-32.94
258.732	38.74
258.948	12.12
259.165	20.31
259.381	-24.75
259.597	3.93
259.814	-6.31
260.03	14.17
260.246	77.65
260.463	85.84
260.679	53.08
260.895	38.74
261.112	30.55
261.328	-2.22
261.544	-24.75
261.761	20.31
261.977	-4.27
262.193	28.5
262.409	65.36
262.626	-2.22
262.842	36.69
263.058	-65.71
263.274	118.61
263.49	44.88
263.707	-10.41
263.923	-0.17
264.139	-28.84
264.355	53.08
264.571	94.04
264.787	32.6
265.004	77.65
265.22	38.74
265.436	-16.55
265.652	-4.27
265.868	30.55
266.084	1.88
266.3	5.97
266.516	20.31
266.732	-43.18
266.948	51.03
267.164	36.69
267.38	102.23
267.596	75.6
267.812	85.84
268.028	-20.65
268.244	1.88
268.46	26.45
268.676	-18.6
268.892	12.12
269.108	12.12
269.324	-49.32
269.54	-26.79
269.756	53.08
269.972	-45.23
270.188	-53.42
270.403	-41.13
270.619	44.88
270.835	-18.6
271.051	42.84
271.267	-49.32
271.483	53.08
271.698	10.07
271.914	71.51
272.13	-20.65
272.346	-34.99
272.562	8.02
272.777	42.84
272.993	3.93
273.209	5.97
273.425	59.22
273.64	-28.84
273.856	30.55
274.072	38.74
274.287	-2.22
274.503	34.64
274.719	89.94
274.934	53.08
275.15	-45.23
275.366	24.4
275.581	3.93
275.797	44.88
276.012	-47.27
276.228	-12.46
276.444	22.36
276.659	44.88
276.875	-57.51
277.09	36.69
277.306	-0.17
277.521	69.46
277.737	44.88
277.952	61.27
278.168	-4.27
278.383	46.93
278.599	67.41
278.814	87.89
279.03	40.79
279.245	118.61
279.461	44.88
279.676	61.27
279.892	-8.36
280.107	-57.51
280.322	-8.36
280.538	20.31
280.753	8.02
280.969	-16.55
281.184	-16.55
281.399	63.32
281.615	71.51
281.83	3.93
282.045	22.36
282.26	-20.65
282.476	14.17
282.691	102.23
282.906	-16.55
283.122	40.79
283.337	-12.46
283.552	-10.41
283.767	44.88
283.983	28.5
284.198	5.97
284.413	12.12
284.628	46.93
284.843	26.45
285.058	36.69
285.274	-8.36
285.489	-20.65
285.704	36.69
285.919	-39.08
286.134	12.12
286.349	36.69
286.564	48.98
286.779	57.17
286.995	26.45
287.21	8.02
287.425	61.27
287.64	46.93
287.855	-34.99
288.07	24.4
288.285	28.5
288.5	87.89
288.715	3.93
288.93	28.5
289.145	-6.31
289.36	-32.94
289.575	-32.94
289.79	79.7
290.004	-20.65
290.219	32.6
290.434	44.88
290.649	-28.84
290.864	24.4
291.079	40.79
291.294	10.07
291.509	75.6
291.724	63.32
291.938	32.6
292.153	20.31
292.368	-18.6
292.583	8.02
292.798	42.84
293.012	69.46
293.227	-4.27
293.442	22.36
293.657	61.27
293.871	126.8
294.086	-0.17
294.301	83.8
294.516	20.31
294.73	75.6
294.945	-24.75
295.16	36.69
295.374	108.37
295.589	83.8
295.804	-47.27
296.018	38.74
296.233	102.23
296.447	32.6
296.662	28.5
296.877	-2.22
297.091	102.23
297.306	32.6
297.52	-45.23
297.735	14.17
297.949	61.27
298.164	59.22
298.378	32.6
298.593	53.08
298.807	-69.8
299.022	53.08
299.236	36.69
299.451	30.55
299.665	-8.36
299.88	32.6
300.094	-8.36
300.309	-22.7
300.523	-4.27
300.737	44.88
300.952	8.02
301.166	57.17
301.381	-12.46
301.595	53.08
301.809	8.02
302.024	61.27
302.238	8.02
302.452	28.5
302.667	24.4
302.881	98.13
303.095	81.75
303.309	26.45
303.524	-45.23
303.738	-28.84
303.952	85.84
304.166	-28.84
304.381	-6.31
304.595	53.08
304.809	-41.13
305.023	53.08
305.237	-34.99
305.452	44.88
305.666	57.17
305.88	-10.41
306.094	63.32
306.308	53.08
306.522	65.36
306.736	79.7
306.95	32.6
307.164	-18.6
307.379	30.55
307.593	77.65
307.807	34.64
308.021	5.97
308.235	-41.13
308.449	20.31
308.663	-18.6
308.877	102.23
309.091	59.22
309.305	79.7
309.519	-94.38
309.733	28.5
309.947	-14.51
310.161	-12.46
310.374	26.45
310.588	61.27
310.802	1.88
311.016	20.31
311.23	3.93
311.444	-30.89
311.658	32.6
311.872	153.43
312.085	34.64
312.299	98.13
312.513	98.13
312.727	24.4
312.941	-16.55
313.154	79.7
313.368	38.74
313.582	-28.84
313.796	81.75
314.009	94.04
314.223	8.02
314.437	5.97
314.651	63.32
314.864	-18.6
315.078	16.21
315.292	5.97
315.505	69.46
315.719	44.88
315.933	5.97
316.146	-41.13
316.36	-37.03
316.573	53.08
316.787	85.84
317.001	-41.13
317.214	-22.7
317.428	94.04
317.641	-41.13
317.855	-43.18
318.068	30.55
318.282	46.93
318.495	110.42
318.709	22.36
318.922	3.93
319.136	5.97
319.349	-0.17
319.563	16.21
319.776	87.89
319.99	38.74
320.203	61.27
320.417	-39.08
320.63	44.88
320.843	79.7
321.057	-26.79
321.27	48.98
321.483	24.4
321.697	118.61
321.91	-10.41
322.124	65.36
322.337	26.45
322.55	61.27
322.763	46.93
322.977	22.36
323.19	28.5
323.403	-20.65
323.617	55.12
323.83	44.88
324.043	-41.13
324.256	61.27
324.469	8.02
324.683	-20.65
324.896	20.31
325.109	-26.79
325.322	-18.6
325.535	114.52
325.748	65.36
325.962	42.84
326.175	16.21
326.388	20.31
326.601	87.89
326.814	-24.75
327.027	44.88
327.24	57.17
327.453	-80.04
327.666	-41.13
327.879	55.12
328.092	81.75
328.305	69.46
328.518	59.22
328.731	102.23
328.944	53.08
329.157	63.32
329.37	85.84
329.583	18.26
329.796	94.04
330.009	-32.94
330.222	73.56
330.435	63.32
330.648	-8.36
330.861	143.19
331.073	63.32
331.286	-12.46
331.499	79.7
331.712	-34.99
331.925	98.13
332.138	-8.36
332.35	106.32
332.563	-12.46
332.776	34.64
332.989	-32.94
333.202	-8.36
333.414	46.93
333.627	48.98
333.84	12.12
334.053	44.88
334.265	20.31
334.478	44.88
334.691	-8.36
334.903	104.28
335.116	22.36
335.329	46.93
335.541	36.69
335.754	12.12
335.966	-39.08
336.179	61.27
336.392	-32.94
336.604	14.17
336.817	102.23
337.029	-6.31
337.242	128.85
337.454	102.23
337.667	71.51
337.88	106.32
338.092	110.42
338.305	36.69
338.517	12.12
338.729	3.93
338.942	14.17
339.154	-28.84
339.367	-45.23
339.579	36.69
339.792	-53.42
340.004	36.69
340.217	-18.6
340.429	61.27
340.641	-39.08
340.854	-20.65
341.066	46.93
341.278	94.04
341.491	128.85
341.703	44.88
341.915	77.65
342.128	30.55
342.34	73.56
342.552	-26.79
342.764	-30.89
342.977	28.5
343.189	-8.36
343.401	30.55
343.613	3.93
343.826	3.93
344.038	38.74
344.25	12.12
344.462	16.21
344.674	96.08
344.886	65.36
345.099	36.69
345.311	-26.79
345.523	14.17
345.735	-16.55
345.947	-65.71
346.159	57.17
346.371	89.94
346.583	28.5
346.795	65.36
347.007	1.88
347.219	-28.84
347.431	36.69
347.643	53.08
347.855	34.64
348.067	94.04
348.279	24.4
348.491	-12.46
348.703	-10.41
348.915	-41.13
349.127	24.4
349.339	-12.46
349.551	73.56
349.763	94.04
349.975	30.55
350.187	194.39
350.399	14.17
350.61	-6.31
350.822	3.93
351.034	61.27
351.246	57.17
351.458	110.42
351.669	28.5
351.881	30.55
352.093	16.21
352.305	44.88
352.517	71.51
352.728	75.6
352.94	57.17
353.152	14.17
353.363	3.93
353.575	110.42
353.787	87.89
353.999	77.65
354.21	128.85
354.422	38.74
354.633	53.08
354.845	63.32
355.057	67.41
355.268	38.74
355.48	53.08
355.692	46.93
355.903	-51.37
356.115	20.31
356.326	-28.84
356.538	65.36
356.749	77.65
356.961	87.89
357.172	69.46
357.384	71.51
357.595	171.86
357.807	-6.31
358.018	20.31
358.23	-61.61
358.441	85.84
358.653	71.51
358.864	16.21
359.075	61.27
359.287	16.21
359.498	48.98
359.709	87.89
359.921	10.07
360.132	87.89
360.344	-53.42
360.555	48.98
360.766	30.55
360.977	63.32
361.189	63.32
361.4	1.88
361.611	30.55
361.823	1.88
362.034	53.08
362.245	8.02
362.456	94.04
362.667	-51.37
362.879	36.69
363.09	28.5
363.301	77.65
363.512	16.21
363.723	-4.27
363.935	-10.41
364.146	67.41
364.357	42.84
364.568	79.7
364.779	-26.79
364.99	16.21
365.201	32.6
365.412	14.17
365.623	16.21
365.834	5.97
366.045	1.88
366.256	73.56
366.467	51.03
366.678	51.03
366.889	28.5
367.1	-4.27
367.311	44.88
367.522	-16.55
367.733	14.17
367.944	83.8
368.155	12.12
368.366	38.74
368.577	83.8
368.788	38.74
368.999	-20.65
369.209	-10.41
369.42	85.84
369.631	118.61
369.842	98.13
370.053	-10.41
370.264	79.7
370.474	-18.6
370.685	42.84
370.896	71.51
371.107	63.32
371.317	85.84
371.528	135
371.739	8.02
371.95	85.84
372.16	89.94
372.371	5.97
372.582	24.4
372.792	34.64
373.003	55.12
373.214	53.08
373.424	-14.51
373.635	-45.23
373.846	44.88
374.056	55.12
374.267	46.93
374.477	3.93
374.688	20.31
374.898	77.65
375.109	61.27
375.319	57.17
375.53	98.13
375.74	-18.6
375.951	-12.46
376.161	53.08
376.372	98.13
376.582	16.21
376.793	94.04
377.003	-2.22
377.214	67.41
377.424	81.75
377.635	69.46
377.845	-34.99
378.055	-24.75
378.266	20.31
378.476	36.69
378.686	38.74
378.897	5.97
379.107	3.93
379.317	40.79
379.528	63.32
379.738	94.04
379.948	20.31
380.158	110.42
380.369	-39.08
380.579	96.08
380.789	42.84
380.999	-8.36
381.21	38.74
381.42	102.23
381.63	40.79
381.84	79.7
382.05	36.69
382.261	20.31
382.471	36.69
382.681	71.51
382.891	110.42
383.101	69.46
383.311	-53.42
383.521	5.97
383.731	55.12
383.941	91.99
384.151	-8.36
384.361	48.98
384.571	-37.03
384.781	120.66
384.991	102.23
385.201	81.75
385.411	12.12
385.621	122.71
385.831	32.6
386.041	-43.18
386.251	38.74
386.461	44.88
386.671	77.65
386.881	96.08
387.091	59.22
387.301	-8.36
387.511	12.12
387.72	44.88
387.93	20.31
388.14	-4.27
388.35	8.02
388.56	85.84
388.769	114.52
388.979	106.32
389.189	28.5
389.399	122.71
389.609	12.12
389.818	61.27
390.028	46.93
390.238	57.17
390.447	24.4
390.657	75.6
390.867	46.93
391.076	-39.08
391.286	81.75
391.496	32.6
391.705	40.79
391.915	104.28
392.125	141.14
392.334	61.27
392.544	-8.36
392.753	81.75
392.963	-69.8
393.172	114.52
393.382	46.93
393.591	106.32
393.801	57.17
394.01	124.76
394.22	130.9
394.429	44.88
394.639	22.36
394.848	104.28
395.058	114.52
395.267	114.52
395.477	94.04
395.686	46.93
395.895	151.38
396.105	161.62
396.314	106.32
396.524	89.94
396.733	5.97
396.942	130.9
397.152	143.19
397.361	102.23
397.57	102.23
397.78	36.69
397.989	89.94
398.198	126.8
398.407	46.93
398.617	184.15
398.826	130.9
399.035	104.28
399.244	163.67
399.453	28.5
399.663	85.84
399.872	122.71
400.081	22.36
400.29	149.33
400.499	116.56
400.708	102.23
400.917	100.18
401.127	69.46
401.336	63.32
401.545	202.58
401.754	132.95
401.963	102.23
402.172	96.08
402.381	98.13
402.59	122.71
402.799	196.43
403.008	114.52
403.217	106.32
403.426	135
403.635	63.32
403.844	81.75
404.053	139.09
404.262	79.7
404.471	202.58
404.68	163.67
404.888	87.89
405.097	141.14
405.306	89.94
405.515	167.76
405.724	155.47
405.933	169.81
406.142	216.91
406.35	212.82
406.559	192.34
406.768	194.39
406.977	259.92
407.185	159.57
407.394	292.69
407.603	145.24
407.812	245.59
408.02	278.35
408.229	216.91
408.438	266.07
408.646	233.3
408.855	288.59
409.064	315.22
409.272	333.65
409.481	341.84
409.69	333.65
409.898	251.73
410.107	329.55
410.315	421.71
410.524	333.65
410.733	364.37
410.941	431.95
411.15	429.9
411.358	429.9
411.567	479.05
411.775	421.71
411.984	470.86
412.192	425.81
412.401	454.48
412.609	503.63
412.818	634.7
413.026	585.55
413.234	534.35
413.443	630.6
413.651	501.58
413.86	708.43
414.068	624.46
414.276	786.25
414.485	677.71
414.693	716.62
414.901	825.16
415.11	790.35
415.318	855.88
415.526	782.15
415.734	915.27
415.943	847.69
416.151	956.23
416.359	1027.91
416.567	982.85
416.776	1060.68
416.984	1054.53
417.192	1171.27
417.4	1087.3
417.608	1128.26
417.817	1064.77
418.025	1318.72
418.233	1421.12
418.441	1269.57
418.649	1357.63
418.857	1396.54
419.065	1552.19
419.273	1437.5
419.481	1576.77
419.689	1576.77
419.897	1683.26
420.105	1738.55
420.313	1761.08
420.521	1963.83
420.729	1855.29
420.937	1922.87
421.145	1924.92
421.353	2053.94
421.561	2191.16
421.769	2207.54
421.977	2316.08
422.185	2314.03
422.393	2488.11
422.601	2576.17
422.809	2637.61
423.017	2629.42
423.224	2668.33
423.432	3063.59
423.64	2862.89
423.848	3122.98
424.056	3063.59
424.263	3378.98
424.471	3141.41
424.679	3358.5
424.887	3403.55
425.094	3614.49
425.302	3520.29
425.51	3800.86
425.718	3854.11
425.925	4034.33
426.133	4099.86
426.341	4290.32
426.548	4429.59
426.756	4462.35
426.964	4476.69
427.171	4679.44
427.379	4878.09
427.586	4923.15
427.794	5086.98
428.001	5418.75
428.209	5535.49
428.417	5424.9
428.624	5871.36
428.832	5867.26
429.039	5754.62
429.247	5965.56
429.454	6452.98
429.662	6801.13
429.869	6401.78
430.076	6934.25
430.284	6610.67
430.491	6878.96
430.699	7190.25
430.906	7384.8
431.114	7384.8
431.321	7818.97
431.528	7919.32
431.736	8255.19
431.943	8732.37
432.15	8269.53
432.358	8453.84
432.565	8859.34
432.772	9043.66
432.979	9240.26
433.187	9563.84
433.394	9619.14
433.601	10227.39
433.808	10348.22
434.016	10217.15
434.223	10585.78
434.43	11103.92
434.637	11140.78
434.844	11683.49
435.052	11863.71
435.259	11759.27
435.466	12127.9
435.673	11914.91
435.88	12537.49
436.087	13287.05
436.294	13350.54
436.501	12869.26
436.708	13170.32
436.915	13553.29
437.122	14134.91
437.329	14253.69
437.537	14493.3
437.743	14755.44
437.95	14679.67
438.157	15654.5
438.364	15904.35
438.571	15959.65
438.778	16092.77
438.985	17825.35
439.192	16844.37
439.399	17641.03
439.606	17018.45
439.813	17860.16
440.02	19224.11
440.227	18746.94
440.433	18634.3
440.64	19330.61
440.847	18855.48
441.054	19492.4
441.261	20723.23
441.467	20559.39
441.674	20870.68
441.881	21648.91
442.088	21782.02
442.294	21306.9
442.501	21929.48
442.708	22203.91
442.914	23381.49
443.121	24145.38
443.328	23539.18
443.534	25286.1
443.741	24659.42
443.948	24186.34
444.154	26150.34
444.361	25857.48
444.568	26097.1
444.774	25974.22
444.981	26146.25
445.187	26820.03
445.394	28120.49
445.6	28190.12
445.807	30418.31
446.013	29285.78
446.22	29603.22
446.426	30463.36
446.633	30930.3
446.839	32357.74
447.046	30788.99
447.252	32583.01
447.459	32433.51
447.665	32378.22
447.871	33871.18
448.078	35579.19
448.284	33250.65
448.491	34475.34
448.697	35622.2
448.903	36640.04
449.11	36945.19
449.316	36109.61
449.522	36685.09
449.728	37584.15
449.935	38114.58
450.141	38020.37
450.347	38405.39
450.553	37610.78
450.76	37661.97
450.966	39169.28
451.172	38761.73
451.378	39523.58
451.584	38855.94
451.791	39462.14
451.997	39611.64
452.203	40342.77
452.409	40453.36
452.615	40002.8
452.821	38917.38
453.027	38149.39
453.233	40539.37
453.44	38579.46
453.646	39376.12
453.852	39148.8
454.058	39531.77
454.264	38296.84
454.47	39650.55
454.676	38593.8
454.882	39953.65
455.088	36134.19
455.294	36513.06
455.5	37328.16
455.705	37602.58
455.911	36175.15
456.117	35697.97
456.323	34903.36
456.529	33211.74
456.735	34270.54
456.941	33719.63
457.147	33205.59
457.352	32028.01
457.558	31798.64
457.764	31559.03
457.97	31073.66
458.176	30244.23
458.381	30502.28
458.587	28800.41
458.793	28849.57
458.999	27461.04
459.204	29416.85
459.41	28442.02
459.616	26408.39
459.821	26787.26
460.027	26609.09
460.233	25679.31
460.438	24731.1
460.644	25322.96
460.85	23846.38
461.055	23541.23
461.261	23270.9
461.466	21540.36
461.672	20948.5
461.878	22750.71
462.083	21098
462.289	20465.18
462.494	20254.24
462.7	19457.58
462.905	18748.98
463.111	19523.12
463.316	19564.07
463.522	19306.03
463.727	19217.97
463.932	19181.1
464.138	18880.05
464.343	18916.92
464.549	18288.19
464.754	18947.64
464.959	18943.54
465.165	18787.89
465.37	17751.62
465.575	17399.37
465.781	17931.84
465.986	18138.69
466.191	17354.32
466.397	17059.41
466.602	16320.09
