Data from USB4F104151__49__14-29-58-183.txt Node

Date: Thu Mar 13 14:29:58 EDT 2025
User: louis
Spectrometer: USB4F10415
Trigger mode: 4
Integration Time (sec): 2.500000E-2
Scans to average: 1
Electric dark correction enabled: true
Nonlinearity correction enabled: false
Boxcar width: 0
XAxis mode: Wavelengths
Number of Pixels in Spectrum: 3648
>>>>>Begin Spectral Data<<<<<
178.204	-180.9
178.424	-180.9
178.644	-180.9
178.864	-96.94
179.084	-135.85
179.304	-17.07
179.524	-21.16
179.744	32.08
179.964	48.47
180.184	-15.02
180.404	17.75
180.624	-10.92
180.844	-21.16
181.064	-58.03
181.283	48.47
181.503	15.7
181.723	-19.11
181.943	-15.02
182.163	101.72
182.383	-25.26
182.602	95.57
182.822	99.67
183.042	-6.83
183.262	48.47
183.482	48.47
183.701	-0.68
183.921	23.89
184.141	93.52
184.361	56.66
184.58	91.48
184.8	64.85
185.02	-10.92
185.239	34.13
185.459	23.89
185.679	60.76
185.898	-2.73
186.118	85.33
186.338	60.76
186.557	77.14
186.777	17.75
186.997	15.7
187.216	68.95
187.436	105.81
187.655	122.2
187.875	83.28
188.095	-10.92
188.314	114
188.534	95.57
188.753	114
188.973	60.76
189.192	114
189.412	77.14
189.631	58.71
189.851	-0.68
190.07	56.66
190.29	15.7
190.509	27.99
190.729	11.61
190.948	89.43
191.168	165.2
191.387	159.06
191.607	118.1
191.826	-29.35
192.045	68.95
192.265	89.43
192.484	44.37
192.704	15.7
192.923	40.28
193.142	130.39
193.362	71
193.581	91.48
193.8	79.19
194.02	118.1
194.239	77.14
194.458	32.08
194.678	21.85
194.897	95.57
195.116	-15.02
195.335	60.76
195.555	48.47
195.774	25.94
195.993	81.24
196.212	64.85
196.432	56.66
196.651	42.32
196.87	62.8
197.089	9.56
197.308	66.9
197.528	75.09
197.747	40.28
197.966	32.08
198.185	68.95
198.404	114
198.623	116.05
198.842	81.24
199.062	99.67
199.281	167.25
199.5	21.85
199.719	85.33
199.938	95.57
200.157	27.99
200.376	81.24
200.595	50.52
200.814	81.24
201.033	83.28
201.252	116.05
201.471	32.08
201.69	122.2
201.909	124.24
202.128	58.71
202.347	48.47
202.566	27.99
202.785	-31.4
203.004	25.94
203.223	163.15
203.442	126.29
203.661	32.08
203.879	97.62
204.098	89.43
204.317	11.61
204.536	93.52
204.755	101.72
204.974	116.05
205.193	56.66
205.411	105.81
205.63	40.28
205.849	130.39
206.068	73.04
206.287	34.13
206.505	107.86
206.724	138.58
206.943	1.37
207.162	25.94
207.381	40.28
207.599	54.61
207.818	91.48
208.037	25.94
208.255	36.18
208.474	56.66
208.693	9.56
208.911	77.14
209.13	30.04
209.349	107.86
209.567	122.2
209.786	48.47
210.005	114
210.223	66.9
210.442	19.8
210.661	32.08
210.879	118.1
211.098	97.62
211.316	97.62
211.535	56.66
211.753	73.04
211.972	109.91
212.191	23.89
212.409	3.41
212.628	56.66
212.846	58.71
213.065	27.99
213.283	105.81
213.502	50.52
213.72	109.91
213.938	138.58
214.157	163.15
214.375	83.28
214.594	58.71
214.812	107.86
215.031	9.56
215.249	73.04
215.467	27.99
215.686	48.47
215.904	64.85
216.122	52.56
216.341	81.24
216.559	32.08
216.778	187.73
216.996	157.01
217.214	-0.68
217.432	-17.07
217.651	87.38
217.869	-0.68
218.087	73.04
218.306	81.24
218.524	71
218.742	-6.83
218.96	58.71
219.179	56.66
219.397	48.47
219.615	126.29
219.833	109.91
220.051	11.61
220.27	140.63
220.488	109.91
220.706	95.57
220.924	56.66
221.142	-6.83
221.36	114
221.578	19.8
221.796	68.95
222.015	23.89
222.233	36.18
222.451	81.24
222.669	-17.07
222.887	42.32
223.105	64.85
223.323	15.7
223.541	81.24
223.759	52.56
223.977	73.04
224.195	114
224.413	42.32
224.631	195.92
224.849	73.04
225.067	124.24
225.285	17.75
225.503	126.29
225.721	-17.07
225.939	75.09
226.157	38.23
226.375	187.73
226.592	50.52
226.81	-41.64
227.028	87.38
227.246	105.81
227.464	32.08
227.682	52.56
227.9	122.2
228.117	48.47
228.335	23.89
228.553	-0.68
228.771	97.62
228.989	97.62
229.206	52.56
229.424	91.48
229.642	19.8
229.86	17.75
230.077	99.67
230.295	25.94
230.513	118.1
230.731	103.76
230.948	208.21
231.166	105.81
231.384	64.85
231.601	48.47
231.819	68.95
232.037	-29.35
232.254	62.8
232.472	97.62
232.689	23.89
232.907	118.1
233.125	52.56
233.342	21.85
233.56	62.8
233.777	58.71
233.995	64.85
234.213	58.71
234.43	56.66
234.648	56.66
234.865	60.76
235.083	77.14
235.3	32.08
235.518	99.67
235.735	122.2
235.953	56.66
236.17	34.13
236.388	-37.55
236.605	68.95
236.822	124.24
237.04	181.59
237.257	75.09
237.475	48.47
237.692	97.62
237.909	9.56
238.127	15.7
238.344	11.61
238.562	68.95
238.779	58.71
238.996	73.04
239.214	44.37
239.431	30.04
239.648	15.7
239.865	66.9
240.083	146.77
240.3	48.47
240.517	-29.35
240.735	56.66
240.952	93.52
241.169	97.62
241.386	58.71
241.603	9.56
241.821	89.43
242.038	32.08
242.255	107.86
242.472	3.41
242.689	56.66
242.907	109.91
243.124	42.32
243.341	36.18
243.558	40.28
243.775	32.08
243.992	19.8
244.209	40.28
244.426	161.11
244.643	58.71
244.86	105.81
245.078	3.41
245.295	89.43
245.512	89.43
245.729	109.91
245.946	68.95
246.163	109.91
246.38	75.09
246.597	66.9
246.814	56.66
247.031	23.89
247.248	40.28
247.464	60.76
247.681	48.47
247.898	71
248.115	91.48
248.332	5.46
248.549	122.2
248.766	97.62
248.983	126.29
249.2	114
249.417	38.23
249.633	27.99
249.85	48.47
250.067	64.85
250.284	71
250.501	105.81
250.717	66.9
250.934	17.75
251.151	-6.83
251.368	91.48
251.585	122.2
251.801	73.04
252.018	64.85
252.235	34.13
252.451	1.37
252.668	50.52
252.885	60.76
253.102	97.62
253.318	50.52
253.535	34.13
253.752	-0.68
253.968	13.65
254.185	7.51
254.401	56.66
254.618	56.66
254.835	64.85
255.051	56.66
255.268	9.56
255.484	130.39
255.701	99.67
255.917	48.47
256.134	56.66
256.351	-4.78
256.567	93.52
256.784	130.39
257	54.61
257.217	89.43
257.433	118.1
257.65	34.13
257.866	91.48
258.082	15.7
258.299	36.18
258.515	56.66
258.732	97.62
258.948	3.41
259.165	46.42
259.381	87.38
259.597	64.85
259.814	68.95
260.03	38.23
260.246	38.23
260.463	128.34
260.679	111.96
260.895	58.71
261.112	52.56
261.328	71
261.544	114
261.761	105.81
261.977	54.61
262.193	34.13
262.409	66.9
262.626	56.66
262.842	73.04
263.058	42.32
263.274	146.77
263.49	1.37
263.707	48.47
263.923	42.32
264.139	23.89
264.355	-15.02
264.571	144.72
264.787	36.18
265.004	40.28
265.22	64.85
265.436	-15.02
265.652	66.9
265.868	79.19
266.084	60.76
266.3	23.89
266.516	23.89
266.732	56.66
266.948	15.7
267.164	81.24
267.38	38.23
267.596	107.86
267.812	130.39
268.028	91.48
268.244	48.47
268.46	7.51
268.676	42.32
268.892	89.43
269.108	15.7
269.324	64.85
269.54	17.75
269.756	114
269.972	-6.83
270.188	81.24
270.403	-17.07
270.619	62.8
270.835	60.76
271.051	9.56
271.267	-23.21
271.483	71
271.698	130.39
271.914	32.08
272.13	34.13
272.346	64.85
272.562	122.2
272.777	58.71
272.993	62.8
273.209	103.76
273.425	36.18
273.64	32.08
273.856	85.33
274.072	15.7
274.287	-8.87
274.503	25.94
274.719	-8.87
274.934	124.24
275.15	15.7
275.366	120.15
275.581	27.99
275.797	54.61
276.012	87.38
276.228	9.56
276.444	17.75
276.659	124.24
276.875	-6.83
277.09	111.96
277.306	85.33
277.521	101.72
277.737	130.39
277.952	114
278.168	48.47
278.383	48.47
278.599	5.46
278.814	126.29
279.03	9.56
279.245	97.62
279.461	109.91
279.676	56.66
279.892	97.62
280.107	95.57
280.322	-12.97
280.538	58.71
280.753	9.56
280.969	34.13
281.184	1.37
281.399	52.56
281.615	7.51
281.83	73.04
282.045	23.89
282.26	111.96
282.476	114
282.691	19.8
282.906	56.66
283.122	7.51
283.337	-6.83
283.552	19.8
283.767	148.82
283.983	58.71
284.198	32.08
284.413	97.62
284.628	23.89
284.843	114
285.058	83.28
285.274	146.77
285.489	64.85
285.704	122.2
285.919	52.56
286.134	81.24
286.349	85.33
286.564	3.41
286.779	132.44
286.995	81.24
287.21	-6.83
287.425	66.9
287.64	15.7
287.855	83.28
288.07	-0.68
288.285	140.63
288.5	34.13
288.715	122.2
288.93	64.85
289.145	46.42
289.36	77.14
289.575	97.62
289.79	144.72
290.004	40.28
290.219	60.76
290.434	81.24
290.649	101.72
290.864	83.28
291.079	58.71
291.294	23.89
291.509	130.39
291.724	95.57
291.938	58.71
292.153	27.99
292.368	42.32
292.583	36.18
292.798	87.38
293.012	107.86
293.227	77.14
293.442	50.52
293.657	89.43
293.871	44.37
294.086	93.52
294.301	56.66
294.516	93.52
294.73	157.01
294.945	146.77
295.16	25.94
295.374	134.48
295.589	128.34
295.804	17.75
296.018	105.81
296.233	107.86
296.447	-21.16
296.662	25.94
296.877	91.48
297.091	-31.4
297.306	68.95
297.52	5.46
297.735	71
297.949	73.04
298.164	97.62
298.378	97.62
298.593	64.85
298.807	52.56
299.022	154.96
299.236	146.77
299.451	40.28
299.665	11.61
299.88	3.41
300.094	-17.07
300.309	71
300.523	64.85
300.737	-25.26
300.952	97.62
301.166	48.47
301.381	54.61
301.595	56.66
301.809	13.65
302.024	87.38
302.238	-8.87
302.452	132.44
302.667	107.86
302.881	138.58
303.095	85.33
303.309	130.39
303.524	56.66
303.738	7.51
303.952	44.37
304.166	42.32
304.381	1.37
304.595	93.52
304.809	83.28
305.023	56.66
305.237	36.18
305.452	105.81
305.666	32.08
305.88	103.76
306.094	81.24
306.308	103.76
306.522	122.2
306.736	66.9
306.95	48.47
307.164	42.32
307.379	107.86
307.593	93.52
307.807	130.39
308.021	140.63
308.235	48.47
308.449	-4.78
308.663	32.08
308.877	165.2
309.091	17.75
309.305	91.48
309.519	7.51
309.733	79.19
309.947	15.7
310.161	93.52
310.374	85.33
310.588	157.01
310.802	-8.87
311.016	25.94
311.23	124.24
311.444	32.08
311.658	27.99
311.872	34.13
312.085	103.76
312.299	64.85
312.513	32.08
312.727	66.9
312.941	42.32
313.154	105.81
313.368	99.67
313.582	58.71
313.796	44.37
314.009	15.7
314.223	114
314.437	75.09
314.651	73.04
314.864	97.62
315.078	60.76
315.292	73.04
315.505	75.09
315.719	91.48
315.933	130.39
316.146	75.09
316.36	15.7
316.573	77.14
316.787	118.1
317.001	64.85
317.214	36.18
317.428	75.09
317.641	40.28
317.855	17.75
318.068	44.37
318.282	50.52
318.495	114
318.709	101.72
318.922	81.24
319.136	73.04
319.349	40.28
319.563	44.37
319.776	85.33
319.99	32.08
320.203	64.85
320.417	73.04
320.63	97.62
320.843	81.24
321.057	52.56
321.27	73.04
321.483	91.48
321.697	85.33
321.91	38.23
322.124	77.14
322.337	66.9
322.55	-49.83
322.763	56.66
322.977	-23.21
323.19	17.75
323.403	146.77
323.617	58.71
323.83	89.43
324.043	-37.55
324.256	103.76
324.469	-25.26
324.683	130.39
324.896	97.62
325.109	99.67
325.322	48.47
325.535	191.83
325.748	89.43
325.962	103.76
326.175	68.95
326.388	40.28
326.601	64.85
326.814	111.96
327.027	3.41
327.24	130.39
327.453	3.41
327.666	85.33
327.879	77.14
328.092	36.18
328.305	103.76
328.518	122.2
328.731	48.47
328.944	114
329.157	34.13
329.37	114
329.583	64.85
329.796	97.62
330.009	46.42
330.222	44.37
330.435	99.67
330.648	9.56
330.861	99.67
331.073	79.19
331.286	56.66
331.499	64.85
331.712	56.66
331.925	58.71
332.138	81.24
332.35	116.05
332.563	114
332.776	140.63
332.989	144.72
333.202	-0.68
333.414	32.08
333.627	89.43
333.84	77.14
334.053	105.81
334.265	23.89
334.478	89.43
334.691	97.62
334.903	-8.87
335.116	-6.83
335.329	130.39
335.541	9.56
335.754	91.48
335.966	44.37
336.179	62.8
336.392	73.04
336.604	50.52
336.817	62.8
337.029	99.67
337.242	73.04
337.454	130.39
337.667	71
337.88	32.08
338.092	73.04
338.305	95.57
338.517	48.47
338.729	118.1
338.942	105.81
339.154	73.04
339.367	32.08
339.579	101.72
339.792	50.52
340.004	183.63
340.217	48.47
340.429	124.24
340.641	52.56
340.854	42.32
341.066	95.57
341.278	157.01
341.491	89.43
341.703	107.86
341.915	81.24
342.128	42.32
342.34	34.13
342.552	105.81
342.764	64.85
342.977	19.8
343.189	32.08
343.401	120.15
343.613	25.94
343.826	42.32
344.038	99.67
344.25	91.48
344.462	56.66
344.674	120.15
344.886	46.42
345.099	34.13
345.311	83.28
345.523	83.28
345.735	62.8
345.947	83.28
346.159	-10.92
346.371	114
346.583	-0.68
346.795	122.2
347.007	60.76
347.219	81.24
347.431	101.72
347.643	75.09
347.855	15.7
348.067	154.96
348.279	56.66
348.491	120.15
348.703	56.66
348.915	27.99
349.127	48.47
349.339	89.43
349.551	27.99
349.763	101.72
349.975	19.8
350.187	97.62
350.399	89.43
350.61	157.01
350.822	64.85
351.034	62.8
351.246	73.04
351.458	124.24
351.669	126.29
351.881	93.52
352.093	85.33
352.305	81.24
352.517	114
352.728	105.81
352.94	44.37
353.152	7.51
353.363	75.09
353.575	85.33
353.787	97.62
353.999	68.95
354.21	154.96
354.422	81.24
354.633	3.41
354.845	85.33
355.057	154.96
355.268	89.43
355.48	81.24
355.692	75.09
355.903	105.81
356.115	81.24
356.326	48.47
356.538	114
356.749	73.04
356.961	118.1
357.172	114
357.384	118.1
357.595	130.39
357.807	91.48
358.018	52.56
358.23	122.2
358.441	146.77
358.653	130.39
358.864	38.23
359.075	7.51
359.287	60.76
359.498	109.91
359.709	7.51
359.921	-21.16
360.132	109.91
360.344	101.72
360.555	93.52
360.766	52.56
360.977	54.61
361.189	32.08
361.4	42.32
361.611	83.28
361.823	163.15
362.034	81.24
362.245	44.37
362.456	54.61
362.667	56.66
362.879	54.61
363.09	81.24
363.301	30.04
363.512	25.94
363.723	73.04
363.935	89.43
364.146	81.24
364.357	3.41
364.568	62.8
364.779	1.37
364.99	146.77
365.201	50.52
365.412	52.56
365.623	48.47
365.834	134.48
366.045	36.18
366.256	138.58
366.467	42.32
366.678	130.39
366.889	-0.68
367.1	89.43
367.311	64.85
367.522	-15.02
367.733	19.8
367.944	105.81
368.155	36.18
368.366	23.89
368.577	103.76
368.788	105.81
368.999	23.89
369.209	101.72
369.42	154.96
369.631	167.25
369.842	52.56
370.053	-17.07
370.264	73.04
370.474	62.8
370.685	68.95
370.896	111.96
371.107	77.14
371.317	118.1
371.528	56.66
371.739	111.96
371.95	68.95
372.16	56.66
372.371	56.66
372.582	64.85
372.792	36.18
373.003	56.66
373.214	9.56
373.424	34.13
373.635	93.52
373.846	93.52
374.056	36.18
374.267	89.43
374.477	85.33
374.688	7.51
374.898	89.43
375.109	105.81
375.319	44.37
375.53	120.15
375.74	62.8
375.951	56.66
376.161	73.04
376.372	97.62
376.582	15.7
376.793	93.52
377.003	17.75
377.214	89.43
377.424	165.2
377.635	25.94
377.845	60.76
378.055	179.54
378.266	56.66
378.476	138.58
378.686	97.62
378.897	56.66
379.107	101.72
379.317	114
379.528	52.56
379.738	216.4
379.948	68.95
380.158	130.39
380.369	79.19
380.579	89.43
380.789	17.75
380.999	56.66
381.21	120.15
381.42	93.52
381.63	77.14
381.84	132.44
382.05	118.1
382.261	91.48
382.471	118.1
382.681	97.62
382.891	130.39
383.101	161.11
383.311	77.14
383.521	77.14
383.731	101.72
383.941	68.95
384.151	58.71
384.361	89.43
384.571	44.37
384.781	66.9
384.991	105.81
385.201	64.85
385.411	71
385.621	114
385.831	56.66
386.041	97.62
386.251	64.85
386.461	132.44
386.671	27.99
386.881	83.28
387.091	179.54
387.301	163.15
387.511	44.37
387.72	75.09
387.93	15.7
388.14	23.89
388.35	109.91
388.56	157.01
388.769	134.48
388.979	30.04
389.189	40.28
389.399	73.04
389.609	163.15
389.818	142.68
390.028	163.15
390.238	105.81
390.447	46.42
390.657	52.56
390.867	77.14
391.076	93.52
391.286	122.2
391.496	124.24
391.705	118.1
391.915	105.81
392.125	77.14
392.334	89.43
392.544	132.44
392.753	97.62
392.963	56.66
393.172	103.76
393.382	40.28
393.591	105.81
393.801	101.72
394.01	124.24
394.22	97.62
394.429	23.89
394.639	52.56
394.848	124.24
395.058	105.81
395.267	107.86
395.477	132.44
395.686	216.4
395.895	114
396.105	206.16
396.314	77.14
396.524	130.39
396.733	122.2
396.942	116.05
397.152	148.82
397.361	122.2
397.57	124.24
397.78	167.25
397.989	163.15
398.198	202.07
398.407	91.48
398.617	142.68
398.826	175.44
399.035	97.62
399.244	230.74
399.453	136.53
399.663	81.24
399.872	79.19
400.081	91.48
400.29	222.55
400.499	138.58
400.708	171.35
400.917	97.62
401.127	118.1
401.336	179.54
401.545	271.7
401.754	212.31
401.963	191.83
402.172	109.91
402.381	187.73
402.59	157.01
402.799	140.63
403.008	122.2
403.217	152.92
403.426	171.35
403.635	138.58
403.844	132.44
404.053	148.82
404.262	146.77
404.471	167.25
404.68	243.03
404.888	204.11
405.097	195.92
405.306	251.22
405.515	146.77
405.724	187.73
405.933	236.88
406.142	185.68
406.35	243.03
406.559	159.06
406.768	236.88
406.977	337.23
407.185	265.55
407.394	343.38
407.603	206.16
407.812	277.84
408.02	298.32
408.229	304.46
408.438	249.17
408.646	222.55
408.855	302.42
409.064	343.38
409.272	286.03
409.481	318.8
409.69	318.8
409.898	318.8
410.107	386.38
410.315	359.76
410.524	392.53
410.733	329.04
410.941	415.06
411.15	443.73
411.358	396.62
411.567	437.58
411.775	427.34
411.984	425.29
412.192	560.46
412.401	435.53
412.609	599.37
412.818	677.2
413.026	527.69
413.234	533.84
413.443	548.17
413.651	572.75
413.86	687.43
414.068	763.21
414.276	793.93
414.485	693.58
414.693	716.11
414.901	879.94
415.11	922.95
415.318	816.46
415.526	834.89
415.734	804.17
415.943	933.19
416.151	970.05
416.359	982.34
416.567	986.44
416.776	1002.82
416.984	1039.69
417.192	1121.6
417.4	1031.49
417.608	1092.93
417.817	1162.56
418.025	1205.57
418.233	1400.13
418.441	1277.25
418.649	1322.31
418.857	1459.52
419.065	1467.71
419.273	1488.19
419.481	1490.24
419.689	1631.55
419.897	1654.08
420.105	1533.25
420.313	1727.8
420.521	1934.65
420.729	1789.24
420.937	1873.21
421.145	1875.26
421.353	2186.55
421.561	2067.77
421.769	2200.88
421.977	2229.56
422.185	2268.47
422.393	2465.07
422.601	2557.23
422.809	2573.61
423.017	2534.7
423.224	2598.19
423.432	2774.32
423.64	2759.98
423.848	3024.17
424.056	2827.56
424.263	3222.82
424.471	3089.7
424.679	3228.96
424.887	3433.76
425.094	3368.23
425.302	3507.49
425.51	3552.54
425.718	3710.24
425.925	3683.61
426.133	3788.06
426.341	4117.78
426.548	4201.75
426.756	4392.21
426.964	4381.97
427.171	4482.32
427.379	4742.41
427.586	4783.37
427.794	4853
428.001	5053.7
428.209	5328.13
428.417	5295.36
428.624	5704.96
428.832	5442.82
429.039	5485.83
429.247	5577.98
429.454	6124.79
429.662	6575.35
429.869	5995.77
430.076	6489.33
430.284	6333.68
430.491	6515.95
430.699	6857.96
430.906	6999.27
431.114	7101.67
431.321	7257.32
431.528	7474.4
431.736	7834.85
431.943	8318.17
432.15	8076.51
432.358	8430.8
432.565	8621.27
432.772	8492.24
432.979	8860.88
433.187	9166.03
433.394	9153.74
433.601	9643.2
433.808	9753.79
434.016	9690.31
434.223	10122.43
434.43	10747.06
434.637	10587.32
434.844	11101.36
435.052	11469.99
435.259	11234.47
435.466	11263.15
435.673	11410.6
435.88	11984.03
436.087	12627.09
436.294	12512.41
436.501	12143.77
436.708	12811.41
436.915	12887.18
437.122	13352.07
437.329	13487.24
437.537	13939.84
437.743	14146.69
437.95	13929.6
438.157	14855.28
438.364	15142
438.571	15201.39
438.778	15418.47
438.985	16948.31
439.192	16030.82
439.399	16534.62
439.606	16258.14
439.813	17185.87
440.02	18105.41
440.227	17873.99
440.433	17648.71
440.64	18310.21
440.847	18183.23
441.054	18607.16
441.261	19602.47
441.467	19321.9
441.674	19807.27
441.881	20616.22
442.088	20728.86
442.294	20263.97
442.501	20917.27
442.708	21492.75
442.914	21818.38
443.121	22793.21
443.328	22158.34
443.534	23991.27
443.741	23294.96
443.948	23008.25
444.154	24644.57
444.361	24443.87
444.568	24550.37
444.774	24325.09
444.981	24648.67
445.187	25531.34
445.394	26782.65
445.6	26444.74
445.807	28961.69
446.013	27532.21
446.22	28593.06
446.426	29043.61
446.633	29412.24
446.839	30737.28
447.046	29477.78
447.252	30784.38
447.459	30653.31
447.665	30550.92
447.871	31974.25
448.078	33887.06
448.284	31681.39
448.491	32865.12
448.697	33815.38
448.903	34417.48
449.11	34915.14
449.316	33846.1
449.522	34800.45
449.728	35488.57
449.935	36117.29
450.141	35904.31
450.347	36291.37
450.553	35392.31
450.76	35717.94
450.966	37053.22
451.172	36793.12
451.378	37552.92
451.584	36662.05
451.791	37604.12
451.997	37335.84
452.203	37978.9
452.409	38058.77
452.615	38073.1
452.821	36401.96
453.027	36346.67
453.233	37997.33
453.44	36479.78
453.646	37124.89
453.852	36926.24
454.058	37554.97
454.264	36348.71
454.47	37407.51
454.676	36496.17
454.882	37770.01
455.088	34310.99
455.294	34708.29
455.5	35183.42
455.705	35621.69
455.911	34349.9
456.117	33672.02
456.323	33059.68
456.529	31531.89
456.735	32832.35
456.941	31798.13
457.147	31253.37
457.352	30614.4
457.558	29914
457.764	30108.55
457.97	29516.69
458.176	28859.29
458.381	29000.6
458.587	27405.24
458.793	27456.43
458.999	26104.77
459.204	28087.21
459.41	27114.42
459.616	25109.46
459.821	25238.48
460.027	25068.5
460.233	24710.11
460.438	23606.25
460.644	23712.75
460.85	22395.9
461.055	22567.93
461.261	22301.7
461.466	20417.57
461.672	19952.68
461.878	21380.11
462.083	19786.79
462.289	19579.95
462.494	19246.13
462.7	18670.65
462.905	18144.32
463.111	18668.6
463.316	18768.95
463.522	18043.97
463.727	18009.15
463.932	18129.98
464.138	18113.6
464.343	18117.7
464.549	17697.86
464.754	18195.52
464.959	17976.39
465.165	17753.16
465.37	17255.5
465.575	16850
465.781	17038.42
465.986	17341.52
466.191	16702.55
466.397	16319.58
466.602	15457.39
466.807	16057.44
467.012	16153.69
467.218	16014.43
