Data from USB4F104151__224__14-33-54-890.txt Node

Date: Thu Mar 13 14:33:54 EDT 2025
User: louis
Spectrometer: USB4F10415
Trigger mode: 4
Integration Time (sec): 2.500000E-2
Scans to average: 1
Electric dark correction enabled: true
Nonlinearity correction enabled: false
Boxcar width: 0
XAxis mode: Wavelengths
Number of Pixels in Spectrum: 3648
>>>>>Begin Spectral Data<<<<<
178.204	-197.12
178.424	-197.12
178.644	-197.12
178.864	-121.34
179.084	-156.16
179.304	-61.95
179.524	-55.81
179.744	22.02
179.964	9.73
180.184	-49.66
180.404	28.16
180.624	60.93
180.844	24.06
181.064	-43.52
181.283	50.69
181.503	-27.14
181.723	42.5
181.943	1.54
182.163	9.73
182.383	52.74
182.602	54.78
182.822	89.6
183.042	-41.47
183.262	65.02
183.482	-14.85
183.701	-33.28
183.921	91.65
184.141	24.06
184.361	11.78
184.58	15.87
184.8	5.63
185.02	97.79
185.239	138.75
185.459	-33.28
185.679	32.26
185.898	7.68
186.118	36.35
186.338	-33.28
186.557	3.58
186.777	24.06
186.997	22.02
187.216	-20.99
187.436	110.08
187.655	75.26
187.875	81.41
188.095	-2.56
188.314	36.35
188.534	91.65
188.753	9.73
188.973	38.4
189.192	13.82
189.412	26.11
189.631	48.64
189.851	19.97
190.07	24.06
190.29	73.21
190.509	17.92
190.729	-45.57
190.948	122.37
191.168	196.09
191.387	24.06
191.607	40.45
191.826	-8.7
192.045	40.45
192.265	36.35
192.484	87.55
192.704	-0.51
192.923	-0.51
193.142	130.56
193.362	77.31
193.581	40.45
193.8	28.16
194.02	73.21
194.239	32.26
194.458	32.26
194.678	24.06
194.897	-2.56
195.116	15.87
195.335	105.98
195.555	81.41
195.774	83.45
195.993	22.02
196.212	-8.7
196.432	13.82
196.651	-14.85
196.87	62.98
197.089	120.32
197.308	54.78
197.528	44.54
197.747	1.54
197.966	54.78
198.185	71.17
198.404	42.5
198.623	56.83
198.842	85.5
199.062	60.93
199.281	22.02
199.5	-16.9
199.719	65.02
199.938	42.5
200.157	52.74
200.376	17.92
200.595	75.26
200.814	32.26
201.033	7.68
201.252	73.21
201.471	-14.85
201.69	26.11
201.909	7.68
202.128	81.41
202.347	34.3
202.566	65.02
202.785	28.16
203.004	26.11
203.223	101.89
203.442	50.69
203.661	-64
203.879	73.21
204.098	40.45
204.317	48.64
204.536	56.83
204.755	9.73
204.974	44.54
205.193	28.16
205.411	167.42
205.63	48.64
205.849	32.26
206.068	-33.28
206.287	54.78
206.505	58.88
206.724	44.54
206.943	-23.04
207.162	19.97
207.381	-10.75
207.599	-31.23
207.818	17.92
208.037	101.89
208.255	-0.51
208.474	-33.28
208.693	73.21
208.911	32.26
209.13	34.3
209.349	48.64
209.567	73.21
209.786	34.3
210.005	15.87
210.223	-31.23
210.442	-61.95
210.661	65.02
210.879	40.45
211.098	-14.85
211.316	7.68
211.535	44.54
211.753	-6.66
211.972	38.4
212.191	-31.23
212.409	-6.66
212.628	83.45
212.846	-4.61
213.065	-0.51
213.283	108.03
213.502	22.02
213.72	79.36
213.938	79.36
214.157	-8.7
214.375	24.06
214.594	26.11
214.812	11.78
215.031	36.35
215.249	-2.56
215.467	56.83
215.686	110.08
215.904	114.17
216.122	75.26
216.341	81.41
216.559	-33.28
216.778	58.88
216.996	69.12
217.214	-51.71
217.432	46.59
217.651	67.07
217.869	22.02
218.087	87.55
218.306	-14.85
218.524	40.45
218.742	-16.9
218.96	75.26
219.179	30.21
219.397	7.68
219.615	52.74
219.833	87.55
220.051	11.78
220.27	87.55
220.488	110.08
220.706	9.73
220.924	65.02
221.142	-39.42
221.36	-0.51
221.578	91.65
221.796	-66.05
222.015	105.98
222.233	-68.09
222.451	85.5
222.669	69.12
222.887	38.4
223.105	-12.8
223.323	1.54
223.541	-31.23
223.759	-0.51
223.977	24.06
224.195	101.89
224.413	36.35
224.631	54.78
224.849	-31.23
225.067	101.89
225.285	-16.9
225.503	13.82
225.721	-39.42
225.939	40.45
226.157	40.45
226.375	159.23
226.592	11.78
226.81	52.74
227.028	48.64
227.246	105.98
227.464	50.69
227.682	60.93
227.9	-33.28
228.117	15.87
228.335	-25.09
228.553	1.54
228.771	40.45
228.989	58.88
229.206	15.87
229.424	58.88
229.642	116.22
229.86	50.69
230.077	105.98
230.295	97.79
230.513	52.74
230.731	67.07
230.948	44.54
231.166	44.54
231.384	26.11
231.601	19.97
231.819	65.02
232.037	60.93
232.254	50.69
232.472	1.54
232.689	-16.9
232.907	62.98
233.125	-23.04
233.342	62.98
233.56	-0.51
233.777	58.88
233.995	3.58
234.213	105.98
234.43	79.36
234.648	42.5
234.865	-14.85
235.083	48.64
235.3	7.68
235.518	26.11
235.735	65.02
235.953	114.17
236.17	46.59
236.388	69.12
236.605	-0.51
236.822	48.64
237.04	-33.28
237.257	-29.18
237.475	-23.04
237.692	48.64
237.909	40.45
238.127	65.02
238.344	1.54
238.562	17.92
238.779	9.73
238.996	28.16
239.214	1.54
239.431	89.6
239.648	67.07
239.865	32.26
240.083	67.07
240.3	-25.09
240.517	48.64
240.735	77.31
240.952	40.45
241.169	32.26
241.386	103.93
241.603	17.92
241.821	-8.7
242.038	85.5
242.255	28.16
242.472	73.21
242.689	48.64
242.907	73.21
243.124	85.5
243.341	89.6
243.558	81.41
243.775	36.35
243.992	-80.38
244.209	28.16
244.426	73.21
244.643	89.6
244.86	-33.28
245.078	71.17
245.295	40.45
245.512	-16.9
245.729	24.06
245.946	50.69
246.163	93.69
246.38	101.89
246.597	-0.51
246.814	-6.66
247.031	40.45
247.248	48.64
247.464	48.64
247.681	-18.94
247.898	26.11
248.115	19.97
248.332	36.35
248.549	110.08
248.766	40.45
248.983	69.12
249.2	56.83
249.417	62.98
249.633	34.3
249.85	24.06
250.067	-23.04
250.284	112.13
250.501	40.45
250.717	52.74
250.934	-31.23
251.151	1.54
251.368	3.58
251.585	65.02
251.801	30.21
252.018	67.07
252.235	52.74
252.451	-25.09
252.668	19.97
252.885	58.88
253.102	40.45
253.318	73.21
253.535	-20.99
253.752	-49.66
253.968	-47.62
254.185	-16.9
254.401	-41.47
254.618	44.54
254.835	7.68
255.051	32.26
255.268	56.83
255.484	-25.09
255.701	9.73
255.917	32.26
256.134	65.02
256.351	83.45
256.567	-14.85
256.784	1.54
257	-25.09
257.217	124.41
257.433	103.93
257.65	128.51
257.866	11.78
258.082	-14.85
258.299	11.78
258.515	56.83
258.732	-74.24
258.948	13.82
259.165	24.06
259.381	19.97
259.597	32.26
259.814	105.98
260.03	-0.51
260.246	-0.51
260.463	67.07
260.679	44.54
260.895	-10.75
261.112	44.54
261.328	13.82
261.544	-39.42
261.761	114.17
261.977	-25.09
262.193	-57.86
262.409	32.26
262.626	93.69
262.842	-23.04
263.058	40.45
263.274	28.16
263.49	15.87
263.707	130.56
263.923	65.02
264.139	93.69
264.355	85.5
264.571	120.32
264.787	-8.7
265.004	161.28
265.22	11.78
265.436	15.87
265.652	17.92
265.868	1.54
266.084	60.93
266.3	52.74
266.516	-14.85
266.732	56.83
266.948	26.11
267.164	-8.7
267.38	9.73
267.596	50.69
267.812	101.89
268.028	91.65
268.244	-72.19
268.46	50.69
268.676	7.68
268.892	67.07
269.108	-72.19
269.324	44.54
269.54	-0.51
269.756	108.03
269.972	-10.75
270.188	42.5
270.403	-16.9
270.619	11.78
270.835	48.64
271.051	56.83
271.267	26.11
271.483	28.16
271.698	40.45
271.914	26.11
272.13	105.98
272.346	-41.47
272.562	44.54
272.777	48.64
272.993	3.58
273.209	-0.51
273.425	52.74
273.64	-8.7
273.856	62.98
274.072	-10.75
274.287	32.26
274.503	124.41
274.719	134.65
274.934	24.06
275.15	32.26
275.366	-41.47
275.581	-41.47
275.797	-12.8
276.012	81.41
276.228	15.87
276.444	40.45
276.659	-25.09
276.875	-16.9
277.09	56.83
277.306	38.4
277.521	81.41
277.737	-6.66
277.952	40.45
278.168	1.54
278.383	19.97
278.599	81.41
278.814	46.59
279.03	40.45
279.245	89.6
279.461	17.92
279.676	108.03
279.892	1.54
280.107	7.68
280.322	-4.61
280.538	91.65
280.753	15.87
280.969	58.88
281.184	-4.61
281.399	50.69
281.615	73.21
281.83	11.78
282.045	97.79
282.26	69.12
282.476	56.83
282.691	122.37
282.906	73.21
283.122	9.73
283.337	65.02
283.552	15.87
283.767	-49.66
283.983	19.97
284.198	-4.61
284.413	48.64
284.628	34.3
284.843	91.65
285.058	52.74
285.274	-0.51
285.489	91.65
285.704	42.5
285.919	77.31
286.134	75.26
286.349	105.98
286.564	22.02
286.779	87.55
286.995	24.06
287.21	-8.7
287.425	81.41
287.64	24.06
287.855	40.45
288.07	56.83
288.285	44.54
288.5	110.08
288.715	-94.72
288.93	-53.76
289.145	-16.9
289.36	11.78
289.575	52.74
289.79	52.74
290.004	83.45
290.219	40.45
290.434	-12.8
290.649	19.97
290.864	1.54
291.079	38.4
291.294	42.5
291.509	32.26
291.724	26.11
291.938	7.68
292.153	81.41
292.368	48.64
292.583	40.45
292.798	114.17
293.012	-37.38
293.227	-8.7
293.442	40.45
293.657	105.98
293.871	75.26
294.086	42.5
294.301	105.98
294.516	89.6
294.73	89.6
294.945	19.97
295.16	-8.7
295.374	67.07
295.589	50.69
295.804	56.83
296.018	24.06
296.233	81.41
296.447	116.22
296.662	42.5
296.877	108.03
297.091	28.16
297.306	-8.7
297.52	19.97
297.735	97.79
297.949	81.41
298.164	42.5
298.378	24.06
298.593	77.31
298.807	-37.38
299.022	42.5
299.236	148.99
299.451	13.82
299.665	15.87
299.88	97.79
300.094	32.26
300.309	48.64
300.523	58.88
300.737	48.64
300.952	114.17
301.166	69.12
301.381	17.92
301.595	-25.09
301.809	40.45
302.024	50.69
302.238	17.92
302.452	-23.04
302.667	56.83
302.881	40.45
303.095	56.83
303.309	56.83
303.524	-4.61
303.738	-0.51
303.952	50.69
304.166	85.5
304.381	-31.23
304.595	73.21
304.809	9.73
305.023	34.3
305.237	85.5
305.452	-61.95
305.666	116.22
305.88	50.69
306.094	1.54
306.308	116.22
306.522	91.65
306.736	50.69
306.95	77.31
307.164	-8.7
307.379	3.58
307.593	40.45
307.807	42.5
308.021	50.69
308.235	-29.18
308.449	-39.42
308.663	75.26
308.877	81.41
309.091	48.64
309.305	28.16
309.519	-29.18
309.733	17.92
309.947	34.3
310.161	50.69
310.374	-37.38
310.588	50.69
310.802	19.97
311.016	17.92
311.23	32.26
311.444	-0.51
311.658	-31.23
311.872	-6.66
312.085	73.21
312.299	52.74
312.513	97.79
312.727	52.74
312.941	-55.81
313.154	62.98
313.368	32.26
313.582	75.26
313.796	24.06
314.009	26.11
314.223	-0.51
314.437	42.5
314.651	114.17
314.864	9.73
315.078	40.45
315.292	28.16
315.505	-20.99
315.719	32.26
315.933	99.84
316.146	-14.85
316.36	17.92
316.573	26.11
316.787	83.45
317.001	146.94
317.214	11.78
317.428	46.59
317.641	56.83
317.855	26.11
318.068	32.26
318.282	-33.28
318.495	56.83
318.709	71.17
318.922	26.11
319.136	91.65
319.349	56.83
319.563	44.54
319.776	65.02
319.99	-18.94
320.203	73.21
320.417	73.21
320.63	-47.62
320.843	75.26
321.057	52.74
321.27	50.69
321.483	65.02
321.697	52.74
321.91	58.88
322.124	118.27
322.337	67.07
322.55	73.21
322.763	-6.66
322.977	48.64
323.19	24.06
323.403	93.69
323.617	17.92
323.83	99.84
324.043	83.45
324.256	24.06
324.469	73.21
324.683	42.5
324.896	-8.7
325.109	60.93
325.322	56.83
325.535	122.37
325.748	-20.99
325.962	81.41
326.175	71.17
326.388	105.98
326.601	73.21
326.814	26.11
327.027	138.75
327.24	75.26
327.453	-16.9
327.666	75.26
327.879	44.54
328.092	15.87
328.305	19.97
328.518	3.58
328.731	-6.66
328.944	75.26
329.157	105.98
329.37	-6.66
329.583	62.98
329.796	101.89
330.009	-16.9
330.222	44.54
330.435	44.54
330.648	42.5
330.861	32.26
331.073	75.26
331.286	36.35
331.499	67.07
331.712	-45.57
331.925	-29.18
332.138	67.07
332.35	32.26
332.563	30.21
332.776	77.31
332.989	67.07
333.202	32.26
333.414	36.35
333.627	130.56
333.84	65.02
334.053	77.31
334.265	34.3
334.478	81.41
334.691	89.6
334.903	32.26
335.116	5.63
335.329	24.06
335.541	126.46
335.754	124.41
335.966	50.69
336.179	58.88
336.392	50.69
336.604	-14.85
336.817	87.55
337.029	-8.7
337.242	32.26
337.454	85.5
337.667	44.54
337.88	91.65
338.092	9.73
338.305	56.83
338.517	40.45
338.729	73.21
338.942	105.98
339.154	40.45
339.367	67.07
339.579	32.26
339.792	56.83
340.004	83.45
340.217	17.92
340.429	69.12
340.641	9.73
340.854	1.54
341.066	28.16
341.278	122.37
341.491	118.27
341.703	48.64
341.915	151.04
342.128	54.78
342.34	73.21
342.552	28.16
342.764	-10.75
342.977	19.97
343.189	60.93
343.401	75.26
343.613	48.64
343.826	83.45
344.038	40.45
344.25	26.11
344.462	48.64
344.674	85.5
344.886	97.79
345.099	93.69
345.311	73.21
345.523	65.02
345.735	-0.51
345.947	5.63
346.159	75.26
346.371	56.83
346.583	46.59
346.795	40.45
347.007	77.31
347.219	118.27
347.431	85.5
347.643	40.45
347.855	44.54
348.067	108.03
348.279	77.31
348.491	58.88
348.703	105.98
348.915	1.54
349.127	7.68
349.339	17.92
349.551	24.06
349.763	71.17
349.975	48.64
350.187	28.16
350.399	105.98
350.61	1.54
350.822	56.83
351.034	56.83
351.246	19.97
351.458	7.68
351.669	73.21
351.881	171.52
352.093	65.02
352.305	40.45
352.517	56.83
352.728	130.56
352.94	42.5
353.152	44.54
353.363	-35.33
353.575	-14.85
353.787	67.07
353.999	75.26
354.21	89.6
354.422	42.5
354.633	-18.94
354.845	48.64
355.057	24.06
355.268	32.26
355.48	42.5
355.692	114.17
355.903	28.16
356.115	-33.28
356.326	11.78
356.538	99.84
356.749	40.45
356.961	91.65
357.172	58.88
357.384	32.26
357.595	212.48
357.807	56.83
358.018	-6.66
358.23	48.64
358.441	142.85
358.653	97.79
358.864	89.6
359.075	30.21
359.287	65.02
359.498	81.41
359.709	81.41
359.921	5.63
360.132	79.36
360.344	95.74
360.555	62.98
360.766	7.68
360.977	19.97
361.189	179.71
361.4	1.54
361.611	40.45
361.823	93.69
362.034	83.45
362.245	28.16
362.456	-4.61
362.667	62.98
362.879	24.06
363.09	58.88
363.301	3.58
363.512	65.02
363.723	56.83
363.935	60.93
364.146	42.5
364.357	67.07
364.568	65.02
364.779	32.26
364.99	126.46
365.201	34.3
365.412	69.12
365.623	62.98
365.834	44.54
366.045	114.17
366.256	73.21
366.467	136.7
366.678	54.78
366.889	114.17
367.1	83.45
367.311	40.45
367.522	38.4
367.733	138.75
367.944	81.41
368.155	101.89
368.366	132.61
368.577	108.03
368.788	97.79
368.999	24.06
369.209	83.45
369.42	146.94
369.631	40.45
369.842	24.06
370.053	-16.9
370.264	114.17
370.474	19.97
370.685	101.89
370.896	89.6
371.107	56.83
371.317	134.65
371.528	15.87
371.739	17.92
371.95	56.83
372.16	136.7
372.371	-39.42
372.582	67.07
372.792	97.79
373.003	42.5
373.214	48.64
373.424	56.83
373.635	19.97
373.846	40.45
374.056	54.78
374.267	89.6
374.477	97.79
374.688	30.21
374.898	110.08
375.109	89.6
375.319	56.83
375.53	32.26
375.74	114.17
375.951	60.93
376.161	97.79
376.372	26.11
376.582	101.89
376.793	75.26
377.003	36.35
377.214	81.41
377.424	87.55
377.635	91.65
377.845	36.35
378.055	30.21
378.266	97.79
378.476	26.11
378.686	34.3
378.897	75.26
379.107	97.79
379.317	93.69
379.528	3.58
379.738	69.12
379.948	58.88
380.158	85.5
380.369	48.64
380.579	97.79
380.789	34.3
380.999	118.27
381.21	83.45
381.42	122.37
381.63	-4.61
381.84	89.6
382.05	44.54
382.261	32.26
382.471	42.5
382.681	58.88
382.891	103.93
383.101	56.83
383.311	-0.51
383.521	138.75
383.731	54.78
383.941	83.45
384.151	3.58
384.361	89.6
384.571	-31.23
384.781	52.74
384.991	77.31
385.201	110.08
385.411	126.46
385.621	7.68
385.831	17.92
386.041	60.93
386.251	89.6
386.461	122.37
386.671	30.21
386.881	56.83
387.091	-12.8
387.301	114.17
387.511	73.21
387.72	130.56
387.93	36.35
388.14	-8.7
388.35	128.51
388.56	101.89
388.769	122.37
388.979	15.87
389.189	48.64
389.399	77.31
389.609	32.26
389.818	99.84
390.028	146.94
390.238	67.07
390.447	97.79
390.657	46.59
390.867	52.74
391.076	97.79
391.286	56.83
391.496	105.98
391.705	42.5
391.915	69.12
392.125	151.04
392.334	87.55
392.544	140.8
392.753	58.88
392.963	11.78
393.172	114.17
393.382	48.64
393.591	192
393.801	130.56
394.01	130.56
394.22	155.13
394.429	91.65
394.639	95.74
394.848	108.03
395.058	97.79
395.267	151.04
395.477	101.89
395.686	97.79
395.895	187.9
396.105	239.1
396.314	114.17
396.524	85.5
396.733	171.52
396.942	169.47
397.152	77.31
397.361	97.79
397.57	114.17
397.78	179.71
397.989	114.17
398.198	183.81
398.407	146.94
398.617	99.84
398.826	126.46
399.035	65.02
399.244	177.66
399.453	114.17
399.663	134.65
399.872	77.31
400.081	146.94
400.29	128.51
400.499	110.08
400.708	93.69
400.917	153.09
401.127	175.61
401.336	140.8
401.545	220.67
401.754	110.08
401.963	206.33
402.172	108.03
402.381	73.21
402.59	138.75
402.799	194.05
403.008	114.17
403.217	196.09
403.426	124.41
403.635	151.04
403.844	167.42
404.053	155.13
404.262	175.61
404.471	237.05
404.68	206.33
404.888	163.33
405.097	130.56
405.306	226.81
405.515	214.52
405.724	194.05
405.933	253.44
406.142	206.33
406.35	239.1
406.559	228.86
406.768	286.2
406.977	312.83
407.185	226.81
407.394	286.2
407.603	212.48
407.812	269.82
408.02	314.88
408.229	298.49
408.438	255.48
408.646	302.59
408.855	312.83
409.064	421.37
409.272	353.79
409.481	329.21
409.69	310.78
409.898	398.84
410.107	478.71
410.315	419.32
410.524	421.37
410.733	411.13
410.941	452.09
411.15	513.53
411.358	437.75
411.567	515.58
411.775	581.11
411.984	556.54
412.192	560.63
412.401	525.82
412.609	607.73
412.818	706.04
413.026	726.52
413.234	724.47
413.443	730.61
413.651	663.03
413.86	720.37
414.068	851.44
414.276	830.96
414.485	720.37
414.693	921.07
414.901	998.9
415.11	835.06
415.318	878.07
415.526	970.23
415.734	945.65
415.943	982.51
416.151	1252.84
416.359	1121.77
416.567	1107.44
416.776	1197.55
416.984	1250.8
417.192	1287.66
417.4	1293.8
417.608	1340.91
417.817	1392.11
418.025	1508.84
418.233	1547.75
418.441	1465.83
418.649	1621.48
418.857	1588.71
419.065	1834.47
419.273	1680.87
419.481	1869.28
419.689	1883.62
419.897	1983.97
420.105	1951.2
420.313	2043.36
420.521	2055.65
420.729	2321.88
420.937	2065.89
421.145	2362.84
421.353	2555.35
421.561	2457.05
421.769	2547.16
421.977	2762.2
422.185	2778.58
422.393	2864.6
422.601	2997.71
422.809	2983.38
423.017	3079.63
423.224	3145.17
423.432	3362.25
423.64	3309.01
423.848	3532.23
424.056	3499.47
424.263	3702.22
424.471	3761.61
424.679	3853.77
424.887	4025.79
425.094	4152.77
425.302	4068.8
425.51	4357.57
425.718	4441.53
425.925	4562.36
426.133	4767.16
426.341	5002.68
426.548	5115.31
426.756	5029.3
426.964	5258.67
427.171	5340.59
427.379	5803.43
427.586	5795.24
427.794	5991.84
428.001	6217.12
428.209	6520.22
428.417	6403.49
428.624	6661.53
428.832	6817.18
429.039	6862.23
429.247	6864.28
429.454	7556.49
429.662	7978.37
429.869	7308.69
430.076	7785.87
430.284	7724.43
430.491	7988.61
430.699	8494.46
430.906	8404.35
431.114	8543.61
431.321	8951.16
431.528	9248.11
431.736	9624.94
431.943	10151.27
432.15	10046.82
432.358	10034.53
432.565	10681.69
432.772	10304.87
432.979	10966.36
433.187	11154.77
433.394	11103.57
433.601	11988.3
433.808	12045.64
434.016	11889.99
434.223	12248.39
434.43	13405.49
434.637	13010.23
434.844	13724.97
435.052	13901.1
435.259	13757.74
435.466	13929.77
435.673	13864.24
435.88	14843.17
436.087	15598.87
436.294	15475.99
436.501	15142.17
436.708	15340.82
436.915	15899.92
437.122	16653.57
437.329	16874.75
437.537	17036.54
437.743	17306.87
437.95	17276.15
438.157	18124.01
438.364	18781.41
438.571	18844.9
438.778	18910.43
438.985	20374.73
439.192	19840.21
439.399	20090.06
439.606	19926.22
439.813	21128.38
440.02	22324.4
440.227	21816.5
440.433	21507.26
440.64	22490.28
440.847	22099.12
441.054	22717.61
441.261	24429.71
441.467	23788.69
441.674	24310.93
441.881	25093.25
442.088	25201.79
442.294	24949.89
442.501	25644.15
442.708	26311.79
442.914	27309.15
443.121	27870.29
443.328	27485.28
443.534	29039.68
443.741	28673.1
443.948	28275.79
444.154	30491.69
444.361	30143.54
444.568	30288.95
444.774	30530.61
444.981	30919.72
445.187	31808.54
445.394	33057.8
445.6	32377.87
445.807	35769.31
446.013	33723.39
446.22	34575.34
446.426	36242.39
446.633	36453.33
446.839	37037
447.046	35820.51
447.252	38212.54
447.459	38024.12
447.665	37649.35
447.871	39330.73
448.078	41259.91
448.284	39123.88
448.491	40100.76
448.697	41667.46
448.903	42390.39
449.11	42625.91
449.316	41733
449.522	42627.96
449.728	43336.55
449.935	43996
450.141	44071.78
450.347	44976.98
450.553	43406.19
450.76	44292.96
450.966	45617.99
451.172	44946.26
451.378	46345.02
451.584	45216.59
451.791	46361.4
451.997	45902.66
452.203	46762.81
452.409	46955.32
452.615	46467.9
452.821	44872.53
453.027	44534.62
453.233	46680.89
453.44	45159.25
453.646	45577.03
453.852	45124.43
454.058	46162.75
454.264	44278.62
454.47	45812.55
454.676	44407.64
454.882	46076.74
455.088	42146.68
455.294	42806.13
455.5	43475.82
455.705	43813.73
455.911	42369.91
456.117	41329.55
456.323	41143.18
456.529	38761.39
456.735	40309.66
456.941	39283.62
457.147	38794.16
457.352	37583.81
457.558	36713.42
457.764	37295.05
457.97	36301.78
458.176	35468.26
458.381	35779.55
458.587	33752.06
458.793	33743.87
458.999	32199.7
459.204	34649.07
459.41	33432.58
459.616	31390.75
459.821	31147.04
460.027	31079.46
460.233	30348.34
460.438	29320.26
460.644	29232.19
460.85	28058.71
461.055	27296.86
461.261	27425.89
461.466	25179.26
461.672	24663.18
461.878	26281.07
462.083	24847.49
462.289	24276.11
462.494	23757.97
462.7	22903.97
462.905	22060.21
463.111	23291.04
463.316	23194.78
463.522	22795.43
463.727	22637.73
463.932	22733.99
464.138	22295.72
464.343	22512.81
464.549	21662.9
464.754	22574.25
464.959	22459.56
465.165	22357.16
465.37	21150.91
465.575	20606.15
465.781	21589.17
465.986	21570.74
466.191	20964.54
466.397	20360.39
466.602	19369.18
