Data from USB4F104151__97__14-30-47-293.txt Node

Date: Thu Mar 13 14:30:47 EDT 2025
User: louis
Spectrometer: USB4F10415
Trigger mode: 4
Integration Time (sec): 2.500000E-2
Scans to average: 1
Electric dark correction enabled: true
Nonlinearity correction enabled: false
Boxcar width: 0
XAxis mode: Wavelengths
Number of Pixels in Spectrum: 3648
>>>>>Begin Spectral Data<<<<<
178.204	-150.01
178.424	-150.01
178.644	-150.01
178.864	-137.73
179.084	-219.64
179.304	-29.18
179.524	-43.52
179.744	-37.38
179.964	87.55
180.184	-12.8
180.404	-23.04
180.624	38.4
180.844	1.54
181.064	-4.61
181.283	-16.9
181.503	26.11
181.723	13.82
181.943	-76.29
182.163	42.5
182.383	58.88
182.602	42.5
182.822	58.88
183.042	46.59
183.262	11.78
183.482	-47.62
183.701	-35.33
183.921	26.11
184.141	11.78
184.361	38.4
184.58	9.73
184.8	-6.66
185.02	73.21
185.239	75.26
185.459	11.78
185.679	116.22
185.898	60.93
186.118	-20.99
186.338	3.58
186.557	75.26
186.777	-31.23
186.997	-31.23
187.216	3.58
187.436	136.7
187.655	-0.51
187.875	91.65
188.095	32.26
188.314	30.21
188.534	110.08
188.753	48.64
188.973	17.92
189.192	54.78
189.412	105.98
189.631	77.31
189.851	-29.18
190.07	58.88
190.29	85.5
190.509	40.45
190.729	36.35
190.948	85.5
191.168	200.19
191.387	38.4
191.607	11.78
191.826	85.5
192.045	65.02
192.265	56.83
192.484	-12.8
192.704	93.69
192.923	-96.77
193.142	83.45
193.362	-14.85
193.581	9.73
193.8	19.97
194.02	118.27
194.239	34.3
194.458	50.69
194.678	34.3
194.897	58.88
195.116	-0.51
195.335	116.22
195.555	65.02
195.774	9.73
195.993	38.4
196.212	19.97
196.432	-74.24
196.651	34.3
196.87	-35.33
197.089	42.5
197.308	36.35
197.528	17.92
197.747	-23.04
197.966	87.55
198.185	38.4
198.404	17.92
198.623	101.89
198.842	99.84
199.062	114.17
199.281	103.93
199.5	58.88
199.719	34.3
199.938	22.02
200.157	28.16
200.376	-20.99
200.595	87.55
200.814	-8.7
201.033	17.92
201.252	54.78
201.471	118.27
201.69	38.4
201.909	65.02
202.128	22.02
202.347	1.54
202.566	-35.33
202.785	17.92
203.004	44.54
203.223	101.89
203.442	9.73
203.661	-14.85
203.879	11.78
204.098	34.3
204.317	11.78
204.536	54.78
204.755	13.82
204.974	83.45
205.193	-25.09
205.411	67.07
205.63	-4.61
205.849	24.06
206.068	-2.56
206.287	26.11
206.505	-20.99
206.724	28.16
206.943	71.17
207.162	-20.99
207.381	-14.85
207.599	-10.75
207.818	38.4
208.037	58.88
208.255	28.16
208.474	95.74
208.693	42.5
208.911	42.5
209.13	52.74
209.349	65.02
209.567	52.74
209.786	34.3
210.005	65.02
210.223	3.58
210.442	-51.71
210.661	124.41
210.879	-14.85
211.098	19.97
211.316	-20.99
211.535	52.74
211.753	11.78
211.972	9.73
212.191	-0.51
212.409	3.58
212.628	42.5
212.846	40.45
213.065	58.88
213.283	22.02
213.502	-33.28
213.72	52.74
213.938	19.97
214.157	101.89
214.375	19.97
214.594	26.11
214.812	30.21
215.031	5.63
215.249	13.82
215.467	5.63
215.686	9.73
215.904	75.26
216.122	46.59
216.341	50.69
216.559	34.3
216.778	-14.85
216.996	-37.38
217.214	-23.04
217.432	22.02
217.651	-6.66
217.869	26.11
218.087	73.21
218.306	28.16
218.524	-4.61
218.742	32.26
218.96	60.93
219.179	11.78
219.397	44.54
219.615	134.65
219.833	54.78
220.051	19.97
220.27	42.5
220.488	46.59
220.706	69.12
220.924	-10.75
221.142	-2.56
221.36	36.35
221.578	99.84
221.796	79.36
222.015	103.93
222.233	50.69
222.451	50.69
222.669	-10.75
222.887	79.36
223.105	-37.38
223.323	28.16
223.541	36.35
223.759	58.88
223.977	36.35
224.195	13.82
224.413	62.98
224.631	118.27
224.849	60.93
225.067	99.84
225.285	-10.75
225.503	52.74
225.721	-53.76
225.939	50.69
226.157	-18.94
226.375	99.84
226.592	89.6
226.81	26.11
227.028	22.02
227.246	40.45
227.464	73.21
227.682	34.3
227.9	56.83
228.117	91.65
228.335	19.97
228.553	34.3
228.771	71.17
228.989	52.74
229.206	-0.51
229.424	83.45
229.642	-4.61
229.86	-64
230.077	54.78
230.295	95.74
230.513	19.97
230.731	60.93
230.948	91.65
231.166	52.74
231.384	5.63
231.601	9.73
231.819	67.07
232.037	77.31
232.254	-35.33
232.472	7.68
232.689	-2.56
232.907	126.46
233.125	42.5
233.342	110.08
233.56	13.82
233.777	-6.66
233.995	13.82
234.213	132.61
234.43	11.78
234.648	1.54
234.865	-37.38
235.083	34.3
235.3	42.5
235.518	28.16
235.735	89.6
235.953	50.69
236.17	77.31
236.388	75.26
236.605	-10.75
236.822	132.61
237.04	11.78
237.257	58.88
237.475	-20.99
237.692	60.93
237.909	69.12
238.127	19.97
238.344	89.6
238.562	114.17
238.779	50.69
238.996	-2.56
239.214	30.21
239.431	99.84
239.648	-29.18
239.865	93.69
240.083	105.98
240.3	1.54
240.517	58.88
240.735	15.87
240.952	153.09
241.169	58.88
241.386	13.82
241.603	-29.18
241.821	-18.94
242.038	67.07
242.255	110.08
242.472	-72.19
242.689	34.3
242.907	69.12
243.124	-14.85
243.341	-43.52
243.558	17.92
243.775	-2.56
243.992	36.35
244.209	22.02
244.426	85.5
244.643	22.02
244.86	26.11
245.078	99.84
245.295	-37.38
245.512	9.73
245.729	-14.85
245.946	77.31
246.163	26.11
246.38	30.21
246.597	85.5
246.814	11.78
247.031	71.17
247.248	19.97
247.464	79.36
247.681	79.36
247.898	34.3
248.115	54.78
248.332	48.64
248.549	46.59
248.766	50.69
248.983	34.3
249.2	30.21
249.417	30.21
249.633	-23.04
249.85	95.74
250.067	58.88
250.284	87.55
250.501	75.26
250.717	67.07
250.934	-70.14
251.151	118.27
251.368	58.88
251.585	67.07
251.801	83.45
252.018	3.58
252.235	118.27
252.451	1.54
252.668	-35.33
252.885	71.17
253.102	42.5
253.318	-14.85
253.535	34.3
253.752	-31.23
253.968	75.26
254.185	-76.29
254.401	91.65
254.618	34.3
254.835	-96.77
255.051	103.93
255.268	34.3
255.484	44.54
255.701	5.63
255.917	69.12
256.134	5.63
256.351	-4.61
256.567	9.73
256.784	11.78
257	-29.18
257.217	69.12
257.433	52.74
257.65	5.63
257.866	50.69
258.082	-29.18
258.299	83.45
258.515	17.92
258.732	9.73
258.948	-29.18
259.165	24.06
259.381	13.82
259.597	132.61
259.814	34.3
260.03	-25.09
260.246	-6.66
260.463	101.89
260.679	-61.95
260.895	58.88
261.112	60.93
261.328	-12.8
261.544	9.73
261.761	79.36
261.977	11.78
262.193	-82.43
262.409	36.35
262.626	22.02
262.842	69.12
263.058	34.3
263.274	-20.99
263.49	50.69
263.707	42.5
263.923	67.07
264.139	-12.8
264.355	50.69
264.571	75.26
264.787	13.82
265.004	69.12
265.22	-82.43
265.436	26.11
265.652	22.02
265.868	15.87
266.084	-4.61
266.3	52.74
266.516	3.58
266.732	-23.04
266.948	75.26
267.164	50.69
267.38	-2.56
267.596	30.21
267.812	122.37
268.028	58.88
268.244	-12.8
268.46	5.63
268.676	65.02
268.892	62.98
269.108	-14.85
269.324	22.02
269.54	75.26
269.756	3.58
269.972	38.4
270.188	3.58
270.403	54.78
270.619	42.5
270.835	50.69
271.051	30.21
271.267	67.07
271.483	46.59
271.698	132.61
271.914	85.5
272.13	42.5
272.346	19.97
272.562	30.21
272.777	15.87
272.993	46.59
273.209	19.97
273.425	52.74
273.64	17.92
273.856	73.21
274.072	-12.8
274.287	-27.14
274.503	58.88
274.719	-4.61
274.934	36.35
275.15	1.54
275.366	42.5
275.581	5.63
275.797	42.5
276.012	-4.61
276.228	83.45
276.444	-43.52
276.659	62.98
276.875	58.88
277.09	26.11
277.306	103.93
277.521	5.63
277.737	69.12
277.952	71.17
278.168	75.26
278.383	44.54
278.599	77.31
278.814	122.37
279.03	52.74
279.245	110.08
279.461	46.59
279.676	83.45
279.892	13.82
280.107	36.35
280.322	-47.62
280.538	120.32
280.753	-27.14
280.969	69.12
281.184	50.69
281.399	40.45
281.615	13.82
281.83	-18.94
282.045	-14.85
282.26	38.4
282.476	26.11
282.691	126.46
282.906	52.74
283.122	34.3
283.337	36.35
283.552	50.69
283.767	-23.04
283.983	58.88
284.198	-10.75
284.413	52.74
284.628	71.17
284.843	58.88
285.058	-2.56
285.274	54.78
285.489	-8.7
285.704	-23.04
285.919	42.5
286.134	58.88
286.349	60.93
286.564	9.73
286.779	-0.51
286.995	50.69
287.21	17.92
287.425	22.02
287.64	7.68
287.855	-18.94
288.07	-18.94
288.285	93.69
288.5	54.78
288.715	65.02
288.93	15.87
289.145	26.11
289.36	99.84
289.575	26.11
289.79	116.22
290.004	9.73
290.219	103.93
290.434	26.11
290.649	-10.75
290.864	34.3
291.079	-6.66
291.294	40.45
291.509	9.73
291.724	-4.61
291.938	101.89
292.153	99.84
292.368	42.5
292.583	34.3
292.798	22.02
293.012	60.93
293.227	60.93
293.442	30.21
293.657	-31.23
293.871	71.17
294.086	38.4
294.301	34.3
294.516	67.07
294.73	108.03
294.945	28.16
295.16	11.78
295.374	81.41
295.589	75.26
295.804	-14.85
296.018	3.58
296.233	-2.56
296.447	17.92
296.662	71.17
296.877	60.93
297.091	34.3
297.306	11.78
297.52	40.45
297.735	52.74
297.949	134.65
298.164	99.84
298.378	-0.51
298.593	42.5
298.807	67.07
299.022	83.45
299.236	62.98
299.451	-10.75
299.665	-10.75
299.88	-20.99
300.094	83.45
300.309	15.87
300.523	67.07
300.737	1.54
300.952	40.45
301.166	36.35
301.381	85.5
301.595	52.74
301.809	34.3
302.024	22.02
302.238	9.73
302.452	77.31
302.667	58.88
302.881	151.04
303.095	44.54
303.309	42.5
303.524	85.5
303.738	-10.75
303.952	60.93
304.166	44.54
304.381	-23.04
304.595	130.56
304.809	-51.71
305.023	69.12
305.237	1.54
305.452	85.5
305.666	13.82
305.88	58.88
306.094	69.12
306.308	83.45
306.522	46.59
306.736	83.45
306.95	79.36
307.164	34.3
307.379	-59.9
307.593	67.07
307.807	95.74
308.021	42.5
308.235	101.89
308.449	-33.28
308.663	50.69
308.877	140.8
309.091	83.45
309.305	54.78
309.519	-12.8
309.733	38.4
309.947	30.21
310.161	116.22
310.374	73.21
310.588	91.65
310.802	7.68
311.016	17.92
311.23	-23.04
311.444	-29.18
311.658	36.35
311.872	116.22
312.085	69.12
312.299	171.52
312.513	-31.23
312.727	52.74
312.941	-10.75
313.154	7.68
313.368	69.12
313.582	-12.8
313.796	44.54
314.009	13.82
314.223	62.98
314.437	-27.14
314.651	22.02
314.864	-35.33
315.078	69.12
315.292	-20.99
315.505	1.54
315.719	54.78
315.933	62.98
316.146	26.11
316.36	30.21
316.573	91.65
316.787	120.32
317.001	97.79
317.214	44.54
317.428	34.3
317.641	-29.18
317.855	105.98
318.068	54.78
318.282	79.36
318.495	83.45
318.709	103.93
318.922	-20.99
319.136	75.26
319.349	-6.66
319.563	-59.9
319.776	71.17
319.99	62.98
320.203	83.45
320.417	9.73
320.63	26.11
320.843	75.26
321.057	50.69
321.27	54.78
321.483	24.06
321.697	50.69
321.91	93.69
322.124	77.31
322.337	83.45
322.55	11.78
322.763	50.69
322.977	13.82
323.19	13.82
323.403	13.82
323.617	26.11
323.83	118.27
324.043	38.4
324.256	-78.33
324.469	-10.75
324.683	93.69
324.896	19.97
325.109	91.65
325.322	52.74
325.535	26.11
325.748	91.65
325.962	28.16
326.175	50.69
326.388	58.88
326.601	30.21
326.814	-27.14
327.027	17.92
327.24	89.6
327.453	17.92
327.666	22.02
327.879	87.55
328.092	93.69
328.305	77.31
328.518	-31.23
328.731	81.41
328.944	62.98
329.157	130.56
329.37	56.83
329.583	75.26
329.796	95.74
330.009	-27.14
330.222	128.51
330.435	19.97
330.648	58.88
330.861	44.54
331.073	85.5
331.286	13.82
331.499	65.02
331.712	-4.61
331.925	62.98
332.138	22.02
332.35	62.98
332.563	71.17
332.776	85.5
332.989	69.12
333.202	83.45
333.414	-29.18
333.627	3.58
333.84	77.31
334.053	58.88
334.265	-47.62
334.478	81.41
334.691	62.98
334.903	32.26
335.116	52.74
335.329	67.07
335.541	30.21
335.754	91.65
335.966	32.26
336.179	36.35
336.392	17.92
336.604	46.59
336.817	75.26
337.029	71.17
337.242	28.16
337.454	120.32
337.667	99.84
337.88	103.93
338.092	26.11
338.305	-16.9
338.517	44.54
338.729	67.07
338.942	50.69
339.154	40.45
339.367	75.26
339.579	85.5
339.792	-23.04
340.004	67.07
340.217	28.16
340.429	65.02
340.641	5.63
340.854	69.12
341.066	58.88
341.278	42.5
341.491	110.08
341.703	-23.04
341.915	56.83
342.128	91.65
342.34	71.17
342.552	58.88
342.764	3.58
342.977	52.74
343.189	38.4
343.401	67.07
343.613	42.5
343.826	73.21
344.038	-25.09
344.25	44.54
344.462	-23.04
344.674	93.69
344.886	-100.86
345.099	44.54
345.311	114.17
345.523	69.12
345.735	-12.8
345.947	34.3
346.159	17.92
346.371	75.26
346.583	99.84
346.795	136.7
347.007	-23.04
347.219	42.5
347.431	34.3
347.643	83.45
347.855	42.5
348.067	48.64
348.279	62.98
348.491	77.31
348.703	52.74
348.915	60.93
349.127	118.27
349.339	124.41
349.551	-14.85
349.763	101.89
349.975	83.45
350.187	99.84
350.399	50.69
350.61	116.22
350.822	-0.51
351.034	91.65
351.246	124.41
351.458	69.12
351.669	-18.94
351.881	91.65
352.093	79.36
352.305	120.32
352.517	15.87
352.728	36.35
352.94	56.83
353.152	56.83
353.363	-78.33
353.575	-2.56
353.787	124.41
353.999	69.12
354.21	177.66
354.422	71.17
354.633	52.74
354.845	83.45
355.057	58.88
355.268	85.5
355.48	124.41
355.692	22.02
355.903	46.59
356.115	17.92
356.326	-39.42
356.538	85.5
356.749	65.02
356.961	34.3
357.172	153.09
357.384	3.58
357.595	177.66
357.807	58.88
358.018	36.35
358.23	17.92
358.441	108.03
358.653	99.84
358.864	28.16
359.075	1.54
359.287	71.17
359.498	62.98
359.709	38.4
359.921	-10.75
360.132	60.93
360.344	58.88
360.555	108.03
360.766	58.88
360.977	28.16
361.189	99.84
361.4	-23.04
361.611	136.7
361.823	93.69
362.034	-4.61
362.245	15.87
362.456	52.74
362.667	108.03
362.879	1.54
363.09	-4.61
363.301	87.55
363.512	1.54
363.723	42.5
363.935	-35.33
364.146	132.61
364.357	26.11
364.568	67.07
364.779	58.88
364.99	75.26
365.201	30.21
365.412	77.31
365.623	-53.76
365.834	38.4
366.045	-6.66
366.256	69.12
366.467	60.93
366.678	54.78
366.889	122.37
367.1	-6.66
367.311	101.89
367.522	67.07
367.733	85.5
367.944	73.21
368.155	44.54
368.366	83.45
368.577	28.16
368.788	114.17
368.999	3.58
369.209	101.89
369.42	67.07
369.631	118.27
369.842	81.41
370.053	17.92
370.264	153.09
370.474	19.97
370.685	71.17
370.896	-23.04
371.107	58.88
371.317	46.59
371.528	60.93
371.739	54.78
371.95	120.32
372.16	99.84
372.371	-6.66
372.582	85.5
372.792	69.12
373.003	58.88
373.214	60.93
373.424	87.55
373.635	36.35
373.846	112.13
374.056	34.3
374.267	38.4
374.477	116.22
374.688	75.26
374.898	34.3
375.109	136.7
375.319	103.93
375.53	62.98
375.74	52.74
375.951	26.11
376.161	54.78
376.372	9.73
376.582	79.36
376.793	56.83
377.003	-39.42
377.214	38.4
377.424	136.7
377.635	67.07
377.845	52.74
378.055	132.61
378.266	32.26
378.476	93.69
378.686	71.17
378.897	99.84
379.107	48.64
379.317	52.74
379.528	120.32
379.738	101.89
379.948	54.78
380.158	91.65
380.369	9.73
380.579	91.65
380.789	132.61
380.999	30.21
381.21	79.36
381.42	69.12
381.63	83.45
381.84	60.93
382.05	17.92
382.261	52.74
382.471	71.17
382.681	44.54
382.891	144.89
383.101	58.88
383.311	79.36
383.521	9.73
383.731	56.83
383.941	79.36
384.151	110.08
384.361	93.69
384.571	30.21
384.781	130.56
384.991	83.45
385.201	114.17
385.411	134.65
385.621	91.65
385.831	67.07
386.041	97.79
386.251	75.26
386.461	93.69
386.671	91.65
386.881	108.03
387.091	58.88
387.301	69.12
387.511	5.63
387.72	13.82
387.93	99.84
388.14	1.54
388.35	157.18
388.56	165.37
388.769	116.22
388.979	108.03
389.189	99.84
389.399	36.35
389.609	101.89
389.818	116.22
390.028	126.46
390.238	108.03
390.447	-2.56
390.657	11.78
390.867	30.21
391.076	85.5
391.286	97.79
391.496	83.45
391.705	103.93
391.915	67.07
392.125	101.89
392.334	56.83
392.544	69.12
392.753	71.17
392.963	132.61
393.172	83.45
393.382	50.69
393.591	185.85
393.801	101.89
394.01	110.08
394.22	144.89
394.429	126.46
394.639	65.02
394.848	97.79
395.058	124.41
395.267	159.23
395.477	103.93
395.686	202.24
395.895	126.46
396.105	167.42
396.314	103.93
396.524	116.22
396.733	95.74
396.942	183.81
397.152	200.19
397.361	165.37
397.57	148.99
397.78	146.94
397.989	85.5
398.198	159.23
398.407	151.04
398.617	157.18
398.826	89.6
399.035	81.41
399.244	169.47
399.453	165.37
399.663	144.89
399.872	206.33
400.081	140.8
400.29	132.61
400.499	128.51
400.708	118.27
400.917	112.13
401.127	206.33
401.336	95.74
401.545	255.48
401.754	218.62
401.963	230.91
402.172	124.41
402.381	114.17
402.59	194.05
402.799	146.94
403.008	200.19
403.217	181.76
403.426	120.32
403.635	179.71
403.844	132.61
404.053	192
404.262	173.57
404.471	368.12
404.68	185.85
404.888	132.61
405.097	165.37
405.306	206.33
405.515	230.91
405.724	189.95
405.933	206.33
406.142	198.14
406.35	185.85
406.559	226.81
406.768	251.39
406.977	314.88
407.185	251.39
407.394	282.11
407.603	308.73
407.812	304.64
408.02	341.5
408.229	386.55
408.438	364.03
408.646	263.68
408.855	321.02
409.064	423.42
409.272	361.98
409.481	404.99
409.69	454.14
409.898	398.84
410.107	486.9
410.315	527.86
410.524	464.38
410.733	390.65
410.941	456.19
411.15	538.1
411.358	577.02
411.567	607.73
411.775	497.14
411.984	665.08
412.192	632.31
412.401	673.27
412.609	728.56
412.818	742.9
413.026	734.71
413.234	769.52
413.443	689.65
413.651	699.89
413.86	749.04
414.068	886.26
414.276	988.66
414.485	912.88
414.693	939.51
414.901	976.37
415.11	959.99
415.318	1043.95
415.526	1011.18
415.734	1082.86
415.943	1156.59
416.151	1246.7
416.359	1232.37
416.567	1304.04
416.776	1254.89
416.984	1435.11
417.192	1474.03
417.4	1459.69
417.608	1359.34
417.817	1566.18
418.025	1631.72
418.233	1795.56
418.441	1719.78
418.649	1641.96
418.857	1865.19
419.065	1832.42
419.273	1801.7
419.481	2035.17
419.689	2074.08
419.897	2180.57
420.105	2188.77
420.313	2319.84
420.521	2272.73
420.729	2522.59
420.937	2428.38
421.145	2467.29
421.353	2758.1
421.561	2835.92
421.769	2846.16
421.977	3026.39
422.185	3036.63
422.393	3257.81
422.601	3319.25
422.809	3325.39
423.017	3327.44
423.224	3583.43
423.432	3753.41
423.64	3610.06
423.848	4058.56
424.056	3900.87
424.263	4175.3
424.471	4220.35
424.679	4312.51
424.887	4494.78
425.094	4629.95
425.302	4730.3
425.51	4810.17
425.718	4974
425.925	5047.73
426.133	5285.3
426.341	5567.92
426.548	5625.26
426.756	5764.52
426.964	5795.24
427.171	6270.37
427.379	6311.33
427.586	6391.2
427.794	6800.79
428.001	7026.07
428.209	7259.54
428.417	7099.8
428.624	7595.4
428.832	7589.26
429.039	7648.65
429.247	7673.23
429.454	8301.95
429.662	8783.23
429.869	8088.96
430.076	8830.33
430.284	8547.71
430.491	8775.03
430.699	9663.85
430.906	9440.62
431.114	9692.52
431.321	9921.9
431.528	10151.27
431.736	10757.47
431.943	11160.92
432.15	10949.98
432.358	11189.59
432.565	11629.9
432.772	11468.11
432.979	12303.68
433.187	12553.54
433.394	12389.7
433.601	13235.51
433.808	13145.4
434.016	13116.73
434.223	13694.26
434.43	14648.61
434.637	14251.3
434.844	15385.88
435.052	15592.72
435.259	15486.23
435.466	15633.68
435.673	15385.88
435.88	16305.42
436.087	17300.73
436.294	17392.89
436.501	16839.94
436.708	17048.83
436.915	17753.33
437.122	18545.89
437.329	18539.75
437.537	18965.73
437.743	19522.77
437.95	19416.28
438.157	20384.97
438.364	20982.98
438.571	20862.15
438.778	21226.68
438.985	23000.23
439.192	22129.84
439.399	22676.65
439.606	22021.3
439.813	23422.11
440.02	24999.04
440.227	24724.61
440.433	24171.66
440.64	24941.7
440.847	24790.15
441.054	25625.72
441.261	26946.66
441.467	26586.22
441.674	27274.34
441.881	28396.62
442.088	28093.52
442.294	27434.08
442.501	28816.46
442.708	29197.38
442.914	30325.81
443.121	31634.46
443.328	30553.13
443.534	32902.15
443.741	31765.53
443.948	31767.58
444.154	33958.91
444.361	33616.9
444.568	33840.12
444.774	33750.01
444.981	34481.14
445.187	35159.02
445.394	36842.45
445.6	36275.16
445.807	39691.17
446.013	38114.23
446.22	38704.05
446.426	40356.76
446.633	40573.84
446.839	41603.97
447.046	40178.59
447.252	42306.43
447.459	42171.26
447.665	42218.36
447.871	43672.42
448.078	45894.47
448.284	43660.13
448.491	44725.08
448.697	46492.47
448.903	47244.08
449.11	47448.88
449.316	46895.92
449.522	47543.08
449.728	48438.04
449.935	48945.94
450.141	49318.67
450.347	50690.81
450.553	48517.92
450.76	49050.39
450.966	51182.32
451.172	50189.06
451.378	51362.54
451.584	50109.19
451.791	51831.53
451.997	51813.1
452.203	52443.87
452.409	52050.66
452.615	52122.34
452.821	50385.66
453.027	49871.62
453.233	52359.91
453.44	50010.88
453.646	50932.47
453.852	50606.84
454.058	51753.71
454.264	49804.04
454.47	51014.39
454.676	49896.2
454.882	51782.38
455.088	47207.22
455.294	48196.38
455.5	48804.63
455.705	49484.56
455.911	47352.62
456.117	46435.13
456.323	45681.48
456.529	43328.36
456.735	45155.15
456.941	44024.67
457.147	43621.22
457.352	41999.23
457.558	41747.33
457.764	41726.85
457.97	41089.93
458.176	40278.94
458.381	40207.26
458.587	38056.89
458.793	38300.6
458.999	36328.41
459.204	39031.72
459.41	37635.01
459.616	35124.2
459.821	35388.39
460.027	34835.44
460.233	34419.7
460.438	32705.55
460.644	33545.22
460.85	31591.45
461.055	31538.21
461.261	30983.21
461.466	28785.74
461.672	27929.69
461.878	29770.81
462.083	28003.41
462.289	27272.29
462.494	27155.55
462.7	25980.02
462.905	25078.91
463.111	26133.62
463.316	26201.2
463.522	25678.97
463.727	25975.92
463.932	25388.16
464.138	25222.27
464.343	25404.54
464.549	24403.08
464.754	25687.16
464.959	25185.41
465.165	25197.7
465.37	23786.65
465.575	23039.14
465.781	24243.34
465.986	24235.15
466.191	23315.61
466.397	23041.18
