Data from USB4F104151__162__14-32-16-318.txt Node

Date: Thu Mar 13 14:32:16 EDT 2025
User: louis
Spectrometer: USB4F10415
Trigger mode: 4
Integration Time (sec): 2.500000E-2
Scans to average: 1
Electric dark correction enabled: true
Nonlinearity correction enabled: false
Boxcar width: 0
XAxis mode: Wavelengths
Number of Pixels in Spectrum: 3648
>>>>>Begin Spectral Data<<<<<
178.204	-120.49
178.424	-120.49
178.644	-120.49
178.864	-153.26
179.084	-128.68
179.304	39.25
179.524	10.58
179.744	22.87
179.964	35.16
180.184	-42.67
180.404	51.54
180.624	-24.23
180.844	-40.62
181.064	-118.44
181.283	-34.47
181.503	72.02
181.723	29.01
181.943	-30.38
182.163	96.6
182.383	4.44
182.602	-1.71
182.822	22.87
183.042	8.53
183.262	-5.8
183.482	20.82
183.701	29.01
183.921	37.2
184.141	10.58
184.361	-20.14
184.58	20.82
184.8	-52.91
185.02	-50.86
185.239	43.35
185.459	-13.99
185.679	92.5
185.898	-69.29
186.118	-20.14
186.338	-38.57
186.557	10.58
186.777	2.39
186.997	-38.57
187.216	-26.28
187.436	-22.19
187.655	10.58
187.875	51.54
188.095	43.35
188.314	43.35
188.534	100.69
188.753	94.55
188.973	-13.99
189.192	-36.52
189.412	6.49
189.631	35.16
189.851	-42.67
190.07	86.36
190.29	-11.95
190.509	51.54
190.729	10.58
190.948	-9.9
191.168	133.46
191.387	29.01
191.607	-63.15
191.826	76.12
192.045	82.26
192.265	10.58
192.484	51.54
192.704	-13.99
192.923	51.54
193.142	45.4
193.362	-13.99
193.581	55.64
193.8	39.25
194.02	61.78
194.239	26.96
194.458	10.58
194.678	-3.75
194.897	22.87
195.116	33.11
195.335	18.77
195.555	35.16
195.774	2.39
195.993	51.54
196.212	-11.95
196.432	-20.14
196.651	37.2
196.87	47.44
197.089	59.73
197.308	6.49
197.528	-26.28
197.747	-20.14
197.966	49.49
198.185	78.16
198.404	18.77
198.623	72.02
198.842	6.49
199.062	26.96
199.281	59.73
199.5	-5.8
199.719	10.58
199.938	39.25
200.157	117.08
200.376	-3.75
200.595	18.77
200.814	-11.95
201.033	35.16
201.252	59.73
201.471	-36.52
201.69	63.83
201.909	55.64
202.128	63.83
202.347	45.4
202.566	-36.52
202.785	22.87
203.004	-26.28
203.223	22.87
203.442	104.79
203.661	63.83
203.879	-24.23
204.098	18.77
204.317	29.01
204.536	80.21
204.755	47.44
204.974	82.26
205.193	94.55
205.411	76.12
205.63	18.77
205.849	37.2
206.068	10.58
206.287	-36.52
206.505	57.68
206.724	-22.19
206.943	35.16
207.162	37.2
207.381	-38.57
207.599	80.21
207.818	6.49
208.037	51.54
208.255	-34.47
208.474	-18.09
208.693	22.87
208.911	-3.75
209.13	-52.91
209.349	43.35
209.567	-7.85
209.786	53.59
210.005	35.16
210.223	-38.57
210.442	-7.85
210.661	51.54
210.879	98.64
211.098	96.6
211.316	51.54
211.535	26.96
211.753	35.16
211.972	92.5
212.191	14.68
212.409	37.2
212.628	-44.71
212.846	-3.75
213.065	43.35
213.283	0.34
213.502	-5.8
213.72	-36.52
213.938	-34.47
214.157	47.44
214.375	20.82
214.594	29.01
214.812	133.46
215.031	86.36
215.249	-50.86
215.467	29.01
215.686	-44.71
215.904	67.92
216.122	47.44
216.341	39.25
216.559	26.96
216.778	37.2
216.996	92.5
217.214	-13.99
217.432	-52.91
217.651	-57
217.869	18.77
218.087	-5.8
218.306	-24.23
218.524	63.83
218.742	10.58
218.96	55.64
219.179	76.12
219.397	2.39
219.615	14.68
219.833	108.88
220.051	10.58
220.27	20.82
220.488	86.36
220.706	47.44
220.924	20.82
221.142	-54.95
221.36	-11.95
221.578	29.01
221.796	12.63
222.015	61.78
222.233	20.82
222.451	61.78
222.669	33.11
222.887	117.08
223.105	24.92
223.323	31.06
223.541	35.16
223.759	14.68
223.977	26.96
224.195	53.59
224.413	14.68
224.631	63.83
224.849	18.77
225.067	26.96
225.285	-38.57
225.503	-54.95
225.721	-63.15
225.939	-38.57
226.157	31.06
226.375	168.27
226.592	-3.75
226.81	-61.1
227.028	10.58
227.246	51.54
227.464	37.2
227.682	43.35
227.9	92.5
228.117	110.93
228.335	-40.62
228.553	12.63
228.771	35.16
228.989	10.58
229.206	39.25
229.424	18.77
229.642	24.92
229.86	-20.14
230.077	-7.85
230.295	78.16
230.513	18.77
230.731	41.3
230.948	24.92
231.166	33.11
231.384	31.06
231.601	-26.28
231.819	135.51
232.037	-59.05
232.254	45.4
232.472	35.16
232.689	-52.91
232.907	67.92
233.125	22.87
233.342	43.35
233.56	0.34
233.777	29.01
233.995	-30.38
234.213	45.4
234.43	20.82
234.648	47.44
234.865	39.25
235.083	35.16
235.3	61.78
235.518	33.11
235.735	92.5
235.953	37.2
236.17	108.88
236.388	-22.19
236.605	4.44
236.822	94.55
237.04	49.49
237.257	69.97
237.475	78.16
237.692	55.64
237.909	53.59
238.127	45.4
238.344	6.49
238.562	-22.19
238.779	10.58
238.996	-69.29
239.214	22.87
239.431	67.92
239.648	-9.9
239.865	29.01
240.083	26.96
240.3	-26.28
240.517	-13.99
240.735	-52.91
240.952	29.01
241.169	59.73
241.386	35.16
241.603	10.58
241.821	22.87
242.038	51.54
242.255	76.12
242.472	-13.99
242.689	20.82
242.907	18.77
243.124	55.64
243.341	45.4
243.558	-34.47
243.775	12.63
243.992	43.35
244.209	-20.14
244.426	67.92
244.643	59.73
244.86	-22.19
245.078	53.59
245.295	39.25
245.512	-9.9
245.729	-59.05
245.946	26.96
246.163	16.73
246.38	-5.8
246.597	37.2
246.814	53.59
247.031	-36.52
247.248	51.54
247.464	57.68
247.681	-7.85
247.898	2.39
248.115	29.01
248.332	-79.53
248.549	100.69
248.766	31.06
248.983	18.77
249.2	67.92
249.417	-73.39
249.633	39.25
249.85	-87.72
250.067	43.35
250.284	-11.95
250.501	117.08
250.717	22.87
250.934	26.96
251.151	-26.28
251.368	-3.75
251.585	20.82
251.801	59.73
252.018	-46.76
252.235	94.55
252.451	26.96
252.668	18.77
252.885	-5.8
253.102	-3.75
253.318	-22.19
253.535	18.77
253.752	-18.09
253.968	43.35
254.185	18.77
254.401	-1.71
254.618	6.49
254.835	8.53
255.051	115.03
255.268	6.49
255.484	18.77
255.701	-1.71
255.917	100.69
256.134	57.68
256.351	2.39
256.567	-1.71
256.784	72.02
257	-7.85
257.217	43.35
257.433	69.97
257.65	-13.99
257.866	55.64
258.082	-3.75
258.299	26.96
258.515	59.73
258.732	-3.75
258.948	102.74
259.165	18.77
259.381	-63.15
259.597	59.73
259.814	78.16
260.03	-54.95
260.246	76.12
260.463	49.49
260.679	78.16
260.895	-5.8
261.112	131.41
261.328	45.4
261.544	22.87
261.761	59.73
261.977	2.39
262.193	18.77
262.409	31.06
262.626	94.55
262.842	-22.19
263.058	-3.75
263.274	22.87
263.49	112.98
263.707	108.88
263.923	67.92
264.139	29.01
264.355	16.73
264.571	76.12
264.787	18.77
265.004	10.58
265.22	57.68
265.436	4.44
265.652	-5.8
265.868	4.44
266.084	-7.85
266.3	26.96
266.516	2.39
266.732	22.87
266.948	-67.24
267.164	47.44
267.38	-5.8
267.596	69.97
267.812	88.4
268.028	35.16
268.244	4.44
268.46	4.44
268.676	-7.85
268.892	61.78
269.108	-3.75
269.324	45.4
269.54	-40.62
269.756	76.12
269.972	14.68
270.188	-5.8
270.403	39.25
270.619	18.77
270.835	-3.75
271.051	43.35
271.267	4.44
271.483	123.22
271.698	-5.8
271.914	26.96
272.13	10.58
272.346	0.34
272.562	51.54
272.777	86.36
272.993	69.97
273.209	18.77
273.425	31.06
273.64	10.58
273.856	35.16
274.072	80.21
274.287	45.4
274.503	80.21
274.719	12.63
274.934	-40.62
275.15	-38.57
275.366	14.68
275.581	-22.19
275.797	6.49
276.012	18.77
276.228	29.01
276.444	-5.8
276.659	31.06
276.875	-38.57
277.09	37.2
277.306	-69.29
277.521	31.06
277.737	121.17
277.952	-9.9
278.168	10.58
278.383	-46.76
278.599	29.01
278.814	67.92
279.03	45.4
279.245	94.55
279.461	-22.19
279.676	53.59
279.892	-9.9
280.107	22.87
280.322	2.39
280.538	-26.28
280.753	51.54
280.969	76.12
281.184	39.25
281.399	-1.71
281.615	-11.95
281.83	63.83
282.045	-13.99
282.26	22.87
282.476	-13.99
282.691	14.68
282.906	94.55
283.122	110.93
283.337	-5.8
283.552	59.73
283.767	-71.34
283.983	4.44
284.198	43.35
284.413	18.77
284.628	-22.19
284.843	4.44
285.058	31.06
285.274	-28.33
285.489	37.2
285.704	88.4
285.919	76.12
286.134	18.77
286.349	10.58
286.564	31.06
286.779	-13.99
286.995	-30.38
287.21	-9.9
287.425	26.96
287.64	-18.09
287.855	24.92
288.07	-13.99
288.285	39.25
288.5	12.63
288.715	53.59
288.93	-13.99
289.145	-18.09
289.36	39.25
289.575	-7.85
289.79	29.01
290.004	4.44
290.219	45.4
290.434	37.2
290.649	-20.14
290.864	76.12
291.079	22.87
291.294	14.68
291.509	51.54
291.724	76.12
291.938	-40.62
292.153	16.73
292.368	6.49
292.583	20.82
292.798	63.83
293.012	20.82
293.227	22.87
293.442	41.3
293.657	51.54
293.871	90.45
294.086	51.54
294.301	72.02
294.516	123.22
294.73	59.73
294.945	-79.53
295.16	-9.9
295.374	41.3
295.589	86.36
295.804	2.39
296.018	22.87
296.233	53.59
296.447	8.53
296.662	24.92
296.877	35.16
297.091	0.34
297.306	100.69
297.52	24.92
297.735	63.83
297.949	26.96
298.164	63.83
298.378	53.59
298.593	14.68
298.807	6.49
299.022	69.97
299.236	82.26
299.451	61.78
299.665	-5.8
299.88	4.44
300.094	-18.09
300.309	31.06
300.523	59.73
300.737	12.63
300.952	10.58
301.166	16.73
301.381	55.64
301.595	31.06
301.809	35.16
302.024	35.16
302.238	-40.62
302.452	78.16
302.667	29.01
302.881	10.58
303.095	121.17
303.309	47.44
303.524	26.96
303.738	2.39
303.952	4.44
304.166	31.06
304.381	-87.72
304.595	88.4
304.809	-28.33
305.023	43.35
305.237	14.68
305.452	-3.75
305.666	129.36
305.88	102.74
306.094	20.82
306.308	96.6
306.522	67.92
306.736	22.87
306.95	84.31
307.164	-3.75
307.379	24.92
307.593	86.36
307.807	41.3
308.021	31.06
308.235	84.31
308.449	37.2
308.663	65.88
308.877	86.36
309.091	-13.99
309.305	-5.8
309.519	16.73
309.733	35.16
309.947	-38.57
310.161	69.97
310.374	72.02
310.588	-30.38
310.802	-34.47
311.016	35.16
311.23	39.25
311.444	26.96
311.658	-38.57
311.872	26.96
312.085	102.74
312.299	-5.8
312.513	96.6
312.727	74.07
312.941	-5.8
313.154	80.21
313.368	31.06
313.582	67.92
313.796	35.16
314.009	47.44
314.223	12.63
314.437	57.68
314.651	94.55
314.864	117.08
315.078	-48.81
315.292	-5.8
315.505	59.73
315.719	63.83
315.933	43.35
316.146	26.96
316.36	26.96
316.573	86.36
316.787	-11.95
317.001	10.58
317.214	-13.99
317.428	-42.67
317.641	0.34
317.855	29.01
318.068	-9.9
318.282	-77.48
318.495	20.82
318.709	4.44
318.922	51.54
319.136	-20.14
319.349	92.5
319.563	0.34
319.776	20.82
319.99	43.35
320.203	51.54
320.417	14.68
320.63	90.45
320.843	69.97
321.057	18.77
321.27	69.97
321.483	2.39
321.697	69.97
321.91	100.69
322.124	-3.75
322.337	86.36
322.55	-44.71
322.763	8.53
322.977	45.4
323.19	18.77
323.403	59.73
323.617	-11.95
323.83	69.97
324.043	20.82
324.256	45.4
324.469	-59.05
324.683	67.92
324.896	-46.76
325.109	6.49
325.322	-20.14
325.535	117.08
325.748	51.54
325.962	-9.9
326.175	12.63
326.388	117.08
326.601	31.06
326.814	4.44
327.027	-3.75
327.24	51.54
327.453	65.88
327.666	29.01
327.879	-26.28
328.092	67.92
328.305	37.2
328.518	76.12
328.731	53.59
328.944	10.58
329.157	-20.14
329.37	-26.28
329.583	29.01
329.796	47.44
330.009	-13.99
330.222	-3.75
330.435	92.5
330.648	51.54
330.861	2.39
331.073	45.4
331.286	47.44
331.499	-22.19
331.712	12.63
331.925	2.39
332.138	78.16
332.35	45.4
332.563	-28.33
332.776	125.27
332.989	33.11
333.202	47.44
333.414	86.36
333.627	12.63
333.84	-13.99
334.053	96.6
334.265	-3.75
334.478	-9.9
334.691	-20.14
334.903	55.64
335.116	-28.33
335.329	53.59
335.541	59.73
335.754	14.68
335.966	43.35
336.179	26.96
336.392	2.39
336.604	59.73
336.817	53.59
337.029	0.34
337.242	26.96
337.454	102.74
337.667	35.16
337.88	90.45
338.092	43.35
338.305	84.31
338.517	43.35
338.729	92.5
338.942	110.93
339.154	61.78
339.367	12.63
339.579	-30.38
339.792	-1.71
340.004	53.59
340.217	-3.75
340.429	59.73
340.641	43.35
340.854	20.82
341.066	35.16
341.278	-30.38
341.491	51.54
341.703	90.45
341.915	35.16
342.128	53.59
342.34	-5.8
342.552	-79.53
342.764	45.4
342.977	10.58
343.189	61.78
343.401	22.87
343.613	-85.67
343.826	59.73
344.038	2.39
344.25	-28.33
344.462	-30.38
344.674	59.73
344.886	51.54
345.099	12.63
345.311	100.69
345.523	16.73
345.735	-28.33
345.947	-34.47
346.159	37.2
346.371	-28.33
346.583	-22.19
346.795	22.87
347.007	2.39
347.219	39.25
347.431	10.58
347.643	14.68
347.855	22.87
348.067	67.92
348.279	29.01
348.491	10.58
348.703	14.68
348.915	100.69
349.127	-13.99
349.339	51.54
349.551	22.87
349.763	67.92
349.975	49.49
350.187	55.64
350.399	20.82
350.61	67.92
350.822	35.16
351.034	14.68
351.246	51.54
351.458	59.73
351.669	121.17
351.881	4.44
352.093	51.54
352.305	51.54
352.517	18.77
352.728	4.44
352.94	-5.8
353.152	47.44
353.363	24.92
353.575	45.4
353.787	72.02
353.999	12.63
354.21	51.54
354.422	-1.71
354.633	-13.99
354.845	55.64
355.057	-1.71
355.268	59.73
355.48	12.63
355.692	-9.9
355.903	84.31
356.115	-13.99
356.326	-44.71
356.538	26.96
356.749	20.82
356.961	125.27
357.172	35.16
357.384	-22.19
357.595	104.79
357.807	-22.19
358.018	61.78
358.23	104.79
358.441	51.54
358.653	43.35
358.864	10.58
359.075	-36.52
359.287	12.63
359.498	33.11
359.709	-28.33
359.921	47.44
360.132	43.35
360.344	-20.14
360.555	55.64
360.766	59.73
360.977	-18.09
361.189	108.88
361.4	-30.38
361.611	59.73
361.823	-20.14
362.034	31.06
362.245	-30.38
362.456	123.22
362.667	22.87
362.879	2.39
363.09	55.64
363.301	78.16
363.512	20.82
363.723	39.25
363.935	-16.04
364.146	112.98
364.357	-13.99
364.568	78.16
364.779	72.02
364.99	29.01
365.201	-3.75
365.412	49.49
365.623	45.4
365.834	-5.8
366.045	6.49
366.256	-9.9
366.467	61.78
366.678	-3.75
366.889	35.16
367.1	65.88
367.311	39.25
367.522	2.39
367.733	4.44
367.944	29.01
368.155	43.35
368.366	29.01
368.577	110.93
368.788	125.27
368.999	-20.14
369.209	-20.14
369.42	90.45
369.631	100.69
369.842	2.39
370.053	-18.09
370.264	4.44
370.474	26.96
370.685	2.39
370.896	-63.15
371.107	55.64
371.317	10.58
371.528	-20.14
371.739	76.12
371.95	119.12
372.16	86.36
372.371	-5.8
372.582	69.97
372.792	35.16
373.003	72.02
373.214	-18.09
373.424	125.27
373.635	-7.85
373.846	20.82
374.056	-42.67
374.267	2.39
374.477	102.74
374.688	-54.95
374.898	90.45
375.109	37.2
375.319	4.44
375.53	31.06
375.74	47.44
375.951	78.16
376.161	31.06
376.372	69.97
376.582	35.16
376.793	45.4
377.003	14.68
377.214	84.31
377.424	67.92
377.635	-22.19
377.845	-34.47
378.055	72.02
378.266	18.77
378.476	2.39
378.686	33.11
378.897	35.16
379.107	18.77
379.317	49.49
379.528	100.69
379.738	76.12
379.948	-26.28
380.158	59.73
380.369	86.36
380.579	20.82
380.789	-5.8
380.999	-9.9
381.21	90.45
381.42	74.07
381.63	88.4
381.84	108.88
382.05	10.58
382.261	119.12
382.471	88.4
382.681	39.25
382.891	39.25
383.101	47.44
383.311	-61.1
383.521	-1.71
383.731	78.16
383.941	69.97
384.151	88.4
384.361	80.21
384.571	67.92
384.781	10.58
384.991	149.84
385.201	88.4
385.411	53.59
385.621	41.3
385.831	0.34
386.041	76.12
386.251	26.96
386.461	94.55
386.671	-13.99
386.881	117.08
387.091	67.92
387.301	92.5
387.511	98.64
387.72	125.27
387.93	121.17
388.14	37.2
388.35	80.21
388.56	20.82
388.769	67.92
388.979	18.77
389.189	-22.19
389.399	45.4
389.609	33.11
389.818	51.54
390.028	-3.75
390.238	76.12
390.447	67.92
390.657	10.58
390.867	-36.52
391.076	22.87
391.286	2.39
391.496	72.02
391.705	102.74
391.915	59.73
392.125	141.65
392.334	51.54
392.544	55.64
392.753	61.78
392.963	26.96
393.172	72.02
393.382	-11.95
393.591	135.51
393.801	51.54
394.01	112.98
394.22	-1.71
394.429	80.21
394.639	55.64
394.848	-30.38
395.058	49.49
395.267	67.92
395.477	84.31
395.686	100.69
395.895	131.41
396.105	84.31
396.314	61.78
396.524	135.51
396.733	29.01
396.942	69.97
397.152	67.92
397.361	61.78
397.57	108.88
397.78	80.21
397.989	129.36
398.198	94.55
398.407	49.49
398.617	96.6
398.826	84.31
399.035	39.25
399.244	88.4
399.453	-18.09
399.663	84.31
399.872	69.97
400.081	108.88
400.29	63.83
400.499	35.16
400.708	92.5
400.917	35.16
401.127	80.21
401.336	12.63
401.545	92.5
401.754	76.12
401.963	145.75
402.172	76.12
402.381	84.31
402.59	63.83
402.799	100.69
403.008	108.88
403.217	51.54
403.426	59.73
403.635	129.36
403.844	98.64
404.053	110.93
404.262	92.5
404.471	215.38
404.68	176.47
404.888	149.84
405.097	20.82
405.306	106.84
405.515	166.23
405.724	108.88
405.933	151.89
406.142	129.36
406.35	166.23
406.559	139.6
406.768	92.5
406.977	209.23
407.185	133.46
407.394	223.57
407.603	106.84
407.812	182.61
408.02	239.95
408.229	260.43
408.438	125.27
408.646	149.84
408.855	92.5
409.064	217.43
409.272	223.57
409.481	158.03
409.69	227.67
409.898	117.08
410.107	256.34
410.315	258.39
410.524	223.57
410.733	223.57
410.941	190.8
411.15	323.92
411.358	301.39
411.567	375.12
411.775	305.49
411.984	358.74
412.192	371.02
412.401	342.35
412.609	411.98
412.818	311.63
413.026	414.03
413.234	428.37
413.443	420.17
413.651	436.56
413.86	448.85
414.068	502.09
414.276	485.71
414.485	428.37
414.693	493.9
414.901	604.49
415.11	639.31
415.318	579.92
415.526	602.44
415.734	575.82
415.943	596.3
416.151	676.17
416.359	653.64
416.567	641.36
416.776	762.19
416.984	682.31
417.192	733.51
417.4	784.71
417.608	696.65
417.817	784.71
418.025	805.19
418.233	1007.94
418.441	825.67
418.649	942.41
418.857	1014.09
419.065	1028.42
419.273	1001.8
419.481	987.46
419.689	1220.93
419.897	1227.07
420.105	1157.44
420.313	1306.95
420.521	1315.14
420.729	1321.28
420.937	1411.39
421.145	1362.24
421.353	1528.13
421.561	1677.63
421.769	1552.7
421.977	1526.08
422.185	1481.02
422.393	1706.3
422.601	1960.25
422.809	1806.65
423.017	1845.56
423.224	1958.2
423.432	1931.58
423.64	2025.78
423.848	2267.44
424.056	2042.17
424.263	2255.15
424.471	2355.51
424.679	2292.02
424.887	2470.19
425.094	2507.06
425.302	2668.84
425.51	2543.92
425.718	2754.86
425.925	2707.76
426.133	2904.36
426.341	3076.39
426.548	3025.19
426.756	3017
426.964	3197.22
427.171	3305.76
427.379	3498.27
427.586	3440.93
427.794	3463.46
428.001	3868.95
428.209	3901.72
428.417	3885.34
428.624	4176.15
428.832	4251.92
429.039	4124.95
429.247	3993.88
429.454	4458.77
429.662	4813.07
429.869	4432.15
430.076	4823.31
430.284	4581.65
430.491	4851.98
430.699	5007.62
430.906	5032.2
431.114	5290.24
431.321	5292.29
431.528	5419.27
431.736	5689.6
431.943	6129.91
432.15	5849.34
432.358	5945.59
432.565	6320.37
432.772	6306.04
432.979	6516.98
433.187	6695.15
433.394	6576.37
433.601	7078.12
433.808	7237.86
434.016	7270.63
434.223	7500
434.43	7831.77
434.637	7727.33
434.844	8116.44
435.052	8394.97
435.259	8294.61
435.466	8476.88
435.673	8362.2
435.88	8915.15
436.087	9193.67
436.294	9115.85
436.501	9029.84
436.708	9066.7
436.915	9611.46
437.122	10137.79
437.329	9978.05
437.537	10211.51
437.743	10508.47
437.95	10250.42
438.157	11049.13
438.364	11243.69
438.571	11288.75
438.778	11335.85
438.985	12329.11
439.192	11815.07
439.399	12200.09
439.606	11940
439.813	12916.88
440.02	13682.82
440.227	13142.16
440.433	12941.46
440.64	13527.17
440.847	13162.64
441.054	13764.74
441.261	14450.81
441.467	14309.5
441.674	14733.43
441.881	15065.2
442.088	15130.73
442.294	15159.41
442.501	15134.83
442.708	15833.19
442.914	16214.11
443.121	17084.5
443.328	16660.57
443.534	17715.27
443.741	17311.82
443.948	17070.16
444.154	18315.33
444.361	18413.63
444.568	18360.38
444.774	18178.11
444.981	18329.66
445.187	18829.37
445.394	19681.32
445.6	19454
445.807	21395.47
446.013	20361.25
446.22	20770.84
446.426	21723.15
446.633	21807.11
446.839	22831.1
447.046	21571.6
447.252	22790.14
447.459	22792.19
447.665	22546.43
447.871	23932.9
448.078	24819.67
448.284	23584.75
448.491	24139.75
448.697	25210.84
448.903	25524.18
449.11	25741.26
449.316	25200.6
449.522	25860.04
449.728	26376.13
449.935	26623.94
450.141	26527.68
450.347	27142.07
450.553	26453.95
450.76	26816.44
450.966	27604.91
451.172	27275.19
451.378	28368.8
451.584	27193.27
451.791	27981.74
451.997	27713.45
452.203	28338.08
452.409	28485.54
452.615	28352.42
452.821	26957.75
453.027	26800.06
453.233	28182.44
453.44	27178.93
453.646	27230.13
453.852	27459.51
454.058	28207.01
454.264	27047.86
454.47	27674.54
454.676	27115.45
454.882	27953.07
455.088	25606.09
455.294	26079.18
455.5	26281.92
455.705	26378.18
455.911	25432.02
456.117	24854.49
456.323	24514.53
456.529	23474.16
456.735	24133.61
456.941	23721.96
457.147	23328.75
457.352	22685.69
457.558	22292.48
457.764	22579.2
457.97	22026.25
458.176	22013.96
458.381	21512.21
458.587	20426.78
458.793	20049.96
458.999	19476.52
459.204	20635.67
459.41	20121.63
459.616	18903.09
459.821	18843.7
460.027	18612.28
460.233	18264.13
460.438	17260.62
460.644	17598.54
460.85	16967.76
461.055	16459.87
461.261	16650.33
461.466	15169.65
461.672	14897.27
461.878	16052.32
462.083	14733.43
462.289	14788.72
462.494	14258.3
462.7	13627.53
462.905	13316.23
463.111	13838.47
463.316	13955.2
463.522	13486.22
463.727	13568.13
463.932	13586.57
464.138	13342.86
464.343	13605
464.549	12988.56
464.754	13406.34
464.959	13506.7
465.165	13248.65
465.37	12712.08
465.575	12236.95
465.781	12871.82
465.986	12865.68
466.191	12646.55
466.397	12183.71
466.602	11403.43
466.807	11991.2
467.012	12314.78
467.218	11929.76
467.423	11720.87
