Data from USB4F104151__30__14-29-03-374.txt Node

Date: Thu Mar 13 14:29:03 EDT 2025
User: louis
Spectrometer: USB4F10415
Trigger mode: 4
Integration Time (sec): 2.500000E-2
Scans to average: 1
Electric dark correction enabled: true
Nonlinearity correction enabled: false
Boxcar width: 0
XAxis mode: Wavelengths
Number of Pixels in Spectrum: 3648
>>>>>Begin Spectral Data<<<<<
178.204	-161.11
178.424	-161.11
178.644	-161.11
178.864	-154.96
179.084	-91.48
179.304	-13.65
179.524	31.4
179.744	-13.65
179.964	-21.85
180.184	19.11
180.404	6.83
180.624	45.74
180.844	-5.46
181.064	-50.52
181.283	-19.8
181.503	51.88
181.723	-30.04
181.943	-17.75
182.163	84.65
182.383	-54.61
182.602	-3.41
182.822	115.37
183.042	51.88
183.262	64.17
183.482	21.16
183.701	29.35
183.921	70.31
184.141	19.11
184.361	35.5
184.58	21.16
184.8	105.13
185.02	45.74
185.239	49.83
185.459	21.16
185.679	35.5
185.898	-34.13
186.118	55.98
186.338	86.7
186.557	51.88
186.777	37.55
186.997	27.31
187.216	76.46
187.436	84.65
187.655	35.5
187.875	51.88
188.095	-1.37
188.314	51.88
188.534	127.66
188.753	21.16
188.973	53.93
189.192	41.64
189.412	88.75
189.631	103.08
189.851	43.69
190.07	101.03
190.29	-60.76
190.509	84.65
190.729	-3.41
190.948	82.6
191.168	117.42
191.387	27.31
191.607	39.59
191.826	-9.56
192.045	82.6
192.265	76.46
192.484	-1.37
192.704	66.22
192.923	-71
193.142	88.75
193.362	12.97
193.581	70.31
193.8	39.59
194.02	64.17
194.239	-71
194.458	45.74
194.678	72.36
194.897	15.02
195.116	39.59
195.335	68.27
195.555	60.07
195.774	31.4
195.993	109.22
196.212	-34.13
196.432	121.51
196.651	90.79
196.87	29.35
197.089	92.84
197.308	101.03
197.528	53.93
197.747	35.5
197.966	19.11
198.185	109.22
198.404	19.11
198.623	82.6
198.842	37.55
199.062	139.94
199.281	60.07
199.5	47.79
199.719	51.88
199.938	68.27
200.157	31.4
200.376	117.42
200.595	117.42
200.814	51.88
201.033	8.87
201.252	66.22
201.471	29.35
201.69	-21.85
201.909	37.55
202.128	29.35
202.347	60.07
202.566	15.02
202.785	-11.61
203.004	-21.85
203.223	168.62
203.442	92.84
203.661	39.59
203.879	31.4
204.098	113.32
204.317	72.36
204.536	92.84
204.755	10.92
204.974	76.46
205.193	45.74
205.411	60.07
205.63	-19.8
205.849	17.07
206.068	10.92
206.287	15.02
206.505	31.4
206.724	19.11
206.943	31.4
207.162	39.59
207.381	45.74
207.599	62.12
207.818	31.4
208.037	47.79
208.255	62.12
208.474	37.55
208.693	80.55
208.911	4.78
209.13	64.17
209.349	23.21
209.567	62.12
209.786	105.13
210.005	21.16
210.223	55.98
210.442	2.73
210.661	62.12
210.879	27.31
211.098	-9.56
211.316	101.03
211.535	60.07
211.753	4.78
211.972	51.88
212.191	72.36
212.409	4.78
212.628	60.07
212.846	21.16
213.065	10.92
213.283	70.31
213.502	-15.7
213.72	51.88
213.938	43.69
214.157	45.74
214.375	41.64
214.594	19.11
214.812	60.07
215.031	92.84
215.249	62.12
215.467	35.5
215.686	125.61
215.904	27.31
216.122	10.92
216.341	60.07
216.559	35.5
216.778	80.55
216.996	135.85
217.214	37.55
217.432	60.07
217.651	12.97
217.869	-5.46
218.087	35.5
218.306	21.16
218.524	35.5
218.742	-73.04
218.96	10.92
219.179	-9.56
219.397	86.7
219.615	78.51
219.833	35.5
220.051	23.21
220.27	45.74
220.488	60.07
220.706	45.74
220.924	92.84
221.142	45.74
221.36	78.51
221.578	101.03
221.796	-17.75
222.015	58.03
222.233	-9.56
222.451	117.42
222.669	-38.23
222.887	78.51
223.105	35.5
223.323	60.07
223.541	101.03
223.759	86.7
223.977	-46.42
224.195	105.13
224.413	68.27
224.631	66.22
224.849	113.32
225.067	119.46
225.285	-58.71
225.503	47.79
225.721	15.02
225.939	82.6
226.157	92.84
226.375	101.03
226.592	-25.94
226.81	62.12
227.028	90.79
227.246	78.51
227.464	107.18
227.682	98.99
227.9	64.17
228.117	78.51
228.335	84.65
228.553	4.78
228.771	37.55
228.989	23.21
229.206	35.5
229.424	47.79
229.642	12.97
229.86	-11.61
230.077	47.79
230.295	45.74
230.513	90.79
230.731	74.41
230.948	92.84
231.166	101.03
231.384	-44.37
231.601	39.59
231.819	35.5
232.037	4.78
232.254	10.92
232.472	103.08
232.689	-60.76
232.907	111.27
233.125	47.79
233.342	-3.41
233.56	10.92
233.777	33.45
233.995	12.97
234.213	47.79
234.43	39.59
234.648	49.83
234.865	37.55
235.083	111.27
235.3	19.11
235.518	47.79
235.735	129.7
235.953	23.21
236.17	27.31
236.388	86.7
236.605	51.88
236.822	62.12
237.04	53.93
237.257	39.59
237.475	76.46
237.692	117.42
237.909	60.07
238.127	-34.13
238.344	43.69
238.562	29.35
238.779	-13.65
238.996	-40.28
239.214	86.7
239.431	90.79
239.648	133.8
239.865	105.13
240.083	96.94
240.3	-5.46
240.517	51.88
240.735	60.07
240.952	78.51
241.169	80.55
241.386	8.87
241.603	55.98
241.821	45.74
242.038	76.46
242.255	45.74
242.472	23.21
242.689	-7.51
242.907	25.26
243.124	15.02
243.341	25.26
243.558	23.21
243.775	-11.61
243.992	-3.41
244.209	27.31
244.426	125.61
244.643	121.51
244.86	37.55
245.078	125.61
245.295	45.74
245.512	27.31
245.729	27.31
245.946	27.31
246.163	86.7
246.38	19.11
246.597	31.4
246.814	27.31
247.031	78.51
247.248	84.65
247.464	141.99
247.681	-5.46
247.898	96.94
248.115	111.27
248.332	39.59
248.549	29.35
248.766	66.22
248.983	150.18
249.2	31.4
249.417	88.75
249.633	76.46
249.85	-52.56
250.067	19.11
250.284	90.79
250.501	27.31
250.717	51.88
250.934	35.5
251.151	4.78
251.368	-19.8
251.585	55.98
251.801	51.88
252.018	41.64
252.235	43.69
252.451	27.31
252.668	31.4
252.885	78.51
253.102	27.31
253.318	49.83
253.535	80.55
253.752	-30.04
253.968	137.9
254.185	117.42
254.401	-19.8
254.618	90.79
254.835	88.75
255.051	45.74
255.268	86.7
255.484	37.55
255.701	-1.37
255.917	60.07
256.134	-79.19
256.351	92.84
256.567	2.73
256.784	39.59
257	-87.38
257.217	76.46
257.433	74.41
257.65	27.31
257.866	174.76
258.082	-21.85
258.299	-9.56
258.515	64.17
258.732	68.27
258.948	43.69
259.165	98.99
259.381	62.12
259.597	12.97
259.814	27.31
260.03	17.07
260.246	94.89
260.463	10.92
260.679	68.27
260.895	80.55
261.112	45.74
261.328	101.03
261.544	144.04
261.761	121.51
261.977	43.69
262.193	58.03
262.409	10.92
262.626	107.18
262.842	84.65
263.058	21.16
263.274	70.31
263.49	10.92
263.707	58.03
263.923	125.61
264.139	27.31
264.355	51.88
264.571	94.89
264.787	23.21
265.004	146.09
265.22	-52.56
265.436	55.98
265.652	78.51
265.868	51.88
266.084	23.21
266.3	47.79
266.516	74.41
266.732	-13.65
266.948	123.56
267.164	76.46
267.38	2.73
267.596	182.95
267.812	78.51
268.028	84.65
268.244	49.83
268.46	6.83
268.676	29.35
268.892	62.12
269.108	31.4
269.324	-27.99
269.54	6.83
269.756	125.61
269.972	-15.7
270.188	37.55
270.403	-1.37
270.619	68.27
270.835	35.5
271.051	21.16
271.267	0.68
271.483	53.93
271.698	92.84
271.914	68.27
272.13	53.93
272.346	-21.85
272.562	35.5
272.777	88.75
272.993	68.27
273.209	37.55
273.425	-5.46
273.64	53.93
273.856	64.17
274.072	70.31
274.287	19.11
274.503	45.74
274.719	94.89
274.934	-21.85
275.15	33.45
275.366	53.93
275.581	101.03
275.797	72.36
276.012	12.97
276.228	94.89
276.444	43.69
276.659	133.8
276.875	27.31
277.09	-15.7
277.306	10.92
277.521	86.7
277.737	25.26
277.952	51.88
278.168	84.65
278.383	-38.23
278.599	125.61
278.814	76.46
279.03	27.31
279.245	158.38
279.461	62.12
279.676	51.88
279.892	-11.61
280.107	53.93
280.322	-21.85
280.538	37.55
280.753	43.69
280.969	29.35
281.184	84.65
281.399	84.65
281.615	43.69
281.83	86.7
282.045	49.83
282.26	47.79
282.476	55.98
282.691	119.46
282.906	86.7
283.122	64.17
283.337	35.5
283.552	58.03
283.767	86.7
283.983	60.07
284.198	88.75
284.413	66.22
284.628	-62.8
284.843	62.12
285.058	-13.65
285.274	80.55
285.489	39.59
285.704	64.17
285.919	62.12
286.134	55.98
286.349	31.4
286.564	29.35
286.779	51.88
286.995	-46.42
287.21	12.97
287.425	55.98
287.64	10.92
287.855	64.17
288.07	-17.75
288.285	109.22
288.5	10.92
288.715	109.22
288.93	55.98
289.145	21.16
289.36	37.55
289.575	31.4
289.79	101.03
290.004	-3.41
290.219	49.83
290.434	49.83
290.649	68.27
290.864	27.31
291.079	21.16
291.294	47.79
291.509	37.55
291.724	70.31
291.938	60.07
292.153	43.69
292.368	74.41
292.583	94.89
292.798	53.93
293.012	125.61
293.227	125.61
293.442	84.65
293.657	51.88
293.871	66.22
294.086	23.21
294.301	98.99
294.516	66.22
294.73	62.12
294.945	-50.52
295.16	94.89
295.374	-62.8
295.589	23.21
295.804	117.42
296.018	76.46
296.233	88.75
296.447	101.03
296.662	-58.71
296.877	121.51
297.091	74.41
297.306	92.84
297.52	51.88
297.735	72.36
297.949	51.88
298.164	109.22
298.378	60.07
298.593	12.97
298.807	25.26
299.022	68.27
299.236	101.03
299.451	53.93
299.665	6.83
299.88	53.93
300.094	62.12
300.309	49.83
300.523	6.83
300.737	53.93
300.952	62.12
301.166	39.59
301.381	66.22
301.595	43.69
301.809	-21.85
302.024	21.16
302.238	29.35
302.452	62.12
302.667	49.83
302.881	76.46
303.095	70.31
303.309	10.92
303.524	-3.41
303.738	78.51
303.952	80.55
304.166	35.5
304.381	-9.56
304.595	96.94
304.809	-66.9
305.023	103.08
305.237	37.55
305.452	43.69
305.666	62.12
305.88	119.46
306.094	10.92
306.308	51.88
306.522	76.46
306.736	144.04
306.95	78.51
307.164	92.84
307.379	60.07
307.593	76.46
307.807	39.59
308.021	70.31
308.235	17.07
308.449	107.18
308.663	62.12
308.877	174.76
309.091	78.51
309.305	23.21
309.519	6.83
309.733	12.97
309.947	51.88
310.161	119.46
310.374	-11.61
310.588	84.65
310.802	53.93
311.016	10.92
311.23	27.31
311.444	25.26
311.658	43.69
311.872	51.88
312.085	80.55
312.299	101.03
312.513	107.18
312.727	12.97
312.941	68.27
313.154	101.03
313.368	60.07
313.582	23.21
313.796	101.03
314.009	21.16
314.223	82.6
314.437	111.27
314.651	45.74
314.864	27.31
315.078	70.31
315.292	-50.52
315.505	2.73
315.719	92.84
315.933	43.69
316.146	53.93
316.36	12.97
316.573	115.37
316.787	27.31
317.001	51.88
317.214	60.07
317.428	53.93
317.641	55.98
317.855	72.36
318.068	58.03
318.282	78.51
318.495	80.55
318.709	129.7
318.922	21.16
319.136	55.98
319.349	154.28
319.563	90.79
319.776	68.27
319.99	-9.56
320.203	35.5
320.417	51.88
320.63	51.88
320.843	101.03
321.057	72.36
321.27	86.7
321.483	60.07
321.697	72.36
321.91	115.37
322.124	35.5
322.337	51.88
322.55	55.98
322.763	35.5
322.977	45.74
323.19	101.03
323.403	23.21
323.617	19.11
323.83	53.93
324.043	37.55
324.256	90.79
324.469	12.97
324.683	45.74
324.896	23.21
325.109	76.46
325.322	-1.37
325.535	117.42
325.748	70.31
325.962	12.97
326.175	39.59
326.388	-1.37
326.601	51.88
326.814	4.78
327.027	88.75
327.24	117.42
327.453	-7.51
327.666	41.64
327.879	84.65
328.092	70.31
328.305	39.59
328.518	51.88
328.731	62.12
328.944	68.27
329.157	98.99
329.37	88.75
329.583	133.8
329.796	144.04
330.009	43.69
330.222	68.27
330.435	115.37
330.648	92.84
330.861	2.73
331.073	-5.46
331.286	111.27
331.499	109.22
331.712	66.22
331.925	53.93
332.138	109.22
332.35	101.03
332.563	15.02
332.776	86.7
332.989	39.59
333.202	88.75
333.414	55.98
333.627	68.27
333.84	76.46
334.053	53.93
334.265	4.78
334.478	70.31
334.691	-11.61
334.903	10.92
335.116	15.02
335.329	41.64
335.541	35.5
335.754	78.51
335.966	53.93
336.179	92.84
336.392	72.36
336.604	15.02
336.817	55.98
337.029	29.35
337.242	2.73
337.454	84.65
337.667	47.79
337.88	154.28
338.092	62.12
338.305	76.46
338.517	43.69
338.729	64.17
338.942	133.8
339.154	12.97
339.367	51.88
339.579	68.27
339.792	45.74
340.004	35.5
340.217	133.8
340.429	84.65
340.641	10.92
340.854	60.07
341.066	35.5
341.278	35.5
341.491	170.66
341.703	37.55
341.915	109.22
342.128	92.84
342.34	2.73
342.552	66.22
342.764	45.74
342.977	10.92
343.189	133.8
343.401	168.62
343.613	31.4
343.826	133.8
344.038	10.92
344.25	109.22
344.462	62.12
344.674	53.93
344.886	41.64
345.099	119.46
345.311	82.6
345.523	-19.8
345.735	45.74
345.947	101.03
346.159	35.5
346.371	47.79
346.583	29.35
346.795	53.93
347.007	109.22
347.219	105.13
347.431	29.35
347.643	19.11
347.855	21.16
348.067	49.83
348.279	2.73
348.491	23.21
348.703	-1.37
348.915	15.02
349.127	27.31
349.339	-5.46
349.551	27.31
349.763	141.99
349.975	-19.8
350.187	109.22
350.399	137.9
350.61	103.08
350.822	-17.75
351.034	68.27
351.246	76.46
351.458	43.69
351.669	72.36
351.881	-1.37
352.093	53.93
352.305	72.36
352.517	51.88
352.728	68.27
352.94	86.7
353.152	72.36
353.363	10.92
353.575	19.11
353.787	158.38
353.999	43.69
354.21	10.92
354.422	-30.04
354.633	15.02
354.845	27.31
355.057	74.41
355.268	53.93
355.48	90.79
355.692	33.45
355.903	133.8
356.115	76.46
356.326	-11.61
356.538	103.08
356.749	109.22
356.961	96.94
357.172	29.35
357.384	55.98
357.595	84.65
357.807	51.88
358.018	113.32
358.23	29.35
358.441	21.16
358.653	51.88
358.864	72.36
359.075	51.88
359.287	60.07
359.498	141.99
359.709	66.22
359.921	51.88
360.132	88.75
360.344	41.64
360.555	68.27
360.766	23.21
360.977	31.4
361.189	37.55
361.4	37.55
361.611	174.76
361.823	96.94
362.034	101.03
362.245	-21.85
362.456	23.21
362.667	62.12
362.879	60.07
363.09	90.79
363.301	146.09
363.512	86.7
363.723	31.4
363.935	21.16
364.146	43.69
364.357	101.03
364.568	135.85
364.779	103.08
364.99	51.88
365.201	70.31
365.412	66.22
365.623	51.88
365.834	96.94
366.045	39.59
366.256	68.27
366.467	131.75
366.678	19.11
366.889	41.64
367.1	39.59
367.311	109.22
367.522	68.27
367.733	103.08
367.944	135.85
368.155	-1.37
368.366	70.31
368.577	47.79
368.788	78.51
368.999	27.31
369.209	68.27
369.42	125.61
369.631	199.34
369.842	64.17
370.053	60.07
370.264	119.46
370.474	4.78
370.685	88.75
370.896	25.26
371.107	209.58
371.317	113.32
371.528	4.78
371.739	74.41
371.95	92.84
372.16	35.5
372.371	29.35
372.582	135.85
372.792	74.41
373.003	37.55
373.214	109.22
373.424	96.94
373.635	41.64
373.846	27.31
374.056	68.27
374.267	88.75
374.477	58.03
374.688	74.41
374.898	53.93
375.109	39.59
375.319	109.22
375.53	68.27
375.74	70.31
375.951	117.42
376.161	35.5
376.372	103.08
376.582	51.88
376.793	109.22
377.003	111.27
377.214	27.31
377.424	45.74
377.635	84.65
377.845	101.03
378.055	141.99
378.266	78.51
378.476	23.21
378.686	70.31
378.897	70.31
379.107	88.75
379.317	125.61
379.528	39.59
379.738	15.02
379.948	84.65
380.158	113.32
380.369	-9.56
380.579	96.94
380.789	2.73
380.999	37.55
381.21	60.07
381.42	109.22
381.63	119.46
381.84	141.99
382.05	166.57
382.261	96.94
382.471	176.81
382.681	76.46
382.891	111.27
383.101	101.03
383.311	88.75
383.521	129.7
383.731	84.65
383.941	111.27
384.151	62.12
384.361	60.07
384.571	43.69
384.781	129.7
384.991	121.51
385.201	185
385.411	94.89
385.621	133.8
385.831	94.89
386.041	109.22
386.251	62.12
386.461	158.38
386.671	41.64
386.881	55.98
387.091	101.03
387.301	166.57
387.511	94.89
387.72	117.42
387.93	168.62
388.14	51.88
388.35	60.07
388.56	146.09
388.769	117.42
388.979	35.5
389.189	92.84
389.399	88.75
389.609	121.51
389.818	135.85
390.028	103.08
390.238	84.65
390.447	51.88
390.657	101.03
390.867	133.8
391.076	51.88
391.286	96.94
391.496	117.42
391.705	88.75
391.915	94.89
392.125	51.88
392.334	68.27
392.544	96.94
392.753	125.61
392.963	74.41
393.172	137.9
393.382	64.17
393.591	197.29
393.801	68.27
394.01	146.09
394.22	84.65
394.429	66.22
394.639	60.07
394.848	86.7
395.058	101.03
395.267	109.22
395.477	156.33
395.686	103.08
395.895	168.62
396.105	174.76
396.314	80.55
396.524	133.8
396.733	125.61
396.942	158.38
397.152	135.85
397.361	195.24
397.57	160.42
397.78	150.18
397.989	39.59
398.198	125.61
398.407	88.75
398.617	182.95
398.826	123.56
399.035	60.07
399.244	182.95
399.453	139.94
399.663	80.55
399.872	125.61
400.081	117.42
400.29	137.9
400.499	68.27
400.708	219.82
400.917	96.94
401.127	92.84
401.336	185
401.545	182.95
401.754	150.18
401.963	215.72
402.172	84.65
402.381	168.62
402.59	195.24
402.799	187.05
403.008	160.42
403.217	141.99
403.426	174.76
403.635	152.23
403.844	150.18
404.053	182.95
404.262	78.51
404.471	240.29
404.68	211.62
404.888	217.77
405.097	107.18
405.306	205.48
405.515	230.06
405.724	215.72
405.933	232.1
406.142	240.29
406.35	258.73
406.559	238.25
406.768	215.72
406.977	232.1
407.185	266.92
407.394	342.69
407.603	273.06
407.812	330.41
408.02	318.12
408.229	240.29
408.438	242.34
408.646	236.2
408.855	316.07
409.064	324.26
409.272	393.89
409.481	397.99
409.69	418.47
409.898	393.89
410.107	297.64
410.315	391.84
410.524	348.84
410.733	395.94
410.941	451.24
411.15	424.61
411.358	447.14
411.567	512.67
411.775	477.86
411.984	547.49
412.192	537.25
412.401	504.48
412.609	678.56
412.818	649.89
413.026	600.74
413.234	592.55
413.443	742.05
413.651	664.22
413.86	674.46
414.068	783.01
414.276	752.29
414.485	733.86
414.693	780.96
414.901	881.31
415.11	875.17
415.318	864.93
415.526	873.12
415.734	965.28
415.943	977.56
416.151	1030.81
416.359	975.52
416.567	1079.96
416.776	1135.26
416.984	1286.81
417.192	1251.99
417.4	1235.61
417.608	1225.37
417.817	1327.77
418.025	1405.59
418.233	1438.36
418.441	1383.06
418.649	1440.4
418.857	1505.94
419.065	1624.72
419.273	1544.85
419.481	1831.57
419.689	1757.84
419.897	1878.67
420.105	1798.8
420.313	2034.32
420.521	1974.92
420.729	2044.56
420.937	2126.47
421.145	2142.86
421.353	2345.61
421.561	2423.43
421.769	2474.63
421.977	2542.21
422.185	2544.26
422.393	2759.3
422.601	2714.24
422.809	2771.58
423.017	2787.97
423.224	2876.03
423.432	2957.95
423.64	3156.6
423.848	3314.3
424.056	3250.81
424.263	3463.8
424.471	3533.43
424.679	3529.33
424.887	3814
425.094	3836.53
425.302	3967.6
425.51	4139.63
425.718	4070
425.925	4260.46
426.133	4272.75
426.341	4551.27
426.548	4725.35
426.756	4835.94
426.964	4848.22
427.171	5026.4
427.379	5358.17
427.586	5491.29
427.794	5519.96
428.001	5814.87
428.209	6058.57
428.417	5974.61
428.624	6576.71
428.832	6296.14
429.039	6255.18
429.247	6316.62
429.454	6937.15
429.662	7467.58
429.869	6820.42
430.076	7252.54
430.284	7066.17
430.491	7576.12
430.699	8141.36
430.906	7842.35
431.114	7952.95
431.321	8165.93
431.528	8639.01
431.736	8935.97
431.943	9466.39
432.15	9333.28
432.358	9368.09
432.565	9812.5
432.772	9828.88
432.979	10134.03
433.187	10357.26
433.394	10412.56
433.601	11225.6
433.808	11319.81
434.016	11072
434.223	11489.79
434.43	12200.43
434.637	11708.92
434.844	12974.56
435.052	13052.39
435.259	12794.34
435.466	13203.94
435.673	12929.51
435.88	13638.11
436.087	14447.05
436.294	14174.67
436.501	14197.2
436.708	14496.21
436.915	14891.46
437.122	15342.02
437.329	15428.03
437.537	15985.08
437.743	16067
437.95	15884.73
438.157	16941.48
438.364	17349.03
438.571	17533.34
438.778	17471.9
438.985	19161.48
439.192	18401.68
439.399	18989.45
439.606	18858.38
439.813	19411.33
440.02	20578.67
440.227	20392.31
440.433	20246.9
440.64	20959.59
440.847	20908.4
441.054	21397.86
441.261	22759.76
441.467	22227.29
441.674	22686.03
441.881	23542.08
442.088	23685.44
442.294	23216.46
442.501	23943.49
442.708	24314.17
442.914	25119.02
443.121	26677.52
443.328	25508.13
443.534	27519.24
443.741	26468.63
443.948	26171.68
444.154	28563.7
444.361	28125.44
444.568	28197.12
444.774	28383.48
444.981	28690.68
445.187	29251.82
445.394	30822.61
445.6	30056.67
445.807	33108.15
446.013	31561.93
446.22	32245.95
446.426	33226.93
446.633	33837.22
446.839	34975.89
447.046	33407.15
447.252	35209.36
447.459	35215.51
447.665	35451.02
447.871	36884.6
448.078	38269.03
448.284	36307.07
448.491	37445.74
448.697	38703.2
448.903	39952.46
449.11	39706.7
449.316	39223.38
449.522	39389.27
449.728	40642.62
449.935	41091.13
450.141	41091.13
450.347	41920.55
450.553	40517.7
450.76	41109.56
450.966	42729.5
451.172	42027.05
451.378	43434
451.584	42311.72
451.791	43354.13
451.997	43184.15
452.203	43857.93
452.409	44232.71
452.615	43733.01
452.821	42070.06
453.027	41695.28
453.233	44070.92
453.44	42352.68
453.646	42766.37
453.852	42876.96
454.058	44017.67
454.264	41789.48
454.47	43499.54
454.676	41910.32
454.882	43573.27
455.088	39467.09
455.294	40726.59
455.5	41021.5
455.705	41377.84
455.911	40028.23
456.117	39000.15
456.323	38525.02
456.529	36919.42
456.735	38271.07
456.941	37087.35
457.147	36583.55
457.352	35870.86
457.558	35016.85
457.764	35446.93
457.97	34619.55
458.176	33841.32
458.381	33777.83
458.587	32071.87
458.793	32237.76
458.999	30726.36
459.204	32393.4
459.41	31908.04
459.616	29622.5
459.821	29792.48
460.027	29450.47
460.233	28975.34
460.438	27767.04
460.644	27754.76
460.85	26374.42
461.055	26497.3
461.261	25860.38
461.466	24600.88
461.672	23800.13
461.878	25133.36
462.083	23707.97
462.289	23183.69
462.494	22997.32
462.7	21801.31
462.905	21244.26
463.111	22004.06
463.316	21682.53
463.522	21518.69
463.727	21459.3
463.932	21451.11
464.138	21119.34
464.343	21272.93
464.549	20623.73
464.754	21420.39
464.959	21238.12
465.165	20914.54
465.37	20224.37
465.575	19411.33
465.781	20169.08
465.986	20390.26
466.191	19575.17
466.397	19401.09
