Data from USB4F104151__78__14-30-30-248.txt Node

Date: Thu Mar 13 14:30:30 EDT 2025
User: louis
Spectrometer: USB4F10415
Trigger mode: 4
Integration Time (sec): 2.500000E-2
Scans to average: 1
Electric dark correction enabled: true
Nonlinearity correction enabled: false
Boxcar width: 0
XAxis mode: Wavelengths
Number of Pixels in Spectrum: 3648
>>>>>Begin Spectral Data<<<<<
178.204	-181.07
178.424	-181.07
178.644	-181.07
178.864	-136.02
179.084	-103.25
179.304	-23.38
179.524	-9.05
179.744	-29.52
179.964	11.43
180.184	-19.29
180.404	15.53
180.624	3.24
180.844	-58.2
181.064	-13.14
181.283	19.63
181.503	7.34
181.723	95.4
181.943	62.63
182.163	126.12
182.383	64.68
182.602	29.87
182.822	64.68
183.042	79.02
183.262	38.06
183.482	-2.9
183.701	31.91
183.921	50.35
184.141	-29.52
184.361	68.78
184.58	11.43
184.8	128.17
185.02	29.87
185.239	128.17
185.459	31.91
185.679	46.25
185.898	-64.34
186.118	79.02
186.338	23.72
186.557	-13.14
186.777	31.91
186.997	5.29
187.216	-9.05
187.436	142.5
187.655	52.39
187.875	52.39
188.095	-4.95
188.314	109.74
188.534	91.31
188.753	60.59
188.973	13.48
189.192	48.3
189.412	68.78
189.631	40.11
189.851	-37.72
190.07	40.11
190.29	-66.39
190.509	-7
190.729	-0.85
190.948	68.78
191.168	191.66
191.387	93.35
191.607	-21.33
191.826	19.63
192.045	36.01
192.265	5.29
192.484	76.97
192.704	-9.05
192.923	-2.9
193.142	62.63
193.362	81.07
193.581	52.39
193.8	101.55
194.02	54.44
194.239	74.92
194.458	52.39
194.678	130.22
194.897	72.87
195.116	60.59
195.335	-0.85
195.555	19.63
195.774	11.43
195.993	29.87
196.212	11.43
196.432	13.48
196.651	-17.24
196.87	15.53
197.089	146.6
197.308	74.92
197.528	85.16
197.747	-60.24
197.966	-4.95
198.185	128.17
198.404	15.53
198.623	87.21
198.842	38.06
199.062	101.55
199.281	44.2
199.5	-2.9
199.719	11.43
199.938	36.01
200.157	93.35
200.376	5.29
200.595	122.02
200.814	13.48
201.033	-15.19
201.252	81.07
201.471	-0.85
201.69	85.16
201.909	62.63
202.128	5.29
202.347	36.01
202.566	29.87
202.785	-17.24
203.004	-2.9
203.223	81.07
203.442	38.06
203.661	70.83
203.879	60.59
204.098	3.24
204.317	31.91
204.536	160.94
204.755	83.11
204.974	19.63
205.193	31.91
205.411	64.68
205.63	87.21
205.849	-21.33
206.068	56.49
206.287	38.06
206.505	93.35
206.724	17.58
206.943	97.45
207.162	27.82
207.381	27.82
207.599	36.01
207.818	40.11
208.037	36.01
208.255	81.07
208.474	36.01
208.693	7.34
208.911	17.58
209.13	72.87
209.349	44.2
209.567	87.21
209.786	105.64
210.005	99.5
210.223	103.59
210.442	29.87
210.661	19.63
210.879	25.77
211.098	48.3
211.316	52.39
211.535	128.17
211.753	-2.9
211.972	74.92
212.191	36.01
212.409	87.21
212.628	76.97
212.846	29.87
213.065	54.44
213.283	81.07
213.502	85.16
213.72	60.59
213.938	-9.05
214.157	17.58
214.375	23.72
214.594	7.34
214.812	74.92
215.031	105.64
215.249	-4.95
215.467	68.78
215.686	107.69
215.904	56.49
216.122	38.06
216.341	52.39
216.559	36.01
216.778	81.07
216.996	93.35
217.214	9.39
217.432	23.72
217.651	-29.52
217.869	1.19
218.087	60.59
218.306	36.01
218.524	81.07
218.742	-39.76
218.96	72.87
219.179	87.21
219.397	11.43
219.615	128.17
219.833	68.78
220.051	3.24
220.27	109.74
220.488	72.87
220.706	23.72
220.924	11.43
221.142	-9.05
221.36	48.3
221.578	54.44
221.796	79.02
222.015	93.35
222.233	44.2
222.451	68.78
222.669	-76.63
222.887	11.43
223.105	-11.09
223.323	36.01
223.541	38.06
223.759	68.78
223.977	23.72
224.195	-2.9
224.413	5.29
224.631	93.35
224.849	48.3
225.067	85.16
225.285	15.53
225.503	44.2
225.721	-37.72
225.939	15.53
226.157	36.01
226.375	162.98
226.592	7.34
226.81	31.91
227.028	36.01
227.246	48.3
227.464	107.69
227.682	42.15
227.9	50.35
228.117	70.83
228.335	31.91
228.553	27.82
228.771	40.11
228.989	113.83
229.206	38.06
229.424	23.72
229.642	56.49
229.86	-17.24
230.077	-9.05
230.295	62.63
230.513	72.87
230.731	97.45
230.948	44.2
231.166	76.97
231.384	21.67
231.601	11.43
231.819	36.01
232.037	3.24
232.254	13.48
232.472	29.87
232.689	-27.48
232.907	62.63
233.125	36.01
233.342	31.91
233.56	13.48
233.777	36.01
233.995	93.35
234.213	85.16
234.43	81.07
234.648	5.29
234.865	68.78
235.083	68.78
235.3	3.24
235.518	-27.48
235.735	76.97
235.953	115.88
236.17	54.44
236.388	36.01
236.605	36.01
236.822	62.63
237.04	27.82
237.257	36.01
237.475	42.15
237.692	46.25
237.909	72.87
238.127	85.16
238.344	27.82
238.562	48.3
238.779	19.63
238.996	3.24
239.214	56.49
239.431	44.2
239.648	62.63
239.865	85.16
240.083	68.78
240.3	-35.67
240.517	-13.14
240.735	52.39
240.952	68.78
241.169	62.63
241.386	101.55
241.603	-19.29
241.821	62.63
242.038	101.55
242.255	128.17
242.472	109.74
242.689	-0.85
242.907	74.92
243.124	64.68
243.341	-21.33
243.558	52.39
243.775	21.67
243.992	-4.95
244.209	-9.05
244.426	115.88
244.643	5.29
244.86	21.67
245.078	11.43
245.295	21.67
245.512	93.35
245.729	-4.95
245.946	7.34
246.163	87.21
246.38	-50
246.597	-2.9
246.814	76.97
247.031	19.63
247.248	46.25
247.464	95.4
247.681	58.54
247.898	27.82
248.115	48.3
248.332	7.34
248.549	128.17
248.766	179.37
248.983	93.35
249.2	79.02
249.417	109.74
249.633	36.01
249.85	11.43
250.067	5.29
250.284	48.3
250.501	9.39
250.717	58.54
250.934	19.63
251.151	64.68
251.368	29.87
251.585	27.82
251.801	72.87
252.018	119.98
252.235	44.2
252.451	19.63
252.668	52.39
252.885	109.74
253.102	76.97
253.318	21.67
253.535	44.2
253.752	-58.2
253.968	87.21
254.185	-31.57
254.401	29.87
254.618	56.49
254.835	44.2
255.051	101.55
255.268	36.01
255.484	48.3
255.701	21.67
255.917	93.35
256.134	-0.85
256.351	1.19
256.567	11.43
256.784	54.44
257	-27.48
257.217	44.2
257.433	31.91
257.65	-62.29
257.866	72.87
258.082	-21.33
258.299	64.68
258.515	44.2
258.732	3.24
258.948	7.34
259.165	29.87
259.381	46.25
259.597	97.45
259.814	27.82
260.03	46.25
260.246	19.63
260.463	3.24
260.679	87.21
260.895	13.48
261.112	38.06
261.328	5.29
261.544	11.43
261.761	117.93
261.977	27.82
262.193	23.72
262.409	70.83
262.626	60.59
262.842	76.97
263.058	17.58
263.274	38.06
263.49	76.97
263.707	31.91
263.923	113.83
264.139	-2.9
264.355	36.01
264.571	115.88
264.787	36.01
265.004	89.26
265.22	27.82
265.436	7.34
265.652	44.2
265.868	52.39
266.084	-13.14
266.3	21.67
266.516	3.24
266.732	68.78
266.948	3.24
267.164	48.3
267.38	105.64
267.596	54.44
267.812	76.97
268.028	36.01
268.244	5.29
268.46	21.67
268.676	31.91
268.892	27.82
269.108	52.39
269.324	-19.29
269.54	74.92
269.756	36.01
269.972	52.39
270.188	19.63
270.403	36.01
270.619	31.91
270.835	27.82
271.051	23.72
271.267	23.72
271.483	52.39
271.698	46.25
271.914	87.21
272.13	54.44
272.346	-4.95
272.562	66.73
272.777	117.93
272.993	-17.24
273.209	60.59
273.425	42.15
273.64	52.39
273.856	81.07
274.072	72.87
274.287	-23.38
274.503	101.55
274.719	64.68
274.934	-43.86
275.15	29.87
275.366	44.2
275.581	-4.95
275.797	62.63
276.012	23.72
276.228	56.49
276.444	36.01
276.659	66.73
276.875	21.67
277.09	36.01
277.306	60.59
277.521	48.3
277.737	25.77
277.952	19.63
278.168	36.01
278.383	46.25
278.599	130.22
278.814	76.97
279.03	27.82
279.245	117.93
279.461	74.92
279.676	76.97
279.892	-11.09
280.107	5.29
280.322	-43.86
280.538	27.82
280.753	36.01
280.969	109.74
281.184	-4.95
281.399	132.26
281.615	36.01
281.83	76.97
282.045	-52.05
282.26	23.72
282.476	36.01
282.691	101.55
282.906	76.97
283.122	48.3
283.337	81.07
283.552	68.78
283.767	29.87
283.983	111.78
284.198	29.87
284.413	150.7
284.628	-4.95
284.843	42.15
285.058	44.2
285.274	54.44
285.489	56.49
285.704	56.49
285.919	-54.1
286.134	3.24
286.349	27.82
286.564	44.2
286.779	56.49
286.995	11.43
287.21	-19.29
287.425	-29.52
287.64	21.67
287.855	117.93
288.07	-13.14
288.285	15.53
288.5	44.2
288.715	101.55
288.93	-4.95
289.145	-4.95
289.36	76.97
289.575	-0.85
289.79	130.22
290.004	13.48
290.219	81.07
290.434	19.63
290.649	46.25
290.864	62.63
291.079	117.93
291.294	44.2
291.509	50.35
291.724	13.48
291.938	19.63
292.153	52.39
292.368	5.29
292.583	-23.38
292.798	132.26
293.012	54.44
293.227	60.59
293.442	76.97
293.657	89.26
293.871	68.78
294.086	19.63
294.301	136.36
294.516	44.2
294.73	93.35
294.945	52.39
295.16	68.78
295.374	68.78
295.589	27.82
295.804	11.43
296.018	44.2
296.233	68.78
296.447	62.63
296.662	54.44
296.877	93.35
297.091	33.96
297.306	15.53
297.52	38.06
297.735	62.63
297.949	5.29
298.164	101.55
298.378	44.2
298.593	-13.14
298.807	25.77
299.022	72.87
299.236	70.83
299.451	-11.09
299.665	113.83
299.88	85.16
300.094	11.43
300.309	76.97
300.523	64.68
300.737	21.67
300.952	13.48
301.166	68.78
301.381	33.96
301.595	38.06
301.809	3.24
302.024	60.59
302.238	42.15
302.452	25.77
302.667	46.25
302.881	97.45
303.095	76.97
303.309	54.44
303.524	38.06
303.738	31.91
303.952	-17.24
304.166	27.82
304.381	-45.91
304.595	97.45
304.809	23.72
305.023	126.12
305.237	17.58
305.452	-13.14
305.666	25.77
305.88	81.07
306.094	33.96
306.308	27.82
306.522	29.87
306.736	68.78
306.95	76.97
307.164	54.44
307.379	27.82
307.593	113.83
307.807	99.5
308.021	87.21
308.235	-9.05
308.449	-29.52
308.663	21.67
308.877	124.07
309.091	38.06
309.305	152.74
309.519	62.63
309.733	72.87
309.947	-9.05
310.161	27.82
310.374	23.72
310.588	152.74
310.802	-4.95
311.016	21.67
311.23	76.97
311.444	-29.52
311.658	103.59
311.872	48.3
312.085	60.59
312.299	109.74
312.513	93.35
312.727	119.98
312.941	46.25
313.154	50.35
313.368	109.74
313.582	115.88
313.796	-0.85
314.009	40.11
314.223	13.48
314.437	-2.9
314.651	27.82
314.864	-23.38
315.078	-33.62
315.292	52.39
315.505	42.15
315.719	76.97
315.933	52.39
316.146	11.43
316.36	19.63
316.573	58.54
316.787	48.3
317.001	27.82
317.214	19.63
317.428	76.97
317.641	-19.29
317.855	68.78
318.068	27.82
318.282	13.48
318.495	76.97
318.709	109.74
318.922	76.97
319.136	60.59
319.349	93.35
319.563	60.59
319.776	99.5
319.99	-21.33
320.203	103.59
320.417	62.63
320.63	140.46
320.843	66.73
321.057	36.01
321.27	13.48
321.483	115.88
321.697	54.44
321.91	-19.29
322.124	85.16
322.337	21.67
322.55	-7
322.763	11.43
322.977	46.25
323.19	58.54
323.403	-2.9
323.617	44.2
323.83	150.7
324.043	5.29
324.256	11.43
324.469	60.59
324.683	11.43
324.896	64.68
325.109	-11.09
325.322	60.59
325.535	19.63
325.748	93.35
325.962	5.29
326.175	48.3
326.388	52.39
326.601	97.45
326.814	60.59
327.027	38.06
327.24	103.59
327.453	11.43
327.666	52.39
327.879	101.55
328.092	46.25
328.305	23.72
328.518	17.58
328.731	138.41
328.944	3.24
329.157	11.43
329.37	60.59
329.583	85.16
329.796	81.07
330.009	64.68
330.222	19.63
330.435	64.68
330.648	79.02
330.861	38.06
331.073	111.78
331.286	93.35
331.499	119.98
331.712	66.73
331.925	38.06
332.138	103.59
332.35	70.83
332.563	66.73
332.776	126.12
332.989	-0.85
333.202	54.44
333.414	85.16
333.627	-11.09
333.84	33.96
334.053	68.78
334.265	87.21
334.478	-13.14
334.691	23.72
334.903	101.55
335.116	76.97
335.329	44.2
335.541	60.59
335.754	81.07
335.966	-11.09
336.179	66.73
336.392	46.25
336.604	13.48
336.817	23.72
337.029	113.83
337.242	-0.85
337.454	11.43
337.667	56.49
337.88	5.29
338.092	38.06
338.305	89.26
338.517	7.34
338.729	93.35
338.942	103.59
339.154	68.78
339.367	-37.72
339.579	44.2
339.792	81.07
340.004	117.93
340.217	70.83
340.429	66.73
340.641	5.29
340.854	19.63
341.066	40.11
341.278	40.11
341.491	105.64
341.703	76.97
341.915	56.49
342.128	87.21
342.34	85.16
342.552	7.34
342.764	85.16
342.977	74.92
343.189	44.2
343.401	29.87
343.613	-21.33
343.826	79.02
344.038	76.97
344.25	60.59
344.462	79.02
344.674	44.2
344.886	23.72
345.099	76.97
345.311	85.16
345.523	36.01
345.735	70.83
345.947	27.82
346.159	-19.29
346.371	81.07
346.583	15.53
346.795	105.64
347.007	11.43
347.219	48.3
347.431	11.43
347.643	79.02
347.855	-37.72
348.067	64.68
348.279	-4.95
348.491	15.53
348.703	76.97
348.915	113.83
349.127	128.17
349.339	23.72
349.551	31.91
349.763	60.59
349.975	89.26
350.187	48.3
350.399	60.59
350.61	76.97
350.822	93.35
351.034	52.39
351.246	79.02
351.458	81.07
351.669	27.82
351.881	117.93
352.093	52.39
352.305	101.55
352.517	95.4
352.728	109.74
352.94	64.68
353.152	38.06
353.363	-0.85
353.575	76.97
353.787	103.59
353.999	19.63
354.21	85.16
354.422	-17.24
354.633	83.11
354.845	87.21
355.057	23.72
355.268	11.43
355.48	122.02
355.692	23.72
355.903	-13.14
356.115	87.21
356.326	-21.33
356.538	46.25
356.749	81.07
356.961	79.02
357.172	107.69
357.384	-21.33
357.595	31.91
357.807	68.78
358.018	87.21
358.23	-37.72
358.441	148.65
358.653	93.35
358.864	27.82
359.075	52.39
359.287	36.01
359.498	56.49
359.709	19.63
359.921	25.77
360.132	38.06
360.344	72.87
360.555	7.34
360.766	97.45
360.977	15.53
361.189	60.59
361.4	48.3
361.611	93.35
361.823	76.97
362.034	62.63
362.245	58.54
362.456	87.21
362.667	5.29
362.879	93.35
363.09	15.53
363.301	62.63
363.512	15.53
363.723	17.58
363.935	29.87
364.146	109.74
364.357	36.01
364.568	68.78
364.779	31.91
364.99	85.16
365.201	31.91
365.412	154.79
365.623	23.72
365.834	11.43
366.045	60.59
366.256	54.44
366.467	68.78
366.678	117.93
366.889	42.15
367.1	93.35
367.311	81.07
367.522	87.21
367.733	54.44
367.944	93.35
368.155	74.92
368.366	81.07
368.577	126.12
368.788	62.63
368.999	85.16
369.209	21.67
369.42	50.35
369.631	167.08
369.842	95.4
370.053	130.22
370.264	93.35
370.474	-2.9
370.685	25.77
370.896	68.78
371.107	93.35
371.317	64.68
371.528	-35.67
371.739	109.74
371.95	62.63
372.16	56.49
372.371	38.06
372.582	95.4
372.792	85.16
373.003	60.59
373.214	52.39
373.424	54.44
373.635	68.78
373.846	60.59
374.056	87.21
374.267	29.87
374.477	-27.48
374.688	91.31
374.898	56.49
375.109	17.58
375.319	60.59
375.53	70.83
375.74	103.59
375.951	29.87
376.161	89.26
376.372	40.11
376.582	48.3
376.793	126.12
377.003	60.59
377.214	11.43
377.424	68.78
377.635	101.55
377.845	5.29
378.055	48.3
378.266	13.48
378.476	60.59
378.686	97.45
378.897	72.87
379.107	79.02
379.317	85.16
379.528	17.58
379.738	62.63
379.948	36.01
380.158	79.02
380.369	79.02
380.579	105.64
380.789	48.3
380.999	60.59
381.21	81.07
381.42	117.93
381.63	95.4
381.84	119.98
382.05	109.74
382.261	48.3
382.471	60.59
382.681	83.11
382.891	122.02
383.101	60.59
383.311	19.63
383.521	76.97
383.731	76.97
383.941	95.4
384.151	46.25
384.361	70.83
384.571	31.91
384.781	87.21
384.991	56.49
385.201	44.2
385.411	68.78
385.621	62.63
385.831	46.25
386.041	68.78
386.251	5.29
386.461	62.63
386.671	76.97
386.881	177.32
387.091	11.43
387.301	103.59
387.511	70.83
387.72	138.41
387.93	122.02
388.14	130.22
388.35	91.31
388.56	68.78
388.769	136.36
388.979	40.11
389.189	115.88
389.399	58.54
389.609	144.55
389.818	76.97
390.028	33.96
390.238	111.78
390.447	27.82
390.657	134.31
390.867	136.36
391.076	95.4
391.286	68.78
391.496	81.07
391.705	33.96
391.915	175.27
392.125	117.93
392.334	56.49
392.544	169.13
392.753	40.11
392.963	-23.38
393.172	54.44
393.382	36.01
393.591	193.7
393.801	81.07
394.01	132.26
394.22	76.97
394.429	146.6
394.639	36.01
394.848	126.12
395.058	154.79
395.267	103.59
395.477	76.97
395.686	148.65
395.895	54.44
396.105	109.74
396.314	126.12
396.524	81.07
396.733	93.35
396.942	117.93
397.152	76.97
397.361	124.07
397.57	136.36
397.78	115.88
397.989	167.08
398.198	216.23
398.407	13.48
398.617	214.18
398.826	89.26
399.035	60.59
399.244	201.9
399.453	95.4
399.663	132.26
399.872	113.83
400.081	117.93
400.29	103.59
400.499	68.78
400.708	95.4
400.917	232.62
401.127	103.59
401.336	81.07
401.545	193.7
401.754	19.63
401.963	113.83
402.172	236.71
402.381	33.96
402.59	111.78
402.799	154.79
403.008	122.02
403.217	218.28
403.426	146.6
403.635	193.7
403.844	134.31
404.053	150.7
404.262	154.79
404.471	162.98
404.68	138.41
404.888	134.31
405.097	158.89
405.306	156.84
405.515	201.9
405.724	218.28
405.933	244.9
406.142	158.89
406.35	208.04
406.559	134.31
406.768	236.71
406.977	177.32
407.185	156.84
407.394	265.38
407.603	210.09
407.812	224.42
408.02	326.82
408.229	240.81
408.438	265.38
408.646	222.38
408.855	236.71
409.064	324.77
409.272	302.25
409.481	289.96
409.69	289.96
409.898	277.67
410.107	316.58
410.315	324.77
410.524	410.79
410.733	400.55
410.941	386.21
411.15	474.28
411.358	396.45
411.567	449.7
411.775	392.36
411.984	457.89
412.192	486.56
412.401	439.46
412.609	543.91
412.818	535.71
413.026	539.81
413.234	562.34
413.443	588.96
413.651	548
413.86	642.21
414.068	693.41
414.276	732.32
414.485	720.03
414.693	726.18
414.901	760.99
415.11	638.11
415.318	693.41
415.526	722.08
415.734	847.01
415.943	779.42
416.151	982.17
416.359	887.97
416.567	1019.04
416.776	906.4
416.984	994.46
417.192	1053.85
417.4	1111.19
417.608	1100.95
417.817	1062.04
418.025	1076.38
418.233	1275.03
418.441	1266.84
418.649	1289.37
418.857	1277.08
419.065	1387.67
419.273	1379.48
419.481	1375.38
419.689	1559.7
419.897	1633.43
420.105	1678.48
420.313	1633.43
420.521	1670.29
420.729	1791.12
420.937	1744.02
421.145	1821.84
421.353	2006.16
421.561	1952.91
421.769	2036.88
421.977	2198.67
422.185	2233.48
422.393	2200.71
422.601	2378.89
422.809	2317.45
423.017	2346.12
423.224	2485.38
423.432	2569.35
423.64	2522.24
423.848	2780.29
424.056	2714.75
424.263	3026.04
424.471	2987.13
424.679	3073.15
424.887	3185.79
425.094	3497.08
425.302	3265.66
425.51	3378.3
425.718	3624.05
425.925	3599.48
426.133	3650.67
426.341	3855.47
426.548	4082.8
426.756	4164.72
426.964	4152.43
427.171	4342.89
427.379	4666.47
427.586	4617.32
427.794	4746.34
428.001	4869.22
428.209	5280.86
428.417	4947.04
428.624	5450.84
428.832	5518.42
429.039	5362.78
429.247	5401.69
429.454	5827.67
429.662	6372.43
429.869	5672.02
430.076	6368.33
430.284	5999.7
430.491	6544.45
430.699	6712.39
430.906	6638.66
431.114	6958.14
431.321	6917.19
431.528	7257.15
431.736	7478.33
431.943	7928.88
432.15	7795.76
432.358	7775.28
432.565	8330.28
432.772	8238.12
432.979	8506.41
433.187	8991.78
433.394	8858.66
433.601	9219.1
433.808	9468.95
434.016	9212.96
434.223	9874.45
434.43	10402.83
434.637	10177.55
434.844	10824.71
435.052	10931.2
435.259	10851.33
435.466	11090.95
435.673	10963.97
435.88	11414.52
436.087	12012.53
436.294	12168.18
436.501	11947
436.708	12133.36
436.915	12518.38
437.122	12999.65
437.329	13073.38
437.537	13474.78
437.743	13628.38
437.95	13804.5
438.157	14521.29
438.364	14709.71
438.571	14734.28
438.778	14699.47
438.985	16108.47
439.192	15760.31
439.399	16141.24
439.606	15604.67
439.813	16614.32
440.02	17298.34
440.227	17159.08
440.433	16812.97
440.64	17746.84
440.847	17572.77
441.054	17904.54
441.261	18967.43
441.467	18764.68
441.674	19227.53
441.881	20040.57
442.088	19829.63
442.294	19557.25
442.501	20360.05
442.708	20667.25
442.914	21363.56
443.121	22422.36
443.328	21474.15
443.534	23120.71
443.741	22383.45
443.948	22158.17
444.154	23913.28
444.361	23649.09
444.568	23935.81
444.774	23868.22
444.981	24400.69
445.187	24679.22
445.394	25934.62
445.6	25391.91
445.807	28037.89
446.013	26512.15
446.22	27370.25
446.426	28037.89
446.633	28347.13
446.839	29614.82
447.046	28033.79
447.252	29833.96
447.459	29874.91
447.665	29692.65
447.871	31292.11
448.078	32531.13
448.284	31109.84
448.491	31931.08
448.697	33161.9
448.903	33929.89
449.11	33587.88
449.316	32791.22
449.522	33587.88
449.728	35033.75
449.935	35052.18
450.141	34767.51
450.347	35510.92
450.553	34570.91
450.76	34826.9
450.966	36131.46
451.172	35908.23
451.378	36747.9
451.584	35949.19
451.791	36758.14
451.997	36510.33
452.203	37507.69
452.409	37380.72
452.615	37173.88
452.821	35627.66
453.027	35285.65
453.233	36983.41
453.44	35873.42
453.646	36174.47
453.852	36428.41
454.058	36764.28
454.264	35787.4
454.47	36637.31
454.676	35576.46
454.882	36792.95
455.088	33960.61
455.294	34069.15
455.5	34130.59
455.705	34960.02
455.911	33331.89
456.117	32815.8
456.323	31929.03
456.529	30667.48
456.735	31869.64
456.941	31353.55
457.147	30491.35
457.352	29844.2
457.558	29192.94
457.764	29483.75
457.97	29014.77
458.176	28287.74
458.381	27966.21
458.587	27007.76
458.793	26790.67
458.999	25137.96
459.204	27507.46
459.41	26262.3
459.616	24353.59
459.821	24771.38
460.027	24572.72
460.233	23800.64
460.438	23038.8
460.644	23335.75
460.85	22162.26
461.055	21904.22
461.261	21662.56
461.466	19989.37
461.672	19420.03
461.878	20671.34
462.083	19460.99
462.289	18826.12
462.494	18836.36
462.7	17922.97
462.905	17697.69
463.111	18312.08
463.316	18099.09
463.522	17814.43
463.727	17640.35
463.932	17609.63
464.138	17540
464.343	17462.18
464.549	17054.63
464.754	17630.11
464.959	17380.26
465.165	17304.48
465.37	16446.38
465.575	16094.13
465.781	16737.2
465.986	16681.9
466.191	16317.36
466.397	15944.63
466.602	15233.99
466.807	15522.75
467.012	15831.99
