Data from USB4F104151__64__14-30-11-453.txt Node

Date: Thu Mar 13 14:30:11 EDT 2025
User: louis
Spectrometer: USB4F10415
Trigger mode: 4
Integration Time (sec): 2.500000E-2
Scans to average: 1
Electric dark correction enabled: true
Nonlinearity correction enabled: false
Boxcar width: 0
XAxis mode: Wavelengths
Number of Pixels in Spectrum: 3648
>>>>>Begin Spectral Data<<<<<
178.204	-183.46
178.424	-183.46
178.644	-183.46
178.864	-117.93
179.084	-64.68
179.304	13.14
179.524	-7.34
179.744	-38.06
179.964	95.06
180.184	29.52
180.404	-21.67
180.624	-44.2
180.844	45.91
181.064	-56.49
181.283	-38.06
181.503	11.09
181.723	11.09
181.943	29.52
182.163	45.91
182.383	-19.63
182.602	39.76
182.822	107.35
183.042	-44.2
183.262	11.09
183.482	19.29
183.701	52.05
183.921	45.91
184.141	-79.02
184.361	47.96
184.58	37.72
184.8	-27.82
185.02	-42.15
185.239	23.38
185.459	54.1
185.679	9.05
185.898	-27.82
186.118	33.62
186.338	80.72
186.557	33.62
186.777	2.9
186.997	37.72
187.216	-19.63
187.436	23.38
187.655	56.15
187.875	103.25
188.095	-62.63
188.314	64.34
188.534	-3.24
188.753	33.62
188.973	56.15
189.192	15.19
189.412	58.2
189.631	13.14
189.851	7
190.07	86.87
190.29	-29.87
190.509	37.72
190.729	-19.63
190.948	62.29
191.168	133.97
191.387	21.33
191.607	-7.34
191.826	41.81
192.045	25.43
192.265	21.33
192.484	-15.53
192.704	-23.72
192.923	45.91
193.142	80.72
193.362	64.34
193.581	74.58
193.8	-27.82
194.02	62.29
194.239	-5.29
194.458	35.67
194.678	-11.43
194.897	99.16
195.116	35.67
195.335	29.52
195.555	29.52
195.774	13.14
195.993	64.34
196.212	-60.59
196.432	129.88
196.651	45.91
196.87	54.1
197.089	39.76
197.308	31.57
197.528	60.24
197.747	-25.77
197.966	19.29
198.185	54.1
198.404	4.95
198.623	56.15
198.842	56.15
199.062	11.09
199.281	4.95
199.5	-31.91
199.719	-27.82
199.938	13.14
200.157	84.82
200.376	140.12
200.595	13.14
200.814	45.91
201.033	21.33
201.252	82.77
201.471	70.48
201.69	54.1
201.909	29.52
202.128	0.85
202.347	21.33
202.566	56.15
202.785	0.85
203.004	56.15
203.223	90.96
203.442	78.68
203.661	33.62
203.879	33.62
204.098	78.68
204.317	-27.82
204.536	131.92
204.755	9.05
204.974	62.29
205.193	17.24
205.411	97.11
205.63	88.92
205.849	45.91
206.068	21.33
206.287	-3.24
206.505	58.2
206.724	45.91
206.943	37.72
207.162	-25.77
207.381	45.91
207.599	33.62
207.818	7
208.037	13.14
208.255	-3.24
208.474	21.33
208.693	4.95
208.911	23.38
209.13	-17.58
209.349	64.34
209.567	-38.06
209.786	15.19
210.005	54.1
210.223	78.68
210.442	-13.48
210.661	39.76
210.879	-7.34
211.098	86.87
211.316	-17.58
211.535	86.87
211.753	23.38
211.972	23.38
212.191	39.76
212.409	4.95
212.628	37.72
212.846	15.19
213.065	72.53
213.283	39.76
213.502	31.57
213.72	2.9
213.938	64.34
214.157	45.91
214.375	7
214.594	29.52
214.812	25.43
215.031	56.15
215.249	-9.39
215.467	4.95
215.686	-36.01
215.904	13.14
216.122	17.24
216.341	37.72
216.559	88.92
216.778	86.87
216.996	62.29
217.214	17.24
217.432	41.81
217.651	13.14
217.869	23.38
218.087	33.62
218.306	4.95
218.524	-9.39
218.742	2.9
218.96	21.33
219.179	56.15
219.397	50
219.615	80.72
219.833	27.48
220.051	-9.39
220.27	80.72
220.488	27.48
220.706	66.39
220.924	-15.53
221.142	-48.3
221.36	41.81
221.578	-42.15
221.796	-11.43
222.015	78.68
222.233	-9.39
222.451	29.52
222.669	25.43
222.887	39.76
223.105	103.25
223.323	7
223.541	-17.58
223.759	37.72
223.977	50
224.195	21.33
224.413	9.05
224.631	70.48
224.849	11.09
225.067	103.25
225.285	-19.63
225.503	23.38
225.721	4.95
225.939	41.81
226.157	70.48
226.375	80.72
226.592	-9.39
226.81	70.48
227.028	-36.01
227.246	88.92
227.464	47.96
227.682	62.29
227.9	115.54
228.117	23.38
228.335	-44.2
228.553	15.19
228.771	19.29
228.989	9.05
229.206	21.33
229.424	-9.39
229.642	86.87
229.86	17.24
230.077	45.91
230.295	21.33
230.513	-1.19
230.731	-1.19
230.948	78.68
231.166	103.25
231.384	-99.5
231.601	23.38
231.819	107.35
232.037	70.48
232.254	-60.59
232.472	33.62
232.689	-11.43
232.907	121.68
233.125	15.19
233.342	-42.15
233.56	-60.59
233.777	-42.15
233.995	31.57
234.213	21.33
234.43	54.1
234.648	45.91
234.865	-7.34
235.083	21.33
235.3	7
235.518	52.05
235.735	54.1
235.953	21.33
236.17	-50.35
236.388	-7.34
236.605	-3.24
236.822	78.68
237.04	66.39
237.257	39.76
237.475	-11.43
237.692	33.62
237.909	-1.19
238.127	-60.59
238.344	4.95
238.562	33.62
238.779	-23.72
238.996	-11.43
239.214	-13.48
239.431	54.1
239.648	-72.87
239.865	13.14
240.083	-11.43
240.3	13.14
240.517	7
240.735	7
240.952	25.43
241.169	9.05
241.386	29.52
241.603	70.48
241.821	107.35
242.038	78.68
242.255	21.33
242.472	4.95
242.689	68.44
242.907	56.15
243.124	-23.72
243.341	19.29
243.558	15.19
243.775	-29.87
243.992	4.95
244.209	-23.72
244.426	72.53
244.643	-5.29
244.86	-7.34
245.078	25.43
245.295	-3.24
245.512	-9.39
245.729	31.57
245.946	101.2
246.163	-1.19
246.38	56.15
246.597	74.58
246.814	80.72
247.031	-19.63
247.248	17.24
247.464	-62.63
247.681	41.81
247.898	-1.19
248.115	54.1
248.332	-44.2
248.549	45.91
248.766	-7.34
248.983	21.33
249.2	56.15
249.417	47.96
249.633	31.57
249.85	-3.24
250.067	9.05
250.284	-17.58
250.501	62.29
250.717	-31.91
250.934	31.57
251.151	-13.48
251.368	19.29
251.585	95.06
251.801	37.72
252.018	-36.01
252.235	25.43
252.451	4.95
252.668	43.86
252.885	25.43
253.102	-3.24
253.318	64.34
253.535	-38.06
253.752	-15.53
253.968	52.05
254.185	-31.91
254.401	-11.43
254.618	0.85
254.835	21.33
255.051	64.34
255.268	-19.63
255.484	47.96
255.701	-3.24
255.917	47.96
256.134	-91.31
256.351	-46.25
256.567	45.91
256.784	15.19
257	-50.35
257.217	119.64
257.433	86.87
257.65	50
257.866	66.39
258.082	29.52
258.299	-25.77
258.515	105.3
258.732	-91.31
258.948	58.2
259.165	13.14
259.381	15.19
259.597	-23.72
259.814	45.91
260.03	-44.2
260.246	7
260.463	54.1
260.679	2.9
260.895	-25.77
261.112	74.58
261.328	41.81
261.544	-13.48
261.761	56.15
261.977	-40.11
262.193	82.77
262.409	-42.15
262.626	-9.39
262.842	-11.43
263.058	33.62
263.274	54.1
263.49	56.15
263.707	95.06
263.923	-9.39
264.139	50
264.355	56.15
264.571	80.72
264.787	62.29
265.004	95.06
265.22	29.52
265.436	27.48
265.652	31.57
265.868	-19.63
266.084	45.91
266.3	13.14
266.516	-23.72
266.732	35.67
266.948	66.39
267.164	13.14
267.38	-19.63
267.596	-27.82
267.812	95.06
268.028	39.76
268.244	13.14
268.46	37.72
268.676	58.2
268.892	84.82
269.108	37.72
269.324	31.57
269.54	4.95
269.756	70.48
269.972	13.14
270.188	62.29
270.403	-15.53
270.619	25.43
270.835	31.57
271.051	-33.96
271.267	58.2
271.483	80.72
271.698	70.48
271.914	72.53
272.13	50
272.346	-38.06
272.562	50
272.777	7
272.993	99.16
273.209	-1.19
273.425	74.58
273.64	-52.39
273.856	7
274.072	33.62
274.287	-44.2
274.503	45.91
274.719	-25.77
274.934	19.29
275.15	-81.07
275.366	37.72
275.581	17.24
275.797	21.33
276.012	-19.63
276.228	13.14
276.444	37.72
276.659	119.64
276.875	-13.48
277.09	78.68
277.306	78.68
277.521	88.92
277.737	21.33
277.952	29.52
278.168	56.15
278.383	37.72
278.599	43.86
278.814	-3.24
279.03	9.05
279.245	58.2
279.461	29.52
279.676	119.64
279.892	45.91
280.107	37.72
280.322	-1.19
280.538	56.15
280.753	56.15
280.969	156.5
281.184	23.38
281.399	86.87
281.615	-7.34
281.83	-15.53
282.045	-1.19
282.26	-23.72
282.476	19.29
282.691	41.81
282.906	-23.72
283.122	37.72
283.337	-27.82
283.552	45.91
283.767	-19.63
283.983	33.62
284.198	15.19
284.413	-25.77
284.628	39.76
284.843	123.73
285.058	37.72
285.274	-25.77
285.489	-3.24
285.704	37.72
285.919	17.24
286.134	13.14
286.349	25.43
286.564	37.72
286.779	101.2
286.995	-7.34
287.21	4.95
287.425	19.29
287.64	11.09
287.855	80.72
288.07	-17.58
288.285	70.48
288.5	21.33
288.715	37.72
288.93	72.53
289.145	29.52
289.36	62.29
289.575	99.16
289.79	60.24
290.004	-19.63
290.219	80.72
290.434	-27.82
290.649	4.95
290.864	7
291.079	31.57
291.294	37.72
291.509	0.85
291.724	43.86
291.938	62.29
292.153	27.48
292.368	-52.39
292.583	29.52
292.798	62.29
293.012	66.39
293.227	117.59
293.442	39.76
293.657	31.57
293.871	129.88
294.086	45.91
294.301	78.68
294.516	-15.53
294.73	136.02
294.945	-19.63
295.16	47.96
295.374	72.53
295.589	78.68
295.804	-50.35
296.018	41.81
296.233	50
296.447	33.62
296.662	23.38
296.877	80.72
297.091	76.63
297.306	52.05
297.52	56.15
297.735	62.29
297.949	7
298.164	7
298.378	27.48
298.593	13.14
298.807	-48.3
299.022	129.88
299.236	43.86
299.451	-44.2
299.665	39.76
299.88	70.48
300.094	107.35
300.309	64.34
300.523	97.11
300.737	25.43
300.952	33.62
301.166	64.34
301.381	13.14
301.595	64.34
301.809	-9.39
302.024	21.33
302.238	17.24
302.452	-9.39
302.667	54.1
302.881	74.58
303.095	86.87
303.309	-9.39
303.524	21.33
303.738	17.24
303.952	0.85
304.166	-19.63
304.381	-52.39
304.595	78.68
304.809	-44.2
305.023	17.24
305.237	31.57
305.452	2.9
305.666	37.72
305.88	33.62
306.094	-21.67
306.308	60.24
306.522	109.4
306.736	2.9
306.95	-3.24
307.164	-27.82
307.379	50
307.593	156.5
307.807	13.14
308.021	50
308.235	23.38
308.449	-27.82
308.663	21.33
308.877	95.06
309.091	-15.53
309.305	60.24
309.519	-56.49
309.733	17.24
309.947	11.09
310.161	0.85
310.374	-21.67
310.588	56.15
310.802	-11.43
311.016	56.15
311.23	70.48
311.444	47.96
311.658	58.2
311.872	144.21
312.085	66.39
312.299	90.96
312.513	95.06
312.727	4.95
312.941	-11.43
313.154	68.44
313.368	58.2
313.582	21.33
313.796	62.29
314.009	54.1
314.223	-11.43
314.437	41.81
314.651	25.43
314.864	39.76
315.078	29.52
315.292	-36.01
315.505	29.52
315.719	47.96
315.933	86.87
316.146	60.24
316.36	-23.72
316.573	105.3
316.787	60.24
317.001	76.63
317.214	-36.01
317.428	54.1
317.641	-44.2
317.855	86.87
318.068	60.24
318.282	13.14
318.495	60.24
318.709	50
318.922	4.95
319.136	160.59
319.349	-42.15
319.563	29.52
319.776	47.96
319.99	-58.54
320.203	58.2
320.417	23.38
320.63	103.25
320.843	121.68
321.057	123.73
321.27	-33.96
321.483	-31.91
321.697	95.06
321.91	-7.34
322.124	13.14
322.337	103.25
322.55	4.95
322.763	109.4
322.977	86.87
323.19	99.16
323.403	41.81
323.617	37.72
323.83	148.31
324.043	23.38
324.256	50
324.469	-3.24
324.683	54.1
324.896	82.77
325.109	37.72
325.322	-3.24
325.535	62.29
325.748	31.57
325.962	19.29
326.175	76.63
326.388	54.1
326.601	7
326.814	-42.15
327.027	60.24
327.24	4.95
327.453	-21.67
327.666	45.91
327.879	80.72
328.092	66.39
328.305	9.05
328.518	39.76
328.731	27.48
328.944	82.77
329.157	66.39
329.37	21.33
329.583	52.05
329.796	127.83
330.009	72.53
330.222	127.83
330.435	29.52
330.648	78.68
330.861	80.72
331.073	86.87
331.286	82.77
331.499	15.19
331.712	15.19
331.925	4.95
332.138	97.11
332.35	29.52
332.563	-68.78
332.776	88.92
332.989	-17.58
333.202	29.52
333.414	70.48
333.627	-3.24
333.84	95.06
334.053	54.1
334.265	-36.01
334.478	70.48
334.691	31.57
334.903	78.68
335.116	2.9
335.329	60.24
335.541	21.33
335.754	21.33
335.966	-23.72
336.179	45.91
336.392	23.38
336.604	66.39
336.817	76.63
337.029	37.72
337.242	-5.29
337.454	58.2
337.667	-1.19
337.88	47.96
338.092	-11.43
338.305	47.96
338.517	-29.87
338.729	54.1
338.942	78.68
339.154	-46.25
339.367	33.62
339.579	54.1
339.792	23.38
340.004	41.81
340.217	19.29
340.429	35.67
340.641	-15.53
340.854	70.48
341.066	33.62
341.278	37.72
341.491	74.58
341.703	62.29
341.915	-76.97
342.128	17.24
342.34	136.02
342.552	21.33
342.764	45.91
342.977	4.95
343.189	129.88
343.401	62.29
343.613	72.53
343.826	31.57
344.038	-46.25
344.25	54.1
344.462	35.67
344.674	62.29
344.886	54.1
345.099	78.68
345.311	50
345.523	2.9
345.735	84.82
345.947	4.95
346.159	37.72
346.371	0.85
346.583	39.76
346.795	82.77
347.007	88.92
347.219	45.91
347.431	41.81
347.643	95.06
347.855	33.62
348.067	101.2
348.279	19.29
348.491	37.72
348.703	47.96
348.915	7
349.127	-58.54
349.339	64.34
349.551	-7.34
349.763	80.72
349.975	21.33
350.187	45.91
350.399	64.34
350.61	47.96
350.822	41.81
351.034	37.72
351.246	50
351.458	37.72
351.669	64.34
351.881	74.58
352.093	13.14
352.305	95.06
352.517	105.3
352.728	56.15
352.94	-31.91
353.152	70.48
353.363	25.43
353.575	54.1
353.787	127.83
353.999	111.44
354.21	78.68
354.422	72.53
354.633	72.53
354.845	54.1
355.057	31.57
355.268	54.1
355.48	107.35
355.692	-19.63
355.903	4.95
356.115	47.96
356.326	-42.15
356.538	121.68
356.749	37.72
356.961	80.72
357.172	70.48
357.384	21.33
357.595	95.06
357.807	-7.34
358.018	43.86
358.23	82.77
358.441	131.92
358.653	136.02
358.864	68.44
359.075	-7.34
359.287	31.57
359.498	99.16
359.709	70.48
359.921	-11.43
360.132	72.53
360.344	9.05
360.555	-66.73
360.766	56.15
360.977	-1.19
361.189	97.11
361.4	39.76
361.611	90.96
361.823	45.91
362.034	80.72
362.245	-72.87
362.456	74.58
362.667	121.68
362.879	66.39
363.09	-7.34
363.301	101.2
363.512	50
363.723	72.53
363.935	-19.63
364.146	95.06
364.357	-3.24
364.568	80.72
364.779	-52.39
364.99	66.39
365.201	58.2
365.412	27.48
365.623	-1.19
365.834	17.24
366.045	45.91
366.256	90.96
366.467	-36.01
366.678	7
366.889	37.72
367.1	-7.34
367.311	123.73
367.522	84.82
367.733	54.1
367.944	-25.77
368.155	31.57
368.366	23.38
368.577	90.96
368.788	0.85
368.999	47.96
369.209	33.62
369.42	93.01
369.631	109.4
369.842	-7.34
370.053	62.29
370.264	103.25
370.474	-1.19
370.685	15.19
370.896	88.92
371.107	23.38
371.317	25.43
371.528	-40.11
371.739	47.96
371.95	119.64
372.16	21.33
372.371	-11.43
372.582	74.58
372.792	84.82
373.003	39.76
373.214	37.72
373.424	47.96
373.635	-25.77
373.846	88.92
374.056	31.57
374.267	54.1
374.477	50
374.688	82.77
374.898	86.87
375.109	37.72
375.319	86.87
375.53	37.72
375.74	121.68
375.951	78.68
376.161	64.34
376.372	62.29
376.582	54.1
376.793	39.76
377.003	64.34
377.214	-1.19
377.424	21.33
377.635	7
377.845	39.76
378.055	80.72
378.266	15.19
378.476	103.25
378.686	109.4
378.897	78.68
379.107	68.44
379.317	37.72
379.528	58.2
379.738	39.76
379.948	-42.15
380.158	127.83
380.369	54.1
380.579	115.54
380.789	103.25
380.999	54.1
381.21	47.96
381.42	115.54
381.63	-13.48
381.84	95.06
382.05	62.29
382.261	15.19
382.471	54.1
382.681	136.02
382.891	37.72
383.101	45.91
383.311	13.14
383.521	156.5
383.731	31.57
383.941	66.39
384.151	33.62
384.361	50
384.571	33.62
384.781	21.33
384.991	142.16
385.201	105.3
385.411	80.72
385.621	54.1
385.831	95.06
386.041	-54.44
386.251	62.29
386.461	162.64
386.671	-42.15
386.881	-25.77
387.091	82.77
387.301	88.92
387.511	95.06
387.72	144.21
387.93	119.64
388.14	95.06
388.35	123.73
388.56	86.87
388.769	13.14
388.979	142.16
389.189	21.33
389.399	58.2
389.609	97.11
389.818	117.59
390.028	64.34
390.238	99.16
390.447	29.52
390.657	54.1
390.867	-13.48
391.076	33.62
391.286	-44.2
391.496	80.72
391.705	13.14
391.915	103.25
392.125	95.06
392.334	103.25
392.544	50
392.753	45.91
392.963	78.68
393.172	64.34
393.382	37.72
393.591	111.44
393.801	17.24
394.01	76.63
394.22	103.25
394.429	152.4
394.639	23.38
394.848	99.16
395.058	95.06
395.267	95.06
395.477	45.91
395.686	99.16
395.895	193.36
396.105	131.92
396.314	119.64
396.524	168.79
396.733	45.91
396.942	193.36
397.152	76.63
397.361	160.59
397.57	99.16
397.78	119.64
397.989	86.87
398.198	138.07
398.407	84.82
398.617	62.29
398.826	58.2
399.035	127.83
399.244	121.68
399.453	88.92
399.663	146.26
399.872	76.63
400.081	138.07
400.29	176.98
400.499	103.25
400.708	78.68
400.917	146.26
401.127	121.68
401.336	160.59
401.545	195.41
401.754	127.83
401.963	119.64
402.172	78.68
402.381	170.83
402.59	56.15
402.799	154.45
403.008	136.02
403.217	213.84
403.426	146.26
403.635	125.78
403.844	172.88
404.053	144.21
404.262	138.07
404.471	258.9
404.68	168.79
404.888	152.4
405.097	131.92
405.306	277.33
405.515	172.88
405.724	152.4
405.933	179.03
406.142	215.89
406.35	244.56
406.559	291.66
406.768	238.42
406.977	252.75
407.185	213.84
407.394	191.31
407.603	193.36
407.812	299.86
408.02	301.9
408.229	310.1
408.438	316.24
408.646	324.43
408.855	213.84
409.064	316.24
409.272	351.06
409.481	406.35
409.69	306
409.898	299.86
410.107	365.39
410.315	346.96
410.524	351.06
410.733	498.51
410.941	471.89
411.15	496.46
411.358	521.04
411.567	555.85
411.775	400.21
411.984	529.23
412.192	488.27
412.401	426.83
412.609	600.91
412.818	545.61
413.026	693.07
413.234	627.53
413.443	529.23
413.651	660.3
413.86	713.55
414.068	711.5
414.276	709.45
414.485	777.03
414.693	777.03
414.901	811.85
415.11	858.95
415.318	799.56
415.526	846.66
415.734	1000.26
415.943	947.01
416.151	1045.32
416.359	1037.13
416.567	981.83
416.776	1139.52
416.984	1114.95
417.192	1168.2
417.4	1252.16
417.608	1188.68
417.817	1248.07
418.025	1278.79
418.233	1436.48
418.441	1413.95
418.649	1487.68
418.857	1538.88
419.065	1545.02
419.273	1626.94
419.481	1680.19
419.689	1659.71
419.897	1809.21
420.105	1825.59
420.313	1811.26
420.521	1987.38
420.729	2136.88
420.937	2032.44
421.145	2192.18
421.353	2360.11
421.561	2306.87
421.769	2423.6
421.977	2624.3
422.185	2413.36
422.393	2542.38
422.601	2712.36
422.809	2655.02
423.017	2827.05
423.224	2951.98
423.432	2994.98
423.64	3044.13
423.848	3457.82
424.056	3183.4
424.263	3443.49
424.471	3484.45
424.679	3623.71
424.887	3625.76
425.094	3891.99
425.302	3904.28
425.51	4068.12
425.718	4240.15
425.925	4227.86
426.133	4242.2
426.341	4471.57
426.548	4594.45
426.756	4801.29
426.964	4817.68
427.171	4979.47
427.379	5243.65
427.586	5311.24
427.794	5587.71
428.001	5845.76
428.209	6019.83
428.417	5976.83
428.624	6292.21
428.832	6230.77
429.039	6028.03
429.247	6365.94
429.454	6949.61
429.662	7211.75
429.869	6722.29
430.076	7441.12
430.284	7164.65
430.491	7471.84
430.699	7766.75
430.906	7762.65
431.114	7811.81
431.321	8250.07
431.528	8336.09
431.736	9001.68
431.943	8952.52
432.15	9069.26
432.358	8991.44
432.565	9616.07
432.772	9659.07
432.979	10050.24
433.187	10267.32
433.394	10193.59
433.601	10990.25
433.808	11078.32
434.016	10988.21
434.223	11489.96
434.43	12014.24
434.637	11852.45
434.844	12481.17
435.052	12907.15
435.259	12792.47
435.466	12841.62
435.673	12583.57
435.88	13535.88
436.087	14269.05
436.294	14430.84
436.501	13611.65
436.708	14013.06
436.915	14686.84
437.122	15250.03
437.329	15145.58
437.537	15610.47
437.743	16046.69
437.95	15696.49
438.157	16714.33
438.364	16923.22
438.571	17101.39
438.778	17488.46
438.985	19274.29
439.192	18326.08
439.399	18534.97
439.606	18305.6
439.813	19104.31
440.02	20521.5
440.227	19935.78
440.433	19921.45
440.64	20466.21
440.847	20333.09
441.054	20816.41
441.261	22241.79
441.467	22123.01
441.674	22657.53
441.881	23241.2
442.088	23179.76
442.294	22811.13
442.501	23577.07
442.708	23775.72
442.914	24998.36
443.121	26165.7
443.328	25016.79
443.534	26956.22
443.741	26130.89
443.948	25641.42
444.154	27853.23
444.361	27546.03
444.568	27648.43
444.774	27941.29
444.981	27883.95
445.187	29118.87
445.394	30067.08
445.6	30081.42
445.807	32637.28
446.013	30966.14
446.22	32078.19
446.426	33040.73
446.633	33089.88
446.839	34451.78
447.046	32993.63
447.252	34808.13
447.459	34376.01
447.665	34662.72
447.871	36075.82
448.078	37826.84
448.284	35762.48
448.491	36792.61
448.697	38383.88
448.903	38928.64
449.11	39053.57
449.316	38623.5
449.522	39039.23
449.728	39895.28
449.935	40427.76
450.141	40415.47
450.347	41285.86
450.553	39766.26
450.76	40863.97
450.966	41773.27
451.172	41054.43
451.378	42291.41
451.584	42207.44
451.791	42475.73
451.997	42547.4
452.203	43395.26
452.409	43069.64
452.615	42705.1
452.821	41574.62
453.027	40796.39
453.233	42592.46
453.44	41122.02
453.646	42039.51
453.852	41943.25
454.058	42696.91
454.264	41089.25
454.47	42035.41
454.676	41320.67
454.882	42735.82
455.088	38684.94
455.294	39610.62
455.5	40136.94
455.705	40261.87
455.911	38570.25
456.117	37988.63
456.323	37304.6
456.529	35604.79
456.735	37124.38
456.941	36192.56
457.147	35709.24
457.352	34634.05
457.558	34165.07
457.764	34126.16
457.97	33483.09
458.176	32668
458.381	32682.34
458.587	30962.04
458.793	31246.71
458.999	29618.58
459.204	31674.74
459.41	30695.81
459.616	28762.53
459.821	28703.14
460.027	28664.22
460.233	28158.38
460.438	26819
460.644	27140.54
460.85	25555.41
461.055	25237.97
461.261	25041.37
461.466	23511.53
461.672	22413.82
461.878	24201.7
462.083	22723.07
462.289	22233.6
462.494	21795.34
462.7	20963.86
462.905	20435.49
463.111	21049.88
463.316	21254.67
463.522	20740.63
463.727	20867.61
463.932	20666.91
464.138	20830.74
464.343	20437.53
464.549	19954.21
464.754	20474.4
464.959	20304.42
465.165	20103.71
465.37	19079.73
465.575	18717.24
465.781	19556.91
465.986	19425.84
466.191	18829.88
466.397	18348.61
466.602	17748.55
466.807	18393.66
467.012	18299.45
467.218	17912.39
467.423	17742.41
467.628	18065.99
