Data from USB4F104151__259__14-34-20-107.txt Node

Date: Thu Mar 13 14:34:20 EDT 2025
User: louis
Spectrometer: USB4F10415
Trigger mode: 4
Integration Time (sec): 2.500000E-2
Scans to average: 1
Electric dark correction enabled: true
Nonlinearity correction enabled: false
Boxcar width: 0
XAxis mode: Wavelengths
Number of Pixels in Spectrum: 3648
>>>>>Begin Spectral Data<<<<<
178.204	-129.53
178.424	-129.53
178.644	-129.53
178.864	-174.59
179.084	-195.07
179.304	-55.81
179.524	13.82
179.744	-64
179.964	32.26
180.184	-23.04
180.404	-4.61
180.624	-2.56
180.844	34.3
181.064	-14.85
181.283	48.64
181.503	-31.23
181.723	67.07
181.943	-78.33
182.163	93.69
182.383	26.11
182.602	126.46
182.822	15.87
183.042	42.5
183.262	9.73
183.482	-70.14
183.701	-31.23
183.921	-18.94
184.141	42.5
184.361	46.59
184.58	-12.8
184.8	65.02
185.02	-16.9
185.239	62.98
185.459	42.5
185.679	32.26
185.898	-55.81
186.118	-6.66
186.338	58.88
186.557	69.12
186.777	-12.8
186.997	38.4
187.216	9.73
187.436	101.89
187.655	38.4
187.875	1.54
188.095	28.16
188.314	44.54
188.534	30.21
188.753	3.58
188.973	22.02
189.192	132.61
189.412	-10.75
189.631	1.54
189.851	9.73
190.07	54.78
190.29	24.06
190.509	13.82
190.729	44.54
190.948	3.58
191.168	112.13
191.387	-47.62
191.607	91.65
191.826	28.16
192.045	56.83
192.265	9.73
192.484	34.3
192.704	3.58
192.923	-18.94
193.142	67.07
193.362	-29.18
193.581	91.65
193.8	32.26
194.02	50.69
194.239	-43.52
194.458	30.21
194.678	50.69
194.897	1.54
195.116	54.78
195.335	26.11
195.555	50.69
195.774	3.58
195.993	42.5
196.212	-6.66
196.432	5.63
196.651	3.58
196.87	67.07
197.089	36.35
197.308	108.03
197.528	19.97
197.747	3.58
197.966	71.17
198.185	52.74
198.404	9.73
198.623	-31.23
198.842	9.73
199.062	108.03
199.281	-2.56
199.5	19.97
199.719	75.26
199.938	52.74
200.157	26.11
200.376	79.36
200.595	65.02
200.814	-59.9
201.033	38.4
201.252	36.35
201.471	-39.42
201.69	69.12
201.909	58.88
202.128	101.89
202.347	79.36
202.566	105.98
202.785	-8.7
203.004	-51.71
203.223	93.69
203.442	-20.99
203.661	1.54
203.879	34.3
204.098	-6.66
204.317	-35.33
204.536	24.06
204.755	-2.56
204.974	50.69
205.193	71.17
205.411	99.84
205.63	26.11
205.849	7.68
206.068	42.5
206.287	-6.66
206.505	60.93
206.724	77.31
206.943	17.92
207.162	52.74
207.381	58.88
207.599	15.87
207.818	15.87
208.037	69.12
208.255	52.74
208.474	30.21
208.693	30.21
208.911	-57.86
209.13	-2.56
209.349	26.11
209.567	-2.56
209.786	34.3
210.005	58.88
210.223	38.4
210.442	-88.57
210.661	75.26
210.879	11.78
211.098	-31.23
211.316	28.16
211.535	62.98
211.753	38.4
211.972	56.83
212.191	67.07
212.409	17.92
212.628	-43.52
212.846	-35.33
213.065	28.16
213.283	42.5
213.502	7.68
213.72	-35.33
213.938	3.58
214.157	48.64
214.375	38.4
214.594	-0.51
214.812	50.69
215.031	-14.85
215.249	71.17
215.467	95.74
215.686	11.78
215.904	24.06
216.122	-31.23
216.341	-27.14
216.559	50.69
216.778	34.3
216.996	79.36
217.214	36.35
217.432	9.73
217.651	-39.42
217.869	95.74
218.087	93.69
218.306	67.07
218.524	62.98
218.742	36.35
218.96	52.74
219.179	-23.04
219.397	-39.42
219.615	83.45
219.833	1.54
220.051	-66.05
220.27	42.5
220.488	-4.61
220.706	42.5
220.924	9.73
221.142	58.88
221.36	32.26
221.578	-10.75
221.796	-47.62
222.015	-10.75
222.233	-29.18
222.451	83.45
222.669	-35.33
222.887	130.56
223.105	1.54
223.323	50.69
223.541	85.5
223.759	34.3
223.977	9.73
224.195	58.88
224.413	-6.66
224.631	42.5
224.849	11.78
225.067	58.88
225.285	26.11
225.503	5.63
225.721	-39.42
225.939	17.92
226.157	48.64
226.375	44.54
226.592	91.65
226.81	-53.76
227.028	67.07
227.246	83.45
227.464	-68.09
227.682	-2.56
227.9	50.69
228.117	9.73
228.335	3.58
228.553	-12.8
228.771	-0.51
228.989	71.17
229.206	69.12
229.424	58.88
229.642	50.69
229.86	91.65
230.077	40.45
230.295	83.45
230.513	65.02
230.731	62.98
230.948	126.46
231.166	118.27
231.384	-6.66
231.601	75.26
231.819	1.54
232.037	26.11
232.254	40.45
232.472	44.54
232.689	42.5
232.907	85.5
233.125	44.54
233.342	13.82
233.56	9.73
233.777	-72.19
233.995	28.16
234.213	79.36
234.43	11.78
234.648	-29.18
234.865	-29.18
235.083	52.74
235.3	-35.33
235.518	71.17
235.735	11.78
235.953	28.16
236.17	118.27
236.388	26.11
236.605	50.69
236.822	99.84
237.04	85.5
237.257	67.07
237.475	11.78
237.692	15.87
237.909	91.65
238.127	-14.85
238.344	56.83
238.562	75.26
238.779	-14.85
238.996	-29.18
239.214	-6.66
239.431	28.16
239.648	-29.18
239.865	52.74
240.083	83.45
240.3	28.16
240.517	3.58
240.735	17.92
240.952	110.08
241.169	58.88
241.386	54.78
241.603	-10.75
241.821	54.78
242.038	83.45
242.255	19.97
242.472	-68.09
242.689	30.21
242.907	73.21
243.124	32.26
243.341	-12.8
243.558	-29.18
243.775	42.5
243.992	-57.86
244.209	-37.38
244.426	75.26
244.643	67.07
244.86	-18.94
245.078	83.45
245.295	116.22
245.512	3.58
245.729	52.74
245.946	112.13
246.163	46.59
246.38	-25.09
246.597	67.07
246.814	9.73
247.031	26.11
247.248	85.5
247.464	40.45
247.681	22.02
247.898	32.26
248.115	-12.8
248.332	58.88
248.549	56.83
248.766	101.89
248.983	89.6
249.2	9.73
249.417	28.16
249.633	13.82
249.85	28.16
250.067	46.59
250.284	5.63
250.501	108.03
250.717	60.93
250.934	28.16
251.151	93.69
251.368	3.58
251.585	73.21
251.801	30.21
252.018	-6.66
252.235	44.54
252.451	-6.66
252.668	36.35
252.885	-59.9
253.102	48.64
253.318	50.69
253.535	38.4
253.752	-14.85
253.968	-12.8
254.185	-61.95
254.401	38.4
254.618	-10.75
254.835	-37.38
255.051	91.65
255.268	71.17
255.484	67.07
255.701	-10.75
255.917	22.02
256.134	19.97
256.351	50.69
256.567	-23.04
256.784	54.78
257	-10.75
257.217	-20.99
257.433	52.74
257.65	38.4
257.866	26.11
258.082	11.78
258.299	-47.62
258.515	62.98
258.732	42.5
258.948	40.45
259.165	-104.96
259.381	-14.85
259.597	-6.66
259.814	87.55
260.03	75.26
260.246	52.74
260.463	87.55
260.679	83.45
260.895	38.4
261.112	19.97
261.328	48.64
261.544	75.26
261.761	50.69
261.977	-23.04
262.193	-2.56
262.409	73.21
262.626	5.63
262.842	34.3
263.058	1.54
263.274	83.45
263.49	-2.56
263.707	50.69
263.923	81.41
264.139	-25.09
264.355	54.78
264.571	62.98
264.787	-0.51
265.004	17.92
265.22	3.58
265.436	-4.61
265.652	5.63
265.868	75.26
266.084	22.02
266.3	1.54
266.516	-10.75
266.732	-20.99
266.948	-14.85
267.164	79.36
267.38	11.78
267.596	99.84
267.812	40.45
268.028	-4.61
268.244	26.11
268.46	44.54
268.676	26.11
268.892	75.26
269.108	13.82
269.324	36.35
269.54	3.58
269.756	112.13
269.972	7.68
270.188	30.21
270.403	-4.61
270.619	1.54
270.835	28.16
271.051	83.45
271.267	58.88
271.483	38.4
271.698	58.88
271.914	-31.23
272.13	73.21
272.346	-6.66
272.562	62.98
272.777	108.03
272.993	-2.56
273.209	-45.57
273.425	42.5
273.64	17.92
273.856	44.54
274.072	-4.61
274.287	38.4
274.503	42.5
274.719	132.61
274.934	9.73
275.15	-59.9
275.366	5.63
275.581	52.74
275.797	-0.51
276.012	-2.56
276.228	58.88
276.444	17.92
276.659	-0.51
276.875	-39.42
277.09	-55.81
277.306	17.92
277.521	1.54
277.737	26.11
277.952	69.12
278.168	42.5
278.383	30.21
278.599	19.97
278.814	71.17
279.03	-70.14
279.245	22.02
279.461	48.64
279.676	112.13
279.892	22.02
280.107	-47.62
280.322	60.93
280.538	108.03
280.753	9.73
280.969	34.3
281.184	38.4
281.399	50.69
281.615	50.69
281.83	28.16
282.045	13.82
282.26	-29.18
282.476	26.11
282.691	112.13
282.906	-23.04
283.122	93.69
283.337	-12.8
283.552	48.64
283.767	3.58
283.983	108.03
284.198	-41.47
284.413	54.78
284.628	-78.33
284.843	-18.94
285.058	48.64
285.274	95.74
285.489	-55.81
285.704	87.55
285.919	-12.8
286.134	93.69
286.349	75.26
286.564	-55.81
286.779	75.26
286.995	71.17
287.21	-41.47
287.425	97.79
287.64	30.21
287.855	101.89
288.07	-72.19
288.285	77.31
288.5	13.82
288.715	36.35
288.93	5.63
289.145	44.54
289.36	42.5
289.575	50.69
289.79	65.02
290.004	11.78
290.219	58.88
290.434	69.12
290.649	-47.62
290.864	28.16
291.079	15.87
291.294	60.93
291.509	36.35
291.724	-6.66
291.938	48.64
292.153	50.69
292.368	95.74
292.583	69.12
292.798	99.84
293.012	52.74
293.227	34.3
293.442	9.73
293.657	15.87
293.871	99.84
294.086	58.88
294.301	130.56
294.516	50.69
294.73	97.79
294.945	-51.71
295.16	58.88
295.374	-12.8
295.589	71.17
295.804	69.12
296.018	7.68
296.233	62.98
296.447	13.82
296.662	-61.95
296.877	79.36
297.091	69.12
297.306	42.5
297.52	46.59
297.735	54.78
297.949	67.07
298.164	54.78
298.378	48.64
298.593	-14.85
298.807	34.3
299.022	1.54
299.236	1.54
299.451	50.69
299.665	26.11
299.88	73.21
300.094	46.59
300.309	112.13
300.523	42.5
300.737	50.69
300.952	54.78
301.166	19.97
301.381	13.82
301.595	42.5
301.809	36.35
302.024	1.54
302.238	11.78
302.452	87.55
302.667	42.5
302.881	83.45
303.095	42.5
303.309	56.83
303.524	-4.61
303.738	-23.04
303.952	-0.51
304.166	36.35
304.381	-12.8
304.595	75.26
304.809	-14.85
305.023	85.5
305.237	52.74
305.452	42.5
305.666	46.59
305.88	62.98
306.094	42.5
306.308	3.58
306.522	75.26
306.736	87.55
306.95	40.45
307.164	17.92
307.379	-10.75
307.593	58.88
307.807	40.45
308.021	9.73
308.235	-6.66
308.449	-64
308.663	9.73
308.877	50.69
309.091	75.26
309.305	-2.56
309.519	5.63
309.733	17.92
309.947	-49.66
310.161	58.88
310.374	46.59
310.588	108.03
310.802	24.06
311.016	-51.71
311.23	62.98
311.444	36.35
311.658	50.69
311.872	-12.8
312.085	189.95
312.299	85.5
312.513	60.93
312.727	30.21
312.941	-14.85
313.154	95.74
313.368	44.54
313.582	-18.94
313.796	42.5
314.009	26.11
314.223	52.74
314.437	75.26
314.651	93.69
314.864	-23.04
315.078	17.92
315.292	-8.7
315.505	-6.66
315.719	26.11
315.933	52.74
316.146	99.84
316.36	36.35
316.573	85.5
316.787	22.02
317.001	28.16
317.214	-4.61
317.428	32.26
317.641	19.97
317.855	42.5
318.068	75.26
318.282	-8.7
318.495	89.6
318.709	-35.33
318.922	-4.61
319.136	67.07
319.349	1.54
319.563	54.78
319.776	50.69
319.99	-23.04
320.203	30.21
320.417	38.4
320.63	75.26
320.843	77.31
321.057	83.45
321.27	-27.14
321.483	-35.33
321.697	58.88
321.91	48.64
322.124	-47.62
322.337	38.4
322.55	-43.52
322.763	108.03
322.977	42.5
323.19	28.16
323.403	-43.52
323.617	69.12
323.83	101.89
324.043	13.82
324.256	50.69
324.469	-4.61
324.683	17.92
324.896	17.92
325.109	67.07
325.322	-29.18
325.535	19.97
325.748	26.11
325.962	-78.33
326.175	28.16
326.388	13.82
326.601	34.3
326.814	56.83
327.027	52.74
327.24	101.89
327.453	46.59
327.666	50.69
327.879	26.11
328.092	58.88
328.305	22.02
328.518	9.73
328.731	-12.8
328.944	77.31
329.157	62.98
329.37	-2.56
329.583	77.31
329.796	83.45
330.009	-23.04
330.222	26.11
330.435	89.6
330.648	44.54
330.861	-20.99
331.073	-6.66
331.286	19.97
331.499	-25.09
331.712	30.21
331.925	42.5
332.138	32.26
332.35	79.36
332.563	54.78
332.776	19.97
332.989	13.82
333.202	42.5
333.414	-23.04
333.627	-31.23
333.84	67.07
334.053	42.5
334.265	89.6
334.478	-10.75
334.691	-6.66
334.903	79.36
335.116	11.78
335.329	48.64
335.541	140.8
335.754	110.08
335.966	13.82
336.179	-47.62
336.392	17.92
336.604	85.5
336.817	69.12
337.029	67.07
337.242	11.78
337.454	148.99
337.667	83.45
337.88	58.88
338.092	56.83
338.305	9.73
338.517	26.11
338.729	91.65
338.942	75.26
339.154	5.63
339.367	-33.28
339.579	56.83
339.792	-25.09
340.004	17.92
340.217	19.97
340.429	69.12
340.641	-27.14
340.854	-2.56
341.066	3.58
341.278	-14.85
341.491	67.07
341.703	22.02
341.915	22.02
342.128	75.26
342.34	34.3
342.552	17.92
342.764	42.5
342.977	17.92
343.189	52.74
343.401	69.12
343.613	22.02
343.826	87.55
344.038	46.59
344.25	15.87
344.462	-6.66
344.674	1.54
344.886	19.97
345.099	50.69
345.311	-16.9
345.523	60.93
345.735	34.3
345.947	62.98
346.159	22.02
346.371	9.73
346.583	-18.94
346.795	13.82
347.007	17.92
347.219	17.92
347.431	-41.47
347.643	40.45
347.855	-55.81
348.067	85.5
348.279	110.08
348.491	75.26
348.703	9.73
348.915	108.03
349.127	-35.33
349.339	26.11
349.551	-10.75
349.763	71.17
349.975	52.74
350.187	67.07
350.399	83.45
350.61	44.54
350.822	67.07
351.034	44.54
351.246	38.4
351.458	71.17
351.669	62.98
351.881	194.05
352.093	81.41
352.305	69.12
352.517	108.03
352.728	54.78
352.94	42.5
353.152	71.17
353.363	11.78
353.575	77.31
353.787	36.35
353.999	3.58
354.21	58.88
354.422	62.98
354.633	13.82
354.845	69.12
355.057	38.4
355.268	5.63
355.48	24.06
355.692	-47.62
355.903	38.4
356.115	77.31
356.326	-16.9
356.538	87.55
356.749	19.97
356.961	75.26
357.172	26.11
357.384	65.02
357.595	159.23
357.807	62.98
358.018	56.83
358.23	26.11
358.441	1.54
358.653	83.45
358.864	75.26
359.075	77.31
359.287	1.54
359.498	9.73
359.709	-0.51
359.921	42.5
360.132	60.93
360.344	-12.8
360.555	22.02
360.766	34.3
360.977	54.78
361.189	3.58
361.4	58.88
361.611	93.69
361.823	-10.75
362.034	22.02
362.245	-72.19
362.456	-47.62
362.667	130.56
362.879	58.88
363.09	-2.56
363.301	34.3
363.512	73.21
363.723	-20.99
363.935	17.92
364.146	-23.04
364.357	19.97
364.568	26.11
364.779	11.78
364.99	105.98
365.201	26.11
365.412	36.35
365.623	-31.23
365.834	99.84
366.045	28.16
366.256	26.11
366.467	38.4
366.678	36.35
366.889	54.78
367.1	-2.56
367.311	132.61
367.522	83.45
367.733	36.35
367.944	60.93
368.155	71.17
368.366	32.26
368.577	58.88
368.788	52.74
368.999	19.97
369.209	50.69
369.42	116.22
369.631	65.02
369.842	26.11
370.053	13.82
370.264	62.98
370.474	93.69
370.685	89.6
370.896	116.22
371.107	79.36
371.317	128.51
371.528	38.4
371.739	110.08
371.95	99.84
372.16	48.64
372.371	26.11
372.582	46.59
372.792	5.63
373.003	17.92
373.214	38.4
373.424	95.74
373.635	58.88
373.846	67.07
374.056	54.78
374.267	42.5
374.477	13.82
374.688	42.5
374.898	50.69
375.109	36.35
375.319	69.12
375.53	146.94
375.74	13.82
375.951	-14.85
376.161	75.26
376.372	89.6
376.582	17.92
376.793	95.74
377.003	-27.14
377.214	62.98
377.424	89.6
377.635	-14.85
377.845	38.4
378.055	34.3
378.266	-2.56
378.476	75.26
378.686	7.68
378.897	60.93
379.107	-20.99
379.317	28.16
379.528	62.98
379.738	17.92
379.948	34.3
380.158	42.5
380.369	67.07
380.579	34.3
380.789	-20.99
380.999	58.88
381.21	91.65
381.42	83.45
381.63	17.92
381.84	54.78
382.05	36.35
382.261	17.92
382.471	95.74
382.681	28.16
382.891	128.51
383.101	91.65
383.311	52.74
383.521	15.87
383.731	38.4
383.941	-6.66
384.151	67.07
384.361	-20.99
384.571	46.59
384.781	28.16
384.991	157.18
385.201	73.21
385.411	93.69
385.621	79.36
385.831	28.16
386.041	99.84
386.251	87.55
386.461	112.13
386.671	87.55
386.881	99.84
387.091	71.17
387.301	46.59
387.511	91.65
387.72	17.92
387.93	67.07
388.14	110.08
388.35	9.73
388.56	130.56
388.769	75.26
388.979	112.13
389.189	85.5
389.399	85.5
389.609	19.97
389.818	167.42
390.028	-27.14
390.238	50.69
390.447	42.5
390.657	118.27
390.867	1.54
391.076	24.06
391.286	17.92
391.496	9.73
391.705	128.51
391.915	52.74
392.125	54.78
392.334	19.97
392.544	134.65
392.753	75.26
392.963	67.07
393.172	42.5
393.382	3.58
393.591	46.59
393.801	13.82
394.01	142.85
394.22	26.11
394.429	91.65
394.639	91.65
394.848	48.64
395.058	75.26
395.267	34.3
395.477	69.12
395.686	126.46
395.895	71.17
396.105	148.99
396.314	75.26
396.524	83.45
396.733	116.22
396.942	185.85
397.152	144.89
397.361	110.08
397.57	167.42
397.78	175.61
397.989	87.55
398.198	216.57
398.407	175.61
398.617	91.65
398.826	136.7
399.035	52.74
399.244	132.61
399.453	67.07
399.663	161.28
399.872	120.32
400.081	79.36
400.29	134.65
400.499	126.46
400.708	165.37
400.917	167.42
401.127	112.13
401.336	95.74
401.545	196.09
401.754	173.57
401.963	185.85
402.172	75.26
402.381	34.3
402.59	144.89
402.799	163.33
403.008	144.89
403.217	108.03
403.426	140.8
403.635	173.57
403.844	146.94
404.053	163.33
404.262	130.56
404.471	206.33
404.68	157.18
404.888	136.7
405.097	165.37
405.306	181.76
405.515	177.66
405.724	93.69
405.933	210.43
406.142	263.68
406.35	247.29
406.559	181.76
406.768	220.67
406.977	210.43
407.185	253.44
407.394	208.38
407.603	130.56
407.812	378.36
408.02	290.3
408.229	235
408.438	192
408.646	271.87
408.855	271.87
409.064	337.4
409.272	282.11
409.481	376.31
409.69	296.44
409.898	376.31
410.107	321.02
410.315	421.37
410.524	333.31
410.733	353.79
410.941	382.46
411.15	366.07
411.358	509.43
411.567	493.05
411.775	394.75
411.984	435.71
412.192	482.81
412.401	534.01
412.609	534.01
412.818	544.25
413.026	609.78
413.234	626.17
413.443	581.11
413.651	611.83
413.86	599.54
414.068	677.37
414.276	656.89
414.485	671.22
414.693	830.96
414.901	812.53
415.11	763.38
415.318	787.96
415.526	886.26
415.734	898.55
415.943	970.23
416.151	1041.9
416.359	1025.52
416.567	1052.14
416.776	1039.86
416.984	1134.06
417.192	1117.68
417.4	1156.59
417.608	1115.63
417.817	1189.36
418.025	1324.52
418.233	1426.92
418.441	1443.31
418.649	1451.5
418.857	1512.94
419.065	1535.46
419.273	1650.15
419.481	1619.43
419.689	1678.82
419.897	1740.26
420.105	1848.8
420.313	1953.25
420.521	1979.87
420.729	1928.67
420.937	1934.82
421.145	2053.6
421.353	2100.7
421.561	2346.46
421.769	2262.49
421.977	2475.48
422.185	2518.49
422.393	2528.73
422.601	2819.54
422.809	2635.22
423.017	2606.55
423.224	2807.25
423.432	2985.43
423.64	2897.36
423.848	3153.36
424.056	3239.37
424.263	3384.78
424.471	3270.09
424.679	3411.4
424.887	3730.89
425.094	3659.21
425.302	3788.23
425.51	3732.94
425.718	3974.6
425.925	4007.36
426.133	4187.58
426.341	4367.81
426.548	4597.18
426.756	4472.25
426.964	4679.1
427.171	5002.68
427.379	5049.78
427.586	5252.53
427.794	5246.38
428.001	5440.94
428.209	5668.27
428.417	5662.12
428.624	5963.17
428.832	6124.96
429.039	6120.87
429.247	6043.04
429.454	6614.43
429.662	7095.7
429.869	6708.63
430.076	7114.13
430.284	6808.98
430.491	7185.81
430.699	7470.48
430.906	7679.37
431.114	7652.75
431.321	8078.72
431.528	8179.08
431.736	8621.44
431.943	9061.75
432.15	8566.14
432.358	8861.05
432.565	9311.6
432.772	9151.86
432.979	9876.84
433.187	9741.68
433.394	9819.5
433.601	10636.64
433.808	10673.5
434.016	10630.49
434.223	10831.19
434.43	11781.45
434.637	11371.86
434.844	12389.7
435.052	12182.85
435.259	12299.59
435.466	12242.25
435.673	12248.39
435.88	13090.1
436.087	13731.12
436.294	13780.27
436.501	13354.29
436.708	13632.82
436.915	14148.9
437.122	14761.25
437.329	14791.97
437.537	15439.12
437.743	15201.56
437.95	15326.49
438.157	16243.98
438.364	16704.77
438.571	16686.34
438.778	16530.69
438.985	18250.99
439.192	17499.38
439.399	17954.03
439.606	17544.44
439.813	18746.59
440.02	19950.8
440.227	19506.39
440.433	19279.07
440.64	19832.02
440.847	19604.69
441.054	20223.18
441.261	21447.86
441.467	21136.57
441.674	21845.17
441.881	22516.9
442.088	22250.67
442.294	22029.49
442.501	22690.98
442.708	23176.35
442.914	24155.28
443.121	24759.43
443.328	24343.69
443.534	25939.06
443.741	25525.37
443.948	24810.63
444.154	26891.37
444.361	26592.36
444.568	26834.02
444.774	26748.01
444.981	27409.5
445.187	27905.11
445.394	28986.44
445.6	28578.89
445.807	31128.61
446.013	30407.73
446.22	30270.51
446.426	31349.79
446.633	32263.19
446.839	32896.01
447.046	31630.37
447.252	33211.4
447.459	33383.43
447.665	33596.42
447.871	34937.83
448.078	36588.5
448.284	34405.36
448.491	35824.61
448.697	37006.28
448.903	37643.2
449.11	37766.08
449.316	37338.05
449.522	37977.02
449.728	38689.71
449.935	38970.29
450.141	39248.81
450.347	40674.2
450.553	38511.54
450.76	39046.06
450.966	40491.93
451.172	39828.38
451.378	40862.61
451.584	40176.54
451.791	41358.22
451.997	41329.55
452.203	41792.39
452.409	41788.29
452.615	41481.1
452.821	39852.96
453.027	39707.55
453.233	41550.73
453.44	40096.67
453.646	40334.23
453.852	40588.18
454.058	41597.83
454.264	39768.99
454.47	40901.52
454.676	40010.65
454.882	40850.32
455.088	37575.62
455.294	38468.53
455.5	38845.36
455.705	39181.23
455.911	37792.7
456.117	36699.09
456.323	36338.65
456.529	34671.6
456.735	35931.1
456.941	35034.09
457.147	34456.56
457.352	33856.51
457.558	33111.05
457.764	33221.64
457.97	32476.18
458.176	31812.63
458.381	31843.35
458.587	30217.27
458.793	30407.73
458.999	28789.83
459.204	30567.47
459.41	29985.85
459.616	27788.38
459.821	27808.86
460.027	27796.57
460.233	27133.03
460.438	25853.05
460.644	26201.2
460.85	24829.06
461.055	24233.1
461.261	24413.32
461.466	22758.56
461.672	21882.03
461.878	23256.22
462.083	21955.76
462.289	21976.24
462.494	20985.02
462.7	20460.74
462.905	19408.09
463.111	20317.39
463.316	20544.71
463.522	19946.7
463.727	20114.64
463.932	20204.75
464.138	19709.14
464.343	19711.19
464.549	19485.91
464.754	19848.4
464.959	19746
465.165	19565.78
465.37	18740.45
465.575	18044.14
465.781	18941.15
465.986	18982.11
466.191	18072.81
466.397	17728.75
466.602	17018.11
466.807	17470.71
467.012	17790.19
467.218	17405.17
467.423	17425.65
467.628	17415.41
