Data from USB4F104151__142__14-31-50-025.txt Node

Date: Thu Mar 13 14:31:50 EDT 2025
User: louis
Spectrometer: USB4F10415
Trigger mode: 4
Integration Time (sec): 2.500000E-2
Scans to average: 1
Electric dark correction enabled: true
Nonlinearity correction enabled: false
Boxcar width: 0
XAxis mode: Wavelengths
Number of Pixels in Spectrum: 3648
>>>>>Begin Spectral Data<<<<<
178.204	-222.38
178.424	-222.38
178.644	-222.38
178.864	-124.07
179.084	-191.66
179.304	13.14
179.524	-3.24
179.744	-23.72
179.964	17.24
180.184	-31.91
180.404	23.38
180.624	-15.53
180.844	2.9
181.064	-72.87
181.283	54.1
181.503	7
181.723	29.52
181.943	-68.78
182.163	13.14
182.383	17.24
182.602	72.53
182.822	47.96
183.042	45.91
183.262	-17.58
183.482	70.48
183.701	-19.63
183.921	50
184.141	56.15
184.361	54.1
184.58	-3.24
184.8	-40.11
185.02	-31.91
185.239	101.2
185.459	111.44
185.679	103.25
185.898	-33.96
186.118	15.19
186.338	37.72
186.557	78.68
186.777	-27.82
186.997	29.52
187.216	-40.11
187.436	41.81
187.655	11.09
187.875	136.02
188.095	19.29
188.314	-23.72
188.534	23.38
188.753	41.81
188.973	140.12
189.192	31.57
189.412	-3.24
189.631	123.73
189.851	39.76
190.07	70.48
190.29	31.57
190.509	56.15
190.729	27.48
190.948	-3.24
191.168	189.27
191.387	25.43
191.607	-33.96
191.826	-56.49
192.045	-83.11
192.265	15.19
192.484	4.95
192.704	54.1
192.923	-42.15
193.142	95.06
193.362	19.29
193.581	37.72
193.8	15.19
194.02	-23.72
194.239	17.24
194.458	62.29
194.678	29.52
194.897	37.72
195.116	-3.24
195.335	-58.54
195.555	105.3
195.774	37.72
195.993	144.21
196.212	25.43
196.432	4.95
196.651	23.38
196.87	-25.77
197.089	119.64
197.308	4.95
197.528	74.58
197.747	-105.64
197.966	37.72
198.185	97.11
198.404	-83.11
198.623	-1.19
198.842	119.64
199.062	86.87
199.281	47.96
199.5	-19.63
199.719	13.14
199.938	31.57
200.157	58.2
200.376	-13.48
200.595	113.49
200.814	86.87
201.033	-31.91
201.252	88.92
201.471	39.76
201.69	45.91
201.909	70.48
202.128	19.29
202.347	119.64
202.566	41.81
202.785	23.38
203.004	-17.58
203.223	54.1
203.442	21.33
203.661	39.76
203.879	15.19
204.098	45.91
204.317	29.52
204.536	95.06
204.755	80.72
204.974	62.29
205.193	64.34
205.411	54.1
205.63	23.38
205.849	-60.59
206.068	0.85
206.287	-7.34
206.505	29.52
206.724	-3.24
206.943	-9.39
207.162	-9.39
207.381	15.19
207.599	41.81
207.818	45.91
208.037	45.91
208.255	0.85
208.474	33.62
208.693	13.14
208.911	21.33
209.13	17.24
209.349	-11.43
209.567	115.54
209.786	86.87
210.005	39.76
210.223	33.62
210.442	-23.72
210.661	37.72
210.879	31.57
211.098	47.96
211.316	47.96
211.535	15.19
211.753	2.9
211.972	72.53
212.191	-23.72
212.409	58.2
212.628	64.34
212.846	4.95
213.065	54.1
213.283	54.1
213.502	33.62
213.72	29.52
213.938	-31.91
214.157	-11.43
214.375	0.85
214.594	-19.63
214.812	9.05
215.031	-19.63
215.249	19.29
215.467	54.1
215.686	13.14
215.904	103.25
216.122	-33.96
216.341	66.39
216.559	37.72
216.778	23.38
216.996	86.87
217.214	80.72
217.432	21.33
217.651	0.85
217.869	19.29
218.087	86.87
218.306	-27.82
218.524	-29.87
218.742	37.72
218.96	9.05
219.179	-3.24
219.397	56.15
219.615	138.07
219.833	7
220.051	41.81
220.27	50
220.488	13.14
220.706	25.43
220.924	11.09
221.142	13.14
221.36	47.96
221.578	70.48
221.796	70.48
222.015	-1.19
222.233	-58.54
222.451	113.49
222.669	-21.67
222.887	4.95
223.105	13.14
223.323	113.49
223.541	-33.96
223.759	45.91
223.977	15.19
224.195	50
224.413	35.67
224.631	0.85
224.849	-23.72
225.067	127.83
225.285	-70.83
225.503	21.33
225.721	-25.77
225.939	15.19
226.157	76.63
226.375	47.96
226.592	52.05
226.81	70.48
227.028	45.91
227.246	146.26
227.464	-11.43
227.682	95.06
227.9	29.52
228.117	54.1
228.335	13.14
228.553	41.81
228.771	25.43
228.989	13.14
229.206	29.52
229.424	-23.72
229.642	-33.96
229.86	29.52
230.077	50
230.295	-19.63
230.513	45.91
230.731	29.52
230.948	56.15
231.166	86.87
231.384	7
231.601	50
231.819	90.96
232.037	47.96
232.254	-33.96
232.472	64.34
232.689	-13.48
232.907	23.38
233.125	-66.73
233.342	-7.34
233.56	56.15
233.777	29.52
233.995	-11.43
234.213	37.72
234.43	97.11
234.648	-7.34
234.865	-9.39
235.083	-31.91
235.3	103.25
235.518	4.95
235.735	72.53
235.953	56.15
236.17	-68.78
236.388	62.29
236.605	54.1
236.822	23.38
237.04	33.62
237.257	21.33
237.475	-76.97
237.692	33.62
237.909	113.49
238.127	41.81
238.344	41.81
238.562	-7.34
238.779	-9.39
238.996	-19.63
239.214	103.25
239.431	25.43
239.648	-44.2
239.865	136.02
240.083	103.25
240.3	54.1
240.517	-27.82
240.735	-3.24
240.952	78.68
241.169	54.1
241.386	54.1
241.603	39.76
241.821	-23.72
242.038	127.83
242.255	-56.49
242.472	13.14
242.689	50
242.907	29.52
243.124	-27.82
243.341	-3.24
243.558	7
243.775	13.14
243.992	-74.92
244.209	-7.34
244.426	62.29
244.643	78.68
244.86	37.72
245.078	47.96
245.295	31.57
245.512	86.87
245.729	109.4
245.946	-23.72
246.163	-25.77
246.38	95.06
246.597	-9.39
246.814	-3.24
247.031	-31.91
247.248	45.91
247.464	11.09
247.681	78.68
247.898	95.06
248.115	27.48
248.332	0.85
248.549	15.19
248.766	78.68
248.983	97.11
249.2	39.76
249.417	-23.72
249.633	25.43
249.85	7
250.067	13.14
250.284	-9.39
250.501	58.2
250.717	103.25
250.934	-29.87
251.151	37.72
251.368	-27.82
251.585	29.52
251.801	-1.19
252.018	52.05
252.235	4.95
252.451	0.85
252.668	-9.39
252.885	-11.43
253.102	-3.24
253.318	-7.34
253.535	-9.39
253.752	-76.97
253.968	-19.63
254.185	-50.35
254.401	9.05
254.618	64.34
254.835	21.33
255.051	29.52
255.268	-7.34
255.484	74.58
255.701	-33.96
255.917	-3.24
256.134	-9.39
256.351	45.91
256.567	-23.72
256.784	-7.34
257	19.29
257.217	13.14
257.433	54.1
257.65	-3.24
257.866	19.29
258.082	-83.11
258.299	-11.43
258.515	45.91
258.732	-1.19
258.948	62.29
259.165	43.86
259.381	70.48
259.597	-9.39
259.814	-36.01
260.03	33.62
260.246	25.43
260.463	111.44
260.679	74.58
260.895	45.91
261.112	29.52
261.328	-52.39
261.544	47.96
261.761	105.3
261.977	-40.11
262.193	-44.2
262.409	21.33
262.626	70.48
262.842	115.54
263.058	43.86
263.274	23.38
263.49	33.62
263.707	95.06
263.923	78.68
264.139	45.91
264.355	29.52
264.571	23.38
264.787	95.06
265.004	88.92
265.22	17.24
265.436	23.38
265.652	-7.34
265.868	17.24
266.084	-17.58
266.3	70.48
266.516	15.19
266.732	35.67
266.948	27.48
267.164	-25.77
267.38	74.58
267.596	39.76
267.812	33.62
268.028	9.05
268.244	-3.24
268.46	103.25
268.676	68.44
268.892	-3.24
269.108	-7.34
269.324	17.24
269.54	50
269.756	29.52
269.972	-25.77
270.188	-36.01
270.403	-56.49
270.619	-11.43
270.835	29.52
271.051	-7.34
271.267	25.43
271.483	4.95
271.698	23.38
271.914	45.91
272.13	90.96
272.346	-13.48
272.562	41.81
272.777	37.72
272.993	9.05
273.209	-5.29
273.425	70.48
273.64	15.19
273.856	60.24
274.072	54.1
274.287	41.81
274.503	-13.48
274.719	66.39
274.934	31.57
275.15	-42.15
275.366	-9.39
275.581	9.05
275.797	23.38
276.012	-31.91
276.228	33.62
276.444	80.72
276.659	7
276.875	-29.87
277.09	0.85
277.306	15.19
277.521	58.2
277.737	23.38
277.952	-64.68
278.168	31.57
278.383	-7.34
278.599	39.76
278.814	-31.91
279.03	19.29
279.245	37.72
279.461	15.19
279.676	70.48
279.892	-7.34
280.107	-11.43
280.322	25.43
280.538	74.58
280.753	-7.34
280.969	60.24
281.184	45.91
281.399	86.87
281.615	64.34
281.83	13.14
282.045	-19.63
282.26	15.19
282.476	23.38
282.691	4.95
282.906	17.24
283.122	45.91
283.337	43.86
283.552	62.29
283.767	-17.58
283.983	70.48
284.198	31.57
284.413	78.68
284.628	23.38
284.843	25.43
285.058	37.72
285.274	66.39
285.489	-40.11
285.704	19.29
285.919	29.52
286.134	-19.63
286.349	-23.72
286.564	62.29
286.779	78.68
286.995	21.33
287.21	-29.87
287.425	72.53
287.64	-11.43
287.855	-13.48
288.07	-44.2
288.285	52.05
288.5	7
288.715	95.06
288.93	37.72
289.145	15.19
289.36	33.62
289.575	-3.24
289.79	-33.96
290.004	-3.24
290.219	15.19
290.434	-1.19
290.649	45.91
290.864	4.95
291.079	60.24
291.294	95.06
291.509	50
291.724	-11.43
291.938	37.72
292.153	29.52
292.368	-21.67
292.583	31.57
292.798	29.52
293.012	23.38
293.227	-27.82
293.442	31.57
293.657	-3.24
293.871	62.29
294.086	37.72
294.301	127.83
294.516	66.39
294.73	52.05
294.945	-25.77
295.16	21.33
295.374	78.68
295.589	99.16
295.804	54.1
296.018	68.44
296.233	9.05
296.447	64.34
296.662	45.91
296.877	-5.29
297.091	31.57
297.306	4.95
297.52	25.43
297.735	111.44
297.949	23.38
298.164	90.96
298.378	-44.2
298.593	-44.2
298.807	-89.26
299.022	-3.24
299.236	70.48
299.451	-11.43
299.665	50
299.88	15.19
300.094	37.72
300.309	33.62
300.523	-1.19
300.737	45.91
300.952	37.72
301.166	-3.24
301.381	7
301.595	13.14
301.809	25.43
302.024	45.91
302.238	23.38
302.452	21.33
302.667	47.96
302.881	70.48
303.095	99.16
303.309	31.57
303.524	31.57
303.738	17.24
303.952	39.76
304.166	-31.91
304.381	15.19
304.595	58.2
304.809	90.96
305.023	13.14
305.237	31.57
305.452	-52.39
305.666	78.68
305.88	84.82
306.094	37.72
306.308	86.87
306.522	152.4
306.736	25.43
306.95	35.67
307.164	54.1
307.379	15.19
307.593	25.43
307.807	72.53
308.021	17.24
308.235	2.9
308.449	-27.82
308.663	-19.63
308.877	144.21
309.091	52.05
309.305	13.14
309.519	-13.48
309.733	39.76
309.947	-76.97
310.161	37.72
310.374	43.86
310.588	54.1
310.802	7
311.016	-11.43
311.23	50
311.444	37.72
311.658	103.25
311.872	45.91
312.085	84.82
312.299	64.34
312.513	88.92
312.727	15.19
312.941	37.72
313.154	62.29
313.368	21.33
313.582	41.81
313.796	-3.24
314.009	74.58
314.223	52.05
314.437	33.62
314.651	62.29
314.864	52.05
315.078	29.52
315.292	39.76
315.505	-5.29
315.719	11.09
315.933	29.52
316.146	23.38
316.36	-33.96
316.573	64.34
316.787	-1.19
317.001	82.77
317.214	-9.39
317.428	37.72
317.641	-97.45
317.855	15.19
318.068	13.14
318.282	62.29
318.495	95.06
318.709	80.72
318.922	-25.77
319.136	78.68
319.349	-50.35
319.563	21.33
319.776	29.52
319.99	-9.39
320.203	13.14
320.417	7
320.63	-17.58
320.843	103.25
321.057	9.05
321.27	72.53
321.483	95.06
321.697	54.1
321.91	82.77
322.124	-44.2
322.337	121.68
322.55	-11.43
322.763	2.9
322.977	37.72
323.19	23.38
323.403	37.72
323.617	47.96
323.83	84.82
324.043	23.38
324.256	82.77
324.469	-42.15
324.683	58.2
324.896	39.76
325.109	127.83
325.322	-27.82
325.535	29.52
325.748	-31.91
325.962	37.72
326.175	-31.91
326.388	70.48
326.601	70.48
326.814	72.53
327.027	37.72
327.24	95.06
327.453	-25.77
327.666	66.39
327.879	31.57
328.092	84.82
328.305	45.91
328.518	-5.29
328.731	-58.54
328.944	13.14
329.157	70.48
329.37	13.14
329.583	70.48
329.796	113.49
330.009	17.24
330.222	101.2
330.435	68.44
330.648	4.95
330.861	-7.34
331.073	15.19
331.286	47.96
331.499	82.77
331.712	9.05
331.925	39.76
332.138	90.96
332.35	-7.34
332.563	-23.72
332.776	72.53
332.989	7
333.202	27.48
333.414	21.33
333.627	2.9
333.84	62.29
334.053	93.01
334.265	-42.15
334.478	-7.34
334.691	80.72
334.903	84.82
335.116	13.14
335.329	78.68
335.541	47.96
335.754	78.68
335.966	25.43
336.179	31.57
336.392	-17.58
336.604	29.52
336.817	86.87
337.029	7
337.242	23.38
337.454	58.2
337.667	35.67
337.88	62.29
338.092	97.11
338.305	13.14
338.517	84.82
338.729	74.58
338.942	95.06
339.154	37.72
339.367	35.67
339.579	56.15
339.792	-54.44
340.004	39.76
340.217	-56.49
340.429	80.72
340.641	19.29
340.854	37.72
341.066	70.48
341.278	70.48
341.491	0.85
341.703	27.48
341.915	-23.72
342.128	54.1
342.34	-7.34
342.552	39.76
342.764	-7.34
342.977	45.91
343.189	50
343.401	80.72
343.613	45.91
343.826	95.06
344.038	82.77
344.25	9.05
344.462	13.14
344.674	41.81
344.886	4.95
345.099	66.39
345.311	86.87
345.523	45.91
345.735	66.39
345.947	45.91
346.159	4.95
346.371	29.52
346.583	111.44
346.795	95.06
347.007	13.14
347.219	0.85
347.431	25.43
347.643	50
347.855	7
348.067	41.81
348.279	-36.01
348.491	56.15
348.703	15.19
348.915	29.52
349.127	47.96
349.339	-5.29
349.551	39.76
349.763	68.44
349.975	27.48
350.187	58.2
350.399	131.92
350.61	45.91
350.822	70.48
351.034	70.48
351.246	84.82
351.458	45.91
351.669	33.62
351.881	80.72
352.093	117.59
352.305	156.5
352.517	90.96
352.728	39.76
352.94	66.39
353.152	21.33
353.363	0.85
353.575	-79.02
353.787	78.68
353.999	17.24
354.21	103.25
354.422	17.24
354.633	29.52
354.845	15.19
355.057	50
355.268	15.19
355.48	29.52
355.692	15.19
355.903	-19.63
356.115	37.72
356.326	-76.97
356.538	33.62
356.749	70.48
356.961	127.83
357.172	-15.53
357.384	-46.25
357.595	45.91
357.807	70.48
358.018	52.05
358.23	39.76
358.441	201.55
358.653	54.1
358.864	4.95
359.075	50
359.287	33.62
359.498	64.34
359.709	52.05
359.921	45.91
360.132	-3.24
360.344	103.25
360.555	-33.96
360.766	74.58
360.977	11.09
361.189	33.62
361.4	37.72
361.611	54.1
361.823	62.29
362.034	93.01
362.245	-1.19
362.456	39.76
362.667	82.77
362.879	-19.63
363.09	95.06
363.301	72.53
363.512	45.91
363.723	37.72
363.935	-19.63
364.146	37.72
364.357	72.53
364.568	56.15
364.779	78.68
364.99	29.52
365.201	25.43
365.412	121.68
365.623	41.81
365.834	33.62
366.045	54.1
366.256	88.92
366.467	-3.24
366.678	95.06
366.889	25.43
367.1	50
367.311	107.35
367.522	64.34
367.733	103.25
367.944	80.72
368.155	11.09
368.366	43.86
368.577	95.06
368.788	80.72
368.999	-60.59
369.209	95.06
369.42	82.77
369.631	58.2
369.842	74.58
370.053	95.06
370.264	52.05
370.474	97.11
370.685	95.06
370.896	62.29
371.107	74.58
371.317	78.68
371.528	23.38
371.739	62.29
371.95	111.44
372.16	56.15
372.371	84.82
372.582	64.34
372.792	31.57
373.003	97.11
373.214	37.72
373.424	31.57
373.635	29.52
373.846	95.06
374.056	15.19
374.267	45.91
374.477	54.1
374.688	39.76
374.898	90.96
375.109	37.72
375.319	45.91
375.53	66.39
375.74	95.06
375.951	50
376.161	93.01
376.372	45.91
376.582	103.25
376.793	-40.11
377.003	9.05
377.214	-7.34
377.424	58.2
377.635	-3.24
377.845	39.76
378.055	62.29
378.266	103.25
378.476	45.91
378.686	56.15
378.897	37.72
379.107	131.92
379.317	41.81
379.528	39.76
379.738	31.57
379.948	29.52
380.158	78.68
380.369	45.91
380.579	144.21
380.789	37.72
380.999	37.72
381.21	39.76
381.42	97.11
381.63	119.64
381.84	4.95
382.05	54.1
382.261	107.35
382.471	50
382.681	-19.63
382.891	86.87
383.101	29.52
383.311	31.57
383.521	31.57
383.731	45.91
383.941	7
384.151	45.91
384.361	39.76
384.571	103.25
384.781	97.11
384.991	62.29
385.201	107.35
385.411	62.29
385.621	41.81
385.831	17.24
386.041	45.91
386.251	-79.02
386.461	37.72
386.671	29.52
386.881	45.91
387.091	-3.24
387.301	74.58
387.511	45.91
387.72	131.92
387.93	27.48
388.14	37.72
388.35	127.83
388.56	99.16
388.769	111.44
388.979	111.44
389.189	50
389.399	-7.34
389.609	76.63
389.818	88.92
390.028	72.53
390.238	39.76
390.447	47.96
390.657	45.91
390.867	-17.58
391.076	-52.39
391.286	31.57
391.496	27.48
391.705	41.81
391.915	123.73
392.125	78.68
392.334	50
392.544	82.77
392.753	88.92
392.963	31.57
393.172	68.44
393.382	43.86
393.591	160.59
393.801	95.06
394.01	136.02
394.22	-3.24
394.429	74.58
394.639	45.91
394.848	82.77
395.058	54.1
395.267	166.74
395.477	56.15
395.686	90.96
395.895	156.5
396.105	152.4
396.314	129.88
396.524	156.5
396.733	127.83
396.942	117.59
397.152	103.25
397.361	127.83
397.57	-11.43
397.78	33.62
397.989	109.4
398.198	187.22
398.407	142.16
398.617	121.68
398.826	152.4
399.035	41.81
399.244	140.12
399.453	109.4
399.663	88.92
399.872	185.17
400.081	111.44
400.29	164.69
400.499	78.68
400.708	148.31
400.917	72.53
401.127	119.64
401.336	111.44
401.545	187.22
401.754	86.87
401.963	156.5
402.172	113.49
402.381	41.81
402.59	121.68
402.799	66.39
403.008	99.16
403.217	97.11
403.426	119.64
403.635	90.96
403.844	138.07
404.053	172.88
404.262	176.98
404.471	166.74
404.68	119.64
404.888	144.21
405.097	154.45
405.306	185.17
405.515	193.36
405.724	199.51
405.933	217.94
406.142	269.14
406.35	203.6
406.559	195.41
406.768	230.23
406.977	205.65
407.185	209.75
407.394	285.52
407.603	195.41
407.812	183.12
408.02	217.94
408.229	267.09
408.438	244.56
408.646	211.79
408.855	297.81
409.064	252.75
409.272	201.55
409.481	361.3
409.69	301.9
409.898	250.71
410.107	293.71
410.315	398.16
410.524	310.1
410.733	349.01
410.941	389.97
411.15	406.35
411.358	426.83
411.567	424.78
411.775	430.93
411.984	459.6
412.192	475.98
412.401	416.59
412.609	582.48
412.818	588.62
413.026	598.86
413.234	594.76
413.443	572.24
413.651	676.68
413.86	619.34
414.068	727.88
414.276	713.55
414.485	670.54
414.693	774.99
414.901	742.22
415.11	670.54
415.318	807.75
415.526	815.94
415.734	865.1
415.943	914.25
416.151	979.78
416.359	842.57
416.567	1022.79
416.776	1053.51
416.984	1002.31
417.192	1080.13
417.4	1094.47
417.608	1137.48
417.817	1006.41
418.025	1325.89
418.233	1358.66
418.441	1299.27
418.649	1403.71
418.857	1446.72
419.065	1534.78
419.273	1413.95
419.481	1520.45
419.689	1663.8
419.897	1639.23
420.105	1665.85
420.313	1702.72
420.521	1796.92
420.729	1889.08
420.937	1944.38
421.145	2089.78
421.353	2061.11
421.561	2208.56
421.769	2218.8
421.977	2331.44
422.185	2323.25
422.393	2429.74
422.601	2601.77
422.809	2691.88
423.017	2550.57
423.224	2741.04
423.432	2736.94
423.64	2743.08
423.848	3134.25
424.056	3013.42
424.263	3212.07
424.471	3259.17
424.679	3314.47
424.887	3486.5
425.094	3535.65
425.302	3662.62
425.51	3711.77
425.718	3838.75
425.925	3889.95
426.133	3912.47
426.341	4102.93
426.548	4514.58
426.756	4281.11
426.964	4469.52
427.171	4727.57
427.379	4887.31
427.586	4883.21
427.794	5223.17
428.001	5178.12
428.209	5604.1
428.417	5362.44
428.624	5718.78
428.832	5821.18
429.039	5833.47
429.247	5665.53
429.454	6306.55
429.662	6828.78
429.869	6411
430.076	6812.4
430.284	6419.19
430.491	7006.95
430.699	7324.39
430.906	7275.24
431.114	7168.74
431.321	7713.5
431.528	7807.71
431.736	8295.13
431.943	8741.58
432.15	8524.5
432.358	8405.72
432.565	9050.83
432.772	8870.61
432.979	9384.65
433.187	9372.36
433.394	9630.4
433.601	10267.32
433.808	10390.2
434.016	10328.76
434.223	10734.26
434.43	11221.67
434.637	11205.29
434.844	11776.67
435.052	11809.44
435.259	11940.51
435.466	11938.46
435.673	11817.63
435.88	12620.44
436.087	13269.64
436.294	13103.76
436.501	13019.79
436.708	13240.97
436.915	13826.69
437.122	14338.68
437.329	14187.13
437.537	14676.6
437.743	14805.62
437.95	14840.43
438.157	15399.53
438.364	16110.18
438.571	15676.01
438.778	16120.42
438.985	17592.9
439.192	16820.82
439.399	17330.76
439.606	17013.33
439.813	18010.69
440.02	18850.36
440.227	18901.56
440.433	18592.31
440.64	19282.48
440.847	18993.72
441.054	19665.45
441.261	20779.54
441.467	20507.16
441.674	20974.1
441.881	21805.58
442.088	21664.27
442.294	21228.05
442.501	21877.26
442.708	22503.93
442.914	23441.9
443.121	24349.15
443.328	23458.29
443.534	25412.05
443.741	24631.77
443.948	24271.33
444.154	25872.84
444.361	25971.15
444.568	26239.43
444.774	26046.92
444.981	26483.14
445.187	26972.6
445.394	28215.72
445.6	27541.94
445.807	30468.48
446.013	29104.54
446.22	29233.56
446.426	30720.38
446.633	31197.56
446.839	32633.19
447.046	31033.72
447.252	32332.14
447.459	32557.41
447.665	32291.18
447.871	33929.55
448.078	35275.07
448.284	33392.98
448.491	34330.95
448.697	35637.56
448.903	36270.38
449.11	36548.9
449.316	36010.29
449.522	36610.34
449.728	37617.94
449.935	37941.52
450.141	37785.88
450.347	38584.58
450.553	37548.31
450.76	38076.69
450.966	39024.9
451.172	38527.24
451.378	39739.64
451.584	38840.58
451.791	39608.57
451.997	39241.98
452.203	40091.89
452.409	40313.07
452.615	39665.91
452.821	38457.61
453.027	38430.99
453.233	40272.11
453.44	38367.5
453.646	38633.74
453.852	38916.36
454.058	39960.82
454.264	38344.97
454.47	39344.38
454.676	38369.55
454.882	39319.81
455.088	36700.45
455.294	36782.37
455.5	37546.26
455.705	37624.09
455.911	36608.29
456.117	35359.03
456.323	35080.51
456.529	33309.02
456.735	34728.26
456.941	33913.17
457.147	33034.59
457.352	31920.49
457.558	31727.99
457.764	31934.83
457.97	31433.08
458.176	30263.69
458.381	30290.31
458.587	29270.42
458.793	28969.37
458.999	27277.75
459.204	29125.02
459.41	28639.65
459.616	26806.72
459.821	26560.96
460.027	26790.33
460.233	26132.93
460.438	24660.45
460.644	24869.34
460.85	24224.23
461.055	23501.29
461.261	23423.47
461.466	21821.96
461.672	21142.03
461.878	22577.66
462.083	21213.71
462.289	20435.49
462.494	20410.91
462.7	19581.48
462.905	18915.89
463.111	19487.28
463.316	19716.65
463.522	19137.07
463.727	19325.49
463.932	19417.65
464.138	18870.84
464.343	19216.94
464.549	18831.93
464.754	19249.71
464.959	18876.98
465.165	19020.34
465.37	18027.07
465.575	17742.41
465.781	18256.45
465.986	18162.24
466.191	17793.61
466.397	17191.5
466.602	16550.49
466.807	17113.68
467.012	17224.27
467.218	17154.64
467.423	16761.43
