Data from USB4F104151__158__14-32-02-572.txt Node

Date: Thu Mar 13 14:32:02 EDT 2025
User: louis
Spectrometer: USB4F10415
Trigger mode: 4
Integration Time (sec): 2.500000E-2
Scans to average: 1
Electric dark correction enabled: true
Nonlinearity correction enabled: false
Boxcar width: 0
XAxis mode: Wavelengths
Number of Pixels in Spectrum: 3648
>>>>>Begin Spectral Data<<<<<
178.204	-149.33
178.424	-149.33
178.644	-149.33
178.864	-145.24
179.084	-100.18
179.304	-5.97
179.524	-1.88
179.744	16.55
179.964	-10.07
180.184	-10.07
180.404	-40.79
180.624	32.94
180.844	-34.64
181.064	-69.46
181.283	69.8
181.503	6.31
181.723	47.27
181.943	-57.17
182.163	90.28
182.383	8.36
182.602	82.09
182.822	75.95
183.042	88.23
183.262	8.36
183.482	59.56
183.701	-24.4
183.921	80.04
184.141	-28.5
184.361	53.42
184.58	-42.84
184.8	-1.88
185.02	0.17
185.239	98.47
185.459	-8.02
185.679	41.13
185.898	-85.84
186.118	51.37
186.338	47.27
186.557	131.24
186.777	-42.84
186.997	30.89
187.216	75.95
187.436	137.38
187.655	86.19
187.875	24.75
188.095	24.75
188.314	10.41
188.534	121
188.753	14.51
188.973	18.6
189.192	82.09
189.412	98.47
189.631	30.89
189.851	8.36
190.07	67.75
190.29	45.23
190.509	47.27
190.729	37.03
190.948	123.05
191.168	186.54
191.387	92.33
191.607	-1.88
191.826	-28.5
192.045	63.66
192.265	80.04
192.484	51.37
192.704	8.36
192.923	-65.36
193.142	137.38
193.362	37.03
193.581	49.32
193.8	-16.21
194.02	22.7
194.239	57.51
194.458	63.66
194.678	10.41
194.897	-18.26
195.116	8.36
195.335	30.89
195.555	2.22
195.774	-26.45
195.993	86.19
196.212	51.37
196.432	-34.64
196.651	-59.22
196.87	10.41
197.089	151.72
197.308	34.99
197.528	47.27
197.747	22.7
197.966	-8.02
198.185	116.9
198.404	-34.64
198.623	-18.26
198.842	63.66
199.062	-5.97
199.281	39.08
199.5	26.79
199.719	59.56
199.938	84.14
200.157	77.99
200.376	84.14
200.595	73.9
200.814	-28.5
201.033	49.32
201.252	67.75
201.471	53.42
201.69	90.28
201.909	0.17
202.128	67.75
202.347	2.22
202.566	88.23
202.785	-26.45
203.004	92.33
203.223	104.62
203.442	75.95
203.661	47.27
203.879	41.13
204.098	12.46
204.317	39.08
204.536	147.62
204.755	24.75
204.974	80.04
205.193	41.13
205.411	125.1
205.63	24.75
205.849	-14.17
206.068	0.17
206.287	55.47
206.505	131.24
206.724	80.04
206.943	-8.02
207.162	8.36
207.381	30.89
207.599	39.08
207.818	65.71
208.037	-18.26
208.255	2.22
208.474	55.47
208.693	151.72
208.911	63.66
209.13	12.46
209.349	102.57
209.567	14.51
209.786	51.37
210.005	98.47
210.223	49.32
210.442	47.27
210.661	22.7
210.879	22.7
211.098	59.56
211.316	92.33
211.535	112.81
211.753	41.13
211.972	116.9
212.191	39.08
212.409	61.61
212.628	6.31
212.846	-26.45
213.065	71.85
213.283	65.71
213.502	14.51
213.72	104.62
213.938	10.41
214.157	16.55
214.375	86.19
214.594	63.66
214.812	-10.07
215.031	14.51
215.249	26.79
215.467	10.41
215.686	24.75
215.904	71.85
216.122	55.47
216.341	14.51
216.559	-26.45
216.778	137.38
216.996	22.7
217.214	39.08
217.432	-22.36
217.651	28.84
217.869	-18.26
218.087	75.95
218.306	-8.02
218.524	100.52
218.742	49.32
218.96	71.85
219.179	16.55
219.397	47.27
219.615	77.99
219.833	137.38
220.051	-26.45
220.27	82.09
220.488	71.85
220.706	71.85
220.924	-10.07
221.142	59.56
221.36	16.55
221.578	47.27
221.796	57.51
222.015	59.56
222.233	34.99
222.451	118.95
222.669	-14.17
222.887	30.89
223.105	14.51
223.323	30.89
223.541	16.55
223.759	104.62
223.977	24.75
224.195	123.05
224.413	112.81
224.631	6.31
224.849	71.85
225.067	39.08
225.285	16.55
225.503	47.27
225.721	-18.26
225.939	-1.88
226.157	22.7
226.375	137.38
226.592	-42.84
226.81	-10.07
227.028	30.89
227.246	153.77
227.464	30.89
227.682	90.28
227.9	112.81
228.117	112.81
228.335	4.27
228.553	34.99
228.771	-22.36
228.989	47.27
229.206	20.65
229.424	49.32
229.642	30.89
229.86	-16.21
230.077	90.28
230.295	63.66
230.513	18.6
230.731	8.36
230.948	57.51
231.166	96.43
231.384	39.08
231.601	116.9
231.819	88.23
232.037	80.04
232.254	20.65
232.472	57.51
232.689	30.89
232.907	39.08
233.125	47.27
233.342	39.08
233.56	12.46
233.777	-10.07
233.995	55.47
234.213	-1.88
234.43	30.89
234.648	59.56
234.865	63.66
235.083	71.85
235.3	39.08
235.518	0.17
235.735	98.47
235.953	57.51
236.17	26.79
236.388	77.99
236.605	80.04
236.822	51.37
237.04	30.89
237.257	26.79
237.475	82.09
237.692	-14.17
237.909	32.94
238.127	-1.88
238.344	45.23
238.562	24.75
238.779	102.57
238.996	-51.03
239.214	37.03
239.431	6.31
239.648	-14.17
239.865	-67.41
240.083	41.13
240.3	20.65
240.517	43.18
240.735	-10.07
240.952	-5.97
241.169	34.99
241.386	73.9
241.603	22.7
241.821	-18.26
242.038	77.99
242.255	41.13
242.472	18.6
242.689	41.13
242.907	69.8
243.124	32.94
243.341	73.9
243.558	51.37
243.775	30.89
243.992	6.31
244.209	-42.84
244.426	104.62
244.643	96.43
244.86	30.89
245.078	112.81
245.295	104.62
245.512	65.71
245.729	55.47
245.946	47.27
246.163	67.75
246.38	71.85
246.597	-10.07
246.814	32.94
247.031	-55.12
247.248	102.57
247.464	75.95
247.681	32.94
247.898	-8.02
248.115	67.75
248.332	-26.45
248.549	47.27
248.766	110.76
248.983	24.75
249.2	30.89
249.417	22.7
249.633	-16.21
249.85	2.22
250.067	75.95
250.284	75.95
250.501	45.23
250.717	104.62
250.934	-10.07
251.151	39.08
251.368	18.6
251.585	-5.97
251.801	-36.69
252.018	18.6
252.235	82.09
252.451	-10.07
252.668	8.36
252.885	104.62
253.102	0.17
253.318	67.75
253.535	180.39
253.752	16.55
253.968	12.46
254.185	12.46
254.401	2.22
254.618	104.62
254.835	-26.45
255.051	32.94
255.268	47.27
255.484	57.51
255.701	-8.02
255.917	92.33
256.134	30.89
256.351	47.27
256.567	0.17
256.784	57.51
257	14.51
257.217	-67.41
257.433	92.33
257.65	65.71
257.866	61.61
258.082	63.66
258.299	37.03
258.515	-1.88
258.732	4.27
258.948	-38.74
259.165	24.75
259.381	32.94
259.597	6.31
259.814	2.22
260.03	-10.07
260.246	-18.26
260.463	121
260.679	100.52
260.895	137.38
261.112	-79.7
261.328	43.18
261.544	39.08
261.761	100.52
261.977	16.55
262.193	-24.4
262.409	51.37
262.626	-16.21
262.842	-48.98
263.058	20.65
263.274	82.09
263.49	32.94
263.707	65.71
263.923	30.89
264.139	47.27
264.355	51.37
264.571	88.23
264.787	-10.07
265.004	73.9
265.22	-10.07
265.436	59.56
265.652	39.08
265.868	131.24
266.084	-20.31
266.3	82.09
266.516	-42.84
266.732	80.04
266.948	110.76
267.164	10.41
267.38	100.52
267.596	49.32
267.812	88.23
268.028	63.66
268.244	-10.07
268.46	-22.36
268.676	63.66
268.892	57.51
269.108	18.6
269.324	39.08
269.54	-1.88
269.756	84.14
269.972	2.22
270.188	34.99
270.403	30.89
270.619	41.13
270.835	39.08
271.051	39.08
271.267	57.51
271.483	-14.17
271.698	43.18
271.914	63.66
272.13	26.79
272.346	49.32
272.562	114.86
272.777	80.04
272.993	-14.17
273.209	22.7
273.425	53.42
273.64	14.51
273.856	47.27
274.072	6.31
274.287	-18.26
274.503	55.47
274.719	88.23
274.934	-24.4
275.15	-46.93
275.366	75.95
275.581	14.51
275.797	14.51
276.012	22.7
276.228	73.9
276.444	-79.7
276.659	82.09
276.875	-1.88
277.09	57.51
277.306	65.71
277.521	55.47
277.737	-5.97
277.952	100.52
278.168	75.95
278.383	57.51
278.599	16.55
278.814	104.62
279.03	96.43
279.245	16.55
279.461	-1.88
279.676	22.7
279.892	12.46
280.107	-10.07
280.322	-1.88
280.538	55.47
280.753	22.7
280.969	84.14
281.184	16.55
281.399	2.22
281.615	-26.45
281.83	30.89
282.045	47.27
282.26	6.31
282.476	43.18
282.691	39.08
282.906	-1.88
283.122	71.85
283.337	34.99
283.552	14.51
283.767	65.71
283.983	108.71
284.198	96.43
284.413	8.36
284.628	-3.93
284.843	88.23
285.058	88.23
285.274	55.47
285.489	8.36
285.704	18.6
285.919	-16.21
286.134	-1.88
286.349	43.18
286.564	-1.88
286.779	178.34
286.995	135.34
287.21	24.75
287.425	96.43
287.64	37.03
287.855	14.51
288.07	18.6
288.285	129.19
288.5	57.51
288.715	114.86
288.93	63.66
289.145	10.41
289.36	14.51
289.575	12.46
289.79	53.42
290.004	57.51
290.219	116.9
290.434	22.7
290.649	59.56
290.864	30.89
291.079	30.89
291.294	30.89
291.509	75.95
291.724	57.51
291.938	22.7
292.153	65.71
292.368	41.13
292.583	30.89
292.798	100.52
293.012	55.47
293.227	22.7
293.442	45.23
293.657	41.13
293.871	121
294.086	43.18
294.301	80.04
294.516	71.85
294.73	49.32
294.945	2.22
295.16	-18.26
295.374	112.81
295.589	71.85
295.804	6.31
296.018	80.04
296.233	133.29
296.447	-1.88
296.662	6.31
296.877	67.75
297.091	51.37
297.306	77.99
297.52	24.75
297.735	55.47
297.949	39.08
298.164	10.41
298.378	-18.26
298.593	129.19
298.807	26.79
299.022	8.36
299.236	96.43
299.451	2.22
299.665	20.65
299.88	69.8
300.094	57.51
300.309	47.27
300.523	80.04
300.737	14.51
300.952	30.89
301.166	118.95
301.381	22.7
301.595	16.55
301.809	84.14
302.024	6.31
302.238	71.85
302.452	14.51
302.667	-40.79
302.881	90.28
303.095	73.9
303.309	22.7
303.524	39.08
303.738	18.6
303.952	2.22
304.166	88.23
304.381	22.7
304.595	41.13
304.809	-14.17
305.023	63.66
305.237	-22.36
305.452	22.7
305.666	22.7
305.88	47.27
306.094	71.85
306.308	73.9
306.522	161.96
306.736	55.47
306.95	104.62
307.164	90.28
307.379	20.65
307.593	84.14
307.807	22.7
308.021	49.32
308.235	18.6
308.449	-5.97
308.663	-38.74
308.877	96.43
309.091	22.7
309.305	100.52
309.519	-22.36
309.733	24.75
309.947	12.46
310.161	32.94
310.374	22.7
310.588	67.75
310.802	14.51
311.016	63.66
311.23	63.66
311.444	6.31
311.658	30.89
311.872	80.04
312.085	16.55
312.299	121
312.513	55.47
312.727	112.81
312.941	-71.51
313.154	41.13
313.368	41.13
313.582	84.14
313.796	6.31
314.009	-38.74
314.223	41.13
314.437	47.27
314.651	84.14
314.864	12.46
315.078	16.55
315.292	-18.26
315.505	57.51
315.719	129.19
315.933	49.32
316.146	59.56
316.36	-46.93
316.573	73.9
316.787	45.23
317.001	37.03
317.214	47.27
317.428	8.36
317.641	73.9
317.855	47.27
318.068	26.79
318.282	39.08
318.495	112.81
318.709	47.27
318.922	14.51
319.136	174.25
319.349	98.47
319.563	37.03
319.776	55.47
319.99	24.75
320.203	63.66
320.417	80.04
320.63	94.38
320.843	67.75
321.057	114.86
321.27	57.51
321.483	-26.45
321.697	63.66
321.91	-5.97
322.124	55.47
322.337	84.14
322.55	-36.69
322.763	-18.26
322.977	-14.17
323.19	41.13
323.403	47.27
323.617	6.31
323.83	49.32
324.043	4.27
324.256	30.89
324.469	71.85
324.683	47.27
324.896	114.86
325.109	32.94
325.322	6.31
325.535	114.86
325.748	71.85
325.962	12.46
326.175	-5.97
326.388	112.81
326.601	49.32
326.814	47.27
327.027	30.89
327.24	98.47
327.453	-69.46
327.666	63.66
327.879	153.77
328.092	80.04
328.305	73.9
328.518	-30.55
328.731	30.89
328.944	55.47
329.157	30.89
329.37	49.32
329.583	92.33
329.796	59.56
330.009	-67.41
330.222	96.43
330.435	2.22
330.648	39.08
330.861	30.89
331.073	96.43
331.286	22.7
331.499	88.23
331.712	80.04
331.925	92.33
332.138	69.8
332.35	51.37
332.563	47.27
332.776	116.9
332.989	80.04
333.202	41.13
333.414	-18.26
333.627	34.99
333.84	8.36
334.053	55.47
334.265	80.04
334.478	-14.17
334.691	-1.88
334.903	10.41
335.116	69.8
335.329	20.65
335.541	106.67
335.754	59.56
335.966	16.55
336.179	14.51
336.392	63.66
336.604	71.85
336.817	96.43
337.029	90.28
337.242	61.61
337.454	34.99
337.667	90.28
337.88	18.6
338.092	102.57
338.305	92.33
338.517	65.71
338.729	96.43
338.942	110.76
339.154	-16.21
339.367	-14.17
339.579	8.36
339.792	-24.4
340.004	26.79
340.217	71.85
340.429	88.23
340.641	16.55
340.854	47.27
341.066	10.41
341.278	55.47
341.491	96.43
341.703	43.18
341.915	14.51
342.128	90.28
342.34	-8.02
342.552	67.75
342.764	39.08
342.977	51.37
343.189	14.51
343.401	22.7
343.613	88.23
343.826	41.13
344.038	71.85
344.25	39.08
344.462	-51.03
344.674	100.52
344.886	53.42
345.099	75.95
345.311	75.95
345.523	26.79
345.735	-5.97
345.947	125.1
346.159	8.36
346.371	22.7
346.583	-8.02
346.795	63.66
347.007	92.33
347.219	92.33
347.431	49.32
347.643	69.8
347.855	26.79
348.067	65.71
348.279	30.89
348.491	88.23
348.703	82.09
348.915	45.23
349.127	10.41
349.339	22.7
349.551	73.9
349.763	59.56
349.975	43.18
350.187	112.81
350.399	92.33
350.61	100.52
350.822	63.66
351.034	88.23
351.246	20.65
351.458	82.09
351.669	63.66
351.881	82.09
352.093	47.27
352.305	49.32
352.517	75.95
352.728	129.19
352.94	80.04
353.152	30.89
353.363	32.94
353.575	49.32
353.787	172.2
353.999	88.23
354.21	100.52
354.422	49.32
354.633	86.19
354.845	57.51
355.057	125.1
355.268	80.04
355.48	30.89
355.692	6.31
355.903	14.51
356.115	24.75
356.326	-1.88
356.538	57.51
356.749	-1.88
356.961	63.66
357.172	125.1
357.384	34.99
357.595	73.9
357.807	75.95
358.018	104.62
358.23	121
358.441	73.9
358.653	77.99
358.864	71.85
359.075	59.56
359.287	65.71
359.498	131.24
359.709	63.66
359.921	-10.07
360.132	26.79
360.344	96.43
360.555	47.27
360.766	20.65
360.977	80.04
361.189	94.38
361.4	-5.97
361.611	82.09
361.823	82.09
362.034	92.33
362.245	63.66
362.456	96.43
362.667	151.72
362.879	34.99
363.09	86.19
363.301	92.33
363.512	51.37
363.723	75.95
363.935	14.51
364.146	47.27
364.357	92.33
364.568	106.67
364.779	24.75
364.99	22.7
365.201	37.03
365.412	133.29
365.623	22.7
365.834	39.08
366.045	34.99
366.256	39.08
366.467	24.75
366.678	43.18
366.889	116.9
367.1	51.37
367.311	108.71
367.522	63.66
367.733	24.75
367.944	114.86
368.155	22.7
368.366	39.08
368.577	77.99
368.788	131.24
368.999	0.17
369.209	-44.88
369.42	123.05
369.631	71.85
369.842	71.85
370.053	104.62
370.264	80.04
370.474	34.99
370.685	37.03
370.896	39.08
371.107	71.85
371.317	43.18
371.528	-12.12
371.739	98.47
371.95	-5.97
372.16	65.71
372.371	32.94
372.582	39.08
372.792	106.67
373.003	84.14
373.214	73.9
373.424	161.96
373.635	47.27
373.846	82.09
374.056	75.95
374.267	41.13
374.477	161.96
374.688	67.75
374.898	55.47
375.109	6.31
375.319	106.67
375.53	178.34
375.74	39.08
375.951	65.71
376.161	2.22
376.372	123.05
376.582	-14.17
376.793	73.9
377.003	10.41
377.214	55.47
377.424	67.75
377.635	22.7
377.845	-10.07
378.055	75.95
378.266	28.84
378.476	59.56
378.686	14.51
378.897	80.04
379.107	110.76
379.317	32.94
379.528	121
379.738	45.23
379.948	10.41
380.158	131.24
380.369	84.14
380.579	71.85
380.789	0.17
380.999	88.23
381.21	123.05
381.42	145.58
381.63	116.9
381.84	47.27
382.05	71.85
382.261	108.71
382.471	65.71
382.681	41.13
382.891	178.34
383.101	94.38
383.311	100.52
383.521	39.08
383.731	8.36
383.941	174.25
384.151	51.37
384.361	49.32
384.571	67.75
384.781	82.09
384.991	129.19
385.201	145.58
385.411	77.99
385.621	116.9
385.831	100.52
386.041	34.99
386.251	71.85
386.461	131.24
386.671	65.71
386.881	75.95
387.091	112.81
387.301	106.67
387.511	139.43
387.72	65.71
387.93	80.04
388.14	116.9
388.35	137.38
388.56	104.62
388.769	80.04
388.979	110.76
389.189	75.95
389.399	71.85
389.609	116.9
389.818	69.8
390.028	80.04
390.238	147.62
390.447	41.13
390.657	88.23
390.867	88.23
391.076	67.75
391.286	121
391.496	65.71
391.705	131.24
391.915	73.9
392.125	100.52
392.334	143.53
392.544	131.24
392.753	118.95
392.963	57.51
393.172	164.01
393.382	67.75
393.591	137.38
393.801	96.43
394.01	133.29
394.22	59.56
394.429	67.75
394.639	71.85
394.848	61.61
395.058	2.22
395.267	80.04
395.477	82.09
395.686	121
395.895	157.86
396.105	178.34
396.314	129.19
396.524	121
396.733	96.43
396.942	172.2
397.152	161.96
397.361	108.71
397.57	106.67
397.78	96.43
397.989	170.15
398.198	227.5
398.407	63.66
398.617	49.32
398.826	174.25
399.035	121
399.244	129.19
399.453	133.29
399.663	196.78
399.872	155.82
400.081	94.38
400.29	161.96
400.499	26.79
400.708	180.39
400.917	57.51
401.127	100.52
401.336	180.39
401.545	159.91
401.754	170.15
401.963	88.23
402.172	245.93
402.381	170.15
402.59	143.53
402.799	172.2
403.008	147.62
403.217	227.5
403.426	147.62
403.635	102.57
403.844	102.57
404.053	139.43
404.262	157.86
404.471	235.69
404.68	194.73
404.888	243.88
405.097	170.15
405.306	153.77
405.515	219.3
405.724	190.63
405.933	235.69
406.142	239.78
406.35	219.3
406.559	223.4
406.768	237.74
406.977	309.41
407.185	284.84
407.394	301.22
407.603	252.07
407.812	170.15
408.02	254.12
408.229	293.03
408.438	280.74
408.646	288.93
408.855	309.41
409.064	336.04
409.272	260.26
409.481	379.04
409.69	270.5
409.898	417.96
410.107	393.38
410.315	358.57
410.524	487.59
410.733	469.16
410.941	395.43
411.15	522.4
411.358	485.54
411.567	614.56
411.775	546.98
411.984	493.73
412.192	549.03
412.401	557.22
412.609	755.87
412.818	735.39
413.026	602.27
413.234	606.37
413.443	637.09
413.651	700.58
413.86	676
414.068	825.5
414.276	819.36
414.485	749.73
414.693	800.93
414.901	886.94
415.11	841.89
415.318	934.04
415.526	936.09
415.734	907.42
415.943	1038.49
416.151	999.58
416.359	1120.41
416.567	1136.79
416.776	1267.86
416.984	1237.14
417.192	1308.82
417.4	1196.18
417.608	1202.33
417.817	1423.51
418.025	1288.34
418.233	1497.24
418.441	1499.28
418.649	1595.54
418.857	1693.84
419.065	1689.74
419.273	1607.83
419.481	1671.31
419.689	1896.59
419.897	1890.45
420.105	1982.6
420.313	1941.65
420.521	2089.1
420.729	2037.9
420.937	2152.59
421.145	2232.46
421.353	2386.05
421.561	2431.11
421.769	2410.63
421.977	2601.09
422.185	2625.67
422.393	2730.11
422.601	2873.47
422.809	2852.99
423.017	2891.9
423.224	3037.31
423.432	3086.46
423.64	3205.24
423.848	3508.34
424.056	3332.22
424.263	3620.98
424.471	3594.36
424.679	3817.58
424.887	3889.26
425.094	3856.5
425.302	4032.62
425.51	4032.62
425.718	4235.37
425.925	4204.65
426.133	4448.36
426.341	4810.85
426.548	4888.67
426.756	4913.25
426.964	4966.49
427.171	5455.96
427.379	5470.3
427.586	5462.1
427.794	5619.8
428.001	5701.72
428.209	6174.8
428.417	6109.26
428.624	6549.57
428.832	6570.05
429.039	6463.56
429.247	6393.93
429.454	6832.19
429.662	7637.05
429.869	7186.49
430.076	7473.21
430.284	7438.39
430.491	7809.08
430.699	8110.13
430.906	8122.41
431.114	8161.33
431.321	8568.87
431.528	8675.37
431.736	9187.36
431.943	9549.85
432.15	9183.26
432.358	9420.83
432.565	9969.68
432.772	9791.51
432.979	10332.17
433.187	10358.8
433.394	10608.65
433.601	11225.09
433.808	11368.45
434.016	11415.55
434.223	11986.93
434.43	12556.27
434.637	12527.6
434.844	12918.76
435.052	13058.02
435.259	13184.99
435.466	13524.96
435.673	13205.47
435.88	14276.56
436.087	14757.83
436.294	14579.66
436.501	14452.69
436.708	14708.68
436.915	15267.78
437.122	16005.05
437.329	15843.26
437.537	16648.11
437.743	16787.37
437.95	16365.49
438.157	17225.64
438.364	17850.27
438.571	17831.83
438.778	17999.77
438.985	19163.01
439.192	18913.16
439.399	19392.39
439.606	19023.75
439.813	20191.09
440.02	21636.96
440.227	20891.5
440.433	20531.06
440.64	21342.05
440.847	20993.9
441.054	21700.45
441.261	23369.54
441.467	22978.38
441.674	23494.47
441.881	23977.79
442.088	23988.03
442.294	23938.88
442.501	24303.42
442.708	24926
442.914	26097.44
443.121	26971.92
443.328	25896.74
443.534	28053.25
443.741	27518.73
443.948	26947.34
444.154	29003.5
444.361	28595.96
444.568	29054.7
444.774	28888.82
444.981	29433.58
445.187	30111.46
445.394	31168.21
445.6	31125.2
445.807	33762.98
446.013	32534.2
446.22	32677.56
446.426	34606.75
446.633	34602.65
446.839	35643.02
447.046	34242.21
447.252	35993.22
447.459	36181.63
447.665	36060.8
447.871	37678.7
448.078	39143
448.284	37308.02
448.491	38356.58
448.697	39990.86
448.903	40404.55
449.11	40867.39
449.316	39929.42
449.522	40779.32
449.728	41592.37
449.935	42112.55
450.141	42153.51
450.347	43075.1
450.553	41377.33
450.76	42241.57
450.966	43103.77
451.172	43247.13
451.378	44467.72
451.584	43068.95
451.791	44430.85
451.997	44723.71
452.203	45037.05
452.409	44994.04
452.615	44893.69
452.821	43494.93
453.027	42759.71
453.233	44727.81
453.44	42958.36
453.646	43732.5
453.852	43363.86
454.058	44307.97
454.264	43056.67
454.47	43888.14
454.676	43224.6
454.882	44465.67
455.088	40431.17
455.294	41334.32
455.5	41926.19
455.705	42626.59
455.911	41092.66
456.117	39865.93
456.323	39792.2
456.529	37146.23
456.735	38934.1
456.941	38059.62
457.147	37258.87
457.352	36382.34
457.558	35800.71
457.764	35853.96
457.97	35389.07
458.176	34666.14
458.381	34201.25
458.587	32962.23
458.793	32724.66
458.999	31000.27
459.204	33400.49
459.41	32614.07
459.616	30254.81
459.821	30293.72
460.027	30424.79
460.233	29437.67
460.438	28180.22
460.644	28206.84
460.85	27037.45
461.055	26685.2
461.261	26543.89
461.466	24592.18
461.672	23942.97
461.878	25360.17
462.083	23883.58
462.289	23447.36
462.494	23035.72
462.7	22421.33
462.905	21770.08
463.111	22312.79
463.316	22570.83
463.522	21733.22
463.727	21639.01
463.932	22003.55
464.138	21722.98
464.343	21749.6
464.549	21243.75
464.754	21591.91
464.959	21749.6
465.165	21450.6
465.37	20031.35
465.575	19933.05
465.781	20670.32
465.986	20907.88
466.191	19879.8
466.397	19642.24
466.602	18753.42
466.807	19451.78
