Data from USB4F104151__101__14-30-52-067.txt Node

Date: Thu Mar 13 14:30:52 EDT 2025
User: louis
Spectrometer: USB4F10415
Trigger mode: 4
Integration Time (sec): 2.500000E-2
Scans to average: 1
Electric dark correction enabled: true
Nonlinearity correction enabled: false
Boxcar width: 0
XAxis mode: Wavelengths
Number of Pixels in Spectrum: 3648
>>>>>Begin Spectral Data<<<<<
178.204	-146.26
178.424	-146.26
178.644	-146.26
178.864	-166.74
179.084	-179.03
179.304	-2.9
179.524	7.34
179.744	17.58
179.964	17.58
180.184	-82.77
180.404	11.43
180.624	-19.29
180.844	27.82
181.064	-23.38
181.283	1.19
181.503	27.82
181.723	17.58
181.943	-29.52
182.163	9.39
182.383	5.29
182.602	42.15
182.822	79.02
183.042	-31.57
183.262	17.58
183.482	27.82
183.701	42.15
183.921	46.25
184.141	9.39
184.361	66.73
184.58	-31.57
184.8	21.67
185.02	19.63
185.239	91.31
185.459	-13.14
185.679	50.35
185.898	11.43
186.118	109.74
186.338	79.02
186.557	29.87
186.777	21.67
186.997	-7
187.216	-2.9
187.436	54.44
187.655	21.67
187.875	93.35
188.095	3.24
188.314	64.68
188.534	107.69
188.753	25.77
188.973	-37.72
189.192	132.26
189.412	66.73
189.631	42.15
189.851	-11.09
190.07	66.73
190.29	-7
190.509	25.77
190.729	-7
190.948	99.5
191.168	115.88
191.387	58.54
191.607	29.87
191.826	66.73
192.045	62.63
192.265	-47.96
192.484	-27.48
192.704	109.74
192.923	17.58
193.142	134.31
193.362	60.59
193.581	146.6
193.8	50.35
194.02	74.92
194.239	44.2
194.458	66.73
194.678	33.96
194.897	42.15
195.116	33.96
195.335	27.82
195.555	27.82
195.774	-21.33
195.993	132.26
196.212	11.43
196.432	27.82
196.651	85.16
196.87	-39.76
197.089	66.73
197.308	38.06
197.528	-13.14
197.747	-11.09
197.966	25.77
198.185	138.41
198.404	50.35
198.623	1.19
198.842	21.67
199.062	31.91
199.281	87.21
199.5	3.24
199.719	105.64
199.938	66.73
200.157	74.92
200.376	58.54
200.595	42.15
200.814	17.58
201.033	27.82
201.252	44.2
201.471	27.82
201.69	66.73
201.909	66.73
202.128	21.67
202.347	52.39
202.566	72.87
202.785	-7
203.004	-31.57
203.223	72.87
203.442	33.96
203.661	19.63
203.879	31.91
204.098	50.35
204.317	15.53
204.536	60.59
204.755	50.35
204.974	44.2
205.193	68.78
205.411	11.43
205.63	25.77
205.849	91.31
206.068	42.15
206.287	1.19
206.505	11.43
206.724	33.96
206.943	-4.95
207.162	7.34
207.381	66.73
207.599	62.63
207.818	17.58
208.037	-23.38
208.255	-0.85
208.474	-2.9
208.693	58.54
208.911	23.72
209.13	66.73
209.349	83.11
209.567	-7
209.786	70.83
210.005	52.39
210.223	33.96
210.442	42.15
210.661	50.35
210.879	-15.19
211.098	-31.57
211.316	52.39
211.535	56.49
211.753	36.01
211.972	9.39
212.191	9.39
212.409	-54.1
212.628	15.53
212.846	3.24
213.065	58.54
213.283	142.5
213.502	11.43
213.72	54.44
213.938	40.11
214.157	17.58
214.375	105.64
214.594	42.15
214.812	7.34
215.031	17.58
215.249	91.31
215.467	13.48
215.686	40.11
215.904	72.87
216.122	-2.9
216.341	87.21
216.559	17.58
216.778	33.96
216.996	111.78
217.214	-19.29
217.432	-27.48
217.651	-7
217.869	101.55
218.087	72.87
218.306	79.02
218.524	74.92
218.742	-15.19
218.96	38.06
219.179	58.54
219.397	11.43
219.615	93.35
219.833	46.25
220.051	3.24
220.27	60.59
220.488	50.35
220.706	-23.38
220.924	-39.76
221.142	-54.1
221.36	-7
221.578	42.15
221.796	52.39
222.015	9.39
222.233	11.43
222.451	79.02
222.669	29.87
222.887	31.91
223.105	-15.19
223.323	-39.76
223.541	81.07
223.759	91.31
223.977	50.35
224.195	101.55
224.413	17.58
224.631	52.39
224.849	66.73
225.067	31.91
225.285	52.39
225.503	-45.91
225.721	13.48
225.939	-21.33
226.157	36.01
226.375	62.63
226.592	93.35
226.81	-11.09
227.028	87.21
227.246	85.16
227.464	36.01
227.682	-11.09
227.9	17.58
228.117	44.2
228.335	40.11
228.553	38.06
228.771	42.15
228.989	76.97
229.206	29.87
229.424	21.67
229.642	58.54
229.86	64.68
230.077	27.82
230.295	150.7
230.513	101.55
230.731	44.2
230.948	152.74
231.166	27.82
231.384	-15.19
231.601	1.19
231.819	148.65
232.037	-19.29
232.254	-68.44
232.472	42.15
232.689	25.77
232.907	93.35
233.125	-13.14
233.342	5.29
233.56	66.73
233.777	38.06
233.995	50.35
234.213	3.24
234.43	54.44
234.648	-27.48
234.865	-2.9
235.083	50.35
235.3	-4.95
235.518	-7
235.735	83.11
235.953	-15.19
236.17	-39.76
236.388	113.83
236.605	79.02
236.822	38.06
237.04	142.5
237.257	60.59
237.475	17.58
237.692	99.5
237.909	76.97
238.127	52.39
238.344	1.19
238.562	52.39
238.779	9.39
238.996	33.96
239.214	1.19
239.431	58.54
239.648	5.29
239.865	91.31
240.083	58.54
240.3	-0.85
240.517	-31.57
240.735	83.11
240.952	101.55
241.169	42.15
241.386	-7
241.603	7.34
241.821	-15.19
242.038	42.15
242.255	60.59
242.472	50.35
242.689	29.87
242.907	85.16
243.124	13.48
243.341	83.11
243.558	33.96
243.775	11.43
243.992	38.06
244.209	42.15
244.426	52.39
244.643	70.83
244.86	11.43
245.078	38.06
245.295	-25.43
245.512	74.92
245.729	25.77
245.946	36.01
246.163	42.15
246.38	62.63
246.597	33.96
246.814	-23.38
247.031	9.39
247.248	9.39
247.464	7.34
247.681	103.59
247.898	21.67
248.115	58.54
248.332	17.58
248.549	101.55
248.766	91.31
248.983	21.67
249.2	54.44
249.417	76.97
249.633	85.16
249.85	17.58
250.067	-47.96
250.284	-11.09
250.501	95.4
250.717	68.78
250.934	50.35
251.151	44.2
251.368	21.67
251.585	21.67
251.801	-13.14
252.018	1.19
252.235	66.73
252.451	70.83
252.668	76.97
252.885	85.16
253.102	87.21
253.318	74.92
253.535	36.01
253.752	15.53
253.968	31.91
254.185	5.29
254.401	54.44
254.618	58.54
254.835	-2.9
255.051	11.43
255.268	83.11
255.484	107.69
255.701	-4.95
255.917	99.5
256.134	58.54
256.351	44.2
256.567	1.19
256.784	13.48
257	25.77
257.217	50.35
257.433	97.45
257.65	25.77
257.866	87.21
258.082	17.58
258.299	36.01
258.515	1.19
258.732	3.24
258.948	42.15
259.165	50.35
259.381	50.35
259.597	33.96
259.814	83.11
260.03	54.44
260.246	33.96
260.463	58.54
260.679	119.98
260.895	23.72
261.112	72.87
261.328	111.78
261.544	17.58
261.761	115.88
261.977	3.24
262.193	-27.48
262.409	-7
262.626	68.78
262.842	-47.96
263.058	27.82
263.274	91.31
263.49	105.64
263.707	38.06
263.923	70.83
264.139	17.58
264.355	95.4
264.571	-21.33
264.787	91.31
265.004	115.88
265.22	13.48
265.436	74.92
265.652	42.15
265.868	36.01
266.084	-7
266.3	42.15
266.516	17.58
266.732	-15.19
266.948	-7
267.164	58.54
267.38	97.45
267.596	38.06
267.812	107.69
268.028	60.59
268.244	42.15
268.46	91.31
268.676	99.5
268.892	50.35
269.108	74.92
269.324	23.72
269.54	-4.95
269.756	101.55
269.972	-70.48
270.188	76.97
270.403	29.87
270.619	52.39
270.835	46.25
271.051	85.16
271.267	54.44
271.483	-15.19
271.698	-23.38
271.914	103.59
272.13	33.96
272.346	66.73
272.562	3.24
272.777	-4.95
272.993	-29.52
273.209	13.48
273.425	72.87
273.64	-23.38
273.856	81.07
274.072	17.58
274.287	46.25
274.503	85.16
274.719	46.25
274.934	-0.85
275.15	15.53
275.366	109.74
275.581	11.43
275.797	66.73
276.012	42.15
276.228	25.77
276.444	27.82
276.659	117.93
276.875	42.15
277.09	62.63
277.306	58.54
277.521	48.3
277.737	40.11
277.952	83.11
278.168	42.15
278.383	-29.52
278.599	29.87
278.814	165.03
279.03	11.43
279.245	193.7
279.461	19.63
279.676	70.83
279.892	33.96
280.107	1.19
280.322	136.36
280.538	-4.95
280.753	19.63
280.969	95.4
281.184	93.35
281.399	74.92
281.615	-7
281.83	50.35
282.045	-7
282.26	56.49
282.476	27.82
282.691	60.59
282.906	87.21
283.122	42.15
283.337	-2.9
283.552	70.83
283.767	-2.9
283.983	1.19
284.198	19.63
284.413	33.96
284.628	-39.76
284.843	33.96
285.058	-2.9
285.274	79.02
285.489	-21.33
285.704	76.97
285.919	-4.95
286.134	52.39
286.349	25.77
286.564	44.2
286.779	148.65
286.995	36.01
287.21	60.59
287.425	21.67
287.64	27.82
287.855	74.92
288.07	68.78
288.285	42.15
288.5	132.26
288.715	-15.19
288.93	9.39
289.145	25.77
289.36	103.59
289.575	7.34
289.79	50.35
290.004	122.02
290.219	29.87
290.434	60.59
290.649	11.43
290.864	46.25
291.079	23.72
291.294	83.11
291.509	42.15
291.724	17.58
291.938	-23.38
292.153	60.59
292.368	83.11
292.583	-19.29
292.798	50.35
293.012	15.53
293.227	42.15
293.442	-4.95
293.657	17.58
293.871	50.35
294.086	83.11
294.301	109.74
294.516	1.19
294.73	21.67
294.945	-27.48
295.16	50.35
295.374	5.29
295.589	130.22
295.804	-37.72
296.018	-27.48
296.233	68.78
296.447	83.11
296.662	11.43
296.877	79.02
297.091	-7
297.306	38.06
297.52	66.73
297.735	52.39
297.949	66.73
298.164	115.88
298.378	33.96
298.593	44.2
298.807	-21.33
299.022	46.25
299.236	85.16
299.451	15.53
299.665	-56.15
299.88	11.43
300.094	60.59
300.309	50.35
300.523	1.19
300.737	50.35
300.952	11.43
301.166	52.39
301.381	5.29
301.595	13.48
301.809	-19.29
302.024	68.78
302.238	19.63
302.452	46.25
302.667	42.15
302.881	70.83
303.095	74.92
303.309	68.78
303.524	50.35
303.738	33.96
303.952	54.44
304.166	66.73
304.381	-23.38
304.595	132.26
304.809	62.63
305.023	19.63
305.237	-25.43
305.452	-21.33
305.666	33.96
305.88	197.8
306.094	44.2
306.308	60.59
306.522	56.49
306.736	140.46
306.95	117.93
307.164	42.15
307.379	-7
307.593	179.37
307.807	70.83
308.021	56.49
308.235	126.12
308.449	33.96
308.663	-39.76
308.877	60.59
309.091	109.74
309.305	54.44
309.519	5.29
309.733	124.07
309.947	-29.52
310.161	140.46
310.374	25.77
310.588	101.55
310.802	11.43
311.016	58.54
311.23	70.83
311.444	-7
311.658	-15.19
311.872	87.21
312.085	91.31
312.299	74.92
312.513	40.11
312.727	85.16
312.941	21.67
313.154	85.16
313.368	-2.9
313.582	1.19
313.796	58.54
314.009	44.2
314.223	70.83
314.437	56.49
314.651	76.97
314.864	25.77
315.078	3.24
315.292	64.68
315.505	-4.95
315.719	60.59
315.933	15.53
316.146	19.63
316.36	31.91
316.573	111.78
316.787	70.83
317.001	83.11
317.214	3.24
317.428	36.01
317.641	50.35
317.855	76.97
318.068	40.11
318.282	46.25
318.495	124.07
318.709	58.54
318.922	-23.38
319.136	91.31
319.349	36.01
319.563	52.39
319.776	25.77
319.99	76.97
320.203	95.4
320.417	99.5
320.63	91.31
320.843	132.26
321.057	58.54
321.27	33.96
321.483	68.78
321.697	1.19
321.91	1.19
322.124	52.39
322.337	58.54
322.55	60.59
322.763	70.83
322.977	38.06
323.19	27.82
323.403	83.11
323.617	60.59
323.83	29.87
324.043	50.35
324.256	58.54
324.469	17.58
324.683	29.87
324.896	152.74
325.109	91.31
325.322	-11.09
325.535	42.15
325.748	62.63
325.962	117.93
326.175	1.19
326.388	21.67
326.601	119.98
326.814	58.54
327.027	25.77
327.24	107.69
327.453	9.39
327.666	74.92
327.879	111.78
328.092	-7
328.305	54.44
328.518	38.06
328.731	15.53
328.944	107.69
329.157	1.19
329.37	25.77
329.583	101.55
329.796	144.55
330.009	56.49
330.222	31.91
330.435	93.35
330.648	33.96
330.861	85.16
331.073	74.92
331.286	101.55
331.499	74.92
331.712	-29.52
331.925	9.39
332.138	124.07
332.35	160.94
332.563	33.96
332.776	17.58
332.989	13.48
333.202	87.21
333.414	68.78
333.627	126.12
333.84	62.63
334.053	115.88
334.265	70.83
334.478	-21.33
334.691	48.3
334.903	19.63
335.116	44.2
335.329	58.54
335.541	74.92
335.754	142.5
335.966	66.73
336.179	33.96
336.392	-19.29
336.604	36.01
336.817	109.74
337.029	11.43
337.242	40.11
337.454	95.4
337.667	7.34
337.88	87.21
338.092	74.92
338.305	74.92
338.517	-41.81
338.729	156.84
338.942	36.01
339.154	13.48
339.367	19.63
339.579	93.35
339.792	-52.05
340.004	66.73
340.217	11.43
340.429	50.35
340.641	33.96
340.854	44.2
341.066	79.02
341.278	50.35
341.491	58.54
341.703	-7
341.915	-29.52
342.128	109.74
342.34	50.35
342.552	42.15
342.764	33.96
342.977	-23.38
343.189	97.45
343.401	-7
343.613	-21.33
343.826	36.01
344.038	27.82
344.25	68.78
344.462	99.5
344.674	9.39
344.886	109.74
345.099	17.58
345.311	132.26
345.523	5.29
345.735	-23.38
345.947	58.54
346.159	3.24
346.371	70.83
346.583	23.72
346.795	91.31
347.007	64.68
347.219	95.4
347.431	52.39
347.643	46.25
347.855	44.2
348.067	50.35
348.279	-54.1
348.491	44.2
348.703	42.15
348.915	72.87
349.127	83.11
349.339	101.55
349.551	130.22
349.763	68.78
349.975	160.94
350.187	-15.19
350.399	68.78
350.61	79.02
350.822	44.2
351.034	91.31
351.246	99.5
351.458	48.3
351.669	91.31
351.881	70.83
352.093	38.06
352.305	64.68
352.517	85.16
352.728	48.3
352.94	83.11
353.152	66.73
353.363	79.02
353.575	76.97
353.787	124.07
353.999	-13.14
354.21	117.93
354.422	25.77
354.633	50.35
354.845	40.11
355.057	72.87
355.268	74.92
355.48	93.35
355.692	-11.09
355.903	-41.81
356.115	83.11
356.326	36.01
356.538	101.55
356.749	60.59
356.961	58.54
357.172	33.96
357.384	58.54
357.595	113.83
357.807	76.97
358.018	83.11
358.23	-23.38
358.441	95.4
358.653	33.96
358.864	27.82
359.075	93.35
359.287	85.16
359.498	54.44
359.709	83.11
359.921	167.08
360.132	-4.95
360.344	60.59
360.555	21.67
360.766	38.06
360.977	33.96
361.189	105.64
361.4	-4.95
361.611	74.92
361.823	107.69
362.034	21.67
362.245	87.21
362.456	7.34
362.667	130.22
362.879	99.5
363.09	105.64
363.301	117.93
363.512	76.97
363.723	64.68
363.935	-7
364.146	66.73
364.357	-27.48
364.568	29.87
364.779	7.34
364.99	11.43
365.201	44.2
365.412	25.77
365.623	11.43
365.834	64.68
366.045	74.92
366.256	54.44
366.467	36.01
366.678	64.68
366.889	66.73
367.1	36.01
367.311	33.96
367.522	128.17
367.733	58.54
367.944	13.48
368.155	33.96
368.366	99.5
368.577	122.02
368.788	91.31
368.999	42.15
369.209	91.31
369.42	134.31
369.631	107.69
369.842	99.5
370.053	52.39
370.264	101.55
370.474	46.25
370.685	9.39
370.896	60.59
371.107	95.4
371.317	72.87
371.528	58.54
371.739	79.02
371.95	107.69
372.16	-4.95
372.371	70.83
372.582	25.77
372.792	115.88
373.003	36.01
373.214	128.17
373.424	36.01
373.635	79.02
373.846	128.17
374.056	109.74
374.267	107.69
374.477	36.01
374.688	42.15
374.898	52.39
375.109	79.02
375.319	25.77
375.53	68.78
375.74	58.54
375.951	119.98
376.161	76.97
376.372	115.88
376.582	-64.34
376.793	42.15
377.003	50.35
377.214	17.58
377.424	70.83
377.635	44.2
377.845	17.58
378.055	126.12
378.266	52.39
378.476	91.31
378.686	85.16
378.897	38.06
379.107	111.78
379.317	44.2
379.528	13.48
379.738	136.36
379.948	42.15
380.158	140.46
380.369	7.34
380.579	33.96
380.789	3.24
380.999	124.07
381.21	103.59
381.42	132.26
381.63	60.59
381.84	33.96
382.05	44.2
382.261	85.16
382.471	132.26
382.681	50.35
382.891	175.27
383.101	74.92
383.311	27.82
383.521	83.11
383.731	103.59
383.941	107.69
384.151	81.07
384.361	17.58
384.571	126.12
384.781	115.88
384.991	33.96
385.201	83.11
385.411	177.32
385.621	148.65
385.831	107.69
386.041	99.5
386.251	95.4
386.461	107.69
386.671	91.31
386.881	66.73
387.091	36.01
387.301	156.84
387.511	93.35
387.72	31.91
387.93	109.74
388.14	27.82
388.35	66.73
388.56	50.35
388.769	50.35
388.979	107.69
389.189	54.44
389.399	50.35
389.609	76.97
389.818	87.21
390.028	76.97
390.238	115.88
390.447	42.15
390.657	27.82
390.867	11.43
391.076	21.67
391.286	124.07
391.496	144.55
391.705	76.97
391.915	85.16
392.125	36.01
392.334	81.07
392.544	107.69
392.753	58.54
392.963	36.01
393.172	124.07
393.382	36.01
393.591	103.59
393.801	79.02
394.01	185.51
394.22	132.26
394.429	117.93
394.639	85.16
394.848	93.35
395.058	93.35
395.267	81.07
395.477	134.31
395.686	52.39
395.895	173.22
396.105	173.22
396.314	144.55
396.524	183.46
396.733	107.69
396.942	138.41
397.152	109.74
397.361	79.02
397.57	117.93
397.78	173.22
397.989	99.5
398.198	205.99
398.407	101.55
398.617	201.9
398.826	95.4
399.035	83.11
399.244	87.21
399.453	148.65
399.663	115.88
399.872	167.08
400.081	115.88
400.29	158.89
400.499	124.07
400.708	175.27
400.917	210.09
401.127	238.76
401.336	83.11
401.545	267.43
401.754	195.75
401.963	158.89
402.172	119.98
402.381	146.6
402.59	228.52
402.799	201.9
403.008	140.46
403.217	167.08
403.426	173.22
403.635	177.32
403.844	185.51
404.053	185.51
404.262	156.84
404.471	242.85
404.68	214.18
404.888	130.22
405.097	199.85
405.306	171.18
405.515	230.57
405.724	214.18
405.933	267.43
406.142	292.01
406.35	283.81
406.559	181.42
406.768	220.33
406.977	240.81
407.185	324.77
407.394	251.05
407.603	263.33
407.812	249
408.02	341.16
408.229	386.21
408.438	234.66
408.646	316.58
408.855	306.34
409.064	332.97
409.272	312.49
409.481	396.45
409.69	418.98
409.898	373.92
410.107	470.18
410.315	421.03
410.524	511.14
410.733	421.03
410.941	445.6
411.15	429.22
411.358	421.03
411.567	607.39
411.775	601.25
411.984	484.52
412.192	517.28
412.401	674.98
412.609	679.07
412.818	726.18
413.026	631.97
413.234	636.06
413.443	689.31
413.651	738.46
413.86	881.82
414.068	836.77
414.276	877.73
414.485	896.16
414.693	851.1
414.901	1000.6
415.11	1010.84
415.318	922.78
415.526	922.78
415.734	1070.23
415.943	1074.33
416.151	1201.3
416.359	1074.33
416.567	1176.73
416.776	1240.22
416.984	1410.2
417.192	1387.67
417.4	1365.14
417.608	1313.94
417.817	1488.02
418.025	1477.78
418.233	1483.92
418.441	1524.88
418.649	1725.58
418.857	1762.45
419.065	1768.59
419.273	1821.84
419.481	1950.86
419.689	1993.87
419.897	1971.34
420.105	2032.78
420.313	2163.85
420.521	2210.95
420.729	2311.3
420.937	2317.45
421.145	2354.31
421.353	2395.27
421.561	2638.98
421.769	2784.38
421.977	2786.43
422.185	2925.69
422.393	2952.32
422.601	3114.11
422.809	3040.38
423.017	3056.76
423.224	3310.71
423.432	3542.13
423.64	3437.69
423.848	3736.69
424.056	3662.96
424.263	3941.49
424.471	3886.19
424.679	4007.02
424.887	4209.77
425.094	4248.68
425.302	4375.66
425.51	4404.33
425.718	4566.12
425.925	4768.87
426.133	4772.96
426.341	5170.27
426.548	5346.39
426.756	5434.46
426.964	5356.63
427.171	5751.89
427.379	5686.36
427.586	5925.97
427.794	6210.64
428.001	6360.14
428.209	6685.76
428.417	6659.14
428.624	7193.66
428.832	7103.55
429.039	7197.76
429.247	7048.26
429.454	7711.8
429.662	8143.92
429.869	7468.09
430.076	8367.15
430.284	7726.13
430.491	8318
430.699	8657.96
430.906	8666.15
431.114	8969.25
431.321	9118.75
431.528	9606.17
431.736	10087.44
431.943	10535.95
432.15	10105.87
432.358	10394.64
432.565	10976.26
432.772	10789.89
432.979	11240.45
433.187	11432.96
433.394	11580.41
433.601	12227.57
433.808	12368.88
434.016	12309.49
434.223	12891.11
434.43	13673.43
434.637	13358.05
434.844	14328.78
435.052	14433.23
435.259	14392.27
435.466	14582.73
435.673	14531.53
435.88	15193.03
436.087	16122.8
436.294	15967.16
436.501	15852.47
436.708	16042.93
436.915	16466.86
437.122	17189.8
437.329	17116.07
437.537	17664.93
437.743	17750.94
437.95	17732.51
438.157	18801.55
438.364	19139.46
438.571	19266.44
438.778	19598.21
438.985	21267.3
439.192	20501.36
439.399	21189.48
439.606	20611.95
439.813	21539.68
440.02	22944.59
440.227	22567.76
440.433	22254.42
440.64	22971.21
440.847	23012.17
441.054	23776.06
441.261	25027.37
441.467	24847.15
441.674	25449.25
441.881	26172.19
442.088	26112.8
442.294	25846.56
442.501	26770.19
442.708	27230.99
442.914	28173.05
443.121	29481.7
443.328	28517.11
443.534	30108.38
443.741	29762.28
443.948	29416.17
444.154	31494.86
444.361	31087.31
444.568	31353.55
444.774	31390.41
444.981	31748.81
445.187	32514.75
445.394	33987.24
445.6	33313.45
445.807	36690.55
446.013	34822.81
446.22	36121.22
446.426	37253.75
446.633	37556.85
446.839	38576.73
447.046	37190.26
447.252	39172.69
447.459	39207.51
447.665	39129.69
447.871	40733.25
448.078	42600.99
448.284	40309.32
448.491	41642.54
448.697	42830.37
448.903	43465.24
449.11	43987.47
449.316	43190.81
449.522	44378.63
449.728	45459.96
449.935	45314.55
450.141	45435.38
450.347	46649.83
450.553	45029.88
450.76	45595.12
450.966	47315.42
451.172	46338.54
451.378	47452.63
451.584	46545.38
451.791	47737.3
451.997	48052.69
452.203	48593.35
452.409	48277.96
452.615	47847.89
452.821	46365.16
453.027	46098.92
453.233	48257.48
453.44	46551.52
453.646	47002.08
453.852	47233.5
454.058	48288.2
454.264	46811.62
454.47	47698.39
454.676	46598.63
454.882	47929.81
455.088	43985.42
455.294	44833.28
455.5	45287.93
455.705	46047.72
455.911	44190.22
456.117	43000.35
456.323	42793.5
456.529	40520.26
456.735	42105.38
456.941	40954.43
457.147	40565.31
457.352	38978.14
457.558	38570.59
457.764	39023.19
457.97	38050.41
458.176	37284.47
458.381	37313.14
458.587	35408.53
458.793	35809.93
458.999	33532.59
459.204	35885.7
459.41	34927.25
459.616	32791.22
459.821	32662.2
460.027	32379.58
460.233	31797.96
460.438	30331.61
460.644	30698.2
460.85	29162.22
461.055	28842.74
461.261	28676.85
461.466	26815.25
461.672	25905.95
461.878	27667.2
462.083	25658.15
462.289	25281.32
462.494	25109.29
462.7	23843.65
462.905	23061.32
463.111	24017.72
463.316	24214.33
463.522	23716.67
463.727	23673.67
463.932	23438.15
464.138	23442.24
464.343	23556.93
464.549	22455.12
464.754	23470.92
464.959	23053.13
465.165	23186.25
465.37	22244.18
465.575	21465.96
465.781	22541.14
465.986	22491.99
466.191	21437.28
466.397	20964.2
466.602	19960.7
466.807	20933.48
