Data from USB4F104151__74__14-30-25-299.txt Node

Date: Thu Mar 13 14:30:25 EDT 2025
User: louis
Spectrometer: USB4F10415
Trigger mode: 4
Integration Time (sec): 2.500000E-2
Scans to average: 1
Electric dark correction enabled: true
Nonlinearity correction enabled: false
Boxcar width: 0
XAxis mode: Wavelengths
Number of Pixels in Spectrum: 3648
>>>>>Begin Spectral Data<<<<<
178.204	-128.68
178.424	-128.68
178.644	-128.68
178.864	-134.82
179.084	-161.45
179.304	59.73
179.524	0.34
179.744	18.77
179.964	6.49
180.184	26.96
180.404	-34.47
180.624	-18.09
180.844	-22.19
181.064	-61.1
181.283	12.63
181.503	-26.28
181.723	37.2
181.943	4.44
182.163	94.55
182.383	4.44
182.602	88.4
182.822	51.54
183.042	20.82
183.262	29.01
183.482	51.54
183.701	-30.38
183.921	84.31
184.141	22.87
184.361	65.88
184.58	43.35
184.8	35.16
185.02	-28.33
185.239	94.55
185.459	80.21
185.679	18.77
185.898	-38.57
186.118	22.87
186.338	31.06
186.557	84.31
186.777	10.58
186.997	2.39
187.216	170.32
187.436	37.2
187.655	166.23
187.875	26.96
188.095	18.77
188.314	59.73
188.534	35.16
188.753	16.73
188.973	4.44
189.192	119.12
189.412	47.44
189.631	24.92
189.851	12.63
190.07	72.02
190.29	47.44
190.509	55.64
190.729	24.92
190.948	59.73
191.168	149.84
191.387	76.12
191.607	49.49
191.826	37.2
192.045	-1.71
192.265	45.4
192.484	2.39
192.704	80.21
192.923	-42.67
193.142	92.5
193.362	84.31
193.581	51.54
193.8	61.78
194.02	51.54
194.239	-30.38
194.458	37.2
194.678	22.87
194.897	2.39
195.116	-59.05
195.335	53.59
195.555	117.08
195.774	59.73
195.993	127.32
196.212	-5.8
196.432	10.58
196.651	43.35
196.87	10.58
197.089	100.69
197.308	41.3
197.528	67.92
197.747	35.16
197.966	-20.14
198.185	100.69
198.404	0.34
198.623	74.07
198.842	74.07
199.062	53.59
199.281	96.6
199.5	-5.8
199.719	-3.75
199.938	45.4
200.157	61.78
200.376	108.88
200.595	18.77
200.814	45.4
201.033	53.59
201.252	14.68
201.471	26.96
201.69	55.64
201.909	2.39
202.128	88.4
202.347	31.06
202.566	24.92
202.785	16.73
203.004	-1.71
203.223	104.79
203.442	59.73
203.661	10.58
203.879	29.01
204.098	61.78
204.317	18.77
204.536	51.54
204.755	80.21
204.974	43.35
205.193	59.73
205.411	67.92
205.63	35.16
205.849	37.2
206.068	35.16
206.287	35.16
206.505	43.35
206.724	10.58
206.943	31.06
207.162	26.96
207.381	43.35
207.599	61.78
207.818	10.58
208.037	22.87
208.255	-38.57
208.474	-22.19
208.693	8.53
208.911	-5.8
209.13	80.21
209.349	133.46
209.567	39.25
209.786	22.87
210.005	0.34
210.223	12.63
210.442	10.58
210.661	20.82
210.879	65.88
211.098	37.2
211.316	47.44
211.535	18.77
211.753	59.73
211.972	59.73
212.191	-46.76
212.409	67.92
212.628	22.87
212.846	43.35
213.065	26.96
213.283	12.63
213.502	14.68
213.72	35.16
213.938	59.73
214.157	61.78
214.375	53.59
214.594	4.44
214.812	92.5
215.031	-22.19
215.249	53.59
215.467	-20.14
215.686	45.4
215.904	74.07
216.122	-30.38
216.341	100.69
216.559	10.58
216.778	16.73
216.996	82.26
217.214	-13.99
217.432	-9.9
217.651	18.77
217.869	26.96
218.087	22.87
218.306	-50.86
218.524	88.4
218.742	-44.71
218.96	24.92
219.179	6.49
219.397	26.96
219.615	117.08
219.833	2.39
220.051	26.96
220.27	31.06
220.488	88.4
220.706	51.54
220.924	45.4
221.142	-24.23
221.36	37.2
221.578	158.03
221.796	-5.8
222.015	53.59
222.233	4.44
222.451	94.55
222.669	26.96
222.887	10.58
223.105	-7.85
223.323	67.92
223.541	-42.67
223.759	67.92
223.977	37.2
224.195	43.35
224.413	26.96
224.631	-5.8
224.849	59.73
225.067	127.32
225.285	-59.05
225.503	121.17
225.721	-54.95
225.939	51.54
226.157	43.35
226.375	192.85
226.592	-36.52
226.81	-1.71
227.028	26.96
227.246	86.36
227.464	24.92
227.682	-13.99
227.9	31.06
228.117	31.06
228.335	41.3
228.553	35.16
228.771	-13.99
228.989	35.16
229.206	57.68
229.424	10.58
229.642	-52.91
229.86	-36.52
230.077	65.88
230.295	108.88
230.513	43.35
230.731	-13.99
230.948	67.92
231.166	94.55
231.384	-38.57
231.601	45.4
231.819	61.78
232.037	49.49
232.254	-26.28
232.472	4.44
232.689	-22.19
232.907	63.83
233.125	51.54
233.342	-18.09
233.56	-3.75
233.777	-28.33
233.995	-9.9
234.213	80.21
234.43	72.02
234.648	-22.19
234.865	35.16
235.083	14.68
235.3	67.92
235.518	35.16
235.735	102.74
235.953	80.21
236.17	29.01
236.388	12.63
236.605	51.54
236.822	61.78
237.04	31.06
237.257	-11.95
237.475	-59.05
237.692	127.32
237.909	10.58
238.127	88.4
238.344	76.12
238.562	10.58
238.779	-5.8
238.996	-3.75
239.214	10.58
239.431	57.68
239.648	-112.3
239.865	108.88
240.083	-42.67
240.3	35.16
240.517	14.68
240.735	49.49
240.952	35.16
241.169	41.3
241.386	18.77
241.603	26.96
241.821	41.3
242.038	51.54
242.255	45.4
242.472	-28.33
242.689	18.77
242.907	6.49
243.124	57.68
243.341	39.25
243.558	-48.81
243.775	-9.9
243.992	6.49
244.209	18.77
244.426	80.21
244.643	59.73
244.86	78.16
245.078	-7.85
245.295	4.44
245.512	92.5
245.729	-44.71
245.946	61.78
246.163	100.69
246.38	-71.34
246.597	67.92
246.814	92.5
247.031	-20.14
247.248	20.82
247.464	145.75
247.681	10.58
247.898	-3.75
248.115	53.59
248.332	12.63
248.549	39.25
248.766	141.65
248.983	63.83
249.2	26.96
249.417	43.35
249.633	43.35
249.85	35.16
250.067	22.87
250.284	80.21
250.501	141.65
250.717	98.64
250.934	-24.23
251.151	18.77
251.368	2.39
251.585	37.2
251.801	-13.99
252.018	-13.99
252.235	22.87
252.451	43.35
252.668	-5.8
252.885	-22.19
253.102	22.87
253.318	-1.71
253.535	10.58
253.752	2.39
253.968	57.68
254.185	-26.28
254.401	51.54
254.618	35.16
254.835	-18.09
255.051	86.36
255.268	102.74
255.484	102.74
255.701	80.21
255.917	39.25
256.134	26.96
256.351	18.77
256.567	12.63
256.784	67.92
257	10.58
257.217	82.26
257.433	121.17
257.65	84.31
257.866	67.92
258.082	-26.28
258.299	8.53
258.515	20.82
258.732	-13.99
258.948	102.74
259.165	-7.85
259.381	-52.91
259.597	6.49
259.814	43.35
260.03	-9.9
260.246	26.96
260.463	131.41
260.679	20.82
260.895	-34.47
261.112	59.73
261.328	37.2
261.544	12.63
261.761	88.4
261.977	51.54
262.193	-42.67
262.409	86.36
262.626	88.4
262.842	49.49
263.058	8.53
263.274	92.5
263.49	61.78
263.707	96.6
263.923	35.16
264.139	10.58
264.355	45.4
264.571	86.36
264.787	-22.19
265.004	76.12
265.22	6.49
265.436	31.06
265.652	10.58
265.868	-18.09
266.084	14.68
266.3	69.97
266.516	43.35
266.732	59.73
266.948	-36.52
267.164	57.68
267.38	51.54
267.596	37.2
267.812	67.92
268.028	31.06
268.244	-22.19
268.46	55.64
268.676	12.63
268.892	65.88
269.108	74.07
269.324	51.54
269.54	29.01
269.756	57.68
269.972	6.49
270.188	53.59
270.403	12.63
270.619	47.44
270.835	67.92
271.051	49.49
271.267	-87.72
271.483	20.82
271.698	115.03
271.914	37.2
272.13	10.58
272.346	26.96
272.562	2.39
272.777	100.69
272.993	43.35
273.209	65.88
273.425	20.82
273.64	43.35
273.856	84.31
274.072	-46.76
274.287	-77.48
274.503	-20.14
274.719	72.02
274.934	47.44
275.15	-20.14
275.366	59.73
275.581	-30.38
275.797	76.12
276.012	47.44
276.228	-16.04
276.444	88.4
276.659	76.12
276.875	2.39
277.09	20.82
277.306	-11.95
277.521	45.4
277.737	121.17
277.952	72.02
278.168	20.82
278.383	47.44
278.599	55.64
278.814	80.21
279.03	-22.19
279.245	84.31
279.461	29.01
279.676	61.78
279.892	-5.8
280.107	51.54
280.322	-7.85
280.538	53.59
280.753	6.49
280.969	104.79
281.184	69.97
281.399	125.27
281.615	33.11
281.83	53.59
282.045	-1.71
282.26	47.44
282.476	35.16
282.691	84.31
282.906	26.96
283.122	63.83
283.337	94.55
283.552	57.68
283.767	18.77
283.983	96.6
284.198	49.49
284.413	53.59
284.628	112.98
284.843	29.01
285.058	76.12
285.274	26.96
285.489	20.82
285.704	88.4
285.919	78.16
286.134	47.44
286.349	55.64
286.564	76.12
286.779	149.84
286.995	39.25
287.21	-22.19
287.425	63.83
287.64	88.4
287.855	-1.71
288.07	-13.99
288.285	96.6
288.5	76.12
288.715	45.4
288.93	80.21
289.145	37.2
289.36	72.02
289.575	2.39
289.79	94.55
290.004	45.4
290.219	96.6
290.434	-7.85
290.649	37.2
290.864	2.39
291.079	10.58
291.294	55.64
291.509	8.53
291.724	10.58
291.938	-30.38
292.153	43.35
292.368	-28.33
292.583	6.49
292.798	92.5
293.012	-22.19
293.227	-61.1
293.442	-26.28
293.657	112.98
293.871	61.78
294.086	-34.47
294.301	80.21
294.516	115.03
294.73	53.59
294.945	10.58
295.16	6.49
295.374	14.68
295.589	76.12
295.804	-22.19
296.018	35.16
296.233	31.06
296.447	-22.19
296.662	45.4
296.877	69.97
297.091	53.59
297.306	51.54
297.52	-13.99
297.735	22.87
297.949	6.49
298.164	43.35
298.378	35.16
298.593	2.39
298.807	4.44
299.022	26.96
299.236	-18.09
299.451	26.96
299.665	-5.8
299.88	39.25
300.094	45.4
300.309	115.03
300.523	-18.09
300.737	45.4
300.952	-32.43
301.166	22.87
301.381	-42.67
301.595	29.01
301.809	47.44
302.024	-30.38
302.238	76.12
302.452	84.31
302.667	18.77
302.881	141.65
303.095	43.35
303.309	8.53
303.524	-9.9
303.738	-3.75
303.952	10.58
304.166	125.27
304.381	10.58
304.595	76.12
304.809	-38.57
305.023	72.02
305.237	55.64
305.452	45.4
305.666	76.12
305.88	39.25
306.094	67.92
306.308	51.54
306.522	121.17
306.736	12.63
306.95	129.36
307.164	49.49
307.379	-44.71
307.593	76.12
307.807	67.92
308.021	37.2
308.235	43.35
308.449	-36.52
308.663	76.12
308.877	119.12
309.091	31.06
309.305	133.46
309.519	-91.82
309.733	123.22
309.947	-95.91
310.161	20.82
310.374	76.12
310.588	125.27
310.802	31.06
311.016	112.98
311.23	35.16
311.444	2.39
311.658	-11.95
311.872	-26.28
312.085	35.16
312.299	55.64
312.513	106.84
312.727	76.12
312.941	45.4
313.154	80.21
313.368	94.55
313.582	-18.09
313.796	59.73
314.009	6.49
314.223	-20.14
314.437	84.31
314.651	26.96
314.864	104.79
315.078	-9.9
315.292	-38.57
315.505	20.82
315.719	76.12
315.933	22.87
316.146	117.08
316.36	-7.85
316.573	39.25
316.787	22.87
317.001	84.31
317.214	14.68
317.428	61.78
317.641	-69.29
317.855	35.16
318.068	6.49
318.282	29.01
318.495	35.16
318.709	108.88
318.922	55.64
319.136	69.97
319.349	35.16
319.563	18.77
319.776	35.16
319.99	43.35
320.203	88.4
320.417	55.64
320.63	82.26
320.843	43.35
321.057	72.02
321.27	29.01
321.483	61.78
321.697	51.54
321.91	59.73
322.124	86.36
322.337	-11.95
322.55	31.06
322.763	-7.85
322.977	37.2
323.19	2.39
323.403	6.49
323.617	84.31
323.83	39.25
324.043	10.58
324.256	53.59
324.469	59.73
324.683	-5.8
324.896	-11.95
325.109	2.39
325.322	57.68
325.535	-3.75
325.748	43.35
325.962	-54.95
326.175	53.59
326.388	-3.75
326.601	86.36
326.814	22.87
327.027	12.63
327.24	115.03
327.453	-30.38
327.666	6.49
327.879	110.93
328.092	92.5
328.305	55.64
328.518	69.97
328.731	4.44
328.944	72.02
329.157	55.64
329.37	22.87
329.583	45.4
329.796	104.79
330.009	-30.38
330.222	106.84
330.435	72.02
330.648	72.02
330.861	-28.33
331.073	59.73
331.286	26.96
331.499	43.35
331.712	-9.9
331.925	92.5
332.138	-5.8
332.35	102.74
332.563	14.68
332.776	133.46
332.989	-73.39
333.202	26.96
333.414	20.82
333.627	39.25
333.84	-20.14
334.053	53.59
334.265	-24.23
334.478	-22.19
334.691	24.92
334.903	88.4
335.116	-13.99
335.329	10.58
335.541	104.79
335.754	33.11
335.966	0.34
336.179	37.2
336.392	29.01
336.604	92.5
336.817	-1.71
337.029	63.83
337.242	67.92
337.454	133.46
337.667	2.39
337.88	49.49
338.092	57.68
338.305	29.01
338.517	-1.71
338.729	117.08
338.942	76.12
339.154	-34.47
339.367	35.16
339.579	78.16
339.792	-30.38
340.004	45.4
340.217	20.82
340.429	86.36
340.641	37.2
340.854	-22.19
341.066	63.83
341.278	72.02
341.491	88.4
341.703	51.54
341.915	-40.62
342.128	51.54
342.34	14.68
342.552	35.16
342.764	-7.85
342.977	51.54
343.189	4.44
343.401	18.77
343.613	-5.8
343.826	10.58
344.038	55.64
344.25	135.51
344.462	59.73
344.674	41.3
344.886	69.97
345.099	43.35
345.311	43.35
345.523	26.96
345.735	-36.52
345.947	53.59
346.159	10.58
346.371	12.63
346.583	6.49
346.795	67.92
347.007	43.35
347.219	82.26
347.431	55.64
347.643	59.73
347.855	18.77
348.067	78.16
348.279	69.97
348.491	37.2
348.703	86.36
348.915	26.96
349.127	-42.67
349.339	39.25
349.551	29.01
349.763	74.07
349.975	35.16
350.187	78.16
350.399	-5.8
350.61	55.64
350.822	96.6
351.034	2.39
351.246	22.87
351.458	69.97
351.669	26.96
351.881	-28.33
352.093	133.46
352.305	84.31
352.517	76.12
352.728	104.79
352.94	67.92
353.152	80.21
353.363	55.64
353.575	18.77
353.787	92.5
353.999	29.01
354.21	100.69
354.422	84.31
354.633	69.97
354.845	53.59
355.057	-1.71
355.268	59.73
355.48	2.39
355.692	20.82
355.903	55.64
356.115	-1.71
356.326	-26.28
356.538	84.31
356.749	-5.8
356.961	67.92
357.172	76.12
357.384	57.68
357.595	121.17
357.807	20.82
358.018	76.12
358.23	20.82
358.441	72.02
358.653	92.5
358.864	31.06
359.075	55.64
359.287	67.92
359.498	-20.14
359.709	47.44
359.921	43.35
360.132	76.12
360.344	2.39
360.555	53.59
360.766	112.98
360.977	-20.14
361.189	117.08
361.4	43.35
361.611	174.42
361.823	182.61
362.034	18.77
362.245	37.2
362.456	96.6
362.667	-13.99
362.879	63.83
363.09	47.44
363.301	45.4
363.512	100.69
363.723	53.59
363.935	10.58
364.146	94.55
364.357	55.64
364.568	119.12
364.779	18.77
364.99	117.08
365.201	16.73
365.412	112.98
365.623	-28.33
365.834	63.83
366.045	78.16
366.256	108.88
366.467	26.96
366.678	78.16
366.889	0.34
367.1	20.82
367.311	18.77
367.522	18.77
367.733	59.73
367.944	65.88
368.155	-3.75
368.366	92.5
368.577	92.5
368.788	67.92
368.999	2.39
369.209	37.2
369.42	194.9
369.631	74.07
369.842	78.16
370.053	6.49
370.264	59.73
370.474	-18.09
370.685	24.92
370.896	67.92
371.107	69.97
371.317	14.68
371.528	84.31
371.739	80.21
371.95	72.02
372.16	78.16
372.371	41.3
372.582	125.27
372.792	51.54
373.003	80.21
373.214	72.02
373.424	39.25
373.635	-30.38
373.846	125.27
374.056	72.02
374.267	39.25
374.477	10.58
374.688	43.35
374.898	-11.95
375.109	35.16
375.319	72.02
375.53	149.84
375.74	76.12
375.951	43.35
376.161	26.96
376.372	80.21
376.582	104.79
376.793	80.21
377.003	18.77
377.214	18.77
377.424	29.01
377.635	102.74
377.845	35.16
378.055	117.08
378.266	41.3
378.476	47.44
378.686	65.88
378.897	59.73
379.107	57.68
379.317	41.3
379.528	43.35
379.738	98.64
379.948	-13.99
380.158	117.08
380.369	76.12
380.579	92.5
380.789	61.78
380.999	59.73
381.21	67.92
381.42	84.31
381.63	47.44
381.84	78.16
382.05	86.36
382.261	76.12
382.471	29.01
382.681	100.69
382.891	65.88
383.101	51.54
383.311	110.93
383.521	14.68
383.731	100.69
383.941	61.78
384.151	20.82
384.361	2.39
384.571	2.39
384.781	78.16
384.991	102.74
385.201	123.22
385.411	74.07
385.621	72.02
385.831	59.73
386.041	74.07
386.251	35.16
386.461	119.12
386.671	72.02
386.881	29.01
387.091	10.58
387.301	110.93
387.511	-3.75
387.72	35.16
387.93	26.96
388.14	-13.99
388.35	61.78
388.56	162.13
388.769	43.35
388.979	-5.8
389.189	69.97
389.399	33.11
389.609	117.08
389.818	80.21
390.028	84.31
390.238	14.68
390.447	51.54
390.657	76.12
390.867	88.4
391.076	35.16
391.286	72.02
391.496	86.36
391.705	24.92
391.915	110.93
392.125	98.64
392.334	59.73
392.544	80.21
392.753	47.44
392.963	6.49
393.172	115.03
393.382	88.4
393.591	176.47
393.801	51.54
394.01	76.12
394.22	53.59
394.429	31.06
394.639	108.88
394.848	133.46
395.058	117.08
395.267	20.82
395.477	53.59
395.686	43.35
395.895	117.08
396.105	133.46
396.314	137.56
396.524	96.6
396.733	59.73
396.942	141.65
397.152	86.36
397.361	72.02
397.57	67.92
397.78	29.01
397.989	203.09
398.198	192.85
398.407	61.78
398.617	51.54
398.826	115.03
399.035	108.88
399.244	106.84
399.453	108.88
399.663	108.88
399.872	86.36
400.081	92.5
400.29	160.08
400.499	149.84
400.708	164.18
400.917	61.78
401.127	100.69
401.336	88.4
401.545	225.62
401.754	137.56
401.963	129.36
402.172	141.65
402.381	162.13
402.59	108.88
402.799	162.13
403.008	166.23
403.217	121.17
403.426	151.89
403.635	143.7
403.844	139.6
404.053	119.12
404.262	125.27
404.471	176.47
404.68	149.84
404.888	108.88
405.097	137.56
405.306	141.65
405.515	178.51
405.724	180.56
405.933	174.42
406.142	201.04
406.35	149.84
406.559	151.89
406.768	215.38
406.977	227.67
407.185	250.19
407.394	299.34
407.603	203.09
407.812	160.08
408.02	258.39
408.229	235.86
408.438	301.39
408.646	229.71
408.855	305.49
409.064	301.39
409.272	270.67
409.481	323.92
409.69	375.12
409.898	371.02
410.107	354.64
410.315	338.26
410.524	313.68
410.733	387.41
410.941	411.98
411.15	399.7
411.358	487.76
411.567	536.91
411.775	444.75
411.984	418.13
412.192	469.33
412.401	520.53
412.609	584.01
412.818	645.45
413.026	600.4
413.234	510.29
413.443	555.34
413.651	637.26
413.86	616.78
414.068	741.71
414.276	563.53
414.485	604.49
414.693	745.8
414.901	733.51
415.11	807.24
415.318	825.67
415.526	774.47
415.734	915.78
415.943	954.69
416.151	973.13
416.359	907.59
416.567	960.84
416.776	991.56
416.984	1112.39
417.192	1216.83
417.4	1044.81
417.608	1128.77
417.817	1126.72
418.025	1255.75
418.233	1356.1
418.441	1237.31
418.649	1354.05
418.857	1423.68
419.065	1493.31
419.273	1487.17
419.481	1595.71
419.689	1671.48
419.897	1724.73
420.105	1765.69
420.313	1880.38
420.521	1829.18
420.729	1956.15
420.937	1982.78
421.145	2017.59
421.353	2058.55
421.561	2230.58
421.769	2214.2
421.977	2380.08
422.185	2232.63
422.393	2386.22
422.601	2599.21
422.809	2681.13
423.017	2664.75
423.224	2787.63
423.432	2804.01
423.64	2705.71
423.848	3060.01
424.056	3006.76
424.263	3281.19
424.471	3328.29
424.679	3348.77
424.887	3582.24
425.094	3627.29
425.302	3703.07
425.51	3993.88
425.718	3879.19
425.925	3950.87
426.133	4032.79
426.341	4290.84
426.548	4638.99
426.756	4542.74
426.964	4475.15
427.171	4737.29
427.379	4835.6
427.586	5021.96
427.794	5245.19
428.001	5402.88
428.209	5605.63
428.417	5490.95
428.624	5867.77
428.832	5820.67
429.039	5822.72
429.247	5796.09
429.454	6320.37
429.662	6902
429.869	6443.25
430.076	6963.44
430.284	6506.74
430.491	6936.81
430.699	7287.01
430.906	7229.67
431.114	7710.94
431.321	7616.74
431.528	7925.98
431.736	8341.72
431.943	8693.97
432.15	8368.34
432.358	8587.47
432.565	9160.91
432.772	9158.86
432.979	9492.68
433.187	9511.11
433.394	9668.8
433.601	10307.77
433.808	10563.76
434.016	10197.18
434.223	10684.59
434.43	11231.4
434.637	11217.07
434.844	11735.2
435.052	11966.62
435.259	12001.44
435.466	12030.11
435.673	12032.16
435.88	12777.62
436.087	13256.84
436.294	13326.47
436.501	12990.61
436.708	13369.48
436.915	13703.3
437.122	14420.09
437.329	14282.88
437.537	14872.69
437.743	14948.47
437.95	14913.65
438.157	15755.36
438.364	16033.89
438.571	16062.56
438.778	16107.62
438.985	17483.85
439.192	16937.04
439.399	17322.06
439.606	17195.09
439.813	18143.3
440.02	19183.66
440.227	18847.8
440.433	18657.34
440.64	19222.58
440.847	19122.23
441.054	19738.66
441.261	20590.62
441.467	20490.27
441.674	21211.15
441.881	21673.99
442.088	21803.02
442.294	21454.86
442.501	21975.05
442.708	22818.81
442.914	23564.27
443.121	23945.19
443.328	23820.27
443.534	25538.51
443.741	24537.05
443.948	24387.55
444.154	26212.29
444.361	26046.41
444.568	25933.77
444.774	25892.81
444.981	26179.53
445.187	26834.88
445.394	28458.92
445.6	27883.44
445.807	30607.23
446.013	29020.06
446.22	29941.64
446.426	31086.46
446.633	31106.94
446.839	32044.91
447.046	31068.03
447.252	32546.66
447.459	33052.51
447.665	32706.4
447.871	33910.61
448.078	35129.15
448.284	33806.16
448.491	34479.94
448.697	36034.35
448.903	36601.64
449.11	36632.36
449.316	35987.25
449.522	36894.5
449.728	37787.41
449.935	38074.13
450.141	38008.59
450.347	38868.74
450.553	37336.86
450.76	37674.77
450.966	39141.12
451.172	39503.61
451.378	39751.41
451.584	39247.61
451.791	39864.05
451.997	40001.27
452.203	40845.03
452.409	40539.88
452.615	40316.65
452.821	39044.87
453.027	38104.85
453.233	40343.28
453.44	38713.09
453.646	39261.95
453.852	39134.98
454.058	40095.47
454.264	38407.95
454.47	39259.9
454.676	38647.56
454.882	39956.21
455.088	36130.61
455.294	36790.05
455.5	37195.55
455.705	37570.33
455.911	36433.71
456.117	35837.75
456.323	35065.66
456.529	33566.55
456.735	34662.21
456.941	34010.96
457.147	33468.25
457.352	32184.17
457.558	31678.32
457.764	32362.34
457.97	31156.09
458.176	30932.86
458.381	30386.05
458.587	29271.96
458.793	29231
458.999	27908.01
459.204	29405.08
459.41	28813.21
459.616	26935.23
459.821	26783.68
460.027	26697.66
460.233	26095.56
460.438	24694.75
460.644	24917.98
460.85	24123.37
461.055	23361.52
461.261	23394.29
461.466	21694.47
461.672	20899.86
461.878	22521.85
462.083	20895.77
462.289	20609.05
462.494	20271.14
462.7	19599.4
462.905	19298.35
463.111	19707.94
463.316	19445.8
463.522	19081.27
463.727	19226.67
463.932	18919.48
464.138	19122.23
464.343	19048.5
464.549	18708.54
464.754	19152.95
464.959	19021.88
465.165	18528.31
465.37	17879.11
465.575	17467.47
465.781	18202.69
465.986	18384.96
466.191	17690.7
466.397	17320.01
466.602	16625.75
466.807	16875.6
467.012	16986.19
