Data from USB4F104151__268__14-34-36-028.txt Node

Date: Thu Mar 13 14:34:36 EDT 2025
User: louis
Spectrometer: USB4F10415
Trigger mode: 4
Integration Time (sec): 2.500000E-2
Scans to average: 1
Electric dark correction enabled: true
Nonlinearity correction enabled: false
Boxcar width: 0
XAxis mode: Wavelengths
Number of Pixels in Spectrum: 3648
>>>>>Begin Spectral Data<<<<<
178.204	-204.97
178.424	-204.97
178.644	-204.97
178.864	-129.19
179.084	-184.49
179.304	-94.38
179.524	34.64
179.744	-34.99
179.964	46.93
180.184	-24.75
180.404	63.32
180.624	34.64
180.844	-22.7
181.064	-28.84
181.283	-30.89
181.503	-18.6
181.723	75.6
181.943	-28.84
182.163	-2.22
182.383	-6.31
182.602	63.32
182.822	36.69
183.042	12.12
183.262	-71.85
183.482	-2.22
183.701	-2.22
183.921	61.27
184.141	3.93
184.361	-10.41
184.58	-41.13
184.8	28.5
185.02	-10.41
185.239	1.88
185.459	1.88
185.679	18.26
185.898	-92.33
186.118	-0.17
186.338	36.69
186.557	34.64
186.777	-2.22
186.997	-28.84
187.216	-4.27
187.436	98.13
187.655	59.22
187.875	-14.51
188.095	-18.6
188.314	1.88
188.534	55.12
188.753	-12.46
188.973	79.7
189.192	28.5
189.412	42.84
189.631	53.08
189.851	-22.7
190.07	46.93
190.29	-43.18
190.509	34.64
190.729	-10.41
190.948	18.26
191.168	132.95
191.387	12.12
191.607	42.84
191.826	-16.55
192.045	16.21
192.265	-20.65
192.484	22.36
192.704	-37.03
192.923	-67.75
193.142	89.94
193.362	10.07
193.581	40.79
193.8	-18.6
194.02	53.08
194.239	-22.7
194.458	-4.27
194.678	24.4
194.897	38.74
195.116	3.93
195.335	-61.61
195.555	14.17
195.774	18.26
195.993	-6.31
196.212	-49.32
196.432	20.31
196.651	-22.7
196.87	-10.41
197.089	108.37
197.308	48.98
197.528	51.03
197.747	-6.31
197.966	-51.37
198.185	108.37
198.404	-14.51
198.623	3.93
198.842	-18.6
199.062	34.64
199.281	61.27
199.5	10.07
199.719	-69.8
199.938	10.07
200.157	22.36
200.376	53.08
200.595	100.18
200.814	75.6
201.033	-100.52
201.252	110.42
201.471	-18.6
201.69	-2.22
201.909	12.12
202.128	96.08
202.347	22.36
202.566	3.93
202.785	-30.89
203.004	-47.27
203.223	26.45
203.442	-6.31
203.661	1.88
203.879	-2.22
204.098	51.03
204.317	5.97
204.536	14.17
204.755	-26.79
204.974	71.51
205.193	38.74
205.411	116.56
205.63	71.51
205.849	110.42
206.068	42.84
206.287	16.21
206.505	42.84
206.724	-80.04
206.943	18.26
207.162	-14.51
207.381	-47.27
207.599	34.64
207.818	1.88
208.037	8.02
208.255	112.47
208.474	12.12
208.693	-14.51
208.911	22.36
209.13	-20.65
209.349	-47.27
209.567	28.5
209.786	85.84
210.005	-43.18
210.223	-12.46
210.442	-88.23
210.661	100.18
210.879	-45.23
211.098	34.64
211.316	53.08
211.535	71.51
211.753	10.07
211.972	36.69
212.191	20.31
212.409	-2.22
212.628	42.84
212.846	34.64
213.065	-6.31
213.283	59.22
213.502	16.21
213.72	-12.46
213.938	59.22
214.157	26.45
214.375	-39.08
214.594	-37.03
214.812	1.88
215.031	-12.46
215.249	12.12
215.467	-26.79
215.686	-30.89
215.904	79.7
216.122	10.07
216.341	10.07
216.559	34.64
216.778	12.12
216.996	46.93
217.214	22.36
217.432	-84.14
217.651	-75.95
217.869	-14.51
218.087	-30.89
218.306	44.88
218.524	34.64
218.742	36.69
218.96	59.22
219.179	26.45
219.397	-10.41
219.615	28.5
219.833	-26.79
220.051	18.26
220.27	71.51
220.488	61.27
220.706	-75.95
220.924	-28.84
221.142	5.97
221.36	30.55
221.578	-14.51
221.796	42.84
222.015	59.22
222.233	83.8
222.451	61.27
222.669	-47.27
222.887	108.37
223.105	-37.03
223.323	-30.89
223.541	-67.75
223.759	69.46
223.977	-28.84
224.195	1.88
224.413	-14.51
224.631	67.41
224.849	34.64
225.067	46.93
225.285	-53.42
225.503	-43.18
225.721	1.88
225.939	-34.99
226.157	30.55
226.375	94.04
226.592	-6.31
226.81	-8.36
227.028	38.74
227.246	67.41
227.464	-6.31
227.682	-12.46
227.9	51.03
228.117	16.21
228.335	-63.66
228.553	-26.79
228.771	-26.79
228.989	30.55
229.206	30.55
229.424	-22.7
229.642	38.74
229.86	5.97
230.077	32.6
230.295	55.12
230.513	36.69
230.731	143.19
230.948	53.08
231.166	51.03
231.384	44.88
231.601	-26.79
231.819	12.12
232.037	-55.47
232.254	-55.47
232.472	16.21
232.689	-14.51
232.907	79.7
233.125	24.4
233.342	-4.27
233.56	-26.79
233.777	18.26
233.995	-16.55
234.213	14.17
234.43	38.74
234.648	20.31
234.865	22.36
235.083	14.17
235.3	32.6
235.518	55.12
235.735	53.08
235.953	-30.89
236.17	-10.41
236.388	65.36
236.605	26.45
236.822	100.18
237.04	55.12
237.257	-2.22
237.475	-61.61
237.692	1.88
237.909	22.36
238.127	26.45
238.344	55.12
238.562	1.88
238.779	-18.6
238.996	-6.31
239.214	-6.31
239.431	85.84
239.648	-30.89
239.865	44.88
240.083	57.17
240.3	38.74
240.517	-55.47
240.735	-30.89
240.952	-20.65
241.169	22.36
241.386	51.03
241.603	-45.23
241.821	30.55
242.038	51.03
242.255	-49.32
242.472	-14.51
242.689	-18.6
242.907	145.24
243.124	-69.8
243.341	12.12
243.558	36.69
243.775	8.02
243.992	-16.55
244.209	-12.46
244.426	91.99
244.643	-2.22
244.86	1.88
245.078	1.88
245.295	3.93
245.512	53.08
245.729	-6.31
245.946	61.27
246.163	65.36
246.38	5.97
246.597	5.97
246.814	20.31
247.031	57.17
247.248	42.84
247.464	85.84
247.681	18.26
247.898	-6.31
248.115	24.4
248.332	-53.42
248.549	79.7
248.766	55.12
248.983	51.03
249.2	14.17
249.417	38.74
249.633	3.93
249.85	10.07
250.067	-18.6
250.284	69.46
250.501	53.08
250.717	59.22
250.934	-22.7
251.151	10.07
251.368	10.07
251.585	28.5
251.801	-61.61
252.018	-63.66
252.235	67.41
252.451	-14.51
252.668	-51.37
252.885	67.41
253.102	-45.23
253.318	10.07
253.535	-30.89
253.752	-26.79
253.968	1.88
254.185	-51.37
254.401	-22.7
254.618	12.12
254.835	26.45
255.051	42.84
255.268	38.74
255.484	34.64
255.701	-24.75
255.917	20.31
256.134	20.31
256.351	59.22
256.567	14.17
256.784	-30.89
257	-39.08
257.217	12.12
257.433	-10.41
257.65	20.31
257.866	18.26
258.082	10.07
258.299	-37.03
258.515	36.69
258.732	30.55
258.948	5.97
259.165	-0.17
259.381	46.93
259.597	46.93
259.814	59.22
260.03	1.88
260.246	51.03
260.463	-28.84
260.679	63.32
260.895	-12.46
261.112	-30.89
261.328	-39.08
261.544	-4.27
261.761	71.51
261.977	-6.31
262.193	-10.41
262.409	22.36
262.626	18.26
262.842	-43.18
263.058	-41.13
263.274	-41.13
263.49	40.79
263.707	20.31
263.923	-20.65
264.139	-18.6
264.355	26.45
264.571	59.22
264.787	24.4
265.004	53.08
265.22	26.45
265.436	30.55
265.652	-34.99
265.868	-37.03
266.084	3.93
266.3	42.84
266.516	-39.08
266.732	8.02
266.948	34.64
267.164	-37.03
267.38	59.22
267.596	141.14
267.812	85.84
268.028	67.41
268.244	-51.37
268.46	26.45
268.676	-4.27
268.892	30.55
269.108	-39.08
269.324	-37.03
269.54	42.84
269.756	83.8
269.972	3.93
270.188	67.41
270.403	3.93
270.619	14.17
270.835	-14.51
271.051	-22.7
271.267	46.93
271.483	-14.51
271.698	67.41
271.914	85.84
272.13	75.6
272.346	10.07
272.562	46.93
272.777	67.41
272.993	-45.23
273.209	-22.7
273.425	89.94
273.64	-55.47
273.856	69.46
274.072	-14.51
274.287	-88.23
274.503	116.56
274.719	51.03
274.934	14.17
275.15	-14.51
275.366	89.94
275.581	20.31
275.797	10.07
276.012	-24.75
276.228	28.5
276.444	-75.95
276.659	63.32
276.875	71.51
277.09	-34.99
277.306	83.8
277.521	65.36
277.737	10.07
277.952	36.69
278.168	18.26
278.383	-4.27
278.599	-47.27
278.814	79.7
279.03	51.03
279.245	10.07
279.461	-22.7
279.676	-18.6
279.892	-22.7
280.107	48.98
280.322	-47.27
280.538	3.93
280.753	-4.27
280.969	-2.22
281.184	-10.41
281.399	34.64
281.615	-24.75
281.83	44.88
282.045	1.88
282.26	75.6
282.476	83.8
282.691	69.46
282.906	-0.17
283.122	42.84
283.337	53.08
283.552	67.41
283.767	10.07
283.983	20.31
284.198	-18.6
284.413	18.26
284.628	-63.66
284.843	10.07
285.058	42.84
285.274	5.97
285.489	5.97
285.704	28.5
285.919	-37.03
286.134	-12.46
286.349	-14.51
286.564	57.17
286.779	75.6
286.995	28.5
287.21	-34.99
287.425	36.69
287.64	5.97
287.855	100.18
288.07	-57.51
288.285	55.12
288.5	22.36
288.715	87.89
288.93	-6.31
289.145	40.79
289.36	12.12
289.575	-6.31
289.79	75.6
290.004	30.55
290.219	1.88
290.434	-14.51
290.649	-37.03
290.864	59.22
291.079	63.32
291.294	44.88
291.509	34.64
291.724	36.69
291.938	42.84
292.153	-12.46
292.368	-30.89
292.583	26.45
292.798	-0.17
293.012	5.97
293.227	67.41
293.442	63.32
293.657	73.56
293.871	40.79
294.086	-0.17
294.301	-26.79
294.516	75.6
294.73	65.36
294.945	-53.42
295.16	-2.22
295.374	28.5
295.589	20.31
295.804	-37.03
296.018	1.88
296.233	61.27
296.447	-8.36
296.662	-28.84
296.877	10.07
297.091	44.88
297.306	-30.89
297.52	10.07
297.735	1.88
297.949	1.88
298.164	34.64
298.378	30.55
298.593	-24.75
298.807	-20.65
299.022	67.41
299.236	20.31
299.451	-102.57
299.665	-22.7
299.88	10.07
300.094	-18.6
300.309	-34.99
300.523	26.45
300.737	3.93
300.952	38.74
301.166	-77.99
301.381	67.41
301.595	42.84
301.809	10.07
302.024	59.22
302.238	38.74
302.452	69.46
302.667	-26.79
302.881	100.18
303.095	10.07
303.309	75.6
303.524	-14.51
303.738	-16.55
303.952	30.55
304.166	-8.36
304.381	-6.31
304.595	135
304.809	-12.46
305.023	-67.75
305.237	30.55
305.452	26.45
305.666	-47.27
305.88	36.69
306.094	-22.7
306.308	-2.22
306.522	18.26
306.736	-43.18
306.95	42.84
307.164	34.64
307.379	-24.75
307.593	145.24
307.807	73.56
308.021	63.32
308.235	20.31
308.449	-34.99
308.663	-43.18
308.877	116.56
309.091	26.45
309.305	14.17
309.519	-14.51
309.733	28.5
309.947	16.21
310.161	-0.17
310.374	18.26
310.588	14.17
310.802	10.07
311.016	32.6
311.23	-6.31
311.444	-6.31
311.658	67.41
311.872	-22.7
312.085	67.41
312.299	-2.22
312.513	3.93
312.727	61.27
312.941	32.6
313.154	69.46
313.368	-8.36
313.582	-20.65
313.796	-28.84
314.009	18.26
314.223	59.22
314.437	55.12
314.651	34.64
314.864	61.27
315.078	-80.04
315.292	-0.17
315.505	-39.08
315.719	75.6
315.933	-14.51
316.146	51.03
316.36	-63.66
316.573	26.45
316.787	12.12
317.001	46.93
317.214	1.88
317.428	46.93
317.641	-39.08
317.855	34.64
318.068	44.88
318.282	12.12
318.495	12.12
318.709	75.6
318.922	-37.03
319.136	75.6
319.349	85.84
319.563	67.41
319.776	30.55
319.99	-34.99
320.203	-10.41
320.417	42.84
320.63	18.26
320.843	91.99
321.057	-22.7
321.27	26.45
321.483	-10.41
321.697	20.31
321.91	22.36
322.124	104.28
322.337	-14.51
322.55	1.88
322.763	59.22
322.977	8.02
323.19	-6.31
323.403	53.08
323.617	22.36
323.83	-26.79
324.043	18.26
324.256	51.03
324.469	40.79
324.683	116.56
324.896	-22.7
325.109	-14.51
325.322	-39.08
325.535	77.65
325.748	110.42
325.962	-30.89
326.175	28.5
326.388	16.21
326.601	44.88
326.814	32.6
327.027	36.69
327.24	36.69
327.453	-59.56
327.666	40.79
327.879	-22.7
328.092	61.27
328.305	5.97
328.518	-10.41
328.731	-55.47
328.944	42.84
329.157	34.64
329.37	-37.03
329.583	18.26
329.796	18.26
330.009	1.88
330.222	118.61
330.435	55.12
330.648	42.84
330.861	-6.31
331.073	34.64
331.286	10.07
331.499	-4.27
331.712	-6.31
331.925	-6.31
332.138	3.93
332.35	1.88
332.563	-18.6
332.776	55.12
332.989	24.4
333.202	42.84
333.414	26.45
333.627	-20.65
333.84	-12.46
334.053	-47.27
334.265	-37.03
334.478	3.93
334.691	22.36
334.903	34.64
335.116	5.97
335.329	53.08
335.541	67.41
335.754	143.19
335.966	-73.9
336.179	12.12
336.392	-30.89
336.604	36.69
336.817	38.74
337.029	10.07
337.242	-34.99
337.454	1.88
337.667	34.64
337.88	53.08
338.092	30.55
338.305	63.32
338.517	-18.6
338.729	75.6
338.942	26.45
339.154	-4.27
339.367	24.4
339.579	12.12
339.792	-59.56
340.004	30.55
340.217	53.08
340.429	26.45
340.641	34.64
340.854	-28.84
341.066	-0.17
341.278	-22.7
341.491	83.8
341.703	34.64
341.915	14.17
342.128	53.08
342.34	26.45
342.552	-30.89
342.764	10.07
342.977	10.07
343.189	46.93
343.401	36.69
343.613	-14.51
343.826	14.17
344.038	-4.27
344.25	-4.27
344.462	5.97
344.674	94.04
344.886	-18.6
345.099	83.8
345.311	-82.09
345.523	-12.46
345.735	-4.27
345.947	51.03
346.159	24.4
346.371	-6.31
346.583	51.03
346.795	118.61
347.007	-32.94
347.219	77.65
347.431	-26.79
347.643	-43.18
347.855	44.88
348.067	42.84
348.279	71.51
348.491	-28.84
348.703	-18.6
348.915	26.45
349.127	18.26
349.339	-4.27
349.551	-53.42
349.763	65.36
349.975	10.07
350.187	42.84
350.399	94.04
350.61	139.09
350.822	-96.43
351.034	51.03
351.246	14.17
351.458	75.6
351.669	34.64
351.881	59.22
352.093	18.26
352.305	53.08
352.517	-30.89
352.728	75.6
352.94	-16.55
353.152	34.64
353.363	-63.66
353.575	-26.79
353.787	96.08
353.999	67.41
354.21	59.22
354.422	3.93
354.633	36.69
354.845	16.21
355.057	34.64
355.268	38.74
355.48	12.12
355.692	5.97
355.903	26.45
356.115	53.08
356.326	-53.42
356.538	18.26
356.749	51.03
356.961	55.12
357.172	-26.79
357.384	3.93
357.595	116.56
357.807	30.55
358.018	75.6
358.23	-6.31
358.441	104.28
358.653	26.45
358.864	-55.47
359.075	32.6
359.287	-37.03
359.498	61.27
359.709	30.55
359.921	20.31
360.132	-37.03
360.344	48.98
360.555	12.12
360.766	-14.51
360.977	-75.95
361.189	20.31
361.4	3.93
361.611	94.04
361.823	61.27
362.034	-2.22
362.245	67.41
362.456	42.84
362.667	59.22
362.879	38.74
363.09	28.5
363.301	-20.65
363.512	10.07
363.723	8.02
363.935	-22.7
364.146	83.8
364.357	8.02
364.568	28.5
364.779	42.84
364.99	44.88
365.201	12.12
365.412	1.88
365.623	26.45
365.834	94.04
366.045	38.74
366.256	-37.03
366.467	42.84
366.678	69.46
366.889	14.17
367.1	-32.94
367.311	20.31
367.522	34.64
367.733	-16.55
367.944	18.26
368.155	87.89
368.366	10.07
368.577	69.46
368.788	57.17
368.999	-12.46
369.209	-2.22
369.42	173.91
369.631	132.95
369.842	46.93
370.053	55.12
370.264	79.7
370.474	10.07
370.685	20.31
370.896	-12.46
371.107	65.36
371.317	79.7
371.528	30.55
371.739	44.88
371.95	94.04
372.16	-14.51
372.371	-20.65
372.582	-53.42
372.792	18.26
373.003	-47.27
373.214	12.12
373.424	128.85
373.635	-24.75
373.846	120.66
374.056	28.5
374.267	-71.85
374.477	149.33
374.688	-20.65
374.898	87.89
375.109	3.93
375.319	-20.65
375.53	137.04
375.74	28.5
375.951	98.13
376.161	46.93
376.372	44.88
376.582	18.26
376.793	-20.65
377.003	-61.61
377.214	53.08
377.424	100.18
377.635	36.69
377.845	96.08
378.055	34.64
378.266	30.55
378.476	20.31
378.686	3.93
378.897	-51.37
379.107	55.12
379.317	89.94
379.528	-43.18
379.738	44.88
379.948	20.31
380.158	-4.27
380.369	-2.22
380.579	-6.31
380.789	-43.18
380.999	51.03
381.21	112.47
381.42	61.27
381.63	10.07
381.84	61.27
382.05	51.03
382.261	57.17
382.471	42.84
382.681	3.93
382.891	96.08
383.101	22.36
383.311	63.32
383.521	16.21
383.731	8.02
383.941	71.51
384.151	-8.36
384.361	-28.84
384.571	51.03
384.781	51.03
384.991	61.27
385.201	32.6
385.411	34.64
385.621	10.07
385.831	55.12
386.041	61.27
386.251	69.46
386.461	18.26
386.671	-4.27
386.881	24.4
387.091	26.45
387.301	59.22
387.511	-34.99
387.72	59.22
387.93	55.12
388.14	-53.42
388.35	42.84
388.56	14.17
388.769	124.76
388.979	-45.23
389.189	-18.6
389.399	42.84
389.609	96.08
389.818	-30.89
390.028	22.36
390.238	22.36
390.447	26.45
390.657	85.84
390.867	28.5
391.076	-12.46
391.286	85.84
391.496	10.07
391.705	-2.22
391.915	59.22
392.125	40.79
392.334	112.47
392.544	38.74
392.753	51.03
392.963	1.88
393.172	55.12
393.382	81.75
393.591	157.52
393.801	12.12
394.01	83.8
394.22	44.88
394.429	83.8
394.639	14.17
394.848	61.27
395.058	67.41
395.267	96.08
395.477	-12.46
395.686	59.22
395.895	28.5
396.105	102.23
396.314	59.22
396.524	100.18
396.733	28.5
396.942	10.07
397.152	102.23
397.361	114.52
397.57	-39.08
397.78	59.22
397.989	51.03
398.198	190.29
398.407	102.23
398.617	38.74
398.826	42.84
399.035	42.84
399.244	173.91
399.453	20.31
399.663	102.23
399.872	85.84
400.081	42.84
400.29	40.79
400.499	46.93
400.708	112.47
400.917	100.18
401.127	77.65
401.336	22.36
401.545	44.88
401.754	114.52
401.963	46.93
402.172	55.12
402.381	94.04
402.59	87.89
402.799	122.71
403.008	145.24
403.217	126.8
403.426	91.99
403.635	85.84
403.844	110.42
404.053	116.56
404.262	184.15
404.471	124.76
404.68	67.41
404.888	135
405.097	145.24
405.306	167.76
405.515	69.46
405.724	132.95
405.933	118.61
406.142	124.76
406.35	198.48
406.559	139.09
406.768	184.15
406.977	204.63
407.185	130.9
407.394	218.96
407.603	114.52
407.812	175.95
408.02	233.3
408.229	132.95
408.438	178
408.646	102.23
408.855	178
409.064	186.19
409.272	204.63
409.481	243.54
409.69	218.96
409.898	241.49
410.107	347.98
410.315	298.83
410.524	321.36
410.733	337.74
410.941	268.11
411.15	409.42
411.358	307.02
411.567	358.22
411.775	311.12
411.984	337.74
412.192	393.04
412.401	376.66
412.609	395.09
412.818	386.9
413.026	358.22
413.234	462.67
413.443	501.58
413.651	358.22
413.86	569.16
414.068	628.56
414.276	644.94
414.485	567.12
414.693	587.6
414.901	673.61
415.11	661.32
415.318	681.8
415.526	667.47
415.734	634.7
415.943	628.56
416.151	739.15
416.359	747.34
416.567	698.19
416.776	710.47
416.984	890.7
417.192	835.4
417.4	841.54
417.608	862.02
417.817	872.26
418.025	966.47
418.233	952.13
418.441	976.71
418.649	989
418.857	1134.4
419.065	1165.12
419.273	1177.41
419.481	1224.51
419.689	1238.85
419.897	1300.29
420.105	1234.75
420.313	1312.58
420.521	1410.88
420.729	1480.51
420.937	1464.13
421.145	1525.57
421.353	1529.66
421.561	1625.92
421.769	1689.4
421.977	1750.84
422.185	1765.18
422.393	1867.58
422.601	1974.07
422.809	1935.16
423.017	2037.56
423.224	2090.81
423.432	2062.13
423.64	2172.72
423.848	2357.04
424.056	2311.99
424.263	2606.89
424.471	2514.73
424.679	2580.27
424.887	2590.51
425.094	2770.73
425.302	2697
425.51	2860.84
425.718	2889.51
425.925	3016.49
426.133	2983.72
426.341	3331.87
426.548	3462.94
426.756	3395.36
426.964	3430.18
427.171	3680.03
427.379	3665.69
427.586	3755.8
427.794	3649.31
428.001	4085.53
428.209	4319
428.417	4206.36
428.624	4411.15
428.832	4370.19
429.039	4415.25
429.247	4491.02
429.454	4796.17
429.662	5019.4
429.869	4800.27
430.076	5056.26
430.284	4908.81
430.491	5197.57
430.699	5650.18
430.906	5490.43
431.114	5617.41
431.321	5828.35
431.528	5932.79
431.736	6237.94
431.943	6538.99
432.15	6358.77
432.358	6582
432.565	7012.07
432.772	6792.94
432.979	7128.81
433.187	7216.87
433.394	7313.13
433.601	7790.3
433.808	7663.33
434.016	7735.01
434.223	8138.46
434.43	8718.03
434.637	8560.34
434.844	9023.18
435.052	8926.93
435.259	8988.36
435.466	9150.15
435.673	9006.8
435.88	9516.74
436.087	10112.7
436.294	10127.03
436.501	9891.52
436.708	10098.36
436.915	10217.15
437.122	10722.99
437.329	10708.66
437.537	11243.18
437.743	11337.38
437.95	11128.49
438.157	11708.07
438.364	12289.69
438.571	12132
438.778	12437.14
438.985	13274.76
439.192	12807.83
439.399	13463.18
439.606	13067.92
439.813	13756.04
440.02	14569.08
440.227	14206.59
440.433	13907.59
440.64	14732.92
440.847	14376.57
441.054	15031.92
441.261	15867.49
441.467	15427.18
441.674	15926.88
441.881	16311.9
442.088	16643.67
442.294	16004.71
442.501	16465.5
442.708	17092.18
442.914	17507.91
443.121	18540.09
443.328	17882.69
443.534	19037.75
443.741	18697.78
443.948	18376.25
444.154	19738.15
444.361	19637.8
444.568	19813.93
444.774	19768.87
444.981	20049.44
445.187	20379.17
445.394	21411.34
445.6	21413.39
445.807	23135.73
446.013	22003.21
446.22	22562.3
446.426	23350.77
446.633	23416.3
446.839	24438.24
447.046	23240.18
447.252	24704.48
447.459	24692.19
447.665	24651.23
447.871	25595.34
448.078	26619.33
448.284	25470.42
448.491	26174.92
448.697	26953.15
448.903	27596.21
449.11	27803.05
449.316	27514.29
449.522	28001.71
449.728	28605.86
449.935	28896.67
450.141	28865.95
450.347	29619.6
450.553	28618.14
450.76	28765.6
450.966	29902.22
451.172	29435.28
451.378	30424.45
451.584	29549.97
451.791	30659.97
451.997	30156.17
452.203	30875.01
452.409	31053.18
452.615	30629.25
452.821	29203.86
453.027	28992.92
453.233	30639.49
453.44	29291.93
453.646	29539.73
453.852	29826.45
454.058	30082.44
454.264	29097.37
454.47	30277
454.676	29382.04
454.882	30250.38
455.088	27655.6
455.294	27858.35
455.5	28665.25
455.705	28491.17
455.911	27805.1
456.117	27188.66
456.323	26906.04
456.529	25095.64
456.735	26609.09
456.941	25748.94
457.147	25138.65
457.352	24479.2
457.558	24094.18
457.764	24284.64
457.97	23725.55
458.176	23238.13
458.381	23090.68
458.587	21954.05
458.793	21906.95
458.999	20792.86
459.204	22459.9
459.41	21790.22
459.616	20121.12
459.821	20076.07
460.027	20108.83
460.233	19781.16
460.438	18767.41
460.644	19054.13
460.85	18179.65
461.055	17872.45
461.261	17854.02
461.466	16332.38
461.672	15844.96
461.878	17114.7
462.083	15926.88
462.289	15435.37
462.494	15406.7
462.7	14749.3
462.905	14354.04
463.111	14939.76
463.316	15115.89
463.522	14438.01
463.727	14429.82
463.932	14577.27
464.138	14255.74
464.343	14472.82
464.549	13952.64
464.754	14509.69
464.959	14472.82
465.165	14069.37
465.37	13502.09
465.575	13135.5
465.781	13608.58
465.986	13727.36
466.191	13088.4
466.397	12916.37
466.602	12355.22
