Data from USB4F104151__211__14-33-31-521.txt Node

Date: Thu Mar 13 14:33:31 EDT 2025
User: louis
Spectrometer: USB4F10415
Trigger mode: 4
Integration Time (sec): 2.500000E-2
Scans to average: 1
Electric dark correction enabled: true
Nonlinearity correction enabled: false
Boxcar width: 0
XAxis mode: Wavelengths
Number of Pixels in Spectrum: 3648
>>>>>Begin Spectral Data<<<<<
178.204	-194.9
178.424	-194.9
178.644	-194.9
178.864	-168.27
179.084	-139.6
179.304	-10.58
179.524	-24.92
179.744	28.33
179.964	-20.82
180.184	-4.44
180.404	57
180.624	-12.63
180.844	-16.73
181.064	-4.44
181.283	-16.73
181.503	-29.01
181.723	54.95
181.943	-10.58
182.163	116.39
182.383	22.19
182.602	13.99
182.822	1.71
183.042	52.91
183.262	52.91
183.482	7.85
183.701	52.91
183.921	30.38
184.141	-20.82
184.361	-10.58
184.58	83.63
184.8	97.96
185.02	40.62
185.239	44.71
185.459	-26.96
185.679	140.97
185.898	22.19
186.118	61.1
186.338	36.52
186.557	118.44
186.777	24.23
186.997	65.19
187.216	28.33
187.436	143.02
187.655	48.81
187.875	24.23
188.095	20.14
188.314	20.14
188.534	120.49
188.753	48.81
188.973	30.38
189.192	102.06
189.412	-12.63
189.631	38.57
189.851	46.76
190.07	110.25
190.29	11.95
190.509	30.38
190.729	38.57
190.948	69.29
191.168	69.29
191.387	13.99
191.607	7.85
191.826	-2.39
192.045	65.19
192.265	30.38
192.484	34.47
192.704	-43.35
192.923	118.44
193.142	87.72
193.362	61.1
193.581	73.39
193.8	95.91
194.02	79.53
194.239	20.14
194.458	93.87
194.678	61.1
194.897	11.95
195.116	69.29
195.335	44.71
195.555	46.76
195.774	83.63
195.993	110.25
196.212	24.23
196.432	38.57
196.651	40.62
196.87	38.57
197.089	36.52
197.308	69.29
197.528	57
197.747	-16.73
197.966	52.91
198.185	79.53
198.404	97.96
198.623	20.14
198.842	69.29
199.062	30.38
199.281	65.19
199.5	61.1
199.719	112.3
199.938	-8.53
200.157	69.29
200.376	81.58
200.595	106.15
200.814	102.06
201.033	3.75
201.252	102.06
201.471	-10.58
201.69	7.85
201.909	102.06
202.128	61.1
202.347	93.87
202.566	36.52
202.785	-31.06
203.004	20.14
203.223	69.29
203.442	73.39
203.661	13.99
203.879	81.58
204.098	7.85
204.317	40.62
204.536	104.11
204.755	44.71
204.974	85.67
205.193	13.99
205.411	159.4
205.63	140.97
205.849	-20.82
206.068	16.04
206.287	24.23
206.505	134.82
206.724	40.62
206.943	46.76
207.162	52.91
207.381	63.15
207.599	61.1
207.818	38.57
208.037	61.1
208.255	77.48
208.474	59.05
208.693	28.33
208.911	16.04
209.13	40.62
209.349	73.39
209.567	61.1
209.786	130.73
210.005	63.15
210.223	44.71
210.442	44.71
210.661	42.67
210.879	69.29
211.098	69.29
211.316	63.15
211.535	83.63
211.753	24.23
211.972	52.91
212.191	85.67
212.409	85.67
212.628	54.95
212.846	26.28
213.065	46.76
213.283	79.53
213.502	18.09
213.72	54.95
213.938	40.62
214.157	93.87
214.375	175.78
214.594	102.06
214.812	20.14
215.031	57
215.249	24.23
215.467	20.14
215.686	81.58
215.904	61.1
216.122	67.24
216.341	106.15
216.559	59.05
216.778	79.53
216.996	71.34
217.214	3.75
217.432	73.39
217.651	36.52
217.869	-10.58
218.087	65.19
218.306	93.87
218.524	73.39
218.742	-0.34
218.96	118.44
219.179	104.11
219.397	71.34
219.615	120.49
219.833	-16.73
220.051	38.57
220.27	114.34
220.488	61.1
220.706	122.54
220.924	85.67
221.142	61.1
221.36	145.06
221.578	118.44
221.796	83.63
222.015	52.91
222.233	-43.35
222.451	106.15
222.669	20.14
222.887	28.33
223.105	54.95
223.323	79.53
223.541	54.95
223.759	13.99
223.977	1.71
224.195	97.96
224.413	52.91
224.631	77.48
224.849	79.53
225.067	102.06
225.285	81.58
225.503	85.67
225.721	32.43
225.939	26.28
226.157	59.05
226.375	132.78
226.592	61.1
226.81	93.87
227.028	102.06
227.246	112.3
227.464	11.95
227.682	79.53
227.9	102.06
228.117	46.76
228.335	44.71
228.553	73.39
228.771	112.3
228.989	57
229.206	32.43
229.424	-37.2
229.642	-59.73
229.86	-4.44
230.077	50.86
230.295	38.57
230.513	122.54
230.731	110.25
230.948	69.29
231.166	52.91
231.384	85.67
231.601	13.99
231.819	132.78
232.037	52.91
232.254	-2.39
232.472	18.09
232.689	26.28
232.907	-0.34
233.125	32.43
233.342	34.47
233.56	54.95
233.777	-16.73
233.995	79.53
234.213	5.8
234.43	46.76
234.648	54.95
234.865	-8.53
235.083	59.05
235.3	38.57
235.518	93.87
235.735	153.26
235.953	106.15
236.17	-18.77
236.388	110.25
236.605	22.19
236.822	143.02
237.04	85.67
237.257	52.91
237.475	-20.82
237.692	57
237.909	-20.82
238.127	-20.82
238.344	67.24
238.562	75.43
238.779	-4.44
238.996	59.05
239.214	5.8
239.431	63.15
239.648	5.8
239.865	44.71
240.083	18.09
240.3	32.43
240.517	44.71
240.735	69.29
240.952	192.17
241.169	57
241.386	-12.63
241.603	38.57
241.821	30.38
242.038	54.95
242.255	40.62
242.472	-6.49
242.689	28.33
242.907	52.91
243.124	20.14
243.341	85.67
243.558	50.86
243.775	13.99
243.992	16.04
244.209	65.19
244.426	114.34
244.643	77.48
244.86	18.09
245.078	118.44
245.295	30.38
245.512	69.29
245.729	-29.01
245.946	85.67
246.163	1.71
246.38	65.19
246.597	-2.39
246.814	11.95
247.031	24.23
247.248	77.48
247.464	69.29
247.681	-14.68
247.898	71.34
248.115	136.87
248.332	-14.68
248.549	44.71
248.766	136.87
248.983	48.81
249.2	122.54
249.417	100.01
249.633	38.57
249.85	85.67
250.067	3.75
250.284	102.06
250.501	77.48
250.717	93.87
250.934	-29.01
251.151	93.87
251.368	42.67
251.585	112.3
251.801	22.19
252.018	40.62
252.235	40.62
252.451	97.96
252.668	20.14
252.885	7.85
253.102	20.14
253.318	87.72
253.535	54.95
253.752	44.71
253.968	71.34
254.185	24.23
254.401	89.77
254.618	122.54
254.835	73.39
255.051	63.15
255.268	11.95
255.484	44.71
255.701	28.33
255.917	104.11
256.134	-20.82
256.351	112.3
256.567	61.1
256.784	28.33
257	-4.44
257.217	102.06
257.433	79.53
257.65	77.48
257.866	89.77
258.082	-0.34
258.299	-20.82
258.515	85.67
258.732	20.14
258.948	36.52
259.165	-22.87
259.381	-41.3
259.597	136.87
259.814	112.3
260.03	95.91
260.246	34.47
260.463	69.29
260.679	134.82
260.895	9.9
261.112	75.43
261.328	28.33
261.544	87.72
261.761	186.02
261.977	18.09
262.193	28.33
262.409	44.71
262.626	32.43
262.842	77.48
263.058	-16.73
263.274	24.23
263.49	3.75
263.707	93.87
263.923	24.23
264.139	28.33
264.355	-4.44
264.571	114.34
264.787	104.11
265.004	102.06
265.22	75.43
265.436	11.95
265.652	11.95
265.868	186.02
266.084	30.38
266.3	52.91
266.516	-26.96
266.732	69.29
266.948	38.57
267.164	-4.44
267.38	102.06
267.596	81.58
267.812	48.81
268.028	67.24
268.244	46.76
268.46	63.15
268.676	-6.49
268.892	79.53
269.108	9.9
269.324	-8.53
269.54	59.05
269.756	100.01
269.972	1.71
270.188	44.71
270.403	-12.63
270.619	75.43
270.835	104.11
271.051	38.57
271.267	106.15
271.483	95.91
271.698	16.04
271.914	112.3
272.13	-0.34
272.346	32.43
272.562	97.96
272.777	44.71
272.993	40.62
273.209	69.29
273.425	63.15
273.64	44.71
273.856	102.06
274.072	-29.01
274.287	-14.68
274.503	102.06
274.719	118.44
274.934	26.28
275.15	1.71
275.366	42.67
275.581	24.23
275.797	79.53
276.012	38.57
276.228	28.33
276.444	63.15
276.659	46.76
276.875	18.09
277.09	52.91
277.306	95.91
277.521	89.77
277.737	67.24
277.952	20.14
278.168	-0.34
278.383	71.34
278.599	77.48
278.814	30.38
279.03	77.48
279.245	79.53
279.461	-0.34
279.676	136.87
279.892	63.15
280.107	-4.44
280.322	-8.53
280.538	93.87
280.753	73.39
280.969	52.91
281.184	85.67
281.399	120.49
281.615	3.75
281.83	52.91
282.045	34.47
282.26	67.24
282.476	102.06
282.691	36.52
282.906	11.95
283.122	50.86
283.337	5.8
283.552	85.67
283.767	52.91
283.983	32.43
284.198	91.82
284.413	77.48
284.628	7.85
284.843	16.04
285.058	-18.77
285.274	149.16
285.489	3.75
285.704	110.25
285.919	104.11
286.134	61.1
286.349	3.75
286.564	44.71
286.779	118.44
286.995	136.87
287.21	-0.34
287.425	106.15
287.64	20.14
287.855	140.97
288.07	-10.58
288.285	36.52
288.5	44.71
288.715	104.11
288.93	30.38
289.145	73.39
289.36	28.33
289.575	93.87
289.79	132.78
290.004	44.71
290.219	67.24
290.434	134.82
290.649	36.52
290.864	24.23
291.079	102.06
291.294	104.11
291.509	120.49
291.724	9.9
291.938	83.63
292.153	95.91
292.368	28.33
292.583	69.29
292.798	79.53
293.012	61.1
293.227	13.99
293.442	-18.77
293.657	85.67
293.871	110.25
294.086	104.11
294.301	110.25
294.516	40.62
294.73	93.87
294.945	52.91
295.16	77.48
295.374	110.25
295.589	97.96
295.804	30.38
296.018	36.52
296.233	85.67
296.447	147.11
296.662	-14.68
296.877	57
297.091	57
297.306	77.48
297.52	38.57
297.735	-4.44
297.949	-35.16
298.164	79.53
298.378	59.05
298.593	52.91
298.807	-31.06
299.022	11.95
299.236	48.81
299.451	93.87
299.665	28.33
299.88	77.48
300.094	93.87
300.309	-0.34
300.523	83.63
300.737	63.15
300.952	106.15
301.166	81.58
301.381	-4.44
301.595	11.95
301.809	81.58
302.024	5.8
302.238	-33.11
302.452	77.48
302.667	65.19
302.881	38.57
303.095	75.43
303.309	79.53
303.524	46.76
303.738	59.05
303.952	46.76
304.166	57
304.381	-35.16
304.595	102.06
304.809	38.57
305.023	20.14
305.237	36.52
305.452	57
305.666	79.53
305.88	79.53
306.094	73.39
306.308	71.34
306.522	5.8
306.736	46.76
306.95	-4.44
307.164	7.85
307.379	30.38
307.593	175.78
307.807	65.19
308.021	110.25
308.235	159.4
308.449	-18.77
308.663	89.77
308.877	163.5
309.091	102.06
309.305	36.52
309.519	-24.92
309.733	108.2
309.947	34.47
310.161	87.72
310.374	85.67
310.588	110.25
310.802	32.43
311.016	52.91
311.23	63.15
311.444	20.14
311.658	-22.87
311.872	112.3
312.085	52.91
312.299	77.48
312.513	85.67
312.727	106.15
312.941	61.1
313.154	104.11
313.368	132.78
313.582	24.23
313.796	65.19
314.009	71.34
314.223	161.45
314.437	100.01
314.651	73.39
314.864	73.39
315.078	16.04
315.292	28.33
315.505	44.71
315.719	32.43
315.933	118.44
316.146	108.2
316.36	-29.01
316.573	87.72
316.787	126.63
317.001	36.52
317.214	-33.11
317.428	7.85
317.641	9.9
317.855	73.39
318.068	20.14
318.282	40.62
318.495	97.96
318.709	106.15
318.922	85.67
319.136	63.15
319.349	93.87
319.563	167.59
319.776	153.26
319.99	34.47
320.203	3.75
320.417	-20.82
320.63	171.69
320.843	104.11
321.057	-6.49
321.27	61.1
321.483	3.75
321.697	54.95
321.91	97.96
322.124	63.15
322.337	77.48
322.55	36.52
322.763	97.96
322.977	57
323.19	54.95
323.403	24.23
323.617	87.72
323.83	81.58
324.043	13.99
324.256	104.11
324.469	-4.44
324.683	77.48
324.896	-12.63
325.109	36.52
325.322	44.71
325.535	69.29
325.748	81.58
325.962	93.87
326.175	3.75
326.388	75.43
326.601	112.3
326.814	63.15
327.027	61.1
327.24	32.43
327.453	30.38
327.666	126.63
327.879	30.38
328.092	161.45
328.305	52.91
328.518	69.29
328.731	48.81
328.944	13.99
329.157	22.19
329.37	44.71
329.583	79.53
329.796	93.87
330.009	65.19
330.222	63.15
330.435	44.71
330.648	52.91
330.861	77.48
331.073	77.48
331.286	38.57
331.499	100.01
331.712	69.29
331.925	57
332.138	38.57
332.35	28.33
332.563	-4.44
332.776	22.19
332.989	32.43
333.202	57
333.414	83.63
333.627	65.19
333.84	11.95
334.053	59.05
334.265	87.72
334.478	22.19
334.691	149.16
334.903	69.29
335.116	28.33
335.329	87.72
335.541	-2.39
335.754	188.07
335.966	36.52
336.179	95.91
336.392	63.15
336.604	24.23
336.817	63.15
337.029	52.91
337.242	75.43
337.454	34.47
337.667	24.23
337.88	63.15
338.092	110.25
338.305	120.49
338.517	-14.68
338.729	20.14
338.942	151.21
339.154	-10.58
339.367	28.33
339.579	52.91
339.792	30.38
340.004	54.95
340.217	-8.53
340.429	52.91
340.641	54.95
340.854	22.19
341.066	13.99
341.278	48.81
341.491	89.77
341.703	-43.35
341.915	-4.44
342.128	153.26
342.34	97.96
342.552	36.52
342.764	73.39
342.977	61.1
343.189	30.38
343.401	13.99
343.613	52.91
343.826	52.91
344.038	73.39
344.25	87.72
344.462	-6.49
344.674	77.48
344.886	75.43
345.099	93.87
345.311	71.34
345.523	22.19
345.735	-14.68
345.947	36.52
346.159	46.76
346.371	48.81
346.583	11.95
346.795	138.92
347.007	32.43
347.219	100.01
347.431	110.25
347.643	93.87
347.855	5.8
348.067	79.53
348.279	-20.82
348.491	87.72
348.703	42.67
348.915	54.95
349.127	44.71
349.339	126.63
349.551	46.76
349.763	40.62
349.975	50.86
350.187	20.14
350.399	71.34
350.61	126.63
350.822	42.67
351.034	102.06
351.246	69.29
351.458	91.82
351.669	108.2
351.881	73.39
352.093	97.96
352.305	153.26
352.517	77.48
352.728	106.15
352.94	112.3
353.152	20.14
353.363	24.23
353.575	67.24
353.787	124.58
353.999	85.67
354.21	69.29
354.422	22.19
354.633	28.33
354.845	36.52
355.057	52.91
355.268	126.63
355.48	91.82
355.692	44.71
355.903	91.82
356.115	77.48
356.326	24.23
356.538	155.3
356.749	116.39
356.961	143.02
357.172	44.71
357.384	-20.82
357.595	106.15
357.807	1.71
358.018	71.34
358.23	46.76
358.441	136.87
358.653	57
358.864	-31.06
359.075	134.82
359.287	97.96
359.498	34.47
359.709	63.15
359.921	69.29
360.132	54.95
360.344	59.05
360.555	32.43
360.766	52.91
360.977	52.91
361.189	143.02
361.4	40.62
361.611	188.07
361.823	36.52
362.034	46.76
362.245	-41.3
362.456	59.05
362.667	112.3
362.879	57
363.09	95.91
363.301	38.57
363.512	38.57
363.723	22.19
363.935	20.14
364.146	81.58
364.357	77.48
364.568	114.34
364.779	20.14
364.99	130.73
365.201	32.43
365.412	118.44
365.623	13.99
365.834	54.95
366.045	110.25
366.256	81.58
366.467	77.48
366.678	61.1
366.889	177.83
367.1	71.34
367.311	81.58
367.522	-33.11
367.733	128.68
367.944	153.26
368.155	52.91
368.366	102.06
368.577	38.57
368.788	102.06
368.999	61.1
369.209	110.25
369.42	61.1
369.631	153.26
369.842	102.06
370.053	118.44
370.264	48.81
370.474	91.82
370.685	54.95
370.896	120.49
371.107	122.54
371.317	143.02
371.528	85.67
371.739	104.11
371.95	114.34
372.16	177.83
372.371	16.04
372.582	11.95
372.792	91.82
373.003	95.91
373.214	32.43
373.424	95.91
373.635	22.19
373.846	26.28
374.056	124.58
374.267	44.71
374.477	97.96
374.688	57
374.898	91.82
375.109	97.96
375.319	30.38
375.53	147.11
375.74	52.91
375.951	63.15
376.161	79.53
376.372	54.95
376.582	16.04
376.793	52.91
377.003	65.19
377.214	48.81
377.424	36.52
377.635	36.52
377.845	63.15
378.055	65.19
378.266	22.19
378.476	73.39
378.686	65.19
378.897	69.29
379.107	79.53
379.317	83.63
379.528	69.29
379.738	69.29
379.948	28.33
380.158	63.15
380.369	118.44
380.579	67.24
380.789	79.53
380.999	77.48
381.21	108.2
381.42	61.1
381.63	61.1
381.84	153.26
382.05	57
382.261	65.19
382.471	110.25
382.681	69.29
382.891	186.02
383.101	81.58
383.311	91.82
383.521	85.67
383.731	22.19
383.941	118.44
384.151	79.53
384.361	44.71
384.571	77.48
384.781	93.87
384.991	177.83
385.201	124.58
385.411	95.91
385.621	89.77
385.831	118.44
386.041	63.15
386.251	108.2
386.461	151.21
386.671	69.29
386.881	110.25
387.091	102.06
387.301	138.92
387.511	46.76
387.72	87.72
387.93	69.29
388.14	-33.11
388.35	85.67
388.56	104.11
388.769	118.44
388.979	81.58
389.189	46.76
389.399	85.67
389.609	100.01
389.818	112.3
390.028	89.77
390.238	79.53
390.447	79.53
390.657	69.29
390.867	50.86
391.076	11.95
391.286	69.29
391.496	52.91
391.705	89.77
391.915	167.59
392.125	85.67
392.334	97.96
392.544	102.06
392.753	91.82
392.963	34.47
393.172	102.06
393.382	161.45
393.591	134.82
393.801	57
394.01	147.11
394.22	126.63
394.429	102.06
394.639	28.33
394.848	126.63
395.058	134.82
395.267	93.87
395.477	161.45
395.686	110.25
395.895	169.64
396.105	153.26
396.314	59.05
396.524	161.45
396.733	143.02
396.942	130.73
397.152	128.68
397.361	140.97
397.57	181.93
397.78	102.06
397.989	153.26
398.198	249.51
398.407	192.17
398.617	216.74
398.826	151.21
399.035	143.02
399.244	114.34
399.453	196.26
399.663	149.16
399.872	167.59
400.081	69.29
400.29	134.82
400.499	159.4
400.708	204.46
400.917	134.82
401.127	81.58
401.336	167.59
401.545	208.55
401.754	188.07
401.963	276.13
402.172	173.74
402.381	44.71
402.59	216.74
402.799	151.21
403.008	192.17
403.217	177.83
403.426	151.21
403.635	177.83
403.844	167.59
404.053	179.88
404.262	151.21
404.471	274.09
404.68	231.08
404.888	147.11
405.097	216.74
405.306	155.3
405.515	188.07
405.724	210.6
405.933	229.03
406.142	222.89
406.35	337.57
406.559	188.07
406.768	280.23
406.977	278.18
407.185	278.18
407.394	257.7
407.603	265.89
407.812	249.51
408.02	372.39
408.229	323.24
408.438	302.76
408.646	278.18
408.855	290.47
409.064	409.25
409.272	306.85
409.481	372.39
409.69	380.58
409.898	341.67
410.107	384.68
410.315	458.4
410.524	456.36
410.733	495.27
410.941	480.93
411.15	464.55
411.358	495.27
411.567	568.99
411.775	548.51
411.984	546.47
412.192	589.47
412.401	556.71
412.609	687.78
412.818	704.16
413.026	571.04
413.234	659.1
413.443	716.45
413.651	753.31
413.86	822.94
414.068	800.41
414.276	822.94
414.485	816.8
414.693	941.72
414.901	863.9
415.11	863.9
415.318	1013.4
415.526	847.52
415.734	994.97
415.943	1054.36
416.151	1169.05
416.359	1093.27
416.567	1085.08
416.776	1171.1
416.984	1318.55
417.192	1240.73
417.4	1265.3
417.608	1310.36
417.817	1412.76
418.025	1400.47
418.233	1535.64
418.441	1449.62
418.649	1529.49
418.857	1595.03
419.065	1711.76
419.273	1662.61
419.481	1855.12
419.689	1869.45
419.897	1941.13
420.105	1930.89
420.313	2080.39
420.521	2135.69
420.729	2094.73
420.937	2266.76
421.145	2240.14
421.353	2438.79
421.561	2403.97
421.769	2625.15
421.977	2631.3
422.185	2559.62
422.393	2850.43
422.601	3049.08
422.809	2856.58
423.017	2950.78
423.224	3102.33
423.432	3126.91
423.64	3249.79
423.848	3597.94
424.056	3411.57
424.263	3810.93
424.471	3657.33
424.679	3815.02
424.887	4017.77
425.094	4085.36
425.302	4154.99
425.51	4150.89
425.718	4355.69
425.925	4456.04
426.133	4544.1
426.341	4873.82
426.548	4879.97
426.756	4986.46
426.964	5017.18
427.171	5457.5
427.379	5512.79
427.586	5588.57
427.794	5750.35
428.001	6065.74
428.209	6151.76
428.417	6098.51
428.624	6614.6
428.832	6794.82
429.039	6442.57
429.247	6444.62
429.454	7278.14
429.662	7718.45
429.869	7272
430.076	7835.19
430.284	7581.24
430.491	7654.97
430.699	8230.45
430.906	8312.36
431.114	8312.36
431.321	8498.73
431.528	8629.8
431.736	9250.33
431.943	9815.57
432.15	9567.77
432.358	9682.45
432.565	10104.34
432.772	10092.05
432.979	10645
433.187	10761.73
433.394	10960.39
433.601	11439.61
433.808	11648.5
434.016	11521.53
434.223	12064.24
434.43	12848.61
434.637	12565.99
434.844	13393.37
435.052	13422.05
435.259	13307.36
435.466	13688.28
435.673	13495.77
435.88	14388.69
436.087	15103.43
436.294	15046.09
436.501	14521.81
436.708	14915.02
436.915	15441.34
437.122	16141.75
437.329	16108.98
437.537	16567.73
437.743	16960.94
437.95	16866.73
438.157	17517.98
438.364	18408.85
438.571	18115.99
438.778	18146.71
438.985	19889.53
439.192	19201.41
439.399	19666.3
439.606	19242.37
439.813	20616.56
440.02	21521.76
440.227	21237.09
440.433	20663.66
440.64	21605.73
440.847	21671.26
441.054	22146.39
441.261	23848.25
441.467	23096.65
441.674	23516.48
441.881	24472.89
442.088	24395.06
442.294	24169.79
442.501	24337.72
442.708	25328.94
442.914	26332.44
443.121	27442.44
443.328	26486.04
443.534	28130.56
443.741	27714.82
443.948	27063.57
444.154	29336.81
444.361	28929.27
444.568	29349.1
444.774	29101.29
444.981	29390.06
445.187	30448.86
445.394	31620.3
445.6	31188.17
445.807	34321.57
446.013	32771.25
446.22	33385.65
446.426	34774.17
446.633	35210.39
446.839	36160.64
447.046	34430.11
447.252	36172.93
447.459	36584.57
447.665	36435.07
447.871	37815.4
448.078	39421.01
448.284	37577.84
448.491	38548.57
448.697	39967.82
448.903	41077.82
449.11	40657.98
449.316	40215.62
449.522	41155.64
449.728	42570.79
449.935	42492.96
450.141	42488.87
450.347	43357.21
450.553	42054.7
450.76	42398.76
450.966	44067.85
451.172	43447.32
451.378	45149.18
451.584	43688.98
451.791	44700.67
451.997	44811.26
452.203	45466.61
452.409	45358.07
452.615	45038.59
452.821	43582.48
453.027	43367.44
453.233	45302.78
453.44	43715.6
453.646	43818
453.852	44162.06
454.058	44737.54
454.264	43467.8
454.47	44694.53
454.676	43297.81
454.882	44717.06
455.088	41255.99
455.294	41571.38
455.5	42638.37
455.705	42718.24
455.911	41083.96
456.117	40272.96
456.323	39664.72
456.529	37379.18
456.735	39271.51
456.941	38472.8
457.147	37555.31
457.352	36705.4
457.558	36447.36
457.764	35998.85
457.97	35490.96
458.176	34634.91
458.381	34907.29
458.587	33170.61
458.793	32978.1
458.999	31585.48
459.204	33547.43
459.41	33041.59
459.616	30467.29
459.821	30557.4
460.027	30424.28
460.233	29641.96
460.438	28265.72
460.644	28763.38
460.85	27270.41
461.055	26852.62
461.261	26934.54
461.466	24712.5
461.672	24102.2
461.878	25838.88
462.083	24231.22
462.289	23758.14
462.494	23172.43
462.7	22343
462.905	21480.8
463.111	22103.39
463.316	22363.48
463.522	22074.71
463.727	22056.28
463.932	22148.44
464.138	21464.42
464.343	21417.32
464.549	21269.86
464.754	21437.8
464.959	21683.55
465.165	21226.85
465.37	20233.59
465.575	19746.17
465.781	20436.34
465.986	20485.49
466.191	19848.57
