Data from USB4F104151__247__14-34-13-160.txt Node

Date: Thu Mar 13 14:34:13 EDT 2025
User: louis
Spectrometer: USB4F10415
Trigger mode: 4
Integration Time (sec): 2.500000E-2
Scans to average: 1
Electric dark correction enabled: true
Nonlinearity correction enabled: false
Boxcar width: 0
XAxis mode: Wavelengths
Number of Pixels in Spectrum: 3648
>>>>>Begin Spectral Data<<<<<
178.204	-143.7
178.424	-143.7
178.644	-143.7
178.864	-141.65
179.084	-162.13
179.304	-10.58
179.524	-22.87
179.744	11.95
179.964	67.24
180.184	-110.93
180.404	-12.63
180.624	50.86
180.844	-14.68
181.064	-0.34
181.283	9.9
181.503	-39.25
181.723	71.34
181.943	-22.87
182.163	67.24
182.383	26.28
182.602	24.23
182.822	9.9
183.042	38.57
183.262	-35.16
183.482	1.71
183.701	-29.01
183.921	-29.01
184.141	-12.63
184.361	18.09
184.58	3.75
184.8	1.71
185.02	18.09
185.239	50.86
185.459	-22.87
185.679	34.47
185.898	3.75
186.118	100.01
186.338	9.9
186.557	54.95
186.777	-35.16
186.997	91.82
187.216	77.48
187.436	75.43
187.655	110.25
187.875	5.8
188.095	-45.4
188.314	108.2
188.534	34.47
188.753	34.47
188.973	116.39
189.192	87.72
189.412	44.71
189.631	44.71
189.851	46.76
190.07	42.67
190.29	44.71
190.509	-20.82
190.729	-14.68
190.948	34.47
191.168	163.5
191.387	89.77
191.607	28.33
191.826	59.05
192.045	-4.44
192.265	36.52
192.484	9.9
192.704	9.9
192.923	24.23
193.142	132.78
193.362	71.34
193.581	61.1
193.8	44.71
194.02	65.19
194.239	34.47
194.458	91.82
194.678	32.43
194.897	22.19
195.116	1.71
195.335	30.38
195.555	69.29
195.774	-39.25
195.993	95.91
196.212	48.81
196.432	-26.96
196.651	46.76
196.87	11.95
197.089	57
197.308	93.87
197.528	91.82
197.747	-14.68
197.966	28.33
198.185	112.3
198.404	3.75
198.623	18.09
198.842	87.72
199.062	16.04
199.281	42.67
199.5	18.09
199.719	67.24
199.938	-8.53
200.157	102.06
200.376	106.15
200.595	1.71
200.814	26.28
201.033	28.33
201.252	38.57
201.471	18.09
201.69	71.34
201.909	140.97
202.128	75.43
202.347	81.58
202.566	67.24
202.785	-31.06
203.004	-67.92
203.223	120.49
203.442	77.48
203.661	67.24
203.879	-14.68
204.098	157.35
204.317	34.47
204.536	54.95
204.755	71.34
204.974	44.71
205.193	95.91
205.411	128.68
205.63	75.43
205.849	61.1
206.068	85.67
206.287	11.95
206.505	42.67
206.724	-51.54
206.943	-86.36
207.162	18.09
207.381	93.87
207.599	-67.92
207.818	97.96
208.037	20.14
208.255	54.95
208.474	54.95
208.693	28.33
208.911	9.9
209.13	36.52
209.349	71.34
209.567	52.91
209.786	93.87
210.005	50.86
210.223	77.48
210.442	9.9
210.661	-31.06
210.879	44.71
211.098	57
211.316	18.09
211.535	85.67
211.753	89.77
211.972	69.29
212.191	44.71
212.409	-29.01
212.628	-10.58
212.846	7.85
213.065	46.76
213.283	63.15
213.502	5.8
213.72	-18.77
213.938	9.9
214.157	71.34
214.375	44.71
214.594	63.15
214.812	9.9
215.031	-6.49
215.249	-35.16
215.467	13.99
215.686	5.8
215.904	149.16
216.122	42.67
216.341	79.53
216.559	-41.3
216.778	116.39
216.996	30.38
217.214	3.75
217.432	-63.83
217.651	50.86
217.869	36.52
218.087	5.8
218.306	83.63
218.524	69.29
218.742	48.81
218.96	46.76
219.179	-10.58
219.397	50.86
219.615	57
219.833	52.91
220.051	20.14
220.27	122.54
220.488	26.28
220.706	13.99
220.924	28.33
221.142	26.28
221.36	13.99
221.578	134.82
221.796	42.67
222.015	38.57
222.233	34.47
222.451	83.63
222.669	7.85
222.887	50.86
223.105	-37.2
223.323	-47.44
223.541	-63.83
223.759	-2.39
223.977	20.14
224.195	59.05
224.413	24.23
224.631	67.24
224.849	-22.87
225.067	34.47
225.285	5.8
225.503	89.77
225.721	-96.6
225.939	28.33
226.157	34.47
226.375	100.01
226.592	11.95
226.81	-6.49
227.028	149.16
227.246	85.67
227.464	5.8
227.682	75.43
227.9	120.49
228.117	59.05
228.335	30.38
228.553	13.99
228.771	-6.49
228.989	11.95
229.206	54.95
229.424	91.82
229.642	-6.49
229.86	9.9
230.077	11.95
230.295	73.39
230.513	110.25
230.731	30.38
230.948	59.05
231.166	46.76
231.384	28.33
231.601	-39.25
231.819	59.05
232.037	11.95
232.254	69.29
232.472	59.05
232.689	1.71
232.907	52.91
233.125	-55.64
233.342	75.43
233.56	-0.34
233.777	3.75
233.995	-4.44
234.213	38.57
234.43	38.57
234.648	-0.34
234.865	13.99
235.083	95.91
235.3	67.24
235.518	120.49
235.735	130.73
235.953	83.63
236.17	18.09
236.388	108.2
236.605	-35.16
236.822	79.53
237.04	5.8
237.257	-31.06
237.475	-18.77
237.692	40.62
237.909	73.39
238.127	9.9
238.344	61.1
238.562	30.38
238.779	-22.87
238.996	1.71
239.214	34.47
239.431	59.05
239.648	59.05
239.865	67.24
240.083	-35.16
240.3	48.81
240.517	46.76
240.735	46.76
240.952	22.19
241.169	20.14
241.386	9.9
241.603	34.47
241.821	-29.01
242.038	5.8
242.255	40.62
242.472	-61.78
242.689	18.09
242.907	110.25
243.124	18.09
243.341	34.47
243.558	59.05
243.775	18.09
243.992	40.62
244.209	69.29
244.426	77.48
244.643	67.24
244.86	-24.92
245.078	83.63
245.295	38.57
245.512	32.43
245.729	24.23
245.946	34.47
246.163	69.29
246.38	-74.07
246.597	-4.44
246.814	18.09
247.031	71.34
247.248	93.87
247.464	11.95
247.681	50.86
247.898	128.68
248.115	93.87
248.332	1.71
248.549	61.1
248.766	75.43
248.983	71.34
249.2	30.38
249.417	83.63
249.633	-20.82
249.85	46.76
250.067	-22.87
250.284	67.24
250.501	134.82
250.717	9.9
250.934	30.38
251.151	11.95
251.368	40.62
251.585	-2.39
251.801	54.95
252.018	79.53
252.235	79.53
252.451	34.47
252.668	-2.39
252.885	118.44
253.102	91.82
253.318	54.95
253.535	34.47
253.752	18.09
253.968	75.43
254.185	28.33
254.401	61.1
254.618	-57.68
254.835	46.76
255.051	22.19
255.268	20.14
255.484	54.95
255.701	30.38
255.917	42.67
256.134	13.99
256.351	24.23
256.567	-53.59
256.784	13.99
257	-6.49
257.217	91.82
257.433	63.15
257.65	9.9
257.866	91.82
258.082	18.09
258.299	-31.06
258.515	46.76
258.732	57
258.948	-63.83
259.165	54.95
259.381	61.1
259.597	-12.63
259.814	73.39
260.03	59.05
260.246	34.47
260.463	-16.73
260.679	42.67
260.895	18.09
261.112	67.24
261.328	20.14
261.544	-4.44
261.761	54.95
261.977	-47.44
262.193	-55.64
262.409	36.52
262.626	26.28
262.842	52.91
263.058	32.43
263.274	91.82
263.49	3.75
263.707	112.3
263.923	44.71
264.139	-80.21
264.355	69.29
264.571	100.01
264.787	9.9
265.004	50.86
265.22	-14.68
265.436	-22.87
265.652	38.57
265.868	91.82
266.084	61.1
266.3	44.71
266.516	7.85
266.732	-6.49
266.948	38.57
267.164	61.1
267.38	7.85
267.596	3.75
267.812	30.38
268.028	79.53
268.244	-20.82
268.46	102.06
268.676	5.8
268.892	-4.44
269.108	-53.59
269.324	-26.96
269.54	-47.44
269.756	3.75
269.972	102.06
270.188	63.15
270.403	28.33
270.619	5.8
270.835	42.67
271.051	87.72
271.267	38.57
271.483	40.62
271.698	42.67
271.914	67.24
272.13	26.28
272.346	-14.68
272.562	18.09
272.777	3.75
272.993	3.75
273.209	24.23
273.425	67.24
273.64	-2.39
273.856	-6.49
274.072	69.29
274.287	54.95
274.503	65.19
274.719	75.43
274.934	26.28
275.15	-84.31
275.366	-0.34
275.581	13.99
275.797	100.01
276.012	48.81
276.228	50.86
276.444	13.99
276.659	26.28
276.875	67.24
277.09	34.47
277.306	5.8
277.521	77.48
277.737	-35.16
277.952	26.28
278.168	106.15
278.383	34.47
278.599	52.91
278.814	61.1
279.03	42.67
279.245	77.48
279.461	26.28
279.676	34.47
279.892	-104.79
280.107	40.62
280.322	13.99
280.538	11.95
280.753	50.86
280.969	75.43
281.184	9.9
281.399	18.09
281.615	-29.01
281.83	32.43
282.045	83.63
282.26	75.43
282.476	7.85
282.691	138.92
282.906	54.95
283.122	42.67
283.337	18.09
283.552	102.06
283.767	-59.73
283.983	122.54
284.198	18.09
284.413	42.67
284.628	38.57
284.843	69.29
285.058	67.24
285.274	-2.39
285.489	22.19
285.704	93.87
285.919	-39.25
286.134	59.05
286.349	9.9
286.564	1.71
286.779	44.71
286.995	79.53
287.21	-22.87
287.425	-20.82
287.64	110.25
287.855	89.77
288.07	24.23
288.285	42.67
288.5	116.39
288.715	75.43
288.93	-10.58
289.145	75.43
289.36	75.43
289.575	77.48
289.79	3.75
290.004	34.47
290.219	69.29
290.434	-39.25
290.649	9.9
290.864	5.8
291.079	28.33
291.294	34.47
291.509	52.91
291.724	71.34
291.938	13.99
292.153	11.95
292.368	-4.44
292.583	36.52
292.798	75.43
293.012	44.71
293.227	18.09
293.442	61.1
293.657	75.43
293.871	114.34
294.086	97.96
294.301	85.67
294.516	71.34
294.73	44.71
294.945	54.95
295.16	11.95
295.374	77.48
295.589	73.39
295.804	59.05
296.018	59.05
296.233	63.15
296.447	89.77
296.662	5.8
296.877	57
297.091	9.9
297.306	100.01
297.52	-55.64
297.735	9.9
297.949	42.67
298.164	54.95
298.378	3.75
298.593	3.75
298.807	18.09
299.022	50.86
299.236	85.67
299.451	-12.63
299.665	3.75
299.88	-43.35
300.094	75.43
300.309	11.95
300.523	44.71
300.737	-10.58
300.952	42.67
301.166	75.43
301.381	59.05
301.595	59.05
301.809	44.71
302.024	52.91
302.238	75.43
302.452	108.2
302.667	44.71
302.881	75.43
303.095	48.81
303.309	-26.96
303.524	32.43
303.738	34.47
303.952	28.33
304.166	38.57
304.381	-18.77
304.595	100.01
304.809	40.62
305.023	34.47
305.237	50.86
305.452	132.78
305.666	104.11
305.88	30.38
306.094	-14.68
306.308	85.67
306.522	50.86
306.736	50.86
306.95	75.43
307.164	50.86
307.379	30.38
307.593	116.39
307.807	71.34
308.021	-6.49
308.235	26.28
308.449	26.28
308.663	81.58
308.877	100.01
309.091	59.05
309.305	36.52
309.519	-45.4
309.733	89.77
309.947	34.47
310.161	-31.06
310.374	118.44
310.588	30.38
310.802	1.71
311.016	36.52
311.23	83.63
311.444	-26.96
311.658	-24.92
311.872	69.29
312.085	63.15
312.299	30.38
312.513	61.1
312.727	44.71
312.941	11.95
313.154	97.96
313.368	5.8
313.582	63.15
313.796	52.91
314.009	-67.92
314.223	67.24
314.437	26.28
314.651	32.43
314.864	7.85
315.078	9.9
315.292	38.57
315.505	-6.49
315.719	61.1
315.933	42.67
316.146	42.67
316.36	42.67
316.573	22.19
316.787	18.09
317.001	-2.39
317.214	3.75
317.428	75.43
317.641	26.28
317.855	-4.44
318.068	75.43
318.282	54.95
318.495	69.29
318.709	1.71
318.922	26.28
319.136	116.39
319.349	63.15
319.563	83.63
319.776	-12.63
319.99	28.33
320.203	87.72
320.417	61.1
320.63	-45.4
320.843	130.73
321.057	-10.58
321.27	9.9
321.483	77.48
321.697	124.58
321.91	42.67
322.124	24.23
322.337	32.43
322.55	65.19
322.763	77.48
322.977	1.71
323.19	9.9
323.403	61.1
323.617	-10.58
323.83	91.82
324.043	42.67
324.256	91.82
324.469	61.1
324.683	153.26
324.896	67.24
325.109	20.14
325.322	-63.83
325.535	87.72
325.748	63.15
325.962	102.06
326.175	85.67
326.388	26.28
326.601	67.24
326.814	52.91
327.027	34.47
327.24	16.04
327.453	-2.39
327.666	-14.68
327.879	36.52
328.092	73.39
328.305	-2.39
328.518	-0.34
328.731	36.52
328.944	67.24
329.157	52.91
329.37	67.24
329.583	67.24
329.796	83.63
330.009	-45.4
330.222	75.43
330.435	77.48
330.648	59.05
330.861	-14.68
331.073	124.58
331.286	67.24
331.499	42.67
331.712	28.33
331.925	1.71
332.138	7.85
332.35	83.63
332.563	52.91
332.776	71.34
332.989	-20.82
333.202	69.29
333.414	32.43
333.627	83.63
333.84	61.1
334.053	-4.44
334.265	18.09
334.478	20.14
334.691	7.85
334.903	30.38
335.116	44.71
335.329	46.76
335.541	26.28
335.754	91.82
335.966	59.05
336.179	69.29
336.392	59.05
336.604	52.91
336.817	16.04
337.029	5.8
337.242	-31.06
337.454	67.24
337.667	54.95
337.88	87.72
338.092	3.75
338.305	24.23
338.517	22.19
338.729	34.47
338.942	75.43
339.154	18.09
339.367	36.52
339.579	-22.87
339.792	71.34
340.004	-6.49
340.217	67.24
340.429	26.28
340.641	44.71
340.854	24.23
341.066	-29.01
341.278	11.95
341.491	93.87
341.703	50.86
341.915	9.9
342.128	75.43
342.34	13.99
342.552	89.77
342.764	71.34
342.977	48.81
343.189	30.38
343.401	50.86
343.613	-4.44
343.826	13.99
344.038	26.28
344.25	42.67
344.462	-20.82
344.674	18.09
344.886	-10.58
345.099	7.85
345.311	85.67
345.523	93.87
345.735	-12.63
345.947	87.72
346.159	-16.73
346.371	75.43
346.583	38.57
346.795	130.73
347.007	34.47
347.219	165.54
347.431	54.95
347.643	110.25
347.855	38.57
348.067	26.28
348.279	-33.11
348.491	126.63
348.703	67.24
348.915	5.8
349.127	-47.44
349.339	3.75
349.551	46.76
349.763	59.05
349.975	63.15
350.187	100.01
350.399	52.91
350.61	100.01
350.822	7.85
351.034	22.19
351.246	106.15
351.458	57
351.669	44.71
351.881	61.1
352.093	22.19
352.305	46.76
352.517	83.63
352.728	52.91
352.94	83.63
353.152	26.28
353.363	73.39
353.575	-2.39
353.787	124.58
353.999	28.33
354.21	5.8
354.422	-35.16
354.633	42.67
354.845	32.43
355.057	54.95
355.268	71.34
355.48	128.68
355.692	28.33
355.903	69.29
356.115	34.47
356.326	-35.16
356.538	77.48
356.749	83.63
356.961	138.92
357.172	89.77
357.384	22.19
357.595	120.49
357.807	102.06
358.018	104.11
358.23	-29.01
358.441	114.34
358.653	108.2
358.864	11.95
359.075	5.8
359.287	42.67
359.498	83.63
359.709	46.76
359.921	52.91
360.132	1.71
360.344	-2.39
360.555	42.67
360.766	95.91
360.977	50.86
361.189	81.58
361.4	9.9
361.611	40.62
361.823	26.28
362.034	122.54
362.245	9.9
362.456	5.8
362.667	81.58
362.879	-20.82
363.09	18.09
363.301	-2.39
363.512	18.09
363.723	22.19
363.935	50.86
364.146	28.33
364.357	26.28
364.568	11.95
364.779	-26.96
364.99	132.78
365.201	18.09
365.412	44.71
365.623	42.67
365.834	13.99
366.045	83.63
366.256	54.95
366.467	75.43
366.678	38.57
366.889	54.95
367.1	26.28
367.311	69.29
367.522	30.38
367.733	100.01
367.944	143.02
368.155	91.82
368.366	75.43
368.577	48.81
368.788	102.06
368.999	9.9
369.209	83.63
369.42	130.73
369.631	124.58
369.842	93.87
370.053	59.05
370.264	75.43
370.474	75.43
370.685	-35.16
370.896	91.82
371.107	-18.77
371.317	108.2
371.528	48.81
371.739	46.76
371.95	102.06
372.16	20.14
372.371	44.71
372.582	134.82
372.792	46.76
373.003	50.86
373.214	81.58
373.424	75.43
373.635	83.63
373.846	57
374.056	26.28
374.267	112.3
374.477	34.47
374.688	13.99
374.898	104.11
375.109	-26.96
375.319	59.05
375.53	128.68
375.74	75.43
375.951	34.47
376.161	24.23
376.372	75.43
376.582	59.05
376.793	42.67
377.003	28.33
377.214	67.24
377.424	46.76
377.635	-55.64
377.845	28.33
378.055	67.24
378.266	9.9
378.476	73.39
378.686	13.99
378.897	104.11
379.107	32.43
379.317	34.47
379.528	26.28
379.738	63.15
379.948	32.43
380.158	69.29
380.369	20.14
380.579	57
380.789	32.43
380.999	61.1
381.21	34.47
381.42	63.15
381.63	42.67
381.84	87.72
382.05	36.52
382.261	63.15
382.471	91.82
382.681	-26.96
382.891	83.63
383.101	57
383.311	28.33
383.521	50.86
383.731	85.67
383.941	91.82
384.151	13.99
384.361	-57.68
384.571	108.2
384.781	95.91
384.991	134.82
385.201	100.01
385.411	126.63
385.621	108.2
385.831	54.95
386.041	124.58
386.251	46.76
386.461	20.14
386.671	38.57
386.881	28.33
387.091	11.95
387.301	81.58
387.511	85.67
387.72	48.81
387.93	36.52
388.14	5.8
388.35	9.9
388.56	126.63
388.769	93.87
388.979	83.63
389.189	91.82
389.399	52.91
389.609	130.73
389.818	61.1
390.028	87.72
390.238	69.29
390.447	50.86
390.657	67.24
390.867	7.85
391.076	-14.68
391.286	149.16
391.496	102.06
391.705	20.14
391.915	112.3
392.125	83.63
392.334	26.28
392.544	104.11
392.753	71.34
392.963	50.86
393.172	87.72
393.382	46.76
393.591	149.16
393.801	83.63
394.01	108.2
394.22	91.82
394.429	183.98
394.639	38.57
394.848	71.34
395.058	116.39
395.267	16.04
395.477	3.75
395.686	85.67
395.895	104.11
396.105	140.97
396.314	128.68
396.524	165.54
396.733	52.91
396.942	157.35
397.152	124.58
397.361	124.58
397.57	110.25
397.78	26.28
397.989	106.15
398.198	153.26
398.407	87.72
398.617	108.2
398.826	77.48
399.035	116.39
399.244	140.97
399.453	132.78
399.663	153.26
399.872	151.21
400.081	202.41
400.29	128.68
400.499	63.15
400.708	124.58
400.917	5.8
401.127	85.67
401.336	126.63
401.545	116.39
401.754	173.74
401.963	214.7
402.172	87.72
402.381	112.3
402.59	104.11
402.799	138.92
403.008	118.44
403.217	93.87
403.426	95.91
403.635	157.35
403.844	128.68
404.053	173.74
404.262	140.97
404.471	138.92
404.68	175.78
404.888	122.54
405.097	161.45
405.306	186.02
405.515	159.4
405.724	186.02
405.933	181.93
406.142	231.08
406.35	188.07
406.559	157.35
406.768	181.93
406.977	302.76
407.185	147.11
407.394	243.37
407.603	208.55
407.812	323.24
408.02	327.33
408.229	259.75
408.438	251.56
408.646	284.33
408.855	267.94
409.064	304.81
409.272	278.18
409.481	276.13
409.69	343.72
409.898	235.18
410.107	313
410.315	321.19
410.524	364.2
410.733	415.4
410.941	356.01
411.15	503.46
411.358	505.51
411.567	462.5
411.775	456.36
411.984	454.31
412.192	552.61
412.401	480.93
412.609	554.66
412.818	536.23
413.026	622.24
413.234	583.33
413.443	603.81
413.651	655.01
413.86	661.15
414.068	738.98
414.276	743.07
414.485	644.77
414.693	700.06
414.901	779.93
415.11	765.6
415.318	824.99
415.526	816.8
415.734	847.52
415.943	970.4
416.151	925.34
416.359	986.78
416.567	1011.36
416.776	956.06
416.984	1001.12
417.192	1115.8
417.4	1107.61
417.608	1128.09
417.817	1234.58
418.025	1250.97
418.233	1289.88
418.441	1306.26
418.649	1371.8
418.857	1498.77
419.065	1588.88
419.273	1398.42
419.481	1525.4
419.689	1765.01
419.897	1752.72
420.105	1697.42
420.313	1664.66
420.521	1918.61
420.729	1914.51
420.937	1840.78
421.145	1994.38
421.353	2055.82
421.561	2233.99
421.769	2262.66
421.977	2360.97
422.185	2324.1
422.393	2428.55
422.601	2631.3
422.809	2578.05
423.017	2729.6
423.224	2672.26
423.432	2760.32
423.64	2848.38
423.848	3090.04
424.056	2969.21
424.263	3161.72
424.471	3360.38
424.679	3393.14
424.887	3483.25
425.094	3583.6
425.302	3700.34
425.51	3772.02
425.718	3917.42
425.925	3827.31
426.133	4107.88
426.341	4150.89
426.548	4548.2
426.756	4456.04
426.964	4650.6
427.171	4671.08
427.379	4947.55
427.586	4982.37
427.794	5056.09
428.001	5236.31
428.209	5451.35
428.417	5336.67
428.624	5826.13
428.832	5783.12
429.039	5834.32
429.247	5981.78
429.454	6467.14
429.662	7013.95
429.869	6338.12
430.076	6694.47
430.284	6592.07
430.491	6956.61
430.699	7251.52
430.906	7157.31
431.114	7448.12
431.321	7685.69
431.528	7841.33
431.736	8308.27
431.943	8840.74
432.15	8322.6
432.358	8635.94
432.565	9082.4
432.772	8980
432.979	9463.32
433.187	9618.97
433.394	9745.94
433.601	10313.23
433.808	10216.97
434.016	10405.39
434.223	10618.38
434.43	11159.04
434.637	10982.92
434.844	11548.15
435.052	11902.45
435.259	11955.7
435.466	12021.24
435.673	11761.14
435.88	12613.1
436.087	13280.74
436.294	13293.02
436.501	12893.67
436.708	13256.16
436.915	13602.27
437.122	14226.9
437.329	14190.03
437.537	14665.16
437.743	14773.71
437.95	14607.82
438.157	15513.02
438.364	16274.87
438.571	15900.09
438.778	16102.84
438.985	17708.44
439.192	16827.82
439.399	17403.3
439.606	16917.93
439.813	18115.99
440.02	19113.35
440.227	18654.61
440.433	18652.56
440.64	19283.33
440.847	19090.82
441.054	19660.16
441.261	20678
441.467	20340.08
441.674	21003.63
441.881	21730.66
442.088	21804.38
442.294	21607.78
442.501	21493.09
442.708	22469.97
442.914	23121.23
443.121	24085.82
443.328	23516.48
443.534	25371.94
443.741	24593.72
443.948	24069.44
444.154	26002.72
444.361	25828.64
444.568	26193.18
444.774	25877.79
444.981	26096.92
445.187	27129.1
445.394	27962.62
445.6	27585.8
445.807	30434.52
446.013	28880.11
446.22	29531.37
446.426	30786.77
446.633	30971.09
446.839	32441.53
447.046	30541.02
447.252	32683.19
447.459	32500.92
447.665	32412.86
447.871	33795.24
448.078	34884.76
448.284	33522.86
448.491	34374.81
448.697	35372.17
448.903	36387.97
449.11	36633.72
449.316	35951.75
449.522	36760.7
449.728	37522.54
449.935	37772.39
450.141	37479.53
450.347	38382.69
450.553	37108.85
450.76	37850.22
450.966	39009.37
451.172	38855.77
451.378	39636.05
451.584	38708.32
451.791	40068.17
451.997	39504.98
452.203	40354.88
452.409	40561.73
452.615	40090.69
452.821	38548.57
453.027	38413.41
453.233	40031.3
453.44	38411.36
453.646	39048.28
453.852	38956.12
454.058	39990.34
454.264	38380.64
454.47	39572.56
454.676	38493.28
454.882	39765.07
455.088	36390.02
455.294	36865.14
455.5	37522.54
455.705	37872.74
455.911	36387.97
456.117	35325.07
456.323	35214.48
456.529	33549.48
456.735	34688.15
456.941	33897.64
457.147	33094.83
457.352	32322.75
457.558	31821
457.764	32326.85
457.97	31261.9
458.176	31270.09
458.381	30768.34
458.587	29224.17
458.793	29289.71
458.999	27960.58
459.204	29723.88
459.41	28857.59
459.616	26973.46
459.821	26801.43
460.027	26848.53
460.233	26590.48
460.438	25118
460.644	25171.24
460.85	24073.53
461.055	23604.55
461.261	23539.01
461.466	21691.74
461.672	20942.19
461.878	22707.54
462.083	21316.97
462.289	20733.29
462.494	20512.11
462.7	19934.59
462.905	18759.05
463.111	19588.48
463.316	19996.03
463.522	19416.45
463.727	19266.95
463.932	19185.03
464.138	19185.03
464.343	19092.87
464.549	18589.07
464.754	19056.01
464.959	19258.76
465.165	18806.16
465.37	18081.17
465.575	17493.41
465.781	18341.27
465.986	18455.95
466.191	17696.16
466.397	17315.23
466.602	16469.42
466.807	17337.76
467.012	17012.14
467.218	16905.64
467.423	16883.11
467.628	16676.27
