Data from USB4F104151__235__14-34-05-412.txt Node

Date: Thu Mar 13 14:34:05 EDT 2025
User: louis
Spectrometer: USB4F10415
Trigger mode: 4
Integration Time (sec): 2.500000E-2
Scans to average: 1
Electric dark correction enabled: true
Nonlinearity correction enabled: false
Boxcar width: 0
XAxis mode: Wavelengths
Number of Pixels in Spectrum: 3648
>>>>>Begin Spectral Data<<<<<
178.204	-91.65
178.424	-91.65
178.644	-91.65
178.864	-151.04
179.084	-95.74
179.304	-52.74
179.524	-42.5
179.744	-32.26
179.964	-9.73
180.184	-17.92
180.404	66.05
180.624	41.47
180.844	0.51
181.064	-32.26
181.283	49.66
181.503	14.85
181.723	14.85
181.943	29.18
182.163	70.14
182.383	-60.93
182.602	96.77
182.822	16.9
183.042	41.47
183.262	76.29
183.482	102.91
183.701	39.42
183.921	14.85
184.141	-40.45
184.361	27.14
184.58	49.66
184.8	55.81
185.02	37.38
185.239	102.91
185.459	88.57
185.679	61.95
185.898	-24.06
186.118	64
186.338	88.57
186.557	23.04
186.777	-1.54
186.997	98.81
187.216	82.43
187.436	78.33
187.655	82.43
187.875	31.23
188.095	92.67
188.314	80.38
188.534	47.62
188.753	41.47
188.973	70.14
189.192	137.73
189.412	72.19
189.631	37.38
189.851	31.23
190.07	86.53
190.29	25.09
190.509	-1.54
190.729	0.51
190.948	94.72
191.168	135.68
191.387	31.23
191.607	47.62
191.826	-19.97
192.045	31.23
192.265	-19.97
192.484	45.57
192.704	-3.58
192.923	33.28
193.142	78.33
193.362	145.92
193.581	135.68
193.8	113.15
194.02	59.9
194.239	86.53
194.458	20.99
194.678	47.62
194.897	64
195.116	4.61
195.335	80.38
195.555	96.77
195.774	18.94
195.993	74.24
196.212	29.18
196.432	41.47
196.651	8.7
196.87	80.38
197.089	109.05
197.308	72.19
197.528	37.38
197.747	-44.54
197.966	39.42
198.185	39.42
198.404	-11.78
198.623	31.23
198.842	88.57
199.062	53.76
199.281	133.63
199.5	55.81
199.719	55.81
199.938	88.57
200.157	20.99
200.376	113.15
200.595	61.95
200.814	86.53
201.033	-7.68
201.252	76.29
201.471	72.19
201.69	78.33
201.909	102.91
202.128	49.66
202.347	135.68
202.566	70.14
202.785	4.61
203.004	20.99
203.223	121.34
203.442	72.19
203.661	-24.06
203.879	143.87
204.098	47.62
204.317	47.62
204.536	68.09
204.755	6.66
204.974	131.58
205.193	82.43
205.411	123.39
205.63	35.33
205.849	74.24
206.068	64
206.287	-1.54
206.505	135.68
206.724	143.87
206.943	29.18
207.162	53.76
207.381	41.47
207.599	27.14
207.818	107.01
208.037	41.47
208.255	-36.35
208.474	88.57
208.693	86.53
208.911	-15.87
209.13	-3.58
209.349	51.71
209.567	86.53
209.786	14.85
210.005	64
210.223	45.57
210.442	61.95
210.661	4.61
210.879	31.23
211.098	14.85
211.316	20.99
211.535	119.29
211.753	90.62
211.972	86.53
212.191	51.71
212.409	14.85
212.628	57.86
212.846	33.28
213.065	84.48
213.283	86.53
213.502	4.61
213.72	90.62
213.938	107.01
214.157	37.38
214.375	107.01
214.594	102.91
214.812	35.33
215.031	47.62
215.249	94.72
215.467	64
215.686	127.49
215.904	143.87
216.122	104.96
216.341	61.95
216.559	-3.58
216.778	119.29
216.996	90.62
217.214	23.04
217.432	94.72
217.651	66.05
217.869	82.43
218.087	20.99
218.306	102.91
218.524	64
218.742	-19.97
218.96	27.14
219.179	23.04
219.397	143.87
219.615	100.86
219.833	53.76
220.051	16.9
220.27	53.76
220.488	96.77
220.706	70.14
220.924	-9.73
221.142	29.18
221.36	70.14
221.578	86.53
221.796	96.77
222.015	45.57
222.233	47.62
222.451	78.33
222.669	-28.16
222.887	66.05
223.105	70.14
223.323	66.05
223.541	47.62
223.759	147.97
223.977	78.33
224.195	127.49
224.413	64
224.631	86.53
224.849	66.05
225.067	88.57
225.285	4.61
225.503	111.1
225.721	-15.87
225.939	143.87
226.157	61.95
226.375	119.29
226.592	29.18
226.81	47.62
227.028	51.71
227.246	96.77
227.464	127.49
227.682	70.14
227.9	84.48
228.117	78.33
228.335	45.57
228.553	90.62
228.771	70.14
228.989	41.47
229.206	33.28
229.424	111.1
229.642	18.94
229.86	64
230.077	184.83
230.295	86.53
230.513	125.44
230.731	119.29
230.948	127.49
231.166	127.49
231.384	139.77
231.601	20.99
231.819	111.1
232.037	4.61
232.254	94.72
232.472	72.19
232.689	86.53
232.907	111.1
233.125	61.95
233.342	4.61
233.56	16.9
233.777	29.18
233.995	90.62
234.213	64
234.43	53.76
234.648	102.91
234.865	66.05
235.083	29.18
235.3	-7.68
235.518	147.97
235.735	66.05
235.953	88.57
236.17	143.87
236.388	6.66
236.605	90.62
236.822	119.29
237.04	88.57
237.257	86.53
237.475	39.42
237.692	25.09
237.909	6.66
238.127	29.18
238.344	111.1
238.562	109.05
238.779	12.8
238.996	-17.92
239.214	45.57
239.431	102.91
239.648	47.62
239.865	78.33
240.083	37.38
240.3	123.39
240.517	47.62
240.735	57.86
240.952	76.29
241.169	152.06
241.386	92.67
241.603	29.18
241.821	61.95
242.038	84.48
242.255	35.33
242.472	45.57
242.689	55.81
242.907	139.77
243.124	68.09
243.341	66.05
243.558	156.16
243.775	-3.58
243.992	57.86
244.209	66.05
244.426	61.95
244.643	45.57
244.86	61.95
245.078	55.81
245.295	119.29
245.512	90.62
245.729	-15.87
245.946	61.95
246.163	143.87
246.38	88.57
246.597	35.33
246.814	20.99
247.031	4.61
247.248	82.43
247.464	66.05
247.681	33.28
247.898	12.8
248.115	80.38
248.332	16.9
248.549	193.02
248.766	121.34
248.983	64
249.2	51.71
249.417	127.49
249.633	20.99
249.85	139.77
250.067	33.28
250.284	49.66
250.501	143.87
250.717	131.58
250.934	-44.54
251.151	59.9
251.368	-15.87
251.585	51.71
251.801	27.14
252.018	43.52
252.235	117.25
252.451	23.04
252.668	23.04
252.885	113.15
253.102	98.81
253.318	43.52
253.535	31.23
253.752	29.18
253.968	37.38
254.185	-11.78
254.401	78.33
254.618	23.04
254.835	37.38
255.051	-17.92
255.268	47.62
255.484	86.53
255.701	-28.16
255.917	59.9
256.134	80.38
256.351	82.43
256.567	-44.54
256.784	61.95
257	12.8
257.217	172.54
257.433	102.91
257.65	72.19
257.866	86.53
258.082	6.66
258.299	4.61
258.515	41.47
258.732	39.42
258.948	127.49
259.165	102.91
259.381	31.23
259.597	37.38
259.814	31.23
260.03	37.38
260.246	45.57
260.463	6.66
260.679	92.67
260.895	53.76
261.112	31.23
261.328	37.38
261.544	-22.02
261.761	180.73
261.977	80.38
262.193	6.66
262.409	70.14
262.626	78.33
262.842	33.28
263.058	37.38
263.274	80.38
263.49	59.9
263.707	96.77
263.923	39.42
264.139	57.86
264.355	102.91
264.571	137.73
264.787	59.9
265.004	31.23
265.22	18.94
265.436	4.61
265.652	61.95
265.868	53.76
266.084	57.86
266.3	76.29
266.516	49.66
266.732	-3.58
266.948	88.57
267.164	61.95
267.38	37.38
267.596	96.77
267.812	117.25
268.028	64
268.244	61.95
268.46	96.77
268.676	45.57
268.892	70.14
269.108	61.95
269.324	31.23
269.54	-19.97
269.756	55.81
269.972	-15.87
270.188	47.62
270.403	121.34
270.619	14.85
270.835	137.73
271.051	29.18
271.267	10.75
271.483	45.57
271.698	41.47
271.914	78.33
272.13	-1.54
272.346	57.86
272.562	55.81
272.777	74.24
272.993	57.86
273.209	29.18
273.425	49.66
273.64	0.51
273.856	72.19
274.072	20.99
274.287	25.09
274.503	86.53
274.719	0.51
274.934	37.38
275.15	-11.78
275.366	37.38
275.581	35.33
275.797	111.1
276.012	29.18
276.228	86.53
276.444	41.47
276.659	-28.16
276.875	88.57
277.09	186.88
277.306	16.9
277.521	107.01
277.737	70.14
277.952	78.33
278.168	27.14
278.383	47.62
278.599	45.57
278.814	135.68
279.03	45.57
279.245	113.15
279.461	37.38
279.676	37.38
279.892	53.76
280.107	29.18
280.322	-9.73
280.538	78.33
280.753	29.18
280.969	78.33
281.184	29.18
281.399	86.53
281.615	-1.54
281.83	53.76
282.045	31.23
282.26	61.95
282.476	45.57
282.691	129.53
282.906	49.66
283.122	107.01
283.337	-9.73
283.552	51.71
283.767	31.23
283.983	68.09
284.198	107.01
284.413	104.96
284.628	-32.26
284.843	90.62
285.058	125.44
285.274	29.18
285.489	57.86
285.704	86.53
285.919	-73.21
286.134	70.14
286.349	78.33
286.564	-15.87
286.779	29.18
286.995	41.47
287.21	-9.73
287.425	150.01
287.64	-7.68
287.855	47.62
288.07	49.66
288.285	147.97
288.5	76.29
288.715	80.38
288.93	16.9
289.145	57.86
289.36	59.9
289.575	129.53
289.79	227.84
290.004	86.53
290.219	139.77
290.434	90.62
290.649	8.7
290.864	64
291.079	33.28
291.294	45.57
291.509	53.76
291.724	29.18
291.938	74.24
292.153	45.57
292.368	55.81
292.583	72.19
292.798	84.48
293.012	68.09
293.227	90.62
293.442	96.77
293.657	78.33
293.871	137.73
294.086	49.66
294.301	170.49
294.516	64
294.73	66.05
294.945	20.99
295.16	70.14
295.374	102.91
295.589	51.71
295.804	12.8
296.018	133.63
296.233	94.72
296.447	49.66
296.662	51.71
296.877	143.87
297.091	133.63
297.306	66.05
297.52	29.18
297.735	53.76
297.949	117.25
298.164	61.95
298.378	80.38
298.593	35.33
298.807	61.95
299.022	72.19
299.236	111.1
299.451	18.94
299.665	-3.58
299.88	94.72
300.094	29.18
300.309	35.33
300.523	53.76
300.737	76.29
300.952	20.99
301.166	102.91
301.381	102.91
301.595	61.95
301.809	23.04
302.024	49.66
302.238	53.76
302.452	53.76
302.667	94.72
302.881	94.72
303.095	29.18
303.309	29.18
303.524	41.47
303.738	82.43
303.952	41.47
304.166	76.29
304.381	49.66
304.595	29.18
304.809	37.38
305.023	127.49
305.237	53.76
305.452	57.86
305.666	137.73
305.88	10.75
306.094	78.33
306.308	107.01
306.522	37.38
306.736	143.87
306.95	180.73
307.164	68.09
307.379	33.28
307.593	111.1
307.807	86.53
308.021	143.87
308.235	94.72
308.449	-24.06
308.663	-13.82
308.877	102.91
309.091	102.91
309.305	98.81
309.519	94.72
309.733	129.53
309.947	12.8
310.161	131.58
310.374	86.53
310.588	113.15
310.802	-40.45
311.016	115.2
311.23	121.34
311.444	61.95
311.658	74.24
311.872	80.38
312.085	94.72
312.299	55.81
312.513	115.2
312.727	94.72
312.941	33.28
313.154	55.81
313.368	57.86
313.582	29.18
313.796	45.57
314.009	96.77
314.223	127.49
314.437	78.33
314.651	16.9
314.864	57.86
315.078	55.81
315.292	-69.12
315.505	6.66
315.719	61.95
315.933	111.1
316.146	49.66
316.36	39.42
316.573	82.43
316.787	86.53
317.001	78.33
317.214	25.09
317.428	127.49
317.641	-19.97
317.855	102.91
318.068	70.14
318.282	76.29
318.495	86.53
318.709	113.15
318.922	57.86
319.136	94.72
319.349	96.77
319.563	72.19
319.776	53.76
319.99	23.04
320.203	37.38
320.417	74.24
320.63	197.12
320.843	152.06
321.057	-5.63
321.27	107.01
321.483	47.62
321.697	78.33
321.91	131.58
322.124	10.75
322.337	41.47
322.55	53.76
322.763	74.24
322.977	-3.58
323.19	96.77
323.403	66.05
323.617	100.86
323.83	135.68
324.043	113.15
324.256	147.97
324.469	29.18
324.683	127.49
324.896	88.57
325.109	55.81
325.322	66.05
325.535	88.57
325.748	55.81
325.962	137.73
326.175	94.72
326.388	78.33
326.601	102.91
326.814	72.19
327.027	74.24
327.24	131.58
327.453	33.28
327.666	98.81
327.879	156.16
328.092	66.05
328.305	53.76
328.518	41.47
328.731	-3.58
328.944	12.8
329.157	88.57
329.37	0.51
329.583	74.24
329.796	119.29
330.009	111.1
330.222	94.72
330.435	64
330.648	45.57
330.861	72.19
331.073	49.66
331.286	111.1
331.499	78.33
331.712	123.39
331.925	90.62
332.138	102.91
332.35	96.77
332.563	102.91
332.776	94.72
332.989	59.9
333.202	33.28
333.414	12.8
333.627	111.1
333.84	86.53
334.053	74.24
334.265	-7.68
334.478	49.66
334.691	23.04
334.903	-24.06
335.116	49.66
335.329	-3.58
335.541	16.9
335.754	119.29
335.966	88.57
336.179	119.29
336.392	47.62
336.604	66.05
336.817	141.82
337.029	39.42
337.242	86.53
337.454	96.77
337.667	100.86
337.88	78.33
338.092	80.38
338.305	102.91
338.517	94.72
338.729	104.96
338.942	78.33
339.154	37.38
339.367	88.57
339.579	119.29
339.792	53.76
340.004	-17.92
340.217	88.57
340.429	31.23
340.641	14.85
340.854	55.81
341.066	-3.58
341.278	131.58
341.491	121.34
341.703	94.72
341.915	102.91
342.128	80.38
342.34	18.94
342.552	-7.68
342.764	0.51
342.977	133.63
343.189	49.66
343.401	145.92
343.613	119.29
343.826	49.66
344.038	53.76
344.25	96.77
344.462	78.33
344.674	66.05
344.886	90.62
345.099	57.86
345.311	64
345.523	39.42
345.735	61.95
345.947	80.38
346.159	98.81
346.371	111.1
346.583	-3.58
346.795	47.62
347.007	37.38
347.219	70.14
347.431	82.43
347.643	121.34
347.855	94.72
348.067	102.91
348.279	31.23
348.491	115.2
348.703	119.29
348.915	102.91
349.127	4.61
349.339	111.1
349.551	45.57
349.763	127.49
349.975	94.72
350.187	119.29
350.399	33.28
350.61	104.96
350.822	84.48
351.034	68.09
351.246	70.14
351.458	39.42
351.669	96.77
351.881	115.2
352.093	86.53
352.305	168.45
352.517	102.91
352.728	113.15
352.94	70.14
353.152	64
353.363	37.38
353.575	94.72
353.787	127.49
353.999	43.52
354.21	70.14
354.422	29.18
354.633	64
354.845	82.43
355.057	57.86
355.268	23.04
355.48	127.49
355.692	78.33
355.903	70.14
356.115	107.01
356.326	14.85
356.538	55.81
356.749	121.34
356.961	80.38
357.172	41.47
357.384	127.49
357.595	131.58
357.807	92.67
358.018	143.87
358.23	104.96
358.441	131.58
358.653	123.39
358.864	43.52
359.075	14.85
359.287	76.29
359.498	131.58
359.709	33.28
359.921	131.58
360.132	156.16
360.344	102.91
360.555	78.33
360.766	33.28
360.977	43.52
361.189	98.81
361.4	74.24
361.611	135.68
361.823	131.58
362.034	70.14
362.245	94.72
362.456	4.61
362.667	139.77
362.879	45.57
363.09	49.66
363.301	131.58
363.512	53.76
363.723	53.76
363.935	39.42
364.146	135.68
364.357	-1.54
364.568	80.38
364.779	47.62
364.99	33.28
365.201	39.42
365.412	61.95
365.623	6.66
365.834	135.68
366.045	57.86
366.256	104.96
366.467	129.53
366.678	57.86
366.889	143.87
367.1	43.52
367.311	139.77
367.522	78.33
367.733	78.33
367.944	147.97
368.155	6.66
368.366	152.06
368.577	135.68
368.788	121.34
368.999	59.9
369.209	123.39
369.42	197.12
369.631	170.49
369.842	90.62
370.053	70.14
370.264	127.49
370.474	47.62
370.685	88.57
370.896	49.66
371.107	111.1
371.317	107.01
371.528	45.57
371.739	201.21
371.95	61.95
372.16	37.38
372.371	57.86
372.582	49.66
372.792	80.38
373.003	98.81
373.214	156.16
373.424	53.76
373.635	37.38
373.846	168.45
374.056	90.62
374.267	82.43
374.477	125.44
374.688	25.09
374.898	80.38
375.109	14.85
375.319	64
375.53	123.39
375.74	86.53
375.951	10.75
376.161	100.86
376.372	90.62
376.582	68.09
376.793	209.4
377.003	23.04
377.214	80.38
377.424	94.72
377.635	96.77
377.845	82.43
378.055	119.29
378.266	59.9
378.476	111.1
378.686	80.38
378.897	78.33
379.107	41.47
379.317	147.97
379.528	115.2
379.738	78.33
379.948	53.76
380.158	90.62
380.369	86.53
380.579	70.14
380.789	66.05
380.999	94.72
381.21	143.87
381.42	205.31
381.63	133.63
381.84	86.53
382.05	66.05
382.261	133.63
382.471	215.55
382.681	57.86
382.891	100.86
383.101	174.59
383.311	66.05
383.521	119.29
383.731	61.95
383.941	131.58
384.151	41.47
384.361	88.57
384.571	109.05
384.781	107.01
384.991	121.34
385.201	131.58
385.411	137.73
385.621	70.14
385.831	94.72
386.041	119.29
386.251	119.29
386.461	102.91
386.671	74.24
386.881	53.76
387.091	6.66
387.301	137.73
387.511	76.29
387.72	127.49
387.93	96.77
388.14	88.57
388.35	74.24
388.56	78.33
388.769	55.81
388.979	152.06
389.189	121.34
389.399	121.34
389.609	53.76
389.818	98.81
390.028	43.52
390.238	123.39
390.447	66.05
390.657	203.26
390.867	74.24
391.076	70.14
391.286	111.1
391.496	131.58
391.705	143.87
391.915	127.49
392.125	141.82
392.334	78.33
392.544	152.06
392.753	121.34
392.963	129.53
393.172	102.91
393.382	156.16
393.591	96.77
393.801	113.15
394.01	170.49
394.22	162.3
394.429	80.38
394.639	125.44
394.848	111.1
395.058	164.35
395.267	123.39
395.477	100.86
395.686	186.88
395.895	166.4
396.105	217.6
396.314	96.77
396.524	201.21
396.733	109.05
396.942	178.69
397.152	162.3
397.361	102.91
397.57	133.63
397.78	135.68
397.989	145.92
398.198	236.03
398.407	107.01
398.617	244.22
398.826	201.21
399.035	143.87
399.244	158.21
399.453	162.3
399.663	78.33
399.872	172.54
400.081	217.6
400.29	174.59
400.499	209.4
400.708	160.25
400.917	152.06
401.127	182.78
401.336	135.68
401.545	252.41
401.754	242.17
401.963	170.49
402.172	147.97
402.381	152.06
402.59	193.02
402.799	156.16
403.008	233.98
403.217	242.17
403.426	262.65
403.635	145.92
403.844	227.84
404.053	227.84
404.262	109.05
404.471	317.95
404.68	217.6
404.888	276.99
405.097	229.88
405.306	203.26
405.515	250.36
405.724	244.22
405.933	324.09
406.142	315.9
406.35	330.23
406.559	344.57
406.768	309.76
406.977	363
407.185	410.11
407.394	352.76
407.603	283.13
407.812	369.15
408.02	330.23
408.229	348.67
408.438	299.52
408.646	397.82
408.855	377.34
409.064	324.09
409.272	389.63
409.481	489.98
409.69	463.35
409.898	426.49
410.107	420.35
410.315	514.55
410.524	520.7
410.733	530.94
410.941	504.31
411.15	588.28
411.358	676.34
411.567	672.25
411.775	627.19
411.984	619
412.192	684.53
412.401	602.61
412.609	766.45
412.818	819.7
413.026	827.89
413.234	768.5
413.443	840.18
413.651	848.37
413.86	823.8
414.068	909.81
414.276	934.39
414.485	1030.64
414.693	1001.97
414.901	1081.84
415.11	1067.5
415.318	1096.18
415.526	1225.2
415.734	1155.57
415.943	1143.28
416.151	1260.01
416.359	1323.5
416.567	1288.68
416.776	1427.95
416.984	1454.57
417.192	1475.05
417.4	1516.01
417.608	1470.95
417.817	1503.72
418.025	1624.55
418.233	1794.53
418.441	1786.34
418.649	1804.77
418.857	1903.07
419.065	1882.6
419.273	1954.27
419.481	2204.13
419.689	2175.45
419.897	2290.14
420.105	2224.61
420.313	2339.29
420.521	2548.19
420.729	2658.78
420.937	2595.29
421.145	2666.97
421.353	2824.66
421.561	3043.79
421.769	2982.35
421.977	3119.57
422.185	3160.53
422.393	3348.94
422.601	3467.72
422.809	3469.77
423.017	3604.94
423.224	3709.38
423.432	3817.93
423.64	3738.05
423.848	4149.7
424.056	4055.49
424.263	4184.51
424.471	4342.21
424.679	4397.5
424.887	4645.31
425.094	4737.46
425.302	4915.64
425.51	5003.7
425.718	5269.94
425.925	5245.36
426.133	5341.61
426.341	5798.31
426.548	6087.08
426.756	6068.64
426.964	6183.33
427.171	6246.82
427.379	6357.41
427.586	6771.1
427.794	6861.21
428.001	7238.03
428.209	7389.58
428.417	7379.34
428.624	8032.65
428.832	7944.58
429.039	7756.17
429.247	7903.62
429.454	8655.23
429.662	9011.57
429.869	8712.57
430.076	9257.33
430.284	8974.71
430.491	9343.35
430.699	9918.82
430.906	9711.98
431.114	9867.63
431.321	10166.63
431.528	10424.67
431.736	11209.04
431.943	11694.41
432.15	11268.44
432.358	11415.89
432.565	12122.44
432.772	12015.94
432.979	12521.79
433.187	12878.14
433.394	12876.09
433.601	13826.35
433.808	13670.7
434.016	13766.96
434.223	14326.05
434.43	15122.71
434.637	14942.49
434.844	15814.93
435.052	16075.02
435.259	15853.84
435.466	16093.45
435.673	16120.07
435.88	16924.93
436.087	17903.85
436.294	17674.48
436.501	17449.21
436.708	17924.33
436.915	18510.05
437.122	19028.19
437.329	19114.2
437.537	20189.39
437.743	20203.72
437.95	19744.98
438.157	20961.47
438.364	21541.05
438.571	21526.71
438.778	21708.98
438.985	23648.41
439.192	22880.42
439.399	23744.66
439.606	23017.63
439.813	24440.97
440.02	25288.83
440.227	25053.31
440.433	24680.58
440.64	25915.51
440.847	25661.56
441.054	26372.21
441.261	27854.93
441.467	27570.27
441.674	28133.46
441.881	29237.31
442.088	29182.02
442.294	28850.25
442.501	29671.48
442.708	30410.8
442.914	31066.15
443.121	32550.93
443.328	31926.3
443.534	33892.35
443.741	33093.64
443.948	32303.12
444.154	34889.71
444.361	34529.27
444.568	34983.91
444.774	34578.42
444.981	35125.22
445.187	36286.42
445.394	37578.69
445.6	37263.3
445.807	40720.27
446.013	38934.45
446.22	39597.99
446.426	41140.11
446.633	41598.85
446.839	42905.46
447.046	41039.76
447.252	43462.5
447.459	43378.54
447.665	43409.26
447.871	44992.34
448.078	47171.38
448.284	45033.3
448.491	46028.61
448.697	47460.14
448.903	48555.8
449.11	48613.15
449.316	48160.55
449.522	48670.49
449.728	50018.05
449.935	50349.82
450.141	50333.44
450.347	51937
450.553	50048.77
450.76	50552.57
450.966	51965.67
451.172	51418.86
451.378	52821.72
451.584	51668.72
451.791	53165.78
451.997	52731.61
452.203	53602
452.409	53511.89
452.615	53331.67
452.821	51613.42
453.027	50956.02
453.233	53728.97
453.44	51726.06
453.646	52086.5
453.852	52092.65
454.058	52864.73
454.264	51332.85
454.47	52877.02
454.676	51134.2
454.882	52897.5
455.088	48525.08
455.294	49323.79
455.5	49966.85
455.705	50888.44
455.911	48533.28
456.117	47701.8
456.323	46952.24
456.529	44668.76
456.735	46692.15
456.941	45418.31
457.147	45047.63
457.352	43263.85
457.558	42899.31
457.764	43200.36
457.97	41965.44
458.176	41396.1
458.381	41201.55
458.587	39018.41
458.793	39442.34
458.999	37271.5
459.204	39810.98
459.41	38870.96
459.616	36542.42
459.821	36417.49
460.027	36419.54
460.233	35469.28
460.438	33552.38
460.644	34473.97
460.85	32446.48
461.055	31830.04
461.261	31772.7
461.466	29448.25
461.672	28633.16
461.878	30640.17
462.083	28315.73
462.289	28360.78
462.494	27758.68
462.7	26636.39
462.905	25804.92
463.111	26847.33
463.316	26916.97
463.522	26173.55
463.727	26247.28
463.932	26185.84
464.138	25915.51
464.343	25983.09
464.549	25331.84
464.754	26079.35
464.959	25845.88
465.165	25841.78
465.37	24588.42
465.575	23728.28
