Data from USB4F104151__292__14-34-53-274.txt Node

Date: Thu Mar 13 14:34:53 EDT 2025
User: louis
Spectrometer: USB4F10415
Trigger mode: 4
Integration Time (sec): 2.500000E-2
Scans to average: 1
Electric dark correction enabled: true
Nonlinearity correction enabled: false
Boxcar width: 0
XAxis mode: Wavelengths
Number of Pixels in Spectrum: 3648
>>>>>Begin Spectral Data<<<<<
178.204	-132.26
178.424	-132.26
178.644	-132.26
178.864	-126.12
179.084	-173.22
179.304	-66.73
179.524	4.95
179.744	-50.35
179.964	0.85
180.184	2.9
180.404	4.95
180.624	-7.34
180.844	0.85
181.064	-17.58
181.283	4.95
181.503	2.9
181.723	119.64
181.943	21.33
182.163	90.96
182.383	31.57
182.602	119.64
182.822	54.1
183.042	-5.29
183.262	47.96
183.482	37.72
183.701	13.14
183.921	15.19
184.141	-19.63
184.361	60.24
184.58	13.14
184.8	70.48
185.02	7
185.239	58.2
185.459	37.72
185.679	62.29
185.898	-19.63
186.118	66.39
186.338	7
186.557	37.72
186.777	0.85
186.997	-3.24
187.216	31.57
187.436	21.33
187.655	4.95
187.875	74.58
188.095	78.68
188.314	25.43
188.534	50
188.753	-3.24
188.973	45.91
189.192	54.1
189.412	23.38
189.631	-42.15
189.851	0.85
190.07	72.53
190.29	-9.39
190.509	13.14
190.729	62.29
190.948	99.16
191.168	131.92
191.387	95.06
191.607	39.76
191.826	86.87
192.045	66.39
192.265	70.48
192.484	54.1
192.704	-25.77
192.923	78.68
193.142	160.59
193.362	82.77
193.581	101.2
193.8	62.29
194.02	47.96
194.239	80.72
194.458	95.06
194.678	43.86
194.897	37.72
195.116	-48.3
195.335	56.15
195.555	-40.11
195.774	31.57
195.993	82.77
196.212	-23.72
196.432	4.95
196.651	-3.24
196.87	62.29
197.089	4.95
197.308	58.2
197.528	58.2
197.747	4.95
197.966	7
198.185	64.34
198.404	-31.91
198.623	45.91
198.842	86.87
199.062	86.87
199.281	78.68
199.5	80.72
199.719	25.43
199.938	11.09
200.157	64.34
200.376	62.29
200.595	111.44
200.814	123.73
201.033	23.38
201.252	35.67
201.471	15.19
201.69	45.91
201.909	78.68
202.128	45.91
202.347	86.87
202.566	45.91
202.785	37.72
203.004	29.52
203.223	111.44
203.442	56.15
203.661	62.29
203.879	62.29
204.098	7
204.317	54.1
204.536	78.68
204.755	70.48
204.974	56.15
205.193	103.25
205.411	144.21
205.63	37.72
205.849	-1.19
206.068	19.29
206.287	2.9
206.505	66.39
206.724	-27.82
206.943	-52.39
207.162	88.92
207.381	39.76
207.599	-60.59
207.818	70.48
208.037	86.87
208.255	70.48
208.474	45.91
208.693	47.96
208.911	95.06
209.13	-17.58
209.349	31.57
209.567	78.68
209.786	113.49
210.005	66.39
210.223	25.43
210.442	29.52
210.661	41.81
210.879	29.52
211.098	39.76
211.316	95.06
211.535	152.4
211.753	-9.39
211.972	82.77
212.191	-9.39
212.409	29.52
212.628	-19.63
212.846	15.19
213.065	50
213.283	-7.34
213.502	23.38
213.72	-11.43
213.938	64.34
214.157	41.81
214.375	17.24
214.594	15.19
214.812	56.15
215.031	72.53
215.249	25.43
215.467	21.33
215.686	95.06
215.904	66.39
216.122	25.43
216.341	90.96
216.559	123.73
216.778	37.72
216.996	-9.39
217.214	86.87
217.432	47.96
217.651	-66.73
217.869	35.67
218.087	-19.63
218.306	37.72
218.524	45.91
218.742	78.68
218.96	66.39
219.179	31.57
219.397	-7.34
219.615	90.96
219.833	54.1
220.051	15.19
220.27	78.68
220.488	76.63
220.706	13.14
220.924	-46.25
221.142	41.81
221.36	9.05
221.578	-3.24
221.796	62.29
222.015	62.29
222.233	78.68
222.451	0.85
222.669	21.33
222.887	80.72
223.105	-50.35
223.323	-11.43
223.541	15.19
223.759	13.14
223.977	4.95
224.195	140.12
224.413	82.77
224.631	54.1
224.849	19.29
225.067	111.44
225.285	25.43
225.503	43.86
225.721	45.91
225.939	29.52
226.157	-11.43
226.375	90.96
226.592	50
226.81	45.91
227.028	78.68
227.246	88.92
227.464	58.2
227.682	142.16
227.9	45.91
228.117	54.1
228.335	90.96
228.553	-9.39
228.771	25.43
228.989	13.14
229.206	-11.43
229.424	21.33
229.642	17.24
229.86	-7.34
230.077	78.68
230.295	-11.43
230.513	52.05
230.731	-3.24
230.948	95.06
231.166	17.24
231.384	2.9
231.601	41.81
231.819	86.87
232.037	-17.58
232.254	17.24
232.472	70.48
232.689	-9.39
232.907	78.68
233.125	45.91
233.342	25.43
233.56	-27.82
233.777	19.29
233.995	2.9
234.213	123.73
234.43	0.85
234.648	76.63
234.865	29.52
235.083	78.68
235.3	33.62
235.518	-15.53
235.735	95.06
235.953	74.58
236.17	76.63
236.388	37.72
236.605	39.76
236.822	33.62
237.04	43.86
237.257	29.52
237.475	-48.3
237.692	-11.43
237.909	88.92
238.127	-11.43
238.344	29.52
238.562	64.34
238.779	29.52
238.996	41.81
239.214	56.15
239.431	88.92
239.648	2.9
239.865	60.24
240.083	54.1
240.3	7
240.517	11.09
240.735	21.33
240.952	29.52
241.169	37.72
241.386	90.96
241.603	13.14
241.821	37.72
242.038	109.4
242.255	76.63
242.472	-19.63
242.689	31.57
242.907	88.92
243.124	13.14
243.341	-11.43
243.558	-23.72
243.775	-27.82
243.992	-3.24
244.209	152.4
244.426	76.63
244.643	64.34
244.86	60.24
245.078	66.39
245.295	72.53
245.512	68.44
245.729	-27.82
245.946	82.77
246.163	-9.39
246.38	7
246.597	33.62
246.814	15.19
247.031	64.34
247.248	95.06
247.464	41.81
247.681	29.52
247.898	86.87
248.115	144.21
248.332	-3.24
248.549	47.96
248.766	113.49
248.983	101.2
249.2	23.38
249.417	78.68
249.633	29.52
249.85	41.81
250.067	23.38
250.284	0.85
250.501	70.48
250.717	52.05
250.934	41.81
251.151	60.24
251.368	17.24
251.585	45.91
251.801	66.39
252.018	62.29
252.235	111.44
252.451	54.1
252.668	23.38
252.885	45.91
253.102	62.29
253.318	62.29
253.535	84.82
253.752	2.9
253.968	41.81
254.185	9.05
254.401	50
254.618	97.11
254.835	45.91
255.051	82.77
255.268	27.48
255.484	95.06
255.701	84.82
255.917	13.14
256.134	52.05
256.351	17.24
256.567	-50.35
256.784	31.57
257	41.81
257.217	54.1
257.433	70.48
257.65	-3.24
257.866	111.44
258.082	-21.67
258.299	41.81
258.515	78.68
258.732	15.19
258.948	78.68
259.165	25.43
259.381	4.95
259.597	131.92
259.814	64.34
260.03	58.2
260.246	21.33
260.463	74.58
260.679	86.87
260.895	133.97
261.112	-19.63
261.328	33.62
261.544	56.15
261.761	140.12
261.977	-44.2
262.193	25.43
262.409	45.91
262.626	64.34
262.842	103.25
263.058	-25.77
263.274	45.91
263.49	41.81
263.707	50
263.923	43.86
264.139	43.86
264.355	35.67
264.571	160.59
264.787	54.1
265.004	123.73
265.22	52.05
265.436	31.57
265.652	13.14
265.868	7
266.084	70.48
266.3	17.24
266.516	31.57
266.732	47.96
266.948	45.91
267.164	47.96
267.38	60.24
267.596	103.25
267.812	86.87
268.028	62.29
268.244	33.62
268.46	19.29
268.676	37.72
268.892	80.72
269.108	4.95
269.324	60.24
269.54	-21.67
269.756	136.02
269.972	-52.39
270.188	17.24
270.403	-3.24
270.619	31.57
270.835	2.9
271.051	52.05
271.267	107.35
271.483	97.11
271.698	111.44
271.914	50
272.13	37.72
272.346	29.52
272.562	-3.24
272.777	0.85
272.993	9.05
273.209	47.96
273.425	9.05
273.64	15.19
273.856	15.19
274.072	13.14
274.287	45.91
274.503	54.1
274.719	23.38
274.934	35.67
275.15	-17.58
275.366	70.48
275.581	15.19
275.797	54.1
276.012	-52.39
276.228	80.72
276.444	-11.43
276.659	154.45
276.875	41.81
277.09	23.38
277.306	-7.34
277.521	60.24
277.737	2.9
277.952	37.72
278.168	88.92
278.383	-9.39
278.599	123.73
278.814	41.81
279.03	88.92
279.245	103.25
279.461	80.72
279.676	86.87
279.892	72.53
280.107	31.57
280.322	47.96
280.538	72.53
280.753	-5.29
280.969	29.52
281.184	86.87
281.399	127.83
281.615	4.95
281.83	62.29
282.045	-15.53
282.26	-52.39
282.476	72.53
282.691	31.57
282.906	54.1
283.122	72.53
283.337	58.2
283.552	105.3
283.767	29.52
283.983	103.25
284.198	39.76
284.413	37.72
284.628	-81.07
284.843	50
285.058	13.14
285.274	99.16
285.489	86.87
285.704	70.48
285.919	78.68
286.134	99.16
286.349	-56.49
286.564	43.86
286.779	111.44
286.995	33.62
287.21	29.52
287.425	74.58
287.64	74.58
287.855	93.01
288.07	41.81
288.285	37.72
288.5	127.83
288.715	101.2
288.93	62.29
289.145	72.53
289.36	-17.58
289.575	80.72
289.79	86.87
290.004	15.19
290.219	47.96
290.434	-1.19
290.649	62.29
290.864	31.57
291.079	80.72
291.294	105.3
291.509	64.34
291.724	-38.06
291.938	13.14
292.153	113.49
292.368	23.38
292.583	45.91
292.798	64.34
293.012	39.76
293.227	74.58
293.442	23.38
293.657	29.52
293.871	95.06
294.086	45.91
294.301	103.25
294.516	15.19
294.73	43.86
294.945	37.72
295.16	15.19
295.374	117.59
295.589	62.29
295.804	15.19
296.018	39.76
296.233	138.07
296.447	62.29
296.662	-17.58
296.877	-5.29
297.091	70.48
297.306	70.48
297.52	45.91
297.735	78.68
297.949	4.95
298.164	-17.58
298.378	41.81
298.593	-15.53
298.807	31.57
299.022	115.54
299.236	21.33
299.451	70.48
299.665	-11.43
299.88	33.62
300.094	35.67
300.309	56.15
300.523	31.57
300.737	47.96
300.952	58.2
301.166	70.48
301.381	64.34
301.595	82.77
301.809	70.48
302.024	62.29
302.238	54.1
302.452	80.72
302.667	82.77
302.881	123.73
303.095	80.72
303.309	41.81
303.524	0.85
303.738	29.52
303.952	56.15
304.166	50
304.381	-23.72
304.595	93.01
304.809	78.68
305.023	21.33
305.237	43.86
305.452	84.82
305.666	80.72
305.88	31.57
306.094	111.44
306.308	39.76
306.522	90.96
306.736	35.67
306.95	56.15
307.164	62.29
307.379	103.25
307.593	54.1
307.807	58.2
308.021	119.64
308.235	50
308.449	9.05
308.663	23.38
308.877	105.3
309.091	47.96
309.305	37.72
309.519	4.95
309.733	74.58
309.947	-48.3
310.161	27.48
310.374	107.35
310.588	47.96
310.802	50
311.016	7
311.23	54.1
311.444	25.43
311.658	33.62
311.872	54.1
312.085	33.62
312.299	54.1
312.513	86.87
312.727	45.91
312.941	-9.39
313.154	29.52
313.368	107.35
313.582	56.15
313.796	62.29
314.009	76.63
314.223	123.73
314.437	54.1
314.651	62.29
314.864	-17.58
315.078	68.44
315.292	47.96
315.505	-23.72
315.719	9.05
315.933	23.38
316.146	62.29
316.36	45.91
316.573	-23.72
316.787	45.91
317.001	13.14
317.214	41.81
317.428	103.25
317.641	47.96
317.855	23.38
318.068	103.25
318.282	7
318.495	140.12
318.709	99.16
318.922	25.43
319.136	60.24
319.349	35.67
319.563	-3.24
319.776	78.68
319.99	-7.34
320.203	164.69
320.417	25.43
320.63	-3.24
320.843	162.64
321.057	37.72
321.27	31.57
321.483	90.96
321.697	109.4
321.91	37.72
322.124	13.14
322.337	-1.19
322.55	-54.44
322.763	129.88
322.977	4.95
323.19	72.53
323.403	119.64
323.617	29.52
323.83	60.24
324.043	90.96
324.256	4.95
324.469	88.92
324.683	41.81
324.896	29.52
325.109	31.57
325.322	-1.19
325.535	62.29
325.748	74.58
325.962	58.2
326.175	125.78
326.388	136.02
326.601	50
326.814	37.72
327.027	37.72
327.24	162.64
327.453	-5.29
327.666	50
327.879	64.34
328.092	111.44
328.305	62.29
328.518	78.68
328.731	29.52
328.944	127.83
329.157	54.1
329.37	19.29
329.583	74.58
329.796	41.81
330.009	33.62
330.222	41.81
330.435	58.2
330.648	54.1
330.861	33.62
331.073	-19.63
331.286	54.1
331.499	41.81
331.712	-29.87
331.925	88.92
332.138	25.43
332.35	29.52
332.563	-72.87
332.776	31.57
332.989	23.38
333.202	21.33
333.414	54.1
333.627	17.24
333.84	37.72
334.053	0.85
334.265	-1.19
334.478	15.19
334.691	140.12
334.903	121.68
335.116	17.24
335.329	29.52
335.541	50
335.754	62.29
335.966	13.14
336.179	50
336.392	56.15
336.604	119.64
336.817	45.91
337.029	56.15
337.242	86.87
337.454	35.67
337.667	41.81
337.88	33.62
338.092	90.96
338.305	33.62
338.517	47.96
338.729	31.57
338.942	136.02
339.154	29.52
339.367	56.15
339.579	86.87
339.792	21.33
340.004	76.63
340.217	-17.58
340.429	99.16
340.641	54.1
340.854	47.96
341.066	60.24
341.278	62.29
341.491	70.48
341.703	66.39
341.915	-36.01
342.128	80.72
342.34	29.52
342.552	33.62
342.764	47.96
342.977	-19.63
343.189	99.16
343.401	29.52
343.613	17.24
343.826	72.53
344.038	-87.21
344.25	93.01
344.462	64.34
344.674	105.3
344.886	99.16
345.099	99.16
345.311	70.48
345.523	37.72
345.735	7
345.947	33.62
346.159	88.92
346.371	47.96
346.583	62.29
346.795	107.35
347.007	41.81
347.219	4.95
347.431	45.91
347.643	86.87
347.855	-40.11
348.067	-25.77
348.279	37.72
348.491	-9.39
348.703	121.68
348.915	29.52
349.127	78.68
349.339	-7.34
349.551	33.62
349.763	33.62
349.975	82.77
350.187	54.1
350.399	39.76
350.61	99.16
350.822	-15.53
351.034	78.68
351.246	37.72
351.458	119.64
351.669	29.52
351.881	70.48
352.093	76.63
352.305	78.68
352.517	62.29
352.728	148.31
352.94	23.38
353.152	70.48
353.363	78.68
353.575	31.57
353.787	123.73
353.999	37.72
354.21	76.63
354.422	50
354.633	41.81
354.845	64.34
355.057	-31.91
355.268	86.87
355.48	76.63
355.692	29.52
355.903	17.24
356.115	90.96
356.326	2.9
356.538	29.52
356.749	58.2
356.961	133.97
357.172	-17.58
357.384	45.91
357.595	39.76
357.807	15.19
358.018	7
358.23	66.39
358.441	109.4
358.653	45.91
358.864	58.2
359.075	-3.24
359.287	66.39
359.498	21.33
359.709	64.34
359.921	47.96
360.132	133.97
360.344	99.16
360.555	39.76
360.766	47.96
360.977	45.91
361.189	78.68
361.4	66.39
361.611	107.35
361.823	54.1
362.034	111.44
362.245	45.91
362.456	29.52
362.667	88.92
362.879	78.68
363.09	58.2
363.301	50
363.512	103.25
363.723	33.62
363.935	-21.67
364.146	125.78
364.357	13.14
364.568	72.53
364.779	-17.58
364.99	152.4
365.201	66.39
365.412	50
365.623	50
365.834	90.96
366.045	13.14
366.256	66.39
366.467	54.1
366.678	45.91
366.889	45.91
367.1	47.96
367.311	168.79
367.522	103.25
367.733	136.02
367.944	70.48
368.155	80.72
368.366	107.35
368.577	60.24
368.788	105.3
368.999	-52.39
369.209	66.39
369.42	68.44
369.631	113.49
369.842	21.33
370.053	70.48
370.264	54.1
370.474	-19.63
370.685	107.35
370.896	47.96
371.107	121.68
371.317	35.67
371.528	121.68
371.739	136.02
371.95	45.91
372.16	62.29
372.371	78.68
372.582	58.2
372.792	-19.63
373.003	78.68
373.214	80.72
373.424	136.02
373.635	-33.96
373.846	78.68
374.056	86.87
374.267	121.68
374.477	86.87
374.688	80.72
374.898	13.14
375.109	4.95
375.319	136.02
375.53	60.24
375.74	95.06
375.951	54.1
376.161	33.62
376.372	121.68
376.582	111.44
376.793	70.48
377.003	86.87
377.214	21.33
377.424	70.48
377.635	45.91
377.845	60.24
378.055	146.26
378.266	127.83
378.476	56.15
378.686	45.91
378.897	39.76
379.107	45.91
379.317	27.48
379.528	80.72
379.738	17.24
379.948	31.57
380.158	84.82
380.369	29.52
380.579	121.68
380.789	-11.43
380.999	86.87
381.21	138.07
381.42	131.92
381.63	84.82
381.84	66.39
382.05	21.33
382.261	64.34
382.471	144.21
382.681	54.1
382.891	119.64
383.101	70.48
383.311	45.91
383.521	17.24
383.731	113.49
383.941	47.96
384.151	29.52
384.361	95.06
384.571	95.06
384.781	39.76
384.991	52.05
385.201	144.21
385.411	21.33
385.621	78.68
385.831	50
386.041	66.39
386.251	74.58
386.461	119.64
386.671	113.49
386.881	131.92
387.091	62.29
387.301	95.06
387.511	-7.34
387.72	93.01
387.93	74.58
388.14	15.19
388.35	7
388.56	127.83
388.769	131.92
388.979	-19.63
389.189	97.11
389.399	-1.19
389.609	78.68
389.818	29.52
390.028	97.11
390.238	119.64
390.447	54.1
390.657	39.76
390.867	47.96
391.076	45.91
391.286	113.49
391.496	58.2
391.705	80.72
391.915	66.39
392.125	70.48
392.334	37.72
392.544	185.17
392.753	119.64
392.963	21.33
393.172	144.21
393.382	62.29
393.591	133.97
393.801	41.81
394.01	115.54
394.22	119.64
394.429	121.68
394.639	74.58
394.848	95.06
395.058	201.55
395.267	105.3
395.477	72.53
395.686	86.87
395.895	179.03
396.105	144.21
396.314	127.83
396.524	127.83
396.733	95.06
396.942	90.96
397.152	119.64
397.361	148.31
397.57	154.45
397.78	103.25
397.989	140.12
398.198	160.59
398.407	146.26
398.617	127.83
398.826	97.11
399.035	119.64
399.244	140.12
399.453	148.31
399.663	191.31
399.872	162.64
400.081	95.06
400.29	144.21
400.499	78.68
400.708	195.41
400.917	127.83
401.127	97.11
401.336	144.21
401.545	226.13
401.754	121.68
401.963	185.17
402.172	62.29
402.381	129.88
402.59	160.59
402.799	160.59
403.008	152.4
403.217	129.88
403.426	176.98
403.635	115.54
403.844	113.49
404.053	203.6
404.262	113.49
404.471	197.46
404.68	78.68
404.888	213.84
405.097	138.07
405.306	254.8
405.515	226.13
405.724	205.65
405.933	217.94
406.142	187.22
406.35	219.99
406.559	283.47
406.768	285.52
406.977	269.14
407.185	217.94
407.394	254.8
407.603	293.71
407.812	277.33
408.02	308.05
408.229	299.86
408.438	232.27
408.646	295.76
408.855	312.14
409.064	316.24
409.272	332.62
409.481	394.06
409.69	367.44
409.898	318.29
410.107	422.73
410.315	336.72
410.524	418.64
410.733	516.94
410.941	453.45
411.15	488.27
411.358	502.61
411.567	545.61
411.775	543.57
411.984	529.23
412.192	566.09
412.401	566.09
412.609	680.78
412.818	533.33
413.026	611.15
413.234	623.44
413.443	633.68
413.651	750.41
413.86	701.26
414.068	785.23
414.276	881.48
414.485	815.94
414.693	906.06
414.901	891.72
415.11	873.29
415.318	865.1
415.526	899.91
415.734	973.64
415.943	967.49
416.151	1071.94
416.359	1049.41
416.567	1069.89
416.776	1174.34
416.984	1153.86
417.192	1260.35
417.4	1196.87
417.608	1250.11
417.817	1348.42
418.025	1342.27
418.233	1479.49
418.441	1442.62
418.649	1561.41
418.857	1581.89
419.065	1647.42
419.273	1598.27
419.481	1655.61
419.689	1803.07
419.897	1786.68
420.105	1927.99
420.313	1981.24
420.521	2106.17
420.729	2054.97
420.937	2054.97
421.145	2188.08
421.353	2233.14
421.561	2454.32
421.769	2433.84
421.977	2577.2
422.185	2454.32
422.393	2806.57
422.601	2786.09
422.809	2835.24
423.017	2896.68
423.224	2954.02
423.432	3152.68
423.64	3193.64
423.848	3416.87
424.056	3371.81
424.263	3592.99
424.471	3554.08
424.679	3560.22
424.887	3791.64
425.094	3797.79
425.302	3994.39
425.51	4117.27
425.718	4354.83
425.925	4223.76
426.133	4313.88
426.341	4678.41
426.548	4817.68
426.756	4772.62
426.964	5051.14
427.171	5141.25
427.379	5387.01
427.586	5454.59
427.794	5288.71
428.001	5735.17
428.209	6034.17
428.417	5993.21
428.624	6333.17
428.832	6378.23
429.039	6400.76
429.247	6320.88
429.454	7037.67
429.662	7422.69
429.869	6972.14
430.076	7430.88
430.284	7275.24
430.491	7635.68
430.699	7733.98
430.906	7961.31
431.114	8174.3
431.321	8319.7
431.528	8573.65
431.736	8964.81
431.943	9433.8
432.15	9026.25
432.358	9308.87
432.565	9769.66
432.772	9796.29
432.979	10369.72
433.187	10582.71
433.394	10386.1
433.601	11211.43
433.808	11377.32
434.016	11297.45
434.223	11547.3
434.43	12247.71
434.637	12001.95
434.844	12794.51
435.052	13083.28
435.259	12915.34
435.466	13101.71
435.673	12800.66
435.88	13775.49
436.087	14768.76
436.294	14533.24
436.501	14172.8
436.708	14213.76
436.915	14891.63
437.122	15686.25
437.329	15540.84
437.537	16056.93
437.743	16276.06
437.95	16179.81
438.157	17140.3
438.364	17648.2
438.571	17529.42
438.778	17623.62
438.985	19264.05
439.192	18346.56
439.399	19003.96
439.606	18448.96
439.813	19763.75
440.02	21197.33
440.227	20279.84
440.433	20324.9
440.64	21053.97
440.847	20673.05
441.054	21223.95
441.261	22839.8
441.467	22434.3
441.674	22780.41
441.881	23790.06
442.088	23726.57
442.294	23343.6
442.501	24117.73
442.708	24304.1
442.914	25403.86
443.121	26669.5
443.328	25512.4
443.534	27300.28
443.741	26927.55
443.948	26165.7
444.154	28230.05
444.361	28137.9
444.568	28522.91
444.774	28232.1
444.981	28705.18
445.187	29456.79
445.394	30663.04
445.6	30026.12
445.807	33448.28
446.013	31793.52
446.22	32299.37
446.426	33792.34
446.633	34195.79
446.839	35184.96
447.046	33573.21
447.252	35395.9
447.459	35285.31
447.665	35572.02
447.871	37134.62
448.078	38357.26
448.284	36790.56
448.491	38023.44
448.697	39401.72
448.903	39889.14
449.11	39796.98
449.316	38832.39
449.522	39815.41
449.728	41060.58
449.935	41093.35
450.141	41150.69
450.347	42203.35
450.553	40597.74
450.76	41742.55
450.966	43043.01
451.172	41926.87
451.378	43368.64
451.584	42205.39
451.791	43894.97
451.997	43337.92
452.203	44648.62
452.409	44034.23
452.615	43880.63
452.821	42180.82
453.027	41855.19
453.233	43942.07
453.44	41961.69
453.646	42500.3
453.852	42821.83
454.058	43557.05
454.264	42418.38
454.47	43393.22
454.676	41967.83
454.882	43894.97
455.088	39753.97
455.294	40298.73
455.5	41158.88
455.705	40929.51
455.911	39966.96
456.117	39180.54
456.323	38840.58
456.529	36686.12
456.735	38105.36
456.941	37224.73
457.147	36567.34
457.352	35488.06
457.558	35129.66
457.764	34961.73
457.97	34611.53
458.176	33710.42
458.381	33642.84
458.587	31936.88
458.793	31838.58
458.999	30226.82
459.204	32643.43
459.41	32239.98
459.616	29743.5
459.821	29641.11
460.027	29667.73
460.233	28940.7
460.438	27165.11
460.644	27593.14
460.85	26579.39
461.055	26186.18
461.261	26071.5
461.466	23949.8
461.672	23536.11
461.878	24811.99
462.083	23448.05
462.289	22948.34
462.494	22456.83
462.7	21809.67
462.905	21041.68
463.111	21692.94
463.316	21813.77
463.522	21318.16
463.727	21344.78
463.932	21015.06
464.138	20849.18
464.343	20994.58
464.549	20376.09
464.754	21031.44
464.959	20929.05
465.165	20746.78
465.37	19616.3
465.575	19345.97
465.781	19837.48
465.986	19941.93
466.191	19247.66
466.397	19333.68
466.602	18117.18
466.807	18928.18
467.012	19036.72
467.218	18543.16
467.423	18565.69
467.628	18524.73
