Data from USB4F104151__274__14-34-39-827.txt Node

Date: Thu Mar 13 14:34:39 EDT 2025
User: louis
Spectrometer: USB4F10415
Trigger mode: 4
Integration Time (sec): 2.500000E-2
Scans to average: 1
Electric dark correction enabled: true
Nonlinearity correction enabled: false
Boxcar width: 0
XAxis mode: Wavelengths
Number of Pixels in Spectrum: 3648
>>>>>Begin Spectral Data<<<<<
178.204	-114.86
178.424	-114.86
178.644	-114.86
178.864	-127.14
179.084	-192.68
179.304	3.93
179.524	14.17
179.744	-20.65
179.964	-41.13
180.184	3.93
180.404	-8.36
180.624	5.97
180.844	36.69
181.064	-55.47
181.283	-24.75
181.503	40.79
181.723	44.88
181.943	-10.41
182.163	63.32
182.383	44.88
182.602	61.27
182.822	40.79
183.042	10.07
183.262	110.42
183.482	-2.22
183.701	-37.03
183.921	51.03
184.141	-45.23
184.361	38.74
184.58	114.52
184.8	151.38
185.02	-20.65
185.239	40.79
185.459	98.13
185.679	69.46
185.898	-37.03
186.118	63.32
186.338	40.79
186.557	44.88
186.777	-4.27
186.997	30.55
187.216	63.32
187.436	102.23
187.655	46.93
187.875	102.23
188.095	28.5
188.314	22.36
188.534	116.56
188.753	-37.03
188.973	104.28
189.192	30.55
189.412	18.26
189.631	20.31
189.851	79.7
190.07	46.93
190.29	28.5
190.509	-2.22
190.729	61.27
190.948	126.8
191.168	214.87
191.387	53.08
191.607	46.93
191.826	32.6
192.045	85.84
192.265	30.55
192.484	24.4
192.704	22.36
192.923	-43.18
193.142	32.6
193.362	63.32
193.581	32.6
193.8	69.46
194.02	135
194.239	-4.27
194.458	-102.57
194.678	42.84
194.897	14.17
195.116	-20.65
195.335	81.75
195.555	77.65
195.774	12.12
195.993	12.12
196.212	61.27
196.432	53.08
196.651	3.93
196.87	-20.65
197.089	77.65
197.308	124.76
197.528	38.74
197.747	5.97
197.966	22.36
198.185	53.08
198.404	44.88
198.623	-4.27
198.842	110.42
199.062	137.04
199.281	48.98
199.5	-2.22
199.719	100.18
199.938	-4.27
200.157	8.02
200.376	65.36
200.595	53.08
200.814	-28.84
201.033	30.55
201.252	28.5
201.471	8.02
201.69	-6.31
201.909	30.55
202.128	44.88
202.347	85.84
202.566	8.02
202.785	-20.65
203.004	28.5
203.223	69.46
203.442	24.4
203.661	36.69
203.879	-32.94
204.098	112.47
204.317	14.17
204.536	122.71
204.755	51.03
204.974	85.84
205.193	24.4
205.411	163.67
205.63	5.97
205.849	-28.84
206.068	102.23
206.287	3.93
206.505	77.65
206.724	-8.36
206.943	-8.36
207.162	-20.65
207.381	149.33
207.599	-49.32
207.818	44.88
208.037	40.79
208.255	36.69
208.474	94.04
208.693	40.79
208.911	18.26
209.13	30.55
209.349	40.79
209.567	122.71
209.786	122.71
210.005	110.42
210.223	44.88
210.442	-84.14
210.661	12.12
210.879	38.74
211.098	40.79
211.316	48.98
211.535	135
211.753	12.12
211.972	36.69
212.191	20.31
212.409	20.31
212.628	61.27
212.846	-37.03
213.065	53.08
213.283	89.94
213.502	-12.46
213.72	36.69
213.938	-12.46
214.157	1.88
214.375	87.89
214.594	-69.8
214.812	38.74
215.031	-16.55
215.249	20.31
215.467	42.84
215.686	79.7
215.904	77.65
216.122	16.21
216.341	77.65
216.559	89.94
216.778	130.9
216.996	110.42
217.214	24.4
217.432	30.55
217.651	3.93
217.869	59.22
218.087	16.21
218.306	63.32
218.524	12.12
218.742	-10.41
218.96	85.84
219.179	69.46
219.397	145.24
219.615	61.27
219.833	85.84
220.051	-22.7
220.27	71.51
220.488	63.32
220.706	34.64
220.924	32.6
221.142	14.17
221.36	42.84
221.578	24.4
221.796	22.36
222.015	36.69
222.233	51.03
222.451	53.08
222.669	-8.36
222.887	-20.65
223.105	-28.84
223.323	44.88
223.541	-26.79
223.759	77.65
223.977	73.56
224.195	53.08
224.413	32.6
224.631	12.12
224.849	-20.65
225.067	69.46
225.285	32.6
225.503	53.08
225.721	-2.22
225.939	-20.65
226.157	40.79
226.375	118.61
226.592	24.4
226.81	24.4
227.028	73.56
227.246	130.9
227.464	67.41
227.682	55.12
227.9	65.36
228.117	44.88
228.335	28.5
228.553	12.12
228.771	112.47
228.989	55.12
229.206	83.8
229.424	28.5
229.642	24.4
229.86	22.36
230.077	61.27
230.295	40.79
230.513	126.8
230.731	69.46
230.948	94.04
231.166	48.98
231.384	34.64
231.601	28.5
231.819	16.21
232.037	32.6
232.254	-69.8
232.472	40.79
232.689	-61.61
232.907	112.47
233.125	65.36
233.342	20.31
233.56	5.97
233.777	24.4
233.995	59.22
234.213	120.66
234.43	94.04
234.648	-0.17
234.865	61.27
235.083	34.64
235.3	65.36
235.518	44.88
235.735	51.03
235.953	83.8
236.17	24.4
236.388	77.65
236.605	71.51
236.822	87.89
237.04	24.4
237.257	79.7
237.475	79.7
237.692	79.7
237.909	1.88
238.127	22.36
238.344	53.08
238.562	38.74
238.779	3.93
238.996	48.98
239.214	1.88
239.431	53.08
239.648	38.74
239.865	20.31
240.083	34.64
240.3	38.74
240.517	-16.55
240.735	12.12
240.952	73.56
241.169	128.85
241.386	63.32
241.603	-4.27
241.821	30.55
242.038	149.33
242.255	48.98
242.472	-4.27
242.689	116.56
242.907	14.17
243.124	20.31
243.341	36.69
243.558	-20.65
243.775	46.93
243.992	-14.51
244.209	102.23
244.426	77.65
244.643	20.31
244.86	67.41
245.078	77.65
245.295	44.88
245.512	32.6
245.729	14.17
245.946	32.6
246.163	77.65
246.38	32.6
246.597	48.98
246.814	73.56
247.031	48.98
247.248	55.12
247.464	1.88
247.681	28.5
247.898	102.23
248.115	61.27
248.332	-28.84
248.549	69.46
248.766	63.32
248.983	51.03
249.2	26.45
249.417	36.69
249.633	-49.32
249.85	51.03
250.067	3.93
250.284	61.27
250.501	28.5
250.717	89.94
250.934	34.64
251.151	-0.17
251.368	8.02
251.585	44.88
251.801	24.4
252.018	12.12
252.235	40.79
252.451	149.33
252.668	-2.22
252.885	32.6
253.102	8.02
253.318	24.4
253.535	44.88
253.752	61.27
253.968	28.5
254.185	24.4
254.401	-0.17
254.618	59.22
254.835	71.51
255.051	65.36
255.268	73.56
255.484	104.28
255.701	28.5
255.917	114.52
256.134	44.88
256.351	28.5
256.567	79.7
256.784	30.55
257	-43.18
257.217	57.17
257.433	135
257.65	85.84
257.866	145.24
258.082	5.97
258.299	61.27
258.515	94.04
258.732	3.93
258.948	-26.79
259.165	65.36
259.381	8.02
259.597	71.51
259.814	53.08
260.03	3.93
260.246	22.36
260.463	120.66
260.679	53.08
260.895	28.5
261.112	18.26
261.328	16.21
261.544	-37.03
261.761	159.57
261.977	22.36
262.193	28.5
262.409	32.6
262.626	-45.23
262.842	53.08
263.058	30.55
263.274	61.27
263.49	69.46
263.707	65.36
263.923	85.84
264.139	8.02
264.355	102.23
264.571	61.27
264.787	46.93
265.004	94.04
265.22	63.32
265.436	55.12
265.652	85.84
265.868	48.98
266.084	36.69
266.3	36.69
266.516	3.93
266.732	79.7
266.948	-18.6
267.164	26.45
267.38	147.28
267.596	5.97
267.812	98.13
268.028	22.36
268.244	67.41
268.46	69.46
268.676	44.88
268.892	77.65
269.108	104.28
269.324	44.88
269.54	5.97
269.756	-18.6
269.972	44.88
270.188	81.75
270.403	16.21
270.619	40.79
270.835	14.17
271.051	44.88
271.267	38.74
271.483	81.75
271.698	118.61
271.914	46.93
272.13	8.02
272.346	22.36
272.562	-12.46
272.777	36.69
272.993	44.88
273.209	22.36
273.425	20.31
273.64	30.55
273.856	28.5
274.072	12.12
274.287	-34.99
274.503	20.31
274.719	-10.41
274.934	28.5
275.15	-4.27
275.366	57.17
275.581	28.5
275.797	110.42
276.012	5.97
276.228	-20.65
276.444	-0.17
276.659	71.51
276.875	-24.75
277.09	53.08
277.306	16.21
277.521	79.7
277.737	16.21
277.952	94.04
278.168	28.5
278.383	44.88
278.599	-51.37
278.814	16.21
279.03	-26.79
279.245	79.7
279.461	22.36
279.676	22.36
279.892	12.12
280.107	-4.27
280.322	-4.27
280.538	28.5
280.753	28.5
280.969	36.69
281.184	-32.94
281.399	36.69
281.615	-2.22
281.83	55.12
282.045	-18.6
282.26	20.31
282.476	12.12
282.691	89.94
282.906	44.88
283.122	36.69
283.337	12.12
283.552	73.56
283.767	38.74
283.983	53.08
284.198	44.88
284.413	48.98
284.628	-16.55
284.843	75.6
285.058	87.89
285.274	14.17
285.489	20.31
285.704	12.12
285.919	53.08
286.134	112.47
286.349	71.51
286.564	77.65
286.779	110.42
286.995	3.93
287.21	46.93
287.425	73.56
287.64	24.4
287.855	5.97
288.07	-10.41
288.285	139.09
288.5	85.84
288.715	53.08
288.93	-4.27
289.145	40.79
289.36	153.43
289.575	102.23
289.79	-10.41
290.004	46.93
290.219	104.28
290.434	79.7
290.649	-61.61
290.864	22.36
291.079	-16.55
291.294	77.65
291.509	40.79
291.724	69.46
291.938	14.17
292.153	12.12
292.368	-14.51
292.583	12.12
292.798	69.46
293.012	26.45
293.227	79.7
293.442	30.55
293.657	87.89
293.871	89.94
294.086	55.12
294.301	81.75
294.516	81.75
294.73	59.22
294.945	20.31
295.16	30.55
295.374	44.88
295.589	79.7
295.804	69.46
296.018	65.36
296.233	73.56
296.447	40.79
296.662	59.22
296.877	110.42
297.091	102.23
297.306	-2.22
297.52	-8.36
297.735	65.36
297.949	34.64
298.164	40.79
298.378	24.4
298.593	12.12
298.807	-4.27
299.022	3.93
299.236	36.69
299.451	65.36
299.665	77.65
299.88	85.84
300.094	-53.42
300.309	-26.79
300.523	137.04
300.737	71.51
300.952	46.93
301.166	112.47
301.381	16.21
301.595	53.08
301.809	3.93
302.024	57.17
302.238	-28.84
302.452	94.04
302.667	63.32
302.881	87.89
303.095	108.37
303.309	69.46
303.524	85.84
303.738	79.7
303.952	-30.89
304.166	40.79
304.381	-22.7
304.595	139.09
304.809	24.4
305.023	30.55
305.237	48.98
305.452	-8.36
305.666	67.41
305.88	65.36
306.094	83.8
306.308	112.47
306.522	48.98
306.736	40.79
306.95	67.41
307.164	24.4
307.379	61.27
307.593	57.17
307.807	30.55
308.021	77.65
308.235	89.94
308.449	-2.22
308.663	83.8
308.877	73.56
309.091	36.69
309.305	96.08
309.519	-61.61
309.733	130.9
309.947	55.12
310.161	104.28
310.374	102.23
310.588	32.6
310.802	-34.99
311.016	48.98
311.23	96.08
311.444	22.36
311.658	30.55
311.872	44.88
312.085	46.93
312.299	122.71
312.513	81.75
312.727	28.5
312.941	28.5
313.154	102.23
313.368	75.6
313.582	110.42
313.796	44.88
314.009	44.88
314.223	-2.22
314.437	20.31
314.651	61.27
314.864	20.31
315.078	77.65
315.292	-18.6
315.505	36.69
315.719	-16.55
315.933	81.75
316.146	-28.84
316.36	-20.65
316.573	73.56
316.787	53.08
317.001	63.32
317.214	-28.84
317.428	28.5
317.641	22.36
317.855	12.12
318.068	22.36
318.282	5.97
318.495	116.56
318.709	65.36
318.922	65.36
319.136	110.42
319.349	151.38
319.563	55.12
319.776	53.08
319.99	1.88
320.203	34.64
320.417	24.4
320.63	130.9
320.843	71.51
321.057	24.4
321.27	5.97
321.483	57.17
321.697	104.28
321.91	32.6
322.124	73.56
322.337	-37.03
322.55	5.97
322.763	57.17
322.977	30.55
323.19	-20.65
323.403	102.23
323.617	55.12
323.83	71.51
324.043	22.36
324.256	94.04
324.469	-24.75
324.683	28.5
324.896	18.26
325.109	71.51
325.322	38.74
325.535	48.98
325.748	96.08
325.962	73.56
326.175	61.27
326.388	106.32
326.601	53.08
326.814	53.08
327.027	61.27
327.24	128.85
327.453	-6.31
327.666	63.32
327.879	77.65
328.092	137.04
328.305	1.88
328.518	42.84
328.731	-8.36
328.944	63.32
329.157	16.21
329.37	44.88
329.583	139.09
329.796	24.4
330.009	40.79
330.222	44.88
330.435	5.97
330.648	34.64
330.861	85.84
331.073	143.19
331.286	94.04
331.499	48.98
331.712	-37.03
331.925	38.74
332.138	28.5
332.35	40.79
332.563	28.5
332.776	112.47
332.989	77.65
333.202	48.98
333.414	20.31
333.627	16.21
333.84	55.12
334.053	38.74
334.265	-12.46
334.478	96.08
334.691	26.45
334.903	40.79
335.116	61.27
335.329	20.31
335.541	79.7
335.754	65.36
335.966	16.21
336.179	69.46
336.392	79.7
336.604	1.88
336.817	51.03
337.029	118.61
337.242	71.51
337.454	89.94
337.667	3.93
337.88	137.04
338.092	98.13
338.305	24.4
338.517	18.26
338.729	24.4
338.942	61.27
339.154	71.51
339.367	53.08
339.579	40.79
339.792	-4.27
340.004	75.6
340.217	22.36
340.429	42.84
340.641	-37.03
340.854	-2.22
341.066	12.12
341.278	65.36
341.491	110.42
341.703	40.79
341.915	-14.51
342.128	83.8
342.34	42.84
342.552	-28.84
342.764	165.71
342.977	3.93
343.189	188.24
343.401	53.08
343.613	46.93
343.826	8.02
344.038	48.98
344.25	32.6
344.462	30.55
344.674	96.08
344.886	-10.41
345.099	65.36
345.311	20.31
345.523	12.12
345.735	3.93
345.947	51.03
346.159	48.98
346.371	10.07
346.583	85.84
346.795	57.17
347.007	53.08
347.219	83.8
347.431	53.08
347.643	55.12
347.855	38.74
348.067	110.42
348.279	8.02
348.491	30.55
348.703	91.99
348.915	77.65
349.127	46.93
349.339	53.08
349.551	48.98
349.763	44.88
349.975	-10.41
350.187	73.56
350.399	139.09
350.61	18.26
350.822	14.17
351.034	36.69
351.246	85.84
351.458	61.27
351.669	63.32
351.881	38.74
352.093	128.85
352.305	102.23
352.517	38.74
352.728	-2.22
352.94	65.36
353.152	63.32
353.363	87.89
353.575	26.45
353.787	139.09
353.999	24.4
354.21	85.84
354.422	51.03
354.633	-39.08
354.845	38.74
355.057	91.99
355.268	36.69
355.48	65.36
355.692	79.7
355.903	-22.7
356.115	44.88
356.326	-8.36
356.538	153.43
356.749	44.88
356.961	20.31
357.172	48.98
357.384	102.23
357.595	104.28
357.807	85.84
358.018	104.28
358.23	63.32
358.441	135
358.653	30.55
358.864	-28.84
359.075	-28.84
359.287	61.27
359.498	118.61
359.709	104.28
359.921	81.75
360.132	85.84
360.344	71.51
360.555	53.08
360.766	22.36
360.977	91.99
361.189	94.04
361.4	110.42
361.611	53.08
361.823	55.12
362.034	120.66
362.245	16.21
362.456	38.74
362.667	114.52
362.879	53.08
363.09	20.31
363.301	69.46
363.512	153.43
363.723	28.5
363.935	36.69
364.146	55.12
364.357	71.51
364.568	61.27
364.779	3.93
364.99	61.27
365.201	8.02
365.412	77.65
365.623	48.98
365.834	81.75
366.045	63.32
366.256	42.84
366.467	94.04
366.678	-0.17
366.889	42.84
367.1	34.64
367.311	77.65
367.522	12.12
367.733	102.23
367.944	53.08
368.155	63.32
368.366	91.99
368.577	104.28
368.788	-18.6
368.999	-4.27
369.209	46.93
369.42	73.56
369.631	100.18
369.842	-69.8
370.053	24.4
370.264	151.38
370.474	-32.94
370.685	104.28
370.896	42.84
371.107	44.88
371.317	141.14
371.528	-20.65
371.739	81.75
371.95	59.22
372.16	87.89
372.371	48.98
372.582	32.6
372.792	65.36
373.003	124.76
373.214	-12.46
373.424	83.8
373.635	-26.79
373.846	89.94
374.056	5.97
374.267	69.46
374.477	22.36
374.688	63.32
374.898	77.65
375.109	102.23
375.319	57.17
375.53	73.56
375.74	71.51
375.951	55.12
376.161	87.89
376.372	71.51
376.582	48.98
376.793	69.46
377.003	-0.17
377.214	77.65
377.424	112.47
377.635	77.65
377.845	48.98
378.055	69.46
378.266	-20.65
378.476	65.36
378.686	24.4
378.897	14.17
379.107	98.13
379.317	102.23
379.528	48.98
379.738	94.04
379.948	20.31
380.158	108.37
380.369	-18.6
380.579	67.41
380.789	32.6
380.999	69.46
381.21	34.64
381.42	85.84
381.63	53.08
381.84	44.88
382.05	79.7
382.261	69.46
382.471	161.62
382.681	73.56
382.891	110.42
383.101	36.69
383.311	16.21
383.521	-4.27
383.731	135
383.941	112.47
384.151	32.6
384.361	77.65
384.571	73.56
384.781	38.74
384.991	147.28
385.201	137.04
385.411	12.12
385.621	102.23
385.831	53.08
386.041	53.08
386.251	53.08
386.461	143.19
386.671	-41.13
386.881	8.02
387.091	57.17
387.301	118.61
387.511	130.9
387.72	81.75
387.93	67.41
388.14	22.36
388.35	61.27
388.56	53.08
388.769	94.04
388.979	102.23
389.189	73.56
389.399	63.32
389.609	130.9
389.818	38.74
390.028	71.51
390.238	65.36
390.447	89.94
390.657	104.28
390.867	36.69
391.076	61.27
391.286	94.04
391.496	-12.46
391.705	71.51
391.915	143.19
392.125	46.93
392.334	36.69
392.544	143.19
392.753	20.31
392.963	48.98
393.172	153.43
393.382	81.75
393.591	114.52
393.801	83.8
394.01	135
394.22	69.46
394.429	44.88
394.639	44.88
394.848	44.88
395.058	36.69
395.267	96.08
395.477	87.89
395.686	132.95
395.895	184.15
396.105	208.72
396.314	69.46
396.524	135
396.733	28.5
396.942	145.24
397.152	96.08
397.361	79.7
397.57	85.84
397.78	106.32
397.989	147.28
398.198	175.95
398.407	40.79
398.617	159.57
398.826	135
399.035	61.27
399.244	139.09
399.453	53.08
399.663	91.99
399.872	192.34
400.081	38.74
400.29	85.84
400.499	77.65
400.708	175.95
400.917	75.6
401.127	124.76
401.336	34.64
401.545	118.61
401.754	141.14
401.963	106.32
402.172	75.6
402.381	61.27
402.59	98.13
402.799	130.9
403.008	85.84
403.217	143.19
403.426	141.14
403.635	79.7
403.844	151.38
404.053	147.28
404.262	143.19
404.471	200.53
404.68	178
404.888	190.29
405.097	143.19
405.306	180.05
405.515	216.91
405.724	190.29
405.933	184.15
406.142	143.19
406.35	204.63
406.559	239.44
406.768	132.95
406.977	253.78
407.185	135
407.394	266.07
407.603	137.04
407.812	264.02
408.02	175.95
408.229	292.69
408.438	208.72
408.646	259.92
408.855	218.96
409.064	274.26
409.272	208.72
409.481	284.5
409.69	266.07
409.898	241.49
410.107	347.98
410.315	347.98
410.524	278.35
410.733	372.56
410.941	241.49
411.15	366.42
411.358	393.04
411.567	438.09
411.775	343.89
411.984	431.95
412.192	487.25
412.401	405.33
412.609	526.16
412.818	485.2
413.026	417.61
413.234	425.81
413.443	489.29
413.651	507.73
413.86	577.36
414.068	585.55
414.276	593.74
414.485	487.25
414.693	622.41
414.901	587.6
415.11	642.89
415.318	679.75
415.526	716.62
415.734	749.39
415.943	765.77
416.151	831.3
416.359	708.43
416.567	896.84
416.776	839.5
416.984	929.61
417.192	962.37
417.4	978.76
417.608	970.57
417.817	1036.1
418.025	1050.44
418.233	1134.4
418.441	1077.06
418.649	1187.65
418.857	1257.28
419.065	1201.99
419.273	1122.12
419.481	1302.34
419.689	1322.82
419.897	1316.67
420.105	1480.51
420.313	1478.46
420.521	1412.93
420.729	1589.05
420.937	1650.49
421.145	1718.08
421.353	1605.44
421.561	1732.41
421.769	1840.95
421.977	1912.63
422.185	2015.03
422.393	1908.54
422.601	2252.59
422.809	2154.29
423.017	2162.48
423.224	2211.64
423.432	2344.75
423.64	2311.99
423.848	2518.83
424.056	2445.1
424.263	2668.33
424.471	2643.76
424.679	2674.48
424.887	2858.79
425.094	2993.96
425.302	2832.17
425.51	3059.49
425.718	3045.16
425.925	3196.71
426.133	3356.45
426.341	3612.45
426.548	3680.03
426.756	3692.32
426.964	3731.23
427.171	3833.63
427.379	3845.91
427.586	3944.22
427.794	4169.49
428.001	4284.18
428.209	4468.5
428.417	4439.83
428.624	4722.45
428.832	4667.15
429.039	4880.14
429.247	4701.97
429.454	5246.73
429.662	5461.76
429.869	5072.65
430.076	5459.71
430.284	5349.12
430.491	5592.83
430.699	5793.53
430.906	5791.48
431.114	5857.02
431.321	6168.31
431.528	6362.87
431.736	6602.48
431.943	7007.98
432.15	6725.36
432.358	6846.19
432.565	7122.66
432.772	7186.15
432.979	7708.38
433.187	7724.77
433.394	7724.77
433.601	8214.23
433.808	8367.83
434.016	8261.34
434.223	8660.69
434.43	9273.03
434.637	9006.8
434.844	9385.67
435.052	9443.01
435.259	9572.04
435.466	9612.99
435.673	9432.77
435.88	10090.17
436.087	10878.64
436.294	10514.1
436.501	10360.5
436.708	10577.59
436.915	11140.78
437.122	11620
437.329	11425.45
437.537	11908.77
437.743	12033.69
437.95	12017.31
438.157	12424.86
438.364	12734.1
438.571	12867.22
438.778	12961.42
438.985	14270.08
439.192	13778.56
439.399	14007.94
439.606	13651.59
439.813	14423.67
440.02	15150.7
440.227	15183.47
440.433	15011.44
440.64	15308.4
440.847	15232.62
441.054	15414.89
441.261	16866.9
441.467	16365.15
441.674	16805.46
441.881	17354.32
442.088	17055.31
442.294	17294.93
442.501	17595.98
442.708	18232.9
442.914	18705.98
443.121	19609.13
443.328	18744.89
443.534	19977.76
443.741	19494.44
443.948	19217.97
444.154	20790.81
444.361	20706.84
444.568	20934.17
444.774	20686.36
444.981	20866.58
445.187	21589.52
445.394	22400.51
445.6	22545.92
445.807	24176.1
446.013	23223.79
446.22	23463.41
446.426	24784.35
446.633	24776.16
446.839	25916.87
447.046	24647.13
447.252	25959.88
447.459	26093
447.665	25843.15
447.871	27375.03
448.078	28458.4
448.284	26891.71
448.491	27596.21
448.697	28765.6
448.903	29009.31
449.11	29238.68
449.316	29064.6
449.522	29431.19
449.728	30352.77
449.935	30600.58
450.141	30745.98
450.347	31032.7
450.553	30268.81
450.76	30444.93
450.966	31661.43
451.172	30858.62
451.378	31954.29
451.584	31274.36
451.791	32249.19
451.997	31884.65
452.203	32673.12
452.409	32286.06
452.615	32193.9
452.821	31190.39
453.027	30768.51
453.233	32378.22
453.44	30793.09
453.646	31407.48
453.852	31505.78
454.058	32122.22
454.264	31038.84
454.47	31890.8
454.676	31010.17
454.882	32105.84
455.088	29101.47
455.294	29326.74
455.5	29961.61
455.705	30526.85
455.911	29234.58
456.117	28564.9
456.323	28413.35
456.529	26822.08
456.735	27758
456.941	26881.47
457.147	27004.35
457.352	25986.5
457.558	25402.83
457.764	25927.11
457.97	24976.86
458.176	24620.51
458.381	24540.64
458.587	23524.85
458.793	23334.39
458.999	22298.11
459.204	23522.8
459.41	23096.82
459.616	21466.64
459.821	21272.08
460.027	21325.33
460.233	21081.62
460.438	20069.92
460.644	20020.77
460.85	19009.08
461.055	18699.83
461.261	18978.36
461.466	17317.45
461.672	16850.52
461.878	18116.16
462.083	16932.43
462.289	16442.97
462.494	16010.85
462.7	15488.62
462.905	15064.69
463.111	15535.72
463.316	15674.98
463.522	15191.66
463.727	15406.7
463.932	15230.57
464.138	15128.17
464.343	15076.98
464.549	14835.31
464.754	15410.79
464.959	15007.34
465.165	14872.18
465.37	14114.43
465.575	13710.98
465.781	14636.66
465.986	14388.86
466.191	13887.11
466.397	13745.8
466.602	13137.55
466.807	13596.29
467.012	13346.44
467.218	13377.16
467.423	13282.95
467.628	13389.45
