Data from USB4F104151__60__14-30-07-280.txt Node

Date: Thu Mar 13 14:30:07 EDT 2025
User: louis
Spectrometer: USB4F10415
Trigger mode: 4
Integration Time (sec): 2.500000E-2
Scans to average: 1
Electric dark correction enabled: true
Nonlinearity correction enabled: false
Boxcar width: 0
XAxis mode: Wavelengths
Number of Pixels in Spectrum: 3648
>>>>>Begin Spectral Data<<<<<
178.204	-92.5
178.424	-92.5
178.644	-92.5
178.864	-112.98
179.084	-170.32
179.304	36.52
179.524	-35.16
179.744	73.39
179.964	11.95
180.184	-10.58
180.404	-16.73
180.624	-20.82
180.844	9.9
181.064	-18.77
181.283	50.86
181.503	-69.97
181.723	-10.58
181.943	-14.68
182.163	61.1
182.383	50.86
182.602	3.75
182.822	50.86
183.042	54.95
183.262	-53.59
183.482	42.67
183.701	3.75
183.921	26.28
184.141	22.19
184.361	83.63
184.58	38.57
184.8	102.06
185.02	-4.44
185.239	157.35
185.459	81.58
185.679	42.67
185.898	50.86
186.118	52.91
186.338	59.05
186.557	93.87
186.777	20.14
186.997	75.43
187.216	44.71
187.436	83.63
187.655	104.11
187.875	-14.68
188.095	36.52
188.314	134.82
188.534	48.81
188.753	42.67
188.973	134.82
189.192	71.34
189.412	57
189.631	-22.87
189.851	85.67
190.07	100.01
190.29	34.47
190.509	40.62
190.729	44.71
190.948	79.53
191.168	145.06
191.387	75.43
191.607	38.57
191.826	89.77
192.045	44.71
192.265	38.57
192.484	40.62
192.704	75.43
192.923	16.04
193.142	91.82
193.362	91.82
193.581	44.71
193.8	48.81
194.02	9.9
194.239	-47.44
194.458	24.23
194.678	20.14
194.897	54.95
195.116	59.05
195.335	3.75
195.555	69.29
195.774	38.57
195.993	63.15
196.212	104.11
196.432	38.57
196.651	54.95
196.87	54.95
197.089	116.39
197.308	18.09
197.528	44.71
197.747	18.09
197.966	50.86
198.185	83.63
198.404	-26.96
198.623	85.67
198.842	18.09
199.062	50.86
199.281	85.67
199.5	1.71
199.719	42.67
199.938	54.95
200.157	67.24
200.376	89.77
200.595	30.38
200.814	24.23
201.033	110.25
201.252	28.33
201.471	-14.68
201.69	143.02
201.909	34.47
202.128	83.63
202.347	104.11
202.566	42.67
202.785	9.9
203.004	18.09
203.223	93.87
203.442	104.11
203.661	34.47
203.879	136.87
204.098	73.39
204.317	40.62
204.536	42.67
204.755	50.86
204.974	116.39
205.193	63.15
205.411	147.11
205.63	140.97
205.849	11.95
206.068	93.87
206.287	75.43
206.505	71.34
206.724	91.82
206.943	-4.44
207.162	1.71
207.381	36.52
207.599	22.19
207.818	54.95
208.037	30.38
208.255	-4.44
208.474	63.15
208.693	63.15
208.911	50.86
209.13	75.43
209.349	61.1
209.567	18.09
209.786	63.15
210.005	26.28
210.223	44.71
210.442	81.58
210.661	-6.49
210.879	95.91
211.098	18.09
211.316	85.67
211.535	30.38
211.753	79.53
211.972	100.01
212.191	91.82
212.409	18.09
212.628	28.33
212.846	-14.68
213.065	34.47
213.283	132.78
213.502	20.14
213.72	9.9
213.938	-22.87
214.157	13.99
214.375	102.06
214.594	50.86
214.812	102.06
215.031	28.33
215.249	59.05
215.467	20.14
215.686	67.24
215.904	59.05
216.122	-2.39
216.341	44.71
216.559	65.19
216.778	18.09
216.996	100.01
217.214	18.09
217.432	87.72
217.651	93.87
217.869	44.71
218.087	61.1
218.306	9.9
218.524	61.1
218.742	85.67
218.96	71.34
219.179	-2.39
219.397	38.57
219.615	93.87
219.833	-10.58
220.051	20.14
220.27	91.82
220.488	67.24
220.706	1.71
220.924	67.24
221.142	50.86
221.36	42.67
221.578	11.95
221.796	-12.63
222.015	52.91
222.233	91.82
222.451	132.78
222.669	-74.07
222.887	36.52
223.105	59.05
223.323	9.9
223.541	1.71
223.759	36.52
223.977	38.57
224.195	87.72
224.413	54.95
224.631	91.82
224.849	69.29
225.067	145.06
225.285	3.75
225.503	54.95
225.721	-26.96
225.939	16.04
226.157	83.63
226.375	100.01
226.592	1.71
226.81	50.86
227.028	104.11
227.246	157.35
227.464	-18.77
227.682	22.19
227.9	65.19
228.117	5.8
228.335	48.81
228.553	77.48
228.771	-20.82
228.989	48.81
229.206	44.71
229.424	30.38
229.642	30.38
229.86	46.76
230.077	54.95
230.295	44.71
230.513	91.82
230.731	120.49
230.948	46.76
231.166	38.57
231.384	30.38
231.601	24.23
231.819	95.91
232.037	9.9
232.254	26.28
232.472	18.09
232.689	44.71
232.907	59.05
233.125	83.63
233.342	71.34
233.56	11.95
233.777	9.9
233.995	44.71
234.213	85.67
234.43	42.67
234.648	110.25
234.865	97.96
235.083	36.52
235.3	30.38
235.518	50.86
235.735	106.15
235.953	59.05
236.17	59.05
236.388	18.09
236.605	87.72
236.822	165.54
237.04	87.72
237.257	42.67
237.475	18.09
237.692	3.75
237.909	122.54
238.127	46.76
238.344	87.72
238.562	93.87
238.779	-76.12
238.996	-2.39
239.214	100.01
239.431	32.43
239.648	11.95
239.865	42.67
240.083	87.72
240.3	26.28
240.517	38.57
240.735	28.33
240.952	20.14
241.169	124.58
241.386	-10.58
241.603	67.24
241.821	18.09
242.038	151.21
242.255	73.39
242.472	50.86
242.689	46.76
242.907	26.28
243.124	18.09
243.341	95.91
243.558	52.91
243.775	40.62
243.992	-14.68
244.209	75.43
244.426	120.49
244.643	28.33
244.86	22.19
245.078	102.06
245.295	77.48
245.512	147.11
245.729	18.09
245.946	18.09
246.163	32.43
246.38	89.77
246.597	59.05
246.814	77.48
247.031	61.1
247.248	59.05
247.464	34.47
247.681	83.63
247.898	95.91
248.115	100.01
248.332	104.11
248.549	75.43
248.766	140.97
248.983	132.78
249.2	11.95
249.417	116.39
249.633	-2.39
249.85	75.43
250.067	54.95
250.284	-6.49
250.501	93.87
250.717	73.39
250.934	20.14
251.151	42.67
251.368	59.05
251.585	69.29
251.801	11.95
252.018	34.47
252.235	-4.44
252.451	18.09
252.668	9.9
252.885	50.86
253.102	40.62
253.318	-6.49
253.535	61.1
253.752	67.24
253.968	42.67
254.185	28.33
254.401	7.85
254.618	34.47
254.835	116.39
255.051	42.67
255.268	79.53
255.484	95.91
255.701	18.09
255.917	97.96
256.134	-39.25
256.351	67.24
256.567	20.14
256.784	140.97
257	-33.11
257.217	134.82
257.433	81.58
257.65	50.86
257.866	114.34
258.082	24.23
258.299	-39.25
258.515	91.82
258.732	77.48
258.948	34.47
259.165	77.48
259.381	26.28
259.597	59.05
259.814	77.48
260.03	9.9
260.246	83.63
260.463	100.01
260.679	132.78
260.895	104.11
261.112	46.76
261.328	-14.68
261.544	-47.44
261.761	79.53
261.977	22.19
262.193	-4.44
262.409	118.44
262.626	67.24
262.842	63.15
263.058	22.19
263.274	91.82
263.49	-20.82
263.707	9.9
263.923	102.06
264.139	-35.16
264.355	77.48
264.571	71.34
264.787	93.87
265.004	100.01
265.22	59.05
265.436	-4.44
265.652	-4.44
265.868	59.05
266.084	61.1
266.3	75.43
266.516	34.47
266.732	50.86
266.948	75.43
267.164	-39.25
267.38	42.67
267.596	-22.87
267.812	75.43
268.028	110.25
268.244	-20.82
268.46	20.14
268.676	36.52
268.892	67.24
269.108	67.24
269.324	26.28
269.54	7.85
269.756	30.38
269.972	-16.73
270.188	11.95
270.403	26.28
270.619	50.86
270.835	46.76
271.051	30.38
271.267	-33.11
271.483	-4.44
271.698	-26.96
271.914	54.95
272.13	50.86
272.346	61.1
272.562	18.09
272.777	108.2
272.993	71.34
273.209	34.47
273.425	91.82
273.64	3.75
273.856	169.64
274.072	1.71
274.287	59.05
274.503	50.86
274.719	-4.44
274.934	91.82
275.15	34.47
275.366	87.72
275.581	42.67
275.797	77.48
276.012	-47.44
276.228	59.05
276.444	63.15
276.659	22.19
276.875	44.71
277.09	26.28
277.306	46.76
277.521	42.67
277.737	63.15
277.952	75.43
278.168	61.1
278.383	44.71
278.599	5.8
278.814	132.78
279.03	46.76
279.245	93.87
279.461	18.09
279.676	67.24
279.892	24.23
280.107	-2.39
280.322	83.63
280.538	124.58
280.753	63.15
280.969	30.38
281.184	24.23
281.399	67.24
281.615	40.62
281.83	34.47
282.045	3.75
282.26	1.71
282.476	28.33
282.691	9.9
282.906	59.05
283.122	108.2
283.337	38.57
283.552	69.29
283.767	16.04
283.983	136.87
284.198	65.19
284.413	104.11
284.628	22.19
284.843	69.29
285.058	42.67
285.274	28.33
285.489	28.33
285.704	52.91
285.919	1.71
286.134	100.01
286.349	18.09
286.564	122.54
286.779	63.15
286.995	11.95
287.21	-2.39
287.425	36.52
287.64	-2.39
287.855	63.15
288.07	-63.83
288.285	26.28
288.5	132.78
288.715	124.58
288.93	81.58
289.145	59.05
289.36	112.3
289.575	132.78
289.79	26.28
290.004	50.86
290.219	9.9
290.434	52.91
290.649	42.67
290.864	116.39
291.079	11.95
291.294	-10.58
291.509	169.64
291.724	28.33
291.938	24.23
292.153	77.48
292.368	75.43
292.583	91.82
292.798	54.95
293.012	87.72
293.227	34.47
293.442	22.19
293.657	132.78
293.871	59.05
294.086	59.05
294.301	77.48
294.516	116.39
294.73	34.47
294.945	59.05
295.16	44.71
295.374	112.3
295.589	87.72
295.804	42.67
296.018	26.28
296.233	93.87
296.447	50.86
296.662	26.28
296.877	42.67
297.091	26.28
297.306	126.63
297.52	59.05
297.735	95.91
297.949	48.81
298.164	50.86
298.378	34.47
298.593	20.14
298.807	18.09
299.022	110.25
299.236	52.91
299.451	108.2
299.665	87.72
299.88	112.3
300.094	100.01
300.309	102.06
300.523	22.19
300.737	1.71
300.952	75.43
301.166	50.86
301.381	26.28
301.595	57
301.809	-12.63
302.024	13.99
302.238	48.81
302.452	124.58
302.667	46.76
302.881	61.1
303.095	75.43
303.309	11.95
303.524	54.95
303.738	77.48
303.952	44.71
304.166	75.43
304.381	32.43
304.595	83.63
304.809	30.38
305.023	116.39
305.237	54.95
305.452	42.67
305.666	46.76
305.88	67.24
306.094	95.91
306.308	95.91
306.522	75.43
306.736	30.38
306.95	18.09
307.164	52.91
307.379	1.71
307.593	173.74
307.807	77.48
308.021	85.67
308.235	75.43
308.449	83.63
308.663	44.71
308.877	87.72
309.091	65.19
309.305	67.24
309.519	30.38
309.733	116.39
309.947	20.14
310.161	61.1
310.374	36.52
310.588	95.91
310.802	36.52
311.016	18.09
311.23	165.54
311.444	30.38
311.658	63.15
311.872	149.16
312.085	1.71
312.299	50.86
312.513	110.25
312.727	61.1
312.941	50.86
313.154	71.34
313.368	97.96
313.582	69.29
313.796	63.15
314.009	-6.49
314.223	20.14
314.437	118.44
314.651	83.63
314.864	42.67
315.078	71.34
315.292	42.67
315.505	1.71
315.719	100.01
315.933	28.33
316.146	-39.25
316.36	-84.31
316.573	151.21
316.787	73.39
317.001	26.28
317.214	63.15
317.428	112.3
317.641	1.71
317.855	126.63
318.068	73.39
318.282	116.39
318.495	100.01
318.709	128.68
318.922	22.19
319.136	186.02
319.349	50.86
319.563	11.95
319.776	34.47
319.99	11.95
320.203	116.39
320.417	93.87
320.63	67.24
320.843	46.76
321.057	46.76
321.27	91.82
321.483	46.76
321.697	77.48
321.91	71.34
322.124	120.49
322.337	95.91
322.55	93.87
322.763	67.24
322.977	42.67
323.19	85.67
323.403	1.71
323.617	126.63
323.83	71.34
324.043	69.29
324.256	59.05
324.469	52.91
324.683	138.92
324.896	34.47
325.109	116.39
325.322	67.24
325.535	61.1
325.748	126.63
325.962	34.47
326.175	118.44
326.388	104.11
326.601	126.63
326.814	46.76
327.027	38.57
327.24	102.06
327.453	-22.87
327.666	126.63
327.879	108.2
328.092	36.52
328.305	124.58
328.518	67.24
328.731	59.05
328.944	67.24
329.157	77.48
329.37	69.29
329.583	126.63
329.796	198.31
330.009	3.75
330.222	100.01
330.435	89.77
330.648	34.47
330.861	32.43
331.073	112.3
331.286	116.39
331.499	38.57
331.712	36.52
331.925	36.52
332.138	50.86
332.35	42.67
332.563	-12.63
332.776	75.43
332.989	100.01
333.202	48.81
333.414	59.05
333.627	124.58
333.84	34.47
334.053	91.82
334.265	67.24
334.478	1.71
334.691	85.67
334.903	81.58
335.116	75.43
335.329	11.95
335.541	89.77
335.754	108.2
335.966	57
336.179	91.82
336.392	28.33
336.604	67.24
336.817	116.39
337.029	73.39
337.242	100.01
337.454	32.43
337.667	26.28
337.88	7.85
338.092	93.87
338.305	100.01
338.517	57
338.729	16.04
338.942	52.91
339.154	-14.68
339.367	46.76
339.579	161.45
339.792	3.75
340.004	59.05
340.217	28.33
340.429	54.95
340.641	18.09
340.854	26.28
341.066	18.09
341.278	67.24
341.491	118.44
341.703	59.05
341.915	52.91
342.128	102.06
342.34	85.67
342.552	34.47
342.764	50.86
342.977	52.91
343.189	38.57
343.401	91.82
343.613	34.47
343.826	30.38
344.038	-29.01
344.25	9.9
344.462	34.47
344.674	67.24
344.886	120.49
345.099	149.16
345.311	54.95
345.523	24.23
345.735	52.91
345.947	73.39
346.159	63.15
346.371	67.24
346.583	36.52
346.795	91.82
347.007	5.8
347.219	83.63
347.431	128.68
347.643	89.77
347.855	-6.49
348.067	42.67
348.279	-37.2
348.491	134.82
348.703	34.47
348.915	59.05
349.127	32.43
349.339	63.15
349.551	26.28
349.763	61.1
349.975	52.91
350.187	91.82
350.399	50.86
350.61	93.87
350.822	100.01
351.034	42.67
351.246	3.75
351.458	54.95
351.669	77.48
351.881	75.43
352.093	67.24
352.305	93.87
352.517	116.39
352.728	116.39
352.94	67.24
353.152	118.44
353.363	50.86
353.575	116.39
353.787	91.82
353.999	77.48
354.21	102.06
354.422	-47.44
354.633	77.48
354.845	108.2
355.057	59.05
355.268	79.53
355.48	95.91
355.692	26.28
355.903	128.68
356.115	9.9
356.326	-10.58
356.538	110.25
356.749	112.3
356.961	136.87
357.172	61.1
357.384	91.82
357.595	116.39
357.807	67.24
358.018	59.05
358.23	38.57
358.441	59.05
358.653	112.3
358.864	71.34
359.075	110.25
359.287	118.44
359.498	143.02
359.709	73.39
359.921	87.72
360.132	75.43
360.344	59.05
360.555	69.29
360.766	13.99
360.977	110.25
361.189	124.58
361.4	18.09
361.611	75.43
361.823	165.54
362.034	54.95
362.245	3.75
362.456	54.95
362.667	28.33
362.879	61.1
363.09	85.67
363.301	147.11
363.512	102.06
363.723	13.99
363.935	34.47
364.146	42.67
364.357	34.47
364.568	36.52
364.779	32.43
364.99	143.02
365.201	91.82
365.412	83.63
365.623	-33.11
365.834	79.53
366.045	134.82
366.256	124.58
366.467	22.19
366.678	104.11
366.889	116.39
367.1	63.15
367.311	97.96
367.522	50.86
367.733	77.48
367.944	110.25
368.155	-4.44
368.366	50.86
368.577	42.67
368.788	67.24
368.999	20.14
369.209	91.82
369.42	108.2
369.631	91.82
369.842	75.43
370.053	91.82
370.264	128.68
370.474	20.14
370.685	116.39
370.896	63.15
371.107	108.2
371.317	93.87
371.528	38.57
371.739	108.2
371.95	124.58
372.16	126.63
372.371	54.95
372.582	63.15
372.792	46.76
373.003	44.71
373.214	50.86
373.424	108.2
373.635	54.95
373.846	59.05
374.056	61.1
374.267	34.47
374.477	87.72
374.688	75.43
374.898	71.34
375.109	87.72
375.319	28.33
375.53	159.4
375.74	65.19
375.951	22.19
376.161	104.11
376.372	128.68
376.582	24.23
376.793	28.33
377.003	71.34
377.214	126.63
377.424	69.29
377.635	52.91
377.845	44.71
378.055	77.48
378.266	100.01
378.476	97.96
378.686	91.82
378.897	126.63
379.107	120.49
379.317	87.72
379.528	38.57
379.738	77.48
379.948	75.43
380.158	42.67
380.369	36.52
380.579	83.63
380.789	38.57
380.999	132.78
381.21	116.39
381.42	183.98
381.63	83.63
381.84	132.78
382.05	112.3
382.261	181.93
382.471	30.38
382.681	50.86
382.891	108.2
383.101	110.25
383.311	54.95
383.521	52.91
383.731	89.77
383.941	126.63
384.151	-4.44
384.361	91.82
384.571	54.95
384.781	112.3
384.991	104.11
385.201	104.11
385.411	91.82
385.621	100.01
385.831	71.34
386.041	126.63
386.251	38.57
386.461	161.45
386.671	116.39
386.881	116.39
387.091	-2.39
387.301	140.97
387.511	67.24
387.72	140.97
387.93	67.24
388.14	52.91
388.35	22.19
388.56	157.35
388.769	79.53
388.979	102.06
389.189	71.34
389.399	52.91
389.609	89.77
389.818	75.43
390.028	116.39
390.238	67.24
390.447	59.05
390.657	120.49
390.867	22.19
391.076	50.86
391.286	75.43
391.496	79.53
391.705	67.24
391.915	85.67
392.125	161.45
392.334	120.49
392.544	163.5
392.753	18.09
392.963	63.15
393.172	116.39
393.382	118.44
393.591	155.3
393.801	126.63
394.01	165.54
394.22	149.16
394.429	77.48
394.639	71.34
394.848	128.68
395.058	128.68
395.267	183.98
395.477	85.67
395.686	206.5
395.895	118.44
396.105	161.45
396.314	77.48
396.524	136.87
396.733	128.68
396.942	93.87
397.152	116.39
397.361	145.06
397.57	138.92
397.78	100.01
397.989	124.58
398.198	169.64
398.407	106.15
398.617	165.54
398.826	145.06
399.035	183.98
399.244	134.82
399.453	159.4
399.663	61.1
399.872	128.68
400.081	210.6
400.29	159.4
400.499	67.24
400.708	265.89
400.917	173.74
401.127	165.54
401.336	183.98
401.545	290.47
401.754	206.5
401.963	171.69
402.172	159.4
402.381	93.87
402.59	112.3
402.799	181.93
403.008	269.99
403.217	216.74
403.426	112.3
403.635	194.22
403.844	173.74
404.053	175.78
404.262	179.88
404.471	276.13
404.68	157.35
404.888	272.04
405.097	175.78
405.306	140.97
405.515	214.7
405.724	198.31
405.933	181.93
406.142	239.27
406.35	253.61
406.559	198.31
406.768	300.71
406.977	231.08
407.185	224.94
407.394	241.32
407.603	239.27
407.812	364.2
408.02	325.29
408.229	306.85
408.438	237.22
408.646	169.64
408.855	317.09
409.064	378.53
409.272	341.67
409.481	345.77
409.69	351.91
409.898	378.53
410.107	411.3
410.315	411.3
410.524	390.82
410.733	444.07
410.941	388.77
411.15	444.07
411.358	491.17
411.567	503.46
411.775	476.84
411.984	495.27
412.192	634.53
412.401	460.45
412.609	552.61
412.818	634.53
413.026	583.33
413.234	558.75
413.443	675.49
413.651	646.82
413.86	640.67
414.068	722.59
414.276	835.23
414.485	745.12
414.693	816.8
414.901	911
415.11	863.9
415.318	880.29
415.526	1031.83
415.734	994.97
415.943	931.48
416.151	956.06
416.359	1044.12
416.567	1037.98
416.776	1115.8
416.984	1181.34
417.192	1105.56
417.4	1277.59
417.608	1123.99
417.817	1310.36
418.025	1304.21
418.233	1404.57
418.441	1322.65
418.649	1470.1
418.857	1519.25
419.065	1638.03
419.273	1511.06
419.481	1615.51
419.689	1689.23
419.897	1859.21
420.105	1881.74
420.313	1894.03
420.521	2049.68
420.729	2057.87
420.937	2090.63
421.145	2207.37
421.353	2221.7
421.561	2397.83
421.769	2305.67
421.977	2516.61
422.185	2442.89
422.393	2481.8
422.601	2766.46
422.809	2768.51
423.017	2694.79
423.224	2907.77
423.432	2991.74
423.64	3081.85
423.848	3294.84
424.056	3231.35
424.263	3473.01
424.471	3401.33
424.679	3542.64
424.887	3665.52
425.094	3833.46
425.302	3884.66
425.51	3894.9
425.718	4157.04
425.925	4154.99
426.133	4298.35
426.341	4474.47
426.548	4867.68
426.756	4744.8
426.964	4802.15
427.171	5203.55
427.379	5359.19
427.586	5178.97
427.794	5574.23
428.001	5791.31
428.209	5875.28
428.417	5813.84
428.624	6227.53
428.832	6309.45
429.039	6186.57
429.247	6301.26
429.454	6757.96
429.662	7179.84
429.869	6639.17
430.076	7294.52
430.284	7114.3
430.491	7278.14
430.699	7740.98
430.906	7972.4
431.114	7884.34
431.321	8234.54
431.528	8498.73
431.736	8726.05
431.943	9197.09
432.15	8857.12
432.358	9121.31
432.565	9627.16
432.772	9491.99
432.979	10028.56
433.187	9977.36
433.394	10180.11
433.601	10714.63
433.808	11032.07
434.016	10737.16
434.223	11367.93
434.43	12068.34
434.637	11668.98
434.844	12549.61
435.052	12629.48
435.259	12598.76
435.466	12832.23
435.673	12621.29
435.88	13428.19
436.087	14165.46
436.294	14104.02
436.501	13835.74
436.708	13899.22
436.915	14573
437.122	15492.54
437.329	14941.64
437.537	15750.59
437.743	15885.75
437.95	15685.05
438.157	16469.42
438.364	17116.58
438.571	17022.37
438.778	17386.91
438.985	18972.04
439.192	17968.54
439.399	18494.86
439.606	17974.68
439.813	18951.56
440.02	20358.52
440.227	19932.54
440.433	19891.58
440.64	20473.2
440.847	20213.11
441.054	20628.85
441.261	22308.18
441.467	21908.83
441.674	22232.41
441.881	23074.12
442.088	22996.3
442.294	22652.24
442.501	23197
442.708	23999.8
442.914	24532.28
443.121	25859.36
443.328	25216.3
443.534	26756.37
443.741	26068.25
443.948	25617.7
444.154	27895.04
444.361	27331.85
444.568	27761.92
444.774	27878.66
444.981	27921.66
445.187	28607.73
445.394	29637.86
445.6	29570.28
445.807	32113.86
446.013	30936.27
446.22	31626.44
446.426	32545.98
446.633	33297.58
446.839	34084
447.046	32781.49
447.252	34333.85
447.459	34481.31
447.665	34184.35
447.871	36373.63
448.078	37565.55
448.284	35402.89
448.491	36476.03
448.697	37686.38
448.903	38343.78
449.11	38798.43
449.316	38136.93
449.522	38898.78
449.728	39791.69
449.935	39879.75
450.141	39853.13
450.347	40916.03
450.553	39670.86
450.76	40223.81
450.966	41516.08
451.172	40885.31
451.378	42109.99
451.584	41172.02
451.791	42060.84
451.997	42296.36
452.203	42722.33
452.409	42787.87
452.615	42513.44
452.821	40838.2
453.027	40365.12
453.233	42904.6
453.44	40905.79
453.646	41407.54
453.852	41401.39
454.058	42386.47
454.264	40721.47
454.47	41825.32
454.676	40520.77
454.882	42409
455.088	38534.24
455.294	39158.87
455.5	39631.95
455.705	40201.29
455.911	38407.26
456.117	37852.27
456.323	37231.73
456.529	35382.41
456.735	36834.42
456.941	35980.42
457.147	35683.47
457.352	34403.49
457.558	34006.18
457.764	33821.86
457.97	33025.2
458.176	32650.42
458.381	32898.23
458.587	30684.37
458.793	30905.56
458.999	29428.97
459.204	31421.64
459.41	30553.3
459.616	28441.85
459.821	28740.85
460.027	28423.42
460.233	27942.14
460.438	26557.72
460.644	26656.02
460.85	25703.71
461.055	24991.02
461.261	24773.94
461.466	23219.53
461.672	22623.57
461.878	24022.33
462.083	22476.12
462.289	22281.56
462.494	21697.89
462.7	20815.21
462.905	20272.5
463.111	21187.94
463.316	21120.36
463.522	20686.19
463.727	20458.87
463.932	20428.15
464.138	20528.5
464.343	20462.96
464.549	19578.24
464.754	20475.25
464.959	20159.86
465.165	20026.75
465.37	19326.34
465.575	18738.57
465.781	19541.38
465.986	19658.11
466.191	18556.3
