Data from USB4F104151__153__14-31-58-974.txt Node

Date: Thu Mar 13 14:31:58 EDT 2025
User: louis
Spectrometer: USB4F10415
Trigger mode: 4
Integration Time (sec): 2.500000E-2
Scans to average: 1
Electric dark correction enabled: true
Nonlinearity correction enabled: false
Boxcar width: 0
XAxis mode: Wavelengths
Number of Pixels in Spectrum: 3648
>>>>>Begin Spectral Data<<<<<
178.204	-126.97
178.424	-126.97
178.644	-126.97
178.864	-188.41
179.084	-108.54
179.304	-6.14
179.524	-12.29
179.744	-28.67
179.964	4.1
180.184	-30.72
180.404	-12.29
180.624	51.2
180.844	81.92
181.064	-43.01
181.283	-40.96
181.503	-16.38
181.723	53.25
181.943	4.1
182.163	81.92
182.383	-26.62
182.602	69.63
182.822	-8.19
183.042	69.63
183.262	4.1
183.482	-45.06
183.701	6.14
183.921	0
184.141	-28.67
184.361	0
184.58	55.3
184.8	61.44
185.02	-16.38
185.239	32.77
185.459	-8.19
185.679	65.53
185.898	-26.62
186.118	22.53
186.338	2.05
186.557	-36.86
186.777	-20.48
186.997	14.34
187.216	12.29
187.436	28.67
187.655	-2.05
187.875	30.72
188.095	28.67
188.314	20.48
188.534	104.45
188.753	26.62
188.973	63.49
189.192	16.38
189.412	2.05
189.631	22.53
189.851	2.05
190.07	63.49
190.29	-36.86
190.509	-6.14
190.729	14.34
190.948	-36.86
191.168	77.82
191.387	61.44
191.607	36.86
191.826	81.92
192.045	4.1
192.265	-36.86
192.484	57.34
192.704	61.44
192.923	-12.29
193.142	81.92
193.362	57.34
193.581	77.82
193.8	32.77
194.02	36.86
194.239	10.24
194.458	-20.48
194.678	-8.19
194.897	-26.62
195.116	22.53
195.335	36.86
195.555	88.06
195.774	-10.24
195.993	36.86
196.212	-8.19
196.432	12.29
196.651	-10.24
196.87	36.86
197.089	38.91
197.308	61.44
197.528	14.34
197.747	-28.67
197.966	-43.01
198.185	4.1
198.404	20.48
198.623	79.87
198.842	92.16
199.062	69.63
199.281	20.48
199.5	24.58
199.719	126.97
199.938	-4.1
200.157	6.14
200.376	4.1
200.595	4.1
200.814	28.67
201.033	38.91
201.252	20.48
201.471	-12.29
201.69	49.15
201.909	69.63
202.128	-14.34
202.347	16.38
202.566	81.92
202.785	28.67
203.004	-55.3
203.223	71.68
203.442	32.77
203.661	22.53
203.879	-16.38
204.098	38.91
204.317	-38.91
204.536	53.25
204.755	34.82
204.974	55.3
205.193	24.58
205.411	98.3
205.63	24.58
205.849	49.15
206.068	28.67
206.287	24.58
206.505	6.14
206.724	20.48
206.943	-75.77
207.162	-12.29
207.381	24.58
207.599	20.48
207.818	55.3
208.037	0
208.255	57.34
208.474	47.1
208.693	65.53
208.911	10.24
209.13	-30.72
209.349	28.67
209.567	16.38
209.786	-4.1
210.005	61.44
210.223	-12.29
210.442	6.14
210.661	26.62
210.879	-28.67
211.098	38.91
211.316	20.48
211.535	79.87
211.753	-51.2
211.972	12.29
212.191	-2.05
212.409	-92.16
212.628	55.3
212.846	38.91
213.065	28.67
213.283	16.38
213.502	-26.62
213.72	20.48
213.938	28.67
214.157	-12.29
214.375	-4.1
214.594	-45.06
214.812	45.06
215.031	61.44
215.249	28.67
215.467	-57.34
215.686	30.72
215.904	8.19
216.122	116.73
216.341	-28.67
216.559	26.62
216.778	57.34
216.996	32.77
217.214	51.2
217.432	16.38
217.651	4.1
217.869	6.14
218.087	-53.25
218.306	43.01
218.524	22.53
218.742	14.34
218.96	36.86
219.179	-45.06
219.397	2.05
219.615	129.02
219.833	-18.43
220.051	-2.05
220.27	65.53
220.488	49.15
220.706	6.14
220.924	106.49
221.142	4.1
221.36	-38.91
221.578	90.11
221.796	-32.77
222.015	69.63
222.233	-45.06
222.451	81.92
222.669	6.14
222.887	-26.62
223.105	-28.67
223.323	38.91
223.541	-86.01
223.759	20.48
223.977	-67.58
224.195	22.53
224.413	65.53
224.631	8.19
224.849	0
225.067	47.1
225.285	-43.01
225.503	36.86
225.721	-18.43
225.939	-34.82
226.157	12.29
226.375	86.01
226.592	-26.62
226.81	-55.3
227.028	0
227.246	57.34
227.464	12.29
227.682	20.48
227.9	36.86
228.117	38.91
228.335	-24.58
228.553	-40.96
228.771	55.3
228.989	61.44
229.206	4.1
229.424	-71.68
229.642	-4.1
229.86	20.48
230.077	6.14
230.295	28.67
230.513	81.92
230.731	26.62
230.948	86.01
231.166	4.1
231.384	61.44
231.601	36.86
231.819	51.2
232.037	-36.86
232.254	-10.24
232.472	-67.58
232.689	36.86
232.907	12.29
233.125	106.49
233.342	-12.29
233.56	-8.19
233.777	61.44
233.995	20.48
234.213	36.86
234.43	-20.48
234.648	-22.53
234.865	-2.05
235.083	47.1
235.3	-8.19
235.518	40.96
235.735	43.01
235.953	81.92
236.17	12.29
236.388	77.82
236.605	14.34
236.822	61.44
237.04	16.38
237.257	28.67
237.475	4.1
237.692	28.67
237.909	110.59
238.127	20.48
238.344	40.96
238.562	-10.24
238.779	-69.63
238.996	-61.44
239.214	88.06
239.431	12.29
239.648	20.48
239.865	45.06
240.083	28.67
240.3	6.14
240.517	-53.25
240.735	94.21
240.952	106.49
241.169	98.3
241.386	-20.48
241.603	22.53
241.821	81.92
242.038	61.44
242.255	22.53
242.472	6.14
242.689	47.1
242.907	32.77
243.124	65.53
243.341	79.87
243.558	-16.38
243.775	20.48
243.992	-38.91
244.209	22.53
244.426	96.25
244.643	-12.29
244.86	-20.48
245.078	-43.01
245.295	20.48
245.512	69.63
245.729	-53.25
245.946	45.06
246.163	26.62
246.38	14.34
246.597	12.29
246.814	8.19
247.031	22.53
247.248	57.34
247.464	61.44
247.681	-69.63
247.898	49.15
248.115	86.01
248.332	-14.34
248.549	-2.05
248.766	118.78
248.983	20.48
249.2	-61.44
249.417	-24.58
249.633	-45.06
249.85	2.05
250.067	55.3
250.284	53.25
250.501	45.06
250.717	65.53
250.934	-36.86
251.151	20.48
251.368	22.53
251.585	-4.1
251.801	63.49
252.018	-16.38
252.235	16.38
252.451	-4.1
252.668	69.63
252.885	102.4
253.102	-36.86
253.318	20.48
253.535	0
253.752	-49.15
253.968	12.29
254.185	-12.29
254.401	-4.1
254.618	77.82
254.835	20.48
255.051	69.63
255.268	-32.77
255.484	22.53
255.701	28.67
255.917	12.29
256.134	2.05
256.351	45.06
256.567	28.67
256.784	53.25
257	32.77
257.217	51.2
257.433	32.77
257.65	-45.06
257.866	36.86
258.082	-20.48
258.299	24.58
258.515	61.44
258.732	22.53
258.948	-45.06
259.165	28.67
259.381	-4.1
259.597	79.87
259.814	22.53
260.03	-26.62
260.246	-45.06
260.463	24.58
260.679	86.01
260.895	20.48
261.112	22.53
261.328	12.29
261.544	-4.1
261.761	69.63
261.977	43.01
262.193	-98.3
262.409	-6.14
262.626	77.82
262.842	38.91
263.058	-49.15
263.274	24.58
263.49	6.14
263.707	36.86
263.923	4.1
264.139	-10.24
264.355	90.11
264.571	-24.58
264.787	20.48
265.004	55.3
265.22	-10.24
265.436	12.29
265.652	-20.48
265.868	118.78
266.084	0
266.3	6.14
266.516	-8.19
266.732	16.38
266.948	63.49
267.164	47.1
267.38	4.1
267.596	81.92
267.812	155.65
268.028	36.86
268.244	-2.05
268.46	24.58
268.676	-75.77
268.892	-4.1
269.108	-12.29
269.324	0
269.54	28.67
269.756	81.92
269.972	-20.48
270.188	-30.72
270.403	-45.06
270.619	-43.01
270.835	53.25
271.051	-16.38
271.267	-10.24
271.483	-86.01
271.698	16.38
271.914	12.29
272.13	20.48
272.346	4.1
272.562	-45.06
272.777	32.77
272.993	32.77
273.209	-53.25
273.425	-14.34
273.64	-12.29
273.856	49.15
274.072	-28.67
274.287	14.34
274.503	36.86
274.719	65.53
274.934	-6.14
275.15	-34.82
275.366	22.53
275.581	-36.86
275.797	30.72
276.012	-34.82
276.228	-24.58
276.444	53.25
276.659	94.21
276.875	28.67
277.09	4.1
277.306	-4.1
277.521	6.14
277.737	4.1
277.952	22.53
278.168	55.3
278.383	12.29
278.599	-36.86
278.814	6.14
279.03	22.53
279.245	28.67
279.461	20.48
279.676	-14.34
279.892	-63.49
280.107	14.34
280.322	-36.86
280.538	-8.19
280.753	-36.86
280.969	55.3
281.184	-53.25
281.399	65.53
281.615	-45.06
281.83	61.44
282.045	-61.44
282.26	-45.06
282.476	40.96
282.691	57.34
282.906	28.67
283.122	-45.06
283.337	-45.06
283.552	20.48
283.767	26.62
283.983	65.53
284.198	-28.67
284.413	69.63
284.628	4.1
284.843	26.62
285.058	24.58
285.274	43.01
285.489	4.1
285.704	-12.29
285.919	-43.01
286.134	-32.77
286.349	-2.05
286.564	-24.58
286.779	77.82
286.995	-28.67
287.21	6.14
287.425	53.25
287.64	-12.29
287.855	36.86
288.07	-4.1
288.285	-2.05
288.5	40.96
288.715	63.49
288.93	32.77
289.145	24.58
289.36	-6.14
289.575	30.72
289.79	106.49
290.004	-59.39
290.219	57.34
290.434	-45.06
290.649	-4.1
290.864	-26.62
291.079	-38.91
291.294	20.48
291.509	38.91
291.724	34.82
291.938	36.86
292.153	20.48
292.368	-2.05
292.583	20.48
292.798	106.49
293.012	49.15
293.227	110.59
293.442	-10.24
293.657	53.25
293.871	90.11
294.086	-28.67
294.301	12.29
294.516	47.1
294.73	-18.43
294.945	-120.83
295.16	-45.06
295.374	90.11
295.589	53.25
295.804	20.48
296.018	16.38
296.233	86.01
296.447	28.67
296.662	-47.1
296.877	28.67
297.091	6.14
297.306	-20.48
297.52	36.86
297.735	22.53
297.949	57.34
298.164	26.62
298.378	73.73
298.593	16.38
298.807	-61.44
299.022	53.25
299.236	16.38
299.451	-20.48
299.665	61.44
299.88	4.1
300.094	57.34
300.309	14.34
300.523	-22.53
300.737	-40.96
300.952	71.68
301.166	12.29
301.381	-34.82
301.595	-18.43
301.809	38.91
302.024	-20.48
302.238	-26.62
302.452	47.1
302.667	12.29
302.881	67.58
303.095	71.68
303.309	20.48
303.524	45.06
303.738	28.67
303.952	12.29
304.166	67.58
304.381	38.91
304.595	51.2
304.809	4.1
305.023	0
305.237	-18.43
305.452	36.86
305.666	16.38
305.88	57.34
306.094	-8.19
306.308	14.34
306.522	8.19
306.736	63.49
306.95	120.83
307.164	69.63
307.379	28.67
307.593	151.55
307.807	102.4
308.021	30.72
308.235	69.63
308.449	-45.06
308.663	20.48
308.877	104.45
309.091	36.86
309.305	71.68
309.519	-34.82
309.733	77.82
309.947	-10.24
310.161	28.67
310.374	77.82
310.588	96.25
310.802	8.19
311.016	-12.29
311.23	45.06
311.444	34.82
311.658	-12.29
311.872	124.93
312.085	20.48
312.299	43.01
312.513	20.48
312.727	32.77
312.941	-28.67
313.154	32.77
313.368	-4.1
313.582	4.1
313.796	10.24
314.009	36.86
314.223	40.96
314.437	71.68
314.651	-4.1
314.864	-6.14
315.078	-8.19
315.292	-2.05
315.505	-12.29
315.719	24.58
315.933	-18.43
316.146	86.01
316.36	-36.86
316.573	86.01
316.787	32.77
317.001	79.87
317.214	4.1
317.428	71.68
317.641	-45.06
317.855	16.38
318.068	20.48
318.282	4.1
318.495	47.1
318.709	-18.43
318.922	-49.15
319.136	120.83
319.349	45.06
319.563	-12.29
319.776	28.67
319.99	-8.19
320.203	53.25
320.417	-40.96
320.63	-28.67
320.843	135.17
321.057	0
321.27	49.15
321.483	55.3
321.697	77.82
321.91	55.3
322.124	20.48
322.337	36.86
322.55	-49.15
322.763	65.53
322.977	-16.38
323.19	6.14
323.403	-4.1
323.617	38.91
323.83	73.73
324.043	-34.82
324.256	-34.82
324.469	-4.1
324.683	55.3
324.896	-18.43
325.109	16.38
325.322	-6.14
325.535	73.73
325.748	49.15
325.962	-16.38
326.175	-40.96
326.388	12.29
326.601	28.67
326.814	114.69
327.027	-24.58
327.24	79.87
327.453	-38.91
327.666	16.38
327.879	28.67
328.092	100.35
328.305	77.82
328.518	81.92
328.731	12.29
328.944	-6.14
329.157	69.63
329.37	77.82
329.583	83.97
329.796	88.06
330.009	-28.67
330.222	53.25
330.435	12.29
330.648	88.06
330.861	69.63
331.073	40.96
331.286	73.73
331.499	36.86
331.712	30.72
331.925	4.1
332.138	-30.72
332.35	32.77
332.563	22.53
332.776	63.49
332.989	32.77
333.202	53.25
333.414	12.29
333.627	-40.96
333.84	-4.1
334.053	22.53
334.265	49.15
334.478	-18.43
334.691	69.63
334.903	18.43
335.116	36.86
335.329	49.15
335.541	-12.29
335.754	94.21
335.966	-40.96
336.179	-32.77
336.392	59.39
336.604	-26.62
336.817	16.38
337.029	94.21
337.242	110.59
337.454	45.06
337.667	-47.1
337.88	79.87
338.092	8.19
338.305	45.06
338.517	77.82
338.729	26.62
338.942	4.1
339.154	-10.24
339.367	16.38
339.579	57.34
339.792	8.19
340.004	20.48
340.217	-6.14
340.429	14.34
340.641	12.29
340.854	-10.24
341.066	59.39
341.278	4.1
341.491	51.2
341.703	53.25
341.915	-12.29
342.128	53.25
342.34	28.67
342.552	12.29
342.764	65.53
342.977	63.49
343.189	28.67
343.401	96.25
343.613	-53.25
343.826	59.39
344.038	-51.2
344.25	20.48
344.462	20.48
344.674	69.63
344.886	-45.06
345.099	14.34
345.311	28.67
345.523	22.53
345.735	-28.67
345.947	79.87
346.159	16.38
346.371	38.91
346.583	12.29
346.795	83.97
347.007	-24.58
347.219	71.68
347.431	-2.05
347.643	75.77
347.855	-65.54
348.067	102.4
348.279	-32.77
348.491	-10.24
348.703	-28.67
348.915	14.34
349.127	-57.34
349.339	12.29
349.551	-2.05
349.763	-10.24
349.975	20.48
350.187	53.25
350.399	135.17
350.61	55.3
350.822	61.44
351.034	77.82
351.246	-14.34
351.458	12.29
351.669	26.62
351.881	86.01
352.093	73.73
352.305	83.97
352.517	65.53
352.728	18.43
352.94	-12.29
353.152	38.91
353.363	12.29
353.575	22.53
353.787	98.3
353.999	53.25
354.21	-12.29
354.422	-4.1
354.633	53.25
354.845	-10.24
355.057	-28.67
355.268	-4.1
355.48	122.88
355.692	20.48
355.903	6.14
356.115	-83.97
356.326	4.1
356.538	102.4
356.749	30.72
356.961	57.34
357.172	2.05
357.384	36.86
357.595	129.02
357.807	12.29
358.018	6.14
358.23	100.35
358.441	55.3
358.653	0
358.864	8.19
359.075	55.3
359.287	0
359.498	38.91
359.709	65.53
359.921	81.92
360.132	12.29
360.344	102.4
360.555	45.06
360.766	53.25
360.977	77.82
361.189	16.38
361.4	4.1
361.611	12.29
361.823	116.73
362.034	106.49
362.245	-77.82
362.456	-45.06
362.667	67.58
362.879	-24.58
363.09	88.06
363.301	65.53
363.512	8.19
363.723	32.77
363.935	6.14
364.146	28.67
364.357	94.21
364.568	94.21
364.779	65.53
364.99	55.3
365.201	12.29
365.412	45.06
365.623	40.96
365.834	-6.14
366.045	73.73
366.256	20.48
366.467	38.91
366.678	28.67
366.889	-45.06
367.1	-4.1
367.311	124.93
367.522	-4.1
367.733	63.49
367.944	28.67
368.155	-61.44
368.366	94.21
368.577	102.4
368.788	36.86
368.999	-49.15
369.209	32.77
369.42	165.89
369.631	126.97
369.842	151.55
370.053	6.14
370.264	65.53
370.474	120.83
370.685	18.43
370.896	0
371.107	90.11
371.317	98.3
371.528	6.14
371.739	57.34
371.95	53.25
372.16	63.49
372.371	16.38
372.582	36.86
372.792	-43.01
373.003	18.43
373.214	81.92
373.424	61.44
373.635	-94.21
373.846	45.06
374.056	-26.62
374.267	32.77
374.477	102.4
374.688	57.34
374.898	38.91
375.109	71.68
375.319	8.19
375.53	94.21
375.74	53.25
375.951	-22.53
376.161	-8.19
376.372	90.11
376.582	-18.43
376.793	61.44
377.003	-12.29
377.214	26.62
377.424	36.86
377.635	86.01
377.845	90.11
378.055	98.3
378.266	28.67
378.476	22.53
378.686	0
378.897	86.01
379.107	8.19
379.317	36.86
379.528	38.91
379.738	12.29
379.948	-69.63
380.158	47.1
380.369	94.21
380.579	6.14
380.789	65.53
380.999	14.34
381.21	20.48
381.42	110.59
381.63	-20.48
381.84	63.49
382.05	47.1
382.261	92.16
382.471	63.49
382.681	38.91
382.891	51.2
383.101	24.58
383.311	0
383.521	12.29
383.731	36.86
383.941	57.34
384.151	71.68
384.361	77.82
384.571	100.35
384.781	114.69
384.991	100.35
385.201	51.2
385.411	69.63
385.621	86.01
385.831	28.67
386.041	94.21
386.251	53.25
386.461	137.21
386.671	34.82
386.881	45.06
387.091	83.97
387.301	81.92
387.511	32.77
387.72	83.97
387.93	71.68
388.14	0
388.35	114.69
388.56	73.73
388.769	100.35
388.979	63.49
389.189	22.53
389.399	120.83
389.609	71.68
389.818	16.38
390.028	30.72
390.238	118.78
390.447	12.29
390.657	53.25
390.867	34.82
391.076	16.38
391.286	98.3
391.496	18.43
391.705	110.59
391.915	88.06
392.125	92.16
392.334	92.16
392.544	26.62
392.753	63.49
392.963	6.14
393.172	55.3
393.382	53.25
393.591	73.73
393.801	2.05
394.01	88.06
394.22	30.72
394.429	47.1
394.639	57.34
394.848	83.97
395.058	73.73
395.267	61.44
395.477	49.15
395.686	110.59
395.895	184.32
396.105	81.92
396.314	137.21
396.524	53.25
396.733	14.34
396.942	69.63
397.152	129.02
397.361	77.82
397.57	69.63
397.78	126.97
397.989	24.58
398.198	94.21
398.407	90.11
398.617	114.69
398.826	69.63
399.035	104.45
399.244	118.78
399.453	147.45
399.663	65.53
399.872	110.59
400.081	18.43
400.29	178.17
400.499	40.96
400.708	159.74
400.917	55.3
401.127	133.12
401.336	65.53
401.545	172.03
401.754	159.74
401.963	169.98
402.172	88.06
402.381	126.97
402.59	73.73
402.799	184.32
403.008	186.37
403.217	102.4
403.426	104.45
403.635	81.92
403.844	169.98
404.053	180.22
404.262	81.92
404.471	186.37
404.68	159.74
404.888	147.45
405.097	81.92
405.306	126.97
405.515	169.98
405.724	212.99
405.933	161.79
406.142	163.84
406.35	272.38
406.559	151.55
406.768	153.6
406.977	262.14
407.185	235.52
407.394	235.52
407.603	264.19
407.812	251.9
408.02	245.76
408.229	182.27
408.438	245.76
408.646	208.89
408.855	245.76
409.064	219.13
409.272	231.42
409.481	397.31
409.69	286.72
409.898	241.66
410.107	270.33
410.315	366.59
410.524	317.44
410.733	399.35
410.941	358.39
411.15	452.6
411.358	301.05
411.567	473.08
411.775	413.69
411.984	473.08
412.192	419.83
412.401	464.89
412.609	464.89
412.818	540.66
413.026	622.58
413.234	528.38
413.443	511.99
413.651	561.14
413.86	602.1
414.068	618.49
414.276	765.94
414.485	626.68
414.693	724.98
414.901	790.52
415.11	872.43
415.318	753.65
415.526	765.94
415.734	880.63
415.943	899.06
416.151	974.83
416.359	839.67
416.567	999.41
416.776	1062.9
416.984	1023.98
417.192	1173.49
417.4	1093.62
417.608	1030.13
417.817	1126.38
418.025	1224.69
418.233	1183.73
418.441	1159.15
418.649	1263.6
418.857	1474.54
419.065	1370.09
419.273	1376.23
419.481	1568.74
419.689	1636.33
419.897	1626.09
420.105	1650.66
420.313	1798.12
420.521	1828.84
420.729	1837.03
420.937	1900.51
421.145	1875.94
421.353	1998.82
421.561	2076.64
421.769	2242.53
421.977	2260.96
422.185	2244.57
422.393	2389.98
422.601	2545.63
422.809	2398.17
423.017	2461.66
423.224	2596.82
423.432	2781.14
423.64	2865.11
423.848	2994.13
424.056	2922.45
424.263	3108.82
424.471	3149.78
424.679	3084.24
424.887	3334.09
425.094	3483.59
425.302	3338.19
425.51	3450.83
425.718	3766.21
425.925	3811.27
426.133	3909.57
426.341	3966.92
426.548	4267.97
426.756	4378.56
426.964	4337.6
427.171	4657.08
427.379	4673.46
427.586	4880.31
427.794	4796.34
428.001	5173.17
428.209	5232.56
428.417	5210.03
428.624	5617.58
428.832	5728.17
429.039	5599.15
429.247	5480.36
429.454	6096.8
429.662	6324.13
429.869	6344.61
430.076	6436.77
430.284	6412.19
430.491	6696.86
430.699	7055.25
430.906	7006.1
431.114	7075.73
431.321	7298.96
431.528	7526.29
431.736	7905.16
431.943	8419.2
432.15	8189.83
432.358	8286.08
432.565	8613.76
432.772	8402.82
432.979	9107.32
433.187	9166.71
433.394	9191.28
433.601	9918.31
433.808	9946.98
434.016	9961.32
434.223	10211.17
434.43	10989.4
434.637	10559.33
434.844	11194.2
435.052	11298.64
435.259	11378.51
435.466	11618.13
435.673	11476.82
435.88	12162.89
436.087	12580.67
436.294	12640.06
436.501	12490.56
436.708	12740.41
436.915	13023.03
437.122	13561.65
437.329	13993.77
437.537	14112.55
437.743	14323.49
437.95	14133.03
438.157	15228.7
438.364	15527.7
438.571	15249.18
438.778	15548.18
438.985	16842.49
439.192	16367.37
439.399	16815.87
439.606	16289.54
439.813	17360.63
440.02	18476.77
440.227	17862.38
440.433	17940.21
440.64	18769.63
440.847	18370.28
441.054	18622.18
441.261	19637.97
441.467	19576.53
441.674	19990.22
441.881	21006.02
442.088	20692.68
442.294	20408.01
442.501	20934.34
442.708	21532.34
442.914	22455.98
443.121	23197.34
443.328	22492.84
443.534	24090.26
443.741	23572.12
443.948	23305.88
444.154	24723.08
444.361	24893.06
444.568	24993.41
444.774	24888.96
444.981	25357.95
445.187	25808.5
445.394	27074.15
445.6	26588.78
445.807	29089.35
446.013	27674.2
446.22	28622.41
446.426	29271.62
446.633	29998.65
446.839	30858.79
447.046	29494.85
447.252	31084.07
447.459	31092.26
447.665	31141.41
447.871	32900.62
448.078	33758.72
448.284	32142.87
448.491	33469.95
448.697	34358.77
448.903	35239.4
449.11	34805.23
449.316	34721.26
449.522	35413.48
449.728	36124.12
449.935	36351.45
450.141	36959.69
450.347	37029.32
450.553	35755.49
450.76	36431.32
450.966	38086.07
451.172	37320.13
451.378	38876.59
451.584	37715.39
451.791	38389.17
451.997	38596.02
452.203	39003.56
452.409	39044.52
452.615	39083.44
452.821	37070.28
453.027	36937.16
453.233	39189.93
453.44	36990.41
453.646	37424.58
453.852	37934.53
454.058	38815.15
454.264	37438.92
454.47	38258.1
454.676	37348.81
454.882	38766
455.088	35354.08
455.294	35735.01
455.5	36302.29
455.705	36685.26
455.911	35030.51
456.117	34248.18
456.323	34217.46
456.529	32046.62
456.735	33621.5
456.941	32812.56
457.147	32159.25
457.352	31260.2
457.558	31165.99
457.764	31231.52
457.97	30150.2
458.176	29507.13
458.381	29640.25
458.587	28374.61
458.793	28165.71
458.999	26791.53
459.204	28511.82
459.41	28175.95
459.616	25910.9
459.821	25917.04
460.027	25919.09
460.233	25489.02
460.438	24149.65
460.644	24659.59
460.85	23467.67
461.055	22916.77
461.261	22802.08
461.466	21280.44
461.672	20539.08
461.878	22138.54
462.083	20438.73
462.289	20070.09
462.494	19922.64
462.7	19013.34
462.905	18521.83
463.111	18833.12
463.316	19291.87
463.522	18728.67
463.727	18767.59
463.932	18648.8
464.138	18468.58
464.343	18321.13
464.549	17952.49
464.754	18560.74
464.959	18333.42
465.165	18212.59
465.37	17235.71
465.575	16953.09
465.781	17561.33
465.986	17694.45
466.191	17061.63
466.397	16819.97
466.602	15935.24
466.807	16387.85
467.012	16584.45
467.218	16609.03
