Data from USB4F104151__172__14-32-31-239.txt Node

Date: Thu Mar 13 14:32:31 EDT 2025
User: louis
Spectrometer: USB4F10415
Trigger mode: 4
Integration Time (sec): 2.500000E-2
Scans to average: 1
Electric dark correction enabled: true
Nonlinearity correction enabled: false
Boxcar width: 0
XAxis mode: Wavelengths
Number of Pixels in Spectrum: 3648
>>>>>Begin Spectral Data<<<<<
178.204	-160.77
178.424	-160.77
178.644	-160.77
178.864	-113.66
179.084	-101.37
179.304	-13.31
179.524	-29.7
179.744	33.79
179.964	54.27
180.184	-31.74
180.404	9.22
180.624	-21.5
180.844	-25.6
181.064	-31.74
181.283	35.84
181.503	1.02
181.723	19.46
181.943	-109.57
182.163	17.41
182.383	-21.5
182.602	60.42
182.822	99.33
183.042	101.37
183.262	21.5
183.482	21.5
183.701	60.42
183.921	1.02
184.141	-5.12
184.361	48.13
184.58	19.46
184.8	119.81
185.02	25.6
185.239	117.76
185.459	74.75
185.679	31.74
185.898	17.41
186.118	44.03
186.338	3.07
186.557	13.31
186.777	25.6
186.997	48.13
187.216	19.46
187.436	91.13
187.655	-7.17
187.875	9.22
188.095	7.17
188.314	60.42
188.534	84.99
188.753	-37.89
188.973	-13.31
189.192	99.33
189.412	62.46
189.631	11.26
189.851	46.08
190.07	58.37
190.29	-9.22
190.509	-7.17
190.729	17.41
190.948	23.55
191.168	162.81
191.387	50.18
191.607	33.79
191.826	25.6
192.045	9.22
192.265	41.98
192.484	62.46
192.704	1.02
192.923	-31.74
193.142	132.09
193.362	37.89
193.581	52.22
193.8	33.79
194.02	74.75
194.239	-21.5
194.458	31.74
194.678	80.89
194.897	-39.94
195.116	66.56
195.335	33.79
195.555	50.18
195.774	13.31
195.993	66.56
196.212	13.31
196.432	-21.5
196.651	-19.46
196.87	21.5
197.089	99.33
197.308	48.13
197.528	87.04
197.747	-25.6
197.966	60.42
198.185	52.22
198.404	-23.55
198.623	52.22
198.842	58.37
199.062	68.61
199.281	17.41
199.5	-15.36
199.719	68.61
199.938	80.89
200.157	52.22
200.376	52.22
200.595	54.27
200.814	1.02
201.033	-19.46
201.252	121.85
201.471	-46.08
201.69	50.18
201.909	82.94
202.128	60.42
202.347	93.18
202.566	29.7
202.785	-13.31
203.004	33.79
203.223	82.94
203.442	5.12
203.661	25.6
203.879	-3.07
204.098	29.7
204.317	-48.13
204.536	74.75
204.755	52.22
204.974	93.18
205.193	-9.22
205.411	99.33
205.63	74.75
205.849	50.18
206.068	-15.36
206.287	-21.5
206.505	5.12
206.724	25.6
206.943	41.98
207.162	-70.65
207.381	50.18
207.599	95.23
207.818	1.02
208.037	-31.74
208.255	-13.31
208.474	-15.36
208.693	17.41
208.911	41.98
209.13	17.41
209.349	37.89
209.567	58.37
209.786	66.56
210.005	37.89
210.223	17.41
210.442	11.26
210.661	58.37
210.879	9.22
211.098	-11.26
211.316	39.94
211.535	109.57
211.753	99.33
211.972	60.42
212.191	76.8
212.409	-13.31
212.628	46.08
212.846	-39.94
213.065	132.09
213.283	41.98
213.502	41.98
213.72	62.46
213.938	11.26
214.157	17.41
214.375	35.84
214.594	27.65
214.812	54.27
215.031	17.41
215.249	7.17
215.467	46.08
215.686	19.46
215.904	107.52
216.122	25.6
216.341	13.31
216.559	66.56
216.778	33.79
216.996	107.52
217.214	82.94
217.432	-46.08
217.651	1.02
217.869	41.98
218.087	52.22
218.306	9.22
218.524	-23.55
218.742	66.56
218.96	46.08
219.179	50.18
219.397	13.31
219.615	113.66
219.833	74.75
220.051	-19.46
220.27	123.9
220.488	48.13
220.706	76.8
220.924	76.8
221.142	33.79
221.36	103.42
221.578	76.8
221.796	-5.12
222.015	50.18
222.233	46.08
222.451	78.85
222.669	82.94
222.887	27.65
223.105	-33.79
223.323	-7.17
223.541	-3.07
223.759	27.65
223.977	93.18
224.195	105.47
224.413	13.31
224.631	58.37
224.849	9.22
225.067	136.19
225.285	27.65
225.503	50.18
225.721	-44.03
225.939	17.41
226.157	68.61
226.375	62.46
226.592	-37.89
226.81	46.08
227.028	107.52
227.246	93.18
227.464	50.18
227.682	68.61
227.9	60.42
228.117	11.26
228.335	50.18
228.553	3.07
228.771	9.22
228.989	17.41
229.206	54.27
229.424	21.5
229.642	78.85
229.86	74.75
230.077	54.27
230.295	-44.03
230.513	9.22
230.731	76.8
230.948	-19.46
231.166	74.75
231.384	13.31
231.601	50.18
231.819	74.75
232.037	9.22
232.254	54.27
232.472	87.04
232.689	-5.12
232.907	39.94
233.125	9.22
233.342	-23.55
233.56	54.27
233.777	33.79
233.995	7.17
234.213	99.33
234.43	44.03
234.648	60.42
234.865	17.41
235.083	70.65
235.3	19.46
235.518	95.23
235.735	39.94
235.953	31.74
236.17	68.61
236.388	-27.65
236.605	-21.5
236.822	-5.12
237.04	41.98
237.257	62.46
237.475	29.7
237.692	23.55
237.909	68.61
238.127	-35.84
238.344	25.6
238.562	62.46
238.779	46.08
238.996	-7.17
239.214	60.42
239.431	117.76
239.648	-39.94
239.865	97.28
240.083	25.6
240.3	-7.17
240.517	39.94
240.735	25.6
240.952	115.71
241.169	101.37
241.386	27.65
241.603	17.41
241.821	52.22
242.038	74.75
242.255	44.03
242.472	3.07
242.689	82.94
242.907	84.99
243.124	87.04
243.341	33.79
243.558	35.84
243.775	-5.12
243.992	-13.31
244.209	-15.36
244.426	70.65
244.643	91.13
244.86	-23.55
245.078	41.98
245.295	-37.89
245.512	25.6
245.729	3.07
245.946	11.26
246.163	29.7
246.38	9.22
246.597	1.02
246.814	41.98
247.031	39.94
247.248	74.75
247.464	21.5
247.681	17.41
247.898	82.94
248.115	25.6
248.332	-19.46
248.549	50.18
248.766	58.37
248.983	46.08
249.2	35.84
249.417	58.37
249.633	25.6
249.85	15.36
250.067	9.22
250.284	58.37
250.501	56.32
250.717	117.76
250.934	50.18
251.151	-31.74
251.368	78.85
251.585	58.37
251.801	17.41
252.018	9.22
252.235	74.75
252.451	117.76
252.668	1.02
252.885	5.12
253.102	99.33
253.318	64.51
253.535	7.17
253.752	-13.31
253.968	78.85
254.185	54.27
254.401	15.36
254.618	44.03
254.835	54.27
255.051	76.8
255.268	25.6
255.484	21.5
255.701	50.18
255.917	11.26
256.134	-44.03
256.351	11.26
256.567	-11.26
256.784	74.75
257	58.37
257.217	46.08
257.433	99.33
257.65	17.41
257.866	46.08
258.082	37.89
258.299	11.26
258.515	29.7
258.732	27.65
258.948	-13.31
259.165	-64.51
259.381	41.98
259.597	54.27
259.814	27.65
260.03	-15.36
260.246	41.98
260.463	101.37
260.679	117.76
260.895	27.65
261.112	13.31
261.328	103.42
261.544	84.99
261.761	66.56
261.977	52.22
262.193	-3.07
262.409	58.37
262.626	66.56
262.842	66.56
263.058	17.41
263.274	87.04
263.49	21.5
263.707	56.32
263.923	52.22
264.139	-7.17
264.355	33.79
264.571	117.76
264.787	82.94
265.004	72.7
265.22	50.18
265.436	115.71
265.652	103.42
265.868	76.8
266.084	-7.17
266.3	41.98
266.516	-7.17
266.732	25.6
266.948	-56.32
267.164	82.94
267.38	70.65
267.596	39.94
267.812	46.08
268.028	74.75
268.244	11.26
268.46	50.18
268.676	-3.07
268.892	52.22
269.108	41.98
269.324	41.98
269.54	29.7
269.756	39.94
269.972	-7.17
270.188	9.22
270.403	11.26
270.619	29.7
270.835	19.46
271.051	15.36
271.267	3.07
271.483	21.5
271.698	33.79
271.914	82.94
272.13	156.67
272.346	54.27
272.562	68.61
272.777	78.85
272.993	29.7
273.209	-29.7
273.425	50.18
273.64	-31.74
273.856	111.61
274.072	66.56
274.287	-13.31
274.503	103.42
274.719	33.79
274.934	33.79
275.15	13.31
275.366	52.22
275.581	27.65
275.797	41.98
276.012	29.7
276.228	68.61
276.444	-29.7
276.659	60.42
276.875	-13.31
277.09	60.42
277.306	-23.55
277.521	66.56
277.737	78.85
277.952	50.18
278.168	62.46
278.383	44.03
278.599	62.46
278.814	121.85
279.03	-27.65
279.245	52.22
279.461	29.7
279.676	132.09
279.892	-37.89
280.107	-21.5
280.322	60.42
280.538	58.37
280.753	11.26
280.969	70.65
281.184	50.18
281.399	70.65
281.615	17.41
281.83	91.13
282.045	5.12
282.26	1.02
282.476	58.37
282.691	91.13
282.906	9.22
283.122	60.42
283.337	74.75
283.552	44.03
283.767	-3.07
283.983	-23.55
284.198	9.22
284.413	66.56
284.628	58.37
284.843	54.27
285.058	9.22
285.274	44.03
285.489	-23.55
285.704	107.52
285.919	44.03
286.134	66.56
286.349	50.18
286.564	17.41
286.779	117.76
286.995	107.52
287.21	-39.94
287.425	33.79
287.64	9.22
287.855	107.52
288.07	17.41
288.285	84.99
288.5	78.85
288.715	117.76
288.93	19.46
289.145	52.22
289.36	107.52
289.575	15.36
289.79	138.24
290.004	3.07
290.219	41.98
290.434	1.02
290.649	68.61
290.864	48.13
291.079	72.7
291.294	-7.17
291.509	87.04
291.724	33.79
291.938	-19.46
292.153	25.6
292.368	29.7
292.583	87.04
292.798	11.26
293.012	78.85
293.227	54.27
293.442	70.65
293.657	113.66
293.871	99.33
294.086	1.02
294.301	66.56
294.516	164.86
294.73	27.65
294.945	25.6
295.16	46.08
295.374	54.27
295.589	76.8
295.804	84.99
296.018	27.65
296.233	142.33
296.447	50.18
296.662	21.5
296.877	91.13
297.091	113.66
297.306	-39.94
297.52	17.41
297.735	19.46
297.949	39.94
298.164	58.37
298.378	-3.07
298.593	-7.17
298.807	-5.12
299.022	60.42
299.236	3.07
299.451	9.22
299.665	27.65
299.88	156.67
300.094	1.02
300.309	17.41
300.523	33.79
300.737	27.65
300.952	-7.17
301.166	41.98
301.381	23.55
301.595	80.89
301.809	-7.17
302.024	50.18
302.238	1.02
302.452	52.22
302.667	82.94
302.881	27.65
303.095	13.31
303.309	13.31
303.524	17.41
303.738	-15.36
303.952	46.08
304.166	35.84
304.381	9.22
304.595	1.02
304.809	60.42
305.023	25.6
305.237	23.55
305.452	82.94
305.666	74.75
305.88	115.71
306.094	70.65
306.308	103.42
306.522	123.9
306.736	99.33
306.95	21.5
307.164	41.98
307.379	7.17
307.593	91.13
307.807	-7.17
308.021	60.42
308.235	107.52
308.449	-27.65
308.663	-5.12
308.877	78.85
309.091	41.98
309.305	66.56
309.519	-13.31
309.733	99.33
309.947	-11.26
310.161	64.51
310.374	31.74
310.588	87.04
310.802	58.37
311.016	50.18
311.23	13.31
311.444	-13.31
311.658	17.41
311.872	84.99
312.085	95.23
312.299	148.48
312.513	66.56
312.727	33.79
312.941	29.7
313.154	-25.6
313.368	17.41
313.582	82.94
313.796	82.94
314.009	19.46
314.223	89.09
314.437	107.52
314.651	19.46
314.864	3.07
315.078	58.37
315.292	1.02
315.505	37.89
315.719	117.76
315.933	140.29
316.146	-46.08
316.36	25.6
316.573	44.03
316.787	48.13
317.001	58.37
317.214	-62.46
317.428	91.13
317.641	-1.02
317.855	41.98
318.068	68.61
318.282	89.09
318.495	111.61
318.709	128
318.922	-7.17
319.136	115.71
319.349	56.32
319.563	-5.12
319.776	84.99
319.99	-46.08
320.203	23.55
320.417	-62.46
320.63	66.56
320.843	17.41
321.057	56.32
321.27	29.7
321.483	39.94
321.697	60.42
321.91	31.74
322.124	95.23
322.337	33.79
322.55	35.84
322.763	66.56
322.977	44.03
323.19	17.41
323.403	35.84
323.617	41.98
323.83	29.7
324.043	-5.12
324.256	33.79
324.469	1.02
324.683	56.32
324.896	66.56
325.109	11.26
325.322	19.46
325.535	74.75
325.748	1.02
325.962	82.94
326.175	111.61
326.388	80.89
326.601	58.37
326.814	82.94
327.027	64.51
327.24	107.52
327.453	21.5
327.666	74.75
327.879	62.46
328.092	91.13
328.305	46.08
328.518	-23.55
328.731	19.46
328.944	41.98
329.157	107.52
329.37	54.27
329.583	125.95
329.796	99.33
330.009	17.41
330.222	66.56
330.435	50.18
330.648	50.18
330.861	35.84
331.073	78.85
331.286	-7.17
331.499	11.26
331.712	52.22
331.925	21.5
332.138	84.99
332.35	132.09
332.563	11.26
332.776	91.13
332.989	27.65
333.202	5.12
333.414	19.46
333.627	41.98
333.84	99.33
334.053	78.85
334.265	35.84
334.478	29.7
334.691	21.5
334.903	5.12
335.116	21.5
335.329	3.07
335.541	91.13
335.754	99.33
335.966	66.56
336.179	21.5
336.392	29.7
336.604	60.42
336.817	105.47
337.029	78.85
337.242	33.79
337.454	70.65
337.667	54.27
337.88	68.61
338.092	-13.31
338.305	132.09
338.517	33.79
338.729	62.46
338.942	99.33
339.154	27.65
339.367	-31.74
339.579	156.67
339.792	60.42
340.004	9.22
340.217	-29.7
340.429	68.61
340.641	-3.07
340.854	50.18
341.066	19.46
341.278	113.66
341.491	68.61
341.703	25.6
341.915	29.7
342.128	56.32
342.34	56.32
342.552	37.89
342.764	-15.36
342.977	56.32
343.189	60.42
343.401	123.9
343.613	-21.5
343.826	7.17
344.038	78.85
344.25	54.27
344.462	66.56
344.674	58.37
344.886	3.07
345.099	29.7
345.311	66.56
345.523	78.85
345.735	109.57
345.947	99.33
346.159	21.5
346.371	60.42
346.583	-3.07
346.795	99.33
347.007	50.18
347.219	91.13
347.431	17.41
347.643	107.52
347.855	25.6
348.067	107.52
348.279	5.12
348.491	74.75
348.703	62.46
348.915	58.37
349.127	37.89
349.339	56.32
349.551	11.26
349.763	25.6
349.975	25.6
350.187	62.46
350.399	144.38
350.61	82.94
350.822	50.18
351.034	119.81
351.246	41.98
351.458	13.31
351.669	82.94
351.881	99.33
352.093	17.41
352.305	93.18
352.517	19.46
352.728	123.9
352.94	1.02
353.152	54.27
353.363	1.02
353.575	101.37
353.787	33.79
353.999	41.98
354.21	103.42
354.422	46.08
354.633	19.46
354.845	21.5
355.057	-23.55
355.268	54.27
355.48	50.18
355.692	21.5
355.903	11.26
356.115	17.41
356.326	5.12
356.538	117.76
356.749	148.48
356.961	70.65
357.172	54.27
357.384	39.94
357.595	60.42
357.807	50.18
358.018	37.89
358.23	-3.07
358.441	128
358.653	35.84
358.864	68.61
359.075	-48.13
359.287	64.51
359.498	29.7
359.709	82.94
359.921	-13.31
360.132	74.75
360.344	62.46
360.555	-5.12
360.766	109.57
360.977	66.56
361.189	101.37
361.4	37.89
361.611	105.47
361.823	56.32
362.034	68.61
362.245	44.03
362.456	125.95
362.667	109.57
362.879	41.98
363.09	66.56
363.301	74.75
363.512	-7.17
363.723	115.71
363.935	58.37
364.146	50.18
364.357	72.7
364.568	54.27
364.779	21.5
364.99	80.89
365.201	70.65
365.412	84.99
365.623	-15.36
365.834	99.33
366.045	76.8
366.256	117.76
366.467	54.27
366.678	11.26
366.889	62.46
367.1	-7.17
367.311	91.13
367.522	29.7
367.733	-31.74
367.944	93.18
368.155	50.18
368.366	82.94
368.577	119.81
368.788	121.85
368.999	25.6
369.209	25.6
369.42	62.46
369.631	207.87
369.842	25.6
370.053	25.6
370.264	21.5
370.474	11.26
370.685	33.79
370.896	50.18
371.107	132.09
371.317	107.52
371.528	35.84
371.739	64.51
371.95	-13.31
372.16	103.42
372.371	19.46
372.582	35.84
372.792	46.08
373.003	13.31
373.214	-11.26
373.424	52.22
373.635	15.36
373.846	107.52
374.056	37.89
374.267	74.75
374.477	21.5
374.688	41.98
374.898	37.89
375.109	33.79
375.319	-11.26
375.53	117.76
375.74	128
375.951	82.94
376.161	91.13
376.372	58.37
376.582	23.55
376.793	140.29
377.003	11.26
377.214	66.56
377.424	74.75
377.635	50.18
377.845	-23.55
378.055	41.98
378.266	33.79
378.476	-3.07
378.686	5.12
378.897	111.61
379.107	93.18
379.317	35.84
379.528	5.12
379.738	41.98
379.948	46.08
380.158	97.28
380.369	78.85
380.579	111.61
380.789	-39.94
380.999	41.98
381.21	68.61
381.42	199.68
381.63	25.6
381.84	144.38
382.05	-7.17
382.261	9.22
382.471	117.76
382.681	17.41
382.891	84.99
383.101	113.66
383.311	33.79
383.521	50.18
383.731	72.7
383.941	62.46
384.151	52.22
384.361	74.75
384.571	31.74
384.781	70.65
384.991	111.61
385.201	132.09
385.411	68.61
385.621	44.03
385.831	27.65
386.041	68.61
386.251	144.38
386.461	136.19
386.671	25.6
386.881	66.56
387.091	-21.5
387.301	58.37
387.511	82.94
387.72	78.85
387.93	41.98
388.14	46.08
388.35	123.9
388.56	41.98
388.769	41.98
388.979	11.26
389.189	50.18
389.399	60.42
389.609	68.61
389.818	33.79
390.028	64.51
390.238	25.6
390.447	23.55
390.657	93.18
390.867	70.65
391.076	13.31
391.286	66.56
391.496	66.56
391.705	76.8
391.915	95.23
392.125	128
392.334	82.94
392.544	82.94
392.753	60.42
392.963	1.02
393.172	119.81
393.382	29.7
393.591	140.29
393.801	1.02
394.01	140.29
394.22	107.52
394.429	132.09
394.639	11.26
394.848	91.13
395.058	66.56
395.267	54.27
395.477	41.98
395.686	78.85
395.895	115.71
396.105	136.19
396.314	115.71
396.524	87.04
396.733	82.94
396.942	91.13
397.152	103.42
397.361	95.23
397.57	181.25
397.78	132.09
397.989	109.57
398.198	82.94
398.407	74.75
398.617	62.46
398.826	150.53
399.035	132.09
399.244	97.28
399.453	156.67
399.663	101.37
399.872	87.04
400.081	50.18
400.29	152.57
400.499	119.81
400.708	82.94
400.917	82.94
401.127	119.81
401.336	105.47
401.545	132.09
401.754	132.09
401.963	166.91
402.172	50.18
402.381	119.81
402.59	142.33
402.799	66.56
403.008	168.96
403.217	82.94
403.426	82.94
403.635	60.42
403.844	115.71
404.053	158.72
404.262	82.94
404.471	148.48
404.68	209.92
404.888	158.72
405.097	117.76
405.306	107.52
405.515	154.62
405.724	115.71
405.933	164.86
406.142	160.77
406.35	168.96
406.559	134.14
406.768	254.97
406.977	189.44
407.185	177.15
407.394	175.1
407.603	218.11
407.812	222.2
408.02	238.59
408.229	216.06
408.438	263.16
408.646	224.25
408.855	222.2
409.064	197.63
409.272	156.67
409.481	402.43
409.69	214.01
409.898	238.59
410.107	187.39
410.315	345.08
410.524	297.98
410.733	332.79
410.941	326.65
411.15	295.93
411.358	361.47
411.567	408.57
411.775	281.6
411.984	345.08
412.192	408.57
412.401	377.85
412.609	470.01
412.818	459.77
413.026	435.19
413.234	441.34
413.443	435.19
413.651	508.92
413.86	427
414.068	553.98
414.276	615.41
414.485	582.65
414.693	672.76
414.901	617.46
415.11	670.71
415.318	648.18
415.526	715.77
415.734	656.37
415.943	721.91
416.151	803.83
416.359	754.68
416.567	730.1
416.776	852.98
416.984	861.17
417.192	758.77
417.4	975.86
417.608	953.33
417.817	971.76
418.025	1156.08
418.233	1045.49
418.441	1068.02
418.649	1125.36
418.857	1111.02
419.065	1289.2
419.273	1190.89
419.481	1283.05
419.689	1324.01
419.897	1434.6
420.105	1348.59
420.313	1418.22
420.521	1567.72
420.729	1479.66
420.937	1561.58
421.145	1625.06
421.353	1590.25
421.561	1786.85
421.769	1795.04
421.977	1899.49
422.185	1911.78
422.393	2048.99
422.601	2061.28
422.809	2040.8
423.017	2075.62
423.224	2135.01
423.432	2360.28
423.64	2288.61
423.848	2552.79
424.056	2438.11
424.263	2597.85
424.471	2675.67
424.679	2647
424.887	2851.8
425.094	2903
425.302	2784.21
425.51	2870.23
425.718	3107.79
425.925	3191.76
426.133	3236.81
426.341	3437.52
426.548	3488.71
426.756	3472.33
426.964	3853.25
427.171	3793.86
427.379	3802.05
427.586	3963.84
427.794	4090.82
428.001	4410.3
428.209	4457.4
428.417	4492.22
428.624	4697.02
428.832	4746.17
429.039	4740.02
429.247	4776.89
429.454	4967.35
429.662	5469.1
429.869	4991.92
430.076	5481.39
430.284	5213.1
430.491	5546.92
430.699	5899.17
430.906	6028.2
431.114	6063.01
431.321	6169.51
431.528	6370.21
431.736	6699.93
431.943	6972.31
432.15	6730.65
432.358	6718.36
432.565	7357.33
432.772	7054.23
432.979	7459.73
433.187	7705.48
433.394	7834.5
433.601	8266.63
433.808	8078.21
434.016	8315.78
434.223	8682.36
434.43	8913.78
434.637	8993.65
434.844	9483.12
435.052	9575.28
435.259	9642.86
435.466	9685.87
435.673	9466.74
435.88	10038.12
436.087	10701.66
436.294	10726.24
436.501	10421.09
436.708	10558.3
436.915	11115.35
437.122	11680.59
437.329	11416.4
437.537	11852.62
437.743	12125
437.95	11848.52
438.157	12503.87
438.364	12821.31
438.571	13093.69
438.778	13116.22
438.985	14179.11
439.192	13624.11
439.399	14101.29
439.606	13538.1
439.813	14801.69
440.02	15442.71
440.227	15033.11
440.433	14971.68
440.64	15483.67
440.847	15278.87
441.054	15833.87
441.261	16562.95
441.467	16442.12
441.674	16853.76
441.881	17265.4
442.088	17355.51
442.294	17212.15
442.501	17525.49
442.708	18227.95
442.914	18916.06
443.121	19661.52
443.328	19260.12
443.534	20200.14
443.741	19700.44
443.948	19489.49
444.154	21181.12
444.361	21320.38
444.568	20810.43
444.774	20685.51
444.981	21115.58
445.187	21535.42
445.394	22858.4
445.6	22332.08
445.807	24371.85
446.013	23485.08
446.22	23700.12
446.426	24922.76
446.633	24986.24
446.839	25682.55
447.046	24760.97
447.252	26202.74
447.459	26212.98
447.665	25911.92
447.871	27296.35
448.078	28590.67
448.284	27077.22
448.491	27673.18
448.697	28635.72
448.903	29409.86
449.11	29207.11
449.316	28871.24
449.522	29633.08
449.728	30083.64
449.935	30622.25
450.141	30589.49
450.347	30941.74
450.553	30298.67
450.76	30775.85
450.966	31253.03
451.172	31255.08
451.378	31889.95
451.584	31011.37
451.791	31908.38
451.997	32326.16
452.203	32340.5
452.409	32377.36
452.615	32229.91
452.821	30972.46
453.027	30691.88
453.233	32602.64
453.44	31027.75
453.646	31580.7
453.852	31414.82
454.058	32023.06
454.264	30849.58
454.47	31629.85
454.676	31105.57
454.882	31853.08
455.088	29067.84
455.294	29512.25
455.5	29940.28
455.705	30177.84
455.911	29227.59
456.117	28453.45
456.323	27992.66
456.529	26712.68
456.735	27492.96
456.941	26976.87
457.147	26602.09
457.352	25670.26
457.558	25406.08
457.764	25512.57
457.97	24971.91
458.176	24531.59
458.381	24513.16
458.587	23198.37
458.793	23339.68
458.999	22381.23
459.204	23900.82
459.41	22983.33
459.616	21664.44
459.821	21437.11
460.027	21447.35
460.233	21224.12
460.438	19847.89
460.644	20157.13
460.85	19329.75
461.055	18682.59
461.261	18997.98
461.466	17406.71
461.672	17042.17
461.878	18111.21
462.083	17124.09
462.289	16335.62
462.494	16343.81
462.7	15491.86
462.905	15133.47
463.111	15487.76
463.316	15657.75
463.522	15203.1
463.727	15549.2
463.932	15610.64
464.138	15190.81
464.343	15356.69
464.549	14934.81
464.754	15289.11
464.959	15252.25
465.165	14924.57
465.37	14428.96
465.575	14322.47
465.781	14586.66
465.986	14611.23
466.191	14246.69
466.397	13937.45
466.602	13056.82
466.807	13837.1
467.012	13787.95
467.218	13554.48
467.423	13425.46
467.628	13710.13
