Data from USB4F104151__277__14-34-42-401.txt Node

Date: Thu Mar 13 14:34:42 EDT 2025
User: louis
Spectrometer: USB4F10415
Trigger mode: 4
Integration Time (sec): 2.500000E-2
Scans to average: 1
Electric dark correction enabled: true
Nonlinearity correction enabled: false
Boxcar width: 0
XAxis mode: Wavelengths
Number of Pixels in Spectrum: 3648
>>>>>Begin Spectral Data<<<<<
178.204	-93.18
178.424	-93.18
178.644	-93.18
178.864	-166.91
179.084	-146.43
179.304	19.46
179.524	-21.5
179.744	-44.03
179.964	58.37
180.184	-3.07
180.404	19.46
180.624	-23.55
180.844	5.12
181.064	-11.26
181.283	-48.13
181.503	7.17
181.723	41.98
181.943	-101.37
182.163	19.46
182.383	33.79
182.602	64.51
182.822	7.17
183.042	27.65
183.262	66.56
183.482	11.26
183.701	27.65
183.921	60.42
184.141	-3.07
184.361	27.65
184.58	52.22
184.8	50.18
185.02	-29.7
185.239	76.8
185.459	60.42
185.679	72.7
185.898	29.7
186.118	37.89
186.338	27.65
186.557	13.31
186.777	23.55
186.997	66.56
187.216	-21.5
187.436	125.95
187.655	31.74
187.875	105.47
188.095	-27.65
188.314	66.56
188.534	91.13
188.753	-29.7
188.973	27.65
189.192	37.89
189.412	-5.12
189.631	58.37
189.851	33.79
190.07	70.65
190.29	-15.36
190.509	60.42
190.729	58.37
190.948	72.7
191.168	191.49
191.387	52.22
191.607	-27.65
191.826	72.7
192.045	-46.08
192.265	21.5
192.484	60.42
192.704	17.41
192.923	17.41
193.142	52.22
193.362	-23.55
193.581	66.56
193.8	9.22
194.02	17.41
194.239	78.85
194.458	37.89
194.678	41.98
194.897	19.46
195.116	-11.26
195.335	35.84
195.555	54.27
195.774	-1.02
195.993	58.37
196.212	31.74
196.432	-3.07
196.651	-29.7
196.87	17.41
197.089	125.95
197.308	44.03
197.528	1.02
197.747	19.46
197.966	33.79
198.185	89.09
198.404	25.6
198.623	54.27
198.842	11.26
199.062	99.33
199.281	50.18
199.5	5.12
199.719	58.37
199.938	-70.65
200.157	82.94
200.376	35.84
200.595	54.27
200.814	19.46
201.033	-76.8
201.252	99.33
201.471	52.22
201.69	44.03
201.909	48.13
202.128	-48.13
202.347	-35.84
202.566	31.74
202.785	50.18
203.004	46.08
203.223	84.99
203.442	62.46
203.661	17.41
203.879	58.37
204.098	19.46
204.317	-31.74
204.536	29.7
204.755	82.94
204.974	99.33
205.193	21.5
205.411	66.56
205.63	58.37
205.849	117.76
206.068	-13.31
206.287	7.17
206.505	119.81
206.724	17.41
206.943	7.17
207.162	-19.46
207.381	41.98
207.599	74.75
207.818	-11.26
208.037	41.98
208.255	9.22
208.474	-48.13
208.693	21.5
208.911	72.7
209.13	-9.22
209.349	37.89
209.567	70.65
209.786	70.65
210.005	25.6
210.223	46.08
210.442	25.6
210.661	50.18
210.879	44.03
211.098	11.26
211.316	-7.17
211.535	66.56
211.753	41.98
211.972	91.13
212.191	52.22
212.409	64.51
212.628	15.36
212.846	11.26
213.065	13.31
213.283	44.03
213.502	19.46
213.72	35.84
213.938	41.98
214.157	21.5
214.375	50.18
214.594	-13.31
214.812	78.85
215.031	109.57
215.249	17.41
215.467	-17.41
215.686	84.99
215.904	54.27
216.122	5.12
216.341	-41.98
216.559	82.94
216.778	54.27
216.996	58.37
217.214	25.6
217.432	5.12
217.651	-39.94
217.869	27.65
218.087	44.03
218.306	-13.31
218.524	23.55
218.742	50.18
218.96	82.94
219.179	19.46
219.397	-48.13
219.615	58.37
219.833	60.42
220.051	33.79
220.27	19.46
220.488	99.33
220.706	66.56
220.924	52.22
221.142	39.94
221.36	78.85
221.578	70.65
221.796	33.79
222.015	74.75
222.233	-17.41
222.451	68.61
222.669	-11.26
222.887	144.38
223.105	1.02
223.323	15.36
223.541	25.6
223.759	27.65
223.977	-35.84
224.195	117.76
224.413	107.52
224.631	-11.26
224.849	-33.79
225.067	115.71
225.285	5.12
225.503	58.37
225.721	-17.41
225.939	37.89
226.157	35.84
226.375	119.81
226.592	-54.27
226.81	3.07
227.028	91.13
227.246	82.94
227.464	50.18
227.682	-11.26
227.9	-3.07
228.117	48.13
228.335	58.37
228.553	44.03
228.771	39.94
228.989	52.22
229.206	50.18
229.424	60.42
229.642	5.12
229.86	48.13
230.077	41.98
230.295	1.02
230.513	33.79
230.731	-3.07
230.948	33.79
231.166	41.98
231.384	-62.46
231.601	-35.84
231.819	107.52
232.037	-31.74
232.254	-89.09
232.472	25.6
232.689	-7.17
232.907	48.13
233.125	27.65
233.342	68.61
233.56	1.02
233.777	11.26
233.995	-13.31
234.213	-15.36
234.43	25.6
234.648	21.5
234.865	-70.65
235.083	13.31
235.3	9.22
235.518	66.56
235.735	89.09
235.953	115.71
236.17	41.98
236.388	-44.03
236.605	50.18
236.822	107.52
237.04	-7.17
237.257	1.02
237.475	41.98
237.692	58.37
237.909	15.36
238.127	41.98
238.344	58.37
238.562	46.08
238.779	-60.42
238.996	17.41
239.214	9.22
239.431	76.8
239.648	-5.12
239.865	58.37
240.083	58.37
240.3	-23.55
240.517	1.02
240.735	15.36
240.952	78.85
241.169	19.46
241.386	39.94
241.603	9.22
241.821	-9.22
242.038	13.31
242.255	21.5
242.472	39.94
242.689	58.37
242.907	-21.5
243.124	-21.5
243.341	29.7
243.558	33.79
243.775	46.08
243.992	23.55
244.209	115.71
244.426	91.13
244.643	74.75
244.86	82.94
245.078	50.18
245.295	66.56
245.512	44.03
245.729	9.22
245.946	5.12
246.163	78.85
246.38	11.26
246.597	111.61
246.814	17.41
247.031	31.74
247.248	29.7
247.464	95.23
247.681	115.71
247.898	-60.42
248.115	17.41
248.332	-3.07
248.549	58.37
248.766	82.94
248.983	60.42
249.2	17.41
249.417	54.27
249.633	-5.12
249.85	93.18
250.067	37.89
250.284	111.61
250.501	58.37
250.717	99.33
250.934	5.12
251.151	-1.02
251.368	93.18
251.585	78.85
251.801	3.07
252.018	1.02
252.235	-11.26
252.451	76.8
252.668	17.41
252.885	109.57
253.102	9.22
253.318	66.56
253.535	25.6
253.752	27.65
253.968	-3.07
254.185	-21.5
254.401	5.12
254.618	87.04
254.835	-72.7
255.051	52.22
255.268	78.85
255.484	1.02
255.701	68.61
255.917	66.56
256.134	-3.07
256.351	17.41
256.567	-48.13
256.784	-1.02
257	-89.09
257.217	27.65
257.433	3.07
257.65	74.75
257.866	37.89
258.082	-70.65
258.299	58.37
258.515	50.18
258.732	35.84
258.948	50.18
259.165	21.5
259.381	5.12
259.597	58.37
259.814	9.22
260.03	23.55
260.246	44.03
260.463	56.32
260.679	50.18
260.895	27.65
261.112	115.71
261.328	50.18
261.544	-31.74
261.761	78.85
261.977	60.42
262.193	-21.5
262.409	87.04
262.626	64.51
262.842	3.07
263.058	-15.36
263.274	52.22
263.49	56.32
263.707	37.89
263.923	19.46
264.139	-21.5
264.355	-39.94
264.571	25.6
264.787	46.08
265.004	52.22
265.22	50.18
265.436	-56.32
265.652	25.6
265.868	66.56
266.084	-19.46
266.3	25.6
266.516	-3.07
266.732	107.52
266.948	44.03
267.164	17.41
267.38	-5.12
267.596	-23.55
267.812	132.09
268.028	58.37
268.244	-35.84
268.46	25.6
268.676	33.79
268.892	44.03
269.108	13.31
269.324	48.13
269.54	-48.13
269.756	44.03
269.972	-113.66
270.188	-19.46
270.403	29.7
270.619	84.99
270.835	-5.12
271.051	68.61
271.267	78.85
271.483	58.37
271.698	-7.17
271.914	33.79
272.13	37.89
272.346	-19.46
272.562	48.13
272.777	33.79
272.993	44.03
273.209	13.31
273.425	-33.79
273.64	-39.94
273.856	27.65
274.072	50.18
274.287	13.31
274.503	54.27
274.719	19.46
274.934	25.6
275.15	44.03
275.366	25.6
275.581	9.22
275.797	11.26
276.012	58.37
276.228	-39.94
276.444	91.13
276.659	-5.12
276.875	41.98
277.09	50.18
277.306	-7.17
277.521	136.19
277.737	39.94
277.952	44.03
278.168	19.46
278.383	66.56
278.599	-15.36
278.814	41.98
279.03	29.7
279.245	-35.84
279.461	9.22
279.676	41.98
279.892	1.02
280.107	50.18
280.322	19.46
280.538	21.5
280.753	-15.36
280.969	17.41
281.184	29.7
281.399	84.99
281.615	70.65
281.83	80.89
282.045	-5.12
282.26	35.84
282.476	-5.12
282.691	95.23
282.906	64.51
283.122	58.37
283.337	72.7
283.552	41.98
283.767	1.02
283.983	74.75
284.198	50.18
284.413	58.37
284.628	66.56
284.843	7.17
285.058	89.09
285.274	54.27
285.489	5.12
285.704	109.57
285.919	3.07
286.134	-7.17
286.349	46.08
286.564	105.47
286.779	113.66
286.995	13.31
287.21	-35.84
287.425	93.18
287.64	-13.31
287.855	33.79
288.07	-11.26
288.285	87.04
288.5	35.84
288.715	44.03
288.93	58.37
289.145	-54.27
289.36	9.22
289.575	7.17
289.79	35.84
290.004	17.41
290.219	37.89
290.434	-56.32
290.649	-7.17
290.864	33.79
291.079	-11.26
291.294	21.5
291.509	-44.03
291.724	99.33
291.938	-13.31
292.153	50.18
292.368	84.99
292.583	99.33
292.798	76.8
293.012	48.13
293.227	105.47
293.442	95.23
293.657	35.84
293.871	50.18
294.086	-5.12
294.301	60.42
294.516	58.37
294.73	-56.32
294.945	-31.74
295.16	1.02
295.374	44.03
295.589	91.13
295.804	17.41
296.018	-5.12
296.233	58.37
296.447	19.46
296.662	5.12
296.877	78.85
297.091	37.89
297.306	-7.17
297.52	29.7
297.735	-31.74
297.949	1.02
298.164	58.37
298.378	-13.31
298.593	-23.55
298.807	-7.17
299.022	60.42
299.236	33.79
299.451	-31.74
299.665	11.26
299.88	9.22
300.094	33.79
300.309	21.5
300.523	31.74
300.737	-7.17
300.952	70.65
301.166	74.75
301.381	-31.74
301.595	27.65
301.809	103.42
302.024	44.03
302.238	66.56
302.452	91.13
302.667	-21.5
302.881	60.42
303.095	11.26
303.309	101.37
303.524	48.13
303.738	21.5
303.952	-5.12
304.166	87.04
304.381	-33.79
304.595	84.99
304.809	-3.07
305.023	80.89
305.237	9.22
305.452	58.37
305.666	87.04
305.88	46.08
306.094	60.42
306.308	-19.46
306.522	19.46
306.736	97.28
306.95	25.6
307.164	-7.17
307.379	-39.94
307.593	134.14
307.807	25.6
308.021	107.52
308.235	17.41
308.449	17.41
308.663	158.72
308.877	125.95
309.091	91.13
309.305	68.61
309.519	29.7
309.733	99.33
309.947	-48.13
310.161	70.65
310.374	89.09
310.588	91.13
310.802	31.74
311.016	58.37
311.23	87.04
311.444	15.36
311.658	13.31
311.872	25.6
312.085	66.56
312.299	-7.17
312.513	29.7
312.727	25.6
312.941	-17.41
313.154	7.17
313.368	-33.79
313.582	41.98
313.796	19.46
314.009	41.98
314.223	76.8
314.437	9.22
314.651	74.75
314.864	44.03
315.078	33.79
315.292	3.07
315.505	41.98
315.719	37.89
315.933	93.18
316.146	-27.65
316.36	-5.12
316.573	78.85
316.787	99.33
317.001	123.9
317.214	5.12
317.428	15.36
317.641	-5.12
317.855	-37.89
318.068	70.65
318.282	89.09
318.495	125.95
318.709	54.27
318.922	-17.41
319.136	35.84
319.349	50.18
319.563	39.94
319.776	66.56
319.99	-15.36
320.203	109.57
320.417	23.55
320.63	41.98
320.843	107.52
321.057	128
321.27	70.65
321.483	17.41
321.697	50.18
321.91	84.99
322.124	82.94
322.337	39.94
322.55	-48.13
322.763	44.03
322.977	25.6
323.19	-21.5
323.403	50.18
323.617	1.02
323.83	58.37
324.043	25.6
324.256	9.22
324.469	-3.07
324.683	11.26
324.896	50.18
325.109	44.03
325.322	-41.98
325.535	17.41
325.748	87.04
325.962	9.22
326.175	91.13
326.388	93.18
326.601	33.79
326.814	41.98
327.027	1.02
327.24	66.56
327.453	5.12
327.666	37.89
327.879	156.67
328.092	37.89
328.305	9.22
328.518	-21.5
328.731	-91.13
328.944	82.94
329.157	68.61
329.37	50.18
329.583	91.13
329.796	35.84
330.009	3.07
330.222	84.99
330.435	62.46
330.648	41.98
330.861	117.76
331.073	58.37
331.286	54.27
331.499	1.02
331.712	-66.56
331.925	39.94
332.138	1.02
332.35	25.6
332.563	-3.07
332.776	-3.07
332.989	37.89
333.202	23.55
333.414	25.6
333.627	82.94
333.84	58.37
334.053	48.13
334.265	-3.07
334.478	41.98
334.691	41.98
334.903	87.04
335.116	58.37
335.329	-13.31
335.541	19.46
335.754	9.22
335.966	15.36
336.179	27.65
336.392	66.56
336.604	50.18
336.817	60.42
337.029	21.5
337.242	78.85
337.454	115.71
337.667	17.41
337.88	66.56
338.092	56.32
338.305	125.95
338.517	50.18
338.729	35.84
338.942	50.18
339.154	19.46
339.367	17.41
339.579	35.84
339.792	44.03
340.004	60.42
340.217	33.79
340.429	93.18
340.641	103.42
340.854	11.26
341.066	-11.26
341.278	54.27
341.491	87.04
341.703	115.71
341.915	19.46
342.128	115.71
342.34	82.94
342.552	-7.17
342.764	50.18
342.977	-13.31
343.189	78.85
343.401	27.65
343.613	3.07
343.826	-1.02
344.038	33.79
344.25	99.33
344.462	44.03
344.674	97.28
344.886	60.42
345.099	46.08
345.311	-27.65
345.523	46.08
345.735	-39.94
345.947	72.7
346.159	82.94
346.371	76.8
346.583	50.18
346.795	82.94
347.007	58.37
347.219	58.37
347.431	7.17
347.643	82.94
347.855	-21.5
348.067	109.57
348.279	31.74
348.491	3.07
348.703	9.22
348.915	99.33
349.127	1.02
349.339	19.46
349.551	-62.46
349.763	52.22
349.975	136.19
350.187	99.33
350.399	87.04
350.61	136.19
350.822	23.55
351.034	50.18
351.246	-13.31
351.458	148.48
351.669	41.98
351.881	50.18
352.093	89.09
352.305	66.56
352.517	5.12
352.728	91.13
352.94	23.55
353.152	91.13
353.363	46.08
353.575	60.42
353.787	41.98
353.999	80.89
354.21	78.85
354.422	-7.17
354.633	17.41
354.845	33.79
355.057	91.13
355.268	91.13
355.48	66.56
355.692	66.56
355.903	134.14
356.115	9.22
356.326	1.02
356.538	113.66
356.749	89.09
356.961	52.22
357.172	72.7
357.384	27.65
357.595	156.67
357.807	17.41
358.018	19.46
358.23	56.32
358.441	25.6
358.653	70.65
358.864	76.8
359.075	17.41
359.287	74.75
359.498	99.33
359.709	68.61
359.921	35.84
360.132	109.57
360.344	56.32
360.555	33.79
360.766	33.79
360.977	-3.07
361.189	74.75
361.4	64.51
361.611	115.71
361.823	91.13
362.034	27.65
362.245	46.08
362.456	13.31
362.667	41.98
362.879	-19.46
363.09	11.26
363.301	68.61
363.512	3.07
363.723	29.7
363.935	62.46
364.146	99.33
364.357	-7.17
364.568	50.18
364.779	-7.17
364.99	115.71
365.201	21.5
365.412	82.94
365.623	1.02
365.834	62.46
366.045	58.37
366.256	58.37
366.467	89.09
366.678	82.94
366.889	19.46
367.1	-5.12
367.311	50.18
367.522	68.61
367.733	62.46
367.944	-58.37
368.155	33.79
368.366	82.94
368.577	132.09
368.788	136.19
368.999	19.46
369.209	9.22
369.42	109.57
369.631	117.76
369.842	21.5
370.053	66.56
370.264	66.56
370.474	50.18
370.685	125.95
370.896	50.18
371.107	107.52
371.317	123.9
371.528	-46.08
371.739	62.46
371.95	52.22
372.16	132.09
372.371	70.65
372.582	35.84
372.792	46.08
373.003	33.79
373.214	74.75
373.424	9.22
373.635	95.23
373.846	44.03
374.056	44.03
374.267	48.13
374.477	111.61
374.688	46.08
374.898	41.98
375.109	-11.26
375.319	41.98
375.53	107.52
375.74	76.8
375.951	41.98
376.161	-25.6
376.372	-29.7
376.582	82.94
376.793	70.65
377.003	101.37
377.214	-7.17
377.424	91.13
377.635	68.61
377.845	33.79
378.055	27.65
378.266	11.26
378.476	76.8
378.686	46.08
378.897	95.23
379.107	136.19
379.317	62.46
379.528	44.03
379.738	107.52
379.948	-52.22
380.158	66.56
380.369	21.5
380.579	72.7
380.789	19.46
380.999	74.75
381.21	82.94
381.42	119.81
381.63	-13.31
381.84	91.13
382.05	148.48
382.261	105.47
382.471	-7.17
382.681	50.18
382.891	76.8
383.101	82.94
383.311	15.36
383.521	-60.42
383.731	66.56
383.941	82.94
384.151	23.55
384.361	99.33
384.571	19.46
384.781	50.18
384.991	125.95
385.201	107.52
385.411	46.08
385.621	17.41
385.831	66.56
386.041	21.5
386.251	58.37
386.461	70.65
386.671	76.8
386.881	31.74
387.091	11.26
387.301	87.04
387.511	115.71
387.72	173.05
387.93	27.65
388.14	13.31
388.35	93.18
388.56	148.48
388.769	117.76
388.979	11.26
389.189	91.13
389.399	52.22
389.609	144.38
389.818	68.61
390.028	91.13
390.238	33.79
390.447	119.81
390.657	82.94
390.867	29.7
391.076	25.6
391.286	-13.31
391.496	99.33
391.705	58.37
391.915	109.57
392.125	54.27
392.334	70.65
392.544	82.94
392.753	44.03
392.963	-52.22
393.172	115.71
393.382	29.7
393.591	123.9
393.801	82.94
394.01	70.65
394.22	33.79
394.429	39.94
394.639	33.79
394.848	35.84
395.058	19.46
395.267	148.48
395.477	44.03
395.686	97.28
395.895	136.19
396.105	103.42
396.314	91.13
396.524	117.76
396.733	78.85
396.942	168.96
397.152	56.32
397.361	140.29
397.57	117.76
397.78	123.9
397.989	82.94
398.198	109.57
398.407	115.71
398.617	80.89
398.826	99.33
399.035	117.76
399.244	68.61
399.453	109.57
399.663	76.8
399.872	222.2
400.081	132.09
400.29	132.09
400.499	66.56
400.708	44.03
400.917	44.03
401.127	173.05
401.336	54.27
401.545	183.29
401.754	101.37
401.963	123.9
402.172	84.99
402.381	113.66
402.59	130.05
402.799	111.61
403.008	62.46
403.217	125.95
403.426	50.18
403.635	158.72
403.844	158.72
404.053	115.71
404.262	87.04
404.471	109.57
404.68	91.13
404.888	148.48
405.097	125.95
405.306	199.68
405.515	164.86
405.724	173.05
405.933	183.29
406.142	189.44
406.35	193.53
406.559	175.1
406.768	259.07
406.977	195.58
407.185	246.78
407.394	246.78
407.603	162.81
407.812	189.44
408.02	244.73
408.229	279.55
408.438	314.36
408.646	205.82
408.855	209.92
409.064	271.36
409.272	267.26
409.481	322.56
409.69	234.49
409.898	310.27
410.107	254.97
410.315	330.75
410.524	338.94
410.733	322.56
410.941	427
411.15	453.63
411.358	404.47
411.567	467.96
411.775	449.53
411.984	412.67
412.192	437.24
412.401	461.82
412.609	517.11
412.818	463.86
413.026	463.86
413.234	574.46
413.443	537.59
413.651	517.11
413.86	594.93
414.068	541.69
414.276	728.05
414.485	615.41
414.693	642.04
414.901	746.48
415.11	678.9
415.318	697.33
415.526	773.11
415.734	762.87
415.943	732.15
416.151	879.6
416.359	848.88
416.567	795.64
416.776	928.75
416.984	969.71
417.192	1102.83
417.4	977.91
417.608	955.38
417.817	1051.63
418.025	1076.21
418.233	1135.6
418.441	1051.63
418.649	1133.55
418.857	1254.38
419.065	1313.77
419.273	1254.38
419.481	1393.64
419.689	1377.26
419.897	1518.57
420.105	1549.29
420.313	1600.49
420.521	1627.11
420.729	1610.73
420.937	1643.49
421.145	1731.56
421.353	1717.22
421.561	1958.88
421.769	1979.36
421.977	2100.19
422.185	2036.7
422.393	2149.34
422.601	2165.73
422.809	2272.22
423.017	2378.72
423.224	2391
423.432	2532.31
423.64	2382.81
423.848	2749.4
424.056	2606.04
424.263	2839.51
424.471	2909.14
424.679	2888.66
424.887	3064.79
425.094	3075.03
425.302	3146.7
425.51	3322.83
425.718	3468.24
425.925	3501
426.133	3490.76
426.341	3638.22
426.548	3892.16
426.756	3959.75
426.964	4023.23
427.171	4189.12
427.379	4205.5
427.586	4309.95
427.794	4463.55
428.001	4817.85
428.209	4967.35
428.417	4830.13
428.624	5196.72
428.832	5182.38
429.039	5188.53
429.247	5108.66
429.454	5596.07
429.662	5899.17
429.869	5460.91
430.076	5895.08
430.284	5776.3
430.491	6095.78
430.699	6474.65
430.906	6441.89
431.114	6605.72
431.321	6618.01
431.528	6841.24
431.736	7209.87
431.943	7564.17
432.15	7420.81
432.358	7324.56
432.565	7877.51
432.772	7742.35
432.979	8213.38
433.187	8432.51
433.394	8405.89
433.601	8926.07
433.808	9048.95
434.016	8883.06
434.223	9309.04
434.43	9833.32
434.637	9612.14
434.844	10265.44
435.052	10396.51
435.259	10367.84
435.466	10447.71
435.673	10580.83
435.88	10941.27
436.087	11602.77
436.294	11602.77
436.501	11504.46
436.708	11606.86
436.915	12018.5
437.122	12563.26
437.329	12702.53
437.537	12921.66
437.743	12944.19
437.95	13009.72
438.157	13718.32
438.364	14218.02
438.571	14297.89
438.778	14138.15
438.985	15387.41
439.192	14897.95
439.399	15180.57
439.606	14893.85
439.813	15602.45
440.02	16585.47
440.227	16153.35
440.433	16339.72
440.64	16755.46
440.847	16501.51
441.054	17111.8
441.261	18080.49
441.467	17873.65
441.674	18262.76
441.881	18756.32
442.088	18887.39
442.294	19018.46
442.501	19079.9
442.708	19876.56
442.914	20165.32
443.121	21199.55
443.328	20497.1
443.534	21973.68
443.741	21369.53
443.948	21070.53
444.154	22682.28
444.361	22686.37
444.568	22729.38
444.774	22729.38
444.981	23020.19
445.187	23261.85
445.394	24754.82
445.6	24388.24
445.807	26577.51
446.013	25315.97
446.22	25946.74
446.426	26636.91
446.633	27093.6
446.839	27902.55
447.046	27034.21
447.252	28473.93
447.459	28627.53
447.665	28219.99
447.871	29571.64
448.078	30868.01
448.284	29532.73
448.491	30095.92
448.697	31101.48
448.903	31877.66
449.11	31912.47
449.316	31291.94
449.522	31922.71
449.728	32872.97
449.935	32850.44
450.141	33210.89
450.347	33606.14
450.553	32514.58
450.76	33384.96
450.966	34320.88
451.172	34101.75
451.378	34812.4
451.584	33778.17
451.791	34886.12
451.997	34628.08
452.203	35527.14
452.409	35461.6
452.615	34951.66
452.821	33559.04
453.027	33696.25
453.233	35187.18
453.44	33528.32
453.646	34140.66
453.852	34136.57
454.058	34970.09
454.264	33556.99
454.47	34570.74
454.676	33976.83
454.882	34580.98
455.088	31318.56
455.294	32121.37
455.5	32651.79
455.705	32772.62
455.911	31930.9
456.117	30878.25
456.323	30394.93
456.529	28795.46
456.735	30237.23
456.941	29018.69
457.147	29237.83
457.352	27828.82
457.558	27767.38
457.764	28093.01
457.97	27144.8
458.176	26884.71
458.381	26393.2
458.587	25387.64
458.793	25307.77
458.999	23636.63
459.204	25500.28
459.41	24783.49
459.616	23364.25
459.821	23159.45
460.027	23171.74
460.233	22788.77
460.438	21605.05
460.644	21672.63
460.85	20832.96
461.055	20206.28
461.261	20382.41
461.466	18815.71
461.672	18012.91
461.878	19333.85
462.083	18301.67
462.289	18166.51
462.494	17576.69
462.7	16788.22
462.905	16499.46
463.111	17093.37
463.316	17056.51
463.522	16784.13
463.727	16720.64
463.932	16927.49
464.138	16319.24
464.343	16677.63
464.549	16227.08
464.754	16376.58
464.959	16433.93
465.165	16093.96
465.37	15573.78
465.575	14940.96
465.781	15754
465.986	15713.04
466.191	15000.35
466.397	14730.02
466.602	14000.94
466.807	14662.43
467.012	14840.61
467.218	14594.85
467.423	14203.69
