Data from USB4F104151__50__14-29-58-683.txt Node

Date: Thu Mar 13 14:29:58 EDT 2025
User: louis
Spectrometer: USB4F10415
Trigger mode: 4
Integration Time (sec): 2.500000E-2
Scans to average: 1
Electric dark correction enabled: true
Nonlinearity correction enabled: false
Boxcar width: 0
XAxis mode: Wavelengths
Number of Pixels in Spectrum: 3648
>>>>>Begin Spectral Data<<<<<
178.204	-163.67
178.424	-163.67
178.644	-163.67
178.864	-163.67
179.084	-104.28
179.304	-14.17
179.524	-48.98
179.744	-16.21
179.964	10.41
180.184	-20.31
180.404	75.95
180.624	92.33
180.844	-63.32
181.064	-83.8
181.283	57.51
181.503	-40.79
181.723	51.37
181.943	-42.84
182.163	90.28
182.383	51.37
182.602	96.43
182.822	110.76
183.042	82.09
183.262	-30.55
183.482	18.6
183.701	37.03
183.921	18.6
184.141	-36.69
184.361	108.71
184.58	10.41
184.8	-55.12
185.02	14.51
185.239	45.23
185.459	12.46
185.679	61.61
185.898	-46.93
186.118	-16.21
186.338	14.51
186.557	-3.93
186.777	30.89
186.997	16.55
187.216	8.36
187.436	84.14
187.655	49.32
187.875	98.47
188.095	86.19
188.314	6.31
188.534	84.14
188.753	28.84
188.973	39.08
189.192	22.7
189.412	-14.17
189.631	26.79
189.851	26.79
190.07	24.75
190.29	45.23
190.509	-24.4
190.729	22.7
190.948	53.42
191.168	84.14
191.387	41.13
191.607	77.99
191.826	45.23
192.045	37.03
192.265	2.22
192.484	-20.31
192.704	59.56
192.923	-8.02
193.142	137.38
193.362	37.03
193.581	84.14
193.8	26.79
194.02	116.9
194.239	125.1
194.458	129.19
194.678	-12.12
194.897	71.85
195.116	-59.22
195.335	-46.93
195.555	26.79
195.774	-46.93
195.993	26.79
196.212	67.75
196.432	-18.26
196.651	2.22
196.87	63.66
197.089	112.81
197.308	-14.17
197.528	84.14
197.747	6.31
197.966	94.38
198.185	24.75
198.404	43.18
198.623	90.28
198.842	14.51
199.062	-1.88
199.281	75.95
199.5	37.03
199.719	75.95
199.938	67.75
200.157	10.41
200.376	18.6
200.595	92.33
200.814	49.32
201.033	-10.07
201.252	75.95
201.471	55.47
201.69	59.56
201.909	-14.17
202.128	37.03
202.347	86.19
202.566	55.47
202.785	18.6
203.004	-46.93
203.223	84.14
203.442	26.79
203.661	59.56
203.879	55.47
204.098	129.19
204.317	14.51
204.536	39.08
204.755	45.23
204.974	2.22
205.193	59.56
205.411	116.9
205.63	47.27
205.849	28.84
206.068	26.79
206.287	-48.98
206.505	-55.12
206.724	8.36
206.943	-55.12
207.162	24.75
207.381	-22.36
207.599	4.27
207.818	63.66
208.037	-14.17
208.255	77.99
208.474	43.18
208.693	63.66
208.911	14.51
209.13	88.23
209.349	61.61
209.567	26.79
209.786	37.03
210.005	14.51
210.223	30.89
210.442	18.6
210.661	26.79
210.879	-10.07
211.098	94.38
211.316	4.27
211.535	55.47
211.753	-10.07
211.972	10.41
212.191	51.37
212.409	26.79
212.628	47.27
212.846	8.36
213.065	131.24
213.283	110.76
213.502	2.22
213.72	6.31
213.938	39.08
214.157	69.8
214.375	24.75
214.594	4.27
214.812	37.03
215.031	32.94
215.249	37.03
215.467	26.79
215.686	-3.93
215.904	34.99
216.122	39.08
216.341	84.14
216.559	10.41
216.778	34.99
216.996	96.43
217.214	20.65
217.432	30.89
217.651	18.6
217.869	88.23
218.087	43.18
218.306	-5.97
218.524	18.6
218.742	51.37
218.96	-3.93
219.179	0.17
219.397	-20.31
219.615	114.86
219.833	77.99
220.051	2.22
220.27	-18.26
220.488	39.08
220.706	39.08
220.924	6.31
221.142	-22.36
221.36	-14.17
221.578	75.95
221.796	34.99
222.015	-1.88
222.233	-22.36
222.451	86.19
222.669	-53.08
222.887	86.19
223.105	67.75
223.323	108.71
223.541	28.84
223.759	39.08
223.977	45.23
224.195	77.99
224.413	67.75
224.631	67.75
224.849	55.47
225.067	106.67
225.285	30.89
225.503	18.6
225.721	-30.55
225.939	100.52
226.157	88.23
226.375	190.63
226.592	18.6
226.81	-36.69
227.028	77.99
227.246	147.62
227.464	116.9
227.682	43.18
227.9	65.71
228.117	45.23
228.335	67.75
228.553	100.52
228.771	18.6
228.989	141.48
229.206	45.23
229.424	92.33
229.642	26.79
229.86	20.65
230.077	2.22
230.295	2.22
230.513	61.61
230.731	92.33
230.948	100.52
231.166	141.48
231.384	12.46
231.601	30.89
231.819	104.62
232.037	22.7
232.254	0.17
232.472	84.14
232.689	-1.88
232.907	63.66
233.125	2.22
233.342	16.55
233.56	2.22
233.777	-79.7
233.995	24.75
234.213	30.89
234.43	37.03
234.648	121
234.865	-28.5
235.083	6.31
235.3	49.32
235.518	53.42
235.735	67.75
235.953	2.22
236.17	32.94
236.388	133.29
236.605	-8.02
236.822	80.04
237.04	2.22
237.257	55.47
237.475	-61.27
237.692	26.79
237.909	88.23
238.127	59.56
238.344	77.99
238.562	4.27
238.779	20.65
238.996	-75.6
239.214	45.23
239.431	108.71
239.648	-32.6
239.865	96.43
240.083	43.18
240.3	53.42
240.517	-55.12
240.735	6.31
240.952	37.03
241.169	14.51
241.386	20.65
241.603	69.8
241.821	14.51
242.038	59.56
242.255	94.38
242.472	43.18
242.689	43.18
242.907	116.9
243.124	47.27
243.341	-20.31
243.558	-1.88
243.775	20.65
243.992	18.6
244.209	14.51
244.426	80.04
244.643	84.14
244.86	-3.93
245.078	51.37
245.295	28.84
245.512	4.27
245.729	-22.36
245.946	26.79
246.163	51.37
246.38	43.18
246.597	37.03
246.814	73.9
247.031	6.31
247.248	82.09
247.464	32.94
247.681	141.48
247.898	2.22
248.115	61.61
248.332	-10.07
248.549	69.8
248.766	71.85
248.983	-10.07
249.2	51.37
249.417	55.47
249.633	59.56
249.85	59.56
250.067	30.89
250.284	4.27
250.501	43.18
250.717	37.03
250.934	6.31
251.151	55.47
251.368	12.46
251.585	75.95
251.801	2.22
252.018	92.33
252.235	71.85
252.451	-16.21
252.668	20.65
252.885	94.38
253.102	55.47
253.318	43.18
253.535	32.94
253.752	-38.74
253.968	-8.02
254.185	26.79
254.401	75.95
254.618	75.95
254.835	2.22
255.051	94.38
255.268	16.55
255.484	-28.5
255.701	34.99
255.917	69.8
256.134	51.37
256.351	0.17
256.567	2.22
256.784	14.51
257	8.36
257.217	34.99
257.433	12.46
257.65	100.52
257.866	59.56
258.082	-5.97
258.299	67.75
258.515	96.43
258.732	-42.84
258.948	71.85
259.165	53.42
259.381	41.13
259.597	88.23
259.814	-22.36
260.03	-22.36
260.246	82.09
260.463	61.61
260.679	65.71
260.895	-38.74
261.112	125.1
261.328	71.85
261.544	-10.07
261.761	59.56
261.977	59.56
262.193	-77.65
262.409	43.18
262.626	2.22
262.842	75.95
263.058	4.27
263.274	77.99
263.49	-14.17
263.707	43.18
263.923	4.27
264.139	47.27
264.355	100.52
264.571	55.47
264.787	45.23
265.004	96.43
265.22	43.18
265.436	34.99
265.652	37.03
265.868	12.46
266.084	8.36
266.3	63.66
266.516	4.27
266.732	18.6
266.948	-12.12
267.164	4.27
267.38	18.6
267.596	-51.03
267.812	24.75
268.028	92.33
268.244	28.84
268.46	26.79
268.676	45.23
268.892	88.23
269.108	37.03
269.324	-12.12
269.54	53.42
269.756	69.8
269.972	-91.99
270.188	59.56
270.403	8.36
270.619	28.84
270.835	53.42
271.051	84.14
271.267	-20.31
271.483	-14.17
271.698	39.08
271.914	22.7
272.13	63.66
272.346	-30.55
272.562	75.95
272.777	-14.17
272.993	-5.97
273.209	-1.88
273.425	51.37
273.64	-48.98
273.856	94.38
274.072	98.47
274.287	22.7
274.503	92.33
274.719	96.43
274.934	41.13
275.15	-59.22
275.366	45.23
275.581	-8.02
275.797	45.23
276.012	59.56
276.228	45.23
276.444	43.18
276.659	80.04
276.875	-22.36
277.09	51.37
277.306	2.22
277.521	10.41
277.737	-75.6
277.952	57.51
278.168	80.04
278.383	26.79
278.599	41.13
278.814	59.56
279.03	77.99
279.245	125.1
279.461	-10.07
279.676	26.79
279.892	63.66
280.107	43.18
280.322	-42.84
280.538	24.75
280.753	34.99
280.969	37.03
281.184	12.46
281.399	32.94
281.615	-5.97
281.83	43.18
282.045	-96.08
282.26	-10.07
282.476	39.08
282.691	133.29
282.906	84.14
283.122	34.99
283.337	45.23
283.552	75.95
283.767	39.08
283.983	71.85
284.198	82.09
284.413	37.03
284.628	-38.74
284.843	69.8
285.058	49.32
285.274	96.43
285.489	55.47
285.704	80.04
285.919	0.17
286.134	51.37
286.349	18.6
286.564	14.51
286.779	67.75
286.995	34.99
287.21	32.94
287.425	-10.07
287.64	41.13
287.855	-24.4
288.07	51.37
288.285	73.9
288.5	6.31
288.715	53.42
288.93	30.89
289.145	39.08
289.36	-12.12
289.575	45.23
289.79	-63.32
290.004	94.38
290.219	67.75
290.434	18.6
290.649	6.31
290.864	90.28
291.079	34.99
291.294	-14.17
291.509	37.03
291.724	14.51
291.938	8.36
292.153	143.53
292.368	86.19
292.583	108.71
292.798	108.71
293.012	37.03
293.227	45.23
293.442	43.18
293.657	59.56
293.871	100.52
294.086	-5.97
294.301	28.84
294.516	86.19
294.73	121
294.945	-10.07
295.16	22.7
295.374	88.23
295.589	67.75
295.804	110.76
296.018	-14.17
296.233	61.61
296.447	84.14
296.662	-51.03
296.877	65.71
297.091	12.46
297.306	51.37
297.52	-28.5
297.735	-55.12
297.949	82.09
298.164	45.23
298.378	75.95
298.593	-10.07
298.807	-20.31
299.022	-3.93
299.236	45.23
299.451	-61.27
299.665	18.6
299.88	61.61
300.094	-55.12
300.309	34.99
300.523	43.18
300.737	34.99
300.952	32.94
301.166	59.56
301.381	10.41
301.595	112.81
301.809	30.89
302.024	-28.5
302.238	32.94
302.452	-10.07
302.667	26.79
302.881	63.66
303.095	-30.55
303.309	-94.04
303.524	-12.12
303.738	110.76
303.952	-46.93
304.166	12.46
304.381	-71.51
304.595	57.51
304.809	12.46
305.023	24.75
305.237	69.8
305.452	51.37
305.666	94.38
305.88	67.75
306.094	24.75
306.308	-12.12
306.522	100.52
306.736	73.9
306.95	43.18
307.164	59.56
307.379	-32.6
307.593	75.95
307.807	4.27
308.021	71.85
308.235	86.19
308.449	18.6
308.663	-8.02
308.877	96.43
309.091	77.99
309.305	63.66
309.519	-12.12
309.733	94.38
309.947	-102.23
310.161	-5.97
310.374	88.23
310.588	108.71
310.802	18.6
311.016	8.36
311.23	-1.88
311.444	14.51
311.658	116.9
311.872	96.43
312.085	4.27
312.299	53.42
312.513	-18.26
312.727	43.18
312.941	57.51
313.154	61.61
313.368	18.6
313.582	82.09
313.796	92.33
314.009	-69.46
314.223	43.18
314.437	43.18
314.651	59.56
314.864	57.51
315.078	26.79
315.292	-38.74
315.505	45.23
315.719	4.27
315.933	45.23
316.146	26.79
316.36	51.37
316.573	75.95
316.787	18.6
317.001	92.33
317.214	14.51
317.428	112.81
317.641	2.22
317.855	43.18
318.068	47.27
318.282	45.23
318.495	63.66
318.709	69.8
318.922	12.46
319.136	94.38
319.349	63.66
319.563	26.79
319.776	26.79
319.99	18.6
320.203	32.94
320.417	-12.12
320.63	69.8
320.843	100.52
321.057	37.03
321.27	-1.88
321.483	92.33
321.697	116.9
321.91	-30.55
322.124	26.79
322.337	-16.21
322.55	77.99
322.763	26.79
322.977	-3.93
323.19	22.7
323.403	77.99
323.617	77.99
323.83	20.65
324.043	10.41
324.256	12.46
324.469	-22.36
324.683	41.13
324.896	8.36
325.109	18.6
325.322	-26.45
325.535	77.99
325.748	22.7
325.962	10.41
326.175	51.37
326.388	26.79
326.601	53.42
326.814	53.42
327.027	-38.74
327.24	55.47
327.453	-55.12
327.666	2.22
327.879	43.18
328.092	80.04
328.305	59.56
328.518	4.27
328.731	-12.12
328.944	-30.55
329.157	59.56
329.37	88.23
329.583	114.86
329.796	59.56
330.009	-5.97
330.222	67.75
330.435	-12.12
330.648	71.85
330.861	-16.21
331.073	37.03
331.286	45.23
331.499	118.95
331.712	-32.6
331.925	82.09
332.138	-22.36
332.35	92.33
332.563	-18.26
332.776	88.23
332.989	55.47
333.202	43.18
333.414	45.23
333.627	59.56
333.84	16.55
334.053	55.47
334.265	34.99
334.478	61.61
334.691	-16.21
334.903	34.99
335.116	59.56
335.329	69.8
335.541	59.56
335.754	96.43
335.966	63.66
336.179	51.37
336.392	34.99
336.604	39.08
336.817	108.71
337.029	63.66
337.242	10.41
337.454	-1.88
337.667	34.99
337.88	86.19
338.092	43.18
338.305	43.18
338.517	59.56
338.729	-12.12
338.942	37.03
339.154	94.38
339.367	37.03
339.579	53.42
339.792	112.81
340.004	90.28
340.217	-32.6
340.429	14.51
340.641	51.37
340.854	6.31
341.066	10.41
341.278	43.18
341.491	86.19
341.703	121
341.915	12.46
342.128	77.99
342.34	-3.93
342.552	34.99
342.764	84.14
342.977	28.84
343.189	94.38
343.401	51.37
343.613	-24.4
343.826	75.95
344.038	10.41
344.25	10.41
344.462	-8.02
344.674	47.27
344.886	12.46
345.099	84.14
345.311	143.53
345.523	-10.07
345.735	34.99
345.947	30.89
346.159	100.52
346.371	59.56
346.583	34.99
346.795	92.33
347.007	-12.12
347.219	4.27
347.431	22.7
347.643	108.71
347.855	-16.21
348.067	116.9
348.279	43.18
348.491	6.31
348.703	14.51
348.915	94.38
349.127	75.95
349.339	86.19
349.551	43.18
349.763	112.81
349.975	69.8
350.187	14.51
350.399	-18.26
350.61	2.22
350.822	30.89
351.034	77.99
351.246	-24.4
351.458	69.8
351.669	28.84
351.881	-3.93
352.093	69.8
352.305	37.03
352.517	77.99
352.728	30.89
352.94	88.23
353.152	51.37
353.363	67.75
353.575	22.7
353.787	12.46
353.999	34.99
354.21	125.1
354.422	0.17
354.633	8.36
354.845	69.8
355.057	84.14
355.268	84.14
355.48	75.95
355.692	43.18
355.903	96.43
356.115	10.41
356.326	-71.51
356.538	96.43
356.749	18.6
356.961	118.95
357.172	39.08
357.384	84.14
357.595	104.62
357.807	43.18
358.018	-18.26
358.23	63.66
358.441	104.62
358.653	118.95
358.864	34.99
359.075	-5.97
359.287	-44.88
359.498	98.47
359.709	86.19
359.921	98.47
360.132	2.22
360.344	26.79
360.555	100.52
360.766	69.8
360.977	26.79
361.189	118.95
361.4	-10.07
361.611	28.84
361.823	43.18
362.034	61.61
362.245	32.94
362.456	61.61
362.667	28.84
362.879	63.66
363.09	55.47
363.301	61.61
363.512	-14.17
363.723	2.22
363.935	88.23
364.146	59.56
364.357	26.79
364.568	41.13
364.779	43.18
364.99	100.52
365.201	102.57
365.412	61.61
365.623	34.99
365.834	20.65
366.045	12.46
366.256	26.79
366.467	143.53
366.678	45.23
366.889	39.08
367.1	-3.93
367.311	51.37
367.522	-8.02
367.733	82.09
367.944	71.85
368.155	-5.97
368.366	41.13
368.577	116.9
368.788	96.43
368.999	-1.88
369.209	67.75
369.42	67.75
369.631	104.62
369.842	71.85
370.053	8.36
370.264	26.79
370.474	39.08
370.685	2.22
370.896	-5.97
371.107	159.91
371.317	10.41
371.528	-1.88
371.739	84.14
371.95	67.75
372.16	82.09
372.371	43.18
372.582	59.56
372.792	14.51
373.003	75.95
373.214	53.42
373.424	75.95
373.635	10.41
373.846	88.23
374.056	67.75
374.267	116.9
374.477	53.42
374.688	2.22
374.898	53.42
375.109	47.27
375.319	125.1
375.53	30.89
375.74	41.13
375.951	-3.93
376.161	47.27
376.372	84.14
376.582	37.03
376.793	112.81
377.003	34.99
377.214	86.19
377.424	49.32
377.635	102.57
377.845	-5.97
378.055	123.05
378.266	-38.74
378.476	26.79
378.686	0.17
378.897	61.61
379.107	55.47
379.317	86.19
379.528	92.33
379.738	16.55
379.948	59.56
380.158	67.75
380.369	82.09
380.579	182.44
380.789	43.18
380.999	51.37
381.21	86.19
381.42	133.29
381.63	16.55
381.84	108.71
382.05	57.51
382.261	28.84
382.471	94.38
382.681	-20.31
382.891	116.9
383.101	100.52
383.311	-34.64
383.521	22.7
383.731	61.61
383.941	-3.93
384.151	37.03
384.361	-22.36
384.571	67.75
384.781	63.66
384.991	121
385.201	133.29
385.411	92.33
385.621	75.95
385.831	51.37
386.041	98.47
386.251	84.14
386.461	6.31
386.671	63.66
386.881	61.61
387.091	26.79
387.301	77.99
387.511	82.09
387.72	75.95
387.93	8.36
388.14	-30.55
388.35	84.14
388.56	86.19
388.769	176.3
388.979	63.66
389.189	-1.88
389.399	71.85
389.609	28.84
389.818	129.19
390.028	69.8
390.238	69.8
390.447	-38.74
390.657	127.14
390.867	6.31
391.076	-30.55
391.286	26.79
391.496	61.61
391.705	26.79
391.915	88.23
392.125	67.75
392.334	80.04
392.544	106.67
392.753	108.71
392.963	84.14
393.172	108.71
393.382	30.89
393.591	143.53
393.801	77.99
394.01	125.1
394.22	116.9
394.429	61.61
394.639	71.85
394.848	102.57
395.058	53.42
395.267	12.46
395.477	94.38
395.686	125.1
395.895	88.23
396.105	153.77
396.314	125.1
396.524	118.95
396.733	71.85
396.942	84.14
397.152	92.33
397.361	92.33
397.57	63.66
397.78	92.33
397.989	116.9
398.198	168.1
398.407	151.72
398.617	112.81
398.826	75.95
399.035	114.86
399.244	133.29
399.453	63.66
399.663	75.95
399.872	155.82
400.081	90.28
400.29	131.24
400.499	51.37
400.708	133.29
400.917	106.67
401.127	112.81
401.336	59.56
401.545	200.87
401.754	178.34
401.963	184.49
402.172	149.67
402.381	110.76
402.59	90.28
402.799	141.48
403.008	184.49
403.217	106.67
403.426	84.14
403.635	153.77
403.844	75.95
404.053	127.14
404.262	139.43
404.471	215.21
404.68	133.29
404.888	116.9
405.097	92.33
405.306	182.44
405.515	178.34
405.724	153.77
405.933	145.58
406.142	164.01
406.35	168.1
406.559	217.26
406.768	170.15
406.977	149.67
407.185	243.88
407.394	118.95
407.603	211.11
407.812	266.41
408.02	231.59
408.229	221.35
408.438	280.74
408.646	149.67
408.855	250.02
409.064	247.97
409.272	239.78
409.481	305.32
409.69	317.61
409.898	272.55
410.107	379.04
410.315	346.28
410.524	323.75
410.733	395.43
410.941	370.85
411.15	411.81
411.358	356.52
411.567	450.72
411.775	415.91
411.984	452.77
412.192	452.77
412.401	383.14
412.609	559.27
412.818	534.69
413.026	555.17
413.234	602.27
413.443	592.03
413.651	546.98
413.86	573.6
414.068	669.86
414.276	690.34
414.485	630.95
414.693	790.69
414.901	770.21
415.11	766.11
415.318	766.11
415.526	778.4
415.734	895.13
415.943	790.69
416.151	917.66
416.359	968.86
416.567	915.61
416.776	895.13
416.984	1063.07
417.192	989.34
417.4	1044.63
417.608	1034.39
417.817	1034.39
418.025	1251.48
418.233	1366.17
418.441	1181.85
418.649	1249.43
418.857	1339.54
419.065	1378.45
419.273	1470.61
419.481	1478.8
419.689	1656.98
419.897	1601.68
420.105	1566.87
420.313	1634.45
420.521	1591.44
420.729	1835.15
420.937	1841.29
421.145	1958.03
421.353	2123.91
421.561	2042
421.769	2140.3
421.977	2287.75
422.185	2220.17
422.393	2418.82
422.601	2386.05
422.809	2517.12
423.017	2508.93
423.224	2615.43
423.432	2762.88
423.64	2672.77
423.848	2979.97
424.056	2820.22
424.263	3082.36
424.471	3115.13
424.679	3104.89
424.887	3254.39
425.094	3418.23
425.302	3446.9
425.51	3704.95
425.718	3698.8
425.925	3756.15
426.133	3852.4
426.341	4204.65
426.548	4155.5
426.756	4149.36
426.964	4274.28
427.171	4520.04
427.379	4679.78
427.586	4716.64
427.794	4780.13
428.001	4982.88
428.209	5408.86
428.417	5146.72
428.624	5523.54
428.832	5513.3
429.039	5552.21
429.247	5615.7
429.454	6068.3
429.662	6408.26
429.869	6137.93
430.076	6420.55
430.284	6285.39
430.491	6649.93
430.699	6932.54
430.906	7094.33
431.114	7088.19
431.321	7186.49
431.528	7477.3
431.736	7944.24
431.943	8247.34
432.15	7942.19
432.358	8155.18
432.565	8509.48
432.772	8470.57
432.979	8906.79
433.187	9107.49
433.394	9152.54
433.601	9785.37
433.808	9678.87
434.016	9795.61
434.223	10092.56
434.43	10561.55
434.637	10541.07
434.844	11046.91
435.052	11503.61
435.259	11280.38
435.466	11421.69
435.673	11104.26
435.88	11978.74
436.087	12527.6
436.294	12535.79
436.501	12556.27
436.708	12593.13
436.915	12910.57
437.122	13520.86
437.329	13457.37
437.537	13967.32
437.743	14241.75
437.95	14143.44
438.157	14755.79
438.364	15321.02
438.571	15208.39
438.778	15239.11
438.985	16592.81
439.192	15857.59
439.399	16517.04
439.606	16097.21
439.813	17084.33
440.02	17905.56
440.227	17590.17
440.433	17760.16
440.64	18057.11
440.847	17964.95
441.054	18601.87
441.261	19793.79
441.467	19455.87
441.674	19785.6
441.881	20780.91
442.088	20492.15
442.294	20219.77
442.501	20866.92
442.708	21297
442.914	21905.24
443.121	22882.13
443.328	22374.23
443.534	23844.67
443.741	23340.87
443.948	22927.18
444.154	24790.83
444.361	24407.86
444.568	24420.15
444.774	24643.38
444.981	25028.4
445.187	25732.9
445.394	26867.47
445.6	26408.73
445.807	28755.7
446.013	27674.37
446.22	28188.41
446.426	29222.64
446.633	29007.6
446.839	30346.97
447.046	29019.89
447.252	31053.52
447.459	30805.72
447.665	30590.68
447.871	31786.69
448.078	33627.82
448.284	31846.08
448.491	32741.05
448.697	33775.27
448.903	34268.83
449.11	34545.31
449.316	34397.85
449.522	34623.13
449.728	35462.8
449.935	35733.13
450.141	35833.48
450.347	36492.93
450.553	35585.68
450.76	35909.25
450.966	37035.64
451.172	36816.5
451.378	37576.3
451.584	36896.38
451.791	37721.71
451.997	37099.12
452.203	38334.05
452.409	38000.23
452.615	38153.83
452.821	36550.27
453.027	36173.44
453.233	38057.57
453.44	36597.37
453.646	36884.09
453.852	37133.94
454.058	37396.08
454.264	36736.63
454.47	37318.26
454.676	36099.72
454.882	37574.25
455.088	34512.54
455.294	34840.22
455.5	35251.86
455.705	35823.24
455.911	34481.82
456.117	33660.59
456.323	32937.65
456.529	31172.3
456.735	32974.52
456.941	32216.77
457.147	31246.03
457.352	30238.43
457.558	30242.53
457.764	30056.16
457.97	29173.49
458.176	28901.11
458.381	28702.45
458.587	27473.67
458.793	27588.36
458.999	25714.47
459.204	27899.65
459.41	27195.15
459.616	25110.32
459.821	25372.46
460.027	25087.79
460.233	24608.56
460.438	23408.45
460.644	23680.83
460.85	22792.01
461.055	22042.46
461.261	22042.46
461.466	20440.95
461.672	19758.97
461.878	21337.96
462.083	19844.99
462.289	19500.93
462.494	19349.38
462.7	18497.42
462.905	17868.7
463.111	18200.47
463.316	18687.89
463.522	18073.49
463.727	18214.8
463.932	18132.89
464.138	18018.2
464.343	17876.89
464.549	17596.32
464.754	18151.32
464.959	17743.77
465.165	17774.49
465.37	16875.43
465.575	16484.27
465.781	17168.29
465.986	17336.23
466.191	16562.09
466.397	16195.51
466.602	15767.48
466.807	16041.91
467.012	15972.28
