Data from USB4F104151__111__14-31-08-537.txt Node

Date: Thu Mar 13 14:31:08 EDT 2025
User: louis
Spectrometer: USB4F10415
Trigger mode: 4
Integration Time (sec): 2.500000E-2
Scans to average: 1
Electric dark correction enabled: true
Nonlinearity correction enabled: false
Boxcar width: 0
XAxis mode: Wavelengths
Number of Pixels in Spectrum: 3648
>>>>>Begin Spectral Data<<<<<
178.204	-183.63
178.424	-183.63
178.644	-183.63
178.864	-177.49
179.084	-173.39
179.304	-44.37
179.524	4.78
179.744	-13.65
179.964	60.07
180.184	27.31
180.404	82.6
180.624	-60.76
180.844	29.35
181.064	-118.1
181.283	-42.32
181.503	70.31
181.723	4.78
181.943	-44.37
182.163	23.21
182.383	29.35
182.602	-15.7
182.822	-19.8
183.042	41.64
183.262	29.35
183.482	-44.37
183.701	53.93
183.921	43.69
184.141	-93.52
184.361	72.36
184.58	-30.04
184.8	-11.61
185.02	-32.08
185.239	-3.41
185.459	-17.75
185.679	31.4
185.898	-27.99
186.118	45.74
186.338	-81.24
186.557	-7.51
186.777	8.87
186.997	58.03
187.216	-54.61
187.436	-3.41
187.655	-15.7
187.875	29.35
188.095	-27.99
188.314	113.32
188.534	66.22
188.753	45.74
188.973	37.55
189.192	-36.18
189.412	15.02
189.631	86.7
189.851	-40.28
190.07	55.98
190.29	27.31
190.509	55.98
190.729	-3.41
190.948	45.74
191.168	213.67
191.387	62.12
191.607	47.79
191.826	-25.94
192.045	96.94
192.265	58.03
192.484	-11.61
192.704	-30.04
192.923	-27.99
193.142	64.17
193.362	76.46
193.581	78.51
193.8	8.87
194.02	27.31
194.239	68.27
194.458	-68.95
194.678	-11.61
194.897	-44.37
195.116	51.88
195.335	45.74
195.555	58.03
195.774	-7.51
195.993	27.31
196.212	-34.13
196.432	-25.94
196.651	-79.19
196.87	31.4
197.089	131.75
197.308	64.17
197.528	17.07
197.747	-54.61
197.966	-34.13
198.185	15.02
198.404	-25.94
198.623	55.98
198.842	70.31
199.062	55.98
199.281	8.87
199.5	-3.41
199.719	-25.94
199.938	-9.56
200.157	35.5
200.376	49.83
200.595	82.6
200.814	-15.7
201.033	-11.61
201.252	82.6
201.471	58.03
201.69	37.55
201.909	-25.94
202.128	12.97
202.347	4.78
202.566	70.31
202.785	45.74
203.004	17.07
203.223	33.45
203.442	-5.46
203.661	37.55
203.879	60.07
204.098	76.46
204.317	-66.9
204.536	-3.41
204.755	37.55
204.974	-11.61
205.193	70.31
205.411	62.12
205.63	-23.89
205.849	119.46
206.068	15.02
206.287	29.35
206.505	86.7
206.724	-32.08
206.943	37.55
207.162	-19.8
207.381	37.55
207.599	78.51
207.818	66.22
208.037	4.78
208.255	92.84
208.474	21.16
208.693	-3.41
208.911	17.07
209.13	-42.32
209.349	-1.37
209.567	86.7
209.786	21.16
210.005	21.16
210.223	53.93
210.442	-36.18
210.661	45.74
210.879	72.36
211.098	29.35
211.316	-1.37
211.535	4.78
211.753	-17.75
211.972	53.93
212.191	12.97
212.409	-17.75
212.628	4.78
212.846	-25.94
213.065	33.45
213.283	70.31
213.502	8.87
213.72	12.97
213.938	33.45
214.157	-15.7
214.375	39.59
214.594	21.16
214.812	33.45
215.031	21.16
215.249	-11.61
215.467	23.21
215.686	-32.08
215.904	82.6
216.122	-62.8
216.341	117.42
216.559	-34.13
216.778	53.93
216.996	27.31
217.214	-7.51
217.432	-64.85
217.651	23.21
217.869	-9.56
218.087	66.22
218.306	-1.37
218.524	-36.18
218.742	15.02
218.96	23.21
219.179	15.02
219.397	47.79
219.615	94.89
219.833	-21.85
220.051	12.97
220.27	29.35
220.488	37.55
220.706	23.21
220.924	78.51
221.142	-1.37
221.36	62.12
221.578	0.68
221.796	-25.94
222.015	-15.7
222.233	39.59
222.451	70.31
222.669	-34.13
222.887	31.4
223.105	123.56
223.323	-17.75
223.541	47.79
223.759	47.79
223.977	-42.32
224.195	55.98
224.413	66.22
224.631	119.46
224.849	-11.61
225.067	62.12
225.285	10.92
225.503	-27.99
225.721	-42.32
225.939	4.78
226.157	-56.66
226.375	78.51
226.592	15.02
226.81	-1.37
227.028	37.55
227.246	119.46
227.464	29.35
227.682	4.78
227.9	45.74
228.117	-40.28
228.335	29.35
228.553	-23.89
228.771	-21.85
228.989	-17.75
229.206	66.22
229.424	12.97
229.642	-56.66
229.86	-36.18
230.077	6.83
230.295	-40.28
230.513	19.11
230.731	29.35
230.948	31.4
231.166	10.92
231.384	90.79
231.601	53.93
231.819	127.66
232.037	82.6
232.254	-7.51
232.472	12.97
232.689	-42.32
232.907	62.12
233.125	-85.33
233.342	12.97
233.56	-40.28
233.777	-1.37
233.995	-66.9
234.213	31.4
234.43	12.97
234.648	29.35
234.865	-19.8
235.083	12.97
235.3	33.45
235.518	-25.94
235.735	41.64
235.953	86.7
236.17	-48.47
236.388	4.78
236.605	45.74
236.822	23.21
237.04	15.02
237.257	58.03
237.475	6.83
237.692	45.74
237.909	-23.89
238.127	-83.28
238.344	21.16
238.562	41.64
238.779	-25.94
238.996	23.21
239.214	51.88
239.431	19.11
239.648	4.78
239.865	29.35
240.083	66.22
240.3	53.93
240.517	4.78
240.735	62.12
240.952	70.31
241.169	121.51
241.386	-27.99
241.603	4.78
241.821	-32.08
242.038	90.79
242.255	31.4
242.472	-83.28
242.689	15.02
242.907	-23.89
243.124	-44.37
243.341	58.03
243.558	17.07
243.775	4.78
243.992	25.26
244.209	94.89
244.426	39.59
244.643	82.6
244.86	29.35
245.078	31.4
245.295	66.22
245.512	23.21
245.729	-1.37
245.946	37.55
246.163	-3.41
246.38	78.51
246.597	4.78
246.814	-11.61
247.031	0.68
247.248	37.55
247.464	37.55
247.681	33.45
247.898	62.12
248.115	70.31
248.332	2.73
248.549	-30.04
248.766	39.59
248.983	88.75
249.2	8.87
249.417	64.17
249.633	92.84
249.85	37.55
250.067	29.35
250.284	-40.28
250.501	-19.8
250.717	66.22
250.934	4.78
251.151	60.07
251.368	-3.41
251.585	41.64
251.801	-77.14
252.018	27.31
252.235	37.55
252.451	49.83
252.668	4.78
252.885	37.55
253.102	-36.18
253.318	31.4
253.535	-23.89
253.752	-75.09
253.968	-36.18
254.185	23.21
254.401	-9.56
254.618	-3.41
254.835	45.74
255.051	105.13
255.268	-34.13
255.484	-17.75
255.701	-3.41
255.917	70.31
256.134	45.74
256.351	-36.18
256.567	-11.61
256.784	82.6
257	4.78
257.217	94.89
257.433	94.89
257.65	4.78
257.866	64.17
258.082	-17.75
258.299	15.02
258.515	-9.56
258.732	-13.65
258.948	-19.8
259.165	2.73
259.381	-19.8
259.597	15.02
259.814	21.16
260.03	55.98
260.246	12.97
260.463	41.64
260.679	80.55
260.895	-7.51
261.112	37.55
261.328	-32.08
261.544	-50.52
261.761	62.12
261.977	27.31
262.193	-32.08
262.409	15.02
262.626	-3.41
262.842	76.46
263.058	29.35
263.274	39.59
263.49	66.22
263.707	51.88
263.923	70.31
264.139	-23.89
264.355	53.93
264.571	45.74
264.787	43.69
265.004	21.16
265.22	19.11
265.436	103.08
265.652	-48.47
265.868	4.78
266.084	39.59
266.3	4.78
266.516	-3.41
266.732	39.59
266.948	-23.89
267.164	105.13
267.38	4.78
267.596	33.45
267.812	15.02
268.028	86.7
268.244	-19.8
268.46	25.26
268.676	-3.41
268.892	80.55
269.108	-9.56
269.324	51.88
269.54	-58.71
269.756	94.89
269.972	-15.7
270.188	62.12
270.403	10.92
270.619	64.17
270.835	-11.61
271.051	21.16
271.267	33.45
271.483	8.87
271.698	4.78
271.914	19.11
272.13	82.6
272.346	12.97
272.562	27.31
272.777	31.4
272.993	-11.61
273.209	-1.37
273.425	8.87
273.64	60.07
273.856	84.65
274.072	-1.37
274.287	-34.13
274.503	62.12
274.719	-1.37
274.934	45.74
275.15	-93.52
275.366	33.45
275.581	-34.13
275.797	45.74
276.012	45.74
276.228	23.21
276.444	0.68
276.659	4.78
276.875	-46.42
277.09	33.45
277.306	-50.52
277.521	78.51
277.737	78.51
277.952	-7.51
278.168	-7.51
278.383	88.75
278.599	15.02
278.814	105.13
279.03	-19.8
279.245	86.7
279.461	-15.7
279.676	47.79
279.892	37.55
280.107	-11.61
280.322	-23.89
280.538	6.83
280.753	12.97
280.969	0.68
281.184	66.22
281.399	70.31
281.615	121.51
281.83	0.68
282.045	76.46
282.26	12.97
282.476	31.4
282.691	-9.56
282.906	0.68
283.122	4.78
283.337	-40.28
283.552	55.98
283.767	-3.41
283.983	21.16
284.198	-32.08
284.413	98.99
284.628	-64.85
284.843	-19.8
285.058	41.64
285.274	58.03
285.489	-83.28
285.704	78.51
285.919	-17.75
286.134	72.36
286.349	45.74
286.564	-42.32
286.779	125.61
286.995	-5.46
287.21	19.11
287.425	103.08
287.64	41.64
287.855	51.88
288.07	23.21
288.285	-13.65
288.5	94.89
288.715	58.03
288.93	33.45
289.145	45.74
289.36	4.78
289.575	6.83
289.79	27.31
290.004	88.75
290.219	86.7
290.434	74.41
290.649	21.16
290.864	35.5
291.079	23.21
291.294	-5.46
291.509	29.35
291.724	49.83
291.938	-34.13
292.153	53.93
292.368	-58.71
292.583	41.64
292.798	29.35
293.012	12.97
293.227	17.07
293.442	41.64
293.657	47.79
293.871	70.31
294.086	53.93
294.301	70.31
294.516	21.16
294.73	-15.7
294.945	37.55
295.16	94.89
295.374	4.78
295.589	78.51
295.804	33.45
296.018	29.35
296.233	72.36
296.447	72.36
296.662	12.97
296.877	70.31
297.091	94.89
297.306	70.31
297.52	-25.94
297.735	53.93
297.949	53.93
298.164	107.18
298.378	10.92
298.593	51.88
298.807	98.99
299.022	-42.32
299.236	-73.04
299.451	41.64
299.665	21.16
299.88	53.93
300.094	78.51
300.309	43.69
300.523	2.73
300.737	-34.13
300.952	39.59
301.166	23.21
301.381	80.55
301.595	39.59
301.809	76.46
302.024	4.78
302.238	-19.8
302.452	-75.09
302.667	21.16
302.881	49.83
303.095	64.17
303.309	92.84
303.524	-42.32
303.738	15.02
303.952	-7.51
304.166	78.51
304.381	-58.71
304.595	12.97
304.809	-7.51
305.023	37.55
305.237	35.5
305.452	-27.99
305.666	107.18
305.88	64.17
306.094	66.22
306.308	12.97
306.522	37.55
306.736	19.11
306.95	31.4
307.164	2.73
307.379	27.31
307.593	62.12
307.807	12.97
308.021	-3.41
308.235	23.21
308.449	62.12
308.663	-32.08
308.877	66.22
309.091	62.12
309.305	88.75
309.519	6.83
309.733	23.21
309.947	-19.8
310.161	21.16
310.374	80.55
310.588	33.45
310.802	17.07
311.016	-3.41
311.23	12.97
311.444	6.83
311.658	4.78
311.872	4.78
312.085	45.74
312.299	70.31
312.513	76.46
312.727	80.55
312.941	-81.24
313.154	84.65
313.368	49.83
313.582	49.83
313.796	-9.56
314.009	-15.7
314.223	88.75
314.437	17.07
314.651	53.93
314.864	21.16
315.078	21.16
315.292	-11.61
315.505	107.18
315.719	88.75
315.933	12.97
316.146	-54.61
316.36	8.87
316.573	23.21
316.787	49.83
317.001	72.36
317.214	-42.32
317.428	10.92
317.641	82.6
317.855	-52.56
318.068	-40.28
318.282	62.12
318.495	105.13
318.709	62.12
318.922	10.92
319.136	45.74
319.349	-19.8
319.563	17.07
319.776	10.92
319.99	-11.61
320.203	53.93
320.417	105.13
320.63	-5.46
320.843	78.51
321.057	29.35
321.27	-34.13
321.483	94.89
321.697	35.5
321.91	35.5
322.124	-9.56
322.337	88.75
322.55	-81.24
322.763	27.31
322.977	12.97
323.19	58.03
323.403	17.07
323.617	-38.23
323.83	72.36
324.043	-23.89
324.256	41.64
324.469	-19.8
324.683	4.78
324.896	47.79
325.109	15.02
325.322	-58.71
325.535	53.93
325.748	33.45
325.962	-32.08
326.175	82.6
326.388	53.93
326.601	76.46
326.814	37.55
327.027	62.12
327.24	113.32
327.453	-36.18
327.666	55.98
327.879	64.17
328.092	47.79
328.305	29.35
328.518	70.31
328.731	15.02
328.944	-48.47
329.157	62.12
329.37	19.11
329.583	12.97
329.796	47.79
330.009	-36.18
330.222	62.12
330.435	8.87
330.648	62.12
330.861	23.21
331.073	70.31
331.286	-11.61
331.499	25.26
331.712	39.59
331.925	113.32
332.138	6.83
332.35	23.21
332.563	-3.41
332.776	-36.18
332.989	-3.41
333.202	4.78
333.414	45.74
333.627	-9.56
333.84	15.02
334.053	6.83
334.265	47.79
334.478	41.64
334.691	-1.37
334.903	66.22
335.116	-32.08
335.329	4.78
335.541	53.93
335.754	76.46
335.966	25.26
336.179	29.35
336.392	-9.56
336.604	-3.41
336.817	31.4
337.029	23.21
337.242	55.98
337.454	4.78
337.667	62.12
337.88	51.88
338.092	8.87
338.305	94.89
338.517	12.97
338.729	12.97
338.942	62.12
339.154	43.69
339.367	4.78
339.579	12.97
339.792	-73.04
340.004	37.55
340.217	-23.89
340.429	-3.41
340.641	53.93
340.854	76.46
341.066	-11.61
341.278	72.36
341.491	101.03
341.703	58.03
341.915	-27.99
342.128	82.6
342.34	29.35
342.552	21.16
342.764	-19.8
342.977	4.78
343.189	33.45
343.401	45.74
343.613	55.98
343.826	90.79
344.038	25.26
344.25	127.66
344.462	70.31
344.674	-48.47
344.886	82.6
345.099	6.83
345.311	49.83
345.523	33.45
345.735	-3.41
345.947	6.83
346.159	53.93
346.371	53.93
346.583	-9.56
346.795	111.27
347.007	12.97
347.219	6.83
347.431	49.83
347.643	17.07
347.855	6.83
348.067	47.79
348.279	-1.37
348.491	4.78
348.703	88.75
348.915	66.22
349.127	27.31
349.339	-17.75
349.551	-30.04
349.763	64.17
349.975	107.18
350.187	170.66
350.399	58.03
350.61	129.7
350.822	8.87
351.034	98.99
351.246	41.64
351.458	-3.41
351.669	70.31
351.881	103.08
352.093	29.35
352.305	70.31
352.517	47.79
352.728	68.27
352.94	80.55
353.152	33.45
353.363	27.31
353.575	55.98
353.787	66.22
353.999	62.12
354.21	51.88
354.422	-32.08
354.633	21.16
354.845	103.08
355.057	-58.71
355.268	66.22
355.48	47.79
355.692	-32.08
355.903	15.02
356.115	-13.65
356.326	74.41
356.538	172.71
356.749	49.83
356.961	94.89
357.172	86.7
357.384	-27.99
357.595	107.18
357.807	72.36
358.018	19.11
358.23	-11.61
358.441	37.55
358.653	70.31
358.864	4.78
359.075	4.78
359.287	12.97
359.498	45.74
359.709	82.6
359.921	10.92
360.132	53.93
360.344	8.87
360.555	37.55
360.766	23.21
360.977	-11.61
361.189	64.17
361.4	53.93
361.611	78.51
361.823	37.55
362.034	-11.61
362.245	45.74
362.456	-52.56
362.667	86.7
362.879	-3.41
363.09	78.51
363.301	53.93
363.512	-13.65
363.723	86.7
363.935	88.75
364.146	37.55
364.357	66.22
364.568	45.74
364.779	90.79
364.99	35.5
365.201	45.74
365.412	92.84
365.623	-36.18
365.834	103.08
366.045	12.97
366.256	62.12
366.467	37.55
366.678	4.78
366.889	17.07
367.1	-13.65
367.311	60.07
367.522	80.55
367.733	66.22
367.944	109.22
368.155	-15.7
368.366	74.41
368.577	127.66
368.788	49.83
368.999	62.12
369.209	6.83
369.42	94.89
369.631	113.32
369.842	88.75
370.053	27.31
370.264	111.27
370.474	-15.7
370.685	47.79
370.896	4.78
371.107	37.55
371.317	0.68
371.528	4.78
371.739	78.51
371.95	111.27
372.16	6.83
372.371	37.55
372.582	103.08
372.792	78.51
373.003	37.55
373.214	-13.65
373.424	103.08
373.635	-11.61
373.846	37.55
374.056	55.98
374.267	-19.8
374.477	4.78
374.688	19.11
374.898	-17.75
375.109	53.93
375.319	-21.85
375.53	51.88
375.74	29.35
375.951	-36.18
376.161	29.35
376.372	72.36
376.582	37.55
376.793	37.55
377.003	53.93
377.214	35.5
377.424	135.85
377.635	45.74
377.845	53.93
378.055	68.27
378.266	-30.04
378.476	33.45
378.686	0.68
378.897	58.03
379.107	58.03
379.317	98.99
379.528	62.12
379.738	51.88
379.948	115.37
380.158	45.74
380.369	58.03
380.579	55.98
380.789	15.02
380.999	105.13
381.21	37.55
381.42	86.7
381.63	31.4
381.84	55.98
382.05	-1.37
382.261	43.69
382.471	111.27
382.681	4.78
382.891	12.97
383.101	29.35
383.311	8.87
383.521	-1.37
383.731	98.99
383.941	41.64
384.151	113.32
384.361	70.31
384.571	-9.56
384.781	62.12
384.991	37.55
385.201	37.55
385.411	137.9
385.621	88.75
385.831	80.55
386.041	23.21
386.251	-9.56
386.461	168.62
386.671	33.45
386.881	62.12
387.091	17.07
387.301	139.94
387.511	66.22
387.72	51.88
387.93	21.16
388.14	29.35
388.35	-21.85
388.56	33.45
388.769	103.08
388.979	4.78
389.189	41.64
389.399	27.31
389.609	41.64
389.818	39.59
390.028	98.99
390.238	6.83
390.447	-40.28
390.657	21.16
390.867	82.6
391.076	-5.46
391.286	8.87
391.496	-25.94
391.705	45.74
391.915	88.75
392.125	17.07
392.334	53.93
392.544	94.89
392.753	53.93
392.963	111.27
393.172	76.46
393.382	39.59
393.591	152.23
393.801	78.51
394.01	96.94
394.22	119.46
394.429	31.4
394.639	6.83
394.848	135.85
395.058	84.65
395.267	127.66
395.477	29.35
395.686	72.36
395.895	131.75
396.105	148.14
396.314	88.75
396.524	58.03
396.733	64.17
396.942	131.75
397.152	98.99
397.361	117.42
397.57	139.94
397.78	185
397.989	74.41
398.198	156.33
398.407	144.04
398.617	154.28
398.826	146.09
399.035	148.14
399.244	160.42
399.453	129.7
399.663	156.33
399.872	129.7
400.081	29.35
400.29	103.08
400.499	80.55
400.708	115.37
400.917	105.13
401.127	146.09
401.336	119.46
401.545	225.96
401.754	103.08
401.963	176.81
402.172	62.12
402.381	107.18
402.59	49.83
402.799	115.37
403.008	193.19
403.217	162.47
403.426	135.85
403.635	152.23
403.844	135.85
404.053	203.43
404.262	180.9
404.471	225.96
404.68	176.81
404.888	144.04
405.097	146.09
405.306	225.96
405.515	160.42
405.724	152.23
405.933	191.14
406.142	203.43
406.35	303.78
406.559	207.53
406.768	234.15
406.977	281.25
407.185	289.45
407.394	275.11
407.603	228.01
407.812	205.48
408.02	287.4
408.229	303.78
408.438	215.72
408.646	266.92
408.855	287.4
409.064	330.41
409.272	318.12
409.481	406.18
409.69	277.16
409.898	365.22
410.107	488.1
410.315	375.46
410.524	367.27
410.733	391.84
410.941	418.47
411.15	393.89
411.358	471.72
411.567	555.68
411.775	479.91
411.984	522.91
412.192	670.37
412.401	484
412.609	520.87
412.818	580.26
413.026	635.55
413.234	709.28
413.443	580.26
413.651	641.7
413.86	645.79
414.068	760.48
414.276	821.92
414.485	783.01
414.693	823.97
414.901	955.04
415.11	844.45
415.318	916.12
415.526	991.9
415.734	991.9
415.943	963.23
416.151	1032.86
416.359	985.76
416.567	1116.83
416.776	1213.08
416.984	1307.29
417.192	1256.09
417.4	1237.66
417.608	1233.56
417.817	1374.87
418.025	1360.53
418.233	1563.28
418.441	1507.99
418.649	1514.13
418.857	1698.45
419.065	1706.64
419.273	1686.16
419.481	1743.5
419.689	1913.49
419.897	1972.88
420.105	1962.64
420.313	1956.49
420.521	1985.16
420.729	2108.04
420.937	2189.96
421.145	2325.13
421.353	2310.79
421.561	2495.11
421.769	2536.07
421.977	2556.55
422.185	2677.38
422.393	2902.65
422.601	2859.65
422.809	2927.23
423.017	3170.94
423.224	3080.83
423.432	3181.18
423.64	3236.47
423.848	3543.67
424.056	3279.48
424.263	3742.32
424.471	3764.85
424.679	3871.34
424.887	4026.99
425.094	4016.75
425.302	4231.79
425.51	4325.99
425.718	4303.46
425.925	4510.31
426.133	4485.73
426.341	4921.95
426.548	5061.21
426.756	5001.82
426.964	5132.89
427.171	5454.42
427.379	5597.78
427.586	5716.56
427.794	5913.17
428.001	6103.63
428.209	6472.26
428.417	6277.71
428.624	6781.51
428.832	6660.68
429.039	6681.16
429.247	6664.77
429.454	7320.12
429.662	7868.98
429.869	7385.66
430.076	7819.83
430.284	7545.4
430.491	7991.86
430.699	8315.44
430.906	8432.17
431.114	8604.2
431.321	8813.09
431.528	8935.97
431.736	9531.93
431.943	9884.18
432.15	9775.64
432.358	9675.29
432.565	10383.88
432.772	10265.1
432.979	10676.74
433.187	11063.81
433.394	11119.1
433.601	11837.94
433.808	11751.93
434.016	11829.75
434.223	12274.16
434.43	13111.78
434.637	12595.69
434.844	13531.61
435.052	13560.28
435.259	13791.7
435.466	13767.13
435.673	13703.64
435.88	14717.39
436.087	15428.03
436.294	15348.16
436.501	14965.19
436.708	15290.82
436.915	15509.95
437.122	16396.72
437.329	16556.46
437.537	17222.05
437.743	17394.08
437.95	16970.15
438.157	18174.36
438.364	18577.81
438.571	18481.55
438.778	18319.76
438.985	20375.92
439.192	19515.78
439.399	20257.14
439.606	19480.96
439.813	21176.68
440.02	22442.32
440.227	21334.37
440.433	21416.29
440.64	21864.8
440.847	21987.68
441.054	22782.29
441.261	24084.8
441.467	23791.94
441.674	24400.18
441.881	25295.14
442.088	24992.05
442.294	24736.05
442.501	25317.67
442.708	26028.32
442.914	27076.88
443.121	27969.79
443.328	27556.1
443.534	29194.48
443.741	28293.37
443.948	28197.12
444.154	30064.86
444.361	30185.69
444.568	29939.94
444.774	30073.06
444.981	30316.76
445.187	31172.81
445.394	32714.94
445.6	32198.85
445.807	35006.61
446.013	34039.97
446.22	34185.38
446.426	35952.77
446.633	35715.21
446.839	37171.32
447.046	35453.07
447.252	37816.43
447.459	37898.34
447.665	37611.63
447.871	39012.44
448.078	40835.13
448.284	39094.36
448.491	39882.83
448.697	41586.74
448.903	41869.36
449.11	41928.75
449.316	41379.89
449.522	42178.6
449.728	43393.04
449.935	43712.53
450.141	43968.52
450.347	44572.67
450.553	42895.39
450.76	43769.87
450.966	45074.43
451.172	44632.07
451.378	45844.46
451.584	44943.36
451.791	45645.81
451.997	45697.01
452.203	46737.38
452.409	46700.51
452.615	46485.48
452.821	44597.25
453.027	43915.28
453.233	46512.1
453.44	44625.92
453.646	44965.88
453.852	45205.5
454.058	46133.23
454.264	44550.15
454.47	45672.43
454.676	44308.49
454.882	45926.38
455.088	42022.95
455.294	43135
455.5	43118.62
455.705	43792.4
455.911	42117.16
456.117	40943.67
456.323	40708.16
456.529	38674.52
456.735	40220.74
456.941	39346.26
457.147	38422.62
457.352	37664.88
457.558	37378.16
457.764	37408.88
457.97	36325.5
458.176	35803.27
458.381	35207.31
458.587	33794.21
458.793	33771.69
458.999	31885.51
459.204	34097.31
459.41	33788.07
459.616	31058.13
459.821	31045.84
460.027	31088.85
460.233	29937.89
460.438	29171.95
460.644	29528.3
460.85	28092.67
461.055	27560.2
461.261	27369.74
461.466	25049.39
461.672	24604.98
461.878	26437.91
462.083	24629.55
462.289	24244.54
462.494	24097.08
462.7	22763.86
462.905	22382.93
463.111	23155.02
463.316	23155.02
463.522	22882.64
463.727	22704.46
463.932	22694.22
464.138	22325.59
464.343	22204.76
464.549	21662.05
464.754	22499.67
464.959	22352.21
465.165	22147.42
465.37	21295.46
465.575	20771.18
465.781	21426.53
465.986	21440.87
466.191	21041.51
466.397	20298.1
