Data from USB4F104151__151__14-31-58-298.txt Node

Date: Thu Mar 13 14:31:58 EDT 2025
User: louis
Spectrometer: USB4F10415
Trigger mode: 4
Integration Time (sec): 2.500000E-2
Scans to average: 1
Electric dark correction enabled: true
Nonlinearity correction enabled: false
Boxcar width: 0
XAxis mode: Wavelengths
Number of Pixels in Spectrum: 3648
>>>>>Begin Spectral Data<<<<<
178.204	-165.37
178.424	-165.37
178.644	-165.37
178.864	-101.89
179.084	-171.52
179.304	-36.35
179.524	-7.68
179.744	-22.02
179.964	-50.69
180.184	92.67
180.404	-9.73
180.624	33.28
180.844	33.28
181.064	-85.5
181.283	-15.87
181.503	8.7
181.723	59.9
181.943	-48.64
182.163	23.04
182.383	-62.98
182.602	8.7
182.822	123.39
183.042	45.57
183.262	82.43
183.482	90.62
183.701	55.81
183.921	20.99
184.141	68.09
184.361	100.86
184.58	51.71
184.8	84.48
185.02	55.81
185.239	-5.63
185.459	37.38
185.679	-7.68
185.898	29.18
186.118	111.1
186.338	45.57
186.557	33.28
186.777	84.48
186.997	29.18
187.216	18.94
187.436	-11.78
187.655	74.24
187.875	82.43
188.095	-5.63
188.314	145.92
188.534	94.72
188.753	25.09
188.973	25.09
189.192	66.05
189.412	-30.21
189.631	59.9
189.851	35.33
190.07	123.39
190.29	29.18
190.509	25.09
190.729	-3.58
190.948	84.48
191.168	172.54
191.387	43.52
191.607	70.14
191.826	115.2
192.045	2.56
192.265	4.61
192.484	33.28
192.704	-13.82
192.923	51.71
193.142	100.86
193.362	51.71
193.581	57.86
193.8	37.38
194.02	113.15
194.239	2.56
194.458	76.29
194.678	-54.78
194.897	8.7
195.116	-54.78
195.335	-56.83
195.555	100.86
195.774	-7.68
195.993	55.81
196.212	29.18
196.432	-32.26
196.651	35.33
196.87	39.42
197.089	23.04
197.308	-15.87
197.528	92.67
197.747	-62.98
197.966	20.99
198.185	111.1
198.404	29.18
198.623	57.86
198.842	121.34
199.062	68.09
199.281	49.66
199.5	-3.58
199.719	104.96
199.938	45.57
200.157	10.75
200.376	16.9
200.595	-19.97
200.814	8.7
201.033	49.66
201.252	57.86
201.471	82.43
201.69	49.66
201.909	45.57
202.128	92.67
202.347	80.38
202.566	78.33
202.785	0.51
203.004	-62.98
203.223	150.01
203.442	-3.58
203.661	57.86
203.879	107.01
204.098	55.81
204.317	25.09
204.536	2.56
204.755	90.62
204.974	51.71
205.193	92.67
205.411	168.45
205.63	57.86
205.849	78.33
206.068	90.62
206.287	53.76
206.505	74.24
206.724	74.24
206.943	74.24
207.162	2.56
207.381	4.61
207.599	107.01
207.818	94.72
208.037	49.66
208.255	90.62
208.474	80.38
208.693	49.66
208.911	90.62
209.13	43.52
209.349	49.66
209.567	39.42
209.786	139.77
210.005	68.09
210.223	68.09
210.442	33.28
210.661	115.2
210.879	18.94
211.098	127.49
211.316	37.38
211.535	119.29
211.753	-54.78
211.972	-24.06
212.191	16.9
212.409	92.67
212.628	45.57
212.846	49.66
213.065	74.24
213.283	49.66
213.502	51.71
213.72	45.57
213.938	64
214.157	-13.82
214.375	45.57
214.594	12.8
214.812	66.05
215.031	-3.58
215.249	-13.82
215.467	2.56
215.686	61.95
215.904	107.01
216.122	33.28
216.341	141.82
216.559	-1.54
216.778	49.66
216.996	29.18
217.214	49.66
217.432	37.38
217.651	-5.63
217.869	100.86
218.087	35.33
218.306	25.09
218.524	25.09
218.742	8.7
218.96	37.38
219.179	29.18
219.397	68.09
219.615	90.62
219.833	66.05
220.051	37.38
220.27	123.39
220.488	117.25
220.706	84.48
220.924	49.66
221.142	64
221.36	18.94
221.578	135.68
221.796	0.51
222.015	33.28
222.233	49.66
222.451	107.01
222.669	12.8
222.887	59.9
223.105	39.42
223.323	41.47
223.541	35.33
223.759	49.66
223.977	27.14
224.195	127.49
224.413	57.86
224.631	82.43
224.849	-15.87
225.067	135.68
225.285	47.62
225.503	16.9
225.721	-15.87
225.939	100.86
226.157	49.66
226.375	127.49
226.592	16.9
226.81	-3.58
227.028	14.85
227.246	115.2
227.464	64
227.682	45.57
227.9	74.24
228.117	51.71
228.335	102.91
228.553	49.66
228.771	68.09
228.989	115.2
229.206	49.66
229.424	-65.02
229.642	25.09
229.86	29.18
230.077	53.76
230.295	45.57
230.513	125.44
230.731	76.29
230.948	166.4
231.166	102.91
231.384	23.04
231.601	18.94
231.819	49.66
232.037	41.47
232.254	41.47
232.472	66.05
232.689	10.75
232.907	33.28
233.125	-9.73
233.342	66.05
233.56	2.56
233.777	107.01
233.995	45.57
234.213	33.28
234.43	92.67
234.648	117.25
234.865	12.8
235.083	14.85
235.3	53.76
235.518	119.29
235.735	162.3
235.953	100.86
236.17	-17.92
236.388	49.66
236.605	10.75
236.822	25.09
237.04	92.67
237.257	20.99
237.475	49.66
237.692	37.38
237.909	66.05
238.127	-13.82
238.344	129.53
238.562	25.09
238.779	-15.87
238.996	39.42
239.214	88.57
239.431	59.9
239.648	98.81
239.865	12.8
240.083	78.33
240.3	16.9
240.517	-40.45
240.735	35.33
240.952	-13.82
241.169	70.14
241.386	66.05
241.603	33.28
241.821	18.94
242.038	80.38
242.255	20.99
242.472	-7.68
242.689	33.28
242.907	68.09
243.124	0.51
243.341	6.66
243.558	16.9
243.775	-32.26
243.992	-44.54
244.209	102.91
244.426	100.86
244.643	76.29
244.86	131.58
245.078	68.09
245.295	61.95
245.512	35.33
245.729	53.76
245.946	27.14
246.163	57.86
246.38	8.7
246.597	-7.68
246.814	35.33
247.031	70.14
247.248	74.24
247.464	18.94
247.681	74.24
247.898	92.67
248.115	98.81
248.332	37.38
248.549	131.58
248.766	41.47
248.983	43.52
249.2	78.33
249.417	111.1
249.633	107.01
249.85	61.95
250.067	35.33
250.284	16.9
250.501	51.71
250.717	66.05
250.934	-36.35
251.151	-5.63
251.368	0.51
251.585	88.57
251.801	-3.58
252.018	-30.21
252.235	84.48
252.451	-22.02
252.668	-7.68
252.885	109.05
253.102	57.86
253.318	35.33
253.535	33.28
253.752	33.28
253.968	25.09
254.185	41.47
254.401	68.09
254.618	49.66
254.835	2.56
255.051	57.86
255.268	74.24
255.484	90.62
255.701	82.43
255.917	25.09
256.134	-15.87
256.351	41.47
256.567	43.52
256.784	61.95
257	61.95
257.217	64
257.433	68.09
257.65	160.25
257.866	57.86
258.082	-56.83
258.299	27.14
258.515	115.2
258.732	64
258.948	-11.78
259.165	25.09
259.381	-32.26
259.597	29.18
259.814	16.9
260.03	-24.06
260.246	37.38
260.463	111.1
260.679	84.48
260.895	16.9
261.112	92.67
261.328	27.14
261.544	35.33
261.761	152.06
261.977	84.48
262.193	-11.78
262.409	4.61
262.626	-15.87
262.842	33.28
263.058	-7.68
263.274	72.19
263.49	-7.68
263.707	41.47
263.923	43.52
264.139	12.8
264.355	74.24
264.571	94.72
264.787	-24.06
265.004	139.77
265.22	45.57
265.436	31.23
265.652	12.8
265.868	104.96
266.084	51.71
266.3	43.52
266.516	25.09
266.732	61.95
266.948	74.24
267.164	51.71
267.38	43.52
267.596	8.7
267.812	76.29
268.028	72.19
268.244	2.56
268.46	115.2
268.676	59.9
268.892	41.47
269.108	16.9
269.324	49.66
269.54	33.28
269.756	51.71
269.972	-3.58
270.188	88.57
270.403	33.28
270.619	2.56
270.835	57.86
271.051	49.66
271.267	88.57
271.483	49.66
271.698	98.81
271.914	41.47
272.13	107.01
272.346	86.53
272.562	57.86
272.777	147.97
272.993	2.56
273.209	-34.3
273.425	88.57
273.64	16.9
273.856	-32.26
274.072	16.9
274.287	18.94
274.503	18.94
274.719	117.25
274.934	109.05
275.15	-19.97
275.366	57.86
275.581	-28.16
275.797	92.67
276.012	70.14
276.228	107.01
276.444	41.47
276.659	53.76
276.875	18.94
277.09	-38.4
277.306	96.77
277.521	84.48
277.737	18.94
277.952	111.1
278.168	135.68
278.383	82.43
278.599	43.52
278.814	74.24
279.03	33.28
279.245	76.29
279.461	-19.97
279.676	41.47
279.892	8.7
280.107	18.94
280.322	-3.58
280.538	57.86
280.753	57.86
280.969	-7.68
281.184	-26.11
281.399	76.29
281.615	-28.16
281.83	92.67
282.045	16.9
282.26	2.56
282.476	35.33
282.691	98.81
282.906	66.05
283.122	47.62
283.337	-56.83
283.552	33.28
283.767	0.51
283.983	39.42
284.198	51.71
284.413	119.29
284.628	-69.12
284.843	66.05
285.058	66.05
285.274	92.67
285.489	12.8
285.704	45.57
285.919	70.14
286.134	49.66
286.349	41.47
286.564	84.48
286.779	76.29
286.995	2.56
287.21	18.94
287.425	51.71
287.64	66.05
287.855	-19.97
288.07	4.61
288.285	80.38
288.5	111.1
288.715	72.19
288.93	0.51
289.145	35.33
289.36	156.16
289.575	41.47
289.79	18.94
290.004	41.47
290.219	68.09
290.434	74.24
290.649	82.43
290.864	53.76
291.079	117.25
291.294	25.09
291.509	66.05
291.724	123.39
291.938	16.9
292.153	76.29
292.368	4.61
292.583	4.61
292.798	133.63
293.012	90.62
293.227	-13.82
293.442	49.66
293.657	0.51
293.871	111.1
294.086	16.9
294.301	152.06
294.516	107.01
294.73	27.14
294.945	86.53
295.16	78.33
295.374	66.05
295.589	68.09
295.804	27.14
296.018	8.7
296.233	139.77
296.447	115.2
296.662	-28.16
296.877	98.81
297.091	82.43
297.306	78.33
297.52	16.9
297.735	115.2
297.949	78.33
298.164	74.24
298.378	115.2
298.593	123.39
298.807	43.52
299.022	18.94
299.236	84.48
299.451	-15.87
299.665	76.29
299.88	109.05
300.094	123.39
300.309	61.95
300.523	16.9
300.737	82.43
300.952	16.9
301.166	-13.82
301.381	82.43
301.595	-3.58
301.809	29.18
302.024	78.33
302.238	43.52
302.452	33.28
302.667	57.86
302.881	115.2
303.095	94.72
303.309	41.47
303.524	10.75
303.738	66.05
303.952	109.05
304.166	25.09
304.381	-30.21
304.595	117.25
304.809	-30.21
305.023	41.47
305.237	78.33
305.452	-13.82
305.666	107.01
305.88	92.67
306.094	25.09
306.308	12.8
306.522	66.05
306.736	29.18
306.95	29.18
307.164	-19.97
307.379	49.66
307.593	186.88
307.807	141.82
308.021	8.7
308.235	82.43
308.449	70.14
308.663	2.56
308.877	123.39
309.091	37.38
309.305	76.29
309.519	35.33
309.733	51.71
309.947	2.56
310.161	74.24
310.374	16.9
310.588	123.39
310.802	37.38
311.016	82.43
311.23	59.9
311.444	74.24
311.658	10.75
311.872	100.86
312.085	141.82
312.299	86.53
312.513	51.71
312.727	100.86
312.941	16.9
313.154	53.76
313.368	23.04
313.582	53.76
313.796	45.57
314.009	125.44
314.223	61.95
314.437	31.23
314.651	-30.21
314.864	64
315.078	8.7
315.292	20.99
315.505	70.14
315.719	82.43
315.933	16.9
316.146	92.67
316.36	33.28
316.573	107.01
316.787	82.43
317.001	78.33
317.214	51.71
317.428	113.15
317.641	100.86
317.855	104.96
318.068	51.71
318.282	16.9
318.495	115.2
318.709	74.24
318.922	10.75
319.136	156.16
319.349	12.8
319.563	45.57
319.776	88.57
319.99	18.94
320.203	102.91
320.417	98.81
320.63	41.47
320.843	78.33
321.057	41.47
321.27	-7.68
321.483	102.91
321.697	70.14
321.91	0.51
322.124	33.28
322.337	111.1
322.55	47.62
322.763	-54.78
322.977	25.09
323.19	53.76
323.403	41.47
323.617	55.81
323.83	29.18
324.043	25.09
324.256	27.14
324.469	20.99
324.683	78.33
324.896	-24.06
325.109	90.62
325.322	25.09
325.535	16.9
325.748	-13.82
325.962	57.86
326.175	150.01
326.388	74.24
326.601	74.24
326.814	43.52
327.027	-9.73
327.24	111.1
327.453	4.61
327.666	66.05
327.879	115.2
328.092	55.81
328.305	-5.63
328.518	-5.63
328.731	31.23
328.944	29.18
329.157	115.2
329.37	39.42
329.583	53.76
329.796	57.86
330.009	57.86
330.222	-30.21
330.435	98.81
330.648	66.05
330.861	31.23
331.073	45.57
331.286	61.95
331.499	14.85
331.712	-19.97
331.925	25.09
332.138	139.77
332.35	84.48
332.563	45.57
332.776	100.86
332.989	33.28
333.202	45.57
333.414	-11.78
333.627	66.05
333.84	51.71
334.053	23.04
334.265	-30.21
334.478	-24.06
334.691	88.57
334.903	8.7
335.116	49.66
335.329	-36.35
335.541	37.38
335.754	172.54
335.966	-28.16
336.179	57.86
336.392	37.38
336.604	74.24
336.817	55.81
337.029	-5.63
337.242	78.33
337.454	111.1
337.667	53.76
337.88	98.81
338.092	66.05
338.305	96.77
338.517	43.52
338.729	57.86
338.942	98.81
339.154	-3.58
339.367	33.28
339.579	80.38
339.792	86.53
340.004	-3.58
340.217	41.47
340.429	90.62
340.641	61.95
340.854	49.66
341.066	25.09
341.278	107.01
341.491	164.35
341.703	90.62
341.915	94.72
342.128	111.1
342.34	76.29
342.552	25.09
342.764	-19.97
342.977	78.33
343.189	123.39
343.401	90.62
343.613	29.18
343.826	10.75
344.038	29.18
344.25	-13.82
344.462	41.47
344.674	119.29
344.886	61.95
345.099	66.05
345.311	84.48
345.523	66.05
345.735	27.14
345.947	66.05
346.159	57.86
346.371	57.86
346.583	61.95
346.795	37.38
347.007	-1.54
347.219	70.14
347.431	49.66
347.643	88.57
347.855	27.14
348.067	90.62
348.279	35.33
348.491	8.7
348.703	125.44
348.915	100.86
349.127	61.95
349.339	123.39
349.551	2.56
349.763	107.01
349.975	43.52
350.187	45.57
350.399	35.33
350.61	49.66
350.822	51.71
351.034	27.14
351.246	70.14
351.458	8.7
351.669	35.33
351.881	78.33
352.093	57.86
352.305	78.33
352.517	76.29
352.728	74.24
352.94	86.53
353.152	37.38
353.363	33.28
353.575	131.58
353.787	82.43
353.999	57.86
354.21	35.33
354.422	49.66
354.633	123.39
354.845	12.8
355.057	107.01
355.268	18.94
355.48	141.82
355.692	57.86
355.903	0.51
356.115	2.56
356.326	43.52
356.538	66.05
356.749	41.47
356.961	16.9
357.172	49.66
357.384	27.14
357.595	113.15
357.807	10.75
358.018	68.09
358.23	51.71
358.441	107.01
358.653	-32.26
358.864	59.9
359.075	-11.78
359.287	-1.54
359.498	76.29
359.709	70.14
359.921	51.71
360.132	61.95
360.344	107.01
360.555	84.48
360.766	41.47
360.977	66.05
361.189	49.66
361.4	64
361.611	115.2
361.823	141.82
362.034	25.09
362.245	-54.78
362.456	43.52
362.667	84.48
362.879	59.9
363.09	18.94
363.301	35.33
363.512	61.95
363.723	33.28
363.935	35.33
364.146	74.24
364.357	57.86
364.568	64
364.779	4.61
364.99	53.76
365.201	59.9
365.412	61.95
365.623	45.57
365.834	45.57
366.045	125.44
366.256	98.81
366.467	61.95
366.678	154.11
366.889	33.28
367.1	39.42
367.311	90.62
367.522	18.94
367.733	66.05
367.944	107.01
368.155	61.95
368.366	45.57
368.577	27.14
368.788	111.1
368.999	33.28
369.209	45.57
369.42	164.35
369.631	197.12
369.842	115.2
370.053	51.71
370.264	57.86
370.474	37.38
370.685	2.56
370.896	66.05
371.107	68.09
371.317	31.23
371.528	66.05
371.739	156.16
371.95	135.68
372.16	70.14
372.371	70.14
372.582	45.57
372.792	4.61
373.003	90.62
373.214	49.66
373.424	68.09
373.635	61.95
373.846	61.95
374.056	4.61
374.267	29.18
374.477	94.72
374.688	123.39
374.898	41.47
375.109	115.2
375.319	139.77
375.53	74.24
375.74	117.25
375.951	121.34
376.161	66.05
376.372	76.29
376.582	47.62
376.793	61.95
377.003	2.56
377.214	64
377.424	115.2
377.635	37.38
377.845	70.14
378.055	162.3
378.266	92.67
378.476	35.33
378.686	57.86
378.897	113.15
379.107	16.9
379.317	49.66
379.528	8.7
379.738	90.62
379.948	2.56
380.158	51.71
380.369	53.76
380.579	131.58
380.789	68.09
380.999	8.7
381.21	8.7
381.42	90.62
381.63	37.38
381.84	84.48
382.05	49.66
382.261	133.63
382.471	111.1
382.681	57.86
382.891	66.05
383.101	156.16
383.311	35.33
383.521	98.81
383.731	160.25
383.941	45.57
384.151	143.87
384.361	33.28
384.571	107.01
384.781	49.66
384.991	119.29
385.201	86.53
385.411	49.66
385.621	49.66
385.831	49.66
386.041	66.05
386.251	12.8
386.461	74.24
386.671	139.77
386.881	74.24
387.091	88.57
387.301	123.39
387.511	51.71
387.72	107.01
387.93	53.76
388.14	2.56
388.35	35.33
388.56	53.76
388.769	82.43
388.979	82.43
389.189	14.85
389.399	64
389.609	168.45
389.818	131.58
390.028	10.75
390.238	66.05
390.447	49.66
390.657	37.38
390.867	0.51
391.076	82.43
391.286	59.9
391.496	102.91
391.705	129.53
391.915	104.96
392.125	127.49
392.334	82.43
392.544	96.77
392.753	43.52
392.963	64
393.172	131.58
393.382	49.66
393.591	166.4
393.801	92.67
394.01	174.59
394.22	84.48
394.429	57.86
394.639	84.48
394.848	176.64
395.058	90.62
395.267	117.25
395.477	90.62
395.686	172.54
395.895	94.72
396.105	82.43
396.314	74.24
396.524	66.05
396.733	102.91
396.942	250.36
397.152	82.43
397.361	96.77
397.57	109.05
397.78	78.33
397.989	133.63
398.198	221.69
398.407	147.97
398.617	127.49
398.826	131.58
399.035	129.53
399.244	172.54
399.453	102.91
399.663	66.05
399.872	113.15
400.081	51.71
400.29	150.01
400.499	111.1
400.708	182.78
400.917	127.49
401.127	123.39
401.336	107.01
401.545	139.77
401.754	119.29
401.963	117.25
402.172	147.97
402.381	147.97
402.59	211.45
402.799	68.09
403.008	109.05
403.217	131.58
403.426	233.98
403.635	162.3
403.844	225.79
404.053	172.54
404.262	133.63
404.471	199.16
404.68	154.11
404.888	190.97
405.097	156.16
405.306	211.45
405.515	199.16
405.724	158.21
405.933	213.5
406.142	250.36
406.35	283.13
406.559	217.6
406.768	147.97
406.977	287.23
407.185	145.92
407.394	262.65
407.603	203.26
407.812	229.88
408.02	248.32
408.229	311.8
408.438	326.14
408.646	213.5
408.855	363
409.064	229.88
409.272	313.85
409.481	387.58
409.69	287.23
409.898	356.86
410.107	305.66
410.315	309.76
410.524	401.91
410.733	360.95
410.941	338.43
411.15	471.54
411.358	422.39
411.567	457.21
411.775	469.5
411.984	502.26
412.192	477.69
412.401	510.46
412.609	530.94
412.818	584.18
413.026	563.7
413.234	547.32
413.443	582.14
413.651	543.22
413.86	682.49
414.068	705.01
414.276	717.3
414.485	598.52
414.693	778.74
414.901	895.47
415.11	791.03
415.318	887.28
415.526	778.74
415.734	920.05
415.943	899.57
416.151	918
416.359	864.75
416.567	975.35
416.776	991.73
416.984	1030.64
417.192	1090.03
417.4	1065.46
417.608	1176.05
417.817	1075.7
418.025	1130.99
418.233	1376.75
418.441	1319.4
418.649	1354.22
418.857	1423.85
419.065	1446.38
419.273	1354.22
419.481	1434.09
419.689	1556.97
419.897	1614.31
420.105	1704.42
420.313	1778.15
420.521	1769.96
420.729	1868.26
420.937	1888.74
421.145	2050.53
421.353	1968.61
421.561	2142.69
421.769	2191.84
421.977	2257.37
422.185	2286.05
422.393	2458.07
422.601	2619.86
422.809	2417.12
423.017	2517.47
423.224	2697.69
423.432	2740.69
423.64	2742.74
423.848	3115.47
424.056	2925.01
424.263	3123.66
424.471	3080.66
424.679	3264.97
424.887	3434.96
425.094	3375.56
425.302	3514.83
425.51	3621.32
425.718	3764.68
425.925	3908.04
426.133	3877.32
426.341	4104.64
426.548	4334.01
426.756	4231.62
426.964	4497.85
427.171	4592.06
427.379	4731.32
427.586	4862.39
427.794	4911.54
428.001	5206.45
428.209	5335.47
428.417	5353.9
428.624	5890.47
428.832	5677.48
429.039	5640.62
429.247	5755.3
429.454	6095.27
429.662	6578.59
429.869	6152.61
430.076	6572.44
430.284	6386.08
430.491	6701.47
430.699	7020.95
430.906	7029.14
431.114	7113.11
431.321	7508.37
431.528	7637.39
431.736	7985.54
431.943	8280.45
432.15	8231.3
432.358	8153.48
432.565	8726.91
432.772	8700.28
432.979	9048.44
433.187	9242.99
433.394	9355.63
433.601	9824.62
433.808	9804.14
434.016	9978.22
434.223	10129.77
434.43	10684.76
434.637	10733.92
434.844	11297.11
435.052	11655.5
435.259	11438.42
435.466	11530.58
435.673	11362.64
435.88	12071.24
436.087	12749.12
436.294	12863.8
436.501	12456.26
436.708	12751.17
436.915	13461.81
437.122	13846.83
437.329	13766.96
437.537	14111.02
437.743	14541.09
437.95	14450.98
438.157	14919.96
438.364	15544.59
438.571	15436.05
438.778	15415.57
438.985	16822.53
439.192	16283.91
439.399	16781.57
439.606	16318.73
439.813	17651.95
440.02	18518.25
440.227	18006.25
440.433	18055.4
440.64	18589.92
440.847	18399.46
441.054	18686.18
441.261	19906.77
441.467	19730.64
441.674	20007.12
441.881	21012.67
442.088	20799.68
442.294	20512.97
442.501	21012.67
442.708	21387.45
442.914	22257.84
443.121	23462.04
443.328	22481.06
443.534	24252.56
443.741	23683.22
443.948	23316.64
444.154	24963.2
444.361	25147.52
444.568	25006.21
444.774	24719.49
444.981	25235.58
445.187	25944.18
445.394	26986.6
445.6	26943.59
445.807	29147.2
446.013	27801.69
446.22	28276.82
446.426	29450.3
446.633	29935.67
446.839	31072.29
447.046	29534.27
447.252	31254.56
447.459	31197.22
447.665	31432.74
447.871	32831.5
448.078	33695.74
448.284	32307.22
448.491	33208.33
448.697	34428.91
448.903	35057.64
449.11	35418.08
449.316	34502.64
449.522	35395.56
449.728	36229.08
449.935	36321.24
450.141	36534.23
450.347	37435.33
450.553	36173.78
450.76	36595.67
450.966	37631.94
451.172	37398.47
451.378	38508.47
451.584	37808.06
451.791	38451.13
451.997	38440.89
452.203	39339.94
452.409	38963.12
452.615	39126.95
452.821	37275.59
453.027	36990.92
453.233	38647.73
453.44	37461.96
453.646	37722.05
453.852	37822.4
454.058	38954.93
454.264	37347.27
454.47	38250.42
454.676	37492.68
454.882	38653.87
455.088	35311.59
455.294	35907.55
455.5	35821.53
455.705	36663.25
455.911	34832.36
456.117	34574.32
456.323	33941.5
456.529	32196.63
456.735	33996.79
456.941	32528.4
457.147	32237.59
457.352	31176.74
457.558	31225.89
457.764	31139.88
457.97	30711.85
458.176	29620.28
458.381	29689.91
458.587	28278.86
458.793	28213.33
458.999	26900.58
459.204	29096
459.41	28080.21
459.616	26345.58
459.821	26312.81
460.027	26067.06
460.233	25448.57
460.438	24381.58
460.644	24692.87
460.85	23193.76
461.055	22915.23
461.261	23005.34
461.466	21246.14
461.672	20299.98
461.878	21891.25
462.083	20424.9
462.289	20355.27
462.494	20201.68
462.7	19390.68
462.905	18512.1
463.111	19173.6
463.316	19339.48
463.522	18868.45
463.727	18956.51
463.932	18878.69
464.138	18219.24
464.343	18561.25
464.549	17828.08
464.754	18747.62
464.959	18450.66
465.165	18231.53
465.37	17416.44
465.575	17232.12
465.781	17604.85
465.986	17832.18
466.191	17336.57
466.397	16974.08
466.602	15968.52
466.807	16607.49
467.012	16681.22
