Data from USB4F104151__99__14-30-48-068.txt Node

Date: Thu Mar 13 14:30:48 EDT 2025
User: louis
Spectrometer: USB4F10415
Trigger mode: 4
Integration Time (sec): 2.500000E-2
Scans to average: 1
Electric dark correction enabled: true
Nonlinearity correction enabled: false
Boxcar width: 0
XAxis mode: Wavelengths
Number of Pixels in Spectrum: 3648
>>>>>Begin Spectral Data<<<<<
178.204	-102.74
178.424	-102.74
178.644	-102.74
178.864	-190.8
179.084	-96.6
179.304	-12.63
179.524	-29.01
179.744	-37.2
179.964	52.91
180.184	-47.44
180.404	13.99
180.624	52.91
180.844	36.52
181.064	-26.96
181.283	1.71
181.503	9.9
181.723	-14.68
181.943	-33.11
182.163	28.33
182.383	-29.01
182.602	73.39
182.822	95.91
183.042	73.39
183.262	42.67
183.482	100.01
183.701	28.33
183.921	3.75
184.141	9.9
184.361	28.33
184.58	11.95
184.8	50.86
185.02	20.14
185.239	91.82
185.459	1.71
185.679	63.15
185.898	-14.68
186.118	95.91
186.338	38.57
186.557	69.29
186.777	-18.77
186.997	13.99
187.216	36.52
187.436	108.2
187.655	102.06
187.875	87.72
188.095	3.75
188.314	-14.68
188.534	44.71
188.753	71.34
188.973	28.33
189.192	50.86
189.412	42.67
189.631	69.29
189.851	20.14
190.07	67.24
190.29	-20.82
190.509	1.71
190.729	5.8
190.948	110.25
191.168	63.15
191.387	91.82
191.607	-14.68
191.826	28.33
192.045	-67.92
192.265	-24.92
192.484	26.28
192.704	-55.64
192.923	-78.16
193.142	89.77
193.362	11.95
193.581	26.28
193.8	-84.31
194.02	83.63
194.239	13.99
194.458	65.19
194.678	1.71
194.897	-6.49
195.116	-6.49
195.335	18.09
195.555	65.19
195.774	69.29
195.993	110.25
196.212	11.95
196.432	34.47
196.651	-14.68
196.87	9.9
197.089	126.63
197.308	20.14
197.528	59.05
197.747	67.24
197.966	69.29
198.185	116.39
198.404	110.25
198.623	61.1
198.842	83.63
199.062	79.53
199.281	116.39
199.5	59.05
199.719	16.04
199.938	79.53
200.157	50.86
200.376	30.38
200.595	38.57
200.814	124.58
201.033	-37.2
201.252	69.29
201.471	5.8
201.69	-12.63
201.909	9.9
202.128	124.58
202.347	85.67
202.566	18.09
202.785	18.09
203.004	59.05
203.223	83.63
203.442	18.09
203.661	5.8
203.879	79.53
204.098	-14.68
204.317	46.76
204.536	83.63
204.755	34.47
204.974	26.28
205.193	79.53
205.411	151.21
205.63	26.28
205.849	-2.39
206.068	32.43
206.287	-6.49
206.505	22.19
206.724	32.43
206.943	71.34
207.162	-2.39
207.381	-6.49
207.599	20.14
207.818	79.53
208.037	42.67
208.255	-43.35
208.474	63.15
208.693	108.2
208.911	-2.39
209.13	79.53
209.349	34.47
209.567	71.34
209.786	28.33
210.005	-26.96
210.223	-2.39
210.442	-61.78
210.661	59.05
210.879	110.25
211.098	54.95
211.316	18.09
211.535	50.86
211.753	44.71
211.972	-2.39
212.191	-57.68
212.409	26.28
212.628	83.63
212.846	-33.11
213.065	61.1
213.283	1.71
213.502	18.09
213.72	24.23
213.938	54.95
214.157	44.71
214.375	93.87
214.594	-6.49
214.812	79.53
215.031	95.91
215.249	-82.26
215.467	-6.49
215.686	50.86
215.904	102.06
216.122	34.47
216.341	67.24
216.559	30.38
216.778	83.63
216.996	18.09
217.214	38.57
217.432	91.82
217.651	59.05
217.869	26.28
218.087	34.47
218.306	-14.68
218.524	9.9
218.742	54.95
218.96	38.57
219.179	-22.87
219.397	1.71
219.615	106.15
219.833	1.71
220.051	13.99
220.27	69.29
220.488	91.82
220.706	9.9
220.924	30.38
221.142	13.99
221.36	34.47
221.578	120.49
221.796	44.71
222.015	91.82
222.233	11.95
222.451	100.01
222.669	16.04
222.887	50.86
223.105	-63.83
223.323	1.71
223.541	7.85
223.759	163.5
223.977	50.86
224.195	91.82
224.413	16.04
224.631	71.34
224.849	-2.39
225.067	67.24
225.285	61.1
225.503	54.95
225.721	5.8
225.939	36.52
226.157	-31.06
226.375	179.88
226.592	-4.44
226.81	34.47
227.028	30.38
227.246	59.05
227.464	40.62
227.682	26.28
227.9	83.63
228.117	42.67
228.335	20.14
228.553	34.47
228.771	100.01
228.989	52.91
229.206	11.95
229.424	-20.82
229.642	11.95
229.86	1.71
230.077	83.63
230.295	108.2
230.513	63.15
230.731	-53.59
230.948	91.82
231.166	75.43
231.384	34.47
231.601	63.15
231.819	42.67
232.037	42.67
232.254	-24.92
232.472	-20.82
232.689	-12.63
232.907	42.67
233.125	54.95
233.342	20.14
233.56	44.71
233.777	1.71
233.995	-37.2
234.213	91.82
234.43	44.71
234.648	26.28
234.865	9.9
235.083	-18.77
235.3	22.19
235.518	73.39
235.735	100.01
235.953	59.05
236.17	28.33
236.388	50.86
236.605	34.47
236.822	36.52
237.04	59.05
237.257	128.68
237.475	3.75
237.692	112.3
237.909	1.71
238.127	-6.49
238.344	67.24
238.562	116.39
238.779	-26.96
238.996	54.95
239.214	36.52
239.431	93.87
239.648	-10.58
239.865	-6.49
240.083	79.53
240.3	34.47
240.517	-18.77
240.735	34.47
240.952	71.34
241.169	83.63
241.386	5.8
241.603	79.53
241.821	-14.68
242.038	100.01
242.255	42.67
242.472	-55.64
242.689	59.05
242.907	18.09
243.124	61.1
243.341	42.67
243.558	116.39
243.775	-2.39
243.992	34.47
244.209	59.05
244.426	93.87
244.643	108.2
244.86	65.19
245.078	50.86
245.295	71.34
245.512	104.11
245.729	-84.31
245.946	69.29
246.163	44.71
246.38	50.86
246.597	46.76
246.814	54.95
247.031	-43.35
247.248	9.9
247.464	110.25
247.681	77.48
247.898	28.33
248.115	34.47
248.332	1.71
248.549	67.24
248.766	63.15
248.983	120.49
249.2	138.92
249.417	18.09
249.633	34.47
249.85	116.39
250.067	-51.54
250.284	9.9
250.501	91.82
250.717	36.52
250.934	-4.44
251.151	63.15
251.368	7.85
251.585	1.71
251.801	-10.58
252.018	124.58
252.235	112.3
252.451	9.9
252.668	30.38
252.885	75.43
253.102	57
253.318	44.71
253.535	48.81
253.752	22.19
253.968	26.28
254.185	34.47
254.401	79.53
254.618	67.24
254.835	26.28
255.051	54.95
255.268	48.81
255.484	34.47
255.701	34.47
255.917	71.34
256.134	1.71
256.351	36.52
256.567	34.47
256.784	46.76
257	18.09
257.217	77.48
257.433	93.87
257.65	75.43
257.866	91.82
258.082	-18.77
258.299	50.86
258.515	38.57
258.732	36.52
258.948	50.86
259.165	59.05
259.381	75.43
259.597	93.87
259.814	104.11
260.03	102.06
260.246	1.71
260.463	75.43
260.679	75.43
260.895	42.67
261.112	22.19
261.328	40.62
261.544	34.47
261.761	124.58
261.977	87.72
262.193	-10.58
262.409	67.24
262.626	46.76
262.842	73.39
263.058	3.75
263.274	57
263.49	46.76
263.707	18.09
263.923	75.43
264.139	1.71
264.355	87.72
264.571	87.72
264.787	9.9
265.004	83.63
265.22	95.91
265.436	11.95
265.652	67.24
265.868	24.23
266.084	42.67
266.3	13.99
266.516	11.95
266.732	75.43
266.948	38.57
267.164	-63.83
267.38	52.91
267.596	75.43
267.812	149.16
268.028	22.19
268.244	69.29
268.46	108.2
268.676	9.9
268.892	87.72
269.108	-74.07
269.324	46.76
269.54	34.47
269.756	13.99
269.972	26.28
270.188	26.28
270.403	-35.16
270.619	67.24
270.835	46.76
271.051	9.9
271.267	34.47
271.483	126.63
271.698	67.24
271.914	75.43
272.13	61.1
272.346	11.95
272.562	26.28
272.777	83.63
272.993	126.63
273.209	42.67
273.425	77.48
273.64	9.9
273.856	128.68
274.072	73.39
274.287	20.14
274.503	44.71
274.719	46.76
274.934	79.53
275.15	-20.82
275.366	79.53
275.581	-12.63
275.797	16.04
276.012	59.05
276.228	38.57
276.444	77.48
276.659	87.72
276.875	54.95
277.09	34.47
277.306	-6.49
277.521	-4.44
277.737	26.28
277.952	11.95
278.168	54.95
278.383	83.63
278.599	-6.49
278.814	-39.25
279.03	44.71
279.245	91.82
279.461	9.9
279.676	52.91
279.892	-12.63
280.107	-6.49
280.322	-59.73
280.538	44.71
280.753	42.67
280.969	20.14
281.184	20.14
281.399	69.29
281.615	46.76
281.83	13.99
282.045	26.28
282.26	79.53
282.476	3.75
282.691	-2.39
282.906	42.67
283.122	52.91
283.337	22.19
283.552	-2.39
283.767	97.96
283.983	52.91
284.198	22.19
284.413	34.47
284.628	-55.64
284.843	1.71
285.058	61.1
285.274	18.09
285.489	-47.44
285.704	128.68
285.919	32.43
286.134	18.09
286.349	40.62
286.564	67.24
286.779	102.06
286.995	50.86
287.21	-16.73
287.425	128.68
287.64	-31.06
287.855	48.81
288.07	52.91
288.285	112.3
288.5	59.05
288.715	59.05
288.93	116.39
289.145	50.86
289.36	50.86
289.575	22.19
289.79	106.15
290.004	-39.25
290.219	38.57
290.434	46.76
290.649	22.19
290.864	5.8
291.079	1.71
291.294	46.76
291.509	3.75
291.724	-78.16
291.938	57
292.153	42.67
292.368	1.71
292.583	69.29
292.798	155.3
293.012	52.91
293.227	67.24
293.442	59.05
293.657	67.24
293.871	67.24
294.086	38.57
294.301	151.21
294.516	30.38
294.73	54.95
294.945	46.76
295.16	9.9
295.374	85.67
295.589	34.47
295.804	34.47
296.018	-39.25
296.233	30.38
296.447	87.72
296.662	3.75
296.877	108.2
297.091	18.09
297.306	46.76
297.52	1.71
297.735	42.67
297.949	28.33
298.164	42.67
298.378	30.38
298.593	77.48
298.807	-22.87
299.022	32.43
299.236	28.33
299.451	30.38
299.665	-10.58
299.88	5.8
300.094	46.76
300.309	59.05
300.523	-6.49
300.737	-12.63
300.952	-22.87
301.166	149.16
301.381	91.82
301.595	77.48
301.809	100.01
302.024	-14.68
302.238	18.09
302.452	32.43
302.667	46.76
302.881	112.3
303.095	61.1
303.309	-12.63
303.524	54.95
303.738	65.19
303.952	28.33
304.166	54.95
304.381	-90.45
304.595	52.91
304.809	77.48
305.023	104.11
305.237	30.38
305.452	-0.34
305.666	1.71
305.88	67.24
306.094	118.44
306.308	104.11
306.522	69.29
306.736	93.87
306.95	69.29
307.164	52.91
307.379	50.86
307.593	83.63
307.807	95.91
308.021	104.11
308.235	40.62
308.449	9.9
308.663	1.71
308.877	36.52
309.091	22.19
309.305	100.01
309.519	24.23
309.733	116.39
309.947	52.91
310.161	46.76
310.374	9.9
310.588	59.05
310.802	36.52
311.016	34.47
311.23	100.01
311.444	26.28
311.658	67.24
311.872	126.63
312.085	13.99
312.299	71.34
312.513	57
312.727	91.82
312.941	-29.01
313.154	97.96
313.368	83.63
313.582	26.28
313.796	5.8
314.009	34.47
314.223	104.11
314.437	110.25
314.651	102.06
314.864	5.8
315.078	85.67
315.292	67.24
315.505	28.33
315.719	91.82
315.933	87.72
316.146	67.24
316.36	67.24
316.573	75.43
316.787	34.47
317.001	18.09
317.214	18.09
317.428	67.24
317.641	-22.87
317.855	100.01
318.068	87.72
318.282	9.9
318.495	102.06
318.709	-6.49
318.922	63.15
319.136	61.1
319.349	108.2
319.563	34.47
319.776	5.8
319.99	-24.92
320.203	89.77
320.417	75.43
320.63	81.58
320.843	132.78
321.057	124.58
321.27	57
321.483	36.52
321.697	61.1
321.91	-29.01
322.124	34.47
322.337	100.01
322.55	54.95
322.763	91.82
322.977	59.05
323.19	36.52
323.403	59.05
323.617	67.24
323.83	67.24
324.043	32.43
324.256	102.06
324.469	-10.58
324.683	71.34
324.896	75.43
325.109	114.34
325.322	61.1
325.535	100.01
325.748	77.48
325.962	18.09
326.175	71.34
326.388	93.87
326.601	9.9
326.814	52.91
327.027	-37.2
327.24	128.68
327.453	-35.16
327.666	42.67
327.879	116.39
328.092	20.14
328.305	50.86
328.518	52.91
328.731	3.75
328.944	71.34
329.157	108.2
329.37	42.67
329.583	100.01
329.796	52.91
330.009	67.24
330.222	42.67
330.435	9.9
330.648	59.05
330.861	42.67
331.073	87.72
331.286	52.91
331.499	151.21
331.712	-29.01
331.925	50.86
332.138	42.67
332.35	157.35
332.563	-14.68
332.776	42.67
332.989	61.1
333.202	61.1
333.414	42.67
333.627	85.67
333.84	28.33
334.053	85.67
334.265	-26.96
334.478	52.91
334.691	75.43
334.903	122.54
335.116	44.71
335.329	83.63
335.541	91.82
335.754	91.82
335.966	61.1
336.179	50.86
336.392	75.43
336.604	-14.68
336.817	59.05
337.029	83.63
337.242	7.85
337.454	22.19
337.667	59.05
337.88	124.58
338.092	59.05
338.305	79.53
338.517	54.95
338.729	50.86
338.942	126.63
339.154	83.63
339.367	69.29
339.579	132.78
339.792	26.28
340.004	102.06
340.217	59.05
340.429	57
340.641	42.67
340.854	18.09
341.066	1.71
341.278	153.26
341.491	83.63
341.703	118.44
341.915	36.52
342.128	26.28
342.34	48.81
342.552	30.38
342.764	-2.39
342.977	75.43
343.189	104.11
343.401	134.82
343.613	30.38
343.826	100.01
344.038	-6.49
344.25	106.15
344.462	110.25
344.674	145.06
344.886	52.91
345.099	95.91
345.311	38.57
345.523	1.71
345.735	44.71
345.947	75.43
346.159	75.43
346.371	181.93
346.583	57
346.795	151.21
347.007	22.19
347.219	102.06
347.431	71.34
347.643	73.39
347.855	16.04
348.067	63.15
348.279	30.38
348.491	102.06
348.703	73.39
348.915	50.86
349.127	1.71
349.339	85.67
349.551	91.82
349.763	67.24
349.975	71.34
350.187	59.05
350.399	91.82
350.61	108.2
350.822	102.06
351.034	116.39
351.246	-12.63
351.458	71.34
351.669	36.52
351.881	59.05
352.093	59.05
352.305	79.53
352.517	61.1
352.728	50.86
352.94	116.39
353.152	89.77
353.363	40.62
353.575	67.24
353.787	77.48
353.999	13.99
354.21	54.95
354.422	-22.87
354.633	30.38
354.845	59.05
355.057	87.72
355.268	63.15
355.48	116.39
355.692	50.86
355.903	104.11
356.115	85.67
356.326	65.19
356.538	93.87
356.749	61.1
356.961	24.23
357.172	36.52
357.384	75.43
357.595	130.73
357.807	1.71
358.018	50.86
358.23	-55.64
358.441	83.63
358.653	20.14
358.864	59.05
359.075	34.47
359.287	69.29
359.498	120.49
359.709	116.39
359.921	130.73
360.132	67.24
360.344	59.05
360.555	69.29
360.766	83.63
360.977	1.71
361.189	59.05
361.4	126.63
361.611	126.63
361.823	110.25
362.034	75.43
362.245	54.95
362.456	50.86
362.667	89.77
362.879	63.15
363.09	48.81
363.301	-8.53
363.512	36.52
363.723	61.1
363.935	34.47
364.146	165.54
364.357	116.39
364.568	1.71
364.779	50.86
364.99	120.49
365.201	77.48
365.412	34.47
365.623	-8.53
365.834	42.67
366.045	67.24
366.256	114.34
366.467	59.05
366.678	22.19
366.889	-20.82
367.1	22.19
367.311	104.11
367.522	42.67
367.733	108.2
367.944	59.05
368.155	9.9
368.366	85.67
368.577	67.24
368.788	61.1
368.999	46.76
369.209	28.33
369.42	106.15
369.631	165.54
369.842	118.44
370.053	42.67
370.264	114.34
370.474	5.8
370.685	140.97
370.896	67.24
371.107	112.3
371.317	83.63
371.528	165.54
371.739	192.17
371.95	83.63
372.16	81.58
372.371	-18.77
372.582	30.38
372.792	26.28
373.003	67.24
373.214	5.8
373.424	50.86
373.635	-0.34
373.846	124.58
374.056	59.05
374.267	83.63
374.477	79.53
374.688	48.81
374.898	42.67
375.109	46.76
375.319	-6.49
375.53	87.72
375.74	97.96
375.951	100.01
376.161	91.82
376.372	57
376.582	34.47
376.793	69.29
377.003	50.86
377.214	1.71
377.424	77.48
377.635	24.23
377.845	87.72
378.055	73.39
378.266	97.96
378.476	67.24
378.686	87.72
378.897	69.29
379.107	63.15
379.317	132.78
379.528	116.39
379.738	190.12
379.948	28.33
380.158	61.1
380.369	59.05
380.579	50.86
380.789	63.15
380.999	85.67
381.21	140.97
381.42	108.2
381.63	91.82
381.84	59.05
382.05	67.24
382.261	75.43
382.471	77.48
382.681	22.19
382.891	79.53
383.101	149.16
383.311	42.67
383.521	67.24
383.731	22.19
383.941	138.92
384.151	59.05
384.361	67.24
384.571	87.72
384.781	22.19
384.991	110.25
385.201	132.78
385.411	52.91
385.621	46.76
385.831	81.58
386.041	110.25
386.251	104.11
386.461	104.11
386.671	71.34
386.881	95.91
387.091	116.39
387.301	116.39
387.511	36.52
387.72	69.29
387.93	134.82
388.14	28.33
388.35	7.85
388.56	110.25
388.769	112.3
388.979	120.49
389.189	34.47
389.399	18.09
389.609	177.83
389.818	153.26
390.028	75.43
390.238	50.86
390.447	-29.01
390.657	110.25
390.867	50.86
391.076	42.67
391.286	67.24
391.496	83.63
391.705	38.57
391.915	153.26
392.125	145.06
392.334	138.92
392.544	118.44
392.753	140.97
392.963	73.39
393.172	104.11
393.382	95.91
393.591	161.45
393.801	44.71
394.01	181.93
394.22	-12.63
394.429	93.87
394.639	22.19
394.848	108.2
395.058	132.78
395.267	177.83
395.477	83.63
395.686	159.4
395.895	167.59
396.105	161.45
396.314	159.4
396.524	75.43
396.733	87.72
396.942	93.87
397.152	134.82
397.361	226.98
397.57	120.49
397.78	63.15
397.989	124.58
398.198	153.26
398.407	177.83
398.617	112.3
398.826	136.87
399.035	151.21
399.244	165.54
399.453	108.2
399.663	110.25
399.872	165.54
400.081	153.26
400.29	210.6
400.499	124.58
400.708	198.31
400.917	192.17
401.127	190.12
401.336	239.27
401.545	300.71
401.754	210.6
401.963	155.3
402.172	165.54
402.381	157.35
402.59	190.12
402.799	173.74
403.008	153.26
403.217	169.64
403.426	192.17
403.635	132.78
403.844	247.46
404.053	165.54
404.262	222.89
404.471	261.8
404.68	308.9
404.888	218.79
405.097	186.02
405.306	239.27
405.515	288.42
405.724	200.36
405.933	175.78
406.142	226.98
406.35	237.22
406.559	272.04
406.768	261.8
406.977	298.66
407.185	351.91
407.394	329.38
407.603	282.28
407.812	231.08
408.02	386.72
408.229	382.63
408.438	323.24
408.646	384.68
408.855	411.3
409.064	374.44
409.272	317.09
409.481	429.73
409.69	409.25
409.898	405.16
410.107	396.96
410.315	468.64
410.524	429.73
410.733	513.7
410.941	501.41
411.15	519.84
411.358	609.95
411.567	618.15
411.775	480.93
411.984	568.99
412.192	583.33
412.401	597.67
412.609	648.86
412.818	691.87
413.026	720.54
413.234	738.98
413.443	741.02
413.651	724.64
413.86	820.89
414.068	970.4
414.276	943.77
414.485	888.48
414.693	964.25
414.901	982.68
415.11	1083.03
415.318	1097.37
415.526	1109.66
415.734	1138.33
415.943	1107.61
416.151	1148.57
416.359	1167
416.567	1257.11
416.776	1279.64
416.984	1406.61
417.192	1414.81
417.4	1418.9
417.608	1443.48
417.817	1453.72
418.025	1730.19
418.233	1685.14
418.441	1625.75
418.649	1746.58
418.857	1918.61
419.065	1937.04
419.273	1855.12
419.481	2018.96
419.689	2141.83
419.897	2281.1
420.105	2207.37
420.313	2332.3
420.521	2434.69
420.729	2393.73
420.937	2414.21
421.145	2573.96
421.353	2727.55
421.561	2938.49
421.769	2848.38
421.977	2893.44
422.185	3008.12
422.393	3305.08
422.601	3331.7
422.809	3303.03
423.017	3303.03
423.224	3450.49
423.432	3864.18
423.64	3704.43
423.848	4095.6
424.056	3966.57
424.263	4226.67
424.471	4253.29
424.679	4279.91
424.887	4583.01
425.094	4601.44
425.302	4814.43
425.51	4816.48
425.718	5015.13
425.925	5002.85
426.133	5185.12
426.341	5615.19
426.548	5785.17
426.756	5834.32
426.964	5887.57
427.171	6012.49
427.379	6237.77
427.586	6499.91
427.794	6606.41
428.001	6893.12
428.209	7343.67
428.417	7073.34
428.624	7753.27
428.832	7622.2
429.039	7630.39
429.247	7554.62
429.454	8054.32
429.662	8777.25
429.869	8271.4
430.076	9172.51
430.284	8570.41
430.491	9258.53
430.699	9537.05
430.906	9365.02
431.114	9639.45
431.321	10036.75
431.528	10079.76
431.736	10827.27
431.943	11312.64
432.15	11001.35
432.358	11101.7
432.565	11689.46
432.772	11576.83
432.979	12260.85
433.187	12631.53
433.394	12428.78
433.601	13336.03
433.808	13352.41
434.016	13290.98
434.223	13899.22
434.43	14720.46
434.637	14427.6
434.844	15533.5
435.052	15576.51
435.259	15576.51
435.466	15609.28
435.673	15330.75
435.88	16616.88
436.087	17274.28
436.294	17599.9
436.501	16969.13
436.708	17141.16
436.915	17724.83
437.122	18711.95
437.329	18451.86
437.537	19254.66
437.743	19707.26
437.95	19365.25
438.157	20278.65
438.364	21042.54
438.571	20940.14
438.778	21271.91
438.985	23219.53
439.192	22127.96
439.399	22734.16
439.606	22123.87
439.813	23659.84
440.02	24915.25
440.227	24419.64
440.433	24235.32
440.64	25021.74
440.847	25050.41
441.054	25646.37
441.261	27401.48
441.467	26916.11
441.674	27432.2
441.881	28382.46
442.088	28294.39
442.294	28065.02
442.501	28564.73
442.708	29142.25
442.914	30688.47
443.121	31513.8
443.328	30837.97
443.534	32900.28
443.741	32257.21
443.948	31732.93
444.154	33821.86
444.361	33825.96
444.568	33981.6
444.774	34229.41
444.981	34485.4
445.187	35284.11
445.394	36787.32
445.6	36279.43
445.807	39513.17
446.013	37882.98
446.22	39183.44
446.426	40207.43
446.633	40676.41
446.839	42011.69
447.046	40100.93
447.252	42478.63
447.459	42437.67
447.665	42433.57
447.871	44350.47
448.078	46019.56
448.284	43801.61
448.491	44938.24
448.697	46351.34
448.903	47174.62
449.11	47053.79
449.316	46511.08
449.522	47979.47
449.728	49116.09
449.935	49425.34
450.141	49071.04
450.347	50379.69
450.553	48774.08
450.76	49238.97
450.966	50959.27
451.172	49984.43
451.378	51510.17
451.584	50830.24
451.791	51909.52
451.997	51889.04
452.203	52339.6
452.409	52337.55
452.615	52198.29
452.821	50322.35
453.027	49728.44
453.233	52022.16
453.44	50138.03
453.646	50779.04
453.852	50963.36
454.058	51557.27
454.264	50125.74
454.47	51313.56
454.676	50023.34
454.882	51360.67
455.088	47545.3
455.294	48311.24
455.5	49247.16
455.705	49294.27
455.911	47328.22
456.117	46293.99
456.323	46031.85
456.529	43492.37
456.735	45300.73
456.941	44301.32
457.147	43637.78
457.352	42073.13
457.558	42239.01
457.764	41927.72
457.97	40567.87
458.176	40369.22
458.381	40328.26
458.587	38169.7
458.793	38427.74
458.999	36396.16
459.204	38906.97
459.41	37837.93
459.616	35132.56
459.821	35245.2
460.027	35292.3
460.233	34098.34
460.438	32898.23
460.644	33330.35
460.85	31364.3
461.055	31190.22
461.261	30944.47
461.466	28644.6
461.672	28003.58
461.878	30094.56
462.083	28118.27
462.289	27385.1
462.494	27280.65
462.7	25994.53
462.905	24988.97
463.111	26242.33
463.316	26043.68
463.522	25453.86
463.727	25515.3
463.932	25677.09
464.138	25228.59
464.343	25046.32
464.549	24378.68
464.754	25351.46
464.959	25425.19
465.165	25320.74
465.37	23895.36
465.575	23248.2
465.781	24378.68
465.986	24446.26
466.191	23663.94
466.397	23057.74
466.602	21941.6
