Data from USB4F104151__242__14-34-09-661.txt Node

Date: Thu Mar 13 14:34:09 EDT 2025
User: louis
Spectrometer: USB4F10415
Trigger mode: 4
Integration Time (sec): 2.500000E-2
Scans to average: 1
Electric dark correction enabled: true
Nonlinearity correction enabled: false
Boxcar width: 0
XAxis mode: Wavelengths
Number of Pixels in Spectrum: 3648
>>>>>Begin Spectral Data<<<<<
178.204	-138.41
178.424	-138.41
178.644	-138.41
178.864	-195.75
179.084	-154.79
179.304	33.62
179.524	-72.87
179.744	82.77
179.964	29.52
180.184	0.85
180.404	13.14
180.624	41.81
180.844	-72.87
181.064	-33.96
181.283	-29.87
181.503	37.72
181.723	-29.87
181.943	-15.53
182.163	76.63
182.383	0.85
182.602	21.33
182.822	86.87
183.042	27.48
183.262	31.57
183.482	-52.39
183.701	27.48
183.921	37.72
184.141	31.57
184.361	58.2
184.58	25.43
184.8	2.9
185.02	37.72
185.239	90.96
185.459	33.62
185.679	33.62
185.898	17.24
186.118	41.81
186.338	43.86
186.557	66.39
186.777	9.05
186.997	15.19
187.216	27.48
187.436	66.39
187.655	41.81
187.875	160.59
188.095	-9.39
188.314	127.83
188.534	37.72
188.753	84.82
188.973	35.67
189.192	37.72
189.412	105.3
189.631	78.68
189.851	54.1
190.07	0.85
190.29	-31.91
190.509	11.09
190.729	-19.63
190.948	90.96
191.168	209.75
191.387	107.35
191.607	0.85
191.826	13.14
192.045	62.29
192.265	19.29
192.484	33.62
192.704	-7.34
192.923	21.33
193.142	179.03
193.362	58.2
193.581	74.58
193.8	-7.34
194.02	74.58
194.239	2.9
194.458	68.44
194.678	68.44
194.897	41.81
195.116	47.96
195.335	29.52
195.555	90.96
195.774	60.24
195.993	-9.39
196.212	-19.63
196.432	9.05
196.651	41.81
196.87	-15.53
197.089	164.69
197.308	111.44
197.528	90.96
197.747	-19.63
197.966	11.09
198.185	181.07
198.404	35.67
198.623	33.62
198.842	35.67
199.062	90.96
199.281	39.76
199.5	99.16
199.719	78.68
199.938	82.77
200.157	29.52
200.376	58.2
200.595	35.67
200.814	56.15
201.033	50
201.252	78.68
201.471	52.05
201.69	127.83
201.909	68.44
202.128	74.58
202.347	78.68
202.566	37.72
202.785	7
203.004	17.24
203.223	99.16
203.442	66.39
203.661	-11.43
203.879	2.9
204.098	115.54
204.317	9.05
204.536	60.24
204.755	60.24
204.974	58.2
205.193	113.49
205.411	187.22
205.63	27.48
205.849	41.81
206.068	-11.43
206.287	15.19
206.505	45.91
206.724	43.86
206.943	-5.29
207.162	15.19
207.381	68.44
207.599	19.29
207.818	23.38
208.037	-5.29
208.255	37.72
208.474	86.87
208.693	109.4
208.911	54.1
209.13	76.63
209.349	133.97
209.567	58.2
209.786	111.44
210.005	64.34
210.223	45.91
210.442	-72.87
210.661	99.16
210.879	78.68
211.098	23.38
211.316	15.19
211.535	88.92
211.753	-9.39
211.972	-7.34
212.191	21.33
212.409	37.72
212.628	-38.06
212.846	47.96
213.065	-19.63
213.283	25.43
213.502	111.44
213.72	43.86
213.938	58.2
214.157	25.43
214.375	-25.77
214.594	84.82
214.812	74.58
215.031	78.68
215.249	4.95
215.467	84.82
215.686	17.24
215.904	70.48
216.122	-3.24
216.341	119.64
216.559	41.81
216.778	25.43
216.996	54.1
217.214	35.67
217.432	19.29
217.651	50
217.869	37.72
218.087	66.39
218.306	41.81
218.524	25.43
218.742	9.05
218.96	103.25
219.179	-9.39
219.397	35.67
219.615	99.16
219.833	-42.15
220.051	9.05
220.27	56.15
220.488	17.24
220.706	19.29
220.924	74.58
221.142	15.19
221.36	2.9
221.578	-11.43
221.796	-11.43
222.015	52.05
222.233	13.14
222.451	76.63
222.669	4.95
222.887	70.48
223.105	9.05
223.323	-11.43
223.541	0.85
223.759	74.58
223.977	-25.77
224.195	74.58
224.413	99.16
224.631	33.62
224.849	13.14
225.067	131.92
225.285	4.95
225.503	50
225.721	37.72
225.939	52.05
226.157	50
226.375	76.63
226.592	-17.58
226.81	101.2
227.028	13.14
227.246	76.63
227.464	31.57
227.682	27.48
227.9	82.77
228.117	119.64
228.335	39.76
228.553	19.29
228.771	60.24
228.989	27.48
229.206	76.63
229.424	45.91
229.642	101.2
229.86	54.1
230.077	23.38
230.295	66.39
230.513	131.92
230.731	17.24
230.948	54.1
231.166	56.15
231.384	109.4
231.601	33.62
231.819	115.54
232.037	-13.48
232.254	13.14
232.472	-23.72
232.689	17.24
232.907	9.05
233.125	9.05
233.342	58.2
233.56	2.9
233.777	-36.01
233.995	41.81
234.213	58.2
234.43	31.57
234.648	66.39
234.865	-11.43
235.083	82.77
235.3	68.44
235.518	99.16
235.735	35.67
235.953	86.87
236.17	-1.19
236.388	52.05
236.605	74.58
236.822	99.16
237.04	88.92
237.257	25.43
237.475	-13.48
237.692	45.91
237.909	54.1
238.127	17.24
238.344	99.16
238.562	103.25
238.779	47.96
238.996	21.33
239.214	-13.48
239.431	47.96
239.648	50
239.865	43.86
240.083	45.91
240.3	78.68
240.517	11.09
240.735	-36.01
240.952	62.29
241.169	99.16
241.386	50
241.603	25.43
241.821	66.39
242.038	35.67
242.255	140.12
242.472	0.85
242.689	74.58
242.907	43.86
243.124	-15.53
243.341	41.81
243.558	-7.34
243.775	-68.78
243.992	-31.91
244.209	58.2
244.426	111.44
244.643	90.96
244.86	33.62
245.078	13.14
245.295	43.86
245.512	74.58
245.729	-13.48
245.946	86.87
246.163	4.95
246.38	127.83
246.597	76.63
246.814	41.81
247.031	60.24
247.248	60.24
247.464	11.09
247.681	2.9
247.898	76.63
248.115	58.2
248.332	21.33
248.549	127.83
248.766	105.3
248.983	125.78
249.2	17.24
249.417	27.48
249.633	17.24
249.85	74.58
250.067	41.81
250.284	45.91
250.501	52.05
250.717	68.44
250.934	41.81
251.151	-1.19
251.368	31.57
251.585	11.09
251.801	62.29
252.018	-9.39
252.235	86.87
252.451	-23.72
252.668	-11.43
252.885	76.63
253.102	74.58
253.318	-13.48
253.535	90.96
253.752	68.44
253.968	19.29
254.185	-5.29
254.401	17.24
254.618	52.05
254.835	23.38
255.051	97.11
255.268	58.2
255.484	25.43
255.701	-23.72
255.917	-27.82
256.134	58.2
256.351	-5.29
256.567	-52.39
256.784	76.63
257	9.05
257.217	107.35
257.433	33.62
257.65	80.72
257.866	119.64
258.082	-31.91
258.299	54.1
258.515	64.34
258.732	33.62
258.948	13.14
259.165	41.81
259.381	13.14
259.597	25.43
259.814	35.67
260.03	15.19
260.246	-31.91
260.463	-5.29
260.679	133.97
260.895	66.39
261.112	-3.24
261.328	80.72
261.544	21.33
261.761	131.92
261.977	27.48
262.193	41.81
262.409	41.81
262.626	58.2
262.842	35.67
263.058	-23.72
263.274	107.35
263.49	136.02
263.707	84.82
263.923	21.33
264.139	37.72
264.355	13.14
264.571	82.77
264.787	97.11
265.004	70.48
265.22	35.67
265.436	0.85
265.652	-13.48
265.868	-9.39
266.084	41.81
266.3	33.62
266.516	99.16
266.732	39.76
266.948	27.48
267.164	62.29
267.38	19.29
267.596	29.52
267.812	90.96
268.028	47.96
268.244	90.96
268.46	25.43
268.676	60.24
268.892	23.38
269.108	-11.43
269.324	29.52
269.54	25.43
269.756	60.24
269.972	47.96
270.188	29.52
270.403	-27.82
270.619	50
270.835	4.95
271.051	41.81
271.267	60.24
271.483	-31.91
271.698	109.4
271.914	66.39
272.13	21.33
272.346	0.85
272.562	93.01
272.777	50
272.993	37.72
273.209	66.39
273.425	90.96
273.64	78.68
273.856	62.29
274.072	-60.59
274.287	-44.2
274.503	25.43
274.719	58.2
274.934	0.85
275.15	9.05
275.366	82.77
275.581	-81.07
275.797	29.52
276.012	-19.63
276.228	52.05
276.444	-29.87
276.659	74.58
276.875	-38.06
277.09	109.4
277.306	93.01
277.521	11.09
277.737	123.73
277.952	109.4
278.168	76.63
278.383	2.9
278.599	50
278.814	52.05
279.03	56.15
279.245	62.29
279.461	54.1
279.676	90.96
279.892	27.48
280.107	-15.53
280.322	45.91
280.538	82.77
280.753	21.33
280.969	58.2
281.184	66.39
281.399	66.39
281.615	66.39
281.83	21.33
282.045	-1.19
282.26	58.2
282.476	54.1
282.691	90.96
282.906	50
283.122	-62.63
283.337	64.34
283.552	7
283.767	19.29
283.983	64.34
284.198	37.72
284.413	47.96
284.628	37.72
284.843	7
285.058	70.48
285.274	4.95
285.489	50
285.704	50
285.919	-27.82
286.134	9.05
286.349	-3.24
286.564	74.58
286.779	101.2
286.995	68.44
287.21	23.38
287.425	107.35
287.64	7
287.855	25.43
288.07	41.81
288.285	37.72
288.5	125.78
288.715	111.44
288.93	0.85
289.145	66.39
289.36	9.05
289.575	-11.43
289.79	66.39
290.004	13.14
290.219	62.29
290.434	33.62
290.649	25.43
290.864	17.24
291.079	54.1
291.294	56.15
291.509	-13.48
291.724	2.9
291.938	-27.82
292.153	43.86
292.368	41.81
292.583	82.77
292.798	41.81
293.012	58.2
293.227	82.77
293.442	-23.72
293.657	117.59
293.871	68.44
294.086	9.05
294.301	68.44
294.516	90.96
294.73	52.05
294.945	107.35
295.16	0.85
295.374	41.81
295.589	54.1
295.804	54.1
296.018	9.05
296.233	90.96
296.447	82.77
296.662	17.24
296.877	54.1
297.091	35.67
297.306	45.91
297.52	2.9
297.735	54.1
297.949	-15.53
298.164	25.43
298.378	41.81
298.593	35.67
298.807	-48.3
299.022	25.43
299.236	99.16
299.451	-23.72
299.665	41.81
299.88	9.05
300.094	35.67
300.309	70.48
300.523	84.82
300.737	64.34
300.952	70.48
301.166	80.72
301.381	2.9
301.595	41.81
301.809	9.05
302.024	62.29
302.238	-42.15
302.452	82.77
302.667	33.62
302.881	70.48
303.095	107.35
303.309	35.67
303.524	107.35
303.738	31.57
303.952	-15.53
304.166	90.96
304.381	7
304.595	74.58
304.809	0.85
305.023	45.91
305.237	-1.19
305.452	47.96
305.666	0.85
305.88	45.91
306.094	129.88
306.308	-23.72
306.522	115.54
306.736	58.2
306.95	50
307.164	35.67
307.379	88.92
307.593	74.58
307.807	117.59
308.021	115.54
308.235	-5.29
308.449	99.16
308.663	52.05
308.877	156.5
309.091	25.43
309.305	82.77
309.519	41.81
309.733	60.24
309.947	-31.91
310.161	90.96
310.374	84.82
310.588	74.58
310.802	99.16
311.016	9.05
311.23	70.48
311.444	-3.24
311.658	119.64
311.872	148.31
312.085	13.14
312.299	56.15
312.513	13.14
312.727	25.43
312.941	43.86
313.154	9.05
313.368	35.67
313.582	78.68
313.796	50
314.009	-27.82
314.223	66.39
314.437	52.05
314.651	19.29
314.864	99.16
315.078	45.91
315.292	-48.3
315.505	-17.58
315.719	33.62
315.933	4.95
316.146	74.58
316.36	54.1
316.573	117.59
316.787	125.78
317.001	154.45
317.214	54.1
317.428	-40.11
317.641	109.4
317.855	62.29
318.068	99.16
318.282	95.06
318.495	148.31
318.709	27.48
318.922	74.58
319.136	52.05
319.349	-15.53
319.563	-5.29
319.776	138.07
319.99	21.33
320.203	101.2
320.417	-7.34
320.63	99.16
320.843	136.02
321.057	-3.24
321.27	76.63
321.483	74.58
321.697	156.5
321.91	27.48
322.124	17.24
322.337	-33.96
322.55	-1.19
322.763	54.1
322.977	84.82
323.19	9.05
323.403	41.81
323.617	41.81
323.83	41.81
324.043	41.81
324.256	31.57
324.469	64.34
324.683	4.95
324.896	29.52
325.109	82.77
325.322	21.33
325.535	76.63
325.748	78.68
325.962	70.48
326.175	86.87
326.388	58.2
326.601	19.29
326.814	-19.63
327.027	21.33
327.24	95.06
327.453	-7.34
327.666	74.58
327.879	93.01
328.092	62.29
328.305	95.06
328.518	4.95
328.731	19.29
328.944	66.39
329.157	90.96
329.37	-1.19
329.583	25.43
329.796	54.1
330.009	13.14
330.222	35.67
330.435	76.63
330.648	86.87
330.861	25.43
331.073	15.19
331.286	86.87
331.499	74.58
331.712	86.87
331.925	11.09
332.138	66.39
332.35	99.16
332.563	4.95
332.776	74.58
332.989	23.38
333.202	101.2
333.414	29.52
333.627	60.24
333.84	50
334.053	66.39
334.265	50
334.478	-15.53
334.691	21.33
334.903	78.68
335.116	-15.53
335.329	50
335.541	23.38
335.754	72.53
335.966	45.91
336.179	52.05
336.392	-19.63
336.604	76.63
336.817	25.43
337.029	54.1
337.242	43.86
337.454	97.11
337.667	93.01
337.88	2.9
338.092	84.82
338.305	54.1
338.517	99.16
338.729	2.9
338.942	111.44
339.154	84.82
339.367	29.52
339.579	39.76
339.792	82.77
340.004	70.48
340.217	68.44
340.429	25.43
340.641	4.95
340.854	19.29
341.066	64.34
341.278	90.96
341.491	119.64
341.703	97.11
341.915	-40.11
342.128	31.57
342.34	76.63
342.552	9.05
342.764	17.24
342.977	9.05
343.189	9.05
343.401	50
343.613	-62.63
343.826	17.24
344.038	113.49
344.25	21.33
344.462	13.14
344.674	99.16
344.886	62.29
345.099	74.58
345.311	27.48
345.523	76.63
345.735	-7.34
345.947	13.14
346.159	78.68
346.371	90.96
346.583	45.91
346.795	129.88
347.007	107.35
347.219	129.88
347.431	50
347.643	33.62
347.855	37.72
348.067	74.58
348.279	-58.54
348.491	70.48
348.703	74.58
348.915	35.67
349.127	60.24
349.339	56.15
349.551	4.95
349.763	43.86
349.975	17.24
350.187	111.44
350.399	129.88
350.61	17.24
350.822	19.29
351.034	93.01
351.246	68.44
351.458	45.91
351.669	52.05
351.881	95.06
352.093	66.39
352.305	90.96
352.517	23.38
352.728	105.3
352.94	19.29
353.152	107.35
353.363	41.81
353.575	74.58
353.787	76.63
353.999	95.06
354.21	60.24
354.422	25.43
354.633	70.48
354.845	27.48
355.057	56.15
355.268	84.82
355.48	33.62
355.692	33.62
355.903	64.34
356.115	-13.48
356.326	-15.53
356.538	50
356.749	-36.01
356.961	123.73
357.172	19.29
357.384	-62.63
357.595	133.97
357.807	123.73
358.018	21.33
358.23	-23.72
358.441	148.31
358.653	90.96
358.864	47.96
359.075	41.81
359.287	33.62
359.498	125.78
359.709	58.2
359.921	60.24
360.132	58.2
360.344	111.44
360.555	29.52
360.766	86.87
360.977	45.91
361.189	82.77
361.4	123.73
361.611	90.96
361.823	99.16
362.034	33.62
362.245	54.1
362.456	58.2
362.667	17.24
362.879	43.86
363.09	68.44
363.301	43.86
363.512	-13.48
363.723	95.06
363.935	17.24
364.146	78.68
364.357	37.72
364.568	-19.63
364.779	0.85
364.99	84.82
365.201	101.2
365.412	119.64
365.623	0.85
365.834	54.1
366.045	74.58
366.256	27.48
366.467	13.14
366.678	-13.48
366.889	25.43
367.1	9.05
367.311	86.87
367.522	41.81
367.733	101.2
367.944	84.82
368.155	58.2
368.366	78.68
368.577	76.63
368.788	39.76
368.999	52.05
369.209	50
369.42	148.31
369.631	172.88
369.842	78.68
370.053	25.43
370.264	86.87
370.474	45.91
370.685	74.58
370.896	41.81
371.107	80.72
371.317	82.77
371.528	25.43
371.739	76.63
371.95	95.06
372.16	125.78
372.371	125.78
372.582	33.62
372.792	68.44
373.003	33.62
373.214	47.96
373.424	72.53
373.635	41.81
373.846	76.63
374.056	11.09
374.267	13.14
374.477	82.77
374.688	78.68
374.898	72.53
375.109	-29.87
375.319	115.54
375.53	74.58
375.74	13.14
375.951	21.33
376.161	103.25
376.372	54.1
376.582	-38.06
376.793	99.16
377.003	50
377.214	-19.63
377.424	84.82
377.635	119.64
377.845	62.29
378.055	119.64
378.266	11.09
378.476	66.39
378.686	33.62
378.897	41.81
379.107	17.24
379.317	84.82
379.528	-3.24
379.738	93.01
379.948	2.9
380.158	70.48
380.369	93.01
380.579	43.86
380.789	78.68
380.999	66.39
381.21	39.76
381.42	140.12
381.63	25.43
381.84	72.53
382.05	107.35
382.261	107.35
382.471	86.87
382.681	9.05
382.891	107.35
383.101	58.2
383.311	72.53
383.521	107.35
383.731	138.07
383.941	17.24
384.151	90.96
384.361	37.72
384.571	76.63
384.781	37.72
384.991	123.73
385.201	183.12
385.411	99.16
385.621	90.96
385.831	86.87
386.041	-17.58
386.251	25.43
386.461	50
386.671	50
386.881	82.77
387.091	58.2
387.301	90.96
387.511	123.73
387.72	41.81
387.93	99.16
388.14	9.05
388.35	101.2
388.56	109.4
388.769	90.96
388.979	109.4
389.189	7
389.399	103.25
389.609	113.49
389.818	148.31
390.028	127.83
390.238	136.02
390.447	123.73
390.657	99.16
390.867	62.29
391.076	66.39
391.286	99.16
391.496	125.78
391.705	25.43
391.915	74.58
392.125	-1.19
392.334	131.92
392.544	103.25
392.753	60.24
392.963	74.58
393.172	123.73
393.382	74.58
393.591	156.5
393.801	29.52
394.01	142.16
394.22	33.62
394.429	97.11
394.639	140.12
394.848	136.02
395.058	109.4
395.267	93.01
395.477	123.73
395.686	119.64
395.895	101.2
396.105	156.5
396.314	109.4
396.524	123.73
396.733	113.49
396.942	90.96
397.152	111.44
397.361	160.59
397.57	111.44
397.78	140.12
397.989	154.45
398.198	240.47
398.407	131.92
398.617	115.54
398.826	64.34
399.035	164.69
399.244	205.65
399.453	103.25
399.663	101.2
399.872	254.8
400.081	95.06
400.29	133.97
400.499	156.5
400.708	140.12
400.917	123.73
401.127	164.69
401.336	37.72
401.545	179.03
401.754	158.55
401.963	219.99
402.172	60.24
402.381	133.97
402.59	125.78
402.799	115.54
403.008	222.03
403.217	140.12
403.426	209.75
403.635	131.92
403.844	172.88
404.053	90.96
404.262	181.07
404.471	176.98
404.68	172.88
404.888	199.51
405.097	205.65
405.306	213.84
405.515	226.13
405.724	109.4
405.933	174.93
406.142	115.54
406.35	209.75
406.559	213.84
406.768	201.55
406.977	252.75
407.185	287.57
407.394	303.95
407.603	242.51
407.812	287.57
408.02	258.9
408.229	279.38
408.438	283.47
408.646	230.23
408.855	303.95
409.064	273.23
409.272	332.62
409.481	385.87
409.69	332.62
409.898	344.91
410.107	326.48
410.315	375.63
410.524	475.98
410.733	426.83
410.941	416.59
411.15	389.97
411.358	494.41
411.567	516.94
411.775	492.37
411.984	518.99
412.192	611.15
412.401	648.01
412.609	488.27
412.818	537.42
413.026	668.49
413.234	609.1
413.443	631.63
413.651	686.92
413.86	664.4
414.068	787.27
414.276	723.79
414.485	758.6
414.693	750.41
414.901	820.04
415.11	840.52
415.318	777.03
415.526	836.42
415.734	987.97
415.943	1026.89
416.151	1086.28
416.359	1057.61
416.567	1047.37
416.776	1110.85
416.984	1112.9
417.192	1092.42
417.4	1141.57
417.608	1110.85
417.817	1258.31
418.025	1223.49
418.233	1340.22
418.441	1420.1
418.649	1446.72
418.857	1452.86
419.065	1499.97
419.273	1557.31
419.481	1520.45
419.689	1684.28
419.897	1819.45
420.105	1798.97
420.313	1839.93
420.521	1862.46
420.729	1989.43
420.937	1903.42
421.145	2147.12
421.353	2251.57
421.561	2270
421.769	2343.73
421.977	2526
422.185	2337.59
422.393	2462.51
422.601	2708.27
422.809	2718.51
423.017	2708.27
423.224	2769.71
423.432	2917.16
423.64	2958.12
423.848	3248.93
424.056	3124.01
424.263	3302.18
424.471	3328.8
424.679	3427.11
424.887	3621.66
425.094	3828.51
425.302	3703.58
425.51	3926.81
425.718	3916.57
425.925	3904.28
426.133	4025.11
426.341	4420.37
426.548	4684.56
426.756	4586.26
426.964	4702.99
427.171	4956.94
427.379	5026.57
427.586	5178.12
427.794	5227.27
428.001	5569.28
428.209	5833.47
428.417	5741.31
428.624	6089.46
428.832	6114.04
429.039	5980.92
429.247	6001.4
429.454	6669.04
429.662	6820.59
429.869	6664.94
430.076	6980.33
430.284	6900.46
430.491	7097.07
430.699	7570.15
430.906	7408.36
431.114	7772.89
431.321	8082.14
431.528	8004.32
431.736	8567.51
431.943	8962.76
432.15	8739.54
432.358	8606.42
432.565	9378.5
432.772	9196.23
432.979	9519.81
433.187	9913.02
433.394	9923.26
433.601	10668.72
433.808	10812.08
434.016	10609.33
434.223	10908.33
434.43	11512.49
434.637	11369.13
434.844	12350.1
435.052	12407.45
435.259	12266.14
435.466	12321.43
435.673	12407.45
435.88	12956.3
436.087	13841.03
436.294	13843.07
436.501	13312.65
436.708	13623.94
436.915	14224
437.122	14551.67
437.329	14951.03
437.537	15334
437.743	15524.46
437.95	15245.93
438.157	16314.97
438.364	16884.31
438.571	16689.75
438.778	16839.25
438.985	18301.5
439.192	17427.02
439.399	18266.69
439.606	17566.28
439.813	18684.47
440.02	19749.42
440.227	19499.56
440.433	19335.73
440.64	19888.68
440.847	19913.25
441.054	20369.95
441.261	21486.09
441.467	21129.75
441.674	21760.52
441.881	22536.7
442.088	22446.59
442.294	22260.23
442.501	22688.25
442.708	23450.1
442.914	24125.93
443.121	25121.24
443.328	24623.58
443.534	26028.49
443.741	25774.54
443.948	25033.18
444.154	27054.52
444.361	27083.19
444.568	27136.44
444.774	26663.36
444.981	27056.57
445.187	27986.35
445.394	29516.18
445.6	28969.37
445.807	31461.75
446.013	30169.48
446.22	30769.54
446.426	31969.65
446.633	32088.43
446.839	33126.75
447.046	31691.12
447.252	33821.01
447.459	33757.52
447.665	33569.11
447.871	35281.21
448.078	36571.43
448.284	34857.28
448.491	35801.4
448.697	37417.24
448.903	37630.23
449.11	37998.87
449.316	37396.76
449.522	38281.49
449.728	38971.65
449.935	39160.06
450.141	39211.26
450.347	40323.31
450.553	38951.17
450.76	39774.45
450.966	40356.08
451.172	40091.89
451.378	41060.58
451.584	40368.37
451.791	41416.93
451.997	41019.62
452.203	42148.05
452.409	42051.8
452.615	42176.72
452.821	40012.02
453.027	39975.16
453.233	41851.09
453.44	40677.61
453.646	40724.71
453.852	40949.99
454.058	41150.69
454.264	40106.23
454.47	41093.35
454.676	40229.1
454.882	41599.19
455.088	37945.62
455.294	38512.91
455.5	39057.67
455.705	39508.22
455.911	38023.44
456.117	37538.07
456.323	36667.69
456.529	34758.98
456.735	36409.64
456.941	35318.07
457.147	34951.49
457.352	33892.69
457.558	33616.21
457.764	33608.02
457.97	32594.28
458.176	31969.65
458.381	31895.92
458.587	30597.51
458.793	30351.75
458.999	28711.33
459.204	30652.8
459.41	30120.33
459.616	28268.97
459.821	28103.08
460.027	28035.5
460.233	27179.45
460.438	26081.74
460.644	26257.86
460.85	25393.62
461.055	24582.62
461.261	24650.21
461.466	22704.63
461.672	21889.54
461.878	23636.46
462.083	21989.89
462.289	21742.09
462.494	21488.14
462.7	20445.73
462.905	19999.27
463.111	20552.22
463.316	20482.59
463.522	20073
463.727	20245.02
463.932	19935.78
464.138	19898.92
464.343	19939.88
464.549	19599.91
464.754	20099.62
464.959	19749.42
465.165	19528.24
465.37	18887.22
465.575	18242.11
465.781	19247.66
465.986	19118.64
466.191	18584.12
466.397	18045.51
466.602	17183.31
466.807	17787.46
467.012	17893.96
467.218	17449.55
467.423	17572.43
467.628	17562.19
467.833	18147.9
468.038	17648.2
