Data from USB4F104151__106__14-31-04-038.txt Node

Date: Thu Mar 13 14:31:04 EDT 2025
User: louis
Spectrometer: USB4F10415
Trigger mode: 4
Integration Time (sec): 2.500000E-2
Scans to average: 1
Electric dark correction enabled: true
Nonlinearity correction enabled: false
Boxcar width: 0
XAxis mode: Wavelengths
Number of Pixels in Spectrum: 3648
>>>>>Begin Spectral Data<<<<<
178.204	-169.98
178.424	-169.98
178.644	-169.98
178.864	-192.51
179.084	-90.11
179.304	-32.77
179.524	-8.19
179.744	6.14
179.964	-26.62
180.184	6.14
180.404	-14.34
180.624	14.34
180.844	-10.24
181.064	-55.3
181.283	55.3
181.503	-2.05
181.723	67.58
181.943	-75.77
182.163	106.49
182.383	71.68
182.602	47.1
182.822	53.25
183.042	47.1
183.262	49.15
183.482	-12.29
183.701	22.53
183.921	-26.62
184.141	-2.05
184.361	20.48
184.58	71.68
184.8	57.34
185.02	-8.19
185.239	57.34
185.459	-38.91
185.679	47.1
185.898	-43.01
186.118	24.58
186.338	-30.72
186.557	22.53
186.777	14.34
186.997	16.38
187.216	24.58
187.436	2.05
187.655	10.24
187.875	14.34
188.095	-12.29
188.314	73.73
188.534	65.54
188.753	14.34
188.973	86.01
189.192	120.83
189.412	-38.91
189.631	75.77
189.851	49.15
190.07	57.34
190.29	-2.05
190.509	83.97
190.729	77.82
190.948	4.1
191.168	137.21
191.387	71.68
191.607	-18.43
191.826	-18.43
192.045	45.06
192.265	135.17
192.484	83.97
192.704	83.97
192.923	-65.54
193.142	137.21
193.362	65.54
193.581	88.06
193.8	67.58
194.02	67.58
194.239	16.38
194.458	55.3
194.678	59.39
194.897	-30.72
195.116	-2.05
195.335	10.24
195.555	26.62
195.774	14.34
195.993	45.06
196.212	-34.82
196.432	59.39
196.651	63.49
196.87	8.19
197.089	124.93
197.308	106.49
197.528	59.39
197.747	16.38
197.966	47.1
198.185	106.49
198.404	53.25
198.623	40.96
198.842	18.43
199.062	129.02
199.281	69.63
199.5	-4.1
199.719	34.82
199.938	2.05
200.157	55.3
200.376	40.96
200.595	63.49
200.814	61.44
201.033	22.53
201.252	28.67
201.471	79.87
201.69	104.45
201.909	30.72
202.128	83.97
202.347	63.49
202.566	30.72
202.785	-40.96
203.004	2.05
203.223	120.83
203.442	16.38
203.661	8.19
203.879	30.72
204.098	157.69
204.317	4.1
204.536	55.3
204.755	-10.24
204.974	-2.05
205.193	122.88
205.411	34.82
205.63	22.53
205.849	71.68
206.068	88.06
206.287	-75.77
206.505	90.11
206.724	73.73
206.943	-2.05
207.162	10.24
207.381	30.72
207.599	22.53
207.818	-49.15
208.037	79.87
208.255	-22.53
208.474	75.77
208.693	18.43
208.911	16.38
209.13	-8.19
209.349	4.1
209.567	14.34
209.786	10.24
210.005	22.53
210.223	65.54
210.442	-47.1
210.661	139.26
210.879	63.49
211.098	38.91
211.316	34.82
211.535	141.31
211.753	34.82
211.972	106.49
212.191	10.24
212.409	65.54
212.628	43.01
212.846	16.38
213.065	8.19
213.283	88.06
213.502	20.48
213.72	14.34
213.938	59.39
214.157	57.34
214.375	40.96
214.594	6.14
214.812	38.91
215.031	96.25
215.249	79.87
215.467	47.1
215.686	6.14
215.904	96.25
216.122	38.91
216.341	112.64
216.559	108.54
216.778	75.77
216.996	108.54
217.214	2.05
217.432	18.43
217.651	10.24
217.869	-2.05
218.087	16.38
218.306	-2.05
218.524	6.14
218.742	106.49
218.96	49.15
219.179	4.1
219.397	79.87
219.615	83.97
219.833	49.15
220.051	30.72
220.27	14.34
220.488	-16.38
220.706	22.53
220.924	30.72
221.142	14.34
221.36	-63.49
221.578	81.92
221.796	-16.38
222.015	79.87
222.233	-24.58
222.451	129.02
222.669	-18.43
222.887	79.87
223.105	-6.14
223.323	22.53
223.541	-4.1
223.759	100.35
223.977	104.45
224.195	47.1
224.413	36.86
224.631	34.82
224.849	47.1
225.067	129.02
225.285	61.44
225.503	96.25
225.721	-34.82
225.939	88.06
226.157	49.15
226.375	169.98
226.592	14.34
226.81	-8.19
227.028	38.91
227.246	141.31
227.464	83.97
227.682	38.91
227.9	88.06
228.117	92.16
228.335	-8.19
228.553	28.67
228.771	55.3
228.989	-26.62
229.206	-2.05
229.424	63.49
229.642	-26.62
229.86	40.96
230.077	96.25
230.295	53.25
230.513	57.34
230.731	53.25
230.948	38.91
231.166	83.97
231.384	79.87
231.601	-43.01
231.819	0
232.037	18.43
232.254	0
232.472	6.14
232.689	-88.06
232.907	92.16
233.125	40.96
233.342	-75.77
233.56	8.19
233.777	38.91
233.995	16.38
234.213	38.91
234.43	65.54
234.648	92.16
234.865	67.58
235.083	49.15
235.3	8.19
235.518	57.34
235.735	30.72
235.953	88.06
236.17	38.91
236.388	49.15
236.605	-10.24
236.822	65.54
237.04	26.62
237.257	65.54
237.475	73.73
237.692	30.72
237.909	71.68
238.127	34.82
238.344	2.05
238.562	-18.43
238.779	-16.38
238.996	-6.14
239.214	100.35
239.431	30.72
239.648	47.1
239.865	75.77
240.083	30.72
240.3	51.2
240.517	45.06
240.735	10.24
240.952	30.72
241.169	20.48
241.386	14.34
241.603	-38.91
241.821	-32.77
242.038	79.87
242.255	30.72
242.472	47.1
242.689	24.58
242.907	55.3
243.124	8.19
243.341	16.38
243.558	-30.72
243.775	4.1
243.992	8.19
244.209	67.58
244.426	53.25
244.643	40.96
244.86	-32.77
245.078	22.53
245.295	-2.05
245.512	59.39
245.729	-2.05
245.946	79.87
246.163	28.67
246.38	20.48
246.597	63.49
246.814	-6.14
247.031	20.48
247.248	53.25
247.464	63.49
247.681	30.72
247.898	22.53
248.115	108.54
248.332	18.43
248.549	83.97
248.766	43.01
248.983	90.11
249.2	59.39
249.417	38.91
249.633	40.96
249.85	38.91
250.067	63.49
250.284	-2.05
250.501	71.68
250.717	-26.62
250.934	14.34
251.151	22.53
251.368	47.1
251.585	100.35
251.801	65.54
252.018	67.58
252.235	30.72
252.451	63.49
252.668	88.06
252.885	71.68
253.102	30.72
253.318	67.58
253.535	22.53
253.752	-51.2
253.968	-8.19
254.185	-2.05
254.401	4.1
254.618	40.96
254.835	20.48
255.051	108.54
255.268	-59.39
255.484	57.34
255.701	47.1
255.917	129.02
256.134	-34.82
256.351	30.72
256.567	-40.96
256.784	55.3
257	73.73
257.217	88.06
257.433	38.91
257.65	0
257.866	22.53
258.082	10.24
258.299	47.1
258.515	-16.38
258.732	-16.38
258.948	-30.72
259.165	-14.34
259.381	40.96
259.597	-8.19
259.814	40.96
260.03	83.97
260.246	81.92
260.463	36.86
260.679	79.87
260.895	18.43
261.112	65.54
261.328	16.38
261.544	-2.05
261.761	129.02
261.977	14.34
262.193	-32.77
262.409	-10.24
262.626	26.62
262.842	104.45
263.058	14.34
263.274	-22.53
263.49	71.68
263.707	43.01
263.923	73.73
264.139	26.62
264.355	-108.54
264.571	98.3
264.787	73.73
265.004	81.92
265.22	14.34
265.436	6.14
265.652	0
265.868	65.54
266.084	12.29
266.3	71.68
266.516	22.53
266.732	108.54
266.948	73.73
267.164	-10.24
267.38	28.67
267.596	-2.05
267.812	-12.29
268.028	14.34
268.244	2.05
268.46	32.77
268.676	55.3
268.892	28.67
269.108	22.53
269.324	18.43
269.54	-18.43
269.756	83.97
269.972	-38.91
270.188	49.15
270.403	-6.14
270.619	75.77
270.835	92.16
271.051	22.53
271.267	-4.1
271.483	55.3
271.698	38.91
271.914	63.49
272.13	-28.67
272.346	67.58
272.562	-14.34
272.777	32.77
272.993	30.72
273.209	-18.43
273.425	75.77
273.64	71.68
273.856	16.38
274.072	-20.48
274.287	-30.72
274.503	104.45
274.719	47.1
274.934	63.49
275.15	12.29
275.366	38.91
275.581	55.3
275.797	55.3
276.012	53.25
276.228	47.1
276.444	55.3
276.659	120.83
276.875	-10.24
277.09	122.88
277.306	24.58
277.521	6.14
277.737	-10.24
277.952	67.58
278.168	55.3
278.383	30.72
278.599	38.91
278.814	79.87
279.03	45.06
279.245	71.68
279.461	30.72
279.676	81.92
279.892	-2.05
280.107	-2.05
280.322	14.34
280.538	18.43
280.753	-2.05
280.969	6.14
281.184	30.72
281.399	63.49
281.615	40.96
281.83	0
282.045	14.34
282.26	14.34
282.476	67.58
282.691	-43.01
282.906	2.05
283.122	6.14
283.337	8.19
283.552	59.39
283.767	34.82
283.983	129.02
284.198	34.82
284.413	98.3
284.628	43.01
284.843	34.82
285.058	116.73
285.274	8.19
285.489	40.96
285.704	112.64
285.919	47.1
286.134	83.97
286.349	81.92
286.564	88.06
286.779	106.49
286.995	4.1
287.21	18.43
287.425	51.2
287.64	-36.86
287.855	38.91
288.07	-14.34
288.285	67.58
288.5	43.01
288.715	49.15
288.93	32.77
289.145	2.05
289.36	88.06
289.575	71.68
289.79	-10.24
290.004	88.06
290.219	38.91
290.434	65.54
290.649	71.68
290.864	-12.29
291.079	-28.67
291.294	55.3
291.509	14.34
291.724	88.06
291.938	32.77
292.153	32.77
292.368	22.53
292.583	20.48
292.798	112.64
293.012	14.34
293.227	40.96
293.442	79.87
293.657	30.72
293.871	129.02
294.086	47.1
294.301	135.17
294.516	90.11
294.73	30.72
294.945	-63.49
295.16	34.82
295.374	86.01
295.589	139.26
295.804	38.91
296.018	-10.24
296.233	141.31
296.447	16.38
296.662	-24.58
296.877	57.34
297.091	112.64
297.306	55.3
297.52	16.38
297.735	43.01
297.949	22.53
298.164	81.92
298.378	81.92
298.593	4.1
298.807	61.44
299.022	63.49
299.236	116.73
299.451	59.39
299.665	79.87
299.88	-34.82
300.094	43.01
300.309	49.15
300.523	-14.34
300.737	-6.14
300.952	40.96
301.166	59.39
301.381	112.64
301.595	104.45
301.809	43.01
302.024	47.1
302.238	79.87
302.452	122.88
302.667	6.14
302.881	79.87
303.095	-4.1
303.309	79.87
303.524	-10.24
303.738	0
303.952	24.58
304.166	-2.05
304.381	-10.24
304.595	92.16
304.809	47.1
305.023	47.1
305.237	67.58
305.452	20.48
305.666	30.72
305.88	88.06
306.094	73.73
306.308	110.59
306.522	30.72
306.736	55.3
306.95	100.35
307.164	90.11
307.379	67.58
307.593	40.96
307.807	55.3
308.021	57.34
308.235	-49.15
308.449	47.1
308.663	18.43
308.877	116.73
309.091	38.91
309.305	30.72
309.519	6.14
309.733	124.93
309.947	22.53
310.161	75.77
310.374	49.15
310.588	65.54
310.802	-43.01
311.016	36.86
311.23	88.06
311.444	43.01
311.658	14.34
311.872	34.82
312.085	26.62
312.299	36.86
312.513	-10.24
312.727	30.72
312.941	6.14
313.154	55.3
313.368	40.96
313.582	96.25
313.796	112.64
314.009	-18.43
314.223	108.54
314.437	63.49
314.651	55.3
314.864	-8.19
315.078	22.53
315.292	88.06
315.505	38.91
315.719	96.25
315.933	65.54
316.146	-38.91
316.36	67.58
316.573	26.62
316.787	20.48
317.001	49.15
317.214	69.63
317.428	53.25
317.641	-2.05
317.855	67.58
318.068	0
318.282	16.38
318.495	79.87
318.709	73.73
318.922	116.73
319.136	108.54
319.349	8.19
319.563	51.2
319.776	30.72
319.99	30.72
320.203	14.34
320.417	75.77
320.63	129.02
320.843	45.06
321.057	-26.62
321.27	34.82
321.483	77.82
321.697	69.63
321.91	49.15
322.124	30.72
322.337	12.29
322.55	-8.19
322.763	38.91
322.977	55.3
323.19	30.72
323.403	38.91
323.617	38.91
323.83	36.86
324.043	114.69
324.256	49.15
324.469	0
324.683	92.16
324.896	40.96
325.109	100.35
325.322	55.3
325.535	-10.24
325.748	12.29
325.962	34.82
326.175	-16.38
326.388	30.72
326.601	43.01
326.814	116.73
327.027	55.3
327.24	38.91
327.453	61.44
327.666	55.3
327.879	153.6
328.092	16.38
328.305	79.87
328.518	-26.62
328.731	10.24
328.944	55.3
329.157	83.97
329.37	55.3
329.583	114.69
329.796	217.08
330.009	-34.82
330.222	51.2
330.435	26.62
330.648	26.62
330.861	73.73
331.073	6.14
331.286	112.64
331.499	65.54
331.712	30.72
331.925	51.2
332.138	-26.62
332.35	75.77
332.563	47.1
332.776	165.89
332.989	49.15
333.202	71.68
333.414	55.3
333.627	-18.43
333.84	94.21
334.053	63.49
334.265	65.54
334.478	106.49
334.691	-8.19
334.903	14.34
335.116	14.34
335.329	71.68
335.541	59.39
335.754	161.79
335.966	-8.19
336.179	-10.24
336.392	51.2
336.604	6.14
336.817	165.89
337.029	22.53
337.242	40.96
337.454	63.49
337.667	108.54
337.88	137.21
338.092	49.15
338.305	75.77
338.517	2.05
338.729	63.49
338.942	22.53
339.154	-40.96
339.367	18.43
339.579	96.25
339.792	14.34
340.004	18.43
340.217	-18.43
340.429	81.92
340.641	59.39
340.854	10.24
341.066	8.19
341.278	96.25
341.491	141.31
341.703	143.36
341.915	49.15
342.128	47.1
342.34	71.68
342.552	69.63
342.764	36.86
342.977	10.24
343.189	14.34
343.401	10.24
343.613	-32.77
343.826	71.68
344.038	30.72
344.25	88.06
344.462	49.15
344.674	129.02
344.886	26.62
345.099	110.59
345.311	67.58
345.523	20.48
345.735	-69.63
345.947	40.96
346.159	112.64
346.371	63.49
346.583	47.1
346.795	96.25
347.007	14.34
347.219	57.34
347.431	57.34
347.643	122.88
347.855	112.64
348.067	161.79
348.279	63.49
348.491	30.72
348.703	32.77
348.915	40.96
349.127	88.06
349.339	43.01
349.551	-32.77
349.763	38.91
349.975	71.68
350.187	49.15
350.399	90.11
350.61	34.82
350.822	-26.62
351.034	124.93
351.246	79.87
351.458	18.43
351.669	131.07
351.881	92.16
352.093	24.58
352.305	32.77
352.517	12.29
352.728	184.32
352.94	73.73
353.152	63.49
353.363	55.3
353.575	79.87
353.787	79.87
353.999	57.34
354.21	75.77
354.422	10.24
354.633	-26.62
354.845	59.39
355.057	75.77
355.268	104.45
355.48	24.58
355.692	24.58
355.903	65.54
356.115	79.87
356.326	-32.77
356.538	114.69
356.749	55.3
356.961	157.69
357.172	32.77
357.384	57.34
357.595	116.73
357.807	14.34
358.018	61.44
358.23	8.19
358.441	139.26
358.653	83.97
358.864	88.06
359.075	79.87
359.287	51.2
359.498	112.64
359.709	30.72
359.921	51.2
360.132	129.02
360.344	-2.05
360.555	38.91
360.766	133.12
360.977	30.72
361.189	145.41
361.4	-34.82
361.611	143.36
361.823	69.63
362.034	34.82
362.245	8.19
362.456	47.1
362.667	-14.34
362.879	36.86
363.09	75.77
363.301	86.01
363.512	49.15
363.723	10.24
363.935	71.68
364.146	6.14
364.357	63.49
364.568	83.97
364.779	57.34
364.99	73.73
365.201	32.77
365.412	139.26
365.623	114.69
365.834	161.79
366.045	-8.19
366.256	129.02
366.467	98.3
366.678	92.16
366.889	71.68
367.1	55.3
367.311	30.72
367.522	65.54
367.733	47.1
367.944	47.1
368.155	92.16
368.366	98.3
368.577	79.87
368.788	26.62
368.999	71.68
369.209	26.62
369.42	139.26
369.631	129.02
369.842	10.24
370.053	-2.05
370.264	71.68
370.474	38.91
370.685	104.45
370.896	81.92
371.107	83.97
371.317	131.07
371.528	16.38
371.739	104.45
371.95	129.02
372.16	131.07
372.371	32.77
372.582	63.49
372.792	53.25
373.003	40.96
373.214	75.77
373.424	83.97
373.635	10.24
373.846	139.26
374.056	75.77
374.267	51.2
374.477	71.68
374.688	65.54
374.898	-8.19
375.109	67.58
375.319	26.62
375.53	71.68
375.74	63.49
375.951	0
376.161	65.54
376.372	88.06
376.582	-18.43
376.793	18.43
377.003	51.2
377.214	63.49
377.424	112.64
377.635	63.49
377.845	32.77
378.055	47.1
378.266	32.77
378.476	86.01
378.686	79.87
378.897	137.21
379.107	94.21
379.317	116.73
379.528	59.39
379.738	112.64
379.948	-16.38
380.158	-30.72
380.369	81.92
380.579	100.35
380.789	55.3
380.999	0
381.21	47.1
381.42	112.64
381.63	38.91
381.84	88.06
382.05	30.72
382.261	77.82
382.471	129.02
382.681	79.87
382.891	65.54
383.101	38.91
383.311	4.1
383.521	4.1
383.731	106.49
383.941	67.58
384.151	61.44
384.361	20.48
384.571	51.2
384.781	40.96
384.991	112.64
385.201	139.26
385.411	120.83
385.621	51.2
385.831	47.1
386.041	71.68
386.251	96.25
386.461	49.15
386.671	47.1
386.881	194.56
387.091	90.11
387.301	55.3
387.511	110.59
387.72	151.55
387.93	110.59
388.14	73.73
388.35	88.06
388.56	96.25
388.769	161.79
388.979	16.38
389.189	4.1
389.399	77.82
389.609	69.63
389.818	114.69
390.028	147.45
390.238	108.54
390.447	43.01
390.657	210.94
390.867	61.44
391.076	18.43
391.286	55.3
391.496	47.1
391.705	94.21
391.915	38.91
392.125	96.25
392.334	16.38
392.544	116.73
392.753	59.39
392.963	32.77
393.172	75.77
393.382	104.45
393.591	137.21
393.801	73.73
394.01	116.73
394.22	131.07
394.429	45.06
394.639	100.35
394.848	157.69
395.058	118.78
395.267	165.89
395.477	65.54
395.686	129.02
395.895	163.84
396.105	153.6
396.314	110.59
396.524	159.74
396.733	83.97
396.942	163.84
397.152	139.26
397.361	137.21
397.57	96.25
397.78	143.36
397.989	79.87
398.198	196.61
398.407	73.73
398.617	122.88
398.826	94.21
399.035	161.79
399.244	96.25
399.453	100.35
399.663	155.65
399.872	141.31
400.081	71.68
400.29	161.79
400.499	114.69
400.708	155.65
400.917	186.37
401.127	161.79
401.336	137.21
401.545	172.03
401.754	120.83
401.963	161.79
402.172	86.01
402.381	131.07
402.59	124.93
402.799	145.41
403.008	231.42
403.217	131.07
403.426	167.93
403.635	145.41
403.844	151.55
404.053	251.9
404.262	186.37
404.471	219.13
404.68	172.03
404.888	178.17
405.097	178.17
405.306	165.89
405.515	210.94
405.724	180.22
405.933	249.85
406.142	237.56
406.35	270.33
406.559	264.19
406.768	163.84
406.977	280.57
407.185	233.47
407.394	284.67
407.603	215.04
407.812	245.76
408.02	317.44
408.229	305.15
408.438	266.24
408.646	229.37
408.855	268.28
409.064	301.05
409.272	354.3
409.481	481.27
409.69	309.24
409.898	327.67
410.107	393.21
410.315	399.35
410.524	423.93
410.733	423.93
410.941	378.87
411.15	505.85
411.358	483.32
411.567	452.6
411.775	460.79
411.984	526.33
412.192	548.86
412.401	485.37
412.609	573.43
412.818	573.43
413.026	671.73
413.234	538.62
413.443	636.92
413.651	632.82
413.86	704.5
414.068	745.46
414.276	796.66
414.485	767.99
414.693	743.41
414.901	899.06
415.11	860.15
415.318	923.63
415.526	884.72
415.734	1013.74
415.943	968.69
416.151	1054.7
416.359	927.73
416.567	1095.66
416.776	1153.01
416.984	1175.53
417.192	1275.88
417.4	1302.51
417.608	1308.65
417.817	1351.66
418.025	1378.28
418.233	1521.64
418.441	1390.57
418.649	1492.97
418.857	1587.18
419.065	1630.18
419.273	1650.66
419.481	1685.48
419.689	1816.55
419.897	1875.94
420.105	1890.28
420.313	1918.95
420.521	1974.24
420.729	2119.65
420.937	2170.85
421.145	2113.5
421.353	2275.29
421.561	2502.62
421.769	2465.75
421.977	2541.53
422.185	2463.71
422.393	2703.32
422.601	2926.55
422.809	2906.07
423.017	2834.39
423.224	3028.95
423.432	3176.4
423.64	3186.64
423.848	3551.18
424.056	3295.18
424.263	3536.84
424.471	3528.65
424.679	3629
424.887	3848.13
425.094	4057.03
425.302	3993.54
425.51	4143.04
425.718	4136.9
425.925	4298.69
426.133	4446.14
426.341	4628.41
426.548	4868.02
426.756	4927.41
426.964	5038
427.171	5152.69
427.379	5392.3
427.586	5515.18
427.794	5705.64
428.001	6012.84
428.209	6088.61
428.417	6057.89
428.624	6576.03
428.832	6354.85
429.039	6436.77
429.247	6539.16
429.454	7167.89
429.662	7450.51
429.869	6920.09
430.076	7618.44
430.284	7432.08
430.491	7765.9
430.699	7905.16
430.906	8105.86
431.114	8179.59
431.321	8324.99
431.528	8636.28
431.736	9095.03
431.943	9516.91
432.15	9228.15
432.358	9494.38
432.565	9856.87
432.772	9871.21
432.979	10303.33
433.187	10563.42
433.394	10657.63
433.601	11355.99
433.808	11298.64
434.016	11286.36
434.223	11716.43
434.43	12347.2
434.637	12263.24
434.844	13141.82
435.052	13088.57
435.259	13211.45
435.466	13408.05
435.673	13154.1
435.88	14034.73
436.087	14858.01
436.294	14808.86
436.501	14520.1
436.708	14585.63
436.915	15189.78
437.122	15718.16
437.329	15918.86
437.537	16332.55
437.743	16457.48
437.95	16596.74
438.157	17430.26
438.364	17841.9
438.571	17897.2
438.778	18061.04
438.985	19431.13
439.192	18886.37
439.399	19439.32
439.606	19056.35
439.813	20184.78
440.02	21231.29
440.227	20977.34
440.433	20700.87
440.64	21118.65
440.847	21323.45
441.054	21814.96
441.261	23101.09
441.467	22933.15
441.674	23195.29
441.881	23975.57
442.088	24145.55
442.294	23869.08
442.501	24176.27
442.708	24811.14
442.914	26132.08
443.121	26957.41
443.328	26123.89
443.534	27813.46
443.741	27096.67
443.948	26977.89
444.154	29079.11
444.361	28794.44
444.568	28962.37
444.774	29038.15
444.981	29613.63
445.187	30182.96
445.394	31614.49
445.6	31157.8
445.807	33848.83
446.013	32560.66
446.22	33072.65
446.426	34010.62
446.633	34739.69
446.839	35986.91
447.046	34360.82
447.252	36232.66
447.459	36203.99
447.665	36031.96
447.871	37981.63
448.078	39157.16
448.284	37426.63
448.491	38419.89
448.697	39990.69
448.903	40316.31
449.11	40394.14
449.316	40168.86
449.522	40637.84
449.728	41702.79
449.935	41862.53
450.141	42444.15
450.347	42962.29
450.553	41393.54
450.76	42182.01
450.966	43545.96
451.172	42665.33
451.378	44330.33
451.584	43156.85
451.791	43836.77
451.997	44232.03
452.203	44537.18
452.409	44617.05
452.615	44787.03
452.821	42745.2
453.027	42524.02
453.233	44860.76
453.44	43031.92
453.646	43382.12
453.852	43132.27
454.058	44203.36
454.264	42630.52
454.47	43994.46
454.676	42812.79
454.882	44092.77
455.088	40863.12
455.294	41082.25
455.5	41710.98
455.705	42085.76
455.911	40431
456.117	39779.75
456.323	38952.37
456.529	37262.79
456.735	38618.55
456.941	37551.56
457.147	37141.96
457.352	36322.77
457.558	35532.26
457.764	35804.64
457.97	35311.08
458.176	34565.62
458.381	34412.02
458.587	32753.16
458.793	32544.27
458.999	30875.18
459.204	32849.42
459.41	32132.63
459.616	30473.77
459.821	29992.5
460.027	29572.67
460.233	29226.56
460.438	28120.66
460.644	28212.82
460.85	26973.8
461.055	26496.62
461.261	26351.21
461.466	24520.33
461.672	23901.84
461.878	25384.57
462.083	23793.3
462.289	23357.08
462.494	22931.11
462.7	22144.69
462.905	21518.01
463.111	22144.69
463.316	22224.56
463.522	21855.92
463.727	21976.75
463.932	21794.48
464.138	21233.34
464.343	21483.19
464.549	21032.64
464.754	21634.74
464.959	21405.37
465.165	21348.03
465.37	20258.51
465.575	19603.16
465.781	20475.59
465.986	20610.76
466.191	19865.3
466.397	19547.86
466.602	18499.3
466.807	19275.48
