Data from USB4F104151__77__14-30-29-798.txt Node

Date: Thu Mar 13 14:30:29 EDT 2025
User: louis
Spectrometer: USB4F10415
Trigger mode: 4
Integration Time (sec): 2.500000E-2
Scans to average: 1
Electric dark correction enabled: true
Nonlinearity correction enabled: false
Boxcar width: 0
XAxis mode: Wavelengths
Number of Pixels in Spectrum: 3648
>>>>>Begin Spectral Data<<<<<
178.204	-205.31
178.424	-205.31
178.644	-205.31
178.864	-141.82
179.084	-172.54
179.304	46.59
179.524	34.3
179.744	15.87
179.964	26.11
180.184	-0.51
180.404	7.68
180.624	-39.42
180.844	17.92
181.064	-29.18
181.283	-16.9
181.503	-25.09
181.723	-37.38
181.943	-84.48
182.163	85.5
182.383	-33.28
182.602	118.27
182.822	56.83
183.042	7.68
183.262	11.78
183.482	-2.56
183.701	17.92
183.921	48.64
184.141	-57.86
184.361	44.54
184.58	44.54
184.8	-0.51
185.02	-23.04
185.239	114.17
185.459	48.64
185.679	28.16
185.898	-33.28
186.118	17.92
186.338	-6.66
186.557	83.45
186.777	-41.47
186.997	-20.99
187.216	-43.52
187.436	69.12
187.655	46.59
187.875	91.65
188.095	-43.52
188.314	11.78
188.534	36.35
188.753	9.73
188.973	7.68
189.192	56.83
189.412	-6.66
189.631	36.35
189.851	19.97
190.07	-35.33
190.29	15.87
190.509	-16.9
190.729	48.64
190.948	9.73
191.168	132.61
191.387	11.78
191.607	32.26
191.826	58.88
192.045	-6.66
192.265	81.41
192.484	-16.9
192.704	-8.7
192.923	5.63
193.142	-16.9
193.362	81.41
193.581	77.31
193.8	-14.85
194.02	34.3
194.239	-25.09
194.458	-61.95
194.678	-39.42
194.897	32.26
195.116	-25.09
195.335	-4.61
195.555	-6.66
195.774	95.74
195.993	15.87
196.212	-12.8
196.432	-49.66
196.651	-20.99
196.87	24.06
197.089	42.5
197.308	-8.7
197.528	81.41
197.747	-39.42
197.966	11.78
198.185	151.04
198.404	-66.05
198.623	50.69
198.842	15.87
199.062	40.45
199.281	11.78
199.5	-2.56
199.719	3.58
199.938	-2.56
200.157	44.54
200.376	48.64
200.595	69.12
200.814	42.5
201.033	36.35
201.252	132.61
201.471	24.06
201.69	75.26
201.909	-33.28
202.128	116.22
202.347	67.07
202.566	-14.85
202.785	28.16
203.004	-16.9
203.223	65.02
203.442	-16.9
203.661	32.26
203.879	48.64
204.098	32.26
204.317	-20.99
204.536	24.06
204.755	24.06
204.974	77.31
205.193	-20.99
205.411	134.65
205.63	56.83
205.849	24.06
206.068	-41.47
206.287	40.45
206.505	97.79
206.724	73.21
206.943	9.73
207.162	-31.23
207.381	108.03
207.599	9.73
207.818	-2.56
208.037	-25.09
208.255	-16.9
208.474	97.79
208.693	-12.8
208.911	34.3
209.13	15.87
209.349	58.88
209.567	40.45
209.786	42.5
210.005	28.16
210.223	-8.7
210.442	22.02
210.661	48.64
210.879	-0.51
211.098	26.11
211.316	-10.75
211.535	42.5
211.753	-8.7
211.972	40.45
212.191	40.45
212.409	7.68
212.628	13.82
212.846	3.58
213.065	105.98
213.283	99.84
213.502	24.06
213.72	-12.8
213.938	67.07
214.157	-45.57
214.375	77.31
214.594	48.64
214.812	50.69
215.031	50.69
215.249	19.97
215.467	17.92
215.686	-51.71
215.904	42.5
216.122	26.11
216.341	83.45
216.559	44.54
216.778	-12.8
216.996	15.87
217.214	24.06
217.432	48.64
217.651	3.58
217.869	56.83
218.087	-16.9
218.306	28.16
218.524	32.26
218.742	-33.28
218.96	-23.04
219.179	44.54
219.397	3.58
219.615	105.98
219.833	15.87
220.051	36.35
220.27	65.02
220.488	38.4
220.706	91.65
220.924	-39.42
221.142	52.74
221.36	28.16
221.578	17.92
221.796	-14.85
222.015	1.54
222.233	-41.47
222.451	48.64
222.669	-90.62
222.887	67.07
223.105	42.5
223.323	36.35
223.541	-31.23
223.759	-41.47
223.977	3.58
224.195	48.64
224.413	97.79
224.631	24.06
224.849	17.92
225.067	-4.61
225.285	-25.09
225.503	-43.52
225.721	-82.43
225.939	69.12
226.157	19.97
226.375	122.37
226.592	-10.75
226.81	-25.09
227.028	67.07
227.246	50.69
227.464	36.35
227.682	15.87
227.9	24.06
228.117	52.74
228.335	24.06
228.553	17.92
228.771	19.97
228.989	40.45
229.206	44.54
229.424	34.3
229.642	-25.09
229.86	-45.57
230.077	-39.42
230.295	99.84
230.513	81.41
230.731	81.41
230.948	7.68
231.166	-0.51
231.384	38.4
231.601	-16.9
231.819	114.17
232.037	1.54
232.254	-53.76
232.472	48.64
232.689	-18.94
232.907	7.68
233.125	42.5
233.342	1.54
233.56	-88.57
233.777	-4.61
233.995	13.82
234.213	75.26
234.43	46.59
234.648	24.06
234.865	85.5
235.083	71.17
235.3	28.16
235.518	36.35
235.735	24.06
235.953	17.92
236.17	71.17
236.388	26.11
236.605	28.16
236.822	22.02
237.04	44.54
237.257	15.87
237.475	-33.28
237.692	26.11
237.909	-41.47
238.127	-68.09
238.344	73.21
238.562	30.21
238.779	1.54
238.996	-0.51
239.214	19.97
239.431	24.06
239.648	-51.71
239.865	-20.99
240.083	122.37
240.3	54.78
240.517	11.78
240.735	81.41
240.952	52.74
241.169	83.45
241.386	48.64
241.603	52.74
241.821	30.21
242.038	46.59
242.255	60.93
242.472	30.21
242.689	32.26
242.907	60.93
243.124	7.68
243.341	-41.47
243.558	-113.15
243.775	-29.18
243.992	15.87
244.209	3.58
244.426	112.13
244.643	26.11
244.86	50.69
245.078	48.64
245.295	67.07
245.512	-0.51
245.729	3.58
245.946	40.45
246.163	34.3
246.38	126.46
246.597	97.79
246.814	36.35
247.031	50.69
247.248	34.3
247.464	15.87
247.681	-25.09
247.898	-8.7
248.115	69.12
248.332	24.06
248.549	30.21
248.766	40.45
248.983	65.02
249.2	28.16
249.417	26.11
249.633	-41.47
249.85	15.87
250.067	-25.09
250.284	50.69
250.501	65.02
250.717	34.3
250.934	34.3
251.151	36.35
251.368	15.87
251.585	58.88
251.801	-16.9
252.018	32.26
252.235	32.26
252.451	7.68
252.668	-8.7
252.885	40.45
253.102	22.02
253.318	-12.8
253.535	22.02
253.752	15.87
253.968	58.88
254.185	17.92
254.401	24.06
254.618	32.26
254.835	-33.28
255.051	-20.99
255.268	-27.14
255.484	34.3
255.701	77.31
255.917	15.87
256.134	-12.8
256.351	46.59
256.567	-53.76
256.784	28.16
257	-53.76
257.217	75.26
257.433	67.07
257.65	101.89
257.866	28.16
258.082	-27.14
258.299	7.68
258.515	-0.51
258.732	-33.28
258.948	42.5
259.165	73.21
259.381	-20.99
259.597	75.26
259.814	32.26
260.03	67.07
260.246	-33.28
260.463	40.45
260.679	67.07
260.895	-29.18
261.112	79.36
261.328	32.26
261.544	-31.23
261.761	32.26
261.977	46.59
262.193	-29.18
262.409	89.6
262.626	-4.61
262.842	42.5
263.058	42.5
263.274	44.54
263.49	15.87
263.707	24.06
263.923	11.78
264.139	-16.9
264.355	32.26
264.571	48.64
264.787	26.11
265.004	-35.33
265.22	-10.75
265.436	30.21
265.652	15.87
265.868	40.45
266.084	62.98
266.3	101.89
266.516	-20.99
266.732	26.11
266.948	32.26
267.164	11.78
267.38	26.11
267.596	93.69
267.812	83.45
268.028	36.35
268.244	7.68
268.46	75.26
268.676	-6.66
268.892	40.45
269.108	-29.18
269.324	-18.94
269.54	32.26
269.756	11.78
269.972	-2.56
270.188	-25.09
270.403	-57.86
270.619	40.45
270.835	3.58
271.051	40.45
271.267	-20.99
271.483	-23.04
271.698	1.54
271.914	46.59
272.13	48.64
272.346	15.87
272.562	50.69
272.777	-6.66
272.993	75.26
273.209	-12.8
273.425	56.83
273.64	-4.61
273.856	-33.28
274.072	26.11
274.287	-41.47
274.503	93.69
274.719	73.21
274.934	-33.28
275.15	7.68
275.366	105.98
275.581	-8.7
275.797	-82.43
276.012	38.4
276.228	32.26
276.444	48.64
276.659	140.8
276.875	-43.52
277.09	15.87
277.306	69.12
277.521	5.63
277.737	48.64
277.952	60.93
278.168	-4.61
278.383	7.68
278.599	40.45
278.814	83.45
279.03	32.26
279.245	50.69
279.461	-6.66
279.676	15.87
279.892	-0.51
280.107	-8.7
280.322	7.68
280.538	17.92
280.753	17.92
280.969	-0.51
281.184	-6.66
281.399	87.55
281.615	-33.28
281.83	36.35
282.045	-55.81
282.26	58.88
282.476	73.21
282.691	5.63
282.906	-53.76
283.122	62.98
283.337	1.54
283.552	-4.61
283.767	-64
283.983	48.64
284.198	-31.23
284.413	95.74
284.628	19.97
284.843	1.54
285.058	-12.8
285.274	-16.9
285.489	-33.28
285.704	50.69
285.919	19.97
286.134	1.54
286.349	32.26
286.564	7.68
286.779	65.02
286.995	32.26
287.21	15.87
287.425	26.11
287.64	110.08
287.855	40.45
288.07	-59.9
288.285	65.02
288.5	13.82
288.715	40.45
288.93	67.07
289.145	17.92
289.36	19.97
289.575	48.64
289.79	-4.61
290.004	42.5
290.219	73.21
290.434	-6.66
290.649	-57.86
290.864	7.68
291.079	24.06
291.294	38.4
291.509	-18.94
291.724	9.73
291.938	56.83
292.153	36.35
292.368	19.97
292.583	81.41
292.798	48.64
293.012	13.82
293.227	38.4
293.442	13.82
293.657	97.79
293.871	108.03
294.086	58.88
294.301	50.69
294.516	40.45
294.73	1.54
294.945	-39.42
295.16	24.06
295.374	81.41
295.589	32.26
295.804	42.5
296.018	1.54
296.233	50.69
296.447	89.6
296.662	50.69
296.877	15.87
297.091	83.45
297.306	26.11
297.52	-76.29
297.735	40.45
297.949	-49.66
298.164	-0.51
298.378	36.35
298.593	-31.23
298.807	-10.75
299.022	22.02
299.236	69.12
299.451	28.16
299.665	15.87
299.88	11.78
300.094	110.08
300.309	34.3
300.523	-0.51
300.737	1.54
300.952	17.92
301.166	40.45
301.381	-25.09
301.595	-33.28
301.809	9.73
302.024	-68.09
302.238	9.73
302.452	73.21
302.667	1.54
302.881	32.26
303.095	15.87
303.309	28.16
303.524	48.64
303.738	15.87
303.952	13.82
304.166	60.93
304.381	-6.66
304.595	32.26
304.809	19.97
305.023	34.3
305.237	-6.66
305.452	1.54
305.666	9.73
305.88	73.21
306.094	52.74
306.308	44.54
306.522	91.65
306.736	-14.85
306.95	24.06
307.164	15.87
307.379	-6.66
307.593	124.41
307.807	69.12
308.021	1.54
308.235	67.07
308.449	32.26
308.663	11.78
308.877	42.5
309.091	77.31
309.305	34.3
309.519	-57.86
309.733	9.73
309.947	-94.72
310.161	28.16
310.374	7.68
310.588	89.6
310.802	34.3
311.016	32.26
311.23	34.3
311.444	124.41
311.658	-12.8
311.872	50.69
312.085	60.93
312.299	83.45
312.513	56.83
312.727	34.3
312.941	9.73
313.154	-8.7
313.368	40.45
313.582	50.69
313.796	60.93
314.009	73.21
314.223	32.26
314.437	93.69
314.651	91.65
314.864	-74.24
315.078	-10.75
315.292	58.88
315.505	-31.23
315.719	91.65
315.933	40.45
316.146	-14.85
316.36	34.3
316.573	110.08
316.787	28.16
317.001	32.26
317.214	22.02
317.428	30.21
317.641	-31.23
317.855	1.54
318.068	32.26
318.282	11.78
318.495	81.41
318.709	73.21
318.922	40.45
319.136	50.69
319.349	42.5
319.563	48.64
319.776	5.63
319.99	-47.62
320.203	81.41
320.417	52.74
320.63	52.74
320.843	132.61
321.057	71.17
321.27	19.97
321.483	38.4
321.697	46.59
321.91	19.97
322.124	17.92
322.337	-8.7
322.55	-45.57
322.763	19.97
322.977	36.35
323.19	17.92
323.403	-8.7
323.617	67.07
323.83	128.51
324.043	65.02
324.256	46.59
324.469	32.26
324.683	75.26
324.896	101.89
325.109	28.16
325.322	9.73
325.535	58.88
325.748	32.26
325.962	24.06
326.175	26.11
326.388	26.11
326.601	50.69
326.814	7.68
327.027	83.45
327.24	44.54
327.453	-12.8
327.666	-35.33
327.879	99.84
328.092	-4.61
328.305	9.73
328.518	15.87
328.731	75.26
328.944	42.5
329.157	81.41
329.37	56.83
329.583	97.79
329.796	132.61
330.009	-12.8
330.222	128.51
330.435	67.07
330.648	-16.9
330.861	-8.7
331.073	32.26
331.286	136.7
331.499	77.31
331.712	-23.04
331.925	81.41
332.138	42.5
332.35	75.26
332.563	-86.53
332.776	89.6
332.989	-25.09
333.202	40.45
333.414	-18.94
333.627	60.93
333.84	-6.66
334.053	-33.28
334.265	-29.18
334.478	17.92
334.691	89.6
334.903	42.5
335.116	9.73
335.329	54.78
335.541	-6.66
335.754	105.98
335.966	-47.62
336.179	-12.8
336.392	24.06
336.604	75.26
336.817	60.93
337.029	3.58
337.242	30.21
337.454	50.69
337.667	1.54
337.88	54.78
338.092	34.3
338.305	60.93
338.517	1.54
338.729	56.83
338.942	56.83
339.154	28.16
339.367	-23.04
339.579	56.83
339.792	15.87
340.004	103.93
340.217	69.12
340.429	50.69
340.641	-6.66
340.854	26.11
341.066	56.83
341.278	44.54
341.491	192
341.703	40.45
341.915	81.41
342.128	7.68
342.34	15.87
342.552	85.5
342.764	-2.56
342.977	3.58
343.189	32.26
343.401	34.3
343.613	69.12
343.826	85.5
344.038	50.69
344.25	3.58
344.462	44.54
344.674	-43.52
344.886	17.92
345.099	73.21
345.311	11.78
345.523	-16.9
345.735	-39.42
345.947	-33.28
346.159	67.07
346.371	26.11
346.583	26.11
346.795	105.98
347.007	65.02
347.219	40.45
347.431	95.74
347.643	75.26
347.855	32.26
348.067	19.97
348.279	48.64
348.491	24.06
348.703	44.54
348.915	30.21
349.127	89.6
349.339	17.92
349.551	7.68
349.763	15.87
349.975	58.88
350.187	28.16
350.399	65.02
350.61	48.64
350.822	34.3
351.034	22.02
351.246	52.74
351.458	36.35
351.669	40.45
351.881	42.5
352.093	67.07
352.305	69.12
352.517	67.07
352.728	34.3
352.94	17.92
353.152	87.55
353.363	-29.18
353.575	52.74
353.787	58.88
353.999	26.11
354.21	116.22
354.422	89.6
354.633	17.92
354.845	42.5
355.057	-16.9
355.268	73.21
355.48	50.69
355.692	-41.47
355.903	79.36
356.115	32.26
356.326	-70.14
356.538	32.26
356.749	89.6
356.961	40.45
357.172	75.26
357.384	-16.9
357.595	62.98
357.807	-20.99
358.018	81.41
358.23	75.26
358.441	-20.99
358.653	44.54
358.864	-8.7
359.075	-14.85
359.287	65.02
359.498	52.74
359.709	73.21
359.921	-29.18
360.132	65.02
360.344	-41.47
360.555	3.58
360.766	93.69
360.977	-37.38
361.189	89.6
361.4	26.11
361.611	91.65
361.823	48.64
362.034	56.83
362.245	-12.8
362.456	40.45
362.667	101.89
362.879	24.06
363.09	5.63
363.301	105.98
363.512	44.54
363.723	17.92
363.935	67.07
364.146	52.74
364.357	19.97
364.568	19.97
364.779	-33.28
364.99	5.63
365.201	15.87
365.412	138.75
365.623	-33.28
365.834	-41.47
366.045	56.83
366.256	56.83
366.467	81.41
366.678	46.59
366.889	-43.52
367.1	-4.61
367.311	65.02
367.522	-64
367.733	1.54
367.944	13.82
368.155	81.41
368.366	65.02
368.577	65.02
368.788	13.82
368.999	17.92
369.209	34.3
369.42	52.74
369.631	28.16
369.842	69.12
370.053	44.54
370.264	95.74
370.474	-25.09
370.685	56.83
370.896	-23.04
371.107	38.4
371.317	79.36
371.528	42.5
371.739	56.83
371.95	85.5
372.16	67.07
372.371	58.88
372.582	3.58
372.792	-12.8
373.003	19.97
373.214	-8.7
373.424	138.75
373.635	3.58
373.846	97.79
374.056	-0.51
374.267	-16.9
374.477	73.21
374.688	93.69
374.898	3.58
375.109	60.93
375.319	67.07
375.53	73.21
375.74	30.21
375.951	5.63
376.161	32.26
376.372	89.6
376.582	65.02
376.793	40.45
377.003	15.87
377.214	60.93
377.424	69.12
377.635	60.93
377.845	105.98
378.055	24.06
378.266	-8.7
378.476	56.83
378.686	73.21
378.897	-20.99
379.107	40.45
379.317	-16.9
379.528	40.45
379.738	3.58
379.948	40.45
380.158	28.16
380.369	15.87
380.579	91.65
380.789	-64
380.999	130.56
381.21	1.54
381.42	26.11
381.63	-31.23
381.84	26.11
382.05	32.26
382.261	69.12
382.471	99.84
382.681	9.73
382.891	148.99
383.101	67.07
383.311	36.35
383.521	75.26
383.731	89.6
383.941	73.21
384.151	65.02
384.361	65.02
384.571	28.16
384.781	58.88
384.991	130.56
385.201	120.32
385.411	58.88
385.621	58.88
385.831	122.37
386.041	67.07
386.251	56.83
386.461	99.84
386.671	-33.28
386.881	40.45
387.091	97.79
387.301	22.02
387.511	34.3
387.72	17.92
387.93	73.21
388.14	124.41
388.35	97.79
388.56	24.06
388.769	140.8
388.979	97.79
389.189	-25.09
389.399	34.3
389.609	103.93
389.818	101.89
390.028	17.92
390.238	116.22
390.447	48.64
390.657	132.61
390.867	-8.7
391.076	65.02
391.286	89.6
391.496	132.61
391.705	56.83
391.915	65.02
392.125	38.4
392.334	44.54
392.544	81.41
392.753	34.3
392.963	52.74
393.172	77.31
393.382	48.64
393.591	112.13
393.801	67.07
394.01	73.21
394.22	97.79
394.429	110.08
394.639	32.26
394.848	81.41
395.058	32.26
395.267	-16.9
395.477	56.83
395.686	69.12
395.895	118.27
396.105	171.52
396.314	105.98
396.524	56.83
396.733	71.17
396.942	42.5
397.152	40.45
397.361	77.31
397.57	105.98
397.78	99.84
397.989	24.06
398.198	122.37
398.407	77.31
398.617	44.54
398.826	118.27
399.035	105.98
399.244	105.98
399.453	118.27
399.663	58.88
399.872	81.41
400.081	140.8
400.29	153.09
400.499	108.03
400.708	97.79
400.917	97.79
401.127	75.26
401.336	48.64
401.545	155.13
401.754	99.84
401.963	46.59
402.172	81.41
402.381	155.13
402.59	196.09
402.799	110.08
403.008	124.41
403.217	155.13
403.426	132.61
403.635	138.75
403.844	187.9
404.053	179.71
404.262	126.46
404.471	157.18
404.68	161.28
404.888	167.42
405.097	85.5
405.306	208.38
405.515	181.76
405.724	142.85
405.933	222.72
406.142	192
406.35	222.72
406.559	155.13
406.768	183.81
406.977	198.14
407.185	257.53
407.394	253.44
407.603	232.96
407.812	265.72
408.02	220.67
408.229	187.9
408.438	214.52
408.646	247.29
408.855	286.2
409.064	261.63
409.272	206.33
409.481	265.72
409.69	286.2
409.898	224.76
410.107	335.35
410.315	384.51
410.524	245.24
410.733	361.98
410.941	337.4
411.15	390.65
411.358	411.13
411.567	392.7
411.775	458.23
411.984	443.9
412.192	519.67
412.401	450.04
412.609	486.9
412.818	507.38
413.026	499.19
413.234	484.86
413.443	574.97
413.651	548.34
413.86	591.35
414.068	630.26
414.276	701.94
414.485	605.69
414.693	726.52
414.901	712.18
415.11	853.49
415.318	703.99
415.526	794.1
415.734	771.57
415.943	779.76
416.151	863.73
416.359	869.87
416.567	818.68
416.776	980.47
416.984	998.9
417.192	1056.24
417.4	1056.24
417.608	966.13
417.817	966.13
418.025	1129.97
418.233	1252.84
418.441	1119.73
418.649	1256.94
418.857	1447.4
419.065	1359.34
419.273	1310.19
419.481	1416.68
419.689	1547.75
419.897	1564.14
420.105	1490.41
420.313	1635.82
420.521	1740.26
420.729	1656.29
420.937	1732.07
421.145	1820.13
421.353	1891.81
421.561	2067.94
421.769	2024.93
421.977	2248.16
422.185	2166.24
422.393	2313.69
422.601	2424.28
422.809	2301.4
423.017	2418.14
423.224	2629.08
423.432	2645.46
423.64	2665.94
423.848	2887.12
424.056	2817.49
424.263	2989.52
424.471	2901.46
424.679	3022.29
424.887	3192.27
425.094	3169.74
425.302	3243.47
425.51	3386.83
425.718	3587.53
425.925	3653.06
426.133	3651.02
426.341	3943.88
426.548	4134.34
426.756	4064.71
426.964	4048.32
427.171	4373.95
427.379	4472.25
427.586	4496.83
427.794	4773.3
428.001	4965.81
428.209	5221.81
428.417	4898.23
428.624	5287.34
428.832	5334.45
429.039	5475.76
429.247	5524.91
429.454	6008.23
429.662	6426.01
429.869	5907.88
430.076	6262.18
430.284	6208.93
430.491	6376.86
430.699	6790.55
430.906	6831.51
431.114	6851.99
431.321	7110.04
431.528	7185.81
431.736	7650.7
431.943	8062.34
432.15	7671.18
432.358	7824.78
432.565	8418.69
432.772	8088.96
432.979	8648.06
433.187	8869.24
433.394	8777.08
433.601	9364.85
433.808	9586.03
434.016	9452.91
434.223	9762.16
434.43	10304.87
434.637	10128.74
434.844	10820.95
435.052	11148.63
435.259	10992.98
435.466	11081.05
435.673	10839.39
435.88	11504.98
436.087	12287.3
436.294	12141.89
436.501	11939.15
436.708	12232.01
436.915	12621.12
437.122	13114.68
437.329	13167.93
437.537	13522.23
437.743	13661.49
437.95	13704.49
438.157	14300.45
438.364	14918.94
438.571	14837.02
438.778	14820.64
438.985	16246.02
439.192	15600.91
439.399	16057.61
439.606	15670.54
439.813	16526.6
440.02	17540.34
440.227	17257.72
440.433	16948.48
440.64	17681.65
440.847	17462.52
441.054	17939.69
441.261	19170.52
441.467	18638.05
441.674	19221.72
441.881	20147.4
442.088	19823.83
442.294	19631.32
442.501	20352.2
442.708	20810.95
442.914	21136.57
443.121	22680.74
443.328	21562.55
443.534	23434.39
443.741	22652.07
443.948	22219.95
444.154	24016.02
444.361	23968.91
444.568	23940.24
444.774	23698.58
444.981	24177.81
445.187	25035.91
445.394	25715.83
445.6	25656.44
445.807	28030.04
446.013	26436.72
446.22	27649.11
446.426	28435.53
446.633	28521.55
446.839	29340.74
447.046	28324.94
447.252	29785.15
447.459	30078.01
447.665	29705.27
447.871	31110.18
448.078	32818.19
448.284	30762.03
448.491	31761.44
448.697	33207.3
448.903	33811.45
449.11	33750.01
449.316	33027.08
449.522	33958.91
449.728	34565.1
449.935	35054.57
450.141	35238.89
450.347	35851.23
450.553	34649.07
450.76	35023.85
450.966	35984.35
451.172	35904.48
451.378	36361.17
451.584	36049.88
451.791	36572.11
451.997	36836.3
452.203	37512.13
452.409	37114.83
452.615	36989.9
452.821	35773.41
453.027	35167.21
453.233	37338.05
453.44	35560.42
453.646	36217.82
453.852	36459.48
454.058	37041.1
454.264	35683.3
454.47	36498.39
454.676	35769.31
454.882	37041.1
455.088	33475.59
455.294	33899.51
455.5	34634.74
455.705	35214.31
455.911	33573.89
456.117	33063.94
456.323	31988.76
456.529	30475.31
456.735	31976.47
456.941	31360.03
457.147	30491.69
457.352	29994.04
457.558	29776.95
457.764	29432.89
457.97	28914.76
458.176	28308.56
458.381	28234.83
458.587	26965.09
458.793	27098.21
458.999	25801.85
459.204	27348.06
459.41	26623.08
459.616	25023.62
459.821	24616.07
460.027	24900.74
460.233	24099.98
460.438	22854.82
460.644	23432.35
460.85	22066.35
461.055	21667
461.261	21431.48
461.466	20104.4
461.672	19236.06
461.878	21015.74
462.083	19516.63
462.289	18951.39
462.494	18709.73
462.7	18091.24
462.905	17548.53
463.111	18263.27
463.316	18113.77
463.522	17775.86
463.727	17966.32
463.932	17765.62
464.138	17648.88
464.343	17517.81
464.549	16932.09
464.754	17564.92
464.959	17526
465.165	17458.42
465.37	16338.18
465.575	16293.13
465.781	16839.94
465.986	16506.12
466.191	16022.8
466.397	15815.95
466.602	15138.07
466.807	15783.18
467.012	15740.18
467.218	15621.39
467.423	15605.01
467.628	15641.87
