Data from USB4F104151__43__14-29-49-860.txt Node

Date: Thu Mar 13 14:29:49 EDT 2025
User: louis
Spectrometer: USB4F10415
Trigger mode: 4
Integration Time (sec): 2.500000E-2
Scans to average: 1
Electric dark correction enabled: true
Nonlinearity correction enabled: false
Boxcar width: 0
XAxis mode: Wavelengths
Number of Pixels in Spectrum: 3648
>>>>>Begin Spectral Data<<<<<
178.204	-140.12
178.424	-140.12
178.644	-140.12
178.864	-179.03
179.084	-152.4
179.304	31.91
179.524	58.54
179.744	-23.38
179.964	15.53
180.184	-93.01
180.404	15.53
180.624	7.34
180.844	-17.24
181.064	17.58
181.283	-33.62
181.503	-7
181.723	27.82
181.943	17.58
182.163	23.72
182.383	-7
182.602	48.3
182.822	150.7
183.042	42.15
183.262	60.59
183.482	56.49
183.701	-0.85
183.921	52.39
184.141	5.29
184.361	36.01
184.58	-0.85
184.8	48.3
185.02	54.44
185.239	64.68
185.459	33.96
185.679	52.39
185.898	15.53
186.118	105.64
186.338	-17.24
186.557	97.45
186.777	-9.05
186.997	9.39
187.216	-15.19
187.436	122.02
187.655	42.15
187.875	-17.24
188.095	25.77
188.314	52.39
188.534	138.41
188.753	56.49
188.973	126.12
189.192	91.31
189.412	-35.67
189.631	81.07
189.851	36.01
190.07	81.07
190.29	25.77
190.509	-19.29
190.729	40.11
190.948	-2.9
191.168	203.94
191.387	117.93
191.607	-21.33
191.826	58.54
192.045	44.2
192.265	7.34
192.484	-0.85
192.704	9.39
192.923	52.39
193.142	126.12
193.362	70.83
193.581	89.26
193.8	48.3
194.02	56.49
194.239	13.48
194.458	97.45
194.678	-7
194.897	9.39
195.116	-15.19
195.335	38.06
195.555	56.49
195.774	-41.81
195.993	15.53
196.212	27.82
196.432	-29.52
196.651	38.06
196.87	115.88
197.089	109.74
197.308	31.91
197.528	64.68
197.747	15.53
197.966	76.97
198.185	97.45
198.404	31.91
198.623	74.92
198.842	89.26
199.062	79.02
199.281	23.72
199.5	40.11
199.719	81.07
199.938	64.68
200.157	107.69
200.376	1.19
200.595	52.39
200.814	-27.48
201.033	33.96
201.252	-17.24
201.471	42.15
201.69	70.83
201.909	19.63
202.128	66.73
202.347	74.92
202.566	31.91
202.785	-0.85
203.004	15.53
203.223	60.59
203.442	19.63
203.661	33.96
203.879	42.15
204.098	58.54
204.317	21.67
204.536	15.53
204.755	40.11
204.974	105.64
205.193	46.25
205.411	138.41
205.63	17.58
205.849	7.34
206.068	-4.95
206.287	31.91
206.505	33.96
206.724	152.74
206.943	-11.09
207.162	56.49
207.381	-7
207.599	68.78
207.818	64.68
208.037	48.3
208.255	46.25
208.474	38.06
208.693	36.01
208.911	52.39
209.13	-15.19
209.349	42.15
209.567	124.07
209.786	79.02
210.005	38.06
210.223	68.78
210.442	-9.05
210.661	-45.91
210.879	-2.9
211.098	56.49
211.316	38.06
211.535	60.59
211.753	72.87
211.972	66.73
212.191	31.91
212.409	-0.85
212.628	81.07
212.846	17.58
213.065	81.07
213.283	117.93
213.502	3.24
213.72	25.77
213.938	25.77
214.157	25.77
214.375	70.83
214.594	-9.05
214.812	66.73
215.031	-17.24
215.249	23.72
215.467	74.92
215.686	99.5
215.904	11.43
216.122	15.53
216.341	44.2
216.559	44.2
216.778	56.49
216.996	56.49
217.214	64.68
217.432	-41.81
217.651	5.29
217.869	52.39
218.087	46.25
218.306	-19.29
218.524	142.5
218.742	89.26
218.96	85.16
219.179	25.77
219.397	33.96
219.615	85.16
219.833	44.2
220.051	48.3
220.27	54.44
220.488	48.3
220.706	64.68
220.924	58.54
221.142	58.54
221.36	44.2
221.578	29.87
221.796	42.15
222.015	33.96
222.233	64.68
222.451	134.31
222.669	60.59
222.887	64.68
223.105	25.77
223.323	68.78
223.541	21.67
223.759	56.49
223.977	70.83
224.195	36.01
224.413	19.63
224.631	81.07
224.849	42.15
225.067	68.78
225.285	48.3
225.503	36.01
225.721	15.53
225.939	31.91
226.157	44.2
226.375	130.22
226.592	15.53
226.81	23.72
227.028	56.49
227.246	119.98
227.464	79.02
227.682	29.87
227.9	83.11
228.117	-7
228.335	64.68
228.553	23.72
228.771	56.49
228.989	60.59
229.206	89.26
229.424	87.21
229.642	-31.57
229.86	60.59
230.077	48.3
230.295	70.83
230.513	89.26
230.731	60.59
230.948	33.96
231.166	64.68
231.384	40.11
231.601	3.24
231.819	165.03
232.037	52.39
232.254	7.34
232.472	29.87
232.689	23.72
232.907	140.46
233.125	42.15
233.342	89.26
233.56	38.06
233.777	64.68
233.995	68.78
234.213	64.68
234.43	17.58
234.648	3.24
234.865	44.2
235.083	3.24
235.3	21.67
235.518	130.22
235.735	87.21
235.953	115.88
236.17	-15.19
236.388	36.01
236.605	33.96
236.822	113.83
237.04	5.29
237.257	40.11
237.475	40.11
237.692	40.11
237.909	89.26
238.127	-4.95
238.344	64.68
238.562	48.3
238.779	-13.14
238.996	23.72
239.214	-2.9
239.431	68.78
239.648	23.72
239.865	1.19
240.083	31.91
240.3	5.29
240.517	9.39
240.735	27.82
240.952	93.35
241.169	83.11
241.386	31.91
241.603	66.73
241.821	36.01
242.038	76.97
242.255	42.15
242.472	91.31
242.689	76.97
242.907	44.2
243.124	40.11
243.341	52.39
243.558	27.82
243.775	-23.38
243.992	-4.95
244.209	25.77
244.426	142.5
244.643	81.07
244.86	-45.91
245.078	64.68
245.295	58.54
245.512	25.77
245.729	54.44
245.946	107.69
246.163	81.07
246.38	25.77
246.597	23.72
246.814	40.11
247.031	31.91
247.248	25.77
247.464	38.06
247.681	9.39
247.898	9.39
248.115	87.21
248.332	23.72
248.549	113.83
248.766	107.69
248.983	50.35
249.2	25.77
249.417	87.21
249.633	-41.81
249.85	128.17
250.067	-7
250.284	87.21
250.501	74.92
250.717	64.68
250.934	-58.2
251.151	105.64
251.368	54.44
251.585	68.78
251.801	111.78
252.018	7.34
252.235	40.11
252.451	9.39
252.668	50.35
252.885	25.77
253.102	93.35
253.318	23.72
253.535	38.06
253.752	68.78
253.968	-0.85
254.185	48.3
254.401	-15.19
254.618	17.58
254.835	42.15
255.051	81.07
255.268	40.11
255.484	56.49
255.701	101.55
255.917	27.82
256.134	-7
256.351	23.72
256.567	-37.72
256.784	56.49
257	-35.67
257.217	58.54
257.433	115.88
257.65	64.68
257.866	79.02
258.082	54.44
258.299	113.83
258.515	50.35
258.732	74.92
258.948	40.11
259.165	99.5
259.381	25.77
259.597	56.49
259.814	58.54
260.03	7.34
260.246	74.92
260.463	50.35
260.679	56.49
260.895	25.77
261.112	48.3
261.328	-27.48
261.544	56.49
261.761	95.4
261.977	-17.24
262.193	29.87
262.409	50.35
262.626	40.11
262.842	21.67
263.058	-58.2
263.274	-7
263.49	19.63
263.707	33.96
263.923	-15.19
264.139	40.11
264.355	-7
264.571	103.59
264.787	72.87
265.004	58.54
265.22	101.55
265.436	25.77
265.652	9.39
265.868	56.49
266.084	31.91
266.3	7.34
266.516	42.15
266.732	66.73
266.948	83.11
267.164	48.3
267.38	97.45
267.596	50.35
267.812	85.16
268.028	5.29
268.244	-35.67
268.46	74.92
268.676	31.91
268.892	72.87
269.108	-7
269.324	-33.62
269.54	23.72
269.756	-4.95
269.972	-4.95
270.188	68.78
270.403	-54.1
270.619	60.59
270.835	72.87
271.051	-9.05
271.267	9.39
271.483	25.77
271.698	81.07
271.914	-0.85
272.13	44.2
272.346	17.58
272.562	-4.95
272.777	83.11
272.993	56.49
273.209	9.39
273.425	33.96
273.64	-17.24
273.856	50.35
274.072	42.15
274.287	-19.29
274.503	25.77
274.719	29.87
274.934	122.02
275.15	58.54
275.366	21.67
275.581	40.11
275.797	40.11
276.012	7.34
276.228	48.3
276.444	68.78
276.659	-39.76
276.875	33.96
277.09	23.72
277.306	-7
277.521	42.15
277.737	29.87
277.952	5.29
278.168	44.2
278.383	40.11
278.599	15.53
278.814	54.44
279.03	74.92
279.245	113.83
279.461	15.53
279.676	74.92
279.892	40.11
280.107	-9.05
280.322	-15.19
280.538	19.63
280.753	-25.43
280.969	17.58
281.184	46.25
281.399	81.07
281.615	48.3
281.83	7.34
282.045	42.15
282.26	52.39
282.476	29.87
282.691	89.26
282.906	31.91
283.122	15.53
283.337	13.48
283.552	58.54
283.767	56.49
283.983	107.69
284.198	70.83
284.413	64.68
284.628	17.58
284.843	-7
285.058	33.96
285.274	91.31
285.489	-41.81
285.704	-9.05
285.919	44.2
286.134	-60.24
286.349	19.63
286.564	15.53
286.779	19.63
286.995	50.35
287.21	-23.38
287.425	89.26
287.64	50.35
287.855	136.36
288.07	15.53
288.285	115.88
288.5	38.06
288.715	138.41
288.93	48.3
289.145	23.72
289.36	56.49
289.575	-0.85
289.79	64.68
290.004	-33.62
290.219	76.97
290.434	76.97
290.649	91.31
290.864	54.44
291.079	44.2
291.294	7.34
291.509	113.83
291.724	101.55
291.938	-0.85
292.153	40.11
292.368	15.53
292.583	15.53
292.798	107.69
293.012	23.72
293.227	27.82
293.442	115.88
293.657	124.07
293.871	64.68
294.086	31.91
294.301	60.59
294.516	23.72
294.73	60.59
294.945	70.83
295.16	11.43
295.374	66.73
295.589	107.69
295.804	58.54
296.018	42.15
296.233	64.68
296.447	113.83
296.662	70.83
296.877	107.69
297.091	17.58
297.306	52.39
297.52	76.97
297.735	-31.57
297.949	40.11
298.164	48.3
298.378	42.15
298.593	50.35
298.807	7.34
299.022	56.49
299.236	93.35
299.451	31.91
299.665	72.87
299.88	-0.85
300.094	85.16
300.309	48.3
300.523	56.49
300.737	11.43
300.952	-13.14
301.166	11.43
301.381	15.53
301.595	33.96
301.809	27.82
302.024	79.02
302.238	64.68
302.452	66.73
302.667	21.67
302.881	25.77
303.095	40.11
303.309	105.64
303.524	9.39
303.738	72.87
303.952	3.24
304.166	11.43
304.381	7.34
304.595	64.68
304.809	1.19
305.023	64.68
305.237	56.49
305.452	-9.05
305.666	46.25
305.88	40.11
306.094	119.98
306.308	50.35
306.522	52.39
306.736	58.54
306.95	105.64
307.164	-19.29
307.379	46.25
307.593	99.5
307.807	142.5
308.021	107.69
308.235	48.3
308.449	25.77
308.663	27.82
308.877	-17.24
309.091	31.91
309.305	74.92
309.519	40.11
309.733	64.68
309.947	31.91
310.161	58.54
310.374	15.53
310.588	15.53
310.802	33.96
311.016	7.34
311.23	36.01
311.444	56.49
311.658	64.68
311.872	40.11
312.085	87.21
312.299	9.39
312.513	154.79
312.727	50.35
312.941	87.21
313.154	89.26
313.368	48.3
313.582	50.35
313.796	50.35
314.009	-21.33
314.223	60.59
314.437	60.59
314.651	58.54
314.864	31.91
315.078	-7
315.292	-7
315.505	58.54
315.719	91.31
315.933	81.07
316.146	-7
316.36	27.82
316.573	124.07
316.787	42.15
317.001	48.3
317.214	25.77
317.428	66.73
317.641	19.63
317.855	-13.14
318.068	58.54
318.282	40.11
318.495	130.22
318.709	81.07
318.922	15.53
319.136	122.02
319.349	89.26
319.563	-17.24
319.776	109.74
319.99	5.29
320.203	113.83
320.417	58.54
320.63	87.21
320.843	107.69
321.057	50.35
321.27	99.5
321.483	52.39
321.697	62.63
321.91	56.49
322.124	54.44
322.337	-54.1
322.55	72.87
322.763	17.58
322.977	52.39
323.19	-19.29
323.403	52.39
323.617	15.53
323.83	99.5
324.043	101.55
324.256	50.35
324.469	-58.2
324.683	136.36
324.896	-0.85
325.109	-4.95
325.322	15.53
325.535	-0.85
325.748	7.34
325.962	15.53
326.175	50.35
326.388	31.91
326.601	13.48
326.814	93.35
327.027	19.63
327.24	146.6
327.453	-29.52
327.666	76.97
327.879	9.39
328.092	31.91
328.305	58.54
328.518	66.73
328.731	15.53
328.944	117.93
329.157	3.24
329.37	56.49
329.583	68.78
329.796	113.83
330.009	-33.62
330.222	130.22
330.435	40.11
330.648	-23.38
330.861	19.63
331.073	50.35
331.286	101.55
331.499	91.31
331.712	17.58
331.925	81.07
332.138	9.39
332.35	138.41
332.563	91.31
332.776	138.41
332.989	23.72
333.202	36.01
333.414	70.83
333.627	89.26
333.84	62.63
334.053	-17.24
334.265	25.77
334.478	-0.85
334.691	40.11
334.903	15.53
335.116	-70.48
335.329	74.92
335.541	31.91
335.754	109.74
335.966	33.96
336.179	89.26
336.392	48.3
336.604	42.15
336.817	72.87
337.029	83.11
337.242	40.11
337.454	44.2
337.667	29.87
337.88	74.92
338.092	33.96
338.305	-17.24
338.517	36.01
338.729	48.3
338.942	58.54
339.154	40.11
339.367	-35.67
339.579	138.41
339.792	15.53
340.004	31.91
340.217	138.41
340.429	93.35
340.641	-47.96
340.854	64.68
341.066	44.2
341.278	52.39
341.491	105.64
341.703	60.59
341.915	93.35
342.128	66.73
342.34	76.97
342.552	11.43
342.764	-27.48
342.977	38.06
343.189	64.68
343.401	74.92
343.613	52.39
343.826	91.31
344.038	42.15
344.25	15.53
344.462	122.02
344.674	64.68
344.886	17.58
345.099	50.35
345.311	66.73
345.523	56.49
345.735	-9.05
345.947	89.26
346.159	25.77
346.371	66.73
346.583	-39.76
346.795	105.64
347.007	111.78
347.219	44.2
347.431	19.63
347.643	119.98
347.855	-19.29
348.067	68.78
348.279	56.49
348.491	-25.43
348.703	83.11
348.915	52.39
349.127	1.19
349.339	99.5
349.551	70.83
349.763	93.35
349.975	31.91
350.187	68.78
350.399	115.88
350.61	83.11
350.822	40.11
351.034	33.96
351.246	40.11
351.458	105.64
351.669	1.19
351.881	134.31
352.093	38.06
352.305	107.69
352.517	15.53
352.728	85.16
352.94	81.07
353.152	83.11
353.363	58.54
353.575	60.59
353.787	89.26
353.999	113.83
354.21	56.49
354.422	68.78
354.633	-21.33
354.845	-31.57
355.057	31.91
355.268	91.31
355.48	124.07
355.692	15.53
355.903	101.55
356.115	64.68
356.326	-4.95
356.538	66.73
356.749	-25.43
356.961	48.3
357.172	93.35
357.384	13.48
357.595	152.74
357.807	119.98
358.018	95.4
358.23	81.07
358.441	23.72
358.653	15.53
358.864	-4.95
359.075	19.63
359.287	52.39
359.498	107.69
359.709	68.78
359.921	72.87
360.132	105.64
360.344	60.59
360.555	25.77
360.766	58.54
360.977	36.01
361.189	62.63
361.4	23.72
361.611	74.92
361.823	66.73
362.034	91.31
362.245	23.72
362.456	68.78
362.667	64.68
362.879	36.01
363.09	74.92
363.301	36.01
363.512	42.15
363.723	74.92
363.935	81.07
364.146	138.41
364.357	56.49
364.568	91.31
364.779	113.83
364.99	99.5
365.201	72.87
365.412	101.55
365.623	-37.72
365.834	17.58
366.045	7.34
366.256	3.24
366.467	134.31
366.678	15.53
366.889	-0.85
367.1	7.34
367.311	99.5
367.522	36.01
367.733	101.55
367.944	93.35
368.155	72.87
368.366	68.78
368.577	138.41
368.788	173.22
368.999	25.77
369.209	9.39
369.42	117.93
369.631	81.07
369.842	56.49
370.053	-4.95
370.264	105.64
370.474	23.72
370.685	85.16
370.896	52.39
371.107	146.6
371.317	31.91
371.528	50.35
371.739	64.68
371.95	109.74
372.16	72.87
372.371	-52.05
372.582	36.01
372.792	85.16
373.003	105.64
373.214	95.4
373.424	38.06
373.635	83.11
373.846	85.16
374.056	3.24
374.267	74.92
374.477	-25.43
374.688	72.87
374.898	40.11
375.109	-11.09
375.319	97.45
375.53	79.02
375.74	56.49
375.951	48.3
376.161	83.11
376.372	142.5
376.582	74.92
376.793	50.35
377.003	81.07
377.214	25.77
377.424	44.2
377.635	42.15
377.845	7.34
378.055	89.26
378.266	60.59
378.476	52.39
378.686	64.68
378.897	68.78
379.107	-0.85
379.317	7.34
379.528	89.26
379.738	148.65
379.948	23.72
380.158	81.07
380.369	11.43
380.579	50.35
380.789	64.68
380.999	146.6
381.21	42.15
381.42	169.13
381.63	11.43
381.84	87.21
382.05	87.21
382.261	107.69
382.471	62.63
382.681	97.45
382.891	81.07
383.101	-0.85
383.311	58.54
383.521	97.45
383.731	95.4
383.941	113.83
384.151	9.39
384.361	48.3
384.571	74.92
384.781	101.55
384.991	68.78
385.201	179.37
385.411	109.74
385.621	156.84
385.831	58.54
386.041	31.91
386.251	29.87
386.461	58.54
386.671	42.15
386.881	17.58
387.091	38.06
387.301	109.74
387.511	89.26
387.72	72.87
387.93	89.26
388.14	-9.05
388.35	113.83
388.56	109.74
388.769	27.82
388.979	15.53
389.189	33.96
389.399	87.21
389.609	64.68
389.818	74.92
390.028	58.54
390.238	128.17
390.447	48.3
390.657	99.5
390.867	25.77
391.076	-31.57
391.286	138.41
391.496	50.35
391.705	36.01
391.915	40.11
392.125	52.39
392.334	107.69
392.544	56.49
392.753	56.49
392.963	72.87
393.172	113.83
393.382	89.26
393.591	52.39
393.801	64.68
394.01	132.26
394.22	85.16
394.429	105.64
394.639	109.74
394.848	134.31
395.058	124.07
395.267	33.96
395.477	124.07
395.686	93.35
395.895	167.08
396.105	162.98
396.314	48.3
396.524	-17.24
396.733	7.34
396.942	117.93
397.152	50.35
397.361	72.87
397.57	93.35
397.78	130.22
397.989	130.22
398.198	134.31
398.407	85.16
398.617	146.6
398.826	124.07
399.035	124.07
399.244	156.84
399.453	146.6
399.663	138.41
399.872	146.6
400.081	58.54
400.29	128.17
400.499	142.5
400.708	140.46
400.917	74.92
401.127	72.87
401.336	23.72
401.545	177.32
401.754	165.03
401.963	179.37
402.172	9.39
402.381	70.83
402.59	105.64
402.799	191.66
403.008	203.94
403.217	171.18
403.426	142.5
403.635	103.59
403.844	128.17
404.053	156.84
404.262	107.69
404.471	253.09
404.68	171.18
404.888	175.27
405.097	126.12
405.306	122.02
405.515	109.74
405.724	171.18
405.933	187.56
406.142	101.55
406.35	228.52
406.559	216.23
406.768	212.14
406.977	257.19
407.185	249
407.394	279.72
407.603	253.09
407.812	259.24
408.02	191.66
408.229	165.03
408.438	146.6
408.646	244.9
408.855	318.63
409.064	220.33
409.272	205.99
409.481	244.9
409.69	310.44
409.898	310.44
410.107	318.63
410.315	310.44
410.524	314.53
410.733	320.68
410.941	388.26
411.15	353.45
411.358	392.36
411.567	498.85
411.775	433.32
411.984	490.66
412.192	484.52
412.401	425.12
412.609	474.28
412.818	607.39
413.026	560.29
413.234	435.36
413.443	572.58
413.651	605.35
413.86	537.76
414.068	728.22
414.276	670.88
414.485	613.54
414.693	728.22
414.901	631.97
415.11	785.57
415.318	746.66
415.526	744.61
415.734	797.85
415.943	773.28
416.151	853.15
416.359	953.5
416.567	922.78
416.776	939.16
416.984	941.21
417.192	992.41
417.4	1006.75
417.608	1086.62
417.817	1043.61
418.025	1117.34
418.233	1244.31
418.441	1166.49
418.649	1205.4
418.857	1463.44
419.065	1350.81
419.273	1350.81
419.481	1342.61
419.689	1481.88
419.897	1533.08
420.105	1623.19
420.313	1596.56
420.521	1701.01
420.729	1703.06
420.937	1832.08
421.145	1770.64
421.353	2032.78
421.561	2000.01
421.769	2116.75
421.977	2104.46
422.185	2090.12
422.393	2378.89
422.601	2350.21
422.809	2335.88
423.017	2442.37
423.224	2489.48
423.432	2614.4
423.64	2624.64
423.848	2808.96
424.056	2735.23
424.263	2942.08
424.471	2958.46
424.679	3013.76
424.887	3159.16
425.094	3136.63
425.302	3245.18
425.51	3431.54
425.718	3609.72
425.925	3490.93
426.133	3662.96
426.341	3947.63
426.548	3964.01
426.756	3984.49
426.964	4105.32
427.171	4285.55
427.379	4351.08
427.586	4480.1
427.794	4615.27
428.001	4852.83
428.209	5035.1
428.417	4832.35
428.624	5377.11
428.832	5268.57
429.039	5217.37
429.247	5381.21
429.454	5813.33
429.662	6014.03
429.869	5669.97
430.076	6128.72
430.284	5909.58
430.491	6302.79
430.699	6562.89
430.906	6593.61
431.114	6530.12
431.321	6933.57
431.528	7167.04
431.736	7595.06
431.943	7674.93
432.15	7732.28
432.358	7717.94
432.565	7937.07
432.772	7904.31
432.979	8242.22
433.187	8621.1
433.394	8647.72
433.601	9110.56
433.808	9169.95
434.016	9223.2
434.223	9606.17
434.43	10124.3
434.637	9980.95
434.844	10552.33
435.052	10798.09
435.259	10544.14
435.466	10808.33
435.673	10779.65
435.88	11369.47
436.087	11691
436.294	11926.52
436.501	11496.44
436.708	11961.33
436.915	12272.62
437.122	12786.66
437.329	12839.91
437.537	12983.27
437.743	13364.19
437.95	13200.35
438.157	13845.46
438.364	14287.82
438.571	14359.5
438.778	14470.09
438.985	15682.49
439.192	15201.22
439.399	15782.84
439.606	15043.53
439.813	15975.35
440.02	16987.05
440.227	16833.45
440.433	16454.58
440.64	17048.49
440.847	16866.22
441.054	17705.88
441.261	18547.6
441.467	18367.38
441.674	18781.07
441.881	19254.15
442.088	19262.34
442.294	18834.32
442.501	19481.47
442.708	19987.32
442.914	21029.74
443.121	21431.14
443.328	21173.1
443.534	22522.71
443.741	21902.17
443.948	21627.74
444.154	23542.6
444.361	23020.36
444.568	23171.91
444.774	23167.82
444.981	23618.37
445.187	24081.21
445.394	25049.9
445.6	24961.84
445.807	27394.82
446.013	26047.26
446.22	26446.62
446.426	27611.91
446.633	27579.14
446.839	28756.72
447.046	27317
447.252	29258.48
447.459	28977.9
447.665	28771.06
447.871	30282.46
448.078	31630.02
448.284	30237.41
448.491	30761.69
448.697	32275.13
448.903	32813.75
449.11	32481.98
449.316	31673.03
449.522	32715.45
449.728	33684.14
449.935	33802.92
450.141	33852.07
450.347	34378.4
450.553	33284.78
450.76	33706.66
450.966	34929.3
451.172	34656.92
451.378	35277.46
451.584	34572.96
451.791	35388.05
451.997	35363.47
452.203	36065.92
452.409	36059.78
452.615	35633.8
452.821	34091.68
453.027	33854.12
453.233	35527.31
453.44	34433.69
453.646	34833.05
453.852	34796.18
454.058	35113.62
454.264	34212.51
454.47	35048.08
454.676	34237.09
454.882	35136.15
455.088	32420.54
455.294	32596.67
455.5	33227.44
455.705	33303.21
455.911	32266.94
456.117	31429.32
456.323	31202
456.529	29455.08
456.735	30638.81
456.941	30259.93
457.147	29389.55
457.352	28390.14
457.558	28236.54
457.764	28484.34
457.97	27726.6
458.176	27011.85
458.381	26702.61
458.587	25848.61
458.793	25713.44
458.999	24054.59
459.204	25963.29
459.41	25281.32
459.616	23569.22
459.821	23536.45
460.027	23677.76
460.233	22985.55
460.438	21994.33
460.644	22115.16
460.85	21191.53
461.055	20609.9
461.261	20845.42
461.466	19112.84
461.672	18353.04
461.878	19905.4
462.083	18461.58
462.289	18172.82
462.494	17781.66
462.7	17267.62
462.905	16645.04
463.111	17320.87
463.316	17298.34
463.522	16708.52
463.727	17062.82
463.932	16778.15
464.138	16786.35
464.343	16665.52
464.549	16128.95
464.754	17093.54
464.959	16858.03
465.165	16784.3
465.37	15801.27
465.575	15492.03
465.781	16071.61
465.986	16178.1
466.191	15588.28
466.397	15371.2
466.602	14433.23
466.807	14924.74
467.012	14740.43
467.218	14844.87
467.423	14255.06
