Data from USB4F104151__312__14-35-06-070.txt Node

Date: Thu Mar 13 14:35:06 EDT 2025
User: louis
Spectrometer: USB4F10415
Trigger mode: 4
Integration Time (sec): 2.500000E-2
Scans to average: 1
Electric dark correction enabled: true
Nonlinearity correction enabled: false
Boxcar width: 0
XAxis mode: Wavelengths
Number of Pixels in Spectrum: 3648
>>>>>Begin Spectral Data<<<<<
178.204	-121
178.424	-121
178.644	-121
178.864	-170.15
179.084	-114.86
179.304	42.84
179.524	-14.51
179.744	36.69
179.964	96.08
180.184	-26.79
180.404	1.88
180.624	-77.99
180.844	-63.66
181.064	-18.6
181.283	28.5
181.503	-30.89
181.723	26.45
181.943	-24.75
182.163	100.18
182.383	18.26
182.602	30.55
182.822	1.88
183.042	91.99
183.262	-77.99
183.482	98.13
183.701	1.88
183.921	51.03
184.141	59.22
184.361	14.17
184.58	20.31
184.8	46.93
185.02	1.88
185.239	87.89
185.459	87.89
185.679	38.74
185.898	-30.89
186.118	77.65
186.338	40.79
186.557	85.84
186.777	3.93
186.997	83.8
187.216	1.88
187.436	75.6
187.655	77.65
187.875	34.64
188.095	10.07
188.314	77.65
188.534	102.23
188.753	14.17
188.973	24.4
189.192	120.66
189.412	-51.37
189.631	63.32
189.851	20.31
190.07	100.18
190.29	-18.6
190.509	36.69
190.729	44.88
190.948	51.03
191.168	239.44
191.387	91.99
191.607	28.5
191.826	59.22
192.045	75.6
192.265	44.88
192.484	14.17
192.704	71.51
192.923	26.45
193.142	165.71
193.362	112.47
193.581	124.76
193.8	59.22
194.02	38.74
194.239	-10.41
194.458	20.31
194.678	75.6
194.897	69.46
195.116	42.84
195.335	71.51
195.555	83.8
195.774	26.45
195.993	12.12
196.212	-4.27
196.432	30.55
196.651	20.31
196.87	59.22
197.089	100.18
197.308	87.89
197.528	67.41
197.747	-14.51
197.966	24.4
198.185	122.71
198.404	5.97
198.623	83.8
198.842	102.23
199.062	57.17
199.281	34.64
199.5	-37.03
199.719	114.52
199.938	51.03
200.157	118.61
200.376	36.69
200.595	65.36
200.814	65.36
201.033	67.41
201.252	-10.41
201.471	22.36
201.69	59.22
201.909	53.08
202.128	16.21
202.347	22.36
202.566	-61.61
202.785	26.45
203.004	3.93
203.223	85.84
203.442	59.22
203.661	-12.46
203.879	69.46
204.098	20.31
204.317	83.8
204.536	91.99
204.755	55.12
204.974	100.18
205.193	34.64
205.411	83.8
205.63	59.22
205.849	28.5
206.068	71.51
206.287	18.26
206.505	102.23
206.724	-14.51
206.943	20.31
207.162	46.93
207.381	153.43
207.599	46.93
207.818	34.64
208.037	75.6
208.255	114.52
208.474	53.08
208.693	83.8
208.911	-22.7
209.13	24.4
209.349	145.24
209.567	116.56
209.786	120.66
210.005	55.12
210.223	-12.46
210.442	-18.6
210.661	1.88
210.879	51.03
211.098	69.46
211.316	-8.36
211.535	94.04
211.753	46.93
211.972	20.31
212.191	12.12
212.409	44.88
212.628	100.18
212.846	55.12
213.065	102.23
213.283	147.28
213.502	46.93
213.72	87.89
213.938	3.93
214.157	10.07
214.375	32.6
214.594	85.84
214.812	12.12
215.031	75.6
215.249	36.69
215.467	51.03
215.686	96.08
215.904	83.8
216.122	18.26
216.341	77.65
216.559	44.88
216.778	69.46
216.996	67.41
217.214	-2.22
217.432	12.12
217.651	79.7
217.869	81.75
218.087	59.22
218.306	-14.51
218.524	94.04
218.742	30.55
218.96	63.32
219.179	-39.08
219.397	96.08
219.615	122.71
219.833	67.41
220.051	-14.51
220.27	83.8
220.488	100.18
220.706	24.4
220.924	10.07
221.142	77.65
221.36	83.8
221.578	36.69
221.796	22.36
222.015	91.99
222.233	14.17
222.451	116.56
222.669	22.36
222.887	20.31
223.105	18.26
223.323	51.03
223.541	34.64
223.759	128.85
223.977	59.22
224.195	36.69
224.413	12.12
224.631	89.94
224.849	77.65
225.067	51.03
225.285	-2.22
225.503	20.31
225.721	-6.31
225.939	26.45
226.157	46.93
226.375	67.41
226.592	34.64
226.81	-4.27
227.028	85.84
227.246	67.41
227.464	81.75
227.682	28.5
227.9	53.08
228.117	69.46
228.335	104.28
228.553	42.84
228.771	46.93
228.989	96.08
229.206	57.17
229.424	-8.36
229.642	1.88
229.86	-41.13
230.077	55.12
230.295	-2.22
230.513	83.8
230.731	75.6
230.948	87.89
231.166	85.84
231.384	1.88
231.601	22.36
231.819	135
232.037	-24.75
232.254	22.36
232.472	-18.6
232.689	28.5
232.907	28.5
233.125	100.18
233.342	3.93
233.56	-20.65
233.777	14.17
233.995	59.22
234.213	169.81
234.43	91.99
234.648	32.6
234.865	55.12
235.083	69.46
235.3	71.51
235.518	75.6
235.735	59.22
235.953	83.8
236.17	59.22
236.388	36.69
236.605	51.03
236.822	100.18
237.04	20.31
237.257	83.8
237.475	18.26
237.692	44.88
237.909	55.12
238.127	87.89
238.344	51.03
238.562	38.74
238.779	14.17
238.996	18.26
239.214	69.46
239.431	116.56
239.648	3.93
239.865	67.41
240.083	55.12
240.3	42.84
240.517	-47.27
240.735	42.84
240.952	55.12
241.169	46.93
241.386	102.23
241.603	71.51
241.821	48.98
242.038	102.23
242.255	106.32
242.472	26.45
242.689	67.41
242.907	10.07
243.124	65.36
243.341	81.75
243.558	28.5
243.775	-4.27
243.992	-88.23
244.209	67.41
244.426	57.17
244.643	151.38
244.86	-18.6
245.078	96.08
245.295	18.26
245.512	102.23
245.729	67.41
245.946	51.03
246.163	59.22
246.38	46.93
246.597	5.97
246.814	104.28
247.031	1.88
247.248	-34.99
247.464	26.45
247.681	116.56
247.898	42.84
248.115	102.23
248.332	38.74
248.549	85.84
248.766	53.08
248.983	137.04
249.2	42.84
249.417	128.85
249.633	36.69
249.85	44.88
250.067	57.17
250.284	98.13
250.501	42.84
250.717	91.99
250.934	34.64
251.151	-14.51
251.368	108.37
251.585	120.66
251.801	8.02
252.018	53.08
252.235	40.79
252.451	-14.51
252.668	-12.46
252.885	126.8
253.102	26.45
253.318	126.8
253.535	28.5
253.752	1.88
253.968	61.27
254.185	12.12
254.401	79.7
254.618	69.46
254.835	18.26
255.051	114.52
255.268	85.84
255.484	20.31
255.701	10.07
255.917	46.93
256.134	34.64
256.351	77.65
256.567	42.84
256.784	20.31
257	42.84
257.217	53.08
257.433	75.6
257.65	44.88
257.866	96.08
258.082	3.93
258.299	-39.08
258.515	75.6
258.732	67.41
258.948	114.52
259.165	87.89
259.381	1.88
259.597	24.4
259.814	91.99
260.03	28.5
260.246	77.65
260.463	108.37
260.679	75.6
260.895	91.99
261.112	42.84
261.328	42.84
261.544	30.55
261.761	104.28
261.977	-6.31
262.193	34.64
262.409	40.79
262.626	40.79
262.842	-6.31
263.058	1.88
263.274	155.47
263.49	34.64
263.707	132.95
263.923	-4.27
264.139	20.31
264.355	124.76
264.571	108.37
264.787	46.93
265.004	118.61
265.22	53.08
265.436	51.03
265.652	61.27
265.868	51.03
266.084	38.74
266.3	83.8
266.516	46.93
266.732	-6.31
266.948	40.79
267.164	69.46
267.38	34.64
267.596	114.52
267.812	79.7
268.028	30.55
268.244	18.26
268.46	57.17
268.676	118.61
268.892	69.46
269.108	-18.6
269.324	51.03
269.54	12.12
269.756	89.94
269.972	-37.03
270.188	38.74
270.403	-16.55
270.619	75.6
270.835	14.17
271.051	26.45
271.267	-18.6
271.483	110.42
271.698	30.55
271.914	151.38
272.13	26.45
272.346	73.56
272.562	12.12
272.777	55.12
272.993	83.8
273.209	71.51
273.425	28.5
273.64	26.45
273.856	77.65
274.072	89.94
274.287	10.07
274.503	63.32
274.719	53.08
274.934	126.8
275.15	-34.99
275.366	108.37
275.581	8.02
275.797	1.88
276.012	42.84
276.228	42.84
276.444	69.46
276.659	175.95
276.875	-4.27
277.09	89.94
277.306	-2.22
277.521	118.61
277.737	30.55
277.952	59.22
278.168	36.69
278.383	67.41
278.599	81.75
278.814	77.65
279.03	38.74
279.245	116.56
279.461	65.36
279.676	65.36
279.892	40.79
280.107	59.22
280.322	10.07
280.538	67.41
280.753	1.88
280.969	20.31
281.184	44.88
281.399	83.8
281.615	34.64
281.83	71.51
282.045	-22.7
282.26	61.27
282.476	28.5
282.691	55.12
282.906	3.93
283.122	30.55
283.337	-14.51
283.552	126.8
283.767	-0.17
283.983	102.23
284.198	67.41
284.413	71.51
284.628	67.41
284.843	94.04
285.058	38.74
285.274	10.07
285.489	-47.27
285.704	67.41
285.919	-0.17
286.134	42.84
286.349	51.03
286.564	18.26
286.779	83.8
286.995	-34.99
287.21	20.31
287.425	135
287.64	59.22
287.855	118.61
288.07	-4.27
288.285	69.46
288.5	135
288.715	59.22
288.93	42.84
289.145	10.07
289.36	36.69
289.575	44.88
289.79	91.99
290.004	94.04
290.219	89.94
290.434	12.12
290.649	83.8
290.864	83.8
291.079	-6.31
291.294	55.12
291.509	75.6
291.724	28.5
291.938	-8.36
292.153	69.46
292.368	34.64
292.583	67.41
292.798	83.8
293.012	83.8
293.227	94.04
293.442	79.7
293.657	71.51
293.871	165.71
294.086	-6.31
294.301	91.99
294.516	63.32
294.73	26.45
294.945	-14.51
295.16	63.32
295.374	32.6
295.589	26.45
295.804	61.27
296.018	79.7
296.233	126.8
296.447	149.33
296.662	-22.7
296.877	151.38
297.091	75.6
297.306	65.36
297.52	1.88
297.735	42.84
297.949	1.88
298.164	26.45
298.378	22.36
298.593	12.12
298.807	55.12
299.022	87.89
299.236	28.5
299.451	26.45
299.665	-49.32
299.88	65.36
300.094	-2.22
300.309	87.89
300.523	59.22
300.737	-53.42
300.952	75.6
301.166	12.12
301.381	26.45
301.595	77.65
301.809	-4.27
302.024	34.64
302.238	22.36
302.452	110.42
302.667	132.95
302.881	87.89
303.095	79.7
303.309	108.37
303.524	42.84
303.738	91.99
303.952	53.08
304.166	36.69
304.381	28.5
304.595	118.61
304.809	12.12
305.023	26.45
305.237	85.84
305.452	108.37
305.666	100.18
305.88	79.7
306.094	53.08
306.308	75.6
306.522	36.69
306.736	59.22
306.95	83.8
307.164	65.36
307.379	18.26
307.593	79.7
307.807	124.76
308.021	44.88
308.235	18.26
308.449	34.64
308.663	42.84
308.877	141.14
309.091	26.45
309.305	98.13
309.519	-26.79
309.733	128.85
309.947	-22.7
310.161	65.36
310.374	94.04
310.588	128.85
310.802	24.4
311.016	26.45
311.23	163.67
311.444	-43.18
311.658	63.32
311.872	124.76
312.085	100.18
312.299	83.8
312.513	206.67
312.727	18.26
312.941	22.36
313.154	59.22
313.368	42.84
313.582	124.76
313.796	77.65
314.009	120.66
314.223	73.56
314.437	36.69
314.651	51.03
314.864	14.17
315.078	71.51
315.292	44.88
315.505	65.36
315.719	59.22
315.933	5.97
316.146	42.84
316.36	42.84
316.573	102.23
316.787	59.22
317.001	112.47
317.214	53.08
317.428	85.84
317.641	-26.79
317.855	38.74
318.068	83.8
318.282	1.88
318.495	147.28
318.709	59.22
318.922	85.84
319.136	116.56
319.349	94.04
319.563	71.51
319.776	98.13
319.99	81.75
320.203	40.79
320.417	63.32
320.63	63.32
320.843	110.42
321.057	42.84
321.27	-26.79
321.483	89.94
321.697	75.6
321.91	-28.84
322.124	94.04
322.337	137.04
322.55	100.18
322.763	91.99
322.977	169.81
323.19	38.74
323.403	-4.27
323.617	22.36
323.83	75.6
324.043	51.03
324.256	34.64
324.469	-18.6
324.683	79.7
324.896	81.75
325.109	53.08
325.322	-47.27
325.535	100.18
325.748	65.36
325.962	59.22
326.175	26.45
326.388	73.56
326.601	46.93
326.814	30.55
327.027	114.52
327.24	26.45
327.453	51.03
327.666	116.56
327.879	137.04
328.092	112.47
328.305	28.5
328.518	100.18
328.731	46.93
328.944	91.99
329.157	12.12
329.37	18.26
329.583	139.09
329.796	132.95
330.009	18.26
330.222	118.61
330.435	96.08
330.648	51.03
330.861	44.88
331.073	77.65
331.286	18.26
331.499	61.27
331.712	1.88
331.925	-30.89
332.138	69.46
332.35	126.8
332.563	-39.08
332.776	202.58
332.989	118.61
333.202	46.93
333.414	46.93
333.627	79.7
333.84	44.88
334.053	53.08
334.265	83.8
334.478	48.98
334.691	14.17
334.903	91.99
335.116	-18.6
335.329	100.18
335.541	22.36
335.754	118.61
335.966	69.46
336.179	36.69
336.392	34.64
336.604	34.64
336.817	46.93
337.029	57.17
337.242	63.32
337.454	110.42
337.667	94.04
337.88	75.6
338.092	46.93
338.305	108.37
338.517	73.56
338.729	108.37
338.942	42.84
339.154	18.26
339.367	34.64
339.579	85.84
339.792	3.93
340.004	94.04
340.217	53.08
340.429	83.8
340.641	53.08
340.854	100.18
341.066	83.8
341.278	67.41
341.491	104.28
341.703	96.08
341.915	18.26
342.128	94.04
342.34	5.97
342.552	53.08
342.764	53.08
342.977	38.74
343.189	87.89
343.401	1.88
343.613	100.18
343.826	30.55
344.038	53.08
344.25	94.04
344.462	8.02
344.674	57.17
344.886	-8.36
345.099	65.36
345.311	96.08
345.523	46.93
345.735	3.93
345.947	36.69
346.159	38.74
346.371	63.32
346.583	53.08
346.795	206.67
347.007	53.08
347.219	3.93
347.431	32.6
347.643	102.23
347.855	42.84
348.067	126.8
348.279	-18.6
348.491	147.28
348.703	34.64
348.915	94.04
349.127	59.22
349.339	69.46
349.551	18.26
349.763	83.8
349.975	100.18
350.187	10.07
350.399	83.8
350.61	61.27
350.822	26.45
351.034	34.64
351.246	161.62
351.458	36.69
351.669	24.4
351.881	108.37
352.093	51.03
352.305	67.41
352.517	81.75
352.728	63.32
352.94	124.76
353.152	69.46
353.363	46.93
353.575	59.22
353.787	167.76
353.999	83.8
354.21	135
354.422	-26.79
354.633	75.6
354.845	38.74
355.057	67.41
355.268	151.38
355.48	48.98
355.692	75.6
355.903	75.6
356.115	42.84
356.326	14.17
356.538	96.08
356.749	18.26
356.961	36.69
357.172	75.6
357.384	-6.31
357.595	100.18
357.807	20.31
358.018	10.07
358.23	51.03
358.441	149.33
358.653	28.5
358.864	-6.31
359.075	63.32
359.287	30.55
359.498	83.8
359.709	91.99
359.921	53.08
360.132	48.98
360.344	61.27
360.555	67.41
360.766	69.46
360.977	85.84
361.189	100.18
361.4	83.8
361.611	69.46
361.823	135
362.034	-6.31
362.245	-28.84
362.456	-12.46
362.667	51.03
362.879	55.12
363.09	132.95
363.301	118.61
363.512	51.03
363.723	94.04
363.935	44.88
364.146	51.03
364.357	75.6
364.568	108.37
364.779	-8.36
364.99	110.42
365.201	75.6
365.412	143.19
365.623	42.84
365.834	85.84
366.045	110.42
366.256	67.41
366.467	75.6
366.678	10.07
366.889	57.17
367.1	79.7
367.311	51.03
367.522	-4.27
367.733	73.56
367.944	42.84
368.155	102.23
368.366	63.32
368.577	145.24
368.788	71.51
368.999	-53.42
369.209	71.51
369.42	149.33
369.631	128.85
369.842	122.71
370.053	55.12
370.264	67.41
370.474	5.97
370.685	112.47
370.896	91.99
371.107	91.99
371.317	94.04
371.528	51.03
371.739	67.41
371.95	55.12
372.16	96.08
372.371	-2.22
372.582	63.32
372.792	61.27
373.003	67.41
373.214	51.03
373.424	96.08
373.635	51.03
373.846	55.12
374.056	18.26
374.267	63.32
374.477	30.55
374.688	26.45
374.898	32.6
375.109	151.38
375.319	73.56
375.53	169.81
375.74	91.99
375.951	18.26
376.161	36.69
376.372	124.76
376.582	26.45
376.793	85.84
377.003	44.88
377.214	91.99
377.424	69.46
377.635	98.13
377.845	141.14
378.055	100.18
378.266	34.64
378.476	124.76
378.686	61.27
378.897	3.93
379.107	102.23
379.317	81.75
379.528	53.08
379.738	120.66
379.948	75.6
380.158	120.66
380.369	38.74
380.579	44.88
380.789	36.69
380.999	59.22
381.21	30.55
381.42	116.56
381.63	48.98
381.84	124.76
382.05	46.93
382.261	141.14
382.471	36.69
382.681	67.41
382.891	165.71
383.101	63.32
383.311	83.8
383.521	73.56
383.731	85.84
383.941	85.84
384.151	96.08
384.361	22.36
384.571	120.66
384.781	69.46
384.991	116.56
385.201	104.28
385.411	3.93
385.621	79.7
385.831	32.6
386.041	55.12
386.251	81.75
386.461	71.51
386.671	34.64
386.881	75.6
387.091	59.22
387.301	120.66
387.511	180.05
387.72	67.41
387.93	61.27
388.14	73.56
388.35	75.6
388.56	100.18
388.769	79.7
388.979	143.19
389.189	-20.65
389.399	100.18
389.609	114.52
389.818	157.52
390.028	42.84
390.238	96.08
390.447	51.03
390.657	83.8
390.867	91.99
391.076	102.23
391.286	79.7
391.496	77.65
391.705	44.88
391.915	116.56
392.125	71.51
392.334	100.18
392.544	151.38
392.753	108.37
392.963	73.56
393.172	53.08
393.382	108.37
393.591	206.67
393.801	28.5
394.01	143.19
394.22	149.33
394.429	87.89
394.639	104.28
394.848	91.99
395.058	149.33
395.267	77.65
395.477	100.18
395.686	102.23
395.895	167.76
396.105	173.91
396.314	143.19
396.524	116.56
396.733	102.23
396.942	163.67
397.152	147.28
397.361	151.38
397.57	167.76
397.78	147.28
397.989	77.65
398.198	145.24
398.407	112.47
398.617	51.03
398.826	151.38
399.035	149.33
399.244	165.71
399.453	116.56
399.663	116.56
399.872	141.14
400.081	128.85
400.29	173.91
400.499	108.37
400.708	223.06
400.917	116.56
401.127	149.33
401.336	149.33
401.545	247.63
401.754	155.47
401.963	194.39
402.172	116.56
402.381	206.67
402.59	167.76
402.799	218.96
403.008	235.35
403.217	173.91
403.426	175.95
403.635	182.1
403.844	214.87
404.053	190.29
404.262	167.76
404.471	173.91
404.68	186.19
404.888	126.8
405.097	169.81
405.306	218.96
405.515	274.26
405.724	218.96
405.933	214.87
406.142	227.15
406.35	231.25
406.559	255.83
406.768	247.63
406.977	259.92
407.185	323.41
407.394	280.4
407.603	210.77
407.812	259.92
408.02	296.78
408.229	251.73
408.438	264.02
408.646	288.59
408.855	366.42
409.064	255.83
409.272	309.07
409.481	427.85
409.69	386.9
409.898	300.88
410.107	347.98
410.315	415.57
410.524	407.38
410.733	468.81
410.941	411.47
411.15	460.62
411.358	503.63
411.567	526.16
411.775	548.68
411.984	477.01
412.192	534.35
412.401	575.31
412.609	651.08
412.818	687.95
413.026	603.98
413.234	694.09
413.443	618.32
413.651	649.04
413.86	694.09
414.068	837.45
414.276	739.15
414.485	829.26
414.693	823.11
414.901	962.37
415.11	888.65
415.318	902.98
415.526	939.85
415.734	984.9
415.943	1052.49
416.151	1068.87
416.359	1087.3
416.567	1034.05
416.776	1156.93
416.984	1247.04
417.192	1300.29
417.4	1269.57
417.608	1247.04
417.817	1365.82
418.025	1484.61
418.233	1484.61
418.441	1423.17
418.649	1558.33
418.857	1697.6
419.065	1713.98
419.273	1632.06
419.481	1730.36
419.689	1896.25
419.897	1902.39
420.105	1959.74
420.313	1939.26
420.521	2019.13
420.729	2156.34
420.937	2119.48
421.145	2289.46
421.353	2379.57
421.561	2490.16
421.769	2449.2
421.977	2557.74
422.185	2674.48
422.393	2762.54
422.601	2926.38
422.809	2893.61
423.017	2768.68
423.224	3002.15
423.432	3225.38
423.64	3176.23
423.848	3430.18
424.056	3358.5
424.263	3815.2
424.471	3614.49
424.679	3698.46
424.887	3815.2
425.094	3950.36
425.302	4048.66
425.51	4161.3
425.718	4228.88
425.925	4271.89
426.133	4525.84
426.341	4728.59
426.548	4927.24
426.756	4945.67
426.964	5039.88
427.171	5187.33
427.379	5418.75
427.586	5558.02
427.794	5707.52
428.001	5879.55
428.209	6123.26
428.417	6315.76
428.624	6498.03
428.832	6545.14
429.039	6608.62
429.247	6514.42
429.454	7106.28
429.662	7476.96
429.869	7032.55
430.076	7642.85
430.284	7321.32
430.491	7808.73
430.699	7999.2
430.906	8193.75
431.114	8423.12
431.321	8681.17
431.528	8730.32
431.736	9365.19
431.943	9696.96
432.15	9365.19
432.358	9445.06
432.565	9975.49
432.772	9885.37
432.979	10456.76
433.187	10555.06
433.394	10800.82
433.601	11378.34
433.808	11290.28
434.016	11321
434.223	11841.18
434.43	12504.73
434.637	12207.77
434.844	13127.31
435.052	13276.81
435.259	13092.49
435.466	13250.19
435.673	13209.23
435.88	13921.92
436.087	15066.74
436.294	14845.55
436.501	14528.12
436.708	14603.89
436.915	15554.15
437.122	15879.78
437.329	15826.53
437.537	16367.2
437.743	16789.08
437.95	16303.71
438.157	17272.4
438.364	17962.56
438.571	17978.95
438.778	18044.48
438.985	19531.31
439.192	18871.86
439.399	19404.33
439.606	18812.47
439.813	20235.81
440.02	21222.93
440.227	20817.43
440.433	20753.94
440.64	21466.64
440.847	21259.79
441.054	21722.63
441.261	23164.4
441.467	23166.45
441.674	23283.19
441.881	24147.43
442.088	24178.15
442.294	23907.82
442.501	24327.65
442.708	24991.19
442.914	26088.9
443.121	26922.43
443.328	26209.73
443.534	28192.17
443.741	27262.39
443.948	26940.86
444.154	28609.95
444.361	28781.98
444.568	28974.49
444.774	29029.79
444.981	29531.54
445.187	30168.46
445.394	31526.26
445.6	31081.85
445.807	33901.9
446.013	32038.25
446.22	33011.04
446.426	34299.21
446.633	34997.57
446.839	35824.95
447.046	34520.39
447.252	36361.51
447.459	36273.45
447.665	36324.65
447.871	37788.95
448.078	39525.63
448.284	37106.98
448.491	38434.06
448.697	40084.72
448.903	40695.02
449.11	40518.89
449.316	40189.17
449.522	40844.52
449.728	41719
449.935	42308.82
450.141	42144.98
450.347	43347.14
450.553	41745.62
450.76	42450.13
450.966	43412.67
451.172	42814.66
451.378	44190.9
451.584	43691.19
451.791	44387.5
451.997	43965.62
452.203	44866.73
452.409	44604.59
452.615	44793
452.821	42939.59
453.027	42679.5
453.233	44596.4
453.44	42902.73
453.646	43418.81
453.852	43582.65
454.058	44141.75
454.264	42996.93
454.47	43939
454.676	42833.1
454.882	44264.63
455.088	40989.92
455.294	41071.84
455.5	41516.25
455.705	42398.93
455.911	40582.38
456.117	39881.97
456.323	39427.32
456.529	37324.06
456.735	38855.94
456.941	38229.26
457.147	37285.15
457.352	36095.28
457.558	35648.82
457.764	36123.95
457.97	35251.52
458.176	34461
458.381	34274.63
458.587	32879.97
458.793	32892.26
458.999	30655.87
459.204	33111.39
459.41	32230.76
459.616	30215.56
459.821	29865.36
460.027	30041.48
460.233	29429.14
460.438	27936.17
460.644	28016.04
460.85	27215.29
461.055	26402.24
461.261	26344.9
461.466	24714.72
461.672	23791.08
461.878	25284.05
462.083	23625.2
462.289	23229.94
462.494	22982.13
462.7	21788.17
462.905	21468.69
463.111	22314.5
463.316	22148.61
463.522	21992.97
463.727	21818.89
463.932	21689.87
464.138	21386.77
464.343	21450.25
464.549	20887.06
464.754	21583.37
464.959	21032.47
465.165	21210.64
465.37	20114.98
465.575	19502.64
465.781	20618.78
465.986	20346.4
466.191	19963.43
466.397	19412.53
466.602	18449.98
466.807	19050.03
