Data from USB4F104151__202__14-33-16-326.txt Node

Date: Thu Mar 13 14:33:16 EDT 2025
User: louis
Spectrometer: USB4F10415
Trigger mode: 4
Integration Time (sec): 2.500000E-2
Scans to average: 1
Electric dark correction enabled: true
Nonlinearity correction enabled: false
Boxcar width: 0
XAxis mode: Wavelengths
Number of Pixels in Spectrum: 3648
>>>>>Begin Spectral Data<<<<<
178.204	-152.23
178.424	-152.23
178.644	-152.23
178.864	-217.77
179.084	-178.86
179.304	-2.73
179.524	38.23
179.744	3.41
179.964	34.13
180.184	7.51
180.404	30.04
180.624	-17.07
180.844	17.75
181.064	-72.36
181.283	-23.21
181.503	-88.75
181.723	73.04
181.943	-88.75
182.163	40.28
182.383	19.8
182.602	93.52
182.822	152.92
183.042	64.85
183.262	-21.16
183.482	3.41
183.701	91.48
183.921	-49.83
184.141	-23.21
184.361	17.75
184.58	-25.26
184.8	44.37
185.02	-41.64
185.239	68.95
185.459	34.13
185.679	25.94
185.898	-8.87
186.118	58.71
186.338	56.66
186.557	-2.73
186.777	30.04
186.997	7.51
187.216	-25.26
187.436	81.24
187.655	56.66
187.875	81.24
188.095	-2.73
188.314	40.28
188.534	23.89
188.753	19.8
188.973	9.56
189.192	66.9
189.412	25.94
189.631	44.37
189.851	-21.16
190.07	56.66
190.29	73.04
190.509	60.76
190.729	19.8
190.948	91.48
191.168	140.63
191.387	66.9
191.607	23.89
191.826	81.24
192.045	48.47
192.265	75.09
192.484	-29.35
192.704	-4.78
192.923	11.61
193.142	85.33
193.362	79.19
193.581	66.9
193.8	19.8
194.02	85.33
194.239	40.28
194.458	73.04
194.678	-35.5
194.897	1.37
195.116	-45.74
195.335	-4.78
195.555	56.66
195.774	11.61
195.993	44.37
196.212	-21.16
196.432	64.85
196.651	-49.83
196.87	54.61
197.089	87.38
197.308	17.75
197.528	-17.07
197.747	52.56
197.966	7.51
198.185	73.04
198.404	-17.07
198.623	64.85
198.842	25.94
199.062	60.76
199.281	23.89
199.5	-4.78
199.719	42.32
199.938	34.13
200.157	58.71
200.376	23.89
200.595	-21.16
200.814	62.8
201.033	-47.79
201.252	23.89
201.471	-41.64
201.69	34.13
201.909	-6.83
202.128	38.23
202.347	7.51
202.566	89.43
202.785	19.8
203.004	-37.55
203.223	97.62
203.442	-0.68
203.661	7.51
203.879	42.32
204.098	64.85
204.317	52.56
204.536	81.24
204.755	27.99
204.974	32.08
205.193	56.66
205.411	56.66
205.63	50.52
205.849	97.62
206.068	-2.73
206.287	-68.27
206.505	73.04
206.724	-4.78
206.943	-4.78
207.162	36.18
207.381	91.48
207.599	19.8
207.818	-17.07
208.037	7.51
208.255	27.99
208.474	27.99
208.693	124.24
208.911	-43.69
209.13	3.41
209.349	-33.45
209.567	32.08
209.786	77.14
210.005	5.46
210.223	73.04
210.442	15.7
210.661	48.47
210.879	42.32
211.098	40.28
211.316	32.08
211.535	83.28
211.753	-0.68
211.972	40.28
212.191	-47.79
212.409	64.85
212.628	48.47
212.846	73.04
213.065	93.52
213.283	83.28
213.502	17.75
213.72	75.09
213.938	-23.21
214.157	50.52
214.375	27.99
214.594	52.56
214.812	44.37
215.031	15.7
215.249	60.76
215.467	54.61
215.686	111.96
215.904	97.62
216.122	60.76
216.341	148.82
216.559	15.7
216.778	-31.4
216.996	73.04
217.214	7.51
217.432	-41.64
217.651	23.89
217.869	50.52
218.087	42.32
218.306	-8.87
218.524	87.38
218.742	-8.87
218.96	7.51
219.179	50.52
219.397	-0.68
219.615	107.86
219.833	56.66
220.051	3.41
220.27	66.9
220.488	46.42
220.706	52.56
220.924	-21.16
221.142	21.85
221.36	64.85
221.578	1.37
221.796	-15.02
222.015	56.66
222.233	44.37
222.451	83.28
222.669	44.37
222.887	17.75
223.105	52.56
223.323	19.8
223.541	1.37
223.759	64.85
223.977	-0.68
224.195	56.66
224.413	75.09
224.631	7.51
224.849	7.51
225.067	56.66
225.285	-78.51
225.503	50.52
225.721	-8.87
225.939	91.48
226.157	21.85
226.375	40.28
226.592	-25.26
226.81	-6.83
227.028	60.76
227.246	50.52
227.464	77.14
227.682	3.41
227.9	-17.07
228.117	36.18
228.335	21.85
228.553	48.47
228.771	9.56
228.989	159.06
229.206	91.48
229.424	-8.87
229.642	9.56
229.86	-2.73
230.077	101.72
230.295	25.94
230.513	34.13
230.731	118.1
230.948	103.76
231.166	-19.11
231.384	-6.83
231.601	40.28
231.819	114
232.037	5.46
232.254	73.04
232.472	68.95
232.689	36.18
232.907	48.47
233.125	56.66
233.342	105.81
233.56	54.61
233.777	-41.64
233.995	73.04
234.213	68.95
234.43	40.28
234.648	64.85
234.865	87.38
235.083	19.8
235.3	15.7
235.518	21.85
235.735	66.9
235.953	163.15
236.17	-21.16
236.388	7.51
236.605	-33.45
236.822	93.52
237.04	114
237.257	64.85
237.475	23.89
237.692	56.66
237.909	64.85
238.127	7.51
238.344	7.51
238.562	77.14
238.779	5.46
238.996	58.71
239.214	15.7
239.431	93.52
239.648	-15.02
239.865	56.66
240.083	13.65
240.3	83.28
240.517	-17.07
240.735	52.56
240.952	105.81
241.169	105.81
241.386	19.8
241.603	-25.26
241.821	-33.45
242.038	95.57
242.255	7.51
242.472	32.08
242.689	75.09
242.907	83.28
243.124	-21.16
243.341	-88.75
243.558	-49.83
243.775	-23.21
243.992	42.32
244.209	30.04
244.426	32.08
244.643	34.13
244.86	-15.02
245.078	66.9
245.295	58.71
245.512	32.08
245.729	101.72
245.946	34.13
246.163	19.8
246.38	25.94
246.597	101.72
246.814	11.61
247.031	-4.78
247.248	32.08
247.464	40.28
247.681	15.7
247.898	17.75
248.115	7.51
248.332	-33.45
248.549	85.33
248.766	107.86
248.983	34.13
249.2	27.99
249.417	-33.45
249.633	17.75
249.85	36.18
250.067	64.85
250.284	48.47
250.501	58.71
250.717	32.08
250.934	11.61
251.151	44.37
251.368	-0.68
251.585	-0.68
251.801	13.65
252.018	-66.22
252.235	122.2
252.451	-4.78
252.668	-53.93
252.885	48.47
253.102	40.28
253.318	42.32
253.535	-41.64
253.752	56.66
253.968	-80.55
254.185	11.61
254.401	38.23
254.618	-2.73
254.835	-2.73
255.051	91.48
255.268	-105.13
255.484	89.43
255.701	23.89
255.917	62.8
256.134	7.51
256.351	7.51
256.567	-21.16
256.784	81.24
257	11.61
257.217	34.13
257.433	56.66
257.65	50.52
257.866	38.23
258.082	-10.92
258.299	36.18
258.515	-31.4
258.732	48.47
258.948	25.94
259.165	25.94
259.381	66.9
259.597	25.94
259.814	48.47
260.03	85.33
260.246	42.32
260.463	7.51
260.679	66.9
260.895	116.05
261.112	-21.16
261.328	-27.31
261.544	48.47
261.761	134.48
261.977	15.7
262.193	-35.5
262.409	66.9
262.626	5.46
262.842	64.85
263.058	44.37
263.274	56.66
263.49	48.47
263.707	1.37
263.923	11.61
264.139	-33.45
264.355	9.56
264.571	64.85
264.787	138.58
265.004	9.56
265.22	-0.68
265.436	-25.26
265.652	71
265.868	15.7
266.084	60.76
266.3	40.28
266.516	-111.27
266.732	77.14
266.948	13.65
267.164	-17.07
267.38	-29.35
267.596	3.41
267.812	124.24
268.028	38.23
268.244	19.8
268.46	56.66
268.676	17.75
268.892	97.62
269.108	32.08
269.324	-10.92
269.54	58.71
269.756	-51.88
269.972	1.37
270.188	52.56
270.403	5.46
270.619	58.71
270.835	44.37
271.051	50.52
271.267	15.7
271.483	15.7
271.698	62.8
271.914	48.47
272.13	7.51
272.346	-8.87
272.562	9.56
272.777	75.09
272.993	3.41
273.209	-58.03
273.425	21.85
273.64	15.7
273.856	7.51
274.072	23.89
274.287	3.41
274.503	32.08
274.719	75.09
274.934	-12.97
275.15	-60.07
275.366	56.66
275.581	54.61
275.797	1.37
276.012	-17.07
276.228	89.43
276.444	56.66
276.659	97.62
276.875	-39.59
277.09	-21.16
277.306	9.56
277.521	34.13
277.737	27.99
277.952	91.48
278.168	15.7
278.383	13.65
278.599	11.61
278.814	15.7
279.03	56.66
279.245	58.71
279.461	17.75
279.676	114
279.892	-8.87
280.107	48.47
280.322	19.8
280.538	17.75
280.753	-45.74
280.969	81.24
281.184	23.89
281.399	105.81
281.615	-23.21
281.83	7.51
282.045	23.89
282.26	-12.97
282.476	-33.45
282.691	58.71
282.906	75.09
283.122	-6.83
283.337	34.13
283.552	116.05
283.767	-58.03
283.983	36.18
284.198	97.62
284.413	-12.97
284.628	-12.97
284.843	58.71
285.058	91.48
285.274	56.66
285.489	-15.02
285.704	27.99
285.919	7.51
286.134	30.04
286.349	27.99
286.564	30.04
286.779	81.24
286.995	36.18
287.21	9.56
287.425	58.71
287.64	7.51
287.855	-8.87
288.07	-35.5
288.285	122.2
288.5	85.33
288.715	-4.78
288.93	40.28
289.145	60.76
289.36	-6.83
289.575	17.75
289.79	64.85
290.004	7.51
290.219	50.52
290.434	23.89
290.649	66.9
290.864	-33.45
291.079	34.13
291.294	48.47
291.509	73.04
291.724	15.7
291.938	36.18
292.153	64.85
292.368	3.41
292.583	7.51
292.798	7.51
293.012	15.7
293.227	40.28
293.442	7.51
293.657	66.9
293.871	130.39
294.086	-10.92
294.301	60.76
294.516	34.13
294.73	-41.64
294.945	56.66
295.16	-8.87
295.374	52.56
295.589	48.47
295.804	83.28
296.018	15.7
296.233	11.61
296.447	56.66
296.662	38.23
296.877	32.08
297.091	64.85
297.306	56.66
297.52	-45.74
297.735	50.52
297.949	38.23
298.164	75.09
298.378	9.56
298.593	-21.16
298.807	68.95
299.022	42.32
299.236	130.39
299.451	11.61
299.665	15.7
299.88	75.09
300.094	9.56
300.309	3.41
300.523	-17.07
300.737	15.7
300.952	60.76
301.166	56.66
301.381	68.95
301.595	56.66
301.809	30.04
302.024	23.89
302.238	-6.83
302.452	114
302.667	-0.68
302.881	179.54
303.095	105.81
303.309	62.8
303.524	83.28
303.738	27.99
303.952	-10.92
304.166	68.95
304.381	15.7
304.595	79.19
304.809	-15.02
305.023	19.8
305.237	-6.83
305.452	36.18
305.666	-6.83
305.88	116.05
306.094	103.76
306.308	97.62
306.522	99.67
306.736	15.7
306.95	25.94
307.164	30.04
307.379	13.65
307.593	77.14
307.807	114
308.021	97.62
308.235	-0.68
308.449	3.41
308.663	25.94
308.877	134.48
309.091	30.04
309.305	89.43
309.519	-19.11
309.733	85.33
309.947	3.41
310.161	93.52
310.374	-41.64
310.588	91.48
310.802	-19.11
311.016	15.7
311.23	15.7
311.444	64.85
311.658	48.47
311.872	9.56
312.085	46.42
312.299	40.28
312.513	75.09
312.727	87.38
312.941	32.08
313.154	15.7
313.368	52.56
313.582	36.18
313.796	48.47
314.009	40.28
314.223	89.43
314.437	38.23
314.651	81.24
314.864	15.7
315.078	40.28
315.292	75.09
315.505	58.71
315.719	32.08
315.933	44.37
316.146	38.23
316.36	66.9
316.573	85.33
316.787	23.89
317.001	60.76
317.214	-15.02
317.428	122.2
317.641	9.56
317.855	15.7
318.068	-12.97
318.282	101.72
318.495	32.08
318.709	34.13
318.922	21.85
319.136	58.71
319.349	56.66
319.563	58.71
319.776	7.51
319.99	-21.16
320.203	73.04
320.417	56.66
320.63	32.08
320.843	9.56
321.057	-0.68
321.27	83.28
321.483	68.95
321.697	66.9
321.91	-37.55
322.124	64.85
322.337	64.85
322.55	21.85
322.763	48.47
322.977	11.61
323.19	23.89
323.403	50.52
323.617	21.85
323.83	83.28
324.043	27.99
324.256	81.24
324.469	23.89
324.683	130.39
324.896	7.51
325.109	114
325.322	15.7
325.535	38.23
325.748	75.09
325.962	-25.26
326.175	83.28
326.388	50.52
326.601	138.58
326.814	34.13
327.027	36.18
327.24	81.24
327.453	3.41
327.666	109.91
327.879	114
328.092	23.89
328.305	44.37
328.518	30.04
328.731	3.41
328.944	15.7
329.157	64.85
329.37	11.61
329.583	48.47
329.796	1.37
330.009	3.41
330.222	93.52
330.435	93.52
330.648	-6.83
330.861	42.32
331.073	81.24
331.286	101.72
331.499	23.89
331.712	44.37
331.925	83.28
332.138	62.8
332.35	93.52
332.563	114
332.776	114
332.989	23.89
333.202	97.62
333.414	25.94
333.627	-23.21
333.84	73.04
334.053	97.62
334.265	11.61
334.478	17.75
334.691	19.8
334.903	99.67
335.116	32.08
335.329	32.08
335.541	27.99
335.754	107.86
335.966	11.61
336.179	-33.45
336.392	15.7
336.604	7.51
336.817	107.86
337.029	124.24
337.242	101.72
337.454	56.66
337.667	36.18
337.88	73.04
338.092	58.71
338.305	58.71
338.517	-6.83
338.729	32.08
338.942	13.65
339.154	15.7
339.367	-82.6
339.579	17.75
339.792	9.56
340.004	44.37
340.217	23.89
340.429	81.24
340.641	7.51
340.854	13.65
341.066	13.65
341.278	159.06
341.491	132.44
341.703	7.51
341.915	-10.92
342.128	118.1
342.34	114
342.552	-21.16
342.764	52.56
342.977	56.66
343.189	15.7
343.401	91.48
343.613	44.37
343.826	114
344.038	15.7
344.25	83.28
344.462	89.43
344.674	79.19
344.886	97.62
345.099	87.38
345.311	81.24
345.523	77.14
345.735	50.52
345.947	93.52
346.159	140.63
346.371	17.75
346.583	11.61
346.795	58.71
347.007	66.9
347.219	128.34
347.431	40.28
347.643	75.09
347.855	81.24
348.067	36.18
348.279	-25.26
348.491	99.67
348.703	81.24
348.915	32.08
349.127	48.47
349.339	50.52
349.551	1.37
349.763	-0.68
349.975	75.09
350.187	77.14
350.399	124.24
350.61	48.47
350.822	40.28
351.034	50.52
351.246	60.76
351.458	23.89
351.669	68.95
351.881	56.66
352.093	77.14
352.305	130.39
352.517	46.42
352.728	150.87
352.94	60.76
353.152	44.37
353.363	58.71
353.575	50.52
353.787	73.04
353.999	32.08
354.21	142.68
354.422	48.47
354.633	66.9
354.845	40.28
355.057	27.99
355.268	62.8
355.48	36.18
355.692	54.61
355.903	32.08
356.115	19.8
356.326	66.9
356.538	87.38
356.749	44.37
356.961	105.81
357.172	13.65
357.384	32.08
357.595	103.76
357.807	89.43
358.018	11.61
358.23	23.89
358.441	130.39
358.653	73.04
358.864	77.14
359.075	9.56
359.287	52.56
359.498	15.7
359.709	73.04
359.921	97.62
360.132	44.37
360.344	15.7
360.555	64.85
360.766	9.56
360.977	9.56
361.189	48.47
361.4	159.06
361.611	89.43
361.823	50.52
362.034	77.14
362.245	7.51
362.456	9.56
362.667	17.75
362.879	-31.4
363.09	73.04
363.301	46.42
363.512	32.08
363.723	62.8
363.935	-17.07
364.146	87.38
364.357	50.52
364.568	91.48
364.779	17.75
364.99	146.77
365.201	56.66
365.412	95.57
365.623	7.51
365.834	81.24
366.045	60.76
366.256	-8.87
366.467	64.85
366.678	83.28
366.889	85.33
367.1	89.43
367.311	73.04
367.522	-25.26
367.733	91.48
367.944	32.08
368.155	32.08
368.366	73.04
368.577	130.39
368.788	134.48
368.999	42.32
369.209	73.04
369.42	130.39
369.631	118.1
369.842	89.43
370.053	58.71
370.264	93.52
370.474	56.66
370.685	58.71
370.896	48.47
371.107	89.43
371.317	89.43
371.528	-31.4
371.739	27.99
371.95	15.7
372.16	75.09
372.371	54.61
372.582	52.56
372.792	101.72
373.003	109.91
373.214	52.56
373.424	60.76
373.635	83.28
373.846	95.57
374.056	40.28
374.267	32.08
374.477	15.7
374.688	40.28
374.898	62.8
375.109	89.43
375.319	105.81
375.53	122.2
375.74	118.1
375.951	11.61
376.161	23.89
376.372	107.86
376.582	-49.83
376.793	91.48
377.003	-25.26
377.214	1.37
377.424	23.89
377.635	101.72
377.845	44.37
378.055	134.48
378.266	48.47
378.476	60.76
378.686	130.39
378.897	118.1
379.107	130.39
379.317	-0.68
379.528	9.56
379.738	83.28
379.948	19.8
380.158	56.66
380.369	95.57
380.579	64.85
380.789	75.09
380.999	93.52
381.21	15.7
381.42	118.1
381.63	7.51
381.84	97.62
382.05	54.61
382.261	93.52
382.471	85.33
382.681	66.9
382.891	50.52
383.101	101.72
383.311	114
383.521	81.24
383.731	93.52
383.941	73.04
384.151	40.28
384.361	-23.21
384.571	48.47
384.781	68.95
384.991	68.95
385.201	105.81
385.411	122.2
385.621	159.06
385.831	-2.73
386.041	81.24
386.251	56.66
386.461	105.81
386.671	142.68
386.881	32.08
387.091	93.52
387.301	48.47
387.511	136.53
387.72	79.19
387.93	105.81
388.14	9.56
388.35	7.51
388.56	46.42
388.769	167.25
388.979	17.75
389.189	-17.07
389.399	81.24
389.609	116.05
389.818	25.94
390.028	40.28
390.238	77.14
390.447	42.32
390.657	93.52
390.867	15.7
391.076	-0.68
391.286	48.47
391.496	58.71
391.705	85.33
391.915	179.54
392.125	56.66
392.334	34.13
392.544	159.06
392.753	195.92
392.963	7.51
393.172	81.24
393.382	40.28
393.591	109.91
393.801	91.48
394.01	150.87
394.22	130.39
394.429	77.14
394.639	50.52
394.848	83.28
395.058	56.66
395.267	64.85
395.477	146.77
395.686	64.85
395.895	157.01
396.105	152.92
396.314	167.25
396.524	134.48
396.733	132.44
396.942	146.77
397.152	122.2
397.361	171.35
397.57	81.24
397.78	101.72
397.989	197.97
398.198	210.26
398.407	132.44
398.617	105.81
398.826	109.91
399.035	150.87
399.244	107.86
399.453	138.58
399.663	163.15
399.872	120.15
400.081	81.24
400.29	240.98
400.499	173.39
400.708	193.87
400.917	122.2
401.127	99.67
401.336	183.63
401.545	263.51
401.754	159.06
401.963	163.15
402.172	169.3
402.381	89.43
402.59	134.48
402.799	197.97
403.008	224.59
403.217	152.92
403.426	159.06
403.635	183.63
403.844	148.82
404.053	179.54
404.262	114
404.471	232.79
404.68	163.15
404.888	179.54
405.097	165.2
405.306	206.16
405.515	232.79
405.724	224.59
405.933	292.18
406.142	240.98
406.35	275.79
406.559	222.55
406.768	288.08
406.977	267.6
407.185	220.5
407.394	230.74
407.603	243.03
407.812	326.99
408.02	255.31
408.229	318.8
408.438	318.8
408.646	179.54
408.855	253.27
409.064	363.86
409.272	322.9
409.481	482.64
409.69	429.39
409.898	400.72
410.107	437.58
410.315	441.68
410.524	478.54
410.733	445.77
410.941	396.62
411.15	482.64
411.358	468.3
411.567	525.65
411.775	494.93
411.984	558.41
412.192	501.07
412.401	615.76
412.609	607.56
412.818	734.54
413.026	572.75
413.234	646.48
413.443	603.47
413.651	644.43
413.86	824.65
414.068	785.74
414.276	814.41
414.485	779.59
414.693	900.42
414.901	976.2
415.11	957.77
415.318	931.14
415.526	980.29
415.734	974.15
415.943	937.29
416.151	1123.65
416.359	1178.95
416.567	1248.58
416.776	1181
416.984	1342.78
417.192	1318.21
417.4	1344.83
417.608	1359.17
417.817	1402.18
418.025	1561.92
418.233	1582.4
418.441	1498.43
418.649	1566.01
418.857	1772.86
419.065	1740.09
419.273	1735.99
419.481	1770.81
419.689	1959.22
419.897	2026.81
420.105	2100.53
420.313	2043.19
420.521	2112.82
420.729	2319.67
420.937	2309.43
421.145	2465.07
421.353	2559.28
421.561	2598.19
421.769	2694.44
421.977	2805.03
422.185	2676.01
422.393	2915.62
422.601	3271.97
422.809	3061.03
423.017	3058.98
423.224	3312.93
423.432	3335.46
423.64	3353.89
423.848	3704.09
424.056	3628.32
424.263	3929.37
424.471	3794.2
424.679	3915.03
424.887	4316.44
425.094	4177.17
425.302	4291.86
425.51	4547.86
425.718	4642.06
425.925	4633.87
426.133	4791.56
426.341	5016.84
426.548	5192.97
426.756	5334.28
426.964	5471.49
427.171	5760.25
427.379	5842.17
427.586	5788.92
427.794	6042.87
428.001	6352.12
428.209	6579.44
428.417	6470.9
428.624	6958.32
428.832	6892.78
429.039	6872.3
429.247	7054.57
429.454	7693.54
429.662	8135.9
429.869	7650.53
430.076	8076.51
430.284	7920.86
430.491	8207.58
430.699	8778.96
430.906	8766.67
431.114	8772.82
431.321	9215.18
431.528	9426.12
431.736	9891.01
431.943	10374.33
432.15	9974.97
432.358	10108.09
432.565	10593.46
432.772	10796.21
432.979	11168.94
433.187	11244.71
433.394	11441.32
433.601	12369.05
433.808	12295.32
434.016	12096.67
434.223	12623
434.43	13360.27
434.637	13235.34
434.844	13900.93
435.052	14255.23
435.259	14197.88
435.466	14146.69
435.673	14105.73
435.88	14818.42
436.087	15830.12
436.294	15776.87
436.501	15529.06
436.708	15754.34
436.915	16163.93
437.122	16819.28
437.329	17081.42
437.537	17302.61
437.743	17581.13
437.95	17458.25
438.157	18465.85
438.364	18983.99
438.571	18947.12
438.778	19366.96
438.985	20970.52
439.192	19964.96
439.399	20855.83
439.606	20212.77
439.813	21556.24
440.02	22649.85
440.227	22221.83
440.433	22111.24
440.64	22561.79
440.847	22823.93
441.054	23387.12
441.261	24587.23
441.467	24273.89
441.674	24849.37
441.881	25580.49
442.088	25795.53
442.294	25517.01
442.501	26102.73
442.708	26637.25
442.914	27507.63
443.121	28660.64
443.328	27993
443.534	29795.21
443.741	29100.95
443.948	28822.43
444.154	31118.2
444.361	30849.92
444.568	30481.28
444.774	30843.77
444.981	31318.9
445.187	31998.83
445.394	33358.68
445.6	33151.84
445.807	36221.74
446.013	34632.52
446.22	35320.63
446.426	36440.87
446.633	36756.26
446.839	37813.01
447.046	36373.29
447.252	38744.84
447.459	38298.38
447.665	38413.07
447.871	39992.05
448.078	41734.87
448.284	39527.16
448.491	40645.35
448.697	42705.61
448.903	43307.71
449.11	42910.41
449.316	42515.15
449.522	43082.44
449.728	44114.61
449.935	44784.3
450.141	44874.41
450.347	45501.09
450.553	44481.2
450.76	44690.09
450.966	45941.4
451.172	45879.96
451.378	46781.07
451.584	45957.78
451.791	47248
451.997	47094.41
452.203	47352.45
452.409	47846.01
452.615	47411.84
452.821	45771.42
453.027	45378.21
453.233	47606.4
453.44	45628.06
453.646	46006.94
453.852	46199.44
454.058	47141.51
454.264	44907.18
454.47	46752.4
454.676	45658.78
454.882	47342.21
455.088	42808.01
455.294	43518.65
455.5	44051.13
455.705	44888.74
455.911	42922.69
456.117	42248.91
456.323	41521.88
456.529	39545.59
456.735	40725.22
456.941	40110.83
457.147	39295.74
457.352	38275.85
457.558	37886.74
457.764	38198.03
457.97	37270.3
458.176	36614.95
458.381	36315.95
458.587	34583.37
458.793	34448.2
458.999	32605.03
459.204	35322.68
459.41	34290.51
459.616	31923.05
459.821	31970.16
460.027	32095.08
460.233	31159.16
460.438	29512.59
460.644	30057.35
460.85	28539.81
461.055	27945.9
461.261	27931.56
461.466	25883.59
461.672	25422.8
461.878	26899.39
462.083	24968.15
462.289	24595.42
462.494	24445.92
462.7	23172.08
462.905	22885.37
463.111	23426.03
463.316	23397.36
463.522	23118.84
463.727	23305.2
463.932	22920.18
464.138	22592.51
464.343	22856.7
464.549	22289.41
464.754	23145.46
464.959	22496.25
465.165	22406.14
465.37	21527.56
465.575	21011.48
465.781	21859.34
465.986	21834.76
466.191	21111.83
466.397	20648.99
466.602	19850.28
466.807	20290.59
467.012	20417.57
467.218	20327.46
467.423	19958.82
467.628	20241.44
