Data from USB4F104151__168__14-32-22-716.txt Node

Date: Thu Mar 13 14:32:22 EDT 2025
User: louis
Spectrometer: USB4F10415
Trigger mode: 4
Integration Time (sec): 2.500000E-2
Scans to average: 1
Electric dark correction enabled: true
Nonlinearity correction enabled: false
Boxcar width: 0
XAxis mode: Wavelengths
Number of Pixels in Spectrum: 3648
>>>>>Begin Spectral Data<<<<<
178.204	-119.98
178.424	-119.98
178.644	-119.98
178.864	-93.35
179.084	-130.22
179.304	39.76
179.524	13.14
179.744	-1.19
179.964	45.91
180.184	-13.48
180.404	-23.72
180.624	-48.3
180.844	0.85
181.064	-56.49
181.283	66.39
181.503	-42.15
181.723	19.29
181.943	-89.26
182.163	84.82
182.383	-1.19
182.602	-7.34
182.822	74.58
183.042	13.14
183.262	-31.91
183.482	23.38
183.701	-15.53
183.921	60.24
184.141	-17.58
184.361	78.68
184.58	35.67
184.8	54.1
185.02	2.9
185.239	41.81
185.459	11.09
185.679	2.9
185.898	-29.87
186.118	62.29
186.338	115.54
186.557	52.05
186.777	-52.39
186.997	-7.34
187.216	19.29
187.436	76.63
187.655	43.86
187.875	43.86
188.095	41.81
188.314	52.05
188.534	19.29
188.753	-23.72
188.973	25.43
189.192	74.58
189.412	41.81
189.631	29.52
189.851	9.05
190.07	29.52
190.29	-48.3
190.509	7
190.729	-70.83
190.948	111.44
191.168	131.92
191.387	17.24
191.607	27.48
191.826	54.1
192.045	47.96
192.265	-42.15
192.484	13.14
192.704	33.62
192.923	11.09
193.142	113.49
193.362	11.09
193.581	50
193.8	76.63
194.02	52.05
194.239	19.29
194.458	-3.24
194.678	-62.63
194.897	54.1
195.116	-40.11
195.335	25.43
195.555	84.82
195.774	-31.91
195.993	-27.82
196.212	-15.53
196.432	-21.67
196.651	-25.77
196.87	21.33
197.089	76.63
197.308	74.58
197.528	97.11
197.747	17.24
197.966	37.72
198.185	109.4
198.404	50
198.623	111.44
198.842	37.72
199.062	21.33
199.281	84.82
199.5	25.43
199.719	41.81
199.938	9.05
200.157	82.77
200.376	0.85
200.595	43.86
200.814	2.9
201.033	-64.68
201.252	31.57
201.471	-38.06
201.69	17.24
201.909	76.63
202.128	0.85
202.347	62.29
202.566	25.43
202.785	-89.26
203.004	29.52
203.223	109.4
203.442	84.82
203.661	35.67
203.879	101.2
204.098	74.58
204.317	35.67
204.536	29.52
204.755	-11.43
204.974	39.76
205.193	9.05
205.411	68.44
205.63	-23.72
205.849	2.9
206.068	-7.34
206.287	-46.25
206.505	50
206.724	9.05
206.943	76.63
207.162	7
207.381	52.05
207.599	27.48
207.818	29.52
208.037	33.62
208.255	50
208.474	66.39
208.693	62.29
208.911	0.85
209.13	35.67
209.349	17.24
209.567	37.72
209.786	19.29
210.005	13.14
210.223	66.39
210.442	-44.2
210.661	45.91
210.879	25.43
211.098	-1.19
211.316	60.24
211.535	148.31
211.753	11.09
211.972	58.2
212.191	21.33
212.409	31.57
212.628	33.62
212.846	88.92
213.065	52.05
213.283	21.33
213.502	-27.82
213.72	2.9
213.938	29.52
214.157	50
214.375	23.38
214.594	-21.67
214.812	56.15
215.031	-7.34
215.249	35.67
215.467	13.14
215.686	45.91
215.904	43.86
216.122	35.67
216.341	25.43
216.559	58.2
216.778	52.05
216.996	33.62
217.214	25.43
217.432	45.91
217.651	9.05
217.869	41.81
218.087	-60.59
218.306	41.81
218.524	107.35
218.742	84.82
218.96	-29.87
219.179	35.67
219.397	17.24
219.615	60.24
219.833	62.29
220.051	-31.91
220.27	68.44
220.488	103.25
220.706	-21.67
220.924	45.91
221.142	19.29
221.36	50
221.578	70.48
221.796	17.24
222.015	39.76
222.233	45.91
222.451	93.01
222.669	-3.24
222.887	25.43
223.105	-38.06
223.323	74.58
223.541	19.29
223.759	17.24
223.977	27.48
224.195	74.58
224.413	58.2
224.631	58.2
224.849	-21.67
225.067	115.54
225.285	-60.59
225.503	56.15
225.721	-62.63
225.939	72.53
226.157	-11.43
226.375	97.11
226.592	31.57
226.81	68.44
227.028	60.24
227.246	82.77
227.464	11.09
227.682	47.96
227.9	66.39
228.117	54.1
228.335	43.86
228.553	-11.43
228.771	95.06
228.989	90.96
229.206	11.09
229.424	-15.53
229.642	-19.63
229.86	33.62
230.077	90.96
230.295	0.85
230.513	17.24
230.731	17.24
230.948	-5.29
231.166	62.29
231.384	-13.48
231.601	74.58
231.819	142.16
232.037	-38.06
232.254	35.67
232.472	62.29
232.689	52.05
232.907	17.24
233.125	9.05
233.342	29.52
233.56	-44.2
233.777	31.57
233.995	-11.43
234.213	76.63
234.43	54.1
234.648	-31.91
234.865	43.86
235.083	29.52
235.3	-23.72
235.518	21.33
235.735	76.63
235.953	39.76
236.17	-7.34
236.388	-13.48
236.605	58.2
236.822	54.1
237.04	-46.25
237.257	9.05
237.475	0.85
237.692	64.34
237.909	41.81
238.127	-40.11
238.344	-5.29
238.562	52.05
238.779	-13.48
238.996	-48.3
239.214	45.91
239.431	4.95
239.648	9.05
239.865	27.48
240.083	45.91
240.3	50
240.517	11.09
240.735	15.19
240.952	107.35
241.169	68.44
241.386	62.29
241.603	2.9
241.821	-3.24
242.038	37.72
242.255	52.05
242.472	17.24
242.689	76.63
242.907	37.72
243.124	2.9
243.341	-3.24
243.558	86.87
243.775	66.39
243.992	9.05
244.209	68.44
244.426	84.82
244.643	60.24
244.86	-19.63
245.078	101.2
245.295	0.85
245.512	33.62
245.729	-19.63
245.946	54.1
246.163	62.29
246.38	-5.29
246.597	0.85
246.814	41.81
247.031	19.29
247.248	-7.34
247.464	-15.53
247.681	86.87
247.898	58.2
248.115	33.62
248.332	25.43
248.549	58.2
248.766	70.48
248.983	90.96
249.2	33.62
249.417	56.15
249.633	64.34
249.85	9.05
250.067	45.91
250.284	15.19
250.501	17.24
250.717	125.78
250.934	-3.24
251.151	-5.29
251.368	-7.34
251.585	-31.91
251.801	64.34
252.018	0.85
252.235	58.2
252.451	43.86
252.668	19.29
252.885	74.58
253.102	9.05
253.318	-64.68
253.535	74.58
253.752	50
253.968	0.85
254.185	78.68
254.401	58.2
254.618	-11.43
254.835	33.62
255.051	66.39
255.268	41.81
255.484	41.81
255.701	39.76
255.917	13.14
256.134	-15.53
256.351	54.1
256.567	17.24
256.784	43.86
257	-54.44
257.217	19.29
257.433	15.19
257.65	2.9
257.866	19.29
258.082	-3.24
258.299	17.24
258.515	-13.48
258.732	56.15
258.948	21.33
259.165	54.1
259.381	7
259.597	82.77
259.814	86.87
260.03	11.09
260.246	41.81
260.463	76.63
260.679	125.78
260.895	31.57
261.112	58.2
261.328	-7.34
261.544	-13.48
261.761	109.4
261.977	25.43
262.193	-72.87
262.409	0.85
262.626	-9.39
262.842	111.44
263.058	-7.34
263.274	41.81
263.49	74.58
263.707	95.06
263.923	-36.01
264.139	35.67
264.355	-29.87
264.571	76.63
264.787	66.39
265.004	33.62
265.22	25.43
265.436	82.77
265.652	-7.34
265.868	-31.91
266.084	-56.49
266.3	58.2
266.516	70.48
266.732	-5.29
266.948	84.82
267.164	39.76
267.38	86.87
267.596	82.77
267.812	17.24
268.028	62.29
268.244	-64.68
268.46	58.2
268.676	17.24
268.892	68.44
269.108	27.48
269.324	-60.59
269.54	-19.63
269.756	74.58
269.972	-27.82
270.188	-29.87
270.403	0.85
270.619	13.14
270.835	-13.48
271.051	54.1
271.267	0.85
271.483	25.43
271.698	23.38
271.914	39.76
272.13	50
272.346	70.48
272.562	-15.53
272.777	62.29
272.993	-3.24
273.209	74.58
273.425	21.33
273.64	2.9
273.856	68.44
274.072	68.44
274.287	31.57
274.503	17.24
274.719	41.81
274.934	45.91
275.15	-36.01
275.366	39.76
275.581	35.67
275.797	80.72
276.012	2.9
276.228	-3.24
276.444	33.62
276.659	17.24
276.875	-48.3
277.09	-3.24
277.306	-15.53
277.521	62.29
277.737	-52.39
277.952	74.58
278.168	2.9
278.383	-38.06
278.599	60.24
278.814	17.24
279.03	60.24
279.245	68.44
279.461	43.86
279.676	86.87
279.892	-46.25
280.107	0.85
280.322	107.35
280.538	50
280.753	9.05
280.969	-13.48
281.184	-5.29
281.399	17.24
281.615	64.34
281.83	74.58
282.045	-17.58
282.26	-33.96
282.476	-3.24
282.691	9.05
282.906	9.05
283.122	9.05
283.337	-23.72
283.552	80.72
283.767	-31.91
283.983	-7.34
284.198	21.33
284.413	99.16
284.628	11.09
284.843	52.05
285.058	19.29
285.274	29.52
285.489	-46.25
285.704	107.35
285.919	-23.72
286.134	-27.82
286.349	33.62
286.564	35.67
286.779	47.96
286.995	25.43
287.21	-9.39
287.425	2.9
287.64	-91.31
287.855	78.68
288.07	-5.29
288.285	23.38
288.5	25.43
288.715	76.63
288.93	-72.87
289.145	0.85
289.36	4.95
289.575	68.44
289.79	90.96
290.004	25.43
290.219	78.68
290.434	43.86
290.649	9.05
290.864	62.29
291.079	19.29
291.294	86.87
291.509	66.39
291.724	58.2
291.938	0.85
292.153	33.62
292.368	-70.83
292.583	21.33
292.798	33.62
293.012	115.54
293.227	-89.26
293.442	68.44
293.657	50
293.871	45.91
294.086	2.9
294.301	-15.53
294.516	17.24
294.73	84.82
294.945	-19.63
295.16	41.81
295.374	43.86
295.589	33.62
295.804	-56.49
296.018	58.2
296.233	-15.53
296.447	68.44
296.662	-21.67
296.877	58.2
297.091	50
297.306	35.67
297.52	11.09
297.735	62.29
297.949	50
298.164	68.44
298.378	50
298.593	74.58
298.807	27.48
299.022	41.81
299.236	66.39
299.451	29.52
299.665	-31.91
299.88	-36.01
300.094	-3.24
300.309	29.52
300.523	64.34
300.737	33.62
300.952	41.81
301.166	-13.48
301.381	-15.53
301.595	-7.34
301.809	39.76
302.024	47.96
302.238	21.33
302.452	82.77
302.667	-7.34
302.881	60.24
303.095	74.58
303.309	84.82
303.524	35.67
303.738	74.58
303.952	-27.82
304.166	-36.01
304.381	-56.49
304.595	74.58
304.809	-66.73
305.023	-15.53
305.237	2.9
305.452	78.68
305.666	52.05
305.88	99.16
306.094	23.38
306.308	50
306.522	-13.48
306.736	37.72
306.95	119.64
307.164	25.43
307.379	60.24
307.593	45.91
307.807	80.72
308.021	74.58
308.235	-7.34
308.449	-46.25
308.663	-15.53
308.877	82.77
309.091	76.63
309.305	-7.34
309.519	25.43
309.733	41.81
309.947	-48.3
310.161	86.87
310.374	0.85
310.588	58.2
310.802	2.9
311.016	-3.24
311.23	107.35
311.444	41.81
311.658	64.34
311.872	54.1
312.085	52.05
312.299	58.2
312.513	13.14
312.727	95.06
312.941	-44.2
313.154	-3.24
313.368	31.57
313.582	43.86
313.796	107.35
314.009	103.25
314.223	78.68
314.437	45.91
314.651	-23.72
314.864	41.81
315.078	-21.67
315.292	25.43
315.505	11.09
315.719	101.2
315.933	74.58
316.146	58.2
316.36	29.52
316.573	54.1
316.787	-1.19
317.001	-5.29
317.214	-23.72
317.428	7
317.641	74.58
317.855	13.14
318.068	4.95
318.282	7
318.495	68.44
318.709	58.2
318.922	-11.43
319.136	68.44
319.349	50
319.563	68.44
319.776	2.9
319.99	-7.34
320.203	105.3
320.417	9.05
320.63	80.72
320.843	21.33
321.057	31.57
321.27	25.43
321.483	21.33
321.697	58.2
321.91	-3.24
322.124	33.62
322.337	50
322.55	-5.29
322.763	0.85
322.977	-7.34
323.19	-11.43
323.403	-3.24
323.617	117.59
323.83	19.29
324.043	-56.49
324.256	70.48
324.469	50
324.683	76.63
324.896	43.86
325.109	127.83
325.322	11.09
325.535	88.92
325.748	29.52
325.962	52.05
326.175	97.11
326.388	-3.24
326.601	50
326.814	-13.48
327.027	-27.82
327.24	11.09
327.453	-52.39
327.666	4.95
327.879	47.96
328.092	41.81
328.305	54.1
328.518	21.33
328.731	99.16
328.944	9.05
329.157	78.68
329.37	27.48
329.583	82.77
329.796	142.16
330.009	-23.72
330.222	41.81
330.435	109.4
330.648	11.09
330.861	-11.43
331.073	-5.29
331.286	17.24
331.499	-5.29
331.712	-23.72
331.925	-40.11
332.138	9.05
332.35	66.39
332.563	33.62
332.776	90.96
332.989	-19.63
333.202	76.63
333.414	-23.72
333.627	11.09
333.84	35.67
334.053	78.68
334.265	68.44
334.478	33.62
334.691	35.67
334.903	37.72
335.116	11.09
335.329	21.33
335.541	29.52
335.754	88.92
335.966	33.62
336.179	25.43
336.392	-7.34
336.604	60.24
336.817	62.29
337.029	119.64
337.242	-23.72
337.454	17.24
337.667	33.62
337.88	74.58
338.092	-15.53
338.305	4.95
338.517	-48.3
338.729	9.05
338.942	90.96
339.154	45.91
339.367	37.72
339.579	33.62
339.792	17.24
340.004	82.77
340.217	2.9
340.429	82.77
340.641	-62.63
340.854	68.44
341.066	41.81
341.278	68.44
341.491	129.88
341.703	76.63
341.915	-40.11
342.128	13.14
342.34	76.63
342.552	-13.48
342.764	56.15
342.977	66.39
343.189	43.86
343.401	11.09
343.613	-23.72
343.826	78.68
344.038	13.14
344.25	78.68
344.462	23.38
344.674	88.92
344.886	58.2
345.099	52.05
345.311	82.77
345.523	-23.72
345.735	-11.43
345.947	31.57
346.159	25.43
346.371	27.48
346.583	52.05
346.795	37.72
347.007	37.72
347.219	105.3
347.431	-31.91
347.643	33.62
347.855	4.95
348.067	43.86
348.279	11.09
348.491	17.24
348.703	78.68
348.915	119.64
349.127	41.81
349.339	43.86
349.551	-7.34
349.763	37.72
349.975	17.24
350.187	107.35
350.399	41.81
350.61	33.62
350.822	17.24
351.034	86.87
351.246	-11.43
351.458	52.05
351.669	45.91
351.881	72.53
352.093	50
352.305	119.64
352.517	50
352.728	109.4
352.94	58.2
353.152	27.48
353.363	-3.24
353.575	45.91
353.787	82.77
353.999	50
354.21	119.64
354.422	45.91
354.633	72.53
354.845	33.62
355.057	45.91
355.268	-25.77
355.48	90.96
355.692	-19.63
355.903	37.72
356.115	-1.19
356.326	-62.63
356.538	115.54
356.749	41.81
356.961	33.62
357.172	13.14
357.384	9.05
357.595	170.83
357.807	43.86
358.018	-72.87
358.23	-9.39
358.441	58.2
358.653	164.69
358.864	25.43
359.075	-40.11
359.287	41.81
359.498	66.39
359.709	45.91
359.921	72.53
360.132	60.24
360.344	45.91
360.555	4.95
360.766	66.39
360.977	-9.39
361.189	52.05
361.4	-3.24
361.611	84.82
361.823	9.05
362.034	74.58
362.245	-7.34
362.456	2.9
362.667	66.39
362.879	33.62
363.09	54.1
363.301	84.82
363.512	66.39
363.723	78.68
363.935	35.67
364.146	17.24
364.357	-7.34
364.568	27.48
364.779	41.81
364.99	84.82
365.201	9.05
365.412	2.9
365.623	-40.11
365.834	52.05
366.045	52.05
366.256	25.43
366.467	-76.97
366.678	58.2
366.889	82.77
367.1	64.34
367.311	50
367.522	-17.58
367.733	88.92
367.944	25.43
368.155	45.91
368.366	19.29
368.577	74.58
368.788	68.44
368.999	-21.67
369.209	35.67
369.42	140.12
369.631	105.3
369.842	-13.48
370.053	25.43
370.264	123.73
370.474	37.72
370.685	58.2
370.896	62.29
371.107	21.33
371.317	99.16
371.528	21.33
371.739	99.16
371.95	41.81
372.16	41.81
372.371	-42.15
372.582	37.72
372.792	95.06
373.003	101.2
373.214	-50.35
373.424	13.14
373.635	-48.3
373.846	123.73
374.056	31.57
374.267	82.77
374.477	58.2
374.688	21.33
374.898	56.15
375.109	-5.29
375.319	33.62
375.53	52.05
375.74	58.2
375.951	9.05
376.161	47.96
376.372	99.16
376.582	43.86
376.793	72.53
377.003	17.24
377.214	17.24
377.424	0.85
377.635	76.63
377.845	25.43
378.055	119.64
378.266	-21.67
378.476	62.29
378.686	54.1
378.897	45.91
379.107	109.4
379.317	37.72
379.528	103.25
379.738	90.96
379.948	52.05
380.158	58.2
380.369	25.43
380.579	43.86
380.789	4.95
380.999	66.39
381.21	25.43
381.42	168.79
381.63	-25.77
381.84	66.39
382.05	17.24
382.261	97.11
382.471	66.39
382.681	43.86
382.891	82.77
383.101	109.4
383.311	-21.67
383.521	23.38
383.731	25.43
383.941	66.39
384.151	4.95
384.361	99.16
384.571	123.73
384.781	54.1
384.991	123.73
385.201	82.77
385.411	27.48
385.621	82.77
385.831	35.67
386.041	50
386.251	-46.25
386.461	131.92
386.671	27.48
386.881	60.24
387.091	0.85
387.301	72.53
387.511	74.58
387.72	50
387.93	50
388.14	-33.96
388.35	82.77
388.56	136.02
388.769	84.82
388.979	33.62
389.189	78.68
389.399	50
389.609	107.35
389.818	80.72
390.028	95.06
390.238	64.34
390.447	19.29
390.657	29.52
390.867	7
391.076	13.14
391.286	74.58
391.496	76.63
391.705	29.52
391.915	41.81
392.125	45.91
392.334	45.91
392.544	-13.48
392.753	90.96
392.963	33.62
393.172	39.76
393.382	33.62
393.591	58.2
393.801	43.86
394.01	115.54
394.22	45.91
394.429	33.62
394.639	25.43
394.848	66.39
395.058	7
395.267	66.39
395.477	138.07
395.686	43.86
395.895	191.31
396.105	99.16
396.314	11.09
396.524	76.63
396.733	72.53
396.942	97.11
397.152	90.96
397.361	97.11
397.57	90.96
397.78	90.96
397.989	107.35
398.198	80.72
398.407	35.67
398.617	27.48
398.826	101.2
399.035	68.44
399.244	117.59
399.453	99.16
399.663	232.27
399.872	117.59
400.081	86.87
400.29	52.05
400.499	27.48
400.708	166.74
400.917	131.92
401.127	33.62
401.336	47.96
401.545	78.68
401.754	154.45
401.963	41.81
402.172	121.68
402.381	76.63
402.59	140.12
402.799	164.69
403.008	158.55
403.217	172.88
403.426	138.07
403.635	103.25
403.844	183.12
404.053	213.84
404.262	111.44
404.471	156.5
404.68	156.5
404.888	183.12
405.097	88.92
405.306	222.03
405.515	107.35
405.724	86.87
405.933	170.83
406.142	88.92
406.35	209.75
406.559	158.55
406.768	168.79
406.977	207.7
407.185	150.36
407.394	168.79
407.603	172.88
407.812	181.07
408.02	262.99
408.229	199.51
408.438	181.07
408.646	197.46
408.855	160.59
409.064	322.38
409.272	191.31
409.481	273.23
409.69	291.66
409.898	273.23
410.107	332.62
410.315	344.91
410.524	295.76
410.733	275.28
410.941	283.47
411.15	383.82
411.358	373.58
411.567	385.87
411.775	303.95
411.984	381.78
412.192	459.6
412.401	361.3
412.609	396.11
412.818	475.98
413.026	504.65
413.234	445.26
413.443	406.35
413.651	502.61
413.86	506.7
414.068	508.75
414.276	664.4
414.485	557.9
414.693	672.59
414.901	684.87
415.11	629.58
415.318	674.64
415.526	623.44
415.734	715.59
415.943	748.36
416.151	664.4
416.359	752.46
416.567	717.64
416.776	836.42
416.984	863.05
417.192	838.47
417.4	805.71
417.608	942.92
417.817	883.53
418.025	963.4
418.233	1071.94
418.441	1024.84
418.649	942.92
418.857	1092.42
419.065	1211.2
419.273	1149.76
419.481	1233.73
419.689	1418.05
419.897	1411.9
420.105	1502.01
420.313	1434.43
420.521	1522.49
420.729	1516.35
420.937	1590.08
421.145	1620.8
421.353	1706.81
421.561	1749.82
421.769	1903.42
421.977	1884.98
422.185	1979.19
422.393	1950.52
422.601	2061.11
422.809	2018.1
423.017	2138.93
423.224	2237.24
423.432	2310.96
423.64	2335.54
423.848	2564.91
424.056	2474.8
424.263	2607.92
424.471	2599.73
424.679	2556.72
424.887	2738.99
425.094	2935.59
425.302	2908.97
425.51	3027.75
425.718	3150.63
425.925	3183.4
426.133	3255.08
426.341	3492.64
426.548	3392.29
426.756	3519.26
426.964	3613.47
427.171	3834.65
427.379	3855.13
427.586	3957.53
427.794	4098.84
428.001	4268.82
428.209	4557.58
428.417	4395.79
428.624	4655.89
428.832	4549.39
429.039	4694.8
429.247	4715.28
429.454	5137.16
429.662	5595.9
429.869	5153.54
430.076	5491.46
430.284	5284.61
430.491	5556.99
430.699	5696.25
430.906	5929.72
431.114	6013.69
431.321	5978.87
431.528	6138.62
431.736	6771.44
431.943	7029.48
432.15	6798.06
432.358	6787.82
432.565	7348.97
432.772	7119.59
432.979	7357.16
433.187	7602.91
433.394	7856.86
433.601	8286.93
433.808	8325.85
434.016	8157.91
434.223	8583.89
434.43	9102.03
434.637	8932.05
434.844	9405.13
435.052	9722.56
435.259	9628.35
435.466	9685.7
435.673	9704.13
435.88	10193.59
436.087	10863.28
436.294	10631.86
436.501	10365.62
436.708	10830.51
436.915	11025.07
437.122	11596.45
437.329	11422.38
437.537	11784.87
437.743	12155.55
437.95	11903.65
438.157	12728.98
438.364	12956.3
438.571	12788.37
438.778	12933.78
438.985	14477.94
439.192	13503.11
439.399	14127.74
439.606	13601.41
439.813	14463.61
440.02	15188.59
440.227	14991.98
440.433	14879.35
440.64	15448.68
440.847	15286.89
441.054	16015.97
441.261	16863.83
441.467	16282.2
441.674	16777.81
441.881	17654.34
442.088	17355.34
442.294	17365.58
442.501	17502.79
442.708	17885.76
442.914	18862.65
443.121	19429.93
443.328	18752.06
443.534	20396.57
443.741	19880.49
443.948	19501.61
444.154	20683.29
444.361	20947.48
444.568	20910.61
444.774	20806.17
444.981	21197.33
445.187	21592.59
445.394	22483.45
445.6	22153.73
445.807	24431.07
446.013	23200.24
446.22	23675.37
446.426	24674.78
446.633	25027.03
446.839	25276.88
447.046	24926.68
447.252	26151.37
447.459	25782.73
447.665	25858.51
447.871	27097.53
448.078	28375.46
448.284	26876.35
448.491	27607.47
448.697	28555.68
448.903	29241.75
449.11	29305.24
449.316	28744.09
449.522	29219.22
449.728	30269.83
449.935	30540.16
450.141	30249.35
450.347	31068.54
450.553	29985.16
450.76	30181.77
450.966	31498.61
451.172	31189.37
451.378	31914.35
451.584	31033.72
451.791	31912.3
451.997	32022.89
452.203	32428.39
452.409	32299.37
452.615	32067.95
452.821	30599.55
453.027	30495.11
453.233	32330.09
453.44	30939.52
453.646	31207.8
453.852	31531.38
454.058	32188.78
454.264	30736.77
454.47	31736.18
454.676	31084.92
454.882	31879.53
455.088	28993.95
455.294	29356.44
455.5	30155.15
455.705	30118.28
455.911	28774.81
456.117	28434.85
456.323	28111.27
456.529	26438.08
456.735	27615.66
456.941	27101.62
457.147	26780.09
457.352	25690.57
457.558	25551.31
457.764	25539.02
457.97	25156.05
458.176	24691.16
458.381	24343.01
458.587	23017.97
458.793	23251.44
458.999	21985.8
459.204	23896.55
459.41	23103.99
459.616	21334.54
459.821	21522.96
460.027	21246.48
460.233	20853.27
460.438	19915.3
460.644	20310.56
460.85	19362.35
461.055	18928.18
461.261	18926.13
461.466	17457.74
461.672	16650.84
461.878	18235.97
462.083	16919.12
462.289	16607.83
462.494	16339.55
462.7	15641.19
462.905	15352.43
463.111	15567.46
463.316	15864.42
463.522	15327.85
463.727	15407.72
463.932	15516.26
464.138	15075.95
464.343	15202.93
464.549	14930.55
464.754	15293.04
464.959	15276.65
465.165	15055.47
465.37	14557.82
465.575	14264.96
465.781	14500.47
465.986	14639.73
466.191	14252.67
466.397	13879.94
466.602	13181.58
466.807	13718.15
467.012	13703.81
467.218	13650.57
467.423	13378.19
467.628	13537.93
467.833	14160.51
468.038	13382.28
468.244	13171.34
468.449	13666.95
