Data from USB4F104151__311__14-35-05-770.txt Node

Date: Thu Mar 13 14:35:05 EDT 2025
User: louis
Spectrometer: USB4F10415
Trigger mode: 4
Integration Time (sec): 2.500000E-2
Scans to average: 1
Electric dark correction enabled: true
Nonlinearity correction enabled: false
Boxcar width: 0
XAxis mode: Wavelengths
Number of Pixels in Spectrum: 3648
>>>>>Begin Spectral Data<<<<<
178.204	-183.46
178.424	-183.46
178.644	-183.46
178.864	-169.13
179.084	-175.27
179.304	64.34
179.524	-117.93
179.744	-36.01
179.964	39.76
180.184	-17.58
180.404	29.52
180.624	-25.77
180.844	33.62
181.064	-23.72
181.283	50
181.503	-9.39
181.723	13.14
181.943	-11.43
182.163	15.19
182.383	-85.16
182.602	13.14
182.822	21.33
183.042	37.72
183.262	9.05
183.482	-3.24
183.701	-11.43
183.921	66.39
184.141	0.85
184.361	78.68
184.58	21.33
184.8	52.05
185.02	-5.29
185.239	86.87
185.459	0.85
185.679	70.48
185.898	-36.01
186.118	78.68
186.338	-23.72
186.557	23.38
186.777	-21.67
186.997	62.29
187.216	25.43
187.436	127.83
187.655	31.57
187.875	37.72
188.095	99.16
188.314	23.38
188.534	86.87
188.753	15.19
188.973	47.96
189.192	45.91
189.412	7
189.631	146.26
189.851	78.68
190.07	103.25
190.29	11.09
190.509	115.54
190.729	-56.49
190.948	103.25
191.168	148.31
191.387	119.64
191.607	29.52
191.826	54.1
192.045	33.62
192.265	64.34
192.484	0.85
192.704	31.57
192.923	-66.73
193.142	111.44
193.362	29.52
193.581	-7.34
193.8	72.53
194.02	23.38
194.239	39.76
194.458	37.72
194.678	-17.58
194.897	17.24
195.116	88.92
195.335	27.48
195.555	54.1
195.774	13.14
195.993	21.33
196.212	45.91
196.432	-23.72
196.651	33.62
196.87	-1.19
197.089	15.19
197.308	17.24
197.528	60.24
197.747	4.95
197.966	-11.43
198.185	115.54
198.404	-23.72
198.623	13.14
198.842	144.21
199.062	54.1
199.281	43.86
199.5	90.96
199.719	39.76
199.938	66.39
200.157	0.85
200.376	37.72
200.595	152.4
200.814	41.81
201.033	-7.34
201.252	103.25
201.471	37.72
201.69	-27.82
201.909	70.48
202.128	-5.29
202.347	39.76
202.566	56.15
202.785	-15.53
203.004	29.52
203.223	86.87
203.442	90.96
203.661	62.29
203.879	115.54
204.098	95.06
204.317	17.24
204.536	62.29
204.755	62.29
204.974	29.52
205.193	62.29
205.411	70.48
205.63	107.35
205.849	31.57
206.068	66.39
206.287	29.52
206.505	45.91
206.724	29.52
206.943	115.54
207.162	45.91
207.381	41.81
207.599	-36.01
207.818	-5.29
208.037	7
208.255	0.85
208.474	78.68
208.693	33.62
208.911	7
209.13	-19.63
209.349	9.05
209.567	9.05
209.786	103.25
210.005	37.72
210.223	-33.96
210.442	17.24
210.661	19.29
210.879	86.87
211.098	70.48
211.316	78.68
211.535	121.68
211.753	107.35
211.972	93.01
212.191	23.38
212.409	66.39
212.628	72.53
212.846	-7.34
213.065	45.91
213.283	76.63
213.502	4.95
213.72	105.3
213.938	-9.39
214.157	45.91
214.375	31.57
214.594	68.44
214.812	95.06
215.031	47.96
215.249	127.83
215.467	62.29
215.686	43.86
215.904	43.86
216.122	72.53
216.341	39.76
216.559	29.52
216.778	105.3
216.996	62.29
217.214	31.57
217.432	9.05
217.651	31.57
217.869	37.72
218.087	64.34
218.306	13.14
218.524	70.48
218.742	52.05
218.96	2.9
219.179	2.9
219.397	37.72
219.615	119.64
219.833	111.44
220.051	78.68
220.27	21.33
220.488	-11.43
220.706	-7.34
220.924	70.48
221.142	29.52
221.36	50
221.578	88.92
221.796	-1.19
222.015	47.96
222.233	62.29
222.451	103.25
222.669	37.72
222.887	37.72
223.105	31.57
223.323	70.48
223.541	15.19
223.759	50
223.977	2.9
224.195	56.15
224.413	107.35
224.631	29.52
224.849	29.52
225.067	58.2
225.285	19.29
225.503	74.58
225.721	-56.49
225.939	43.86
226.157	58.2
226.375	121.68
226.592	17.24
226.81	39.76
227.028	64.34
227.246	50
227.464	13.14
227.682	125.78
227.9	-27.82
228.117	119.64
228.335	27.48
228.553	72.53
228.771	29.52
228.989	15.19
229.206	-36.01
229.424	17.24
229.642	9.05
229.86	-81.07
230.077	86.87
230.295	25.43
230.513	60.24
230.731	113.49
230.948	95.06
231.166	86.87
231.384	86.87
231.601	58.2
231.819	43.86
232.037	-44.2
232.254	-21.67
232.472	97.11
232.689	54.1
232.907	45.91
233.125	62.29
233.342	-19.63
233.56	-40.11
233.777	27.48
233.995	58.2
234.213	29.52
234.43	29.52
234.648	66.39
234.865	66.39
235.083	95.06
235.3	17.24
235.518	54.1
235.735	-17.58
235.953	82.77
236.17	2.9
236.388	47.96
236.605	-27.82
236.822	86.87
237.04	45.91
237.257	-7.34
237.475	-5.29
237.692	56.15
237.909	54.1
238.127	47.96
238.344	54.1
238.562	45.91
238.779	54.1
238.996	7
239.214	64.34
239.431	47.96
239.648	-19.63
239.865	35.67
240.083	43.86
240.3	82.77
240.517	93.01
240.735	80.72
240.952	13.14
241.169	82.77
241.386	15.19
241.603	64.34
241.821	7
242.038	115.54
242.255	84.82
242.472	54.1
242.689	62.29
242.907	56.15
243.124	33.62
243.341	113.49
243.558	58.2
243.775	4.95
243.992	-40.11
244.209	58.2
244.426	111.44
244.643	70.48
244.86	50
245.078	47.96
245.295	78.68
245.512	19.29
245.729	50
245.946	-3.24
246.163	50
246.38	-36.01
246.597	-19.63
246.814	-27.82
247.031	37.72
247.248	93.01
247.464	121.68
247.681	41.81
247.898	4.95
248.115	41.81
248.332	105.3
248.549	97.11
248.766	117.59
248.983	121.68
249.2	29.52
249.417	39.76
249.633	4.95
249.85	37.72
250.067	-3.24
250.284	37.72
250.501	29.52
250.717	84.82
250.934	0.85
251.151	47.96
251.368	29.52
251.585	47.96
251.801	99.16
252.018	-17.58
252.235	103.25
252.451	29.52
252.668	-56.49
252.885	72.53
253.102	60.24
253.318	74.58
253.535	23.38
253.752	21.33
253.968	-11.43
254.185	-3.24
254.401	13.14
254.618	39.76
254.835	45.91
255.051	90.96
255.268	4.95
255.484	33.62
255.701	29.52
255.917	31.57
256.134	29.52
256.351	52.05
256.567	15.19
256.784	45.91
257	-17.58
257.217	86.87
257.433	88.92
257.65	43.86
257.866	56.15
258.082	-56.49
258.299	62.29
258.515	19.29
258.732	47.96
258.948	-9.39
259.165	58.2
259.381	58.2
259.597	-15.53
259.814	23.38
260.03	-11.43
260.246	15.19
260.463	45.91
260.679	13.14
260.895	23.38
261.112	39.76
261.328	-1.19
261.544	11.09
261.761	21.33
261.977	60.24
262.193	4.95
262.409	88.92
262.626	45.91
262.842	62.29
263.058	-23.72
263.274	70.48
263.49	93.01
263.707	86.87
263.923	23.38
264.139	19.29
264.355	19.29
264.571	111.44
264.787	25.43
265.004	39.76
265.22	17.24
265.436	39.76
265.652	15.19
265.868	140.12
266.084	21.33
266.3	86.87
266.516	-19.63
266.732	138.07
266.948	23.38
267.164	56.15
267.38	70.48
267.596	21.33
267.812	80.72
268.028	86.87
268.244	58.2
268.46	39.76
268.676	37.72
268.892	54.1
269.108	-70.83
269.324	-58.54
269.54	-31.91
269.756	78.68
269.972	-52.39
270.188	-3.24
270.403	39.76
270.619	19.29
270.835	13.14
271.051	29.52
271.267	37.72
271.483	23.38
271.698	97.11
271.914	37.72
272.13	56.15
272.346	78.68
272.562	56.15
272.777	105.3
272.993	37.72
273.209	23.38
273.425	21.33
273.64	2.9
273.856	39.76
274.072	21.33
274.287	62.29
274.503	95.06
274.719	66.39
274.934	43.86
275.15	-9.39
275.366	0.85
275.581	41.81
275.797	60.24
276.012	78.68
276.228	70.48
276.444	78.68
276.659	41.81
276.875	62.29
277.09	21.33
277.306	27.48
277.521	29.52
277.737	56.15
277.952	64.34
278.168	-5.29
278.383	23.38
278.599	13.14
278.814	72.53
279.03	17.24
279.245	97.11
279.461	13.14
279.676	70.48
279.892	-1.19
280.107	41.81
280.322	-42.15
280.538	86.87
280.753	9.05
280.969	19.29
281.184	-31.91
281.399	7
281.615	37.72
281.83	62.29
282.045	-1.19
282.26	29.52
282.476	-3.24
282.691	47.96
282.906	9.05
283.122	103.25
283.337	-103.59
283.552	78.68
283.767	4.95
283.983	56.15
284.198	7
284.413	13.14
284.628	-36.01
284.843	70.48
285.058	115.54
285.274	29.52
285.489	56.15
285.704	25.43
285.919	29.52
286.134	47.96
286.349	45.91
286.564	-87.21
286.779	82.77
286.995	-15.53
287.21	-74.92
287.425	56.15
287.64	-11.43
287.855	103.25
288.07	-52.39
288.285	58.2
288.5	41.81
288.715	37.72
288.93	37.72
289.145	39.76
289.36	2.9
289.575	37.72
289.79	-11.43
290.004	125.78
290.219	103.25
290.434	-33.96
290.649	23.38
290.864	62.29
291.079	0.85
291.294	47.96
291.509	29.52
291.724	41.81
291.938	15.19
292.153	33.62
292.368	25.43
292.583	33.62
292.798	37.72
293.012	78.68
293.227	25.43
293.442	58.2
293.657	103.25
293.871	95.06
294.086	76.63
294.301	97.11
294.516	47.96
294.73	136.02
294.945	90.96
295.16	37.72
295.374	27.48
295.589	70.48
295.804	97.11
296.018	136.02
296.233	93.01
296.447	25.43
296.662	31.57
296.877	115.54
297.091	62.29
297.306	99.16
297.52	4.95
297.735	15.19
297.949	39.76
298.164	86.87
298.378	15.19
298.593	-19.63
298.807	86.87
299.022	37.72
299.236	9.05
299.451	31.57
299.665	47.96
299.88	31.57
300.094	31.57
300.309	7
300.523	133.97
300.737	29.52
300.952	37.72
301.166	70.48
301.381	25.43
301.595	45.91
301.809	62.29
302.024	80.72
302.238	-19.63
302.452	97.11
302.667	29.52
302.881	64.34
303.095	72.53
303.309	45.91
303.524	-33.96
303.738	45.91
303.952	41.81
304.166	35.67
304.381	7
304.595	31.57
304.809	0.85
305.023	88.92
305.237	21.33
305.452	54.1
305.666	70.48
305.88	95.06
306.094	33.62
306.308	50
306.522	35.67
306.736	86.87
306.95	109.4
307.164	60.24
307.379	29.52
307.593	80.72
307.807	86.87
308.021	21.33
308.235	15.19
308.449	-1.19
308.663	47.96
308.877	86.87
309.091	-36.01
309.305	4.95
309.519	-17.58
309.733	62.29
309.947	-48.3
310.161	54.1
310.374	86.87
310.588	70.48
310.802	31.57
311.016	43.86
311.23	109.4
311.444	-17.58
311.658	86.87
311.872	56.15
312.085	72.53
312.299	113.49
312.513	121.68
312.727	70.48
312.941	-7.34
313.154	80.72
313.368	107.35
313.582	82.77
313.796	21.33
314.009	-13.48
314.223	80.72
314.437	123.73
314.651	111.44
314.864	29.52
315.078	-25.77
315.292	19.29
315.505	-9.39
315.719	25.43
315.933	-21.67
316.146	4.95
316.36	37.72
316.573	99.16
316.787	39.76
317.001	23.38
317.214	2.9
317.428	103.25
317.641	-23.72
317.855	39.76
318.068	-29.87
318.282	45.91
318.495	107.35
318.709	129.88
318.922	17.24
319.136	86.87
319.349	74.58
319.563	13.14
319.776	105.3
319.99	-1.19
320.203	82.77
320.417	21.33
320.63	47.96
320.843	74.58
321.057	-7.34
321.27	25.43
321.483	146.26
321.697	29.52
321.91	-19.63
322.124	80.72
322.337	13.14
322.55	0.85
322.763	37.72
322.977	47.96
323.19	4.95
323.403	-1.19
323.617	62.29
323.83	144.21
324.043	31.57
324.256	29.52
324.469	-5.29
324.683	90.96
324.896	88.92
325.109	62.29
325.322	-3.24
325.535	45.91
325.748	78.68
325.962	50
326.175	103.25
326.388	62.29
326.601	136.02
326.814	29.52
327.027	72.53
327.24	140.12
327.453	-5.29
327.666	31.57
327.879	93.01
328.092	70.48
328.305	-11.43
328.518	4.95
328.731	45.91
328.944	23.38
329.157	0.85
329.37	74.58
329.583	154.45
329.796	25.43
330.009	-25.77
330.222	23.38
330.435	119.64
330.648	-27.82
330.861	13.14
331.073	25.43
331.286	37.72
331.499	-3.24
331.712	17.24
331.925	93.01
332.138	54.1
332.35	62.29
332.563	50
332.776	117.59
332.989	-3.24
333.202	39.76
333.414	4.95
333.627	66.39
333.84	60.24
334.053	86.87
334.265	7
334.478	43.86
334.691	-9.39
334.903	121.68
335.116	19.29
335.329	23.38
335.541	107.35
335.754	39.76
335.966	-5.29
336.179	52.05
336.392	45.91
336.604	54.1
336.817	23.38
337.029	70.48
337.242	56.15
337.454	103.25
337.667	7
337.88	64.34
338.092	31.57
338.305	43.86
338.517	47.96
338.729	70.48
338.942	70.48
339.154	31.57
339.367	-1.19
339.579	23.38
339.792	-48.3
340.004	90.96
340.217	-3.24
340.429	127.83
340.641	66.39
340.854	27.48
341.066	82.77
341.278	86.87
341.491	136.02
341.703	4.95
341.915	29.52
342.128	-15.53
342.34	86.87
342.552	7
342.764	58.2
342.977	-17.58
343.189	64.34
343.401	66.39
343.613	9.05
343.826	31.57
344.038	37.72
344.25	70.48
344.462	31.57
344.674	103.25
344.886	37.72
345.099	78.68
345.311	37.72
345.523	-27.82
345.735	4.95
345.947	78.68
346.159	-7.34
346.371	29.52
346.583	50
346.795	119.64
347.007	68.44
347.219	103.25
347.431	47.96
347.643	103.25
347.855	56.15
348.067	148.31
348.279	4.95
348.491	52.05
348.703	82.77
348.915	60.24
349.127	62.29
349.339	129.88
349.551	60.24
349.763	103.25
349.975	66.39
350.187	72.53
350.399	78.68
350.61	39.76
350.822	-1.19
351.034	62.29
351.246	70.48
351.458	41.81
351.669	9.05
351.881	101.2
352.093	56.15
352.305	111.44
352.517	31.57
352.728	121.68
352.94	111.44
353.152	111.44
353.363	39.76
353.575	68.44
353.787	88.92
353.999	39.76
354.21	78.68
354.422	84.82
354.633	41.81
354.845	54.1
355.057	90.96
355.268	31.57
355.48	72.53
355.692	66.39
355.903	95.06
356.115	23.38
356.326	-9.39
356.538	121.68
356.749	78.68
356.961	66.39
357.172	-19.63
357.384	-3.24
357.595	111.44
357.807	25.43
358.018	74.58
358.23	62.29
358.441	78.68
358.653	88.92
358.864	23.38
359.075	117.59
359.287	107.35
359.498	99.16
359.709	74.58
359.921	72.53
360.132	93.01
360.344	47.96
360.555	-9.39
360.766	123.73
360.977	-27.82
361.189	105.3
361.4	4.95
361.611	70.48
361.823	95.06
362.034	62.29
362.245	27.48
362.456	15.19
362.667	103.25
362.879	-23.72
363.09	70.48
363.301	111.44
363.512	54.1
363.723	33.62
363.935	78.68
364.146	109.4
364.357	68.44
364.568	64.34
364.779	-19.63
364.99	86.87
365.201	52.05
365.412	144.21
365.623	25.43
365.834	45.91
366.045	76.63
366.256	19.29
366.467	35.67
366.678	37.72
366.889	80.72
367.1	31.57
367.311	160.59
367.522	-19.63
367.733	95.06
367.944	86.87
368.155	99.16
368.366	86.87
368.577	88.92
368.788	95.06
368.999	9.05
369.209	115.54
369.42	140.12
369.631	119.64
369.842	90.96
370.053	80.72
370.264	113.49
370.474	58.2
370.685	45.91
370.896	99.16
371.107	107.35
371.317	95.06
371.528	56.15
371.739	80.72
371.95	80.72
372.16	86.87
372.371	-17.58
372.582	47.96
372.792	45.91
373.003	21.33
373.214	4.95
373.424	78.68
373.635	4.95
373.846	78.68
374.056	64.34
374.267	70.48
374.477	-15.53
374.688	15.19
374.898	52.05
375.109	111.44
375.319	86.87
375.53	146.26
375.74	70.48
375.951	-3.24
376.161	78.68
376.372	78.68
376.582	4.95
376.793	45.91
377.003	105.3
377.214	56.15
377.424	45.91
377.635	21.33
377.845	-27.82
378.055	103.25
378.266	-81.07
378.476	95.06
378.686	66.39
378.897	119.64
379.107	148.31
379.317	-11.43
379.528	58.2
379.738	103.25
379.948	-11.43
380.158	95.06
380.369	-19.63
380.579	88.92
380.789	62.29
380.999	133.97
381.21	86.87
381.42	119.64
381.63	90.96
381.84	58.2
382.05	37.72
382.261	15.19
382.471	72.53
382.681	111.44
382.891	99.16
383.101	82.77
383.311	37.72
383.521	54.1
383.731	125.78
383.941	129.88
384.151	58.2
384.361	62.29
384.571	164.69
384.781	86.87
384.991	119.64
385.201	209.75
385.411	62.29
385.621	54.1
385.831	13.14
386.041	64.34
386.251	105.3
386.461	111.44
386.671	86.87
386.881	80.72
387.091	21.33
387.301	45.91
387.511	56.15
387.72	27.48
387.93	133.97
388.14	78.68
388.35	54.1
388.56	99.16
388.769	74.58
388.979	43.86
389.189	25.43
389.399	41.81
389.609	72.53
389.818	152.4
390.028	103.25
390.238	37.72
390.447	86.87
390.657	17.24
390.867	19.29
391.076	64.34
391.286	142.16
391.496	111.44
391.705	119.64
391.915	148.31
392.125	103.25
392.334	64.34
392.544	109.4
392.753	45.91
392.963	-11.43
393.172	101.2
393.382	37.72
393.591	97.11
393.801	86.87
394.01	111.44
394.22	21.33
394.429	41.81
394.639	111.44
394.848	95.06
395.058	86.87
395.267	107.35
395.477	119.64
395.686	97.11
395.895	181.07
396.105	168.79
396.314	123.73
396.524	54.1
396.733	29.52
396.942	152.4
397.152	31.57
397.361	121.68
397.57	179.03
397.78	176.98
397.989	176.98
398.198	138.07
398.407	62.29
398.617	76.63
398.826	150.36
399.035	140.12
399.244	168.79
399.453	113.49
399.663	144.21
399.872	136.02
400.081	185.17
400.29	201.55
400.499	90.96
400.708	162.64
400.917	152.4
401.127	121.68
401.336	152.4
401.545	207.7
401.754	172.88
401.963	185.17
402.172	148.31
402.381	156.5
402.59	158.55
402.799	252.75
403.008	248.66
403.217	189.27
403.426	193.36
403.635	99.16
403.844	201.55
404.053	168.79
404.262	144.21
404.471	242.51
404.68	187.22
404.888	136.02
405.097	133.97
405.306	242.51
405.515	162.64
405.724	271.19
405.933	217.94
406.142	250.71
406.35	236.37
406.559	250.71
406.768	205.65
406.977	291.66
407.185	281.43
407.394	299.86
407.603	195.41
407.812	258.9
408.02	250.71
408.229	275.28
408.438	357.2
408.646	254.8
408.855	322.38
409.064	414.54
409.272	332.62
409.481	439.12
409.69	351.06
409.898	375.63
410.107	437.07
410.315	432.97
410.524	375.63
410.733	392.02
410.941	447.31
411.15	471.89
411.358	414.54
411.567	541.52
411.775	463.69
411.984	654.16
412.192	602.96
412.401	500.56
412.609	660.3
412.818	648.01
413.026	621.39
413.234	746.31
413.443	686.92
413.651	697.16
413.86	680.78
414.068	799.56
414.276	856.9
414.485	809.8
414.693	906.06
414.901	897.86
415.11	885.58
415.318	881.48
415.526	916.3
415.734	1028.93
415.943	981.83
416.151	1033.03
416.359	1030.98
416.567	1020.74
416.776	1131.33
416.984	1166.15
417.192	1207.11
417.4	1157.96
417.608	1301.31
417.817	1391.42
418.025	1362.75
418.233	1397.57
418.441	1454.91
418.649	1465.15
418.857	1524.54
419.065	1626.94
419.273	1622.84
419.481	1717.05
419.689	1936.18
419.897	1880.89
420.105	1835.83
420.313	1977.14
420.521	1997.62
420.729	2116.41
420.937	2224.95
421.145	2276.15
421.353	2333.49
421.561	2536.24
421.769	2497.33
421.977	2552.62
422.185	2501.42
422.393	2743.08
422.601	2927.4
422.809	2935.59
423.017	2931.5
423.224	2945.83
423.432	3224.36
423.64	3023.66
423.848	3554.08
424.056	3273.51
424.263	3568.41
424.471	3670.81
424.679	3539.74
424.887	3924.76
425.094	4043.54
425.302	3963.67
425.51	4174.61
425.718	4258.58
425.925	4387.6
426.133	4406.03
426.341	4768.52
426.548	4975.37
426.756	4985.61
426.964	5143.3
427.171	5360.39
427.379	5475.07
427.586	5548.8
427.794	5618.43
428.001	5815.04
428.209	6265.59
428.417	5985.02
428.624	6685.42
428.832	6468.34
429.039	6599.41
429.247	6654.7
429.454	6963.95
429.662	7656.16
429.869	7074.54
430.076	7799.52
430.284	7486.18
430.491	7623.39
430.699	8237.78
430.906	8319.7
431.114	8155.86
431.321	8635.09
431.528	8766.16
431.736	9331.4
431.943	9581.25
432.15	9437.89
432.358	9431.75
432.565	10189.5
432.772	10138.3
432.979	10476.21
433.187	10652.34
433.394	10760.88
433.601	11414.18
433.808	11322.02
434.016	11446.95
434.223	11727.52
434.43	12434.07
434.637	12276.38
434.844	13111.95
435.052	13114
435.259	13300.36
435.466	13513.35
435.673	13310.6
435.88	13927.04
436.087	14842.48
436.294	14836.34
436.501	14711.41
436.708	14848.63
436.915	15252.08
437.122	15911.52
437.329	16036.45
437.537	16085.6
437.743	16591.45
437.95	16312.92
438.157	17300.05
438.364	17721.93
438.571	17738.31
438.778	17842.76
438.985	19677.74
439.192	18786.87
439.399	19188.27
439.606	19180.08
439.813	20111.91
440.02	21158.42
440.227	21107.22
440.433	20546.08
440.64	21287.44
440.847	21279.25
441.054	21686.79
441.261	23570.93
441.467	22850.04
441.674	23187.96
441.881	24322.53
442.088	24158.69
442.294	24101.35
442.501	24474.08
442.708	24850.91
442.914	26124.74
443.121	26872.25
443.328	26276.29
443.534	28146.09
443.741	27048.38
443.948	26896.83
444.154	29057.43
444.361	28617.12
444.568	29260.18
444.774	28783.01
444.981	29188.5
445.187	29847.95
445.394	31330.68
445.6	30884.22
445.807	34228.56
446.013	32463.21
446.22	33091.93
446.426	34380.1
446.633	34842.95
446.839	35842.35
447.046	34087.25
447.252	36022.58
447.459	36327.72
447.665	36051.25
447.871	37642.52
448.078	39295.23
448.284	37208.35
448.491	38461.71
448.697	39475.45
448.903	40499.44
449.11	40417.52
449.316	39831.8
449.522	40540.39
449.728	41423.07
449.935	42363.09
450.141	42213.59
450.347	42909.89
450.553	41687.26
450.76	42272.98
450.966	43550.91
451.172	43264.19
451.378	44169.4
451.584	43268.29
451.791	44454.06
451.997	44384.43
452.203	45082.79
452.409	45195.43
452.615	44642.48
452.821	43032.77
453.027	42813.64
453.233	44431.54
453.44	43002.05
453.646	43471.04
453.852	43671.74
454.058	44714.16
454.264	43442.37
454.47	43903.16
454.676	42784.97
454.882	44263.6
455.088	40618.22
455.294	41171.17
455.5	41754.84
455.705	41920.73
455.911	40716.52
456.117	39891.19
456.323	39461.12
456.529	37095.71
456.735	38975.75
456.941	37538.07
457.147	36946.21
457.352	35860.79
457.558	35365.18
457.764	35658.04
457.97	35176.76
458.176	34103.63
458.381	34513.22
458.587	32432.49
458.793	32502.12
458.999	30910.85
459.204	33302.87
459.41	32522.6
459.616	29940.11
459.821	30122.38
460.027	29991.31
460.233	29100.44
460.438	27775.41
460.644	28369.32
460.85	26819
461.055	26575.3
461.261	26499.52
461.466	24426.98
461.672	23601.65
461.878	25190.87
462.083	23501.29
462.289	23034.36
462.494	23130.61
462.7	22401.54
462.905	21725.71
463.111	22133.25
463.316	22118.92
463.522	21723.66
463.727	21615.12
463.932	21529.1
464.138	21426.7
464.343	21492.24
464.549	20896.28
464.754	21668.36
464.959	21447.18
465.165	21146.13
465.37	20122.15
465.575	19976.74
465.781	20423.2
465.986	20740.63
466.191	19796.52
466.397	19345.97
466.602	18516.54
466.807	19198.51
467.012	19163.7
