Data from USB4F104151__232__14-34-02-438.txt Node

Date: Thu Mar 13 14:34:02 EDT 2025
User: louis
Spectrometer: USB4F10415
Trigger mode: 4
Integration Time (sec): 2.500000E-2
Scans to average: 1
Electric dark correction enabled: true
Nonlinearity correction enabled: false
Boxcar width: 0
XAxis mode: Wavelengths
Number of Pixels in Spectrum: 3648
>>>>>Begin Spectral Data<<<<<
178.204	-38.91
178.424	-38.91
178.644	-38.91
178.864	-155.65
179.084	-161.79
179.304	8.19
179.524	-22.53
179.744	-36.86
179.964	51.2
180.184	-53.25
180.404	55.3
180.624	10.24
180.844	67.58
181.064	-43.01
181.283	12.29
181.503	-71.68
181.723	22.53
181.943	20.48
182.163	77.82
182.383	47.1
182.602	83.97
182.822	108.54
183.042	-10.24
183.262	24.58
183.482	67.58
183.701	22.53
183.921	-18.43
184.141	-18.43
184.361	96.25
184.58	92.16
184.8	59.39
185.02	38.91
185.239	49.15
185.459	112.64
185.679	53.25
185.898	-16.38
186.118	63.49
186.338	-22.53
186.557	57.34
186.777	-22.53
186.997	12.29
187.216	8.19
187.436	55.3
187.655	51.2
187.875	-2.05
188.095	28.67
188.314	6.14
188.534	149.5
188.753	10.24
188.973	12.29
189.192	83.97
189.412	34.82
189.631	59.39
189.851	53.25
190.07	-2.05
190.29	14.34
190.509	69.63
190.729	26.62
190.948	-45.06
191.168	149.5
191.387	71.68
191.607	71.68
191.826	-30.72
192.045	2.05
192.265	-4.1
192.484	2.05
192.704	92.16
192.923	75.77
193.142	38.91
193.362	75.77
193.581	47.1
193.8	30.72
194.02	43.01
194.239	-6.14
194.458	59.39
194.678	81.92
194.897	51.2
195.116	-22.53
195.335	43.01
195.555	65.54
195.774	16.38
195.993	28.67
196.212	43.01
196.432	24.58
196.651	61.44
196.87	75.77
197.089	75.77
197.308	38.91
197.528	4.1
197.747	-20.48
197.966	-47.1
198.185	122.88
198.404	-22.53
198.623	75.77
198.842	2.05
199.062	2.05
199.281	96.25
199.5	43.01
199.719	83.97
199.938	75.77
200.157	102.4
200.376	38.91
200.595	51.2
200.814	67.58
201.033	71.68
201.252	47.1
201.471	22.53
201.69	100.35
201.909	-22.53
202.128	110.59
202.347	55.3
202.566	51.2
202.785	2.05
203.004	-6.14
203.223	118.78
203.442	53.25
203.661	-63.49
203.879	63.49
204.098	30.72
204.317	10.24
204.536	61.44
204.755	51.2
204.974	75.77
205.193	30.72
205.411	67.58
205.63	71.68
205.849	40.96
206.068	22.53
206.287	53.25
206.505	36.86
206.724	-36.86
206.943	43.01
207.162	28.67
207.381	43.01
207.599	-20.48
207.818	-18.43
208.037	-24.58
208.255	69.63
208.474	14.34
208.693	67.58
208.911	26.62
209.13	-18.43
209.349	55.3
209.567	45.06
209.786	65.54
210.005	100.35
210.223	71.68
210.442	-4.1
210.661	26.62
210.879	28.67
211.098	38.91
211.316	61.44
211.535	86.01
211.753	100.35
211.972	51.2
212.191	61.44
212.409	43.01
212.628	65.54
212.846	16.38
213.065	110.59
213.283	14.34
213.502	16.38
213.72	-6.14
213.938	49.15
214.157	69.63
214.375	26.62
214.594	-47.1
214.812	40.96
215.031	20.48
215.249	-4.1
215.467	88.06
215.686	2.05
215.904	71.68
216.122	-6.14
216.341	90.11
216.559	8.19
216.778	118.78
216.996	-24.58
217.214	34.82
217.432	-22.53
217.651	22.53
217.869	10.24
218.087	-18.43
218.306	-6.14
218.524	43.01
218.742	6.14
218.96	75.77
219.179	112.64
219.397	16.38
219.615	141.31
219.833	129.02
220.051	12.29
220.27	92.16
220.488	-6.14
220.706	75.77
220.924	26.62
221.142	59.39
221.36	-6.14
221.578	26.62
221.796	43.01
222.015	18.43
222.233	49.15
222.451	55.3
222.669	28.67
222.887	34.82
223.105	-6.14
223.323	59.39
223.541	6.14
223.759	69.63
223.977	69.63
224.195	124.93
224.413	36.86
224.631	75.77
224.849	34.82
225.067	112.64
225.285	6.14
225.503	71.68
225.721	-92.16
225.939	36.86
226.157	102.4
226.375	133.12
226.592	22.53
226.81	-18.43
227.028	174.08
227.246	114.69
227.464	45.06
227.682	110.59
227.9	36.86
228.117	53.25
228.335	69.63
228.553	69.63
228.771	67.58
228.989	51.2
229.206	20.48
229.424	22.53
229.642	28.67
229.86	-14.34
230.077	141.31
230.295	26.62
230.513	53.25
230.731	28.67
230.948	71.68
231.166	104.45
231.384	-4.1
231.601	94.21
231.819	83.97
232.037	51.2
232.254	-26.62
232.472	-8.19
232.689	88.06
232.907	83.97
233.125	83.97
233.342	65.54
233.56	-14.34
233.777	45.06
233.995	20.48
234.213	49.15
234.43	51.2
234.648	43.01
234.865	-59.39
235.083	-22.53
235.3	28.67
235.518	92.16
235.735	24.58
235.953	59.39
236.17	28.67
236.388	10.24
236.605	51.2
236.822	45.06
237.04	86.01
237.257	75.77
237.475	24.58
237.692	34.82
237.909	49.15
238.127	51.2
238.344	86.01
238.562	18.43
238.779	-47.1
238.996	-14.34
239.214	-14.34
239.431	92.16
239.648	43.01
239.865	86.01
240.083	14.34
240.3	51.2
240.517	43.01
240.735	26.62
240.952	124.93
241.169	75.77
241.386	98.3
241.603	20.48
241.821	-12.29
242.038	38.91
242.255	43.01
242.472	-10.24
242.689	51.2
242.907	-8.19
243.124	55.3
243.341	-6.14
243.558	6.14
243.775	-30.72
243.992	-28.67
244.209	-6.14
244.426	18.43
244.643	133.12
244.86	-49.15
245.078	100.35
245.295	92.16
245.512	6.14
245.729	-24.58
245.946	75.77
246.163	47.1
246.38	67.58
246.597	0
246.814	102.4
247.031	61.44
247.248	88.06
247.464	116.73
247.681	108.54
247.898	43.01
248.115	116.73
248.332	20.48
248.549	129.02
248.766	61.44
248.983	61.44
249.2	-12.29
249.417	159.74
249.633	49.15
249.85	26.62
250.067	-6.14
250.284	-36.86
250.501	73.73
250.717	92.16
250.934	-6.14
251.151	86.01
251.368	38.91
251.585	2.05
251.801	69.63
252.018	2.05
252.235	137.21
252.451	10.24
252.668	14.34
252.885	135.17
253.102	79.87
253.318	96.25
253.535	6.14
253.752	75.77
253.968	4.1
254.185	-4.1
254.401	57.34
254.618	77.82
254.835	6.14
255.051	149.5
255.268	18.43
255.484	67.58
255.701	26.62
255.917	100.35
256.134	-14.34
256.351	36.86
256.567	-55.3
256.784	12.29
257	18.43
257.217	67.58
257.433	131.07
257.65	36.86
257.866	106.49
258.082	-2.05
258.299	34.82
258.515	28.67
258.732	6.14
258.948	38.91
259.165	45.06
259.381	12.29
259.597	32.77
259.814	2.05
260.03	10.24
260.246	-18.43
260.463	77.82
260.679	30.72
260.895	-12.29
261.112	73.73
261.328	2.05
261.544	-2.05
261.761	61.44
261.977	6.14
262.193	6.14
262.409	12.29
262.626	53.25
262.842	26.62
263.058	-12.29
263.274	53.25
263.49	57.34
263.707	67.58
263.923	40.96
264.139	-2.05
264.355	59.39
264.571	81.92
264.787	96.25
265.004	108.54
265.22	28.67
265.436	4.1
265.652	55.3
265.868	34.82
266.084	59.39
266.3	4.1
266.516	-14.34
266.732	69.63
266.948	-24.58
267.164	26.62
267.38	118.78
267.596	59.39
267.812	67.58
268.028	51.2
268.244	18.43
268.46	67.58
268.676	-28.67
268.892	18.43
269.108	81.92
269.324	14.34
269.54	79.87
269.756	96.25
269.972	59.39
270.188	135.17
270.403	59.39
270.619	59.39
270.835	43.01
271.051	14.34
271.267	51.2
271.483	53.25
271.698	96.25
271.914	51.2
272.13	75.77
272.346	83.97
272.562	-6.14
272.777	59.39
272.993	49.15
273.209	-34.82
273.425	94.21
273.64	8.19
273.856	53.25
274.072	-18.43
274.287	-22.53
274.503	92.16
274.719	10.24
274.934	51.2
275.15	-4.1
275.366	34.82
275.581	-14.34
275.797	51.2
276.012	102.4
276.228	22.53
276.444	26.62
276.659	55.3
276.875	-20.48
277.09	-22.53
277.306	-8.19
277.521	4.1
277.737	10.24
277.952	98.3
278.168	47.1
278.383	36.86
278.599	10.24
278.814	75.77
279.03	59.39
279.245	86.01
279.461	108.54
279.676	53.25
279.892	47.1
280.107	77.82
280.322	12.29
280.538	110.59
280.753	10.24
280.969	124.93
281.184	18.43
281.399	86.01
281.615	36.86
281.83	96.25
282.045	2.05
282.26	26.62
282.476	71.68
282.691	43.01
282.906	4.1
283.122	28.67
283.337	92.16
283.552	53.25
283.767	26.62
283.983	14.34
284.198	75.77
284.413	4.1
284.628	-36.86
284.843	86.01
285.058	32.77
285.274	86.01
285.489	-38.91
285.704	92.16
285.919	-6.14
286.134	69.63
286.349	-2.05
286.564	45.06
286.779	86.01
286.995	53.25
287.21	10.24
287.425	59.39
287.64	100.35
287.855	83.97
288.07	-30.72
288.285	12.29
288.5	55.3
288.715	-4.1
288.93	-2.05
289.145	-8.19
289.36	6.14
289.575	22.53
289.79	104.45
290.004	34.82
290.219	118.78
290.434	26.62
290.649	6.14
290.864	10.24
291.079	-26.62
291.294	20.48
291.509	57.34
291.724	67.58
291.938	-12.29
292.153	-20.48
292.368	32.77
292.583	65.54
292.798	61.44
293.012	67.58
293.227	59.39
293.442	63.49
293.657	83.97
293.871	20.48
294.086	59.39
294.301	71.68
294.516	88.06
294.73	141.31
294.945	-22.53
295.16	10.24
295.374	45.06
295.589	75.77
295.804	133.12
296.018	40.96
296.233	55.3
296.447	61.44
296.662	55.3
296.877	51.2
297.091	-22.53
297.306	4.1
297.52	75.77
297.735	81.92
297.949	26.62
298.164	88.06
298.378	67.58
298.593	49.15
298.807	-14.34
299.022	86.01
299.236	28.67
299.451	22.53
299.665	55.3
299.88	63.49
300.094	73.73
300.309	34.82
300.523	47.1
300.737	10.24
300.952	43.01
301.166	67.58
301.381	20.48
301.595	51.2
301.809	59.39
302.024	2.05
302.238	61.44
302.452	88.06
302.667	59.39
302.881	92.16
303.095	86.01
303.309	28.67
303.524	67.58
303.738	20.48
303.952	-6.14
304.166	-30.72
304.381	-47.1
304.595	116.73
304.809	18.43
305.023	38.91
305.237	61.44
305.452	47.1
305.666	59.39
305.88	57.34
306.094	67.58
306.308	10.24
306.522	55.3
306.736	26.62
306.95	6.14
307.164	86.01
307.379	106.49
307.593	28.67
307.807	120.83
308.021	88.06
308.235	83.97
308.449	34.82
308.663	-14.34
308.877	116.73
309.091	118.78
309.305	26.62
309.519	-6.14
309.733	88.06
309.947	61.44
310.161	137.21
310.374	75.77
310.588	92.16
310.802	92.16
311.016	83.97
311.23	47.1
311.444	51.2
311.658	47.1
311.872	126.97
312.085	67.58
312.299	141.31
312.513	69.63
312.727	79.87
312.941	47.1
313.154	14.34
313.368	-2.05
313.582	129.02
313.796	4.1
314.009	-28.67
314.223	69.63
314.437	-38.91
314.651	92.16
314.864	53.25
315.078	67.58
315.292	53.25
315.505	20.48
315.719	36.86
315.933	47.1
316.146	43.01
316.36	-36.86
316.573	18.43
316.787	8.19
317.001	28.67
317.214	88.06
317.428	57.34
317.641	2.05
317.855	40.96
318.068	0
318.282	18.43
318.495	147.45
318.709	10.24
318.922	69.63
319.136	124.93
319.349	-69.63
319.563	-47.1
319.776	69.63
319.99	-30.72
320.203	61.44
320.417	30.72
320.63	106.49
320.843	69.63
321.057	61.44
321.27	83.97
321.483	18.43
321.697	92.16
321.91	38.91
322.124	108.54
322.337	157.69
322.55	96.25
322.763	49.15
322.977	129.02
323.19	20.48
323.403	65.54
323.617	96.25
323.83	75.77
324.043	49.15
324.256	34.82
324.469	-12.29
324.683	43.01
324.896	22.53
325.109	102.4
325.322	-16.38
325.535	57.34
325.748	98.3
325.962	75.77
326.175	55.3
326.388	135.17
326.601	-6.14
326.814	49.15
327.027	59.39
327.24	118.78
327.453	-43.01
327.666	86.01
327.879	45.06
328.092	45.06
328.305	57.34
328.518	8.19
328.731	-16.38
328.944	43.01
329.157	43.01
329.37	-10.24
329.583	43.01
329.796	16.38
330.009	18.43
330.222	110.59
330.435	79.87
330.648	126.97
330.861	61.44
331.073	75.77
331.286	20.48
331.499	22.53
331.712	51.2
331.925	112.64
332.138	30.72
332.35	38.91
332.563	63.49
332.776	75.77
332.989	36.86
333.202	20.48
333.414	18.43
333.627	-20.48
333.84	-22.53
334.053	43.01
334.265	-77.82
334.478	4.1
334.691	-24.58
334.903	53.25
335.116	10.24
335.329	43.01
335.541	43.01
335.754	75.77
335.966	20.48
336.179	53.25
336.392	69.63
336.604	59.39
336.817	143.36
337.029	47.1
337.242	16.38
337.454	102.4
337.667	26.62
337.88	92.16
338.092	92.16
338.305	57.34
338.517	32.77
338.729	55.3
338.942	69.63
339.154	51.2
339.367	-6.14
339.579	69.63
339.792	57.34
340.004	122.88
340.217	65.54
340.429	102.4
340.641	6.14
340.854	30.72
341.066	-2.05
341.278	106.49
341.491	75.77
341.703	55.3
341.915	30.72
342.128	34.82
342.34	59.39
342.552	151.55
342.764	55.3
342.977	10.24
343.189	53.25
343.401	-6.14
343.613	-34.82
343.826	47.1
344.038	157.69
344.25	43.01
344.462	45.06
344.674	59.39
344.886	47.1
345.099	69.63
345.311	10.24
345.523	83.97
345.735	-63.49
345.947	92.16
346.159	47.1
346.371	2.05
346.583	26.62
346.795	53.25
347.007	63.49
347.219	92.16
347.431	75.77
347.643	71.68
347.855	57.34
348.067	79.87
348.279	-30.72
348.491	61.44
348.703	12.29
348.915	51.2
349.127	-14.34
349.339	81.92
349.551	47.1
349.763	69.63
349.975	43.01
350.187	10.24
350.399	79.87
350.61	63.49
350.822	6.14
351.034	36.86
351.246	36.86
351.458	51.2
351.669	75.77
351.881	176.13
352.093	100.35
352.305	116.73
352.517	55.3
352.728	83.97
352.94	18.43
353.152	36.86
353.363	34.82
353.575	83.97
353.787	71.68
353.999	100.35
354.21	63.49
354.422	71.68
354.633	-12.29
354.845	77.82
355.057	-10.24
355.268	36.86
355.48	86.01
355.692	124.93
355.903	38.91
356.115	45.06
356.326	6.14
356.538	53.25
356.749	153.6
356.961	102.4
357.172	55.3
357.384	6.14
357.595	169.98
357.807	53.25
358.018	51.2
358.23	18.43
358.441	133.12
358.653	86.01
358.864	118.78
359.075	67.58
359.287	51.2
359.498	108.54
359.709	28.67
359.921	53.25
360.132	92.16
360.344	22.53
360.555	-4.1
360.766	75.77
360.977	92.16
361.189	102.4
361.4	-24.58
361.611	75.77
361.823	67.58
362.034	30.72
362.245	2.05
362.456	49.15
362.667	34.82
362.879	43.01
363.09	43.01
363.301	43.01
363.512	108.54
363.723	77.82
363.935	45.06
364.146	147.45
364.357	18.43
364.568	108.54
364.779	14.34
364.99	174.08
365.201	90.11
365.412	133.12
365.623	-73.73
365.834	18.43
366.045	36.86
366.256	145.41
366.467	116.73
366.678	104.45
366.889	67.58
367.1	51.2
367.311	45.06
367.522	24.58
367.733	43.01
367.944	108.54
368.155	141.31
368.366	92.16
368.577	116.73
368.788	116.73
368.999	61.44
369.209	43.01
369.42	106.49
369.631	169.98
369.842	104.45
370.053	-6.14
370.264	75.77
370.474	86.01
370.685	108.54
370.896	26.62
371.107	108.54
371.317	59.39
371.528	53.25
371.739	110.59
371.95	92.16
372.16	94.21
372.371	-69.63
372.582	34.82
372.792	36.86
373.003	94.21
373.214	38.91
373.424	92.16
373.635	22.53
373.846	137.21
374.056	122.88
374.267	86.01
374.477	98.3
374.688	40.96
374.898	75.77
375.109	51.2
375.319	-4.1
375.53	34.82
375.74	36.86
375.951	71.68
376.161	47.1
376.372	94.21
376.582	2.05
376.793	75.77
377.003	59.39
377.214	51.2
377.424	34.82
377.635	108.54
377.845	92.16
378.055	153.6
378.266	-16.38
378.476	43.01
378.686	12.29
378.897	51.2
379.107	12.29
379.317	14.34
379.528	-20.48
379.738	43.01
379.948	36.86
380.158	43.01
380.369	157.69
380.579	104.45
380.789	43.01
380.999	86.01
381.21	112.64
381.42	174.08
381.63	18.43
381.84	110.59
382.05	38.91
382.261	100.35
382.471	67.58
382.681	53.25
382.891	120.83
383.101	126.97
383.311	-32.77
383.521	51.2
383.731	-26.62
383.941	118.78
384.151	45.06
384.361	45.06
384.571	159.74
384.781	34.82
384.991	184.32
385.201	102.4
385.411	-4.1
385.621	151.55
385.831	88.06
386.041	43.01
386.251	43.01
386.461	100.35
386.671	34.82
386.881	59.39
387.091	34.82
387.301	88.06
387.511	108.54
387.72	59.39
387.93	104.45
388.14	20.48
388.35	79.87
388.56	149.5
388.769	38.91
388.979	67.58
389.189	12.29
389.399	51.2
389.609	51.2
389.818	118.78
390.028	77.82
390.238	51.2
390.447	47.1
390.657	88.06
390.867	55.3
391.076	53.25
391.286	102.4
391.496	61.44
391.705	18.43
391.915	108.54
392.125	131.07
392.334	110.59
392.544	83.97
392.753	10.24
392.963	14.34
393.172	57.34
393.382	34.82
393.591	67.58
393.801	43.01
394.01	90.11
394.22	63.49
394.429	51.2
394.639	79.87
394.848	124.93
395.058	104.45
395.267	28.67
395.477	92.16
395.686	110.59
395.895	145.41
396.105	178.17
396.314	69.63
396.524	77.82
396.733	83.97
396.942	110.59
397.152	167.93
397.361	157.69
397.57	47.1
397.78	38.91
397.989	88.06
398.198	174.08
398.407	124.93
398.617	110.59
398.826	100.35
399.035	110.59
399.244	204.8
399.453	223.23
399.663	174.08
399.872	116.73
400.081	71.68
400.29	159.74
400.499	178.17
400.708	192.51
400.917	167.93
401.127	172.03
401.336	79.87
401.545	243.71
401.754	210.94
401.963	161.79
402.172	86.01
402.381	133.12
402.59	118.78
402.799	178.17
403.008	120.83
403.217	180.22
403.426	247.8
403.635	110.59
403.844	223.23
404.053	157.69
404.262	100.35
404.471	282.62
404.68	206.84
404.888	118.78
405.097	186.37
405.306	249.85
405.515	172.03
405.724	208.89
405.933	247.8
406.142	198.65
406.35	296.96
406.559	200.7
406.768	296.96
406.977	272.38
407.185	247.8
407.394	256
407.603	280.57
407.812	233.47
408.02	299
408.229	239.61
408.438	284.67
408.646	256
408.855	305.15
409.064	315.39
409.272	280.57
409.481	333.82
409.69	399.35
409.898	329.72
410.107	403.45
410.315	366.59
410.524	403.45
410.733	452.6
410.941	368.63
411.15	495.61
411.358	413.69
411.567	493.56
411.775	454.65
411.984	495.61
412.192	530.42
412.401	534.52
412.609	542.71
412.818	567.29
413.026	583.67
413.234	634.87
413.443	729.08
413.651	669.69
413.86	608.25
414.068	679.93
414.276	794.61
414.485	757.75
414.693	845.81
414.901	921.59
415.11	888.82
415.318	823.28
415.526	913.39
415.734	995.31
415.943	894.96
416.151	970.74
416.359	935.92
416.567	1056.75
416.776	1064.94
416.984	1161.2
417.192	1181.68
417.4	1183.73
417.608	1169.39
417.817	1298.41
418.025	1402.86
418.233	1419.24
418.441	1337.32
418.649	1417.19
418.857	1492.97
419.065	1685.48
419.273	1501.16
419.481	1626.09
419.689	1710.05
419.897	1814.5
420.105	1765.35
420.313	1857.51
420.521	1943.52
420.729	1935.33
420.937	2131.94
421.145	2146.27
421.353	2252.77
421.561	2332.64
421.769	2453.47
421.977	2506.71
422.185	2406.36
422.393	2686.94
422.601	2811.86
422.809	2858.96
423.017	2729.94
423.224	2985.94
423.432	2897.88
423.64	3016.66
423.848	3426.25
424.056	3188.69
424.263	3516.36
424.471	3565.51
424.679	3495.88
424.887	3762.12
425.094	3827.65
425.302	3680.2
425.51	4009.92
425.718	4130.75
425.925	4163.52
426.133	4302.78
426.341	4468.67
426.548	4695.99
426.756	4761.53
426.964	4861.88
427.171	5203.89
427.379	5271.47
427.586	5474.22
427.794	5416.88
428.001	5808.04
428.209	5986.21
428.417	5838.76
428.624	6109.09
428.832	6203.3
429.039	6154.15
429.247	6164.39
429.454	6840.22
429.662	7114.64
429.869	6809.5
430.076	7194.51
430.284	7049.11
430.491	7260.05
430.699	7673.74
430.906	7718.79
431.114	7937.93
431.321	8118.15
431.528	8296.32
431.736	8824.7
431.943	9150.32
432.15	8941.43
432.358	8949.62
432.565	9629.55
432.772	9576.3
432.979	9979.75
433.187	10159.97
433.394	10233.7
433.601	10860.38
433.808	10626.91
434.016	10817.37
434.223	11036.5
434.43	12111.69
434.637	11560.78
434.844	12580.67
435.052	12805.95
435.259	12562.24
435.466	12808
435.673	12754.75
435.88	13428.53
436.087	13971.24
436.294	13930.28
436.501	13735.73
436.708	14167.85
436.915	14599.97
437.122	15206.17
437.329	14982.94
437.537	15558.42
437.743	15791.89
437.95	15558.42
438.157	16615.17
438.364	17002.24
438.571	17073.92
438.778	17184.51
438.985	18534.12
439.192	17749.75
439.399	18464.49
439.606	18124.52
439.813	19095.26
440.02	20147.92
440.227	19623.64
440.433	20119.24
440.64	20252.36
440.847	20377.29
441.054	20911.81
441.261	22005.42
441.467	21933.75
441.674	22365.87
441.881	23170.72
442.088	22820.52
442.294	22724.26
442.501	23348.89
442.708	23889.56
442.914	24782.47
443.121	25734.78
443.328	24895.11
443.534	26973.8
443.741	25998.96
443.948	25652.86
444.154	27735.64
444.361	27485.79
444.568	27403.87
444.774	27493.98
444.981	27647.58
445.187	28456.53
445.394	30090.8
445.6	29408.83
445.807	32144.92
446.013	30860.84
446.22	31225.38
446.426	32779.79
446.633	32824.84
446.839	34301.43
447.046	32734.73
447.252	34407.92
447.459	34668.01
447.665	34493.94
447.871	35904.99
448.078	37320.13
448.284	35626.46
448.491	36654.54
448.697	38008.25
448.903	38731.18
449.11	38706.61
449.316	38256.06
449.522	38722.99
449.728	40025.5
449.935	40254.87
450.141	40344.98
450.347	40750.48
450.553	38942.13
450.76	40218.01
450.966	41280.91
451.172	40897.94
451.378	42012.03
451.584	41123.21
451.791	42446.2
451.997	42478.97
452.203	42808.69
452.409	43033.97
452.615	42085.76
452.821	40717.71
453.027	40605.08
453.233	42634.61
453.44	40865.17
453.646	41094.54
453.852	41510.28
454.058	42052.99
454.264	40805.78
454.47	41739.65
454.676	40856.98
454.882	41979.26
455.088	38401.46
455.294	38866.35
455.5	39560.61
455.705	39919.01
455.911	38211
456.117	37553.6
456.323	37141.96
456.529	34844.14
456.735	36896.21
456.941	36163.03
457.147	34831.85
457.352	33932.79
457.558	33836.54
457.764	33904.12
457.97	33238.53
458.176	32339.47
458.381	32411.15
458.587	30750.25
458.793	30393.9
458.999	29025.86
459.204	31092.26
459.41	30164.53
459.616	28202.58
459.821	28583.5
460.027	28401.23
460.233	27809.37
460.438	26150.51
460.644	26572.39
460.85	25509.5
461.055	24921.73
461.261	24729.22
461.466	23123.62
461.672	22466.22
461.878	23934.61
462.083	22365.87
462.289	21888.69
462.494	21513.91
462.7	20823.75
462.905	20262.6
463.111	20891.33
463.316	21022.4
463.522	20498.12
463.727	20600.52
463.932	20426.44
464.138	19861.2
464.343	20293.32
464.549	19773.14
464.754	20328.14
464.959	20242.12
465.165	19850.96
465.37	19078.88
465.575	18507.49
465.781	19230.43
465.986	19449.56
466.191	18753.25
466.397	18061.04
466.602	17456.89
466.807	17962.73
467.012	18046.7
