Data from USB4F104151__52__14-29-59-507.txt Node

Date: Thu Mar 13 14:29:59 EDT 2025
User: louis
Spectrometer: USB4F10415
Trigger mode: 4
Integration Time (sec): 2.500000E-2
Scans to average: 1
Electric dark correction enabled: true
Nonlinearity correction enabled: false
Boxcar width: 0
XAxis mode: Wavelengths
Number of Pixels in Spectrum: 3648
>>>>>Begin Spectral Data<<<<<
178.204	-146.43
178.424	-146.43
178.644	-146.43
178.864	-158.72
179.084	-150.53
179.304	-33.79
179.524	19.46
179.744	-44.03
179.964	-5.12
180.184	1.02
180.404	33.79
180.624	37.89
180.844	35.84
181.064	-9.22
181.283	66.56
181.503	-93.18
181.723	-9.22
181.943	-70.65
182.163	66.56
182.383	-17.41
182.602	52.22
182.822	17.41
183.042	35.84
183.262	35.84
183.482	33.79
183.701	48.13
183.921	52.22
184.141	-1.02
184.361	15.36
184.58	-15.36
184.8	-9.22
185.02	15.36
185.239	37.89
185.459	13.31
185.679	-50.18
185.898	-21.5
186.118	31.74
186.338	3.07
186.557	25.6
186.777	-41.98
186.997	64.51
187.216	-25.6
187.436	25.6
187.655	23.55
187.875	68.61
188.095	7.17
188.314	37.89
188.534	91.13
188.753	23.55
188.973	-1.02
189.192	74.75
189.412	44.03
189.631	56.32
189.851	15.36
190.07	21.5
190.29	-50.18
190.509	-1.02
190.729	-33.79
190.948	31.74
191.168	154.62
191.387	117.76
191.607	-48.13
191.826	-23.55
192.045	-1.02
192.265	19.46
192.484	39.94
192.704	9.22
192.923	-37.89
193.142	103.42
193.362	23.55
193.581	7.17
193.8	31.74
194.02	48.13
194.239	-3.07
194.458	-1.02
194.678	-35.84
194.897	39.94
195.116	11.26
195.335	89.09
195.555	-35.84
195.774	9.22
195.993	56.32
196.212	-3.07
196.432	99.33
196.651	-82.94
196.87	5.12
197.089	138.24
197.308	3.07
197.528	52.22
197.747	31.74
197.966	5.12
198.185	64.51
198.404	17.41
198.623	9.22
198.842	64.51
199.062	89.09
199.281	52.22
199.5	-25.6
199.719	-31.74
199.938	76.8
200.157	25.6
200.376	72.7
200.595	31.74
200.814	72.7
201.033	-5.12
201.252	3.07
201.471	-15.36
201.69	54.27
201.909	64.51
202.128	-48.13
202.347	-1.02
202.566	11.26
202.785	-82.94
203.004	72.7
203.223	41.98
203.442	-17.41
203.661	39.94
203.879	56.32
204.098	50.18
204.317	-21.5
204.536	50.18
204.755	15.36
204.974	74.75
205.193	1.02
205.411	-3.07
205.63	56.32
205.849	93.18
206.068	-3.07
206.287	-1.02
206.505	1.02
206.724	121.85
206.943	39.94
207.162	52.22
207.381	113.66
207.599	-35.84
207.818	58.37
208.037	-21.5
208.255	27.65
208.474	-5.12
208.693	23.55
208.911	44.03
209.13	44.03
209.349	60.42
209.567	58.37
209.786	41.98
210.005	62.46
210.223	27.65
210.442	-29.7
210.661	7.17
210.879	56.32
211.098	7.17
211.316	-54.27
211.535	123.9
211.753	7.17
211.972	91.13
212.191	-15.36
212.409	76.8
212.628	58.37
212.846	31.74
213.065	-9.22
213.283	68.61
213.502	-37.89
213.72	74.75
213.938	66.56
214.157	19.46
214.375	27.65
214.594	-41.98
214.812	-9.22
215.031	27.65
215.249	-21.5
215.467	-15.36
215.686	-66.56
215.904	44.03
216.122	-23.55
216.341	50.18
216.559	74.75
216.778	39.94
216.996	3.07
217.214	7.17
217.432	-31.74
217.651	-9.22
217.869	17.41
218.087	66.56
218.306	-41.98
218.524	-50.18
218.742	89.09
218.96	84.99
219.179	41.98
219.397	-13.31
219.615	58.37
219.833	72.7
220.051	-5.12
220.27	66.56
220.488	89.09
220.706	15.36
220.924	48.13
221.142	-35.84
221.36	-5.12
221.578	72.7
221.796	-17.41
222.015	-15.36
222.233	60.42
222.451	87.04
222.669	-1.02
222.887	39.94
223.105	-29.7
223.323	7.17
223.541	-21.5
223.759	46.08
223.977	27.65
224.195	41.98
224.413	-5.12
224.631	50.18
224.849	48.13
225.067	82.94
225.285	-54.27
225.503	39.94
225.721	-97.28
225.939	-1.02
226.157	31.74
226.375	181.25
226.592	-9.22
226.81	39.94
227.028	15.36
227.246	66.56
227.464	-37.89
227.682	-17.41
227.9	19.46
228.117	48.13
228.335	66.56
228.553	80.89
228.771	7.17
228.989	39.94
229.206	7.17
229.424	3.07
229.642	68.61
229.86	1.02
230.077	54.27
230.295	70.65
230.513	23.55
230.731	84.99
230.948	27.65
231.166	146.43
231.384	62.46
231.601	1.02
231.819	117.76
232.037	44.03
232.254	-5.12
232.472	15.36
232.689	27.65
232.907	46.08
233.125	-21.5
233.342	48.13
233.56	-54.27
233.777	41.98
233.995	-23.55
234.213	103.42
234.43	33.79
234.648	82.94
234.865	-58.37
235.083	-31.74
235.3	3.07
235.518	48.13
235.735	44.03
235.953	11.26
236.17	19.46
236.388	15.36
236.605	25.6
236.822	39.94
237.04	33.79
237.257	-41.98
237.475	-50.18
237.692	33.79
237.909	64.51
238.127	52.22
238.344	-29.7
238.562	80.89
238.779	-50.18
238.996	-1.02
239.214	19.46
239.431	15.36
239.648	-56.32
239.865	-23.55
240.083	17.41
240.3	1.02
240.517	-33.79
240.735	72.7
240.952	19.46
241.169	97.28
241.386	1.02
241.603	25.6
241.821	3.07
242.038	66.56
242.255	-9.22
242.472	-7.17
242.689	9.22
242.907	7.17
243.124	-9.22
243.341	7.17
243.558	-37.89
243.775	7.17
243.992	-80.89
244.209	-9.22
244.426	56.32
244.643	5.12
244.86	-23.55
245.078	48.13
245.295	33.79
245.512	9.22
245.729	-17.41
245.946	74.75
246.163	-39.94
246.38	97.28
246.597	13.31
246.814	7.17
247.031	9.22
247.248	-19.46
247.464	15.36
247.681	80.89
247.898	-7.17
248.115	48.13
248.332	9.22
248.549	82.94
248.766	62.46
248.983	121.85
249.2	-78.85
249.417	39.94
249.633	50.18
249.85	23.55
250.067	23.55
250.284	-35.84
250.501	23.55
250.717	-3.07
250.934	27.65
251.151	15.36
251.368	27.65
251.585	48.13
251.801	23.55
252.018	-17.41
252.235	52.22
252.451	1.02
252.668	-1.02
252.885	-9.22
253.102	-1.02
253.318	46.08
253.535	-50.18
253.752	7.17
253.968	21.5
254.185	-7.17
254.401	15.36
254.618	3.07
254.835	15.36
255.051	68.61
255.268	64.51
255.484	7.17
255.701	-52.22
255.917	-3.07
256.134	-99.33
256.351	33.79
256.567	-66.56
256.784	66.56
257	-72.7
257.217	17.41
257.433	89.09
257.65	-19.46
257.866	58.37
258.082	-46.08
258.299	7.17
258.515	105.47
258.732	52.22
258.948	-74.75
259.165	-66.56
259.381	48.13
259.597	-1.02
259.814	-1.02
260.03	-39.94
260.246	80.89
260.463	64.51
260.679	31.74
260.895	9.22
261.112	19.46
261.328	39.94
261.544	33.79
261.761	87.04
261.977	-1.02
262.193	-21.5
262.409	89.09
262.626	27.65
262.842	23.55
263.058	-13.31
263.274	13.31
263.49	25.6
263.707	101.37
263.923	27.65
264.139	-68.61
264.355	21.5
264.571	37.89
264.787	1.02
265.004	56.32
265.22	-31.74
265.436	-5.12
265.652	-33.79
265.868	-1.02
266.084	-9.22
266.3	23.55
266.516	-74.75
266.732	-9.22
266.948	-3.07
267.164	56.32
267.38	21.5
267.596	54.27
267.812	31.74
268.028	27.65
268.244	-9.22
268.46	48.13
268.676	44.03
268.892	33.79
269.108	-21.5
269.324	31.74
269.54	-72.7
269.756	-9.22
269.972	-9.22
270.188	21.5
270.403	11.26
270.619	-3.07
270.835	39.94
271.051	35.84
271.267	-7.17
271.483	-78.85
271.698	27.65
271.914	33.79
272.13	-9.22
272.346	72.7
272.562	37.89
272.777	-54.27
272.993	-33.79
273.209	31.74
273.425	-33.79
273.64	9.22
273.856	134.14
274.072	15.36
274.287	21.5
274.503	48.13
274.719	105.47
274.934	-25.6
275.15	-29.7
275.366	1.02
275.581	19.46
275.797	74.75
276.012	-44.03
276.228	-1.02
276.444	41.98
276.659	82.94
276.875	-35.84
277.09	-7.17
277.306	-17.41
277.521	91.13
277.737	17.41
277.952	-5.12
278.168	-33.79
278.383	-46.08
278.599	23.55
278.814	-1.02
279.03	31.74
279.245	117.76
279.461	9.22
279.676	31.74
279.892	-54.27
280.107	7.17
280.322	82.94
280.538	19.46
280.753	39.94
280.969	-23.55
281.184	33.79
281.399	70.65
281.615	-64.51
281.83	31.74
282.045	48.13
282.26	-3.07
282.476	25.6
282.691	-50.18
282.906	13.31
283.122	7.17
283.337	-17.41
283.552	-9.22
283.767	-29.7
283.983	93.18
284.198	39.94
284.413	66.56
284.628	-15.36
284.843	-17.41
285.058	-7.17
285.274	33.79
285.489	-68.61
285.704	82.94
285.919	-31.74
286.134	39.94
286.349	-1.02
286.564	-13.31
286.779	54.27
286.995	72.7
287.21	-19.46
287.425	111.61
287.64	3.07
287.855	-5.12
288.07	-87.04
288.285	3.07
288.5	60.42
288.715	48.13
288.93	7.17
289.145	27.65
289.36	19.46
289.575	-37.89
289.79	23.55
290.004	-3.07
290.219	31.74
290.434	-56.32
290.649	-37.89
290.864	72.7
291.079	31.74
291.294	103.42
291.509	41.98
291.724	-29.7
291.938	-5.12
292.153	7.17
292.368	-33.79
292.583	-17.41
292.798	35.84
293.012	7.17
293.227	60.42
293.442	56.32
293.657	-1.02
293.871	72.7
294.086	-31.74
294.301	19.46
294.516	-1.02
294.73	56.32
294.945	7.17
295.16	21.5
295.374	29.7
295.589	74.75
295.804	-17.41
296.018	1.02
296.233	72.7
296.447	7.17
296.662	11.26
296.877	84.99
297.091	87.04
297.306	44.03
297.52	105.47
297.735	54.27
297.949	-50.18
298.164	78.85
298.378	107.52
298.593	52.22
298.807	-37.89
299.022	33.79
299.236	76.8
299.451	3.07
299.665	93.18
299.88	52.22
300.094	19.46
300.309	58.37
300.523	82.94
300.737	56.32
300.952	-50.18
301.166	15.36
301.381	72.7
301.595	-15.36
301.809	41.98
302.024	23.55
302.238	11.26
302.452	89.09
302.667	-23.55
302.881	138.24
303.095	27.65
303.309	46.08
303.524	9.22
303.738	56.32
303.952	97.28
304.166	23.55
304.381	-97.28
304.595	31.74
304.809	23.55
305.023	107.52
305.237	23.55
305.452	9.22
305.666	62.46
305.88	62.46
306.094	23.55
306.308	58.37
306.522	41.98
306.736	-35.84
306.95	25.6
307.164	-29.7
307.379	-41.98
307.593	72.7
307.807	52.22
308.021	89.09
308.235	-35.84
308.449	-66.56
308.663	56.32
308.877	56.32
309.091	-21.5
309.305	72.7
309.519	-1.02
309.733	-17.41
309.947	66.56
310.161	82.94
310.374	-5.12
310.588	105.47
310.802	56.32
311.016	-25.6
311.23	66.56
311.444	-13.31
311.658	17.41
311.872	41.98
312.085	72.7
312.299	105.47
312.513	46.08
312.727	89.09
312.941	7.17
313.154	33.79
313.368	7.17
313.582	15.36
313.796	17.41
314.009	11.26
314.223	44.03
314.437	21.5
314.651	-50.18
314.864	46.08
315.078	-17.41
315.292	1.02
315.505	-21.5
315.719	-33.79
315.933	11.26
316.146	25.6
316.36	-1.02
316.573	105.47
316.787	82.94
317.001	41.98
317.214	-33.79
317.428	-7.17
317.641	-50.18
317.855	-17.41
318.068	84.99
318.282	111.61
318.495	74.75
318.709	17.41
318.922	37.89
319.136	72.7
319.349	17.41
319.563	56.32
319.776	52.22
319.99	11.26
320.203	44.03
320.417	-7.17
320.63	66.56
320.843	60.42
321.057	56.32
321.27	-58.37
321.483	48.13
321.697	54.27
321.91	11.26
322.124	66.56
322.337	-5.12
322.55	-17.41
322.763	56.32
322.977	105.47
323.19	-9.22
323.403	66.56
323.617	41.98
323.83	76.8
324.043	-15.36
324.256	29.7
324.469	-35.84
324.683	64.51
324.896	68.61
325.109	52.22
325.322	-35.84
325.535	99.33
325.748	52.22
325.962	1.02
326.175	13.31
326.388	-5.12
326.601	23.55
326.814	68.61
327.027	9.22
327.24	87.04
327.453	-9.22
327.666	-15.36
327.879	66.56
328.092	31.74
328.305	-41.98
328.518	35.84
328.731	-37.89
328.944	-1.02
329.157	74.75
329.37	48.13
329.583	29.7
329.796	62.46
330.009	-1.02
330.222	82.94
330.435	39.94
330.648	-25.6
330.861	37.89
331.073	23.55
331.286	121.85
331.499	31.74
331.712	-9.22
331.925	27.65
332.138	31.74
332.35	-5.12
332.563	52.22
332.776	39.94
332.989	15.36
333.202	39.94
333.414	76.8
333.627	-1.02
333.84	-41.98
334.053	58.37
334.265	-7.17
334.478	9.22
334.691	15.36
334.903	74.75
335.116	-1.02
335.329	-29.7
335.541	46.08
335.754	31.74
335.966	37.89
336.179	3.07
336.392	-1.02
336.604	60.42
336.817	23.55
337.029	66.56
337.242	21.5
337.454	72.7
337.667	-9.22
337.88	39.94
338.092	-5.12
338.305	-15.36
338.517	-60.42
338.729	35.84
338.942	54.27
339.154	27.65
339.367	7.17
339.579	99.33
339.792	7.17
340.004	113.66
340.217	-58.37
340.429	39.94
340.641	-1.02
340.854	-46.08
341.066	11.26
341.278	50.18
341.491	68.61
341.703	78.85
341.915	-19.46
342.128	74.75
342.34	9.22
342.552	74.75
342.764	7.17
342.977	-3.07
343.189	48.13
343.401	74.75
343.613	56.32
343.826	7.17
344.038	50.18
344.25	84.99
344.462	31.74
344.674	15.36
344.886	50.18
345.099	50.18
345.311	31.74
345.523	17.41
345.735	-17.41
345.947	29.7
346.159	-1.02
346.371	72.7
346.583	-5.12
346.795	130.05
347.007	48.13
347.219	7.17
347.431	-11.26
347.643	91.13
347.855	-31.74
348.067	48.13
348.279	-56.32
348.491	29.7
348.703	27.65
348.915	56.32
349.127	-25.6
349.339	103.42
349.551	31.74
349.763	46.08
349.975	39.94
350.187	39.94
350.399	60.42
350.61	74.75
350.822	-25.6
351.034	64.51
351.246	39.94
351.458	-33.79
351.669	27.65
351.881	44.03
352.093	39.94
352.305	48.13
352.517	13.31
352.728	52.22
352.94	-25.6
353.152	89.09
353.363	17.41
353.575	3.07
353.787	48.13
353.999	19.46
354.21	62.46
354.422	-25.6
354.633	-44.03
354.845	17.41
355.057	23.55
355.268	17.41
355.48	7.17
355.692	-9.22
355.903	15.36
356.115	19.46
356.326	-54.27
356.538	41.98
356.749	89.09
356.961	72.7
357.172	39.94
357.384	23.55
357.595	64.51
357.807	37.89
358.018	-33.79
358.23	-52.22
358.441	84.99
358.653	52.22
358.864	25.6
359.075	-19.46
359.287	15.36
359.498	48.13
359.709	58.37
359.921	31.74
360.132	1.02
360.344	113.66
360.555	31.74
360.766	-11.26
360.977	3.07
361.189	84.99
361.4	33.79
361.611	158.72
361.823	-5.12
362.034	23.55
362.245	-99.33
362.456	99.33
362.667	64.51
362.879	-29.7
363.09	-41.98
363.301	56.32
363.512	-37.89
363.723	15.36
363.935	48.13
364.146	113.66
364.357	-103.42
364.568	87.04
364.779	-29.7
364.99	78.85
365.201	-33.79
365.412	17.41
365.623	-7.17
365.834	48.13
366.045	15.36
366.256	58.37
366.467	-78.85
366.678	-21.5
366.889	54.27
367.1	25.6
367.311	-1.02
367.522	64.51
367.733	97.28
367.944	115.71
368.155	11.26
368.366	66.56
368.577	97.28
368.788	58.37
368.999	-33.79
369.209	3.07
369.42	109.57
369.631	105.47
369.842	-23.55
370.053	72.7
370.264	39.94
370.474	-37.89
370.685	48.13
370.896	11.26
371.107	-15.36
371.317	66.56
371.528	33.79
371.739	89.09
371.95	62.46
372.16	15.36
372.371	5.12
372.582	82.94
372.792	56.32
373.003	11.26
373.214	17.41
373.424	-9.22
373.635	1.02
373.846	80.89
374.056	46.08
374.267	35.84
374.477	54.27
374.688	41.98
374.898	64.51
375.109	41.98
375.319	70.65
375.53	50.18
375.74	68.61
375.951	23.55
376.161	41.98
376.372	68.61
376.582	48.13
376.793	64.51
377.003	74.75
377.214	-11.26
377.424	23.55
377.635	-23.55
377.845	-87.04
378.055	142.33
378.266	-5.12
378.476	7.17
378.686	97.28
378.897	1.02
379.107	99.33
379.317	107.52
379.528	-13.31
379.738	97.28
379.948	-21.5
380.158	64.51
380.369	64.51
380.579	91.13
380.789	15.36
380.999	103.42
381.21	-17.41
381.42	80.89
381.63	15.36
381.84	15.36
382.05	39.94
382.261	138.24
382.471	5.12
382.681	56.32
382.891	93.18
383.101	27.65
383.311	-23.55
383.521	31.74
383.731	56.32
383.941	-7.17
384.151	82.94
384.361	31.74
384.571	35.84
384.781	39.94
384.991	25.6
385.201	82.94
385.411	62.46
385.621	-1.02
385.831	29.7
386.041	27.65
386.251	19.46
386.461	72.7
386.671	35.84
386.881	64.51
387.091	91.13
387.301	-25.6
387.511	97.28
387.72	25.6
387.93	31.74
388.14	17.41
388.35	48.13
388.56	107.52
388.769	107.52
388.979	66.56
389.189	50.18
389.399	66.56
389.609	64.51
389.818	74.75
390.028	52.22
390.238	50.18
390.447	50.18
390.657	74.75
390.867	5.12
391.076	-7.17
391.286	78.85
391.496	72.7
391.705	17.41
391.915	82.94
392.125	97.28
392.334	64.51
392.544	80.89
392.753	95.23
392.963	-29.7
393.172	7.17
393.382	46.08
393.591	130.05
393.801	68.61
394.01	158.72
394.22	158.72
394.429	35.84
394.639	56.32
394.848	46.08
395.058	89.09
395.267	64.51
395.477	128
395.686	9.22
395.895	101.37
396.105	154.62
396.314	89.09
396.524	82.94
396.733	27.65
396.942	150.53
397.152	56.32
397.361	181.25
397.57	78.85
397.78	119.81
397.989	44.03
398.198	171.01
398.407	50.18
398.617	113.66
398.826	72.7
399.035	48.13
399.244	134.14
399.453	168.96
399.663	134.14
399.872	97.28
400.081	89.09
400.29	80.89
400.499	60.42
400.708	121.85
400.917	64.51
401.127	52.22
401.336	11.26
401.545	160.77
401.754	125.95
401.963	189.44
402.172	66.56
402.381	39.94
402.59	93.18
402.799	58.37
403.008	80.89
403.217	101.37
403.426	142.33
403.635	97.28
403.844	121.85
404.053	214.01
404.262	134.14
404.471	201.72
404.68	154.62
404.888	171.01
405.097	150.53
405.306	205.82
405.515	148.48
405.724	111.61
405.933	160.77
406.142	207.87
406.35	250.88
406.559	201.72
406.768	162.81
406.977	236.54
407.185	189.44
407.394	171.01
407.603	197.63
407.812	246.78
408.02	175.1
408.229	152.57
408.438	275.45
408.646	181.25
408.855	265.21
409.064	326.65
409.272	257.02
409.481	308.22
409.69	220.16
409.898	316.41
410.107	312.32
410.315	320.51
410.524	392.19
410.733	328.7
410.941	418.81
411.15	424.95
411.358	422.91
411.567	482.3
411.775	441.34
411.984	500.73
412.192	502.78
412.401	451.58
412.609	599.03
412.818	553.98
413.026	605.17
413.234	482.3
413.443	545.78
413.651	545.78
413.86	594.93
414.068	697.33
414.276	613.37
414.485	601.08
414.693	693.24
414.901	760.82
415.11	777.2
415.318	670.71
415.526	891.89
415.734	803.83
415.943	795.64
416.151	947.19
416.359	871.41
416.567	932.85
416.776	951.28
416.984	1002.48
417.192	1014.77
417.4	982
417.608	965.62
417.817	1162.22
418.025	1160.17
418.233	1252.33
418.441	1258.48
418.649	1223.66
418.857	1426.41
419.065	1364.97
419.273	1334.25
419.481	1416.17
419.689	1604.58
419.897	1571.82
420.105	1686.5
420.313	1625.06
420.521	1809.38
420.729	1770.47
420.937	1778.66
421.145	1838.05
421.353	1993.7
421.561	2071.52
421.769	2114.53
421.977	2251.74
422.185	2192.35
422.393	2337.76
422.601	2434.01
422.809	2374.62
423.017	2384.86
423.224	2532.31
423.432	2669.53
423.64	2608.09
423.848	3011.54
424.056	2784.21
424.263	3023.83
424.471	2991.06
424.679	3079.12
424.887	3345.36
425.094	3365.84
425.302	3365.84
425.51	3558.35
425.718	3587.02
425.925	3734.47
426.133	4051.91
426.341	4119.49
426.548	4299.71
426.756	4211.65
426.964	4314.05
427.171	4479.93
427.379	4619.19
427.586	4621.24
427.794	4826.04
428.001	5163.95
428.209	5282.74
428.417	5039.03
428.624	5407.66
428.832	5440.43
429.039	5536.68
429.247	5559.21
429.454	6026.15
429.662	6507.42
429.869	6020
430.076	6482.85
430.284	6366.11
430.491	6601.63
430.699	6935.45
430.906	6912.92
431.114	6955.93
431.321	7136.15
431.528	7461.77
431.736	7889.8
431.943	8270.72
432.15	7902.09
432.358	8143.75
432.565	8461.18
432.772	8313.73
432.979	8803.19
433.187	9020.28
433.394	9118.58
433.601	9837.42
433.808	9753.45
434.016	9522.03
434.223	10083.17
434.43	10683.23
434.637	10410.85
434.844	11107.16
435.052	11289.43
435.259	11279.19
435.466	11467.6
435.673	11080.53
435.88	12163.91
436.087	12745.53
436.294	12702.53
436.501	12337.99
436.708	12577.6
436.915	12970.81
437.122	13581.1
437.329	13392.69
437.537	13933.36
437.743	14179.11
437.95	13994.79
438.157	14711.58
438.364	15340.31
438.571	14863.13
438.778	15575.83
438.985	16749.31
439.192	15887.12
439.399	16517.89
439.606	16442.12
439.813	17128.19
440.02	17939.18
440.227	17603.32
440.433	17674.99
440.64	18010.86
440.847	17847.02
441.054	18311.91
441.261	19712.72
441.467	19262.17
441.674	19593.94
441.881	20173.52
442.088	20566.73
442.294	19935.95
442.501	20720.32
442.708	21314.23
442.914	22047.41
443.121	23005.86
443.328	22215.34
443.534	23988.88
443.741	23206.56
443.948	22989.47
444.154	24906.37
444.361	24349.32
444.568	24720.01
444.774	24478.35
444.981	25008.77
445.187	25430.65
445.394	26681.96
445.6	26452.59
445.807	28895.82
446.013	27294.3
446.22	28324.43
446.426	29127.24
446.633	29440.57
446.839	30280.24
447.046	28926.53
447.252	30431.79
447.459	30827.05
447.665	30376.5
447.871	32100.89
448.078	33137.16
448.284	32002.58
448.491	32533.01
448.697	33808.89
448.903	34306.55
449.11	34621.94
449.316	33970.68
449.522	34556.4
449.728	35510.75
449.935	35930.59
450.141	35607.01
450.347	36293.08
450.553	35641.82
450.76	35951.07
450.966	37042.63
451.172	36678.1
451.378	37405.13
451.584	36878.8
451.791	37671.36
451.997	37413.32
452.203	38003.13
452.409	38201.79
452.615	37755.33
452.821	36641.23
453.027	35934.68
453.233	38001.08
453.44	36645.33
453.646	37093.83
453.852	37065.16
454.058	37646.79
454.264	36153.82
454.47	37216.71
454.676	36254.17
454.882	37556.67
455.088	34386.42
455.294	34918.89
455.5	35508.71
455.705	35516.9
455.911	34146.81
456.117	33561.09
456.323	33151.49
456.529	31250.98
456.735	32619.02
456.941	31640.09
457.147	31261.22
457.352	30462.51
457.558	29983.29
457.764	30102.07
457.97	29571.64
458.176	28842.57
458.381	28809.8
458.587	27605.59
458.793	27232.86
458.999	25670.26
459.204	27732.57
459.41	27097.7
459.616	24961.67
459.821	25436.8
460.027	25168.51
460.233	24828.55
460.438	23521.95
460.644	23558.81
460.85	22481.58
461.055	22430.38
461.261	22028.98
461.466	20509.38
461.672	19720.92
461.878	21496.5
462.083	19927.76
462.289	19284.7
462.494	19196.64
462.7	18326.25
462.905	17734.39
463.111	18485.99
463.316	18606.82
463.522	18152.17
463.727	18143.98
463.932	18203.37
464.138	17951.47
464.343	17799.92
464.549	17449.72
464.754	18119.4
464.959	17650.42
465.165	17959.66
465.37	17132.28
465.575	16444.17
465.781	17134.33
465.986	17484.53
466.191	16581.38
466.397	16442.12
466.602	15285.01
466.807	16100.11
467.012	15778.58
