Data from USB4F104151__54__14-30-02-231.txt Node

Date: Thu Mar 13 14:30:02 EDT 2025
User: louis
Spectrometer: USB4F10415
Trigger mode: 4
Integration Time (sec): 2.500000E-2
Scans to average: 1
Electric dark correction enabled: true
Nonlinearity correction enabled: false
Boxcar width: 0
XAxis mode: Wavelengths
Number of Pixels in Spectrum: 3648
>>>>>Begin Spectral Data<<<<<
178.204	-129.88
178.424	-129.88
178.644	-129.88
178.864	-129.88
179.084	-136.02
179.304	-15.19
179.524	60.59
179.744	-13.14
179.964	38.06
180.184	-11.09
180.404	-41.81
180.624	-31.57
180.844	103.59
181.064	31.91
181.283	9.39
181.503	-64.34
181.723	-66.39
181.943	13.48
182.163	76.97
182.383	36.01
182.602	5.29
182.822	7.34
183.042	11.43
183.262	-41.81
183.482	1.19
183.701	-39.76
183.921	79.02
184.141	33.96
184.361	89.26
184.58	50.35
184.8	23.72
185.02	54.44
185.239	79.02
185.459	62.63
185.679	5.29
185.898	-35.67
186.118	79.02
186.338	-39.76
186.557	21.67
186.777	-43.86
186.997	15.53
187.216	33.96
187.436	48.3
187.655	62.63
187.875	7.34
188.095	62.63
188.314	99.5
188.534	89.26
188.753	-4.95
188.973	23.72
189.192	56.49
189.412	-39.76
189.631	62.63
189.851	29.87
190.07	58.54
190.29	5.29
190.509	-25.43
190.729	38.06
190.948	74.92
191.168	111.78
191.387	91.31
191.607	-25.43
191.826	25.77
192.045	46.25
192.265	-56.15
192.484	25.77
192.704	58.54
192.923	13.48
193.142	115.88
193.362	95.4
193.581	-17.24
193.8	44.2
194.02	17.58
194.239	95.4
194.458	66.73
194.678	5.29
194.897	-9.05
195.116	-0.85
195.335	21.67
195.555	-4.95
195.774	15.53
195.993	56.49
196.212	-35.67
196.432	-2.9
196.651	38.06
196.87	29.87
197.089	62.63
197.308	42.15
197.528	44.2
197.747	-37.72
197.966	-27.48
198.185	13.48
198.404	31.91
198.623	1.19
198.842	31.91
199.062	81.07
199.281	70.83
199.5	21.67
199.719	-25.43
199.938	25.77
200.157	89.26
200.376	-0.85
200.595	72.87
200.814	9.39
201.033	-27.48
201.252	-0.85
201.471	31.91
201.69	122.02
201.909	72.87
202.128	50.35
202.347	31.91
202.566	40.11
202.785	-33.62
203.004	-29.52
203.223	56.49
203.442	31.91
203.661	23.72
203.879	62.63
204.098	56.49
204.317	-60.24
204.536	40.11
204.755	19.63
204.974	62.63
205.193	33.96
205.411	52.39
205.63	25.77
205.849	62.63
206.068	38.06
206.287	46.25
206.505	115.88
206.724	-21.33
206.943	-33.62
207.162	-9.05
207.381	21.67
207.599	29.87
207.818	5.29
208.037	3.24
208.255	-0.85
208.474	21.67
208.693	-41.81
208.911	31.91
209.13	42.15
209.349	58.54
209.567	-2.9
209.786	19.63
210.005	79.02
210.223	11.43
210.442	-19.29
210.661	9.39
210.879	-52.05
211.098	-4.95
211.316	-31.57
211.535	-27.48
211.753	54.44
211.972	81.07
212.191	29.87
212.409	56.49
212.628	79.02
212.846	1.19
213.065	70.83
213.283	23.72
213.502	87.21
213.72	95.4
213.938	-2.9
214.157	9.39
214.375	5.29
214.594	19.63
214.812	48.3
215.031	7.34
215.249	23.72
215.467	27.82
215.686	74.92
215.904	60.59
216.122	-0.85
216.341	5.29
216.559	56.49
216.778	50.35
216.996	62.63
217.214	-27.48
217.432	21.67
217.651	38.06
217.869	29.87
218.087	27.82
218.306	-62.29
218.524	70.83
218.742	-2.9
218.96	156.84
219.179	-2.9
219.397	46.25
219.615	56.49
219.833	13.48
220.051	-25.43
220.27	52.39
220.488	46.25
220.706	93.35
220.924	5.29
221.142	23.72
221.36	-47.96
221.578	50.35
221.796	25.77
222.015	-23.38
222.233	-35.67
222.451	115.88
222.669	-11.09
222.887	-9.05
223.105	-17.24
223.323	-2.9
223.541	17.58
223.759	97.45
223.977	48.3
224.195	-9.05
224.413	62.63
224.631	52.39
224.849	-19.29
225.067	81.07
225.285	54.44
225.503	-60.24
225.721	13.48
225.939	74.92
226.157	95.4
226.375	54.44
226.592	7.34
226.81	-2.9
227.028	103.59
227.246	109.74
227.464	17.58
227.682	25.77
227.9	31.91
228.117	42.15
228.335	31.91
228.553	87.21
228.771	21.67
228.989	36.01
229.206	109.74
229.424	-47.96
229.642	19.63
229.86	5.29
230.077	113.83
230.295	83.11
230.513	109.74
230.731	21.67
230.948	62.63
231.166	66.73
231.384	54.44
231.601	-45.91
231.819	64.68
232.037	64.68
232.254	-25.43
232.472	52.39
232.689	-74.58
232.907	-15.19
233.125	29.87
233.342	7.34
233.56	-23.38
233.777	13.48
233.995	5.29
234.213	79.02
234.43	56.49
234.648	1.19
234.865	-39.76
235.083	85.16
235.3	31.91
235.518	-2.9
235.735	40.11
235.953	89.26
236.17	95.4
236.388	-0.85
236.605	7.34
236.822	38.06
237.04	-27.48
237.257	62.63
237.475	-52.05
237.692	13.48
237.909	-4.95
238.127	46.25
238.344	76.97
238.562	-31.57
238.779	-11.09
238.996	40.11
239.214	42.15
239.431	5.29
239.648	15.53
239.865	46.25
240.083	50.35
240.3	-0.85
240.517	58.54
240.735	-11.09
240.952	52.39
241.169	89.26
241.386	5.29
241.603	-7
241.821	31.91
242.038	36.01
242.255	-17.24
242.472	66.73
242.689	33.96
242.907	31.91
243.124	42.15
243.341	40.11
243.558	-11.09
243.775	-29.52
243.992	64.68
244.209	33.96
244.426	103.59
244.643	3.24
244.86	13.48
245.078	31.91
245.295	-7
245.512	25.77
245.729	29.87
245.946	50.35
246.163	66.73
246.38	72.87
246.597	17.58
246.814	79.02
247.031	46.25
247.248	-2.9
247.464	25.77
247.681	38.06
247.898	19.63
248.115	23.72
248.332	-35.67
248.549	66.73
248.766	95.4
248.983	50.35
249.2	-11.09
249.417	-7
249.633	25.77
249.85	27.82
250.067	-31.57
250.284	7.34
250.501	97.45
250.717	31.91
250.934	31.91
251.151	40.11
251.368	48.3
251.585	33.96
251.801	21.67
252.018	-2.9
252.235	117.93
252.451	38.06
252.668	27.82
252.885	13.48
253.102	-13.14
253.318	54.44
253.535	21.67
253.752	-39.76
253.968	-64.34
254.185	-17.24
254.401	5.29
254.618	-0.85
254.835	15.53
255.051	46.25
255.268	36.01
255.484	31.91
255.701	40.11
255.917	11.43
256.134	48.3
256.351	-7
256.567	-19.29
256.784	21.67
257	5.29
257.217	89.26
257.433	97.45
257.65	13.48
257.866	66.73
258.082	-39.76
258.299	42.15
258.515	46.25
258.732	48.3
258.948	-0.85
259.165	7.34
259.381	-82.77
259.597	9.39
259.814	-35.67
260.03	50.35
260.246	25.77
260.463	23.72
260.679	68.78
260.895	56.49
261.112	83.11
261.328	29.87
261.544	33.96
261.761	105.64
261.977	38.06
262.193	-9.05
262.409	48.3
262.626	-9.05
262.842	-47.96
263.058	81.07
263.274	38.06
263.49	-23.38
263.707	-0.85
263.923	5.29
264.139	-17.24
264.355	-33.62
264.571	5.29
264.787	79.02
265.004	99.5
265.22	25.77
265.436	62.63
265.652	58.54
265.868	46.25
266.084	-66.39
266.3	-2.9
266.516	-37.72
266.732	21.67
266.948	25.77
267.164	-29.52
267.38	17.58
267.596	5.29
267.812	66.73
268.028	72.87
268.244	48.3
268.46	54.44
268.676	-35.67
268.892	68.78
269.108	-60.24
269.324	38.06
269.54	-27.48
269.756	56.49
269.972	-11.09
270.188	95.4
270.403	-21.33
270.619	46.25
270.835	99.5
271.051	7.34
271.267	27.82
271.483	9.39
271.698	136.36
271.914	29.87
272.13	60.59
272.346	25.77
272.562	25.77
272.777	136.36
272.993	7.34
273.209	-0.85
273.425	-7
273.64	-25.43
273.856	76.97
274.072	1.19
274.287	36.01
274.503	50.35
274.719	87.21
274.934	42.15
275.15	-15.19
275.366	38.06
275.581	13.48
275.797	89.26
276.012	13.48
276.228	91.31
276.444	21.67
276.659	46.25
276.875	1.19
277.09	17.58
277.306	15.53
277.521	23.72
277.737	13.48
277.952	58.54
278.168	-27.48
278.383	-21.33
278.599	-2.9
278.814	95.4
279.03	54.44
279.245	107.69
279.461	13.48
279.676	62.63
279.892	-43.86
280.107	-21.33
280.322	-43.86
280.538	56.49
280.753	15.53
280.969	-17.24
281.184	29.87
281.399	48.3
281.615	70.83
281.83	-4.95
282.045	36.01
282.26	79.02
282.476	76.97
282.691	58.54
282.906	103.59
283.122	62.63
283.337	70.83
283.552	19.63
283.767	-11.09
283.983	70.83
284.198	56.49
284.413	33.96
284.628	-2.9
284.843	13.48
285.058	68.78
285.274	17.58
285.489	64.68
285.704	46.25
285.919	-23.38
286.134	27.82
286.349	31.91
286.564	5.29
286.779	97.45
286.995	62.63
287.21	-58.2
287.425	54.44
287.64	-17.24
287.855	46.25
288.07	9.39
288.285	-0.85
288.5	38.06
288.715	42.15
288.93	9.39
289.145	56.49
289.36	66.73
289.575	15.53
289.79	-4.95
290.004	17.58
290.219	76.97
290.434	-2.9
290.649	25.77
290.864	7.34
291.079	-56.15
291.294	46.25
291.509	19.63
291.724	48.3
291.938	56.49
292.153	5.29
292.368	-17.24
292.583	93.35
292.798	74.92
293.012	40.11
293.227	29.87
293.442	56.49
293.657	70.83
293.871	42.15
294.086	62.63
294.301	103.59
294.516	64.68
294.73	101.55
294.945	-35.67
295.16	-45.91
295.374	36.01
295.589	44.2
295.804	-11.09
296.018	95.4
296.233	122.02
296.447	76.97
296.662	17.58
296.877	1.19
297.091	89.26
297.306	40.11
297.52	33.96
297.735	11.43
297.949	-33.62
298.164	107.69
298.378	17.58
298.593	72.87
298.807	-19.29
299.022	46.25
299.236	-37.72
299.451	-0.85
299.665	17.58
299.88	-9.05
300.094	-7
300.309	13.48
300.523	11.43
300.737	46.25
300.952	44.2
301.166	111.78
301.381	81.07
301.595	15.53
301.809	46.25
302.024	38.06
302.238	3.24
302.452	21.67
302.667	-39.76
302.881	95.4
303.095	29.87
303.309	99.5
303.524	25.77
303.738	-60.24
303.952	19.63
304.166	42.15
304.381	-39.76
304.595	54.44
304.809	-9.05
305.023	70.83
305.237	36.01
305.452	33.96
305.666	87.21
305.88	99.5
306.094	70.83
306.308	72.87
306.522	-19.29
306.736	21.67
306.95	44.2
307.164	23.72
307.379	-13.14
307.593	46.25
307.807	17.58
308.021	38.06
308.235	58.54
308.449	17.58
308.663	-9.05
308.877	79.02
309.091	46.25
309.305	87.21
309.519	-41.81
309.733	15.53
309.947	31.91
310.161	23.72
310.374	46.25
310.588	85.16
310.802	-2.9
311.016	38.06
311.23	-9.05
311.444	38.06
311.658	21.67
311.872	95.4
312.085	68.78
312.299	23.72
312.513	54.44
312.727	15.53
312.941	81.07
313.154	27.82
313.368	46.25
313.582	17.58
313.796	17.58
314.009	-33.62
314.223	15.53
314.437	-19.29
314.651	29.87
314.864	23.72
315.078	38.06
315.292	60.59
315.505	83.11
315.719	31.91
315.933	89.26
316.146	-25.43
316.36	42.15
316.573	50.35
316.787	27.82
317.001	3.24
317.214	31.91
317.428	76.97
317.641	-2.9
317.855	48.3
318.068	40.11
318.282	54.44
318.495	60.59
318.709	29.87
318.922	-68.44
319.136	119.98
319.349	-2.9
319.563	-2.9
319.776	5.29
319.99	31.91
320.203	40.11
320.417	-23.38
320.63	-0.85
320.843	103.59
321.057	38.06
321.27	-19.29
321.483	-47.96
321.697	42.15
321.91	27.82
322.124	89.26
322.337	5.29
322.55	-23.38
322.763	52.39
322.977	7.34
323.19	5.29
323.403	-27.48
323.617	74.92
323.83	74.92
324.043	-9.05
324.256	54.44
324.469	-35.67
324.683	33.96
324.896	15.53
325.109	89.26
325.322	56.49
325.535	111.78
325.748	62.63
325.962	54.44
326.175	74.92
326.388	64.68
326.601	46.25
326.814	103.59
327.027	-33.62
327.24	64.68
327.453	9.39
327.666	-47.96
327.879	33.96
328.092	21.67
328.305	-33.62
328.518	48.3
328.731	33.96
328.944	40.11
329.157	19.63
329.37	62.63
329.583	93.35
329.796	62.63
330.009	36.01
330.222	72.87
330.435	46.25
330.648	79.02
330.861	-41.81
331.073	23.72
331.286	3.24
331.499	38.06
331.712	17.58
331.925	13.48
332.138	-19.29
332.35	117.93
332.563	27.82
332.776	124.07
332.989	21.67
333.202	79.02
333.414	27.82
333.627	-9.05
333.84	46.25
334.053	5.29
334.265	7.34
334.478	-17.24
334.691	-19.29
334.903	31.91
335.116	23.72
335.329	58.54
335.541	58.54
335.754	38.06
335.966	23.72
336.179	17.58
336.392	5.29
336.604	95.4
336.817	17.58
337.029	42.15
337.242	-11.09
337.454	1.19
337.667	89.26
337.88	87.21
338.092	23.72
338.305	-0.85
338.517	-13.14
338.729	36.01
338.942	89.26
339.154	29.87
339.367	13.48
339.579	17.58
339.792	5.29
340.004	95.4
340.217	3.24
340.429	50.35
340.641	13.48
340.854	21.67
341.066	31.91
341.278	25.77
341.491	136.36
341.703	9.39
341.915	66.73
342.128	87.21
342.34	21.67
342.552	76.97
342.764	62.63
342.977	25.77
343.189	48.3
343.401	46.25
343.613	42.15
343.826	97.45
344.038	46.25
344.25	23.72
344.462	7.34
344.674	74.92
344.886	-19.29
345.099	62.63
345.311	36.01
345.523	46.25
345.735	-4.95
345.947	5.29
346.159	70.83
346.371	66.73
346.583	9.39
346.795	83.11
347.007	70.83
347.219	87.21
347.431	40.11
347.643	169.13
347.855	-11.09
348.067	95.4
348.279	33.96
348.491	74.92
348.703	93.35
348.915	72.87
349.127	-21.33
349.339	95.4
349.551	13.48
349.763	124.07
349.975	23.72
350.187	38.06
350.399	66.73
350.61	56.49
350.822	-2.9
351.034	29.87
351.246	72.87
351.458	-33.62
351.669	56.49
351.881	160.94
352.093	66.73
352.305	72.87
352.517	56.49
352.728	122.02
352.94	107.69
353.152	38.06
353.363	-11.09
353.575	5.29
353.787	11.43
353.999	33.96
354.21	95.4
354.422	-35.67
354.633	21.67
354.845	27.82
355.057	64.68
355.268	40.11
355.48	81.07
355.692	-2.9
355.903	-27.48
356.115	87.21
356.326	-39.76
356.538	97.45
356.749	-31.57
356.961	64.68
357.172	44.2
357.384	21.67
357.595	154.79
357.807	58.54
358.018	17.58
358.23	-35.67
358.441	177.32
358.653	46.25
358.864	21.67
359.075	38.06
359.287	70.83
359.498	46.25
359.709	136.36
359.921	138.41
360.132	46.25
360.344	62.63
360.555	54.44
360.766	66.73
360.977	25.77
361.189	33.96
361.4	-7
361.611	66.73
361.823	83.11
362.034	40.11
362.245	13.48
362.456	81.07
362.667	-66.39
362.879	83.11
363.09	23.72
363.301	50.35
363.512	-41.81
363.723	62.63
363.935	74.92
364.146	38.06
364.357	68.78
364.568	-2.9
364.779	29.87
364.99	70.83
365.201	89.26
365.412	72.87
365.623	-33.62
365.834	29.87
366.045	58.54
366.256	1.19
366.467	79.02
366.678	42.15
366.889	38.06
367.1	81.07
367.311	23.72
367.522	46.25
367.733	87.21
367.944	74.92
368.155	15.53
368.366	79.02
368.577	46.25
368.788	126.12
368.999	-2.9
369.209	40.11
369.42	89.26
369.631	81.07
369.842	38.06
370.053	60.59
370.264	66.73
370.474	81.07
370.685	62.63
370.896	119.98
371.107	33.96
371.317	23.72
371.528	33.96
371.739	60.59
371.95	95.4
372.16	-11.09
372.371	-41.81
372.582	91.31
372.792	74.92
373.003	97.45
373.214	7.34
373.424	101.55
373.635	-2.9
373.846	70.83
374.056	103.59
374.267	56.49
374.477	-7
374.688	50.35
374.898	23.72
375.109	27.82
375.319	50.35
375.53	56.49
375.74	25.77
375.951	-15.19
376.161	46.25
376.372	21.67
376.582	33.96
376.793	113.83
377.003	97.45
377.214	5.29
377.424	52.39
377.635	40.11
377.845	79.02
378.055	70.83
378.266	-43.86
378.476	146.6
378.686	-23.38
378.897	-9.05
379.107	29.87
379.317	5.29
379.528	38.06
379.738	38.06
379.948	29.87
380.158	81.07
380.369	70.83
380.579	13.48
380.789	52.39
380.999	70.83
381.21	-25.43
381.42	128.17
381.63	-21.33
381.84	113.83
382.05	33.96
382.261	66.73
382.471	89.26
382.681	-2.9
382.891	99.5
383.101	54.44
383.311	13.48
383.521	40.11
383.731	58.54
383.941	79.02
384.151	29.87
384.361	5.29
384.571	79.02
384.781	99.5
384.991	97.45
385.201	119.98
385.411	109.74
385.621	54.44
385.831	46.25
386.041	91.31
386.251	38.06
386.461	72.87
386.671	29.87
386.881	54.44
387.091	50.35
387.301	79.02
387.511	54.44
387.72	54.44
387.93	154.79
388.14	50.35
388.35	46.25
388.56	103.59
388.769	144.55
388.979	66.73
389.189	60.59
389.399	40.11
389.609	70.83
389.818	58.54
390.028	66.73
390.238	42.15
390.447	66.73
390.657	-31.57
390.867	74.92
391.076	25.77
391.286	70.83
391.496	89.26
391.705	33.96
391.915	95.4
392.125	95.4
392.334	7.34
392.544	38.06
392.753	31.91
392.963	54.44
393.172	91.31
393.382	64.68
393.591	140.46
393.801	87.21
394.01	122.02
394.22	50.35
394.429	74.92
394.639	74.92
394.848	128.17
395.058	93.35
395.267	105.64
395.477	70.83
395.686	74.92
395.895	167.08
396.105	138.41
396.314	50.35
396.524	89.26
396.733	54.44
396.942	119.98
397.152	79.02
397.361	152.74
397.57	111.78
397.78	56.49
397.989	48.3
398.198	119.98
398.407	42.15
398.617	138.41
398.826	132.26
399.035	89.26
399.244	128.17
399.453	97.45
399.663	33.96
399.872	128.17
400.081	66.73
400.29	181.42
400.499	95.4
400.708	132.26
400.917	40.11
401.127	160.94
401.336	169.13
401.545	244.9
401.754	171.18
401.963	165.03
402.172	144.55
402.381	56.49
402.59	87.21
402.799	201.9
403.008	101.55
403.217	160.94
403.426	146.6
403.635	81.07
403.844	160.94
404.053	111.78
404.262	160.94
404.471	181.42
404.68	119.98
404.888	152.74
405.097	251.05
405.306	169.13
405.515	238.76
405.724	218.28
405.933	185.51
406.142	119.98
406.35	236.71
406.559	162.98
406.768	267.43
406.977	283.81
407.185	218.28
407.394	220.33
407.603	238.76
407.812	242.85
408.02	341.16
408.229	263.33
408.438	246.95
408.646	253.09
408.855	310.44
409.064	308.39
409.272	251.05
409.481	298.15
409.69	373.92
409.898	275.62
410.107	326.82
410.315	384.16
410.524	357.54
410.733	382.12
410.941	418.98
411.15	418.98
411.358	416.93
411.567	605.35
411.775	418.98
411.984	548
412.192	455.84
412.401	513.19
412.609	533.67
412.818	619.68
413.026	636.06
413.234	574.63
413.443	548
413.651	588.96
413.86	652.45
414.068	713.89
414.276	787.61
414.485	720.03
414.693	826.53
414.901	922.78
415.11	990.36
415.318	726.18
415.526	840.86
415.734	933.02
415.943	865.44
416.151	1000.6
416.359	957.6
416.567	1014.94
416.776	1055.9
416.984	1096.86
417.192	1121.43
417.4	1176.73
417.608	1209.5
417.817	1193.11
418.025	1260.7
418.233	1465.49
418.441	1369.24
418.649	1465.49
418.857	1494.16
419.065	1520.79
419.273	1463.44
419.481	1545.36
419.689	1629.33
419.897	1799.31
420.105	1752.21
420.313	1907.85
420.521	1817.74
420.729	1973.39
420.937	1922.19
421.145	2122.89
421.353	2221.19
421.561	2278.54
421.769	2391.17
421.977	2374.79
422.185	2512
422.393	2536.58
422.601	2692.23
422.809	2710.66
423.017	2645.12
423.224	2858.11
423.432	2901.12
423.64	2915.45
423.848	3257.46
424.056	3032.19
424.263	3376.25
424.471	3318.9
424.679	3505.27
424.887	3560.56
425.094	3644.53
425.302	3742.83
425.51	3939.44
425.718	3914.86
425.925	4056.17
426.133	4125.8
426.341	4383.85
426.548	4578.4
426.756	4641.89
426.964	4627.56
427.171	4942.94
427.379	5098.59
427.586	4975.71
427.794	5176.41
428.001	5565.53
428.209	5676.12
428.417	5829.71
428.624	6036.56
428.832	5987.41
429.039	6057.04
429.247	6224.97
429.454	6747.2
429.662	6984.77
429.869	6620.23
430.076	7189.56
430.284	6687.81
430.491	7162.94
430.699	7531.58
430.906	7576.63
431.114	7705.65
431.321	7904.31
431.528	7988.27
431.736	8567.85
431.943	8909.86
432.15	8713.25
432.358	8934.43
432.565	9296.92
432.772	9282.59
432.979	9600.02
433.187	10122.26
433.394	9913.36
433.601	10681.35
433.808	10568.71
434.016	10724.36
434.223	11125.76
434.43	11748.34
434.637	11344.89
434.844	12264.43
435.052	12534.76
435.259	12239.86
435.466	12448.75
435.673	12323.82
435.88	13136.87
436.087	13669.34
436.294	13734.87
436.501	13431.77
436.708	13689.82
436.915	14201.81
437.122	14640.08
437.329	14515.15
437.537	15371.2
437.743	15512.51
437.95	15219.65
438.157	16053.17
438.364	16667.56
438.571	16634.8
438.778	16602.03
438.985	18264.98
439.192	17585.05
439.399	18101.14
439.606	17730.46
439.813	18557.84
440.02	19966.84
440.227	19479.43
440.433	19475.33
440.64	19712.89
440.847	19655.55
441.054	20323.19
441.261	21416.8
441.467	20865.9
441.674	21547.87
441.881	22588.24
442.088	22135.64
442.294	22303.57
442.501	22600.53
442.708	23087.95
442.914	23710.53
443.121	24652.59
443.328	24570.68
443.534	25957.15
443.741	25389.86
443.948	24994.61
444.154	26940.18
444.361	26346.26
444.568	27132.68
444.774	26737.43
444.981	27317
445.187	27972.35
445.394	29131.5
445.6	28472.06
445.807	31453.9
446.013	29948.64
446.22	30388.95
446.426	31828.68
446.633	32293.57
446.839	33321.65
447.046	31865.54
447.252	33325.74
447.459	33508.01
447.665	33176.24
447.871	34505.37
448.078	36127.36
448.284	34675.35
448.491	35799.69
448.697	37046.9
448.903	37403.25
449.11	37773.93
449.316	36909.69
449.522	37708.4
449.728	38652.51
449.935	38781.53
450.141	39184.98
450.347	39580.24
450.553	38578.78
450.76	39197.27
450.966	40313.41
451.172	39883.34
451.378	41165.37
451.584	40043.08
451.791	40890.94
451.997	41200.18
452.203	41841.2
452.409	41622.06
452.615	41280.05
452.821	39914.06
453.027	39406.16
453.233	41497.14
453.44	39668.3
453.646	40510.02
453.852	40354.37
454.058	41175.61
454.264	39701.07
454.47	40690.24
454.676	39465.55
454.882	41134.65
455.088	37601.9
455.294	38058.6
455.5	38257.25
455.705	39086.68
455.911	37114.48
456.117	36741.75
456.323	36004.49
456.529	34339.49
456.735	35379.85
456.941	34998.93
457.147	34144.93
457.352	33356.46
457.558	32819.89
457.764	32932.53
457.97	32152.26
458.176	31271.63
458.381	31785.67
458.587	29895.39
458.793	30069.47
458.999	28406.52
459.204	30395.1
459.41	29754.08
459.616	27585.29
459.821	27675.4
460.027	27400.97
460.233	26911.5
460.438	25439.01
460.644	25654.05
460.85	24542
461.055	24441.65
461.261	24097.59
461.466	22281.05
461.672	21621.6
461.878	22993.74
462.083	21850.97
462.289	21154.66
462.494	21099.37
462.7	20208.5
462.905	19536.77
463.111	20274.04
463.316	20267.89
463.522	19766.14
463.727	19921.79
463.932	19737.47
464.138	19475.33
464.343	19434.37
464.549	19018.63
464.754	19659.65
464.959	19348.36
465.165	19549.06
465.37	18578.32
465.575	18125.72
465.781	18942.86
465.986	18834.32
466.191	18199.44
466.397	17755.04
466.602	16982.95
466.807	17587.1
467.012	17576.86
467.218	17263.52
467.423	17163.17
