Data from USB4F104151__137__14-31-46-451.txt Node

Date: Thu Mar 13 14:31:46 EDT 2025
User: louis
Spectrometer: USB4F10415
Trigger mode: 4
Integration Time (sec): 2.500000E-2
Scans to average: 1
Electric dark correction enabled: true
Nonlinearity correction enabled: false
Boxcar width: 0
XAxis mode: Wavelengths
Number of Pixels in Spectrum: 3648
>>>>>Begin Spectral Data<<<<<
178.204	-164.86
178.424	-164.86
178.644	-164.86
178.864	-128
179.084	-164.86
179.304	-39.94
179.524	-29.7
179.744	-13.31
179.964	3.07
180.184	39.94
180.404	-54.27
180.624	27.65
180.844	-68.61
181.064	-5.12
181.283	44.03
181.503	11.26
181.723	84.99
181.943	-50.18
182.163	80.89
182.383	11.26
182.602	19.46
182.822	80.89
183.042	87.04
183.262	-21.5
183.482	5.12
183.701	3.07
183.921	46.08
184.141	-11.26
184.361	60.42
184.58	52.22
184.8	78.85
185.02	31.74
185.239	19.46
185.459	3.07
185.679	70.65
185.898	27.65
186.118	76.8
186.338	44.03
186.557	72.7
186.777	-19.46
186.997	-44.03
187.216	-31.74
187.436	46.08
187.655	25.6
187.875	84.99
188.095	-1.02
188.314	136.19
188.534	52.22
188.753	-19.46
188.973	46.08
189.192	-46.08
189.412	27.65
189.631	78.85
189.851	-11.26
190.07	-11.26
190.29	-37.89
190.509	5.12
190.729	23.55
190.948	23.55
191.168	189.44
191.387	125.95
191.607	-11.26
191.826	39.94
192.045	54.27
192.265	35.84
192.484	48.13
192.704	64.51
192.923	19.46
193.142	146.43
193.362	44.03
193.581	76.8
193.8	109.57
194.02	109.57
194.239	56.32
194.458	21.5
194.678	35.84
194.897	54.27
195.116	29.7
195.335	60.42
195.555	39.94
195.774	37.89
195.993	44.03
196.212	15.36
196.432	103.42
196.651	-13.31
196.87	19.46
197.089	105.47
197.308	-7.17
197.528	76.8
197.747	-84.99
197.966	46.08
198.185	15.36
198.404	-44.03
198.623	44.03
198.842	136.19
199.062	134.14
199.281	70.65
199.5	27.65
199.719	39.94
199.938	33.79
200.157	82.94
200.376	11.26
200.595	56.32
200.814	29.7
201.033	125.95
201.252	-1.02
201.471	78.85
201.69	134.14
201.909	62.46
202.128	15.36
202.347	35.84
202.566	80.89
202.785	-11.26
203.004	-17.41
203.223	103.42
203.442	-5.12
203.661	21.5
203.879	52.22
204.098	56.32
204.317	23.55
204.536	-31.74
204.755	27.65
204.974	15.36
205.193	91.13
205.411	103.42
205.63	50.18
205.849	-31.74
206.068	3.07
206.287	3.07
206.505	48.13
206.724	35.84
206.943	66.56
207.162	-11.26
207.381	66.56
207.599	19.46
207.818	11.26
208.037	44.03
208.255	-54.27
208.474	41.98
208.693	11.26
208.911	-11.26
209.13	-3.07
209.349	84.99
209.567	44.03
209.786	-13.31
210.005	54.27
210.223	-60.42
210.442	50.18
210.661	111.61
210.879	72.7
211.098	46.08
211.316	11.26
211.535	76.8
211.753	68.61
211.972	84.99
212.191	-27.65
212.409	3.07
212.628	93.18
212.846	-17.41
213.065	50.18
213.283	103.42
213.502	-13.31
213.72	103.42
213.938	-21.5
214.157	-17.41
214.375	37.89
214.594	11.26
214.812	21.5
215.031	44.03
215.249	13.31
215.467	-11.26
215.686	64.51
215.904	93.18
216.122	-3.07
216.341	68.61
216.559	46.08
216.778	48.13
216.996	46.08
217.214	-1.02
217.432	5.12
217.651	15.36
217.869	46.08
218.087	-54.27
218.306	3.07
218.524	68.61
218.742	33.79
218.96	21.5
219.179	58.37
219.397	-9.22
219.615	87.04
219.833	95.23
220.051	54.27
220.27	31.74
220.488	62.46
220.706	35.84
220.924	23.55
221.142	37.89
221.36	-5.12
221.578	35.84
221.796	84.99
222.015	3.07
222.233	5.12
222.451	111.61
222.669	-25.6
222.887	60.42
223.105	-1.02
223.323	91.13
223.541	29.7
223.759	72.7
223.977	58.37
224.195	128
224.413	-15.36
224.631	17.41
224.849	44.03
225.067	17.41
225.285	-25.6
225.503	-13.31
225.721	3.07
225.939	52.22
226.157	44.03
226.375	101.37
226.592	-37.89
226.81	31.74
227.028	52.22
227.246	27.65
227.464	48.13
227.682	78.85
227.9	68.61
228.117	56.32
228.335	27.65
228.553	60.42
228.771	19.46
228.989	-27.65
229.206	-13.31
229.424	-3.07
229.642	-13.31
229.86	35.84
230.077	35.84
230.295	41.98
230.513	60.42
230.731	48.13
230.948	84.99
231.166	84.99
231.384	5.12
231.601	-27.65
231.819	54.27
232.037	5.12
232.254	-19.46
232.472	-44.03
232.689	5.12
232.907	101.37
233.125	19.46
233.342	-37.89
233.56	11.26
233.777	-23.55
233.995	37.89
234.213	66.56
234.43	31.74
234.648	-5.12
234.865	68.61
235.083	19.46
235.3	1.02
235.518	7.17
235.735	84.99
235.953	105.47
236.17	-41.98
236.388	80.89
236.605	41.98
236.822	84.99
237.04	60.42
237.257	-15.36
237.475	1.02
237.692	66.56
237.909	72.7
238.127	5.12
238.344	39.94
238.562	62.46
238.779	-21.5
238.996	-5.12
239.214	62.46
239.431	15.36
239.648	-99.33
239.865	-5.12
240.083	31.74
240.3	37.89
240.517	-5.12
240.735	78.85
240.952	5.12
241.169	3.07
241.386	-54.27
241.603	68.61
241.821	-60.42
242.038	101.37
242.255	87.04
242.472	62.46
242.689	-50.18
242.907	52.22
243.124	68.61
243.341	56.32
243.558	11.26
243.775	-29.7
243.992	-37.89
244.209	31.74
244.426	154.62
244.643	33.79
244.86	-9.22
245.078	1.02
245.295	31.74
245.512	-5.12
245.729	66.56
245.946	128
246.163	50.18
246.38	60.42
246.597	52.22
246.814	19.46
247.031	29.7
247.248	52.22
247.464	41.98
247.681	11.26
247.898	39.94
248.115	117.76
248.332	-37.89
248.549	11.26
248.766	103.42
248.983	44.03
249.2	-13.31
249.417	109.57
249.633	-3.07
249.85	15.36
250.067	89.09
250.284	19.46
250.501	84.99
250.717	66.56
250.934	11.26
251.151	72.7
251.368	44.03
251.585	21.5
251.801	62.46
252.018	78.85
252.235	29.7
252.451	-13.31
252.668	44.03
252.885	76.8
253.102	33.79
253.318	58.37
253.535	35.84
253.752	-19.46
253.968	21.5
254.185	-103.42
254.401	27.65
254.618	62.46
254.835	-7.17
255.051	89.09
255.268	52.22
255.484	7.17
255.701	23.55
255.917	64.51
256.134	-19.46
256.351	39.94
256.567	-56.32
256.784	44.03
257	-33.79
257.217	134.14
257.433	97.28
257.65	68.61
257.866	58.37
258.082	-9.22
258.299	19.46
258.515	3.07
258.732	64.51
258.948	11.26
259.165	37.89
259.381	56.32
259.597	35.84
259.814	72.7
260.03	-23.55
260.246	9.22
260.463	11.26
260.679	-37.89
260.895	44.03
261.112	68.61
261.328	68.61
261.544	-39.94
261.761	125.95
261.977	9.22
262.193	-58.37
262.409	1.02
262.626	76.8
262.842	44.03
263.058	37.89
263.274	72.7
263.49	48.13
263.707	39.94
263.923	52.22
264.139	-5.12
264.355	117.76
264.571	35.84
264.787	-17.41
265.004	19.46
265.22	62.46
265.436	-19.46
265.652	-19.46
265.868	15.36
266.084	33.79
266.3	52.22
266.516	17.41
266.732	78.85
266.948	115.71
267.164	37.89
267.38	5.12
267.596	31.74
267.812	50.18
268.028	41.98
268.244	15.36
268.46	31.74
268.676	29.7
268.892	66.56
269.108	17.41
269.324	29.7
269.54	25.6
269.756	27.65
269.972	-5.12
270.188	25.6
270.403	-9.22
270.619	52.22
270.835	-5.12
271.051	78.85
271.267	19.46
271.483	23.55
271.698	136.19
271.914	93.18
272.13	37.89
272.346	48.13
272.562	21.5
272.777	74.75
272.993	29.7
273.209	-23.55
273.425	101.37
273.64	31.74
273.856	1.02
274.072	31.74
274.287	-29.7
274.503	7.17
274.719	29.7
274.934	48.13
275.15	-29.7
275.366	21.5
275.581	-33.79
275.797	27.65
276.012	-13.31
276.228	13.31
276.444	-3.07
276.659	121.85
276.875	-9.22
277.09	62.46
277.306	33.79
277.521	64.51
277.737	-13.31
277.952	64.51
278.168	33.79
278.383	11.26
278.599	66.56
278.814	146.43
279.03	3.07
279.245	44.03
279.461	46.08
279.676	44.03
279.892	15.36
280.107	48.13
280.322	-5.12
280.538	35.84
280.753	89.09
280.969	-46.08
281.184	76.8
281.399	105.47
281.615	46.08
281.83	13.31
282.045	-9.22
282.26	78.85
282.476	41.98
282.691	35.84
282.906	19.46
283.122	21.5
283.337	52.22
283.552	11.26
283.767	21.5
283.983	76.8
284.198	-60.42
284.413	13.31
284.628	-25.6
284.843	46.08
285.058	23.55
285.274	41.98
285.489	68.61
285.704	62.46
285.919	15.36
286.134	68.61
286.349	27.65
286.564	35.84
286.779	48.13
286.995	7.17
287.21	-5.12
287.425	62.46
287.64	5.12
287.855	11.26
288.07	11.26
288.285	7.17
288.5	62.46
288.715	138.24
288.93	68.61
289.145	-25.6
289.36	68.61
289.575	7.17
289.79	52.22
290.004	-27.65
290.219	107.52
290.434	60.42
290.649	52.22
290.864	-27.65
291.079	-66.56
291.294	125.95
291.509	11.26
291.724	54.27
291.938	15.36
292.153	13.31
292.368	76.8
292.583	27.65
292.798	82.94
293.012	7.17
293.227	31.74
293.442	13.31
293.657	19.46
293.871	142.33
294.086	74.75
294.301	56.32
294.516	54.27
294.73	19.46
294.945	39.94
295.16	84.99
295.374	27.65
295.589	109.57
295.804	35.84
296.018	-9.22
296.233	29.7
296.447	41.98
296.662	15.36
296.877	56.32
297.091	19.46
297.306	-13.31
297.52	-3.07
297.735	13.31
297.949	109.57
298.164	80.89
298.378	37.89
298.593	48.13
298.807	33.79
299.022	15.36
299.236	19.46
299.451	93.18
299.665	-5.12
299.88	-3.07
300.094	9.22
300.309	35.84
300.523	52.22
300.737	13.31
300.952	52.22
301.166	23.55
301.381	-37.89
301.595	27.65
301.809	109.57
302.024	44.03
302.238	39.94
302.452	91.13
302.667	80.89
302.881	13.31
303.095	-27.65
303.309	52.22
303.524	-21.5
303.738	52.22
303.952	-52.22
304.166	60.42
304.381	15.36
304.595	72.7
304.809	76.8
305.023	70.65
305.237	3.07
305.452	35.84
305.666	97.28
305.88	68.61
306.094	35.84
306.308	72.7
306.522	117.76
306.736	52.22
306.95	56.32
307.164	35.84
307.379	15.36
307.593	54.27
307.807	23.55
308.021	46.08
308.235	17.41
308.449	-66.56
308.663	-3.07
308.877	111.61
309.091	105.47
309.305	99.33
309.519	15.36
309.733	-5.12
309.947	15.36
310.161	97.28
310.374	9.22
310.588	117.76
310.802	31.74
311.016	80.89
311.23	132.09
311.444	52.22
311.658	60.42
311.872	117.76
312.085	31.74
312.299	44.03
312.513	80.89
312.727	64.51
312.941	3.07
313.154	46.08
313.368	91.13
313.582	19.46
313.796	56.32
314.009	31.74
314.223	29.7
314.437	27.65
314.651	44.03
314.864	48.13
315.078	41.98
315.292	-29.7
315.505	-29.7
315.719	37.89
315.933	13.31
316.146	52.22
316.36	84.99
316.573	72.7
316.787	13.31
317.001	105.47
317.214	39.94
317.428	84.99
317.641	1.02
317.855	13.31
318.068	-54.27
318.282	-1.02
318.495	-3.07
318.709	41.98
318.922	-19.46
319.136	68.61
319.349	62.46
319.563	87.04
319.776	95.23
319.99	17.41
320.203	-17.41
320.417	11.26
320.63	115.71
320.843	89.09
321.057	31.74
321.27	15.36
321.483	37.89
321.697	99.33
321.91	21.5
322.124	13.31
322.337	-60.42
322.55	-3.07
322.763	35.84
322.977	15.36
323.19	-13.31
323.403	60.42
323.617	72.7
323.83	70.65
324.043	56.32
324.256	27.65
324.469	-11.26
324.683	119.81
324.896	35.84
325.109	44.03
325.322	-82.94
325.535	82.94
325.748	23.55
325.962	-1.02
326.175	-1.02
326.388	-23.55
326.601	78.85
326.814	97.28
327.027	27.65
327.24	72.7
327.453	-21.5
327.666	52.22
327.879	21.5
328.092	3.07
328.305	93.18
328.518	109.57
328.731	56.32
328.944	37.89
329.157	44.03
329.37	52.22
329.583	46.08
329.796	33.79
330.009	46.08
330.222	35.84
330.435	39.94
330.648	50.18
330.861	29.7
331.073	97.28
331.286	5.12
331.499	33.79
331.712	-5.12
331.925	101.37
332.138	37.89
332.35	52.22
332.563	-41.98
332.776	68.61
332.989	68.61
333.202	52.22
333.414	11.26
333.627	54.27
333.84	23.55
334.053	3.07
334.265	21.5
334.478	-13.31
334.691	66.56
334.903	29.7
335.116	-13.31
335.329	15.36
335.541	87.04
335.754	78.85
335.966	41.98
336.179	15.36
336.392	27.65
336.604	-17.41
336.817	103.42
337.029	93.18
337.242	44.03
337.454	-11.26
337.667	44.03
337.88	29.7
338.092	15.36
338.305	11.26
338.517	-9.22
338.729	134.14
338.942	29.7
339.154	-27.65
339.367	109.57
339.579	52.22
339.792	1.02
340.004	97.28
340.217	66.56
340.429	-11.26
340.641	-13.31
340.854	11.26
341.066	3.07
341.278	134.14
341.491	109.57
341.703	35.84
341.915	-70.65
342.128	35.84
342.34	-11.26
342.552	113.66
342.764	35.84
342.977	68.61
343.189	95.23
343.401	48.13
343.613	58.37
343.826	37.89
344.038	68.61
344.25	78.85
344.462	-1.02
344.674	35.84
344.886	62.46
345.099	171.01
345.311	87.04
345.523	27.65
345.735	-29.7
345.947	3.07
346.159	48.13
346.371	27.65
346.583	74.75
346.795	80.89
347.007	-9.22
347.219	84.99
347.431	21.5
347.643	134.14
347.855	-5.12
348.067	95.23
348.279	19.46
348.491	62.46
348.703	109.57
348.915	37.89
349.127	44.03
349.339	87.04
349.551	-3.07
349.763	78.85
349.975	13.31
350.187	15.36
350.399	66.56
350.61	11.26
350.822	58.37
351.034	111.61
351.246	7.17
351.458	19.46
351.669	23.55
351.881	19.46
352.093	109.57
352.305	76.8
352.517	52.22
352.728	105.47
352.94	48.13
353.152	58.37
353.363	11.26
353.575	3.07
353.787	9.22
353.999	93.18
354.21	117.76
354.422	9.22
354.633	19.46
354.845	56.32
355.057	11.26
355.268	80.89
355.48	82.94
355.692	19.46
355.903	70.65
356.115	19.46
356.326	-9.22
356.538	125.95
356.749	101.37
356.961	70.65
357.172	80.89
357.384	11.26
357.595	60.42
357.807	54.27
358.018	3.07
358.23	50.18
358.441	84.99
358.653	76.8
358.864	60.42
359.075	111.61
359.287	76.8
359.498	109.57
359.709	64.51
359.921	27.65
360.132	-3.07
360.344	-9.22
360.555	-37.89
360.766	19.46
360.977	87.04
361.189	15.36
361.4	25.6
361.611	37.89
361.823	76.8
362.034	29.7
362.245	3.07
362.456	11.26
362.667	15.36
362.879	54.27
363.09	35.84
363.301	68.61
363.512	3.07
363.723	-21.5
363.935	37.89
364.146	101.37
364.357	13.31
364.568	68.61
364.779	-13.31
364.99	97.28
365.201	5.12
365.412	74.75
365.623	-27.65
365.834	56.32
366.045	107.52
366.256	101.37
366.467	11.26
366.678	117.76
366.889	-5.12
367.1	3.07
367.311	72.7
367.522	37.89
367.733	62.46
367.944	56.32
368.155	-13.31
368.366	54.27
368.577	19.46
368.788	60.42
368.999	-17.41
369.209	15.36
369.42	87.04
369.631	72.7
369.842	27.65
370.053	72.7
370.264	44.03
370.474	44.03
370.685	46.08
370.896	7.17
371.107	84.99
371.317	76.8
371.528	27.65
371.739	41.98
371.95	-33.79
372.16	44.03
372.371	3.07
372.582	-13.31
372.792	54.27
373.003	48.13
373.214	1.02
373.424	87.04
373.635	48.13
373.846	93.18
374.056	23.55
374.267	70.65
374.477	101.37
374.688	-29.7
374.898	78.85
375.109	60.42
375.319	-9.22
375.53	87.04
375.74	117.76
375.951	-1.02
376.161	93.18
376.372	136.19
376.582	46.08
376.793	78.85
377.003	48.13
377.214	62.46
377.424	29.7
377.635	60.42
377.845	76.8
378.055	72.7
378.266	64.51
378.476	-1.02
378.686	60.42
378.897	27.65
379.107	99.33
379.317	62.46
379.528	1.02
379.738	117.76
379.948	-13.31
380.158	27.65
380.369	80.89
380.579	117.76
380.789	64.51
380.999	117.76
381.21	19.46
381.42	103.42
381.63	-46.08
381.84	60.42
382.05	66.56
382.261	125.95
382.471	54.27
382.681	31.74
382.891	84.99
383.101	21.5
383.311	-37.89
383.521	56.32
383.731	52.22
383.941	68.61
384.151	60.42
384.361	52.22
384.571	128
384.781	44.03
384.991	37.89
385.201	76.8
385.411	87.04
385.621	64.51
385.831	95.23
386.041	31.74
386.251	62.46
386.461	11.26
386.671	11.26
386.881	39.94
387.091	21.5
387.301	117.76
387.511	56.32
387.72	101.37
387.93	89.09
388.14	50.18
388.35	68.61
388.56	89.09
388.769	128
388.979	93.18
389.189	31.74
389.399	93.18
389.609	31.74
389.818	113.66
390.028	101.37
390.238	60.42
390.447	84.99
390.657	117.76
390.867	101.37
391.076	48.13
391.286	64.51
391.496	93.18
391.705	-52.22
391.915	62.46
392.125	138.24
392.334	44.03
392.544	109.57
392.753	84.99
392.963	39.94
393.172	39.94
393.382	119.81
393.591	56.32
393.801	21.5
394.01	84.99
394.22	117.76
394.429	52.22
394.639	101.37
394.848	113.66
395.058	74.75
395.267	87.04
395.477	54.27
395.686	117.76
395.895	121.85
396.105	125.95
396.314	56.32
396.524	91.13
396.733	62.46
396.942	154.62
397.152	105.47
397.361	97.28
397.57	152.57
397.78	142.33
397.989	154.62
398.198	115.71
398.407	15.36
398.617	84.99
398.826	87.04
399.035	144.38
399.244	107.52
399.453	136.19
399.663	74.75
399.872	132.09
400.081	128
400.29	128
400.499	72.7
400.708	175.1
400.917	117.76
401.127	117.76
401.336	76.8
401.545	95.23
401.754	101.37
401.963	125.95
402.172	101.37
402.381	109.57
402.59	181.25
402.799	128
403.008	166.91
403.217	185.34
403.426	154.62
403.635	166.91
403.844	103.42
404.053	130.05
404.262	216.06
404.471	257.02
404.68	183.29
404.888	177.15
405.097	132.09
405.306	218.11
405.515	78.85
405.724	179.2
405.933	193.53
406.142	168.96
406.35	228.35
406.559	236.54
406.768	207.87
406.977	257.02
407.185	240.64
407.394	240.64
407.603	201.72
407.812	252.92
408.02	240.64
408.229	306.17
408.438	275.45
408.646	164.86
408.855	207.87
409.064	252.92
409.272	289.79
409.481	322.56
409.69	357.37
409.898	277.5
410.107	398.33
410.315	412.67
410.524	314.36
410.733	513.02
410.941	371.71
411.15	398.33
411.358	379.9
411.567	455.67
411.775	414.71
411.984	553.98
412.192	510.97
412.401	519.16
412.609	551.93
412.818	498.68
413.026	584.7
413.234	599.03
413.443	642.04
413.651	648.18
413.86	644.09
414.068	619.51
414.276	699.38
414.485	644.09
414.693	748.53
414.901	873.46
415.11	779.25
415.318	859.12
415.526	822.26
415.734	848.88
415.943	902.13
416.151	912.37
416.359	928.75
416.567	1059.82
416.776	1014.77
416.984	1084.4
417.192	1174.51
417.4	1170.41
417.608	1149.93
417.817	1184.75
418.025	1182.7
418.233	1356.78
418.441	1272.81
418.649	1293.29
418.857	1522.66
419.065	1526.76
419.273	1407.98
419.481	1610.73
419.689	1643.49
419.897	1653.73
420.105	1739.75
420.313	1866.72
420.521	1874.92
420.729	1903.59
420.937	1903.59
421.145	1965.03
421.353	2141.15
421.561	2108.38
421.769	2173.92
421.977	2411.48
422.185	2319.32
422.393	2315.23
422.601	2558.94
422.809	2599.9
423.017	2653.14
423.224	2761.69
423.432	2896.85
423.64	2837.46
423.848	3122.13
424.056	2960.34
424.263	3341.26
424.471	3279.82
424.679	3349.45
424.887	3404.75
425.094	3496.91
425.302	3607.5
425.51	3652.55
425.718	3800.01
425.925	3877.83
426.133	4008.9
426.341	4193.22
426.548	4395.96
426.756	4322.24
426.964	4639.67
427.171	4680.63
427.379	4758.46
427.586	4920.24
427.794	5172.15
428.001	5264.3
428.209	5487.53
428.417	5381.04
428.624	5841.83
428.832	5868.45
429.039	5868.45
429.247	5987.24
429.454	6493.08
429.662	6828.95
429.869	6398.88
430.076	6738.84
430.284	6554.52
430.491	6783.9
430.699	7076.76
430.906	7408.53
431.114	7277.46
431.321	7728.01
431.528	7721.87
431.736	8244.1
431.943	8684.41
432.15	8356.74
432.358	8502.14
432.565	8924.02
432.772	8930.17
432.979	9364.34
433.187	9313.14
433.394	9483.12
433.601	10101.61
433.808	10126.18
434.016	10062.69
434.223	10468.19
434.43	11277.14
434.637	10914.65
434.844	11471.7
435.052	11916.11
435.259	11731.79
435.466	11922.25
435.673	11733.84
435.88	12294.98
436.087	13167.42
436.294	13026.11
436.501	12890.94
436.708	12860.22
436.915	13622.06
437.122	13974.31
437.329	14035.75
437.537	14543.65
437.743	14699.3
437.95	14474.02
438.157	15399.7
438.364	15856.4
438.571	15729.42
438.778	15907.6
438.985	17423.09
439.192	16595.71
439.399	17361.66
439.606	16855.81
439.813	18090.73
440.02	18666.21
440.227	18483.94
440.433	18490.09
440.64	19116.76
440.847	19151.58
441.054	19329.75
441.261	20648.64
441.467	20136.65
441.674	20779.71
441.881	21605.05
442.088	21533.37
442.294	21496.5
442.501	21258.94
442.708	22207.15
442.914	22760.1
443.121	23982.74
443.328	23397.02
443.534	25131.65
443.741	24289.93
443.948	23851.67
444.154	25586.3
444.361	25459.32
444.568	25672.31
444.774	25424.51
444.981	25815.67
445.187	26956.39
445.394	27726.42
445.6	27316.83
445.807	29932.09
446.013	28543.56
446.22	29135.43
446.426	30351.92
446.633	30538.29
446.839	32029.21
447.046	30378.54
447.252	32420.37
447.459	32164.37
447.665	31859.23
447.871	33497.6
448.078	34968.04
448.284	32950.79
448.491	34083.32
448.697	35561.95
448.903	35908.06
449.11	35832.29
449.316	35592.67
449.522	36303.32
449.728	37140.94
449.935	37208.52
450.141	37607.87
450.347	38363.57
450.553	37247.43
450.76	37366.21
450.966	38836.66
451.172	38111.67
451.378	39131.56
451.584	38615.47
451.791	39557.54
451.997	39029.16
452.203	39608.74
452.409	40186.27
452.615	39641.51
452.821	38078.91
453.027	37810.62
453.233	39686.56
453.44	38281.66
453.646	38238.65
453.852	38498.74
454.058	39147.95
454.264	38021.56
454.47	38568.37
454.676	37986.75
454.882	38994.35
455.088	36043.23
455.294	36110.81
455.5	36856.27
455.705	37171.66
455.911	35543.52
456.117	35254.76
456.323	34587.12
456.529	32528.91
456.735	34044.41
456.941	33184.26
457.147	32555.54
457.352	31425.06
457.558	31076.9
457.764	31040.04
457.97	30442.03
458.176	30059.06
458.381	29938.23
458.587	28641.87
458.793	28346.96
458.999	26993.25
459.204	28944.97
459.41	28146.26
459.616	26497.64
459.821	26348.14
460.027	26186.35
460.233	25596.54
460.438	24476.3
460.644	24560.27
460.85	23589.53
461.055	23022.24
461.261	22950.56
461.466	21195.45
461.672	20734.66
461.878	22055.6
462.083	20396.74
462.289	20181.71
462.494	19921.62
462.7	19055.33
462.905	18576.1
463.111	19155.68
463.316	19280.6
463.522	19018.46
463.727	18895.58
463.932	18813.66
464.138	18565.86
464.343	18557.67
464.549	18133.74
464.754	18731.75
464.959	18741.99
465.165	18481.89
465.37	17609.46
465.575	17332.98
465.781	17797.87
465.986	17967.85
466.191	17273.59
466.397	16931.58
466.602	15989.52
466.807	16575.24
467.012	16419.59
