Data from USB4F104151__156__14-32-01-822.txt Node

Date: Thu Mar 13 14:32:01 EDT 2025
User: louis
Spectrometer: USB4F10415
Trigger mode: 4
Integration Time (sec): 2.500000E-2
Scans to average: 1
Electric dark correction enabled: true
Nonlinearity correction enabled: false
Boxcar width: 0
XAxis mode: Wavelengths
Number of Pixels in Spectrum: 3648
>>>>>Begin Spectral Data<<<<<
178.204	-149.5
178.424	-149.5
178.644	-149.5
178.864	-167.93
179.084	-77.82
179.304	36.86
179.524	-28.67
179.744	-12.29
179.964	36.86
180.184	30.72
180.404	-59.39
180.624	14.34
180.844	-2.05
181.064	-67.58
181.283	14.34
181.503	-14.34
181.723	51.2
181.943	-12.29
182.163	79.87
182.383	2.05
182.602	126.97
182.822	73.73
183.042	75.77
183.262	-14.34
183.482	77.82
183.701	18.43
183.921	-30.72
184.141	-6.14
184.361	38.91
184.58	-38.91
184.8	114.69
185.02	63.49
185.239	20.48
185.459	-18.43
185.679	24.58
185.898	63.49
186.118	106.49
186.338	-22.53
186.557	59.39
186.777	-34.82
186.997	-24.58
187.216	-10.24
187.436	67.58
187.655	51.2
187.875	36.86
188.095	8.19
188.314	43.01
188.534	75.77
188.753	14.34
188.973	-30.72
189.192	-4.1
189.412	26.62
189.631	59.39
189.851	61.44
190.07	83.97
190.29	-49.15
190.509	34.82
190.729	-43.01
190.948	108.54
191.168	112.64
191.387	73.73
191.607	-6.14
191.826	-8.19
192.045	-4.1
192.265	20.48
192.484	2.05
192.704	67.58
192.923	-30.72
193.142	88.06
193.362	-6.14
193.581	75.77
193.8	6.14
194.02	77.82
194.239	12.29
194.458	43.01
194.678	90.11
194.897	4.1
195.116	38.91
195.335	53.25
195.555	28.67
195.774	10.24
195.993	-6.14
196.212	32.77
196.432	86.01
196.651	14.34
196.87	55.3
197.089	40.96
197.308	55.3
197.528	20.48
197.747	6.14
197.966	28.67
198.185	104.45
198.404	0
198.623	63.49
198.842	14.34
199.062	43.01
199.281	36.86
199.5	34.82
199.719	26.62
199.938	16.38
200.157	63.49
200.376	2.05
200.595	112.64
200.814	47.1
201.033	10.24
201.252	-10.24
201.471	34.82
201.69	51.2
201.909	18.43
202.128	49.15
202.347	26.62
202.566	20.48
202.785	10.24
203.004	2.05
203.223	176.13
203.442	26.62
203.661	43.01
203.879	20.48
204.098	-12.29
204.317	10.24
204.536	20.48
204.755	79.87
204.974	108.54
205.193	24.58
205.411	135.17
205.63	45.06
205.849	77.82
206.068	-8.19
206.287	79.87
206.505	81.92
206.724	-10.24
206.943	18.43
207.162	-55.3
207.381	69.63
207.599	69.63
207.818	47.1
208.037	30.72
208.255	-34.82
208.474	43.01
208.693	-18.43
208.911	16.38
209.13	86.01
209.349	67.58
209.567	36.86
209.786	79.87
210.005	79.87
210.223	6.14
210.442	4.1
210.661	30.72
210.879	-14.34
211.098	-14.34
211.316	63.49
211.535	116.73
211.753	59.39
211.972	49.15
212.191	38.91
212.409	53.25
212.628	18.43
212.846	20.48
213.065	18.43
213.283	92.16
213.502	43.01
213.72	51.2
213.938	77.82
214.157	20.48
214.375	57.34
214.594	-18.43
214.812	86.01
215.031	10.24
215.249	-18.43
215.467	24.58
215.686	24.58
215.904	12.29
216.122	51.2
216.341	30.72
216.559	153.6
216.778	67.58
216.996	98.3
217.214	75.77
217.432	28.67
217.651	110.59
217.869	4.1
218.087	-28.67
218.306	12.29
218.524	69.63
218.742	-67.58
218.96	32.77
219.179	22.53
219.397	-34.82
219.615	71.68
219.833	59.39
220.051	-43.01
220.27	57.34
220.488	83.97
220.706	43.01
220.924	-2.05
221.142	12.29
221.36	-53.25
221.578	-6.14
221.796	51.2
222.015	28.67
222.233	24.58
222.451	165.89
222.669	55.3
222.887	-2.05
223.105	-22.53
223.323	57.34
223.541	-45.06
223.759	32.77
223.977	12.29
224.195	71.68
224.413	2.05
224.631	126.97
224.849	73.73
225.067	92.16
225.285	36.86
225.503	-28.67
225.721	-90.11
225.939	6.14
226.157	75.77
226.375	73.73
226.592	-30.72
226.81	-55.3
227.028	108.54
227.246	129.02
227.464	43.01
227.682	38.91
227.9	49.15
228.117	75.77
228.335	53.25
228.553	34.82
228.771	32.77
228.989	69.63
229.206	67.58
229.424	88.06
229.642	18.43
229.86	18.43
230.077	43.01
230.295	26.62
230.513	86.01
230.731	26.62
230.948	102.4
231.166	71.68
231.384	45.06
231.601	96.25
231.819	59.39
232.037	-77.82
232.254	16.38
232.472	-6.14
232.689	-2.05
232.907	86.01
233.125	61.44
233.342	-14.34
233.56	-4.1
233.777	-71.68
233.995	-47.1
234.213	120.83
234.43	26.62
234.648	16.38
234.865	-71.68
235.083	30.72
235.3	34.82
235.518	16.38
235.735	69.63
235.953	51.2
236.17	81.92
236.388	79.87
236.605	79.87
236.822	75.77
237.04	79.87
237.257	65.54
237.475	-28.67
237.692	75.77
237.909	67.58
238.127	2.05
238.344	102.4
238.562	-38.91
238.779	34.82
238.996	36.86
239.214	4.1
239.431	71.68
239.648	18.43
239.865	10.24
240.083	104.45
240.3	-67.58
240.517	51.2
240.735	51.2
240.952	2.05
241.169	59.39
241.386	22.53
241.603	34.82
241.821	-6.14
242.038	38.91
242.255	112.64
242.472	-10.24
242.689	94.21
242.907	47.1
243.124	-45.06
243.341	-14.34
243.558	-61.44
243.775	2.05
243.992	-36.86
244.209	75.77
244.426	69.63
244.643	26.62
244.86	-40.96
245.078	133.12
245.295	71.68
245.512	26.62
245.729	-6.14
245.946	49.15
246.163	-2.05
246.38	135.17
246.597	63.49
246.814	63.49
247.031	92.16
247.248	-18.43
247.464	20.48
247.681	51.2
247.898	12.29
248.115	79.87
248.332	14.34
248.549	71.68
248.766	69.63
248.983	59.39
249.2	10.24
249.417	114.69
249.633	-63.49
249.85	92.16
250.067	20.48
250.284	61.44
250.501	6.14
250.717	59.39
250.934	49.15
251.151	0
251.368	16.38
251.585	61.44
251.801	71.68
252.018	-4.1
252.235	28.67
252.451	45.06
252.668	10.24
252.885	28.67
253.102	30.72
253.318	-47.1
253.535	-10.24
253.752	83.97
253.968	47.1
254.185	2.05
254.401	28.67
254.618	40.96
254.835	22.53
255.051	114.69
255.268	18.43
255.484	32.77
255.701	6.14
255.917	92.16
256.134	-57.34
256.351	-81.92
256.567	-20.48
256.784	59.39
257	-30.72
257.217	110.59
257.433	45.06
257.65	83.97
257.866	51.2
258.082	10.24
258.299	20.48
258.515	86.01
258.732	18.43
258.948	45.06
259.165	-4.1
259.381	-4.1
259.597	-12.29
259.814	34.82
260.03	22.53
260.246	26.62
260.463	0
260.679	10.24
260.895	32.77
261.112	174.08
261.328	-8.19
261.544	24.58
261.761	51.2
261.977	10.24
262.193	-6.14
262.409	38.91
262.626	-2.05
262.842	-10.24
263.058	14.34
263.274	24.58
263.49	104.45
263.707	67.58
263.923	6.14
264.139	4.1
264.355	124.93
264.571	75.77
264.787	10.24
265.004	92.16
265.22	51.2
265.436	83.97
265.652	4.1
265.868	40.96
266.084	-55.3
266.3	12.29
266.516	-14.34
266.732	18.43
266.948	83.97
267.164	108.54
267.38	61.44
267.596	49.15
267.812	32.77
268.028	0
268.244	22.53
268.46	20.48
268.676	26.62
268.892	79.87
269.108	34.82
269.324	-26.62
269.54	-4.1
269.756	108.54
269.972	2.05
270.188	-26.62
270.403	16.38
270.619	79.87
270.835	69.63
271.051	59.39
271.267	6.14
271.483	30.72
271.698	24.58
271.914	16.38
272.13	-20.48
272.346	2.05
272.562	-38.91
272.777	92.16
272.993	20.48
273.209	-53.25
273.425	79.87
273.64	14.34
273.856	51.2
274.072	-55.3
274.287	45.06
274.503	86.01
274.719	51.2
274.934	14.34
275.15	26.62
275.366	47.1
275.581	26.62
275.797	43.01
276.012	-4.1
276.228	6.14
276.444	-6.14
276.659	73.73
276.875	-30.72
277.09	32.77
277.306	20.48
277.521	49.15
277.737	63.49
277.952	22.53
278.168	-6.14
278.383	4.1
278.599	63.49
278.814	-4.1
279.03	-14.34
279.245	83.97
279.461	10.24
279.676	51.2
279.892	49.15
280.107	-14.34
280.322	51.2
280.538	83.97
280.753	-43.01
280.969	94.21
281.184	92.16
281.399	20.48
281.615	55.3
281.83	-6.14
282.045	45.06
282.26	22.53
282.476	45.06
282.691	92.16
282.906	94.21
283.122	40.96
283.337	18.43
283.552	59.39
283.767	112.64
283.983	98.3
284.198	-6.14
284.413	131.07
284.628	34.82
284.843	92.16
285.058	81.92
285.274	-28.67
285.489	-34.82
285.704	8.19
285.919	4.1
286.134	26.62
286.349	65.54
286.564	51.2
286.779	34.82
286.995	53.25
287.21	-6.14
287.425	59.39
287.64	6.14
287.855	63.49
288.07	-30.72
288.285	108.54
288.5	43.01
288.715	-38.91
288.93	47.1
289.145	10.24
289.36	26.62
289.575	75.77
289.79	102.4
290.004	12.29
290.219	63.49
290.434	12.29
290.649	-43.01
290.864	10.24
291.079	118.78
291.294	30.72
291.509	61.44
291.724	67.58
291.938	18.43
292.153	10.24
292.368	116.73
292.583	43.01
292.798	59.39
293.012	30.72
293.227	51.2
293.442	36.86
293.657	75.77
293.871	26.62
294.086	-18.43
294.301	110.59
294.516	79.87
294.73	55.3
294.945	-53.25
295.16	2.05
295.374	67.58
295.589	49.15
295.804	59.39
296.018	92.16
296.233	51.2
296.447	36.86
296.662	-55.3
296.877	71.68
297.091	-6.14
297.306	18.43
297.52	-6.14
297.735	51.2
297.949	-14.34
298.164	34.82
298.378	22.53
298.593	18.43
298.807	10.24
299.022	79.87
299.236	108.54
299.451	22.53
299.665	-34.82
299.88	36.86
300.094	34.82
300.309	43.01
300.523	51.2
300.737	102.4
300.952	55.3
301.166	51.2
301.381	14.34
301.595	-4.1
301.809	12.29
302.024	43.01
302.238	-30.72
302.452	-6.14
302.667	32.77
302.881	22.53
303.095	22.53
303.309	20.48
303.524	-4.1
303.738	-34.82
303.952	-32.77
304.166	77.82
304.381	-34.82
304.595	30.72
304.809	-28.67
305.023	75.77
305.237	34.82
305.452	30.72
305.666	108.54
305.88	100.35
306.094	88.06
306.308	100.35
306.522	45.06
306.736	73.73
306.95	94.21
307.164	-22.53
307.379	-6.14
307.593	90.11
307.807	55.3
308.021	106.49
308.235	92.16
308.449	47.1
308.663	28.67
308.877	149.5
309.091	63.49
309.305	47.1
309.519	18.43
309.733	108.54
309.947	18.43
310.161	116.73
310.374	43.01
310.588	83.97
310.802	12.29
311.016	51.2
311.23	83.97
311.444	43.01
311.658	-2.05
311.872	75.77
312.085	61.44
312.299	100.35
312.513	108.54
312.727	79.87
312.941	71.68
313.154	34.82
313.368	90.11
313.582	129.02
313.796	-12.29
314.009	51.2
314.223	61.44
314.437	43.01
314.651	96.25
314.864	47.1
315.078	43.01
315.292	12.29
315.505	51.2
315.719	26.62
315.933	2.05
316.146	18.43
316.36	-6.14
316.573	122.88
316.787	26.62
317.001	69.63
317.214	14.34
317.428	59.39
317.641	-34.82
317.855	45.06
318.068	-16.38
318.282	108.54
318.495	73.73
318.709	38.91
318.922	51.2
319.136	43.01
319.349	34.82
319.563	112.64
319.776	55.3
319.99	-18.43
320.203	53.25
320.417	6.14
320.63	114.69
320.843	67.58
321.057	61.44
321.27	36.86
321.483	45.06
321.697	38.91
321.91	104.45
322.124	43.01
322.337	20.48
322.55	73.73
322.763	45.06
322.977	26.62
323.19	75.77
323.403	20.48
323.617	79.87
323.83	94.21
324.043	67.58
324.256	61.44
324.469	-63.49
324.683	59.39
324.896	28.67
325.109	83.97
325.322	-18.43
325.535	59.39
325.748	79.87
325.962	26.62
326.175	55.3
326.388	61.44
326.601	55.3
326.814	2.05
327.027	61.44
327.24	22.53
327.453	38.91
327.666	77.82
327.879	92.16
328.092	53.25
328.305	51.2
328.518	75.77
328.731	2.05
328.944	28.67
329.157	67.58
329.37	45.06
329.583	94.21
329.796	88.06
330.009	43.01
330.222	-22.53
330.435	18.43
330.648	116.73
330.861	69.63
331.073	75.77
331.286	98.3
331.499	67.58
331.712	18.43
331.925	79.87
332.138	10.24
332.35	77.82
332.563	55.3
332.776	77.82
332.989	43.01
333.202	30.72
333.414	-10.24
333.627	10.24
333.84	-4.1
334.053	14.34
334.265	26.62
334.478	51.2
334.691	2.05
334.903	-10.24
335.116	51.2
335.329	40.96
335.541	88.06
335.754	92.16
335.966	4.1
336.179	10.24
336.392	4.1
336.604	30.72
336.817	30.72
337.029	83.97
337.242	14.34
337.454	53.25
337.667	26.62
337.88	59.39
338.092	34.82
338.305	63.49
338.517	2.05
338.729	77.82
338.942	43.01
339.154	-10.24
339.367	30.72
339.579	59.39
339.792	-10.24
340.004	43.01
340.217	-30.72
340.429	38.91
340.641	-47.1
340.854	53.25
341.066	75.77
341.278	118.78
341.491	-4.1
341.703	26.62
341.915	14.34
342.128	34.82
342.34	-55.3
342.552	53.25
342.764	6.14
342.977	-8.19
343.189	83.97
343.401	86.01
343.613	-47.1
343.826	75.77
344.038	61.44
344.25	55.3
344.462	47.1
344.674	63.49
344.886	92.16
345.099	28.67
345.311	6.14
345.523	22.53
345.735	30.72
345.947	92.16
346.159	92.16
346.371	20.48
346.583	43.01
346.795	51.2
347.007	53.25
347.219	88.06
347.431	-6.14
347.643	18.43
347.855	24.58
348.067	92.16
348.279	96.25
348.491	18.43
348.703	59.39
348.915	-22.53
349.127	81.92
349.339	63.49
349.551	83.97
349.763	79.87
349.975	47.1
350.187	77.82
350.399	120.83
350.61	43.01
350.822	36.86
351.034	71.68
351.246	122.88
351.458	108.54
351.669	26.62
351.881	147.45
352.093	43.01
352.305	161.79
352.517	45.06
352.728	104.45
352.94	47.1
353.152	67.58
353.363	-30.72
353.575	100.35
353.787	112.64
353.999	69.63
354.21	129.02
354.422	51.2
354.633	6.14
354.845	26.62
355.057	88.06
355.268	59.39
355.48	57.34
355.692	2.05
355.903	79.87
356.115	6.14
356.326	-36.86
356.538	163.84
356.749	22.53
356.961	86.01
357.172	20.48
357.384	-32.77
357.595	108.54
357.807	14.34
358.018	34.82
358.23	71.68
358.441	137.21
358.653	16.38
358.864	40.96
359.075	43.01
359.287	26.62
359.498	79.87
359.709	55.3
359.921	67.58
360.132	96.25
360.344	94.21
360.555	10.24
360.766	67.58
360.977	-14.34
361.189	61.44
361.4	47.1
361.611	106.49
361.823	92.16
362.034	2.05
362.245	22.53
362.456	53.25
362.667	133.12
362.879	53.25
363.09	69.63
363.301	75.77
363.512	45.06
363.723	2.05
363.935	22.53
364.146	20.48
364.357	2.05
364.568	61.44
364.779	26.62
364.99	53.25
365.201	34.82
365.412	167.93
365.623	-79.87
365.834	26.62
366.045	110.59
366.256	63.49
366.467	30.72
366.678	-20.48
366.889	34.82
367.1	28.67
367.311	75.77
367.522	20.48
367.733	83.97
367.944	77.82
368.155	26.62
368.366	81.92
368.577	71.68
368.788	100.35
368.999	32.77
369.209	45.06
369.42	135.17
369.631	206.84
369.842	34.82
370.053	2.05
370.264	51.2
370.474	81.92
370.685	55.3
370.896	-10.24
371.107	110.59
371.317	55.3
371.528	83.97
371.739	112.64
371.95	45.06
372.16	104.45
372.371	2.05
372.582	69.63
372.792	45.06
373.003	-4.1
373.214	129.02
373.424	34.82
373.635	73.73
373.846	75.77
374.056	88.06
374.267	75.77
374.477	57.34
374.688	47.1
374.898	75.77
375.109	38.91
375.319	92.16
375.53	108.54
375.74	108.54
375.951	96.25
376.161	6.14
376.372	71.68
376.582	38.91
376.793	122.88
377.003	34.82
377.214	69.63
377.424	49.15
377.635	36.86
377.845	59.39
378.055	45.06
378.266	40.96
378.476	53.25
378.686	92.16
378.897	108.54
379.107	67.58
379.317	53.25
379.528	6.14
379.738	10.24
379.948	51.2
380.158	102.4
380.369	22.53
380.579	83.97
380.789	100.35
380.999	-2.05
381.21	49.15
381.42	118.78
381.63	10.24
381.84	100.35
382.05	108.54
382.261	4.1
382.471	47.1
382.681	43.01
382.891	100.35
383.101	73.73
383.311	-10.24
383.521	67.58
383.731	65.54
383.941	71.68
384.151	90.11
384.361	73.73
384.571	71.68
384.781	55.3
384.991	96.25
385.201	157.69
385.411	57.34
385.621	86.01
385.831	81.92
386.041	47.1
386.251	43.01
386.461	88.06
386.671	2.05
386.881	30.72
387.091	20.48
387.301	88.06
387.511	53.25
387.72	108.54
387.93	112.64
388.14	-6.14
388.35	83.97
388.56	71.68
388.769	96.25
388.979	38.91
389.189	-2.05
389.399	36.86
389.609	86.01
389.818	108.54
390.028	47.1
390.238	92.16
390.447	53.25
390.657	120.83
390.867	69.63
391.076	63.49
391.286	100.35
391.496	49.15
391.705	-26.62
391.915	118.78
392.125	75.77
392.334	38.91
392.544	100.35
392.753	116.73
392.963	30.72
393.172	124.93
393.382	90.11
393.591	112.64
393.801	12.29
394.01	182.27
394.22	151.55
394.429	100.35
394.639	165.89
394.848	174.08
395.058	102.4
395.267	88.06
395.477	86.01
395.686	57.34
395.895	92.16
396.105	190.46
396.314	112.64
396.524	137.21
396.733	141.31
396.942	79.87
397.152	223.23
397.361	124.93
397.57	63.49
397.78	145.41
397.989	94.21
398.198	176.13
398.407	59.39
398.617	120.83
398.826	108.54
399.035	116.73
399.244	124.93
399.453	69.63
399.663	163.84
399.872	137.21
400.081	43.01
400.29	167.93
400.499	198.65
400.708	141.31
400.917	118.78
401.127	151.55
401.336	77.82
401.545	194.56
401.754	88.06
401.963	145.41
402.172	79.87
402.381	100.35
402.59	141.31
402.799	124.93
403.008	194.56
403.217	81.92
403.426	102.4
403.635	133.12
403.844	190.46
404.053	67.58
404.262	174.08
404.471	227.32
404.68	196.61
404.888	174.08
405.097	223.23
405.306	231.42
405.515	190.46
405.724	196.61
405.933	165.89
406.142	204.8
406.35	206.84
406.559	210.94
406.768	206.84
406.977	212.99
407.185	260.09
407.394	241.66
407.603	149.5
407.812	256
408.02	317.44
408.229	251.9
408.438	286.72
408.646	249.85
408.855	350.2
409.064	352.25
409.272	313.34
409.481	387.07
409.69	354.3
409.898	378.87
410.107	313.34
410.315	421.88
410.524	430.07
410.733	425.98
410.941	460.79
411.15	489.46
411.358	477.18
411.567	528.38
411.775	518.14
411.984	565.24
412.192	557.05
412.401	575.48
412.609	606.2
412.818	610.29
413.026	641.01
413.234	593.91
413.443	602.1
413.651	681.97
413.86	731.12
414.068	763.89
414.276	823.28
414.485	796.66
414.693	817.14
414.901	935.92
415.11	755.7
415.318	933.87
415.526	946.16
415.734	923.63
415.943	985.07
416.151	1036.27
416.359	1017.84
416.567	1050.61
416.776	1155.05
416.984	1263.6
417.192	1208.3
417.4	1247.21
417.608	1325.04
417.817	1361.9
418.025	1304.56
418.233	1535.98
418.441	1386.47
418.649	1521.64
418.857	1638.38
419.065	1722.34
419.273	1634.28
419.481	1718.25
419.689	1837.03
419.897	1886.18
420.105	1896.42
420.313	1914.85
420.521	2017.25
420.729	1964
420.937	2076.64
421.145	2179.04
421.353	2269.15
421.561	2396.12
421.769	2541.53
421.977	2666.46
422.185	2570.2
422.393	2762.71
422.601	2830.29
422.809	2865.11
423.017	2983.89
423.224	3041.23
423.432	3254.22
423.64	3088.34
423.848	3411.92
424.056	3289.04
424.263	3602.38
424.471	3561.42
424.679	3753.93
424.887	3919.81
425.094	3962.82
425.302	4036.55
425.51	4147.14
425.718	4317.12
425.925	4427.71
426.133	4421.56
426.341	4747.19
426.548	4919.22
426.756	4804.53
426.964	5089.2
427.171	5148.59
427.379	5375.92
427.586	5525.42
427.794	5633.96
428.001	5900.2
428.209	6160.29
428.417	5959.59
428.624	6530.97
428.832	6623.13
429.039	6360.99
429.247	6277.02
429.454	7106.45
429.662	7497.61
429.869	7055.25
430.076	7657.36
430.284	7407.5
430.491	7409.55
430.699	7982.98
430.906	8157.06
431.114	8210.31
431.321	8484.73
431.528	8613.76
431.736	9107.32
431.943	9590.64
432.15	9400.18
432.358	9457.52
432.565	9895.78
432.772	9848.68
432.979	10254.18
433.187	10547.04
433.394	10749.79
433.601	11405.14
433.808	11548.5
434.016	11278.16
434.223	11827.02
434.43	12347.2
434.637	12312.39
434.844	12861.24
435.052	13276.98
435.259	13084.47
435.466	13094.71
435.673	13023.03
435.88	13926.19
436.087	14833.44
436.294	14683.94
436.501	14348.07
436.708	14767.9
436.915	15214.36
437.122	15595.28
437.329	15873.81
437.537	16281.35
437.743	16486.15
437.95	16398.09
438.157	17182.46
438.364	17749.75
438.571	17618.68
438.778	17913.58
438.985	19314.39
439.192	18392.81
439.399	19216.09
439.606	18667.24
439.813	20129.48
440.02	21212.86
440.227	20801.22
440.433	20338.38
440.64	21350.07
440.847	21141.18
441.054	21651.13
441.261	23217.82
441.467	22521.51
441.674	23049.89
441.881	23826.07
442.088	23987.86
442.294	23826.07
442.501	24084.11
442.708	24788.61
442.914	25759.35
443.121	26945.12
443.328	25710.2
443.534	28065.36
443.741	27190.88
443.948	26711.66
444.154	28708.43
444.361	28810.82
444.568	28812.87
444.774	28577.36
444.981	28943.94
445.187	29699.64
445.394	31198.76
445.6	30754.35
445.807	33791.48
446.013	32114.2
446.22	32773.64
446.426	34164.21
446.633	34477.55
446.839	35554.79
447.046	33758.72
447.252	35880.41
447.459	36195.8
447.665	36083.16
447.871	37592.51
448.078	38989.23
448.284	36918.73
448.491	38061.5
448.697	39689.63
448.903	40281.5
449.11	40107.42
449.316	39611.81
449.522	40787.35
449.728	41674.12
449.935	41964.93
450.141	41971.07
450.347	42958.19
450.553	41416.07
450.76	41938.3
450.966	42976.62
451.172	43064.69
451.378	44225.89
451.584	43206
451.791	44584.28
451.997	43834.72
452.203	44891.47
452.409	44488.03
452.615	44592.47
452.821	43156.85
453.027	42278.27
453.233	44627.29
453.44	42956.14
453.646	43677.03
453.852	43742.56
454.058	44391.77
454.264	43056.5
454.47	43771.24
454.676	42823.03
454.882	44064.1
455.088	40979.85
455.294	41061.77
455.5	41760.13
455.705	42122.62
455.911	40416.66
456.117	39722.4
456.323	39292.33
456.529	36687.31
456.735	39374.25
456.941	37967.29
457.147	37320.13
457.352	36015.58
457.558	35577.31
457.764	35792.35
457.97	35180.01
458.176	34377.2
458.381	34473.46
458.587	32458.26
458.793	32480.78
458.999	30873.13
459.204	33046.02
459.41	32130.58
459.616	30455.34
459.821	30375.47
460.027	30582.32
460.233	29529.66
460.438	27825.75
460.644	28569.16
460.85	27029.09
461.055	26121.84
461.261	26553.96
461.466	24487.56
461.672	24012.43
461.878	25276.03
462.083	24022.67
462.289	23101.09
462.494	23025.31
462.7	22116.01
462.905	21292.73
463.111	22027.95
463.316	22077.1
463.522	21913.27
463.727	21739.19
463.932	21702.32
464.138	21706.42
464.343	21542.58
464.549	21147.33
464.754	21642.93
464.959	21165.76
465.165	21137.09
465.37	20244.17
465.575	19863.25
465.781	20715.2
465.986	20524.74
466.191	19834.58
466.397	19670.74
466.602	18489.06
466.807	19310.3
467.012	19375.83
467.218	19109.6
