Data from USB4F104151__230__14-34-01-563.txt Node

Date: Thu Mar 13 14:34:01 EDT 2025
User: louis
Spectrometer: USB4F10415
Trigger mode: 4
Integration Time (sec): 2.500000E-2
Scans to average: 1
Electric dark correction enabled: true
Nonlinearity correction enabled: false
Boxcar width: 0
XAxis mode: Wavelengths
Number of Pixels in Spectrum: 3648
>>>>>Begin Spectral Data<<<<<
178.204	-167.08
178.424	-167.08
178.644	-167.08
178.864	-87.21
179.084	-150.7
179.304	-29.87
179.524	9.05
179.744	7
179.964	17.24
180.184	-21.67
180.404	17.24
180.624	-13.48
180.844	-5.29
181.064	2.9
181.283	41.81
181.503	-46.25
181.723	21.33
181.943	-31.91
182.163	66.39
182.383	17.24
182.602	9.05
182.822	9.05
183.042	2.9
183.262	9.05
183.482	52.05
183.701	-62.63
183.921	45.91
184.141	35.67
184.361	60.24
184.58	-23.72
184.8	-3.24
185.02	-36.01
185.239	-21.67
185.459	-7.34
185.679	60.24
185.898	-23.72
186.118	4.95
186.338	4.95
186.557	9.05
186.777	25.43
186.997	-40.11
187.216	9.05
187.436	52.05
187.655	33.62
187.875	76.63
188.095	-11.43
188.314	54.1
188.534	50
188.753	-15.53
188.973	74.58
189.192	74.58
189.412	-36.01
189.631	25.43
189.851	84.82
190.07	84.82
190.29	-85.16
190.509	25.43
190.729	9.05
190.948	19.29
191.168	193.36
191.387	90.96
191.607	43.86
191.826	-1.19
192.045	-60.59
192.265	25.43
192.484	-38.06
192.704	0.85
192.923	-15.53
193.142	74.58
193.362	15.19
193.581	15.19
193.8	11.09
194.02	39.76
194.239	52.05
194.458	68.44
194.678	45.91
194.897	-31.91
195.116	86.87
195.335	43.86
195.555	-21.67
195.774	-87.21
195.993	4.95
196.212	-36.01
196.432	-52.39
196.651	47.96
196.87	-9.39
197.089	74.58
197.308	76.63
197.528	4.95
197.747	-54.44
197.966	-7.34
198.185	76.63
198.404	-3.24
198.623	105.3
198.842	-3.24
199.062	21.33
199.281	0.85
199.5	43.86
199.719	-5.29
199.938	-38.06
200.157	43.86
200.376	-7.34
200.595	33.62
200.814	154.45
201.033	2.9
201.252	45.91
201.471	-5.29
201.69	13.14
201.909	-40.11
202.128	41.81
202.347	-74.92
202.566	-46.25
202.785	31.57
203.004	-74.92
203.223	95.06
203.442	54.1
203.661	0.85
203.879	21.33
204.098	11.09
204.317	-126.12
204.536	60.24
204.755	-23.72
204.974	0.85
205.193	-31.91
205.411	68.44
205.63	-3.24
205.849	23.38
206.068	0.85
206.287	-48.3
206.505	29.52
206.724	52.05
206.943	-1.19
207.162	-48.3
207.381	0.85
207.599	52.05
207.818	17.24
208.037	-29.87
208.255	33.62
208.474	-36.01
208.693	-13.48
208.911	27.48
209.13	101.2
209.349	-31.91
209.567	93.01
209.786	17.24
210.005	4.95
210.223	62.29
210.442	-7.34
210.661	45.91
210.879	9.05
211.098	43.86
211.316	-56.49
211.535	97.11
211.753	29.52
211.972	0.85
212.191	15.19
212.409	-11.43
212.628	25.43
212.846	0.85
213.065	-19.63
213.283	-23.72
213.502	-5.29
213.72	-7.34
213.938	25.43
214.157	33.62
214.375	52.05
214.594	-44.2
214.812	72.53
215.031	47.96
215.249	21.33
215.467	-21.67
215.686	2.9
215.904	60.24
216.122	-5.29
216.341	-7.34
216.559	58.2
216.778	66.39
216.996	47.96
217.214	-7.34
217.432	60.24
217.651	-23.72
217.869	0.85
218.087	-31.91
218.306	0.85
218.524	-11.43
218.742	-56.49
218.96	2.9
219.179	-48.3
219.397	29.52
219.615	25.43
219.833	37.72
220.051	-85.16
220.27	43.86
220.488	78.68
220.706	52.05
220.924	-70.83
221.142	0.85
221.36	-3.24
221.578	27.48
221.796	-9.39
222.015	82.77
222.233	54.1
222.451	66.39
222.669	-42.15
222.887	11.09
223.105	2.9
223.323	-7.34
223.541	25.43
223.759	9.05
223.977	-3.24
224.195	60.24
224.413	66.39
224.631	-13.48
224.849	-54.44
225.067	33.62
225.285	37.72
225.503	-21.67
225.721	-87.21
225.939	0.85
226.157	-19.63
226.375	62.29
226.592	47.96
226.81	19.29
227.028	90.96
227.246	66.39
227.464	25.43
227.682	27.48
227.9	54.1
228.117	-21.67
228.335	-15.53
228.553	-42.15
228.771	45.91
228.989	56.15
229.206	-31.91
229.424	2.9
229.642	-48.3
229.86	-1.19
230.077	27.48
230.295	19.29
230.513	43.86
230.731	70.48
230.948	80.72
231.166	101.2
231.384	19.29
231.601	-64.68
231.819	80.72
232.037	-7.34
232.254	2.9
232.472	37.72
232.689	17.24
232.907	66.39
233.125	-3.24
233.342	41.81
233.56	-31.91
233.777	-40.11
233.995	9.05
234.213	41.81
234.43	99.16
234.648	27.48
234.865	17.24
235.083	19.29
235.3	9.05
235.518	-7.34
235.735	45.91
235.953	140.12
236.17	0.85
236.388	50
236.605	25.43
236.822	140.12
237.04	4.95
237.257	-27.82
237.475	-13.48
237.692	97.11
237.909	50
238.127	-29.87
238.344	-5.29
238.562	9.05
238.779	33.62
238.996	-60.59
239.214	21.33
239.431	-27.82
239.648	-13.48
239.865	37.72
240.083	45.91
240.3	-31.91
240.517	-13.48
240.735	4.95
240.952	-31.91
241.169	58.2
241.386	25.43
241.603	84.82
241.821	50
242.038	9.05
242.255	41.81
242.472	-48.3
242.689	95.06
242.907	76.63
243.124	-29.87
243.341	43.86
243.558	19.29
243.775	-58.54
243.992	15.19
244.209	13.14
244.426	70.48
244.643	33.62
244.86	54.1
245.078	41.81
245.295	35.67
245.512	-23.72
245.729	-46.25
245.946	9.05
246.163	-7.34
246.38	43.86
246.597	2.9
246.814	52.05
247.031	-48.3
247.248	-13.48
247.464	33.62
247.681	-3.24
247.898	-11.43
248.115	66.39
248.332	52.05
248.549	19.29
248.766	101.2
248.983	64.34
249.2	9.05
249.417	58.2
249.633	-48.3
249.85	64.34
250.067	31.57
250.284	21.33
250.501	82.77
250.717	43.86
250.934	-74.92
251.151	-31.91
251.368	52.05
251.585	56.15
251.801	-40.11
252.018	-68.78
252.235	-31.91
252.451	-44.2
252.668	-21.67
252.885	21.33
253.102	52.05
253.318	-7.34
253.535	35.67
253.752	52.05
253.968	-44.2
254.185	66.39
254.401	29.52
254.618	17.24
254.835	-15.53
255.051	82.77
255.268	-40.11
255.484	-13.48
255.701	-25.77
255.917	9.05
256.134	-15.53
256.351	2.9
256.567	-1.19
256.784	-38.06
257	11.09
257.217	27.48
257.433	45.91
257.65	-19.63
257.866	41.81
258.082	-21.67
258.299	-11.43
258.515	-15.53
258.732	-33.96
258.948	-31.91
259.165	-11.43
259.381	-11.43
259.597	45.91
259.814	17.24
260.03	0.85
260.246	-70.83
260.463	47.96
260.679	121.68
260.895	21.33
261.112	43.86
261.328	-64.68
261.544	-42.15
261.761	93.01
261.977	-58.54
262.193	-81.07
262.409	0.85
262.626	54.1
262.842	-13.48
263.058	0.85
263.274	21.33
263.49	33.62
263.707	43.86
263.923	35.67
264.139	-54.44
264.355	109.4
264.571	131.92
264.787	50
265.004	17.24
265.22	29.52
265.436	-33.96
265.652	50
265.868	21.33
266.084	-68.78
266.3	0.85
266.516	-27.82
266.732	4.95
266.948	23.38
267.164	19.29
267.38	66.39
267.596	35.67
267.812	82.77
268.028	19.29
268.244	-89.26
268.46	-7.34
268.676	25.43
268.892	39.76
269.108	-13.48
269.324	17.24
269.54	-27.82
269.756	-23.72
269.972	9.05
270.188	-36.01
270.403	-15.53
270.619	74.58
270.835	54.1
271.051	11.09
271.267	50
271.483	25.43
271.698	58.2
271.914	68.44
272.13	-27.82
272.346	70.48
272.562	52.05
272.777	17.24
272.993	-13.48
273.209	0.85
273.425	33.62
273.64	-68.78
273.856	47.96
274.072	33.62
274.287	-46.25
274.503	56.15
274.719	39.76
274.934	-3.24
275.15	54.1
275.366	-31.91
275.581	-40.11
275.797	43.86
276.012	31.57
276.228	-79.02
276.444	17.24
276.659	33.62
276.875	-38.06
277.09	33.62
277.306	37.72
277.521	-5.29
277.737	-5.29
277.952	-17.58
278.168	29.52
278.383	35.67
278.599	19.29
278.814	17.24
279.03	39.76
279.245	50
279.461	21.33
279.676	37.72
279.892	-40.11
280.107	31.57
280.322	45.91
280.538	-7.34
280.753	-5.29
280.969	41.81
281.184	11.09
281.399	54.1
281.615	66.39
281.83	19.29
282.045	-60.59
282.26	-29.87
282.476	-38.06
282.691	103.25
282.906	41.81
283.122	50
283.337	4.95
283.552	37.72
283.767	-7.34
283.983	66.39
284.198	58.2
284.413	13.14
284.628	17.24
284.843	29.52
285.058	-13.48
285.274	-7.34
285.489	-38.06
285.704	7
285.919	-27.82
286.134	50
286.349	0.85
286.564	-54.44
286.779	140.12
286.995	33.62
287.21	-19.63
287.425	58.2
287.64	-38.06
287.855	101.2
288.07	2.9
288.285	54.1
288.5	93.01
288.715	58.2
288.93	68.44
289.145	9.05
289.36	60.24
289.575	-27.82
289.79	13.14
290.004	4.95
290.219	9.05
290.434	52.05
290.649	41.81
290.864	72.53
291.079	-21.67
291.294	-23.72
291.509	41.81
291.724	58.2
291.938	-13.48
292.153	0.85
292.368	58.2
292.583	103.25
292.798	60.24
293.012	-89.26
293.227	35.67
293.442	13.14
293.657	82.77
293.871	95.06
294.086	68.44
294.301	17.24
294.516	-13.48
294.73	109.4
294.945	29.52
295.16	66.39
295.374	58.2
295.589	127.83
295.804	-52.39
296.018	19.29
296.233	47.96
296.447	19.29
296.662	17.24
296.877	78.68
297.091	11.09
297.306	17.24
297.52	-97.45
297.735	27.48
297.949	-31.91
298.164	-13.48
298.378	33.62
298.593	0.85
298.807	17.24
299.022	-7.34
299.236	41.81
299.451	62.29
299.665	-64.68
299.88	68.44
300.094	113.49
300.309	54.1
300.523	-70.83
300.737	-3.24
300.952	-13.48
301.166	-27.82
301.381	43.86
301.595	2.9
301.809	-7.34
302.024	11.09
302.238	-15.53
302.452	74.58
302.667	-15.53
302.881	56.15
303.095	35.67
303.309	23.38
303.524	-3.24
303.738	11.09
303.952	17.24
304.166	21.33
304.381	-25.77
304.595	41.81
304.809	31.57
305.023	-33.96
305.237	-9.39
305.452	-15.53
305.666	39.76
305.88	50
306.094	-3.24
306.308	-15.53
306.522	78.68
306.736	43.86
306.95	41.81
307.164	50
307.379	2.9
307.593	66.39
307.807	-27.82
308.021	11.09
308.235	33.62
308.449	33.62
308.663	86.87
308.877	52.05
309.091	45.91
309.305	19.29
309.519	13.14
309.733	50
309.947	-15.53
310.161	21.33
310.374	52.05
310.588	-5.29
310.802	-60.59
311.016	-31.91
311.23	25.43
311.444	82.77
311.658	-40.11
311.872	45.91
312.085	82.77
312.299	84.82
312.513	0.85
312.727	-11.43
312.941	-3.24
313.154	60.24
313.368	86.87
313.582	70.48
313.796	-31.91
314.009	70.48
314.223	-31.91
314.437	25.43
314.651	-3.24
314.864	33.62
315.078	27.48
315.292	-60.59
315.505	7
315.719	70.48
315.933	25.43
316.146	29.52
316.36	31.57
316.573	136.02
316.787	50
317.001	50
317.214	13.14
317.428	-13.48
317.641	25.43
317.855	-29.87
318.068	27.48
318.282	-13.48
318.495	99.16
318.709	78.68
318.922	62.29
319.136	142.16
319.349	107.35
319.563	29.52
319.776	95.06
319.99	-13.48
320.203	78.68
320.417	-23.72
320.63	33.62
320.843	99.16
321.057	58.2
321.27	90.96
321.483	2.9
321.697	95.06
321.91	11.09
322.124	17.24
322.337	45.91
322.55	-68.78
322.763	37.72
322.977	-19.63
323.19	25.43
323.403	33.62
323.617	-21.67
323.83	95.06
324.043	-15.53
324.256	86.87
324.469	-27.82
324.683	52.05
324.896	-52.39
325.109	-13.48
325.322	-27.82
325.535	50
325.748	109.4
325.962	-15.53
326.175	37.72
326.388	43.86
326.601	-3.24
326.814	50
327.027	-40.11
327.24	74.58
327.453	-19.63
327.666	-7.34
327.879	52.05
328.092	9.05
328.305	84.82
328.518	-48.3
328.731	23.38
328.944	37.72
329.157	66.39
329.37	0.85
329.583	11.09
329.796	19.29
330.009	58.2
330.222	50
330.435	84.82
330.648	-11.43
330.861	-44.2
331.073	-68.78
331.286	-25.77
331.499	-3.24
331.712	-15.53
331.925	54.1
332.138	-48.3
332.35	99.16
332.563	-15.53
332.776	-19.63
332.989	-40.11
333.202	62.29
333.414	62.29
333.627	41.81
333.84	17.24
334.053	52.05
334.265	-31.91
334.478	-56.49
334.691	41.81
334.903	-7.34
335.116	0.85
335.329	41.81
335.541	58.2
335.754	84.82
335.966	-13.48
336.179	-64.68
336.392	58.2
336.604	-21.67
336.817	43.86
337.029	90.96
337.242	-17.58
337.454	27.48
337.667	-95.4
337.88	13.14
338.092	-27.82
338.305	-5.29
338.517	-25.77
338.729	88.92
338.942	25.43
339.154	9.05
339.367	11.09
339.579	50
339.792	-3.24
340.004	88.92
340.217	68.44
340.429	82.77
340.641	-23.72
340.854	84.82
341.066	35.67
341.278	68.44
341.491	80.72
341.703	86.87
341.915	9.05
342.128	72.53
342.34	107.35
342.552	-11.43
342.764	-11.43
342.977	17.24
343.189	52.05
343.401	21.33
343.613	2.9
343.826	33.62
344.038	9.05
344.25	-1.19
344.462	-15.53
344.674	-9.39
344.886	-11.43
345.099	0.85
345.311	-11.43
345.523	29.52
345.735	-54.44
345.947	50
346.159	64.34
346.371	66.39
346.583	-33.96
346.795	119.64
347.007	-36.01
347.219	13.14
347.431	21.33
347.643	50
347.855	41.81
348.067	60.24
348.279	-3.24
348.491	93.01
348.703	27.48
348.915	9.05
349.127	-52.39
349.339	25.43
349.551	74.58
349.763	43.86
349.975	86.87
350.187	50
350.399	11.09
350.61	33.62
350.822	4.95
351.034	-7.34
351.246	41.81
351.458	52.05
351.669	41.81
351.881	107.35
352.093	45.91
352.305	119.64
352.517	21.33
352.728	58.2
352.94	-48.3
353.152	74.58
353.363	17.24
353.575	-15.53
353.787	117.59
353.999	58.2
354.21	29.52
354.422	-23.72
354.633	33.62
354.845	31.57
355.057	90.96
355.268	50
355.48	50
355.692	25.43
355.903	35.67
356.115	21.33
356.326	-89.26
356.538	70.48
356.749	13.14
356.961	58.2
357.172	82.77
357.384	107.35
357.595	119.64
357.807	-17.58
358.018	17.24
358.23	-19.63
358.441	82.77
358.653	70.48
358.864	80.72
359.075	54.1
359.287	58.2
359.498	76.63
359.709	66.39
359.921	101.2
360.132	-23.72
360.344	-5.29
360.555	27.48
360.766	41.81
360.977	35.67
361.189	123.73
361.4	9.05
361.611	60.24
361.823	80.72
362.034	72.53
362.245	-11.43
362.456	50
362.667	43.86
362.879	-42.15
363.09	33.62
363.301	90.96
363.512	84.82
363.723	19.29
363.935	19.29
364.146	19.29
364.357	29.52
364.568	99.16
364.779	31.57
364.99	93.01
365.201	-31.91
365.412	125.78
365.623	-23.72
365.834	45.91
366.045	4.95
366.256	17.24
366.467	58.2
366.678	27.48
366.889	105.3
367.1	-19.63
367.311	50
367.522	33.62
367.733	72.53
367.944	52.05
368.155	43.86
368.366	82.77
368.577	25.43
368.788	62.29
368.999	9.05
369.209	84.82
369.42	56.15
369.631	99.16
369.842	39.76
370.053	-44.2
370.264	56.15
370.474	-64.68
370.685	17.24
370.896	131.92
371.107	70.48
371.317	60.24
371.528	27.48
371.739	82.77
371.95	68.44
372.16	-25.77
372.371	25.43
372.582	-7.34
372.792	121.68
373.003	119.64
373.214	62.29
373.424	52.05
373.635	-21.67
373.846	105.3
374.056	29.52
374.267	-21.67
374.477	86.87
374.688	-15.53
374.898	54.1
375.109	70.48
375.319	23.38
375.53	66.39
375.74	50
375.951	11.09
376.161	25.43
376.372	58.2
376.582	23.38
376.793	60.24
377.003	25.43
377.214	35.67
377.424	37.72
377.635	60.24
377.845	33.62
378.055	107.35
378.266	-48.3
378.476	70.48
378.686	41.81
378.897	13.14
379.107	107.35
379.317	43.86
379.528	13.14
379.738	4.95
379.948	7
380.158	123.73
380.369	50
380.579	99.16
380.789	54.1
380.999	76.63
381.21	17.24
381.42	76.63
381.63	43.86
381.84	-13.48
382.05	105.3
382.261	43.86
382.471	90.96
382.681	43.86
382.891	68.44
383.101	-13.48
383.311	13.14
383.521	95.06
383.731	-11.43
383.941	50
384.151	-31.91
384.361	11.09
384.571	54.1
384.781	35.67
384.991	60.24
385.201	78.68
385.411	142.16
385.621	0.85
385.831	78.68
386.041	35.67
386.251	-44.2
386.461	84.82
386.671	-44.2
386.881	19.29
387.091	35.67
387.301	93.01
387.511	19.29
387.72	43.86
387.93	95.06
388.14	-48.3
388.35	-19.63
388.56	21.33
388.769	43.86
388.979	33.62
389.189	62.29
389.399	50
389.609	4.95
389.818	109.4
390.028	80.72
390.238	76.63
390.447	11.09
390.657	-23.72
390.867	-5.29
391.076	11.09
391.286	84.82
391.496	99.16
391.705	70.48
391.915	103.25
392.125	82.77
392.334	19.29
392.544	111.44
392.753	62.29
392.963	-48.3
393.172	39.76
393.382	-31.91
393.591	119.64
393.801	66.39
394.01	-11.43
394.22	64.34
394.429	41.81
394.639	41.81
394.848	168.79
395.058	41.81
395.267	113.49
395.477	74.58
395.686	97.11
395.895	138.07
396.105	189.27
396.314	123.73
396.524	17.24
396.733	121.68
396.942	93.01
397.152	41.81
397.361	123.73
397.57	97.11
397.78	39.76
397.989	19.29
398.198	127.83
398.407	82.77
398.617	189.27
398.826	140.12
399.035	90.96
399.244	162.64
399.453	95.06
399.663	109.4
399.872	88.92
400.081	50
400.29	107.35
400.499	68.44
400.708	127.83
400.917	33.62
401.127	154.45
401.336	23.38
401.545	213.84
401.754	90.96
401.963	101.2
402.172	43.86
402.381	90.96
402.59	105.3
402.799	74.58
403.008	123.73
403.217	138.07
403.426	148.31
403.635	76.63
403.844	129.88
404.053	131.92
404.262	99.16
404.471	183.12
404.68	88.92
404.888	197.46
405.097	187.22
405.306	133.97
405.515	222.03
405.724	265.04
405.933	287.57
406.142	131.92
406.35	133.97
406.559	170.83
406.768	248.66
406.977	254.8
407.185	238.42
407.394	246.61
407.603	191.31
407.812	246.61
408.02	254.8
408.229	172.88
408.438	217.94
408.646	228.18
408.855	242.51
409.064	283.47
409.272	340.82
409.481	381.78
409.69	392.02
409.898	256.85
410.107	295.76
410.315	389.97
410.524	394.06
410.733	381.78
410.941	340.82
411.15	441.17
411.358	424.78
411.567	435.02
411.775	451.41
411.984	541.52
412.192	498.51
412.401	467.79
412.609	617.29
412.818	492.37
413.026	598.86
413.234	549.71
413.443	699.21
413.651	598.86
413.86	611.15
414.068	664.4
414.276	734.03
414.485	648.01
414.693	750.41
414.901	729.93
415.11	777.03
415.318	885.58
415.526	869.19
415.734	918.34
415.943	981.83
416.151	938.82
416.359	914.25
416.567	1037.13
416.776	1049.41
416.984	1117
417.192	1061.7
417.4	1100.61
417.608	1205.06
417.817	1141.57
418.025	1198.92
418.233	1362.75
418.441	1370.94
418.649	1467.2
418.857	1575.74
419.065	1528.64
419.273	1598.27
419.481	1614.65
419.689	1794.87
419.897	1747.77
420.105	1839.93
420.313	1839.93
420.521	1882.94
420.729	1956.66
420.937	1811.26
421.145	2050.87
421.353	2104.12
421.561	2337.59
421.769	2329.39
421.977	2419.5
422.185	2368.31
422.393	2491.18
422.601	2636.59
422.809	2728.75
423.017	2763.56
423.224	2841.39
423.432	2962.22
423.64	3037.99
423.848	3144.49
424.056	3148.58
424.263	3380
424.471	3253.03
424.679	3515.17
424.887	3623.71
425.094	3711.77
425.302	3793.69
425.51	3891.99
425.718	4055.83
425.925	4074.26
426.133	4274.96
426.341	4522.77
426.548	4616.97
426.756	4461.33
426.964	4690.7
427.171	5053.19
427.379	4981.51
427.586	5155.59
427.794	5387.01
428.001	5628.67
428.209	5788.41
428.417	5653.25
428.624	6275.83
428.832	6130.42
429.039	6046.46
429.247	6011.64
429.454	6722.29
429.662	7193.32
429.869	6660.85
430.076	6963.95
430.284	6939.37
430.491	7185.13
430.699	7611.11
430.906	7645.92
431.114	7686.88
431.321	7922.4
431.528	8137.43
431.736	8694.48
431.943	9087.69
432.15	8680.14
432.358	8899.28
432.565	9450.18
432.772	9349.83
432.979	9669.31
433.187	9906.88
433.394	9978.56
433.601	10756.79
433.808	10629.81
434.016	11029.17
434.223	10902.19
434.43	11889.31
434.637	11332.26
434.844	12350.1
435.052	12257.95
435.259	12477.08
435.466	12503.7
435.673	12538.52
435.88	13222.54
436.087	13859.46
436.294	13812.35
436.501	13503.11
436.708	13628.04
436.915	14152.32
437.122	14877.3
437.329	14713.46
437.537	15207.02
437.743	15426.15
437.95	15319.66
438.157	16167.52
438.364	16724.57
438.571	16609.88
438.778	16812.63
438.985	18297.41
439.192	17699.4
439.399	18270.78
439.606	17754.69
439.813	18651.7
440.02	20021.8
440.227	19446.32
440.433	19569.19
440.64	19995.17
440.847	19966.5
441.054	20384.29
441.261	21834.25
441.467	21412.37
441.674	21871.11
441.881	22583.8
442.088	22546.94
442.294	22561.28
442.501	22874.62
442.708	23564.78
442.914	24396.26
443.121	25240.02
443.328	24558.05
443.534	26153.41
443.741	25555.41
443.948	25029.08
444.154	27453.87
444.361	26845.63
444.568	26972.6
444.774	26878.4
444.981	27558.32
445.187	28209.57
445.394	29397.4
445.6	28699.04
445.807	31727.99
446.013	30564.74
446.22	30681.47
446.426	32307.56
446.633	32751.97
446.839	33790.29
447.046	31830.38
447.252	34279.75
447.459	34138.44
447.665	34050.38
447.871	35356.99
448.078	36731.17
448.284	34982.21
448.491	35995.95
448.697	37353.76
448.903	38000.91
449.11	37867.8
449.316	37382.43
449.522	38031.63
449.728	38873.35
449.935	39553.27
450.141	39299.33
450.347	40130.8
450.553	38705.41
450.76	39368.96
450.966	40722.66
451.172	40311.02
451.378	41341.15
451.584	40614.12
451.791	41777.37
451.997	41310.43
452.203	41847
452.409	42078.42
452.615	41726.17
452.821	39948.53
453.027	39850.23
453.233	41973.97
453.44	40030.45
453.646	40261.87
453.852	41132.26
454.058	41263.33
454.264	40077.55
454.47	41181.41
454.676	39860.47
454.882	41408.73
455.088	37798.16
455.294	38205.71
455.5	38578.44
455.705	39442.68
455.911	37757.21
456.117	36938.02
456.323	36632.87
456.529	34423.11
456.735	36319.53
456.941	35045.69
457.147	34484.55
457.352	33698.13
457.558	33106.27
457.764	33419.61
457.97	32274.79
458.176	31748.46
458.381	32102.76
458.587	30273.93
458.793	30370.18
458.999	28463.52
459.204	30503.3
459.41	29737.36
459.616	27662.77
459.821	27664.82
460.027	27771.31
460.233	27195.83
460.438	25838.03
460.644	25967.05
460.85	25053.66
461.055	24476.13
461.261	24381.92
461.466	22706.68
461.672	21803.53
461.878	23742.96
462.083	21991.94
462.289	21651.98
462.494	21484.05
462.7	20232.74
462.905	19737.13
463.111	20376.09
463.316	20570.65
463.522	20181.54
463.727	20308.51
463.932	20060.71
464.138	19810.86
464.343	19798.57
464.549	19202.61
464.754	19827.24
464.959	19819.05
465.165	19730.98
465.37	18698.81
465.575	18283.07
465.781	19122.74
465.986	19096.11
466.191	18530.87
466.397	18106.95
466.602	17113.68
466.807	17728.07
467.012	18178.62
467.218	17482.31
467.423	17293.9
467.628	17492.55
