Data from USB4F104151__251__14-34-15-934.txt Node

Date: Thu Mar 13 14:34:15 EDT 2025
User: louis
Spectrometer: USB4F10415
Trigger mode: 4
Integration Time (sec): 2.500000E-2
Scans to average: 1
Electric dark correction enabled: true
Nonlinearity correction enabled: false
Boxcar width: 0
XAxis mode: Wavelengths
Number of Pixels in Spectrum: 3648
>>>>>Begin Spectral Data<<<<<
178.204	-146.94
178.424	-146.94
178.644	-146.94
178.864	-167.42
179.084	-210.43
179.304	47.62
179.524	-22.02
179.744	-11.78
179.964	18.94
180.184	-36.35
180.404	68.09
180.624	39.42
180.844	27.14
181.064	-36.35
181.283	27.14
181.503	-67.07
181.723	-54.78
181.943	-81.41
182.163	125.44
182.383	-17.92
182.602	8.7
182.822	45.57
183.042	-22.02
183.262	18.94
183.482	8.7
183.701	0.51
183.921	74.24
184.141	-7.68
184.361	45.57
184.58	-54.78
184.8	41.47
185.02	41.47
185.239	66.05
185.459	8.7
185.679	-38.4
185.898	-13.82
186.118	-3.58
186.338	8.7
186.557	119.29
186.777	-60.93
186.997	57.86
187.216	16.9
187.436	66.05
187.655	0.51
187.875	16.9
188.095	2.56
188.314	6.66
188.534	25.09
188.753	-24.06
188.973	49.66
189.192	0.51
189.412	4.61
189.631	-9.73
189.851	66.05
190.07	68.09
190.29	12.8
190.509	33.28
190.729	37.38
190.948	72.19
191.168	164.35
191.387	0.51
191.607	27.14
191.826	29.18
192.045	-13.82
192.265	4.61
192.484	31.23
192.704	10.75
192.923	-32.26
193.142	41.47
193.362	2.56
193.581	96.77
193.8	31.23
194.02	35.33
194.239	6.66
194.458	35.33
194.678	57.86
194.897	-40.45
195.116	4.61
195.335	68.09
195.555	98.81
195.774	-30.21
195.993	33.28
196.212	84.48
196.432	49.66
196.651	-7.68
196.87	0.51
197.089	139.77
197.308	-7.68
197.528	10.75
197.747	-46.59
197.966	70.14
198.185	41.47
198.404	-7.68
198.623	45.57
198.842	-1.54
199.062	57.86
199.281	66.05
199.5	16.9
199.719	59.9
199.938	25.09
200.157	35.33
200.376	2.56
200.595	90.62
200.814	43.52
201.033	-54.78
201.252	115.2
201.471	-9.73
201.69	12.8
201.909	37.38
202.128	23.04
202.347	-32.26
202.566	-5.63
202.785	27.14
203.004	-40.45
203.223	82.43
203.442	61.95
203.661	41.47
203.879	12.8
204.098	68.09
204.317	68.09
204.536	25.09
204.755	33.28
204.974	16.9
205.193	94.72
205.411	70.14
205.63	45.57
205.849	47.62
206.068	-46.59
206.287	53.76
206.505	45.57
206.724	33.28
206.943	51.71
207.162	-28.16
207.381	84.48
207.599	66.05
207.818	0.51
208.037	25.09
208.255	16.9
208.474	74.24
208.693	-44.54
208.911	61.95
209.13	33.28
209.349	35.33
209.567	0.51
209.786	76.29
210.005	27.14
210.223	45.57
210.442	-28.16
210.661	59.9
210.879	8.7
211.098	37.38
211.316	76.29
211.535	43.52
211.753	-48.64
211.972	14.85
212.191	-89.6
212.409	-15.87
212.628	51.71
212.846	61.95
213.065	10.75
213.283	86.53
213.502	18.94
213.72	61.95
213.938	-24.06
214.157	-3.58
214.375	31.23
214.594	-7.68
214.812	-13.82
215.031	94.72
215.249	53.76
215.467	37.38
215.686	25.09
215.904	135.68
216.122	47.62
216.341	49.66
216.559	66.05
216.778	16.9
216.996	37.38
217.214	-15.87
217.432	-40.45
217.651	-30.21
217.869	51.71
218.087	61.95
218.306	18.94
218.524	8.7
218.742	-30.21
218.96	41.47
219.179	-5.63
219.397	74.24
219.615	25.09
219.833	-38.4
220.051	-42.5
220.27	14.85
220.488	10.75
220.706	61.95
220.924	-28.16
221.142	-3.58
221.36	10.75
221.578	0.51
221.796	-5.63
222.015	18.94
222.233	18.94
222.451	43.52
222.669	-56.83
222.887	27.14
223.105	-19.97
223.323	-34.3
223.541	-22.02
223.759	29.18
223.977	16.9
224.195	27.14
224.413	82.43
224.631	45.57
224.849	47.62
225.067	109.05
225.285	33.28
225.503	-13.82
225.721	-54.78
225.939	39.42
226.157	2.56
226.375	59.9
226.592	-30.21
226.81	57.86
227.028	86.53
227.246	76.29
227.464	41.47
227.682	12.8
227.9	25.09
228.117	-38.4
228.335	16.9
228.553	-69.12
228.771	0.51
228.989	59.9
229.206	49.66
229.424	-60.93
229.642	-32.26
229.86	12.8
230.077	-40.45
230.295	45.57
230.513	14.85
230.731	33.28
230.948	68.09
231.166	139.77
231.384	0.51
231.601	-15.87
231.819	86.53
232.037	-52.74
232.254	-7.68
232.472	53.76
232.689	-85.5
232.907	0.51
233.125	-15.87
233.342	12.8
233.56	57.86
233.777	-22.02
233.995	14.85
234.213	-17.92
234.43	90.62
234.648	12.8
234.865	-1.54
235.083	59.9
235.3	102.91
235.518	102.91
235.735	33.28
235.953	2.56
236.17	107.01
236.388	35.33
236.605	8.7
236.822	8.7
237.04	18.94
237.257	33.28
237.475	-30.21
237.692	90.62
237.909	12.8
238.127	-32.26
238.344	53.76
238.562	33.28
238.779	35.33
238.996	37.38
239.214	0.51
239.431	82.43
239.648	51.71
239.865	49.66
240.083	57.86
240.3	41.47
240.517	53.76
240.735	49.66
240.952	123.39
241.169	57.86
241.386	-38.4
241.603	-34.3
241.821	12.8
242.038	12.8
242.255	59.9
242.472	-62.98
242.689	49.66
242.907	0.51
243.124	-7.68
243.341	-15.87
243.558	-24.06
243.775	-24.06
243.992	-62.98
244.209	-3.58
244.426	129.53
244.643	43.52
244.86	16.9
245.078	74.24
245.295	100.86
245.512	25.09
245.729	-15.87
245.946	49.66
246.163	8.7
246.38	41.47
246.597	86.53
246.814	107.01
247.031	-28.16
247.248	-7.68
247.464	-15.87
247.681	8.7
247.898	35.33
248.115	-44.54
248.332	-5.63
248.549	57.86
248.766	39.42
248.983	16.9
249.2	-7.68
249.417	72.19
249.633	-11.78
249.85	-22.02
250.067	59.9
250.284	-48.64
250.501	61.95
250.717	57.86
250.934	33.28
251.151	10.75
251.368	-11.78
251.585	-7.68
251.801	-30.21
252.018	29.18
252.235	86.53
252.451	-13.82
252.668	-7.68
252.885	119.29
253.102	-15.87
253.318	0.51
253.535	-5.63
253.752	25.09
253.968	25.09
254.185	-17.92
254.401	-38.4
254.618	12.8
254.835	-24.06
255.051	10.75
255.268	41.47
255.484	-11.78
255.701	20.99
255.917	59.9
256.134	20.99
256.351	49.66
256.567	-1.54
256.784	33.28
257	-87.55
257.217	27.14
257.433	16.9
257.65	8.7
257.866	92.67
258.082	4.61
258.299	37.38
258.515	0.51
258.732	-38.4
258.948	-15.87
259.165	20.99
259.381	37.38
259.597	-19.97
259.814	-11.78
260.03	10.75
260.246	76.29
260.463	33.28
260.679	43.52
260.895	0.51
261.112	100.86
261.328	47.62
261.544	25.09
261.761	49.66
261.977	59.9
262.193	-22.02
262.409	55.81
262.626	66.05
262.842	-19.97
263.058	4.61
263.274	27.14
263.49	55.81
263.707	-15.87
263.923	90.62
264.139	12.8
264.355	-30.21
264.571	94.72
264.787	49.66
265.004	70.14
265.22	70.14
265.436	10.75
265.652	-60.93
265.868	25.09
266.084	-5.63
266.3	51.71
266.516	-13.82
266.732	27.14
266.948	12.8
267.164	-24.06
267.38	66.05
267.596	43.52
267.812	53.76
268.028	0.51
268.244	-7.68
268.46	6.66
268.676	57.86
268.892	6.66
269.108	-7.68
269.324	-48.64
269.54	8.7
269.756	72.19
269.972	-73.21
270.188	-22.02
270.403	35.33
270.619	43.52
270.835	12.8
271.051	49.66
271.267	0.51
271.483	8.7
271.698	0.51
271.914	49.66
272.13	8.7
272.346	-52.74
272.562	-44.54
272.777	4.61
272.993	-3.58
273.209	25.09
273.425	2.56
273.64	4.61
273.856	90.62
274.072	-19.97
274.287	-30.21
274.503	57.86
274.719	-7.68
274.934	66.05
275.15	-15.87
275.366	-52.74
275.581	37.38
275.797	-40.45
276.012	8.7
276.228	-15.87
276.444	20.99
276.659	43.52
276.875	8.7
277.09	-7.68
277.306	29.18
277.521	8.7
277.737	20.99
277.952	-24.06
278.168	35.33
278.383	12.8
278.599	-34.3
278.814	20.99
279.03	-22.02
279.245	12.8
279.461	25.09
279.676	139.77
279.892	-32.26
280.107	-48.64
280.322	2.56
280.538	2.56
280.753	33.28
280.969	8.7
281.184	6.66
281.399	-19.97
281.615	-15.87
281.83	12.8
282.045	33.28
282.26	8.7
282.476	119.29
282.691	43.52
282.906	8.7
283.122	-24.06
283.337	-40.45
283.552	39.42
283.767	-22.02
283.983	35.33
284.198	53.76
284.413	76.29
284.628	-44.54
284.843	0.51
285.058	0.51
285.274	33.28
285.489	27.14
285.704	-7.68
285.919	-11.78
286.134	-52.74
286.349	2.56
286.564	-44.54
286.779	121.34
286.995	-46.59
287.21	-7.68
287.425	102.91
287.64	-11.78
287.855	70.14
288.07	0.51
288.285	104.96
288.5	57.86
288.715	51.71
288.93	-13.82
289.145	-5.63
289.36	57.86
289.575	90.62
289.79	37.38
290.004	27.14
290.219	-15.87
290.434	98.81
290.649	0.51
290.864	8.7
291.079	-5.63
291.294	-30.21
291.509	47.62
291.724	33.28
291.938	35.33
292.153	-28.16
292.368	0.51
292.583	45.57
292.798	37.38
293.012	66.05
293.227	41.47
293.442	-13.82
293.657	86.53
293.871	107.01
294.086	66.05
294.301	18.94
294.516	-34.3
294.73	-105.98
294.945	-40.45
295.16	2.56
295.374	121.34
295.589	37.38
295.804	70.14
296.018	29.18
296.233	47.62
296.447	45.57
296.662	-11.78
296.877	49.66
297.091	33.28
297.306	45.57
297.52	0.51
297.735	78.33
297.949	16.9
298.164	-40.45
298.378	23.04
298.593	-44.54
298.807	-7.68
299.022	25.09
299.236	51.71
299.451	2.56
299.665	33.28
299.88	8.7
300.094	-52.74
300.309	53.76
300.523	100.86
300.737	25.09
300.952	49.66
301.166	20.99
301.381	25.09
301.595	0.51
301.809	-69.12
302.024	16.9
302.238	-40.45
302.452	18.94
302.667	-17.92
302.881	33.28
303.095	-5.63
303.309	-40.45
303.524	59.9
303.738	51.71
303.952	-93.69
304.166	-56.83
304.381	-67.07
304.595	98.81
304.809	-54.78
305.023	66.05
305.237	0.51
305.452	59.9
305.666	76.29
305.88	-24.06
306.094	-3.58
306.308	86.53
306.522	45.57
306.736	-52.74
306.95	-7.68
307.164	8.7
307.379	59.9
307.593	164.35
307.807	66.05
308.021	43.52
308.235	16.9
308.449	-22.02
308.663	74.24
308.877	59.9
309.091	-54.78
309.305	33.28
309.519	-65.02
309.733	94.72
309.947	-17.92
310.161	25.09
310.374	70.14
310.588	18.94
310.802	-58.88
311.016	33.28
311.23	-13.82
311.444	-28.16
311.658	10.75
311.872	121.34
312.085	45.57
312.299	86.53
312.513	33.28
312.727	25.09
312.941	0.51
313.154	53.76
313.368	-1.54
313.582	23.04
313.796	-40.45
314.009	88.57
314.223	-34.3
314.437	29.18
314.651	-13.82
314.864	-22.02
315.078	-13.82
315.292	27.14
315.505	-7.68
315.719	57.86
315.933	-5.63
316.146	-36.35
316.36	27.14
316.573	66.05
316.787	0.51
317.001	-36.35
317.214	39.42
317.428	-5.63
317.641	49.66
317.855	84.48
318.068	2.56
318.282	-3.58
318.495	90.62
318.709	16.9
318.922	41.47
319.136	59.9
319.349	72.19
319.563	8.7
319.776	37.38
319.99	25.09
320.203	51.71
320.417	55.81
320.63	41.47
320.843	78.33
321.057	16.9
321.27	-11.78
321.483	18.94
321.697	-11.78
321.91	115.2
322.124	98.81
322.337	10.75
322.55	-77.31
322.763	70.14
322.977	35.33
323.19	-11.78
323.403	27.14
323.617	86.53
323.83	37.38
324.043	-7.68
324.256	27.14
324.469	27.14
324.683	66.05
324.896	76.29
325.109	82.43
325.322	-1.54
325.535	80.38
325.748	53.76
325.962	4.61
326.175	29.18
326.388	-15.87
326.601	78.33
326.814	27.14
327.027	41.47
327.24	8.7
327.453	12.8
327.666	43.52
327.879	16.9
328.092	66.05
328.305	33.28
328.518	27.14
328.731	74.24
328.944	43.52
329.157	82.43
329.37	-13.82
329.583	66.05
329.796	-13.82
330.009	35.33
330.222	41.47
330.435	123.39
330.648	-69.12
330.861	-28.16
331.073	-30.21
331.286	16.9
331.499	-75.26
331.712	35.33
331.925	-1.54
332.138	8.7
332.35	59.9
332.563	16.9
332.776	82.43
332.989	-32.26
333.202	33.28
333.414	41.47
333.627	-11.78
333.84	-15.87
334.053	80.38
334.265	-48.64
334.478	-5.63
334.691	70.14
334.903	59.9
335.116	16.9
335.329	20.99
335.541	61.95
335.754	53.76
335.966	4.61
336.179	35.33
336.392	-19.97
336.604	4.61
336.817	59.9
337.029	8.7
337.242	2.56
337.454	23.04
337.667	86.53
337.88	88.57
338.092	-24.06
338.305	76.29
338.517	57.86
338.729	96.77
338.942	109.05
339.154	-15.87
339.367	-60.93
339.579	92.67
339.792	-44.54
340.004	139.77
340.217	8.7
340.429	39.42
340.641	-22.02
340.854	25.09
341.066	-30.21
341.278	-13.82
341.491	88.57
341.703	27.14
341.915	37.38
342.128	66.05
342.34	27.14
342.552	47.62
342.764	-46.59
342.977	-32.26
343.189	25.09
343.401	8.7
343.613	-52.74
343.826	0.51
344.038	20.99
344.25	-7.68
344.462	-32.26
344.674	66.05
344.886	0.51
345.099	61.95
345.311	-65.02
345.523	-22.02
345.735	-60.93
345.947	37.38
346.159	33.28
346.371	4.61
346.583	0.51
346.795	78.33
347.007	16.9
347.219	31.23
347.431	57.86
347.643	41.47
347.855	33.28
348.067	-5.63
348.279	33.28
348.491	16.9
348.703	61.95
348.915	8.7
349.127	-15.87
349.339	74.24
349.551	-56.83
349.763	37.38
349.975	41.47
350.187	90.62
350.399	-42.5
350.61	109.05
350.822	20.99
351.034	86.53
351.246	53.76
351.458	90.62
351.669	27.14
351.881	-15.87
352.093	57.86
352.305	41.47
352.517	29.18
352.728	74.24
352.94	41.47
353.152	4.61
353.363	2.56
353.575	25.09
353.787	123.39
353.999	59.9
354.21	125.44
354.422	-15.87
354.633	33.28
354.845	45.57
355.057	61.95
355.268	41.47
355.48	0.51
355.692	78.33
355.903	16.9
356.115	45.57
356.326	-81.41
356.538	84.48
356.749	-11.78
356.961	98.81
357.172	-28.16
357.384	-22.02
357.595	88.57
357.807	-36.35
358.018	43.52
358.23	39.42
358.441	2.56
358.653	61.95
358.864	100.86
359.075	-42.5
359.287	-32.26
359.498	41.47
359.709	33.28
359.921	51.71
360.132	16.9
360.344	41.47
360.555	-24.06
360.766	66.05
360.977	57.86
361.189	113.15
361.4	6.66
361.611	107.01
361.823	33.28
362.034	25.09
362.245	-32.26
362.456	57.86
362.667	90.62
362.879	49.66
363.09	47.62
363.301	98.81
363.512	55.81
363.723	27.14
363.935	41.47
364.146	39.42
364.357	-13.82
364.568	29.18
364.779	-69.12
364.99	53.76
365.201	53.76
365.412	47.62
365.623	-62.98
365.834	25.09
366.045	76.29
366.256	41.47
366.467	45.57
366.678	-13.82
366.889	29.18
367.1	51.71
367.311	10.75
367.522	-9.73
367.733	117.25
367.944	4.61
368.155	72.19
368.366	20.99
368.577	49.66
368.788	10.75
368.999	-22.02
369.209	109.05
369.42	92.67
369.631	107.01
369.842	84.48
370.053	-5.63
370.264	20.99
370.474	33.28
370.685	98.81
370.896	59.9
371.107	102.91
371.317	100.86
371.528	2.56
371.739	18.94
371.95	4.61
372.16	0.51
372.371	82.43
372.582	-22.02
372.792	10.75
373.003	25.09
373.214	68.09
373.424	59.9
373.635	10.75
373.846	20.99
374.056	4.61
374.267	49.66
374.477	41.47
374.688	-13.82
374.898	27.14
375.109	0.51
375.319	47.62
375.53	-7.68
375.74	29.18
375.951	-46.59
376.161	84.48
376.372	61.95
376.582	-40.45
376.793	82.43
377.003	-11.78
377.214	10.75
377.424	-28.16
377.635	59.9
377.845	10.75
378.055	-1.54
378.266	-1.54
378.476	57.86
378.686	-28.16
378.897	-22.02
379.107	16.9
379.317	33.28
379.528	-44.54
379.738	66.05
379.948	2.56
380.158	37.38
380.369	33.28
380.579	25.09
380.789	10.75
380.999	82.43
381.21	160.25
381.42	49.66
381.63	27.14
381.84	43.52
382.05	-17.92
382.261	92.67
382.471	111.1
382.681	-15.87
382.891	51.71
383.101	57.86
383.311	-3.58
383.521	78.33
383.731	-32.26
383.941	49.66
384.151	133.63
384.361	16.9
384.571	66.05
384.781	2.56
384.991	49.66
385.201	158.21
385.411	70.14
385.621	51.71
385.831	84.48
386.041	41.47
386.251	33.28
386.461	84.48
386.671	31.23
386.881	25.09
387.091	-28.16
387.301	70.14
387.511	-15.87
387.72	86.53
387.93	41.47
388.14	43.52
388.35	35.33
388.56	113.15
388.769	29.18
388.979	12.8
389.189	45.57
389.399	70.14
389.609	64
389.818	94.72
390.028	20.99
390.238	2.56
390.447	55.81
390.657	96.77
390.867	115.2
391.076	109.05
391.286	76.29
391.496	37.38
391.705	25.09
391.915	-9.73
392.125	82.43
392.334	41.47
392.544	72.19
392.753	139.77
392.963	102.91
393.172	127.49
393.382	57.86
393.591	131.58
393.801	0.51
394.01	90.62
394.22	53.76
394.429	107.01
394.639	49.66
394.848	82.43
395.058	84.48
395.267	125.44
395.477	76.29
395.686	57.86
395.895	111.1
396.105	119.29
396.314	78.33
396.524	82.43
396.733	129.53
396.942	147.97
397.152	104.96
397.361	80.38
397.57	53.76
397.78	33.28
397.989	74.24
398.198	156.16
398.407	133.63
398.617	123.39
398.826	66.05
399.035	92.67
399.244	107.01
399.453	76.29
399.663	57.86
399.872	86.53
400.081	143.87
400.29	164.35
400.499	84.48
400.708	186.88
400.917	123.39
401.127	115.2
401.336	145.92
401.545	215.55
401.754	115.2
401.963	92.67
402.172	145.92
402.381	66.05
402.59	55.81
402.799	98.81
403.008	152.06
403.217	82.43
403.426	107.01
403.635	160.25
403.844	147.97
404.053	141.82
404.262	49.66
404.471	217.6
404.68	115.2
404.888	127.49
405.097	188.93
405.306	156.16
405.515	137.73
405.724	158.21
405.933	160.25
406.142	168.45
406.35	174.59
406.559	139.77
406.768	190.97
406.977	246.27
407.185	238.08
407.394	172.54
407.603	248.32
407.812	274.94
408.02	238.08
408.229	233.98
408.438	223.74
408.646	225.79
408.855	295.42
409.064	238.08
409.272	221.69
409.481	328.19
409.69	227.84
409.898	264.7
410.107	352.76
410.315	377.34
410.524	266.75
410.733	297.47
410.941	373.24
411.15	393.72
411.358	381.43
411.567	467.45
411.775	451.07
411.984	461.3
412.192	457.21
412.401	565.75
412.609	559.61
412.818	553.46
413.026	541.18
413.234	532.98
413.443	532.98
413.651	551.42
413.86	619
414.068	688.63
414.276	707.06
414.485	678.39
414.693	696.82
414.901	864.75
415.11	733.68
415.318	815.6
415.526	815.6
415.734	901.62
415.943	934.39
416.151	909.81
416.359	860.66
416.567	975.35
416.776	973.3
416.984	1126.89
417.192	1044.98
417.4	1075.7
417.608	1083.89
417.817	1200.62
418.025	1135.09
418.233	1352.17
418.441	1237.49
418.649	1438.19
418.857	1452.52
419.065	1477.1
419.273	1458.67
419.481	1534.44
419.689	1579.5
419.897	1690.09
420.105	1634.79
420.313	1737.19
420.521	1878.5
420.729	1851.88
420.937	1878.5
421.145	1935.84
421.353	2122.21
421.561	2210.27
421.769	2224.61
421.977	2353.63
422.185	2171.36
422.393	2429.4
422.601	2560.47
422.809	2519.51
423.017	2587.1
423.224	2701.78
423.432	2865.62
423.64	2656.73
423.848	3035.6
424.056	2902.48
424.263	3236.3
424.471	3178.96
424.679	3264.97
424.887	3422.67
425.094	3490.25
425.302	3539.4
425.51	3723.72
425.718	3916.23
425.925	3748.29
426.133	3842.5
426.341	4213.18
426.548	4325.82
426.756	4350.4
426.964	4458.94
427.171	4688.31
427.379	4893.11
427.586	4823.48
427.794	4977.08
428.001	5169.59
428.209	5364.14
428.417	5425.58
428.624	5968.29
428.832	5695.91
429.039	5771.69
429.247	5740.97
429.454	6373.79
429.662	6701.47
429.869	6279.58
430.076	6607.26
430.284	6570.4
430.491	6709.66
430.699	7131.54
430.906	7092.63
431.114	7432.59
431.321	7555.47
431.528	7987.59
431.736	8161.67
431.943	8700.28
432.15	8438.14
432.358	8405.38
432.565	8851.83
432.772	8796.54
432.979	9199.99
433.187	9548.14
433.394	9617.77
433.601	9953.64
433.808	10166.63
434.016	10039.65
434.223	10514.78
434.43	11075.93
434.637	10969.43
434.844	11485.52
435.052	11735.37
435.259	11768.14
435.466	11614.54
435.673	11708.75
435.88	12366.15
436.087	13080.89
436.294	12931.39
436.501	12585.28
436.708	12994.87
436.915	13523.25
437.122	14186.79
437.329	14004.52
437.537	14584.1
437.743	14477.6
437.95	14620.96
438.157	15606.03
438.364	15849.74
438.571	15962.38
438.778	15728.91
438.985	17137.91
439.192	16634.11
439.399	17244.41
439.606	16918.78
439.813	17631.47
440.02	18716.9
440.227	18575.59
440.433	18260.2
440.64	18860.26
440.847	18677.99
441.054	19198.17
441.261	20521.16
441.467	19857.62
441.674	20553.93
441.881	21328.06
442.088	21098.69
442.294	20922.56
442.501	21602.49
442.708	21956.78
442.914	23064.74
443.121	24000.66
443.328	23038.11
443.534	24940.68
443.741	23984.27
443.948	23945.36
444.154	25723
444.361	25440.38
444.568	25577.59
444.774	25221.25
444.981	25778.29
445.187	26574.95
445.394	27762.78
445.6	27250.78
445.807	30033.97
446.013	28713.03
446.22	29218.88
446.426	30206
446.633	30765.1
446.839	31641.63
447.046	30240.82
447.252	32440.34
447.459	32020.5
447.665	32024.6
447.871	33196.04
448.078	34295.8
448.284	33177.61
448.491	33998.84
448.697	35317.73
448.903	35649.5
449.11	36147.16
449.316	35188.71
449.522	36124.63
449.728	37158.86
449.935	37439.43
450.141	37197.77
450.347	38105.02
450.553	37185.48
450.76	37402.57
450.966	38416.31
451.172	38111.16
451.378	39258.02
451.584	38422.45
451.791	39440.29
451.997	38993.84
452.203	39884.7
452.409	39993.25
452.615	39544.74
452.821	38078.39
453.027	37619.65
453.233	39776.16
453.44	38193.08
453.646	38590.39
453.852	38436.79
454.058	39417.77
454.264	38180.79
454.47	38893.49
454.676	38047.68
454.882	39499.69
455.088	36024.28
455.294	36413.4
455.5	37093.32
455.705	37240.78
455.911	36065.24
456.117	35604.45
456.323	34785.26
456.529	33091.59
456.735	34689.01
456.941	33574.91
457.147	32913.42
457.352	32043.03
457.558	31619.1
457.764	31612.96
457.97	30857.26
458.176	30464.05
458.381	30468.14
458.587	28995.65
458.793	28872.78
458.999	27619.42
459.204	29376.58
459.41	28868.68
459.616	26689.64
459.821	26802.28
460.027	26675.3
460.233	26284.14
460.438	25151.62
460.644	24887.43
460.85	23914.64
461.055	23269.53
461.261	23318.68
461.466	21530.81
461.672	20791.49
461.878	22454.44
462.083	20908.22
462.289	20615.37
462.494	20312.27
462.7	19448.02
462.905	18725.09
463.111	19634.39
463.316	19640.53
463.522	18964.7
463.727	19189.98
463.932	19097.82
464.138	18835.68
464.343	19024.09
464.549	18485.48
464.754	18813.15
464.959	18841.82
465.165	18544.87
465.37	17817.84
465.575	17199.35
465.781	18022.64
465.986	18147.56
466.191	17463.54
466.397	16836.86
466.602	16245
466.807	17006.84
467.012	16689.41
467.218	16802.05
