Data from USB4F104151__286__14-34-49-424.txt Node

Date: Thu Mar 13 14:34:49 EDT 2025
User: louis
Spectrometer: USB4F10415
Trigger mode: 4
Integration Time (sec): 2.500000E-2
Scans to average: 1
Electric dark correction enabled: true
Nonlinearity correction enabled: false
Boxcar width: 0
XAxis mode: Wavelengths
Number of Pixels in Spectrum: 3648
>>>>>Begin Spectral Data<<<<<
178.204	-99.33
178.424	-99.33
178.644	-99.33
178.864	-162.81
179.084	-152.57
179.304	5.12
179.524	29.7
179.744	-89.09
179.964	37.89
180.184	41.98
180.404	1.02
180.624	-17.41
180.844	62.46
181.064	-76.8
181.283	9.22
181.503	-35.84
181.723	31.74
181.943	-33.79
182.163	78.85
182.383	-27.65
182.602	48.13
182.822	50.18
183.042	33.79
183.262	-17.41
183.482	27.65
183.701	-72.7
183.921	-9.22
184.141	3.07
184.361	15.36
184.58	29.7
184.8	23.55
185.02	-23.55
185.239	-11.26
185.459	46.08
185.679	1.02
185.898	-115.71
186.118	117.76
186.338	1.02
186.557	37.89
186.777	-3.07
186.997	52.22
187.216	-33.79
187.436	44.03
187.655	27.65
187.875	66.56
188.095	-27.65
188.314	5.12
188.534	66.56
188.753	-74.75
188.973	46.08
189.192	78.85
189.412	7.17
189.631	56.32
189.851	-50.18
190.07	37.89
190.29	13.31
190.509	-7.17
190.729	29.7
190.948	-15.36
191.168	128
191.387	99.33
191.607	29.7
191.826	41.98
192.045	44.03
192.265	-31.74
192.484	25.6
192.704	9.22
192.923	-68.61
193.142	48.13
193.362	23.55
193.581	66.56
193.8	-7.17
194.02	48.13
194.239	-44.03
194.458	17.41
194.678	-19.46
194.897	21.5
195.116	7.17
195.335	-44.03
195.555	-21.5
195.774	39.94
195.993	29.7
196.212	37.89
196.432	37.89
196.651	5.12
196.87	-31.74
197.089	37.89
197.308	74.75
197.528	58.37
197.747	-62.46
197.966	84.99
198.185	58.37
198.404	13.31
198.623	-17.41
198.842	56.32
199.062	33.79
199.281	89.09
199.5	-25.6
199.719	39.94
199.938	-3.07
200.157	-11.26
200.376	37.89
200.595	41.98
200.814	31.74
201.033	-7.17
201.252	5.12
201.471	58.37
201.69	17.41
201.909	-23.55
202.128	-48.13
202.347	54.27
202.566	29.7
202.785	-50.18
203.004	-35.84
203.223	95.23
203.442	35.84
203.661	-31.74
203.879	13.31
204.098	56.32
204.317	-37.89
204.536	60.42
204.755	58.37
204.974	5.12
205.193	29.7
205.411	132.09
205.63	31.74
205.849	15.36
206.068	11.26
206.287	70.65
206.505	37.89
206.724	37.89
206.943	-31.74
207.162	35.84
207.381	39.94
207.599	66.56
207.818	29.7
208.037	23.55
208.255	13.31
208.474	13.31
208.693	3.07
208.911	66.56
209.13	-35.84
209.349	15.36
209.567	78.85
209.786	54.27
210.005	25.6
210.223	-3.07
210.442	13.31
210.661	13.31
210.879	19.46
211.098	-27.65
211.316	41.98
211.535	50.18
211.753	39.94
211.972	58.37
212.191	37.89
212.409	11.26
212.628	-1.02
212.846	-21.5
213.065	17.41
213.283	-44.03
213.502	-11.26
213.72	1.02
213.938	95.23
214.157	29.7
214.375	37.89
214.594	25.6
214.812	13.31
215.031	56.32
215.249	-3.07
215.467	56.32
215.686	64.51
215.904	-41.98
216.122	15.36
216.341	56.32
216.559	-9.22
216.778	60.42
216.996	113.66
217.214	-5.12
217.432	13.31
217.651	-89.09
217.869	7.17
218.087	25.6
218.306	-27.65
218.524	-3.07
218.742	72.7
218.96	37.89
219.179	-5.12
219.397	103.42
219.615	123.9
219.833	54.27
220.051	50.18
220.27	99.33
220.488	58.37
220.706	58.37
220.924	46.08
221.142	37.89
221.36	-7.17
221.578	62.46
221.796	-7.17
222.015	21.5
222.233	31.74
222.451	39.94
222.669	33.79
222.887	9.22
223.105	-17.41
223.323	-3.07
223.541	-35.84
223.759	-5.12
223.977	13.31
224.195	103.42
224.413	70.65
224.631	-13.31
224.849	37.89
225.067	60.42
225.285	-46.08
225.503	-9.22
225.721	15.36
225.939	11.26
226.157	-13.31
226.375	87.04
226.592	-62.46
226.81	46.08
227.028	-17.41
227.246	37.89
227.464	21.5
227.682	-25.6
227.9	-3.07
228.117	23.55
228.335	25.6
228.553	-56.32
228.771	17.41
228.989	-9.22
229.206	29.7
229.424	46.08
229.642	25.6
229.86	-11.26
230.077	62.46
230.295	1.02
230.513	9.22
230.731	35.84
230.948	87.04
231.166	54.27
231.384	-27.65
231.601	-3.07
231.819	25.6
232.037	-7.17
232.254	72.7
232.472	-23.55
232.689	-1.02
232.907	52.22
233.125	-7.17
233.342	29.7
233.56	103.42
233.777	72.7
233.995	-41.98
234.213	89.09
234.43	58.37
234.648	87.04
234.865	-21.5
235.083	29.7
235.3	-3.07
235.518	58.37
235.735	46.08
235.953	15.36
236.17	13.31
236.388	74.75
236.605	31.74
236.822	39.94
237.04	54.27
237.257	31.74
237.475	7.17
237.692	31.74
237.909	46.08
238.127	5.12
238.344	33.79
238.562	29.7
238.779	-39.94
238.996	-52.22
239.214	-17.41
239.431	52.22
239.648	21.5
239.865	44.03
240.083	29.7
240.3	50.18
240.517	29.7
240.735	54.27
240.952	74.75
241.169	56.32
241.386	-56.32
241.603	-3.07
241.821	-60.42
242.038	54.27
242.255	1.02
242.472	9.22
242.689	76.8
242.907	103.42
243.124	17.41
243.341	56.32
243.558	-9.22
243.775	-13.31
243.992	-3.07
244.209	3.07
244.426	52.22
244.643	21.5
244.86	3.07
245.078	-1.02
245.295	27.65
245.512	29.7
245.729	-93.18
245.946	64.51
246.163	39.94
246.38	13.31
246.597	5.12
246.814	-58.37
247.031	5.12
247.248	48.13
247.464	74.75
247.681	78.85
247.898	13.31
248.115	13.31
248.332	-19.46
248.549	91.13
248.766	105.47
248.983	-48.13
249.2	64.51
249.417	74.75
249.633	13.31
249.85	37.89
250.067	17.41
250.284	37.89
250.501	-70.65
250.717	113.66
250.934	52.22
251.151	46.08
251.368	7.17
251.585	58.37
251.801	37.89
252.018	-35.84
252.235	7.17
252.451	46.08
252.668	70.65
252.885	21.5
253.102	41.98
253.318	54.27
253.535	5.12
253.752	54.27
253.968	54.27
254.185	21.5
254.401	-25.6
254.618	54.27
254.835	21.5
255.051	99.33
255.268	29.7
255.484	13.31
255.701	23.55
255.917	27.65
256.134	37.89
256.351	15.36
256.567	-15.36
256.784	29.7
257	1.02
257.217	37.89
257.433	91.13
257.65	-29.7
257.866	29.7
258.082	-44.03
258.299	13.31
258.515	89.09
258.732	21.5
258.948	60.42
259.165	17.41
259.381	-64.51
259.597	37.89
259.814	21.5
260.03	17.41
260.246	15.36
260.463	50.18
260.679	66.56
260.895	37.89
261.112	35.84
261.328	-41.98
261.544	-41.98
261.761	93.18
261.977	46.08
262.193	5.12
262.409	37.89
262.626	70.65
262.842	-35.84
263.058	-17.41
263.274	-56.32
263.49	41.98
263.707	44.03
263.923	46.08
264.139	-46.08
264.355	-7.17
264.571	46.08
264.787	-66.56
265.004	35.84
265.22	-3.07
265.436	29.7
265.652	80.89
265.868	54.27
266.084	-19.46
266.3	56.32
266.516	46.08
266.732	29.7
266.948	70.65
267.164	52.22
267.38	50.18
267.596	54.27
267.812	95.23
268.028	58.37
268.244	-29.7
268.46	-11.26
268.676	82.94
268.892	5.12
269.108	-17.41
269.324	1.02
269.54	5.12
269.756	66.56
269.972	-3.07
270.188	87.04
270.403	9.22
270.619	48.13
270.835	99.33
271.051	-44.03
271.267	5.12
271.483	-13.31
271.698	3.07
271.914	17.41
272.13	-1.02
272.346	5.12
272.562	74.75
272.777	-3.07
272.993	-1.02
273.209	5.12
273.425	56.32
273.64	-7.17
273.856	50.18
274.072	-35.84
274.287	37.89
274.503	46.08
274.719	44.03
274.934	39.94
275.15	-23.55
275.366	15.36
275.581	31.74
275.797	-50.18
276.012	13.31
276.228	13.31
276.444	-15.36
276.659	15.36
276.875	15.36
277.09	72.7
277.306	-11.26
277.521	17.41
277.737	78.85
277.952	37.89
278.168	54.27
278.383	80.89
278.599	60.42
278.814	41.98
279.03	31.74
279.245	99.33
279.461	62.46
279.676	23.55
279.892	-41.98
280.107	13.31
280.322	-3.07
280.538	60.42
280.753	29.7
280.969	78.85
281.184	13.31
281.399	39.94
281.615	-11.26
281.83	-13.31
282.045	70.65
282.26	41.98
282.476	-3.07
282.691	46.08
282.906	25.6
283.122	21.5
283.337	15.36
283.552	-15.36
283.767	37.89
283.983	56.32
284.198	-58.37
284.413	23.55
284.628	-5.12
284.843	21.5
285.058	64.51
285.274	39.94
285.489	-15.36
285.704	68.61
285.919	19.46
286.134	37.89
286.349	37.89
286.564	17.41
286.779	54.27
286.995	89.09
287.21	33.79
287.425	-7.17
287.64	-7.17
287.855	80.89
288.07	-25.6
288.285	82.94
288.5	17.41
288.715	-27.65
288.93	-21.5
289.145	-35.84
289.36	29.7
289.575	33.79
289.79	41.98
290.004	11.26
290.219	39.94
290.434	39.94
290.649	-41.98
290.864	-44.03
291.079	-3.07
291.294	76.8
291.509	-66.56
291.724	64.51
291.938	21.5
292.153	70.65
292.368	29.7
292.583	5.12
292.798	41.98
293.012	25.6
293.227	-25.6
293.442	54.27
293.657	-3.07
293.871	136.19
294.086	76.8
294.301	80.89
294.516	70.65
294.73	58.37
294.945	-1.02
295.16	-1.02
295.374	74.75
295.589	70.65
295.804	9.22
296.018	105.47
296.233	9.22
296.447	13.31
296.662	64.51
296.877	70.65
297.091	62.46
297.306	9.22
297.52	1.02
297.735	21.5
297.949	-21.5
298.164	62.46
298.378	5.12
298.593	-9.22
298.807	-44.03
299.022	23.55
299.236	103.42
299.451	54.27
299.665	-54.27
299.88	68.61
300.094	-27.65
300.309	-7.17
300.523	9.22
300.737	-1.02
300.952	138.24
301.166	-9.22
301.381	-31.74
301.595	31.74
301.809	48.13
302.024	23.55
302.238	7.17
302.452	52.22
302.667	89.09
302.881	46.08
303.095	33.79
303.309	46.08
303.524	5.12
303.738	64.51
303.952	-11.26
304.166	64.51
304.381	-11.26
304.595	103.42
304.809	21.5
305.023	62.46
305.237	-7.17
305.452	70.65
305.666	66.56
305.88	74.75
306.094	33.79
306.308	-3.07
306.522	58.37
306.736	87.04
306.95	70.65
307.164	9.22
307.379	-9.22
307.593	70.65
307.807	-23.55
308.021	70.65
308.235	-1.02
308.449	-7.17
308.663	7.17
308.877	132.09
309.091	23.55
309.305	64.51
309.519	-21.5
309.733	62.46
309.947	-17.41
310.161	105.47
310.374	46.08
310.588	7.17
310.802	-25.6
311.016	74.75
311.23	39.94
311.444	-13.31
311.658	-68.61
311.872	54.27
312.085	115.71
312.299	-3.07
312.513	54.27
312.727	62.46
312.941	-3.07
313.154	39.94
313.368	56.32
313.582	66.56
313.796	33.79
314.009	103.42
314.223	66.56
314.437	70.65
314.651	107.52
314.864	23.55
315.078	9.22
315.292	-1.02
315.505	15.36
315.719	95.23
315.933	72.7
316.146	21.5
316.36	-23.55
316.573	138.24
316.787	9.22
317.001	128
317.214	-56.32
317.428	-70.65
317.641	23.55
317.855	13.31
318.068	-5.12
318.282	37.89
318.495	95.23
318.709	60.42
318.922	37.89
319.136	31.74
319.349	62.46
319.563	29.7
319.776	-23.55
319.99	-56.32
320.203	95.23
320.417	128
320.63	27.65
320.843	99.33
321.057	39.94
321.27	80.89
321.483	35.84
321.697	62.46
321.91	66.56
322.124	62.46
322.337	37.89
322.55	119.81
322.763	-1.02
322.977	-11.26
323.19	-35.84
323.403	72.7
323.617	60.42
323.83	21.5
324.043	31.74
324.256	46.08
324.469	95.23
324.683	89.09
324.896	1.02
325.109	54.27
325.322	-50.18
325.535	66.56
325.748	62.46
325.962	-35.84
326.175	58.37
326.388	37.89
326.601	46.08
326.814	97.28
327.027	5.12
327.24	107.52
327.453	23.55
327.666	-5.12
327.879	52.22
328.092	89.09
328.305	48.13
328.518	54.27
328.731	-17.41
328.944	29.7
329.157	132.09
329.37	25.6
329.583	62.46
329.796	46.08
330.009	29.7
330.222	7.17
330.435	60.42
330.648	91.13
330.861	-15.36
331.073	17.41
331.286	-19.46
331.499	-1.02
331.712	-60.42
331.925	5.12
332.138	-68.61
332.35	132.09
332.563	-33.79
332.776	13.31
332.989	78.85
333.202	21.5
333.414	66.56
333.627	68.61
333.84	13.31
334.053	31.74
334.265	37.89
334.478	48.13
334.691	15.36
334.903	-9.22
335.116	13.31
335.329	62.46
335.541	37.89
335.754	5.12
335.966	-7.17
336.179	56.32
336.392	-33.79
336.604	66.56
336.817	78.85
337.029	56.32
337.242	13.31
337.454	74.75
337.667	13.31
337.88	37.89
338.092	58.37
338.305	37.89
338.517	21.5
338.729	46.08
338.942	37.89
339.154	-27.65
339.367	-1.02
339.579	3.07
339.792	62.46
340.004	62.46
340.217	72.7
340.429	87.04
340.641	-13.31
340.854	41.98
341.066	25.6
341.278	46.08
341.491	95.23
341.703	87.04
341.915	39.94
342.128	-1.02
342.34	70.65
342.552	50.18
342.764	11.26
342.977	-7.17
343.189	99.33
343.401	7.17
343.613	-68.61
343.826	29.7
344.038	-19.46
344.25	54.27
344.462	-15.36
344.674	-1.02
344.886	111.61
345.099	1.02
345.311	15.36
345.523	46.08
345.735	-44.03
345.947	46.08
346.159	-27.65
346.371	87.04
346.583	70.65
346.795	78.85
347.007	-27.65
347.219	87.04
347.431	-31.74
347.643	41.98
347.855	-31.74
348.067	72.7
348.279	-3.07
348.491	-3.07
348.703	-27.65
348.915	41.98
349.127	-17.41
349.339	-1.02
349.551	-17.41
349.763	46.08
349.975	44.03
350.187	62.46
350.399	62.46
350.61	41.98
350.822	97.28
351.034	87.04
351.246	119.81
351.458	105.47
351.669	66.56
351.881	80.89
352.093	119.81
352.305	173.05
352.517	39.94
352.728	70.65
352.94	39.94
353.152	21.5
353.363	46.08
353.575	33.79
353.787	132.09
353.999	1.02
354.21	29.7
354.422	29.7
354.633	-35.84
354.845	62.46
355.057	54.27
355.268	13.31
355.48	74.75
355.692	31.74
355.903	99.33
356.115	41.98
356.326	-11.26
356.538	-1.02
356.749	58.37
356.961	64.51
357.172	1.02
357.384	-27.65
357.595	152.57
357.807	70.65
358.018	5.12
358.23	87.04
358.441	117.76
358.653	74.75
358.864	72.7
359.075	11.26
359.287	74.75
359.498	78.85
359.709	54.27
359.921	21.5
360.132	46.08
360.344	5.12
360.555	9.22
360.766	80.89
360.977	54.27
361.189	105.47
361.4	-11.26
361.611	107.52
361.823	37.89
362.034	5.12
362.245	21.5
362.456	82.94
362.667	58.37
362.879	25.6
363.09	31.74
363.301	-3.07
363.512	9.22
363.723	21.5
363.935	39.94
364.146	115.71
364.357	13.31
364.568	29.7
364.779	-17.41
364.99	95.23
365.201	19.46
365.412	3.07
365.623	33.79
365.834	95.23
366.045	1.02
366.256	91.13
366.467	117.76
366.678	41.98
366.889	60.42
367.1	72.7
367.311	89.09
367.522	82.94
367.733	46.08
367.944	52.22
368.155	52.22
368.366	119.81
368.577	76.8
368.788	70.65
368.999	-27.65
369.209	54.27
369.42	64.51
369.631	89.09
369.842	13.31
370.053	103.42
370.264	87.04
370.474	5.12
370.685	31.74
370.896	72.7
371.107	66.56
371.317	13.31
371.528	3.07
371.739	72.7
371.95	95.23
372.16	74.75
372.371	29.7
372.582	64.51
372.792	21.5
373.003	113.66
373.214	70.65
373.424	80.89
373.635	-68.61
373.846	37.89
374.056	60.42
374.267	107.52
374.477	78.85
374.688	70.65
374.898	62.46
375.109	70.65
375.319	72.7
375.53	66.56
375.74	62.46
375.951	23.55
376.161	136.19
376.372	46.08
376.582	23.55
376.793	54.27
377.003	17.41
377.214	13.31
377.424	62.46
377.635	33.79
377.845	74.75
378.055	39.94
378.266	56.32
378.476	-7.17
378.686	7.17
378.897	17.41
379.107	72.7
379.317	9.22
379.528	46.08
379.738	41.98
379.948	-35.84
380.158	76.8
380.369	-9.22
380.579	-31.74
380.789	80.89
380.999	87.04
381.21	121.85
381.42	64.51
381.63	33.79
381.84	123.9
382.05	15.36
382.261	111.61
382.471	-19.46
382.681	48.13
382.891	25.6
383.101	-9.22
383.311	29.7
383.521	31.74
383.731	117.76
383.941	132.09
384.151	78.85
384.361	37.89
384.571	-19.46
384.781	72.7
384.991	128
385.201	72.7
385.411	50.18
385.621	64.51
385.831	58.37
386.041	46.08
386.251	17.41
386.461	87.04
386.671	7.17
386.881	29.7
387.091	15.36
387.301	115.71
387.511	97.28
387.72	62.46
387.93	119.81
388.14	33.79
388.35	-58.37
388.56	87.04
388.769	72.7
388.979	46.08
389.189	5.12
389.399	5.12
389.609	54.27
389.818	37.89
390.028	70.65
390.238	37.89
390.447	80.89
390.657	37.89
390.867	130.05
391.076	70.65
391.286	119.81
391.496	66.56
391.705	99.33
391.915	80.89
392.125	130.05
392.334	15.36
392.544	138.24
392.753	101.37
392.963	-9.22
393.172	72.7
393.382	15.36
393.591	154.62
393.801	37.89
394.01	111.61
394.22	87.04
394.429	82.94
394.639	48.13
394.848	154.62
395.058	95.23
395.267	103.42
395.477	64.51
395.686	130.05
395.895	136.19
396.105	189.44
396.314	181.25
396.524	115.71
396.733	54.27
396.942	72.7
397.152	72.7
397.361	31.74
397.57	132.09
397.78	125.95
397.989	193.53
398.198	189.44
398.407	87.04
398.617	107.52
398.826	78.85
399.035	70.65
399.244	35.84
399.453	76.8
399.663	95.23
399.872	93.18
400.081	72.7
400.29	60.42
400.499	64.51
400.708	177.15
400.917	74.75
401.127	95.23
401.336	72.7
401.545	205.82
401.754	111.61
401.963	76.8
402.172	214.01
402.381	128
402.59	74.75
402.799	128
403.008	150.53
403.217	74.75
403.426	160.77
403.635	44.03
403.844	130.05
404.053	152.57
404.262	183.29
404.471	187.39
404.68	140.29
404.888	146.43
405.097	152.57
405.306	177.15
405.515	130.05
405.724	164.86
405.933	203.77
406.142	185.34
406.35	250.88
406.559	242.68
406.768	177.15
406.977	259.07
407.185	195.58
407.394	207.87
407.603	209.92
407.812	226.3
408.02	316.41
408.229	314.36
408.438	261.12
408.646	267.26
408.855	283.64
409.064	330.75
409.272	238.59
409.481	371.71
409.69	271.36
409.898	261.12
410.107	349.18
410.315	398.33
410.524	365.56
410.733	476.15
410.941	422.91
411.15	463.86
411.358	451.58
411.567	488.44
411.775	474.1
411.984	488.44
412.192	535.54
412.401	539.64
412.609	572.41
412.818	551.93
413.026	603.13
413.234	586.74
413.443	607.22
413.651	656.37
413.86	734.2
414.068	619.51
414.276	842.74
414.485	717.81
414.693	803.83
414.901	857.07
415.11	922.61
415.318	883.7
415.526	879.6
415.734	1045.49
415.943	924.66
416.151	1094.64
416.359	930.8
416.567	990.19
416.776	1139.69
416.984	1143.79
417.192	1151.98
417.4	1270.76
417.608	1192.94
417.817	1225.71
418.025	1254.38
418.233	1465.32
418.441	1403.88
418.649	1440.75
418.857	1520.62
419.065	1557.48
419.273	1604.58
419.481	1618.92
419.689	1661.93
419.897	1922.02
420.105	1891.3
420.313	1864.68
420.521	1948.64
420.729	1958.88
420.937	1999.84
421.145	2077.66
421.353	2227.17
421.561	2331.61
421.769	2380.76
421.977	2462.68
422.185	2522.07
422.393	2554.84
422.601	2724.82
422.809	2733.01
423.017	2837.46
423.224	2933.72
423.432	3101.65
423.64	3044.31
423.848	3288.01
424.056	3220.43
424.263	3556.3
424.471	3445.71
424.679	3562.44
424.887	3773.38
425.094	3906.5
425.302	3935.17
425.51	3990.47
425.718	4127.68
425.925	4162.5
426.133	4305.85
426.341	4570.04
426.548	4813.75
426.756	4856.76
426.964	4813.75
427.171	5071.79
427.379	5157.81
427.586	5313.45
427.794	5591.98
428.001	5745.58
428.209	5944.23
428.417	6003.62
428.624	6220.71
428.832	6210.47
429.039	6364.06
429.247	6167.46
429.454	6847.38
429.662	7207.83
429.869	6884.25
430.076	7422.86
430.284	6955.93
430.491	7461.77
430.699	7895.94
430.906	7877.51
431.114	7750.54
431.321	8240
431.528	8481.66
431.736	8805.24
431.943	9491.31
432.15	9130.87
432.358	9061.24
432.565	9853.8
432.772	9692.01
432.979	10136.42
433.187	10193.76
433.394	10165.09
433.601	11082.58
433.808	11144.02
434.016	10695.52
434.223	11467.6
434.43	12018.5
434.637	12034.89
434.844	12632.9
435.052	12856.12
435.259	12776.25
435.466	12739.39
435.673	12772.16
435.88	13374.26
436.087	14197.54
436.294	14359.33
436.501	13783.85
436.708	14025.51
436.915	14605.09
437.122	15239.96
437.329	15223.58
437.537	15729.42
437.743	16003.85
437.95	15991.56
438.157	16683.78
438.364	17234.68
438.571	17253.11
438.778	17169.15
438.985	18959.07
439.192	18023.15
439.399	18940.64
439.606	18328.3
439.813	19624.66
440.02	20470.47
440.227	20011.73
440.433	19669.72
440.64	20888.26
440.847	20497.1
441.054	21205.69
441.261	22618.79
441.467	22164.14
441.674	22346.41
441.881	23163.55
442.088	23208.61
442.294	22987.43
442.501	23546.52
442.708	24267.41
442.914	25205.38
443.121	26186.35
443.328	25100.93
443.534	27146.85
443.741	26284.65
443.948	26047.09
444.154	27728.47
444.361	27507.29
444.568	27744.86
444.774	28058.2
444.981	28328.53
445.187	28629.58
445.394	30261.81
445.6	30149.17
445.807	33233.41
446.013	31134.24
446.22	31519.26
446.426	32840.2
446.633	33315.33
446.839	34185.72
447.046	33186.31
447.252	34992.62
447.459	35031.53
447.665	34773.49
447.871	36125.14
448.078	37310.92
448.284	36430.29
448.491	37140.94
448.697	38121.91
448.903	39180.71
449.11	39078.32
449.316	38660.53
449.522	39264.68
449.728	40225.18
449.935	40333.72
450.141	40638.87
450.347	41693.57
450.553	40034.72
450.76	40763.79
450.966	42015.1
451.172	41587.08
451.378	42529.14
451.584	41656.71
451.791	42953.07
451.997	42359.16
452.203	43319.66
452.409	43559.27
452.615	43391.34
452.821	41472.39
453.027	40995.21
453.233	43022.7
453.44	41556.36
453.646	41910.66
453.852	41867.65
454.058	42932.59
454.264	41382.28
454.47	42461.56
454.676	41161.1
454.882	42561.91
455.088	38871.47
455.294	39829.92
455.5	39983.52
455.705	40352.15
455.911	38961.58
456.117	38318.52
456.323	37964.22
456.529	35764.7
456.735	36989.39
456.941	36006.36
457.147	35733.98
457.352	34544.11
457.558	33958.39
457.764	34714.09
457.97	33657.34
458.176	33188.36
458.381	32776.72
458.587	31515.17
458.793	31201.83
458.999	29770.3
459.204	31754.78
459.41	31117.86
459.616	28611.15
459.821	29065.8
460.027	28912.2
460.233	28176.98
460.438	27056.74
460.644	27226.72
460.85	25774.71
461.055	25612.92
461.261	25164.42
461.466	23530.14
461.672	22454.95
461.878	24171.15
462.083	23061.15
462.289	22358.7
462.494	22076.08
462.7	21041.85
462.905	20742.85
463.111	21224.12
463.316	21375.67
463.522	20746.95
463.727	20902.59
463.932	21033.66
464.138	20249.29
464.343	20703.94
464.549	20034.25
464.754	20818.63
464.959	20542.15
465.165	20329.16
465.37	19317.47
465.575	18756.32
465.781	19729.11
465.986	19694.29
466.191	19161.82
466.397	18748.13
466.602	17957.61
466.807	18170.6
467.012	18572
467.218	18340.58
467.423	17992.43
467.628	18268.91
