Data from USB4F104151__55__14-30-02-631.txt Node

Date: Thu Mar 13 14:30:02 EDT 2025
User: louis
Spectrometer: USB4F10415
Trigger mode: 4
Integration Time (sec): 2.500000E-2
Scans to average: 1
Electric dark correction enabled: true
Nonlinearity correction enabled: false
Boxcar width: 0
XAxis mode: Wavelengths
Number of Pixels in Spectrum: 3648
>>>>>Begin Spectral Data<<<<<
178.204	-126.8
178.424	-126.8
178.644	-126.8
178.864	-87.89
179.084	-204.63
179.304	10.41
179.524	24.75
179.744	-57.17
179.964	22.7
180.184	-3.93
180.404	-10.07
180.624	-14.17
180.844	37.03
181.064	-8.02
181.283	37.03
181.503	-55.12
181.723	16.55
181.943	2.22
182.163	114.86
182.383	4.27
182.602	82.09
182.822	49.32
183.042	106.67
183.262	24.75
183.482	55.47
183.701	65.71
183.921	69.8
184.141	24.75
184.361	106.67
184.58	12.46
184.8	59.56
185.02	-24.4
185.239	108.71
185.459	53.42
185.679	16.55
185.898	37.03
186.118	127.14
186.338	32.94
186.557	73.9
186.777	24.75
186.997	59.56
187.216	37.03
187.436	37.03
187.655	37.03
187.875	65.71
188.095	18.6
188.314	82.09
188.534	100.52
188.753	34.99
188.973	45.23
189.192	145.58
189.412	28.84
189.631	61.61
189.851	-12.12
190.07	75.95
190.29	-12.12
190.509	53.42
190.729	65.71
190.948	143.53
191.168	170.15
191.387	32.94
191.607	57.51
191.826	59.56
192.045	67.75
192.265	20.65
192.484	0.17
192.704	65.71
192.923	20.65
193.142	123.05
193.362	69.8
193.581	10.41
193.8	49.32
194.02	104.62
194.239	41.13
194.458	10.41
194.678	16.55
194.897	92.33
195.116	-24.4
195.335	37.03
195.555	41.13
195.774	57.51
195.993	161.96
196.212	69.8
196.432	24.75
196.651	102.57
196.87	16.55
197.089	90.28
197.308	18.6
197.528	2.22
197.747	34.99
197.966	59.56
198.185	88.23
198.404	24.75
198.623	18.6
198.842	98.47
199.062	114.86
199.281	106.67
199.5	22.7
199.719	32.94
199.938	32.94
200.157	73.9
200.376	65.71
200.595	80.04
200.814	51.37
201.033	67.75
201.252	75.95
201.471	-36.69
201.69	92.33
201.909	41.13
202.128	102.57
202.347	47.27
202.566	57.51
202.785	16.55
203.004	80.04
203.223	143.53
203.442	98.47
203.661	67.75
203.879	43.18
204.098	92.33
204.317	88.23
204.536	49.32
204.755	49.32
204.974	123.05
205.193	39.08
205.411	151.72
205.63	102.57
205.849	43.18
206.068	80.04
206.287	75.95
206.505	28.84
206.724	59.56
206.943	-5.97
207.162	2.22
207.381	65.71
207.599	73.9
207.818	61.61
208.037	-22.36
208.255	59.56
208.474	82.09
208.693	106.67
208.911	4.27
209.13	98.47
209.349	59.56
209.567	90.28
209.786	51.37
210.005	90.28
210.223	65.71
210.442	-32.6
210.661	49.32
210.879	24.75
211.098	-14.17
211.316	67.75
211.535	63.66
211.753	90.28
211.972	41.13
212.191	26.79
212.409	24.75
212.628	-16.21
212.846	32.94
213.065	18.6
213.283	24.75
213.502	0.17
213.72	51.37
213.938	53.42
214.157	16.55
214.375	75.95
214.594	-8.02
214.812	37.03
215.031	67.75
215.249	37.03
215.467	32.94
215.686	10.41
215.904	94.38
216.122	45.23
216.341	65.71
216.559	49.32
216.778	90.28
216.996	102.57
217.214	28.84
217.432	32.94
217.651	16.55
217.869	59.56
218.087	10.41
218.306	65.71
218.524	125.1
218.742	63.66
218.96	106.67
219.179	4.27
219.397	172.2
219.615	147.62
219.833	0.17
220.051	22.7
220.27	135.34
220.488	96.43
220.706	65.71
220.924	-12.12
221.142	-32.6
221.36	41.13
221.578	59.56
221.796	39.08
222.015	63.66
222.233	37.03
222.451	102.57
222.669	59.56
222.887	90.28
223.105	34.99
223.323	51.37
223.541	80.04
223.759	67.75
223.977	2.22
224.195	100.52
224.413	77.99
224.631	90.28
224.849	73.9
225.067	45.23
225.285	75.95
225.503	-40.79
225.721	-26.45
225.939	30.89
226.157	32.94
226.375	196.78
226.592	10.41
226.81	98.47
227.028	30.89
227.246	63.66
227.464	-8.02
227.682	69.8
227.9	12.46
228.117	102.57
228.335	34.99
228.553	63.66
228.771	2.22
228.989	110.76
229.206	67.75
229.424	157.86
229.642	-28.5
229.86	16.55
230.077	16.55
230.295	0.17
230.513	121
230.731	127.14
230.948	61.61
231.166	4.27
231.384	18.6
231.601	30.89
231.819	-3.93
232.037	10.41
232.254	82.09
232.472	45.23
232.689	28.84
232.907	98.47
233.125	51.37
233.342	16.55
233.56	0.17
233.777	45.23
233.995	16.55
234.213	82.09
234.43	41.13
234.648	0.17
234.865	51.37
235.083	92.33
235.3	20.65
235.518	18.6
235.735	20.65
235.953	57.51
236.17	49.32
236.388	0.17
236.605	75.95
236.822	57.51
237.04	114.86
237.257	16.55
237.475	18.6
237.692	139.43
237.909	86.19
238.127	112.81
238.344	61.61
238.562	26.79
238.779	39.08
238.996	-14.17
239.214	73.9
239.431	100.52
239.648	-5.97
239.865	73.9
240.083	10.41
240.3	6.31
240.517	-5.97
240.735	28.84
240.952	65.71
241.169	116.9
241.386	59.56
241.603	16.55
241.821	0.17
242.038	116.9
242.255	100.52
242.472	43.18
242.689	98.47
242.907	82.09
243.124	-48.98
243.341	-48.98
243.558	47.27
243.775	59.56
243.992	-46.93
244.209	98.47
244.426	88.23
244.643	43.18
244.86	-28.5
245.078	26.79
245.295	57.51
245.512	75.95
245.729	26.79
245.946	59.56
246.163	90.28
246.38	0.17
246.597	67.75
246.814	69.8
247.031	43.18
247.248	92.33
247.464	88.23
247.681	67.75
247.898	37.03
248.115	-26.45
248.332	-34.64
248.549	94.38
248.766	114.86
248.983	53.42
249.2	145.58
249.417	90.28
249.633	-12.12
249.85	82.09
250.067	73.9
250.284	-5.97
250.501	90.28
250.717	57.51
250.934	28.84
251.151	28.84
251.368	16.55
251.585	24.75
251.801	61.61
252.018	18.6
252.235	73.9
252.451	41.13
252.668	51.37
252.885	141.48
253.102	65.71
253.318	30.89
253.535	41.13
253.752	88.23
253.968	-1.88
254.185	-18.26
254.401	82.09
254.618	2.22
254.835	65.71
255.051	80.04
255.268	24.75
255.484	8.36
255.701	88.23
255.917	43.18
256.134	43.18
256.351	10.41
256.567	-5.97
256.784	39.08
257	73.9
257.217	123.05
257.433	102.57
257.65	73.9
257.866	61.61
258.082	34.99
258.299	75.95
258.515	94.38
258.732	32.94
258.948	53.42
259.165	133.29
259.381	-36.69
259.597	82.09
259.814	43.18
260.03	49.32
260.246	90.28
260.463	71.85
260.679	118.95
260.895	98.47
261.112	24.75
261.328	86.19
261.544	47.27
261.761	51.37
261.977	-30.55
262.193	41.13
262.409	24.75
262.626	34.99
262.842	49.32
263.058	0.17
263.274	67.75
263.49	53.42
263.707	57.51
263.923	106.67
264.139	26.79
264.355	90.28
264.571	155.82
264.787	32.94
265.004	106.67
265.22	98.47
265.436	26.79
265.652	86.19
265.868	65.71
266.084	121
266.3	82.09
266.516	-16.21
266.732	118.95
266.948	92.33
267.164	88.23
267.38	80.04
267.596	47.27
267.812	106.67
268.028	77.99
268.244	41.13
268.46	-32.6
268.676	49.32
268.892	26.79
269.108	43.18
269.324	18.6
269.54	2.22
269.756	57.51
269.972	88.23
270.188	73.9
270.403	65.71
270.619	-10.07
270.835	75.95
271.051	26.79
271.267	-5.97
271.483	75.95
271.698	34.99
271.914	20.65
272.13	-16.21
272.346	90.28
272.562	71.85
272.777	106.67
272.993	45.23
273.209	-26.45
273.425	-30.55
273.64	34.99
273.856	139.43
274.072	-12.12
274.287	4.27
274.503	51.37
274.719	75.95
274.934	0.17
275.15	-73.56
275.366	65.71
275.581	41.13
275.797	18.6
276.012	28.84
276.228	32.94
276.444	12.46
276.659	82.09
276.875	32.94
277.09	24.75
277.306	12.46
277.521	57.51
277.737	8.36
277.952	-24.4
278.168	2.22
278.383	98.47
278.599	37.03
278.814	49.32
279.03	98.47
279.245	172.2
279.461	49.32
279.676	108.71
279.892	-14.17
280.107	8.36
280.322	10.41
280.538	75.95
280.753	-16.21
280.969	123.05
281.184	53.42
281.399	123.05
281.615	41.13
281.83	49.32
282.045	-16.21
282.26	24.75
282.476	45.23
282.691	53.42
282.906	77.99
283.122	-5.97
283.337	-40.79
283.552	108.71
283.767	-24.4
283.983	139.43
284.198	14.51
284.413	102.57
284.628	-20.31
284.843	0.17
285.058	77.99
285.274	22.7
285.489	65.71
285.704	73.9
285.919	49.32
286.134	26.79
286.349	65.71
286.564	45.23
286.779	12.46
286.995	102.57
287.21	-3.93
287.425	129.19
287.64	37.03
287.855	-16.21
288.07	20.65
288.285	65.71
288.5	92.33
288.715	67.75
288.93	-16.21
289.145	12.46
289.36	41.13
289.575	34.99
289.79	90.28
290.004	2.22
290.219	24.75
290.434	4.27
290.649	34.99
290.864	90.28
291.079	32.94
291.294	108.71
291.509	118.95
291.724	16.55
291.938	59.56
292.153	37.03
292.368	41.13
292.583	159.91
292.798	-1.88
293.012	92.33
293.227	2.22
293.442	51.37
293.657	59.56
293.871	82.09
294.086	16.55
294.301	92.33
294.516	73.9
294.73	-8.02
294.945	57.51
295.16	41.13
295.374	123.05
295.589	65.71
295.804	-3.93
296.018	84.14
296.233	32.94
296.447	41.13
296.662	82.09
296.877	92.33
297.091	10.41
297.306	18.6
297.52	32.94
297.735	127.14
297.949	104.62
298.164	125.1
298.378	82.09
298.593	16.55
298.807	41.13
299.022	147.62
299.236	100.52
299.451	4.27
299.665	75.95
299.88	-36.69
300.094	41.13
300.309	-14.17
300.523	96.43
300.737	49.32
300.952	4.27
301.166	-77.65
301.381	47.27
301.595	77.99
301.809	49.32
302.024	32.94
302.238	51.37
302.452	94.38
302.667	51.37
302.881	90.28
303.095	90.28
303.309	20.65
303.524	16.55
303.738	125.1
303.952	100.52
304.166	159.91
304.381	16.55
304.595	82.09
304.809	65.71
305.023	71.85
305.237	-28.5
305.452	20.65
305.666	112.81
305.88	4.27
306.094	90.28
306.308	59.56
306.522	18.6
306.736	92.33
306.95	57.51
307.164	65.71
307.379	-14.17
307.593	106.67
307.807	84.14
308.021	69.8
308.235	114.86
308.449	8.36
308.663	28.84
308.877	139.43
309.091	82.09
309.305	77.99
309.519	-69.46
309.733	22.7
309.947	-14.17
310.161	24.75
310.374	125.1
310.588	106.67
310.802	32.94
311.016	65.71
311.23	57.51
311.444	-26.45
311.658	57.51
311.872	55.47
312.085	147.62
312.299	84.14
312.513	92.33
312.727	73.9
312.941	-46.93
313.154	26.79
313.368	53.42
313.582	75.95
313.796	73.9
314.009	26.79
314.223	100.52
314.437	24.75
314.651	59.56
314.864	84.14
315.078	65.71
315.292	2.22
315.505	-8.02
315.719	16.55
315.933	4.27
316.146	0.17
316.36	-22.36
316.573	26.79
316.787	41.13
317.001	65.71
317.214	0.17
317.428	98.47
317.641	43.18
317.855	41.13
318.068	41.13
318.282	65.71
318.495	137.38
318.709	90.28
318.922	53.42
319.136	96.43
319.349	34.99
319.563	10.41
319.776	43.18
319.99	-48.98
320.203	116.9
320.417	57.51
320.63	131.24
320.843	82.09
321.057	43.18
321.27	61.61
321.483	49.32
321.697	82.09
321.91	143.53
322.124	164.01
322.337	0.17
322.55	49.32
322.763	47.27
322.977	114.86
323.19	118.95
323.403	55.47
323.617	123.05
323.83	71.85
324.043	80.04
324.256	16.55
324.469	-40.79
324.683	82.09
324.896	82.09
325.109	41.13
325.322	41.13
325.535	47.27
325.748	69.8
325.962	12.46
326.175	34.99
326.388	88.23
326.601	108.71
326.814	10.41
327.027	90.28
327.24	16.55
327.453	73.9
327.666	59.56
327.879	178.34
328.092	106.67
328.305	28.84
328.518	49.32
328.731	43.18
328.944	28.84
329.157	92.33
329.37	43.18
329.583	147.62
329.796	110.76
330.009	67.75
330.222	34.99
330.435	143.53
330.648	98.47
330.861	-14.17
331.073	18.6
331.286	143.53
331.499	100.52
331.712	41.13
331.925	90.28
332.138	43.18
332.35	157.86
332.563	16.55
332.776	88.23
332.989	18.6
333.202	26.79
333.414	16.55
333.627	65.71
333.84	51.37
334.053	34.99
334.265	65.71
334.478	90.28
334.691	63.66
334.903	26.79
335.116	26.79
335.329	4.27
335.541	106.67
335.754	73.9
335.966	32.94
336.179	82.09
336.392	94.38
336.604	-3.93
336.817	69.8
337.029	53.42
337.242	28.84
337.454	86.19
337.667	125.1
337.88	-30.55
338.092	82.09
338.305	129.19
338.517	24.75
338.729	67.75
338.942	131.24
339.154	59.56
339.367	16.55
339.579	57.51
339.792	26.79
340.004	57.51
340.217	-14.17
340.429	43.18
340.641	67.75
340.854	12.46
341.066	18.6
341.278	69.8
341.491	141.48
341.703	34.99
341.915	10.41
342.128	159.91
342.34	8.36
342.552	45.23
342.764	55.47
342.977	94.38
343.189	69.8
343.401	92.33
343.613	100.52
343.826	4.27
344.038	84.14
344.25	139.43
344.462	12.46
344.674	65.71
344.886	55.47
345.099	96.43
345.311	86.19
345.523	20.65
345.735	-14.17
345.947	98.47
346.159	10.41
346.371	59.56
346.583	4.27
346.795	88.23
347.007	51.37
347.219	34.99
347.431	61.61
347.643	90.28
347.855	-32.6
348.067	65.71
348.279	-5.97
348.491	53.42
348.703	53.42
348.915	61.61
349.127	28.84
349.339	22.7
349.551	22.7
349.763	16.55
349.975	88.23
350.187	43.18
350.399	123.05
350.61	63.66
350.822	73.9
351.034	82.09
351.246	65.71
351.458	75.95
351.669	86.19
351.881	-8.02
352.093	77.99
352.305	73.9
352.517	73.9
352.728	118.95
352.94	57.51
353.152	49.32
353.363	37.03
353.575	100.52
353.787	155.82
353.999	77.99
354.21	49.32
354.422	20.65
354.633	-32.6
354.845	121
355.057	65.71
355.268	75.95
355.48	55.47
355.692	59.56
355.903	82.09
356.115	-5.97
356.326	-28.5
356.538	77.99
356.749	90.28
356.961	49.32
357.172	69.8
357.384	18.6
357.595	135.34
357.807	164.01
358.018	37.03
358.23	34.99
358.441	141.48
358.653	116.9
358.864	82.09
359.075	28.84
359.287	86.19
359.498	92.33
359.709	92.33
359.921	18.6
360.132	114.86
360.344	127.14
360.555	41.13
360.766	80.04
360.977	-5.97
361.189	69.8
361.4	6.31
361.611	133.29
361.823	57.51
362.034	65.71
362.245	98.47
362.456	51.37
362.667	88.23
362.879	114.86
363.09	67.75
363.301	149.67
363.512	106.67
363.723	102.57
363.935	51.37
364.146	73.9
364.357	63.66
364.568	49.32
364.779	67.75
364.99	141.48
365.201	41.13
365.412	32.94
365.623	16.55
365.834	77.99
366.045	118.95
366.256	90.28
366.467	53.42
366.678	32.94
366.889	98.47
367.1	106.67
367.311	106.67
367.522	98.47
367.733	88.23
367.944	92.33
368.155	49.32
368.366	139.43
368.577	106.67
368.788	69.8
368.999	16.55
369.209	57.51
369.42	110.76
369.631	96.43
369.842	65.71
370.053	100.52
370.264	53.42
370.474	63.66
370.685	123.05
370.896	90.28
371.107	141.48
371.317	16.55
371.528	61.61
371.739	121
371.95	77.99
372.16	94.38
372.371	43.18
372.582	118.95
372.792	114.86
373.003	131.24
373.214	90.28
373.424	71.85
373.635	45.23
373.846	45.23
374.056	110.76
374.267	133.29
374.477	53.42
374.688	94.38
374.898	2.22
375.109	57.51
375.319	84.14
375.53	73.9
375.74	94.38
375.951	100.52
376.161	121
376.372	32.94
376.582	18.6
376.793	106.67
377.003	96.43
377.214	73.9
377.424	24.75
377.635	39.08
377.845	-48.98
378.055	114.86
378.266	12.46
378.476	131.24
378.686	75.95
378.897	77.99
379.107	65.71
379.317	100.52
379.528	82.09
379.738	92.33
379.948	22.7
380.158	51.37
380.369	34.99
380.579	127.14
380.789	77.99
380.999	155.82
381.21	94.38
381.42	114.86
381.63	88.23
381.84	127.14
382.05	63.66
382.261	127.14
382.471	116.9
382.681	80.04
382.891	51.37
383.101	47.27
383.311	16.55
383.521	73.9
383.731	16.55
383.941	110.76
384.151	125.1
384.361	98.47
384.571	86.19
384.781	75.95
384.991	108.71
385.201	118.95
385.411	59.56
385.621	32.94
385.831	98.47
386.041	100.52
386.251	0.17
386.461	90.28
386.671	147.62
386.881	88.23
387.091	96.43
387.301	123.05
387.511	41.13
387.72	90.28
387.93	108.71
388.14	127.14
388.35	131.24
388.56	98.47
388.769	92.33
388.979	98.47
389.189	102.57
389.399	84.14
389.609	139.43
389.818	45.23
390.028	69.8
390.238	88.23
390.447	102.57
390.657	4.27
390.867	90.28
391.076	20.65
391.286	82.09
391.496	61.61
391.705	71.85
391.915	141.48
392.125	131.24
392.334	73.9
392.544	164.01
392.753	98.47
392.963	110.76
393.172	172.2
393.382	10.41
393.591	178.34
393.801	84.14
394.01	118.95
394.22	116.9
394.429	123.05
394.639	190.63
394.848	153.77
395.058	8.36
395.267	196.78
395.477	151.72
395.686	127.14
395.895	180.39
396.105	215.21
396.314	106.67
396.524	82.09
396.733	65.71
396.942	133.29
397.152	137.38
397.361	94.38
397.57	198.82
397.78	196.78
397.989	67.75
398.198	182.44
398.407	121
398.617	108.71
398.826	24.75
399.035	147.62
399.244	180.39
399.453	174.25
399.663	90.28
399.872	184.49
400.081	73.9
400.29	174.25
400.499	106.67
400.708	127.14
400.917	110.76
401.127	168.1
401.336	88.23
401.545	221.35
401.754	139.43
401.963	159.91
402.172	129.19
402.381	118.95
402.59	129.19
402.799	164.01
403.008	157.86
403.217	168.1
403.426	153.77
403.635	159.91
403.844	174.25
404.053	196.78
404.262	141.48
404.471	237.74
404.68	170.15
404.888	184.49
405.097	137.38
405.306	209.06
405.515	266.41
405.724	153.77
405.933	311.46
406.142	227.5
406.35	219.3
406.559	250.02
406.768	190.63
406.977	250.02
407.185	327.85
407.394	284.84
407.603	196.78
407.812	303.27
408.02	243.88
408.229	233.64
408.438	317.61
408.646	260.26
408.855	319.65
409.064	352.42
409.272	237.74
409.481	237.74
409.69	303.27
409.898	403.62
410.107	377
410.315	479.4
410.524	393.38
410.733	426.15
410.941	350.37
411.15	426.15
411.358	454.82
411.567	415.91
411.775	477.35
411.984	495.78
412.192	589.99
412.401	549.03
412.609	649.38
412.818	616.61
413.026	573.6
413.234	561.31
413.443	581.79
413.651	704.67
413.86	667.81
414.068	737.44
414.276	762.02
414.485	792.73
414.693	721.06
414.901	872.61
415.11	802.97
415.318	819.36
415.526	850.08
415.734	979.1
415.943	899.23
416.151	901.28
416.359	1038.49
416.567	1020.06
416.776	1104.03
416.984	1181.85
417.192	1173.66
417.4	1124.51
417.608	1163.42
417.817	1355.93
418.025	1337.49
418.233	1384.6
418.441	1323.16
418.649	1480.85
418.857	1570.96
419.065	1673.36
419.273	1534.1
419.481	1593.49
419.689	1652.88
419.897	1763.47
420.105	1859.73
420.313	1847.44
420.521	1925.26
420.729	1939.6
420.937	2099.34
421.145	2042
421.353	2035.85
421.561	2388.1
421.769	2357.38
421.977	2322.57
422.185	2400.39
422.393	2531.46
422.601	2736.26
422.809	2795.65
423.017	2777.22
423.224	2803.84
423.432	3090.56
423.64	2900.09
423.848	3352.7
424.056	3137.66
424.263	3430.52
424.471	3502.2
424.679	3606.64
424.887	3631.22
425.094	3782.77
425.302	3745.91
425.51	3919.98
425.718	3858.54
425.925	4167.79
426.133	4210.79
426.341	4538.47
426.548	4671.59
426.756	4450.41
426.964	4771.94
427.171	4970.59
427.379	5138.52
427.586	5240.92
427.794	5417.05
428.001	5634.13
428.209	5757.01
428.417	5734.48
428.624	6135.89
428.832	6121.55
429.039	6037.58
429.247	6105.17
429.454	6647.88
429.662	7176.25
429.869	6699.08
430.076	7235.64
430.284	6774.85
430.491	7358.52
430.699	7501.88
430.906	7503.93
431.114	7602.23
431.321	8034.35
431.528	7981.1
431.736	8753.19
431.943	9052.19
432.15	8878.12
432.358	8898.59
432.565	9334.81
432.772	9379.87
432.979	9650.2
433.187	9863.19
433.394	9934.87
433.601	10457.1
433.808	10745.86
434.016	10715.14
434.223	11059.2
434.43	11700.22
434.637	11565.05
434.844	12253.17
435.052	12382.19
435.259	12238.83
435.466	12525.55
435.673	12091.38
435.88	13230.05
436.087	13907.93
436.294	13746.14
436.501	13535.2
436.708	13752.28
436.915	14297.04
437.122	14757.83
437.329	14729.16
437.537	15265.73
437.743	15484.86
437.95	15378.37
438.157	16361.39
438.364	16666.54
438.571	16744.36
438.778	16613.29
438.985	18454.42
439.192	17508.26
439.399	18169.75
439.606	17655.71
439.813	18442.13
440.02	19541.89
440.227	19343.24
440.433	19373.96
440.64	19965.82
440.847	19515.26
441.054	20512.63
441.261	21491.55
441.467	21122.92
441.674	21665.63
441.881	22603.6
442.088	22576.98
442.294	22404.95
442.501	22755.15
442.708	23109.45
442.914	24184.63
443.121	25167.66
443.328	24428.34
443.534	26111.77
443.741	25392.94
443.948	25028.4
444.154	26812.18
444.361	26795.79
444.568	26914.58
444.774	27168.52
444.981	27410.18
445.187	28032.77
445.394	28901.11
445.6	28612.34
445.807	31547.08
446.013	30127.84
446.22	30519
446.426	31829.7
446.633	32143.04
446.839	33052.34
447.046	31841.99
447.252	33672.87
447.459	33855.14
447.665	33398.45
447.871	35047.06
448.078	36380.29
448.284	34440.86
448.491	35747.47
448.697	36904.57
448.903	37729.9
449.11	37627.5
449.316	36974.2
449.522	38010.47
449.728	39274.07
449.935	39128.66
450.141	39151.19
450.347	40107.59
450.553	38563.42
450.76	39018.07
450.966	40226.37
451.172	39806.54
451.378	40998.46
451.584	39953.99
451.791	40932.92
451.997	41164.34
452.203	41825.84
452.409	41799.21
452.615	41223.73
452.821	39761.48
453.027	39315.03
453.233	41610.8
453.44	39982.66
453.646	40328.77
453.852	40552
454.058	41291.32
454.264	40089.16
454.47	40875.58
454.676	39659.09
454.882	41223.73
455.088	37631.6
455.294	38020.71
455.5	38749.79
455.705	39038.55
455.911	37488.24
456.117	36370.05
456.323	36175.49
456.529	34346.65
456.735	35774.09
456.941	34854.55
457.147	34150.05
457.352	33117.87
457.558	32999.09
457.764	33093.3
457.97	32456.38
458.176	31653.58
458.381	31409.87
458.587	29847.27
458.793	29916.9
458.999	28452.6
459.204	30512.86
459.41	29452.01
459.616	27672.32
459.821	27401.99
460.027	27631.37
460.233	26781.46
460.438	25720.61
460.644	26087.2
460.85	24753.97
461.055	24612.66
461.261	24375.09
461.466	22556.5
461.672	21589.86
461.878	23191.37
462.083	21862.24
462.289	21430.12
462.494	21065.58
462.7	20250.49
462.905	19449.73
463.111	20213.62
463.316	20526.96
463.522	19830.65
463.727	20010.87
463.932	19750.78
464.138	19609.47
464.343	19910.52
464.549	18718.61
464.754	19939.19
464.959	19439.49
465.165	19201.93
465.37	18507.66
465.575	18259.86
465.781	18988.94
465.986	19068.81
466.191	18190.23
466.397	17756.06
466.602	17063.85
