Data from USB4F104151__185__14-32-57-156.txt Node

Date: Thu Mar 13 14:32:57 EDT 2025
User: louis
Spectrometer: USB4F10415
Trigger mode: 4
Integration Time (sec): 2.500000E-2
Scans to average: 1
Electric dark correction enabled: true
Nonlinearity correction enabled: false
Boxcar width: 0
XAxis mode: Wavelengths
Number of Pixels in Spectrum: 3648
>>>>>Begin Spectral Data<<<<<
178.204	-209.06
178.424	-209.06
178.644	-209.06
178.864	-188.58
179.084	-106.67
179.304	-6.31
179.524	26.45
179.744	-57.51
179.964	-0.17
180.184	12.12
180.404	-8.36
180.624	12.12
180.844	-0.17
181.064	-32.94
181.283	-45.23
181.503	-8.36
181.723	108.37
181.943	-20.65
182.163	98.13
182.383	24.4
182.602	36.69
182.822	48.98
183.042	-26.79
183.262	-55.47
183.482	-0.17
183.701	20.31
183.921	-32.94
184.141	-39.08
184.361	8.02
184.58	-8.36
184.8	-26.79
185.02	-39.08
185.239	48.98
185.459	-24.75
185.679	22.36
185.898	-28.84
186.118	98.13
186.338	-55.47
186.557	-30.89
186.777	-8.36
186.997	10.07
187.216	26.45
187.436	-8.36
187.655	18.26
187.875	91.99
188.095	-10.41
188.314	-12.46
188.534	69.46
188.753	-75.95
188.973	69.46
189.192	59.22
189.412	53.08
189.631	40.79
189.851	40.79
190.07	40.79
190.29	-41.13
190.509	40.79
190.729	-22.7
190.948	32.6
191.168	81.75
191.387	40.79
191.607	20.31
191.826	-0.17
192.045	26.45
192.265	53.08
192.484	96.08
192.704	32.6
192.923	10.07
193.142	120.66
193.362	16.21
193.581	20.31
193.8	53.08
194.02	57.17
194.239	48.98
194.458	-8.36
194.678	20.31
194.897	8.02
195.116	44.88
195.335	57.17
195.555	-14.51
195.774	16.21
195.993	51.03
196.212	-2.22
196.432	16.21
196.651	18.26
196.87	-37.03
197.089	106.32
197.308	16.21
197.528	59.22
197.747	38.74
197.966	36.69
198.185	114.52
198.404	-10.41
198.623	61.27
198.842	116.56
199.062	59.22
199.281	32.6
199.5	20.31
199.719	40.79
199.938	-2.22
200.157	32.6
200.376	71.51
200.595	73.56
200.814	-14.51
201.033	-8.36
201.252	98.13
201.471	34.64
201.69	26.45
201.909	48.98
202.128	94.04
202.347	12.12
202.566	-22.7
202.785	20.31
203.004	26.45
203.223	73.56
203.442	69.46
203.661	14.17
203.879	18.26
204.098	44.88
204.317	57.17
204.536	65.36
204.755	36.69
204.974	-20.65
205.193	69.46
205.411	104.28
205.63	53.08
205.849	59.22
206.068	-20.65
206.287	53.08
206.505	98.13
206.724	36.69
206.943	1.88
207.162	-6.31
207.381	44.88
207.599	28.5
207.818	73.56
208.037	-47.27
208.255	-0.17
208.474	67.41
208.693	67.41
208.911	16.21
209.13	44.88
209.349	16.21
209.567	48.98
209.786	-8.36
210.005	51.03
210.223	-10.41
210.442	-55.47
210.661	3.93
210.879	-0.17
211.098	53.08
211.316	42.84
211.535	48.98
211.753	32.6
211.972	18.26
212.191	-10.41
212.409	83.8
212.628	57.17
212.846	26.45
213.065	77.65
213.283	106.32
213.502	18.26
213.72	-34.99
213.938	69.46
214.157	53.08
214.375	40.79
214.594	32.6
214.812	20.31
215.031	3.93
215.249	-6.31
215.467	10.07
215.686	81.75
215.904	81.75
216.122	-24.75
216.341	26.45
216.559	12.12
216.778	24.4
216.996	46.93
217.214	34.64
217.432	-26.79
217.651	24.4
217.869	-24.75
218.087	-4.27
218.306	20.31
218.524	57.17
218.742	28.5
218.96	32.6
219.179	-32.94
219.397	57.17
219.615	3.93
219.833	67.41
220.051	32.6
220.27	28.5
220.488	30.55
220.706	51.03
220.924	32.6
221.142	-110.76
221.36	-32.94
221.578	-12.46
221.796	-24.75
222.015	-0.17
222.233	40.79
222.451	-63.66
222.669	-45.23
222.887	73.56
223.105	24.4
223.323	57.17
223.541	12.12
223.759	51.03
223.977	8.02
224.195	20.31
224.413	3.93
224.631	16.21
224.849	8.02
225.067	120.66
225.285	8.02
225.503	16.21
225.721	-16.55
225.939	81.75
226.157	8.02
226.375	83.8
226.592	-53.42
226.81	28.5
227.028	-24.75
227.246	-16.55
227.464	20.31
227.682	67.41
227.9	65.36
228.117	28.5
228.335	-6.31
228.553	69.46
228.771	-16.55
228.989	-8.36
229.206	18.26
229.424	16.21
229.642	-12.46
229.86	81.75
230.077	98.13
230.295	24.4
230.513	63.32
230.731	46.93
230.948	-0.17
231.166	114.52
231.384	57.17
231.601	8.02
231.819	40.79
232.037	32.6
232.254	18.26
232.472	-24.75
232.689	8.02
232.907	67.41
233.125	42.84
233.342	30.55
233.56	48.98
233.777	-22.7
233.995	24.4
234.213	73.56
234.43	-34.99
234.648	8.02
234.865	79.7
235.083	24.4
235.3	-2.22
235.518	1.88
235.735	26.45
235.953	40.79
236.17	-57.51
236.388	-63.66
236.605	-14.51
236.822	51.03
237.04	-8.36
237.257	28.5
237.475	-32.94
237.692	24.4
237.909	-24.75
238.127	-24.75
238.344	18.26
238.562	16.21
238.779	-30.89
238.996	59.22
239.214	8.02
239.431	73.56
239.648	18.26
239.865	65.36
240.083	5.97
240.3	38.74
240.517	-6.31
240.735	-45.23
240.952	36.69
241.169	32.6
241.386	48.98
241.603	132.95
241.821	-61.61
242.038	57.17
242.255	-20.65
242.472	40.79
242.689	94.04
242.907	32.6
243.124	10.07
243.341	-16.55
243.558	51.03
243.775	1.88
243.992	-49.32
244.209	67.41
244.426	32.6
244.643	59.22
244.86	-41.13
245.078	51.03
245.295	75.6
245.512	38.74
245.729	-71.85
245.946	-6.31
246.163	8.02
246.38	81.75
246.597	24.4
246.814	-20.65
247.031	57.17
247.248	-0.17
247.464	59.22
247.681	63.32
247.898	73.56
248.115	26.45
248.332	32.6
248.549	18.26
248.766	65.36
248.983	18.26
249.2	20.31
249.417	57.17
249.633	79.7
249.85	28.5
250.067	98.13
250.284	24.4
250.501	108.37
250.717	28.5
250.934	-34.99
251.151	-57.51
251.368	-12.46
251.585	38.74
251.801	10.07
252.018	-6.31
252.235	36.69
252.451	48.98
252.668	20.31
252.885	-16.55
253.102	65.36
253.318	8.02
253.535	-24.75
253.752	-4.27
253.968	77.65
254.185	-28.84
254.401	44.88
254.618	65.36
254.835	28.5
255.051	44.88
255.268	24.4
255.484	32.6
255.701	16.21
255.917	24.4
256.134	-108.71
256.351	-0.17
256.567	5.97
256.784	32.6
257	-57.51
257.217	83.8
257.433	81.75
257.65	34.64
257.866	46.93
258.082	1.88
258.299	1.88
258.515	42.84
258.732	-37.03
258.948	-16.55
259.165	61.27
259.381	-16.55
259.597	96.08
259.814	1.88
260.03	59.22
260.246	1.88
260.463	24.4
260.679	114.52
260.895	10.07
261.112	94.04
261.328	-0.17
261.544	-22.7
261.761	132.95
261.977	-16.55
262.193	51.03
262.409	57.17
262.626	28.5
262.842	-41.13
263.058	-53.42
263.274	24.4
263.49	12.12
263.707	94.04
263.923	3.93
264.139	5.97
264.355	-61.61
264.571	59.22
264.787	-4.27
265.004	57.17
265.22	-10.41
265.436	69.46
265.652	40.79
265.868	26.45
266.084	44.88
266.3	24.4
266.516	-32.94
266.732	48.98
266.948	18.26
267.164	24.4
267.38	46.93
267.596	24.4
267.812	96.08
268.028	67.41
268.244	-0.17
268.46	30.55
268.676	55.12
268.892	53.08
269.108	-16.55
269.324	28.5
269.54	-8.36
269.756	42.84
269.972	34.64
270.188	12.12
270.403	65.36
270.619	98.13
270.835	-14.51
271.051	-53.42
271.267	1.88
271.483	24.4
271.698	44.88
271.914	32.6
272.13	-32.94
272.346	57.17
272.562	-24.75
272.777	-41.13
272.993	-55.47
273.209	91.99
273.425	-43.18
273.64	-12.46
273.856	51.03
274.072	-18.6
274.287	-10.41
274.503	57.17
274.719	28.5
274.934	46.93
275.15	-8.36
275.366	63.32
275.581	8.02
275.797	67.41
276.012	-14.51
276.228	53.08
276.444	42.84
276.659	120.66
276.875	-32.94
277.09	59.22
277.306	-14.51
277.521	3.93
277.737	40.79
277.952	12.12
278.168	30.55
278.383	40.79
278.599	48.98
278.814	10.07
279.03	53.08
279.245	-16.55
279.461	16.21
279.676	8.02
279.892	-73.9
280.107	16.21
280.322	-2.22
280.538	-57.51
280.753	-0.17
280.969	-37.03
281.184	3.93
281.399	57.17
281.615	-0.17
281.83	100.18
282.045	20.31
282.26	-32.94
282.476	42.84
282.691	32.6
282.906	-22.7
283.122	51.03
283.337	12.12
283.552	53.08
283.767	14.17
283.983	32.6
284.198	100.18
284.413	63.32
284.628	-32.94
284.843	59.22
285.058	157.52
285.274	-6.31
285.489	-30.89
285.704	51.03
285.919	-6.31
286.134	73.56
286.349	18.26
286.564	3.93
286.779	69.46
286.995	12.12
287.21	-43.18
287.425	20.31
287.64	-71.85
287.855	69.46
288.07	24.4
288.285	57.17
288.5	46.93
288.715	51.03
288.93	-8.36
289.145	24.4
289.36	65.36
289.575	75.6
289.79	65.36
290.004	38.74
290.219	69.46
290.434	-61.61
290.649	-0.17
290.864	44.88
291.079	-24.75
291.294	98.13
291.509	12.12
291.724	-0.17
291.938	18.26
292.153	-8.36
292.368	-16.55
292.583	10.07
292.798	42.84
293.012	-6.31
293.227	81.75
293.442	18.26
293.657	40.79
293.871	85.84
294.086	63.32
294.301	102.23
294.516	32.6
294.73	48.98
294.945	8.02
295.16	3.93
295.374	59.22
295.589	16.21
295.804	-12.46
296.018	26.45
296.233	71.51
296.447	40.79
296.662	32.6
296.877	46.93
297.091	65.36
297.306	22.36
297.52	75.6
297.735	48.98
297.949	28.5
298.164	91.99
298.378	-22.7
298.593	67.41
298.807	8.02
299.022	145.24
299.236	65.36
299.451	40.79
299.665	34.64
299.88	-37.03
300.094	10.07
300.309	42.84
300.523	81.75
300.737	32.6
300.952	75.6
301.166	-10.41
301.381	46.93
301.595	67.41
301.809	14.17
302.024	42.84
302.238	3.93
302.452	81.75
302.667	-14.51
302.881	40.79
303.095	40.79
303.309	46.93
303.524	69.46
303.738	-12.46
303.952	-8.36
304.166	42.84
304.381	-69.8
304.595	18.26
304.809	32.6
305.023	40.79
305.237	-24.75
305.452	53.08
305.666	57.17
305.88	59.22
306.094	61.27
306.308	8.02
306.522	32.6
306.736	100.18
306.95	44.88
307.164	-16.55
307.379	32.6
307.593	87.89
307.807	-12.46
308.021	20.31
308.235	48.98
308.449	-45.23
308.663	36.69
308.877	57.17
309.091	22.36
309.305	85.84
309.519	-16.55
309.733	-8.36
309.947	-53.42
310.161	67.41
310.374	30.55
310.588	51.03
310.802	-57.51
311.016	20.31
311.23	42.84
311.444	1.88
311.658	65.36
311.872	75.6
312.085	-2.22
312.299	38.74
312.513	32.6
312.727	24.4
312.941	-2.22
313.154	34.64
313.368	42.84
313.582	46.93
313.796	57.17
314.009	12.12
314.223	98.13
314.437	10.07
314.651	83.8
314.864	42.84
315.078	-0.17
315.292	-22.7
315.505	63.32
315.719	61.27
315.933	51.03
316.146	81.75
316.36	-22.7
316.573	40.79
316.787	81.75
317.001	3.93
317.214	-32.94
317.428	53.08
317.641	-16.55
317.855	16.21
318.068	40.79
318.282	69.46
318.495	53.08
318.709	48.98
318.922	44.88
319.136	91.99
319.349	-16.55
319.563	53.08
319.776	-8.36
319.99	-88.23
320.203	53.08
320.417	-6.31
320.63	137.04
320.843	59.22
321.057	91.99
321.27	38.74
321.483	24.4
321.697	28.5
321.91	26.45
322.124	-6.31
322.337	46.93
322.55	12.12
322.763	16.21
322.977	59.22
323.19	-12.46
323.403	40.79
323.617	-4.27
323.83	63.32
324.043	24.4
324.256	20.31
324.469	8.02
324.683	16.21
324.896	-16.55
325.109	18.26
325.322	-32.94
325.535	42.84
325.748	20.31
325.962	16.21
326.175	14.17
326.388	24.4
326.601	106.32
326.814	10.07
327.027	-24.75
327.24	20.31
327.453	-65.71
327.666	-39.08
327.879	36.69
328.092	-24.75
328.305	55.12
328.518	81.75
328.731	20.31
328.944	55.12
329.157	48.98
329.37	59.22
329.583	118.61
329.796	132.95
330.009	-49.32
330.222	42.84
330.435	77.65
330.648	10.07
330.861	42.84
331.073	20.31
331.286	81.75
331.499	26.45
331.712	42.84
331.925	59.22
332.138	-34.99
332.35	89.94
332.563	-26.79
332.776	3.93
332.989	65.36
333.202	-2.22
333.414	55.12
333.627	10.07
333.84	26.45
334.053	51.03
334.265	57.17
334.478	65.36
334.691	-71.85
334.903	81.75
335.116	-8.36
335.329	16.21
335.541	98.13
335.754	81.75
335.966	46.93
336.179	65.36
336.392	42.84
336.604	108.37
336.817	24.4
337.029	57.17
337.242	32.6
337.454	10.07
337.667	-8.36
337.88	75.6
338.092	1.88
338.305	-4.27
338.517	8.02
338.729	67.41
338.942	40.79
339.154	-0.17
339.367	-32.94
339.579	73.56
339.792	-6.31
340.004	81.75
340.217	57.17
340.429	42.84
340.641	48.98
340.854	-6.31
341.066	10.07
341.278	65.36
341.491	18.26
341.703	1.88
341.915	-6.31
342.128	85.84
342.34	57.17
342.552	65.36
342.764	38.74
342.977	18.26
343.189	16.21
343.401	-26.79
343.613	-32.94
343.826	73.56
344.038	-49.32
344.25	69.46
344.462	63.32
344.674	24.4
344.886	-18.6
345.099	16.21
345.311	32.6
345.523	8.02
345.735	-20.65
345.947	28.5
346.159	83.8
346.371	12.12
346.583	-0.17
346.795	112.47
347.007	-4.27
347.219	32.6
347.431	57.17
347.643	132.95
347.855	8.02
348.067	30.55
348.279	-47.27
348.491	-6.31
348.703	61.27
348.915	20.31
349.127	-28.84
349.339	51.03
349.551	143.19
349.763	65.36
349.975	-6.31
350.187	108.37
350.399	24.4
350.61	10.07
350.822	8.02
351.034	8.02
351.246	69.46
351.458	16.21
351.669	26.45
351.881	53.08
352.093	94.04
352.305	5.97
352.517	79.7
352.728	59.22
352.94	32.6
353.152	83.8
353.363	14.17
353.575	1.88
353.787	38.74
353.999	34.64
354.21	26.45
354.422	-12.46
354.633	-0.17
354.845	40.79
355.057	3.93
355.268	53.08
355.48	24.4
355.692	26.45
355.903	18.26
356.115	34.64
356.326	-2.22
356.538	-4.27
356.749	81.75
356.961	83.8
357.172	83.8
357.384	24.4
357.595	59.22
357.807	69.46
358.018	32.6
358.23	75.6
358.441	143.19
358.653	32.6
358.864	8.02
359.075	-12.46
359.287	26.45
359.498	-8.36
359.709	8.02
359.921	-14.51
360.132	57.17
360.344	40.79
360.555	32.6
360.766	61.27
360.977	18.26
361.189	40.79
361.4	48.98
361.611	87.89
361.823	14.17
362.034	73.56
362.245	-30.89
362.456	34.64
362.667	-16.55
362.879	-37.03
363.09	69.46
363.301	24.4
363.512	8.02
363.723	3.93
363.935	-55.47
364.146	100.18
364.357	32.6
364.568	44.88
364.779	-6.31
364.99	48.98
365.201	61.27
365.412	57.17
365.623	51.03
365.834	155.47
366.045	40.79
366.256	89.94
366.467	24.4
366.678	40.79
366.889	85.84
367.1	85.84
367.311	28.5
367.522	73.56
367.733	83.8
367.944	114.52
368.155	-28.84
368.366	42.84
368.577	65.36
368.788	91.99
368.999	65.36
369.209	91.99
369.42	110.42
369.631	167.76
369.842	34.64
370.053	73.56
370.264	94.04
370.474	40.79
370.685	24.4
370.896	77.65
371.107	116.56
371.317	87.89
371.528	28.5
371.739	155.47
371.95	22.36
372.16	10.07
372.371	-8.36
372.582	16.21
372.792	34.64
373.003	118.61
373.214	24.4
373.424	59.22
373.635	69.46
373.846	59.22
374.056	32.6
374.267	104.28
374.477	-16.55
374.688	3.93
374.898	55.12
375.109	24.4
375.319	73.56
375.53	32.6
375.74	51.03
375.951	67.41
376.161	81.75
376.372	98.13
376.582	24.4
376.793	57.17
377.003	16.21
377.214	8.02
377.424	98.13
377.635	24.4
377.845	67.41
378.055	77.65
378.266	87.89
378.476	-0.17
378.686	5.97
378.897	71.51
379.107	77.65
379.317	20.31
379.528	100.18
379.738	122.71
379.948	83.8
380.158	65.36
380.369	85.84
380.579	61.27
380.789	32.6
380.999	57.17
381.21	94.04
381.42	98.13
381.63	-53.42
381.84	89.94
382.05	89.94
382.261	118.61
382.471	53.08
382.681	36.69
382.891	42.84
383.101	24.4
383.311	-20.65
383.521	26.45
383.731	83.8
383.941	48.98
384.151	18.26
384.361	12.12
384.571	26.45
384.781	48.98
384.991	85.84
385.201	106.32
385.411	130.9
385.621	40.79
385.831	89.94
386.041	85.84
386.251	32.6
386.461	114.52
386.671	10.07
386.881	34.64
387.091	-80.04
387.301	130.9
387.511	59.22
387.72	89.94
387.93	32.6
388.14	8.02
388.35	8.02
388.56	75.6
388.769	40.79
388.979	-6.31
389.189	73.56
389.399	51.03
389.609	69.46
389.818	116.56
390.028	178
390.238	91.99
390.447	-14.51
390.657	75.6
390.867	-20.65
391.076	71.51
391.286	100.18
391.496	81.75
391.705	26.45
391.915	83.8
392.125	200.53
392.334	48.98
392.544	57.17
392.753	65.36
392.963	-0.17
393.172	91.99
393.382	32.6
393.591	94.04
393.801	65.36
394.01	116.56
394.22	44.88
394.429	16.21
394.639	-24.75
394.848	-0.17
395.058	5.97
395.267	61.27
395.477	98.13
395.686	57.17
395.895	135
396.105	167.76
396.314	61.27
396.524	40.79
396.733	-0.17
396.942	106.32
397.152	116.56
397.361	32.6
397.57	122.71
397.78	57.17
397.989	89.94
398.198	81.75
398.407	42.84
398.617	151.38
398.826	-84.14
399.035	32.6
399.244	135
399.453	83.8
399.663	114.52
399.872	147.28
400.081	65.36
400.29	147.28
400.499	102.23
400.708	147.28
400.917	112.47
401.127	83.8
401.336	91.99
401.545	200.53
401.754	91.99
401.963	175.95
402.172	59.22
402.381	44.88
402.59	73.56
402.799	34.64
403.008	139.09
403.217	149.33
403.426	65.36
403.635	51.03
403.844	106.32
404.053	216.91
404.262	69.46
404.471	247.63
404.68	124.76
404.888	216.91
405.097	81.75
405.306	132.95
405.515	153.43
405.724	122.71
405.933	139.09
406.142	163.67
406.35	173.91
406.559	96.08
406.768	159.57
406.977	212.82
407.185	173.91
407.394	233.3
407.603	223.06
407.812	196.43
408.02	239.44
408.229	216.91
408.438	182.1
408.646	241.49
408.855	180.05
409.064	229.2
409.272	221.01
409.481	276.31
409.69	319.31
409.898	274.26
410.107	296.78
410.315	327.5
410.524	298.83
410.733	331.6
410.941	270.16
411.15	429.9
411.358	401.23
411.567	442.19
411.775	425.81
411.984	450.38
412.192	460.62
412.401	399.18
412.609	427.85
412.818	567.12
413.026	497.49
413.234	477.01
413.443	544.59
413.651	495.44
413.86	534.35
414.068	558.92
414.276	589.64
414.485	608.08
414.693	659.28
414.901	733
415.11	687.95
415.318	663.37
415.526	798.54
415.734	767.82
415.943	687.95
416.151	786.25
416.359	814.92
416.567	892.74
416.776	884.55
416.984	917.32
417.192	982.85
417.4	966.47
417.608	950.09
417.817	1048.39
418.025	1140.55
418.233	1132.36
418.441	966.47
418.649	1048.39
418.857	1244.99
419.065	1343.3
419.273	1312.58
419.481	1353.54
419.689	1480.51
419.897	1544
420.105	1519.42
420.313	1484.61
420.521	1634.11
420.729	1687.36
420.937	1668.92
421.145	1734.46
421.353	1814.33
421.561	1859.38
421.769	1941.3
421.977	2080.57
422.185	1974.07
422.393	2150.2
422.601	2211.64
422.809	2230.07
423.017	2252.59
423.224	2303.79
423.432	2629.42
423.64	2500.4
423.848	2762.54
424.056	2649.9
424.263	2901.8
424.471	2713.39
424.679	2858.79
424.887	2926.38
425.094	3180.32
425.302	3088.17
425.51	3145.51
425.718	3485.47
425.925	3317.54
426.133	3604.25
426.341	3870.49
426.548	3964.7
426.756	3968.79
426.964	3899.16
427.171	4173.59
427.379	4235.03
427.586	4357.91
427.794	4427.54
428.001	4601.62
428.209	4908.81
428.417	4783.88
428.624	5259.01
428.832	5173
429.039	5076.74
429.247	5187.33
429.454	5603.07
429.662	5955.32
429.869	5611.26
430.076	6143.74
430.284	5857.02
430.491	6143.74
430.699	6547.19
430.906	6403.83
431.114	6598.38
431.321	6788.85
431.528	6893.29
431.736	7235.3
431.943	7552.74
432.15	7497.44
432.358	7626.46
432.565	7929.56
432.772	7726.82
432.979	8238.81
433.187	8298.2
433.394	8459.99
433.601	9021.13
433.808	9068.23
434.016	8974.03
434.223	9182.92
434.43	9848.51
434.637	9748.16
434.844	10133.18
435.052	10352.31
435.259	10299.06
435.466	10462.9
435.673	10376.89
435.88	11130.54
436.087	11519.65
436.294	11669.16
436.501	11161.26
436.708	11431.59
436.915	11919.01
437.122	12541.59
437.329	12463.77
437.537	12902.03
437.743	13223.56
437.95	12824.21
438.157	13661.83
438.364	14175.87
438.571	13885.06
438.778	13971.07
438.985	15505
439.192	14739.06
439.399	15265.39
439.606	15201.9
439.813	15722.09
440.02	16746.07
440.227	16363.1
440.433	16352.86
440.64	16914
440.847	16662.1
441.054	17129.04
441.261	18347.58
441.467	17956.42
441.674	18396.73
441.881	19041.84
442.088	18941.49
442.294	18894.39
442.501	19232.3
442.708	19750.44
442.914	20342.3
443.121	21077.52
443.328	20930.07
443.534	22337.02
443.741	21415.44
443.948	21339.66
444.154	22773.24
444.361	22826.49
444.568	23096.82
444.774	22795.77
444.981	22875.64
445.187	23780.84
445.394	24577.5
445.6	24468.96
445.807	26887.61
446.013	25232.85
446.22	25951.69
446.426	26901.95
446.633	27530.67
446.839	28196.26
447.046	27016.63
447.252	28538.27
447.459	28571.04
447.665	28530.08
447.871	29611.41
448.078	31063.42
448.284	29273.49
448.491	30180.74
448.697	31196.54
448.903	31894.89
449.11	31855.98
449.316	31255.93
449.522	31747.44
449.728	32886.11
449.935	33226.07
450.141	33156.44
450.347	33647.96
450.553	32939.36
450.76	33371.48
450.966	33920.34
451.172	33932.62
451.378	34577.73
451.584	34028.88
451.791	34866.5
451.997	34850.11
452.203	35220.8
452.409	35351.87
452.615	35302.71
452.821	34035.02
453.027	33219.93
453.233	35589.43
453.44	33756.5
453.646	34010.45
453.852	34139.47
454.058	34915.65
454.264	33635.67
454.47	34510.15
454.676	33746.26
454.882	34835.78
455.088	31870.32
455.294	32304.49
455.5	32267.62
455.705	32445.8
455.911	31458.68
456.117	30770.56
456.323	30412.17
456.529	28814.75
456.735	30141.83
456.941	29590.93
457.147	28792.22
457.352	28145.06
457.558	27760.05
457.764	28016.04
457.97	27626.93
458.176	26824.12
458.381	26543.55
458.587	25400.79
458.793	25443.79
458.999	23924.2
459.204	25699.79
459.41	25312.72
459.616	23377.39
459.821	23358.96
460.027	23449.07
460.233	23029.24
460.438	21659.15
460.644	21663.24
460.85	20831.77
461.055	20545.05
461.261	20600.35
461.466	19115.57
461.672	18456.12
461.878	19430.96
462.083	18445.88
462.289	17872.45
462.494	17710.66
462.7	17213.01
462.905	16414.3
463.111	17188.43
463.316	17294.93
463.522	16678.49
463.727	16760.41
463.932	16662.1
464.138	16465.5
464.343	16703.06
464.549	16207.45
464.754	16983.63
464.959	16528.99
465.165	16639.58
465.37	15873.64
465.575	15378.03
465.781	16006.75
465.986	16070.24
466.191	15588.97
466.397	15031.92
466.602	14358.14
466.807	15109.74
467.012	15224.43
467.218	14931.57
467.423	14536.31
467.628	14698.1
467.833	15345.26
