Data from USB4F104151__108__14-31-04-863.txt Node

Date: Thu Mar 13 14:31:04 EDT 2025
User: louis
Spectrometer: USB4F10415
Trigger mode: 4
Integration Time (sec): 2.500000E-2
Scans to average: 1
Electric dark correction enabled: true
Nonlinearity correction enabled: false
Boxcar width: 0
XAxis mode: Wavelengths
Number of Pixels in Spectrum: 3648
>>>>>Begin Spectral Data<<<<<
178.204	-125.61
178.424	-125.61
178.644	-125.61
178.864	-217.77
179.084	-119.46
179.304	19.8
179.524	-78.51
179.744	-31.4
179.964	-29.35
180.184	23.89
180.404	36.18
180.624	36.18
180.844	5.46
181.064	-21.16
181.283	77.14
181.503	-17.07
181.723	-21.16
181.943	-37.55
182.163	21.85
182.383	44.37
182.602	101.72
182.822	68.95
183.042	46.42
183.262	23.89
183.482	19.8
183.701	52.56
183.921	75.09
184.141	-82.6
184.361	3.41
184.58	101.72
184.8	-82.6
185.02	-8.87
185.239	-37.55
185.459	30.04
185.679	36.18
185.898	-35.5
186.118	36.18
186.338	48.47
186.557	46.42
186.777	44.37
186.997	19.8
187.216	-82.6
187.436	64.85
187.655	79.19
187.875	21.85
188.095	27.99
188.314	60.76
188.534	46.42
188.753	40.28
188.973	27.99
189.192	116.05
189.412	101.72
189.631	52.56
189.851	15.7
190.07	36.18
190.29	17.75
190.509	36.18
190.729	60.76
190.948	75.09
191.168	167.25
191.387	77.14
191.607	-43.69
191.826	89.43
192.045	60.76
192.265	62.8
192.484	-12.97
192.704	93.52
192.923	73.04
193.142	75.09
193.362	71
193.581	3.41
193.8	103.76
194.02	52.56
194.239	9.56
194.458	103.76
194.678	-8.87
194.897	38.23
195.116	-41.64
195.335	44.37
195.555	3.41
195.774	19.8
195.993	19.8
196.212	-10.92
196.432	-10.92
196.651	52.56
196.87	-12.97
197.089	120.15
197.308	101.72
197.528	44.37
197.747	-33.45
197.966	52.56
198.185	71
198.404	54.61
198.623	58.71
198.842	111.96
199.062	62.8
199.281	-2.73
199.5	109.91
199.719	11.61
199.938	32.08
200.157	30.04
200.376	38.23
200.595	97.62
200.814	21.85
201.033	-43.69
201.252	54.61
201.471	44.37
201.69	-10.92
201.909	64.85
202.128	87.38
202.347	56.66
202.566	13.65
202.785	-37.55
203.004	-0.68
203.223	19.8
203.442	11.61
203.661	-12.97
203.879	77.14
204.098	118.1
204.317	11.61
204.536	-10.92
204.755	32.08
204.974	66.9
205.193	-31.4
205.411	114
205.63	52.56
205.849	87.38
206.068	-41.64
206.287	-27.31
206.505	38.23
206.724	27.99
206.943	-15.02
207.162	27.99
207.381	60.76
207.599	25.94
207.818	71
208.037	60.76
208.255	5.46
208.474	27.99
208.693	7.51
208.911	25.94
209.13	21.85
209.349	-39.59
209.567	56.66
209.786	91.48
210.005	44.37
210.223	-62.12
210.442	-17.07
210.661	114
210.879	19.8
211.098	9.56
211.316	71
211.535	56.66
211.753	44.37
211.972	-29.35
212.191	19.8
212.409	23.89
212.628	32.08
212.846	-49.83
213.065	68.95
213.283	38.23
213.502	-21.16
213.72	27.99
213.938	77.14
214.157	60.76
214.375	19.8
214.594	44.37
214.812	101.72
215.031	15.7
215.249	77.14
215.467	11.61
215.686	118.1
215.904	38.23
216.122	56.66
216.341	68.95
216.559	-25.26
216.778	42.32
216.996	66.9
217.214	11.61
217.432	-0.68
217.651	79.19
217.869	52.56
218.087	40.28
218.306	68.95
218.524	7.51
218.742	-10.92
218.96	64.85
219.179	19.8
219.397	13.65
219.615	71
219.833	79.19
220.051	27.99
220.27	7.51
220.488	17.75
220.706	7.51
220.924	-2.73
221.142	40.28
221.36	79.19
221.578	36.18
221.796	30.04
222.015	97.62
222.233	11.61
222.451	-45.74
222.669	19.8
222.887	40.28
223.105	-10.92
223.323	-4.78
223.541	3.41
223.759	85.33
223.977	89.43
224.195	83.28
224.413	85.33
224.631	44.37
224.849	60.76
225.067	107.86
225.285	-19.11
225.503	19.8
225.721	-37.55
225.939	71
226.157	7.51
226.375	148.82
226.592	44.37
226.81	66.9
227.028	-19.11
227.246	109.91
227.464	-29.35
227.682	71
227.9	60.76
228.117	81.24
228.335	81.24
228.553	-45.74
228.771	73.04
228.989	44.37
229.206	30.04
229.424	-53.93
229.642	36.18
229.86	23.89
230.077	79.19
230.295	3.41
230.513	56.66
230.731	36.18
230.948	15.7
231.166	101.72
231.384	128.34
231.601	103.76
231.819	85.33
232.037	60.76
232.254	93.52
232.472	38.23
232.689	-43.69
232.907	-43.69
233.125	44.37
233.342	25.94
233.56	-0.68
233.777	-12.97
233.995	79.19
234.213	36.18
234.43	71
234.648	58.71
234.865	11.61
235.083	5.46
235.3	23.89
235.518	48.47
235.735	30.04
235.953	64.85
236.17	32.08
236.388	46.42
236.605	122.2
236.822	38.23
237.04	36.18
237.257	71
237.475	-21.16
237.692	60.76
237.909	19.8
238.127	7.51
238.344	60.76
238.562	40.28
238.779	42.32
238.996	27.99
239.214	23.89
239.431	95.57
239.648	15.7
239.865	62.8
240.083	-2.73
240.3	15.7
240.517	68.95
240.735	-19.11
240.952	60.76
241.169	21.85
241.386	11.61
241.603	27.99
241.821	-33.45
242.038	25.94
242.255	85.33
242.472	-12.97
242.689	-8.87
242.907	91.48
243.124	3.41
243.341	21.85
243.558	-21.16
243.775	11.61
243.992	-62.12
244.209	42.32
244.426	122.2
244.643	122.2
244.86	44.37
245.078	19.8
245.295	73.04
245.512	34.13
245.729	-70.31
245.946	44.37
246.163	48.47
246.38	5.46
246.597	-25.26
246.814	13.65
247.031	11.61
247.248	34.13
247.464	54.61
247.681	13.65
247.898	109.91
248.115	52.56
248.332	5.46
248.549	101.72
248.766	118.1
248.983	54.61
249.2	77.14
249.417	77.14
249.633	-2.73
249.85	30.04
250.067	36.18
250.284	-2.73
250.501	60.76
250.717	50.52
250.934	-45.74
251.151	64.85
251.368	48.47
251.585	-12.97
251.801	66.9
252.018	19.8
252.235	116.05
252.451	30.04
252.668	32.08
252.885	83.28
253.102	52.56
253.318	25.94
253.535	46.42
253.752	111.96
253.968	-4.78
254.185	-43.69
254.401	-45.74
254.618	46.42
254.835	-4.78
255.051	89.43
255.268	7.51
255.484	5.46
255.701	-0.68
255.917	144.72
256.134	-29.35
256.351	77.14
256.567	48.47
256.784	-17.07
257	-33.45
257.217	62.8
257.433	79.19
257.65	52.56
257.866	-12.97
258.082	13.65
258.299	32.08
258.515	23.89
258.732	11.61
258.948	21.85
259.165	30.04
259.381	36.18
259.597	58.71
259.814	-27.31
260.03	93.52
260.246	46.42
260.463	58.71
260.679	101.72
260.895	58.71
261.112	-10.92
261.328	-17.07
261.544	11.61
261.761	77.14
261.977	-17.07
262.193	30.04
262.409	30.04
262.626	62.8
262.842	54.61
263.058	48.47
263.274	114
263.49	68.95
263.707	109.91
263.923	77.14
264.139	-12.97
264.355	11.61
264.571	77.14
264.787	56.66
265.004	36.18
265.22	32.08
265.436	5.46
265.652	-21.16
265.868	-45.74
266.084	11.61
266.3	44.37
266.516	38.23
266.732	73.04
266.948	-10.92
267.164	34.13
267.38	81.24
267.596	23.89
267.812	-35.5
268.028	52.56
268.244	79.19
268.46	54.61
268.676	56.66
268.892	77.14
269.108	-19.11
269.324	19.8
269.54	-15.02
269.756	81.24
269.972	93.52
270.188	32.08
270.403	19.8
270.619	44.37
270.835	19.8
271.051	44.37
271.267	9.56
271.483	7.51
271.698	32.08
271.914	89.43
272.13	1.37
272.346	-8.87
272.562	60.76
272.777	44.37
272.993	-0.68
273.209	-45.74
273.425	38.23
273.64	-0.68
273.856	44.37
274.072	62.8
274.287	-45.74
274.503	11.61
274.719	32.08
274.934	3.41
275.15	34.13
275.366	13.65
275.581	66.9
275.797	103.76
276.012	-35.5
276.228	85.33
276.444	-4.78
276.659	60.76
276.875	19.8
277.09	27.99
277.306	38.23
277.521	7.51
277.737	44.37
277.952	71
278.168	-6.83
278.383	64.85
278.599	40.28
278.814	62.8
279.03	46.42
279.245	54.61
279.461	44.37
279.676	120.15
279.892	-55.98
280.107	-19.11
280.322	-37.55
280.538	44.37
280.753	-45.74
280.969	-4.78
281.184	89.43
281.399	34.13
281.615	118.1
281.83	62.8
282.045	52.56
282.26	-70.31
282.476	52.56
282.691	81.24
282.906	-4.78
283.122	27.99
283.337	-25.26
283.552	44.37
283.767	36.18
283.983	-23.21
284.198	23.89
284.413	38.23
284.628	27.99
284.843	68.95
285.058	13.65
285.274	-12.97
285.489	48.47
285.704	-35.5
285.919	-8.87
286.134	5.46
286.349	5.46
286.564	44.37
286.779	-6.83
286.995	34.13
287.21	11.61
287.425	-8.87
287.64	-17.07
287.855	87.38
288.07	-10.92
288.285	77.14
288.5	50.52
288.715	77.14
288.93	68.95
289.145	-35.5
289.36	25.94
289.575	-10.92
289.79	64.85
290.004	-4.78
290.219	-29.35
290.434	3.41
290.649	-4.78
290.864	27.99
291.079	-60.07
291.294	27.99
291.509	-6.83
291.724	1.37
291.938	62.8
292.153	21.85
292.368	9.56
292.583	144.72
292.798	95.57
293.012	62.8
293.227	52.56
293.442	13.65
293.657	3.41
293.871	77.14
294.086	34.13
294.301	109.91
294.516	91.48
294.73	38.23
294.945	-86.7
295.16	32.08
295.374	48.47
295.589	93.52
295.804	-4.78
296.018	62.8
296.233	64.85
296.447	93.52
296.662	50.52
296.877	93.52
297.091	7.51
297.306	-4.78
297.52	93.52
297.735	142.68
297.949	25.94
298.164	44.37
298.378	19.8
298.593	-35.5
298.807	-8.87
299.022	34.13
299.236	77.14
299.451	11.61
299.665	27.99
299.88	58.71
300.094	23.89
300.309	25.94
300.523	-19.11
300.737	71
300.952	116.05
301.166	97.62
301.381	44.37
301.595	62.8
301.809	-17.07
302.024	48.47
302.238	27.99
302.452	89.43
302.667	60.76
302.881	134.48
303.095	91.48
303.309	-0.68
303.524	-25.26
303.738	44.37
303.952	-2.73
304.166	-21.16
304.381	-8.87
304.595	38.23
304.809	15.7
305.023	38.23
305.237	48.47
305.452	19.8
305.666	56.66
305.88	11.61
306.094	66.9
306.308	25.94
306.522	79.19
306.736	19.8
306.95	103.76
307.164	38.23
307.379	5.46
307.593	107.86
307.807	40.28
308.021	66.9
308.235	19.8
308.449	17.75
308.663	36.18
308.877	140.63
309.091	60.76
309.305	36.18
309.519	-70.31
309.733	109.91
309.947	27.99
310.161	36.18
310.374	-21.16
310.588	68.95
310.802	101.72
311.016	95.57
311.23	60.76
311.444	21.85
311.658	85.33
311.872	85.33
312.085	109.91
312.299	103.76
312.513	23.89
312.727	68.95
312.941	19.8
313.154	73.04
313.368	122.2
313.582	85.33
313.796	38.23
314.009	50.52
314.223	107.86
314.437	-29.35
314.651	105.81
314.864	109.91
315.078	17.75
315.292	19.8
315.505	-51.88
315.719	52.56
315.933	-25.26
316.146	34.13
316.36	30.04
316.573	-4.78
316.787	87.38
317.001	11.61
317.214	-17.07
317.428	64.85
317.641	-39.59
317.855	44.37
318.068	7.51
318.282	-6.83
318.495	114
318.709	30.04
318.922	68.95
319.136	93.52
319.349	32.08
319.563	142.68
319.776	48.47
319.99	17.75
320.203	81.24
320.417	46.42
320.63	54.61
320.843	32.08
321.057	62.8
321.27	-15.02
321.483	50.52
321.697	91.48
321.91	27.99
322.124	122.2
322.337	13.65
322.55	15.7
322.763	81.24
322.977	36.18
323.19	52.56
323.403	19.8
323.617	44.37
323.83	32.08
324.043	34.13
324.256	46.42
324.469	25.94
324.683	48.47
324.896	-62.12
325.109	89.43
325.322	30.04
325.535	77.14
325.748	109.91
325.962	62.8
326.175	27.99
326.388	38.23
326.601	107.86
326.814	3.41
327.027	36.18
327.24	66.9
327.453	23.89
327.666	36.18
327.879	48.47
328.092	15.7
328.305	111.96
328.518	-0.68
328.731	85.33
328.944	54.61
329.157	46.42
329.37	105.81
329.583	85.33
329.796	60.76
330.009	32.08
330.222	44.37
330.435	89.43
330.648	40.28
330.861	-4.78
331.073	68.95
331.286	144.72
331.499	42.32
331.712	64.85
331.925	68.95
332.138	-74.41
332.35	142.68
332.563	-86.7
332.776	44.37
332.989	27.99
333.202	71
333.414	27.99
333.627	56.66
333.84	79.19
334.053	68.95
334.265	114
334.478	62.8
334.691	-10.92
334.903	5.46
335.116	27.99
335.329	97.62
335.541	38.23
335.754	73.04
335.966	109.91
336.179	-21.16
336.392	11.61
336.604	27.99
336.817	34.13
337.029	-12.97
337.242	9.56
337.454	132.44
337.667	19.8
337.88	101.72
338.092	77.14
338.305	52.56
338.517	-0.68
338.729	44.37
338.942	85.33
339.154	44.37
339.367	-60.07
339.579	73.04
339.792	-10.92
340.004	85.33
340.217	-12.97
340.429	30.04
340.641	-21.16
340.854	101.72
341.066	40.28
341.278	52.56
341.491	89.43
341.703	-21.16
341.915	48.47
342.128	-4.78
342.34	77.14
342.552	-4.78
342.764	56.66
342.977	-39.59
343.189	52.56
343.401	107.86
343.613	27.99
343.826	-17.07
344.038	-2.73
344.25	95.57
344.462	17.75
344.674	73.04
344.886	21.85
345.099	27.99
345.311	71
345.523	91.48
345.735	-2.73
345.947	44.37
346.159	15.7
346.371	44.37
346.583	23.89
346.795	58.71
347.007	13.65
347.219	77.14
347.431	50.52
347.643	118.1
347.855	105.81
348.067	142.68
348.279	-4.78
348.491	11.61
348.703	13.65
348.915	-62.12
349.127	54.61
349.339	11.61
349.551	-23.21
349.763	79.19
349.975	-21.16
350.187	60.76
350.399	101.72
350.61	-53.93
350.822	62.8
351.034	40.28
351.246	58.71
351.458	71
351.669	44.37
351.881	46.42
352.093	128.34
352.305	118.1
352.517	68.95
352.728	19.8
352.94	44.37
353.152	111.96
353.363	30.04
353.575	54.61
353.787	107.86
353.999	11.61
354.21	54.61
354.422	32.08
354.633	36.18
354.845	36.18
355.057	30.04
355.268	40.28
355.48	42.32
355.692	5.46
355.903	95.57
356.115	15.7
356.326	9.56
356.538	130.39
356.749	114
356.961	85.33
357.172	48.47
357.384	148.82
357.595	52.56
357.807	52.56
358.018	-78.51
358.23	25.94
358.441	83.28
358.653	40.28
358.864	60.76
359.075	71
359.287	52.56
359.498	122.2
359.709	124.24
359.921	62.8
360.132	9.56
360.344	11.61
360.555	93.52
360.766	85.33
360.977	71
361.189	56.66
361.4	44.37
361.611	152.92
361.823	-2.73
362.034	68.95
362.245	58.71
362.456	7.51
362.667	60.76
362.879	52.56
363.09	73.04
363.301	1.37
363.512	21.85
363.723	27.99
363.935	48.47
364.146	118.1
364.357	19.8
364.568	77.14
364.779	-12.97
364.99	77.14
365.201	48.47
365.412	109.91
365.623	-0.68
365.834	99.67
366.045	27.99
366.256	52.56
366.467	-4.78
366.678	30.04
366.889	71
367.1	58.71
367.311	56.66
367.522	36.18
367.733	109.91
367.944	36.18
368.155	68.95
368.366	52.56
368.577	68.95
368.788	126.29
368.999	54.61
369.209	126.29
369.42	111.96
369.631	120.15
369.842	46.42
370.053	32.08
370.264	95.57
370.474	13.65
370.685	103.76
370.896	103.76
371.107	44.37
371.317	126.29
371.528	-10.92
371.739	62.8
371.95	101.72
372.16	36.18
372.371	85.33
372.582	32.08
372.792	77.14
373.003	60.76
373.214	97.62
373.424	128.34
373.635	13.65
373.846	134.48
374.056	56.66
374.267	52.56
374.477	19.8
374.688	103.76
374.898	-4.78
375.109	93.52
375.319	118.1
375.53	77.14
375.74	68.95
375.951	34.13
376.161	114
376.372	68.95
376.582	-37.55
376.793	97.62
377.003	54.61
377.214	30.04
377.424	-2.73
377.635	89.43
377.845	21.85
378.055	48.47
378.266	27.99
378.476	64.85
378.686	79.19
378.897	93.52
379.107	66.9
379.317	66.9
379.528	60.76
379.738	126.29
379.948	27.99
380.158	77.14
380.369	107.86
380.579	126.29
380.789	52.56
380.999	71
381.21	71
381.42	118.1
381.63	54.61
381.84	120.15
382.05	103.76
382.261	85.33
382.471	87.38
382.681	21.85
382.891	75.09
383.101	30.04
383.311	30.04
383.521	-21.16
383.731	44.37
383.941	130.39
384.151	64.85
384.361	-12.97
384.571	21.85
384.781	50.52
384.991	142.68
385.201	120.15
385.411	48.47
385.621	120.15
385.831	30.04
386.041	103.76
386.251	75.09
386.461	93.52
386.671	46.42
386.881	77.14
387.091	40.28
387.301	142.68
387.511	101.72
387.72	97.62
387.93	48.47
388.14	44.37
388.35	64.85
388.56	93.52
388.769	101.72
388.979	54.61
389.189	27.99
389.399	103.76
389.609	77.14
389.818	73.04
390.028	32.08
390.238	144.72
390.447	-33.45
390.657	32.08
390.867	46.42
391.076	73.04
391.286	109.91
391.496	71
391.705	40.28
391.915	85.33
392.125	3.41
392.334	60.76
392.544	60.76
392.753	68.95
392.963	118.1
393.172	93.52
393.382	-6.83
393.591	163.15
393.801	44.37
394.01	27.99
394.22	134.48
394.429	48.47
394.639	101.72
394.848	142.68
395.058	71
395.267	159.06
395.477	163.15
395.686	146.77
395.895	130.39
396.105	144.72
396.314	109.91
396.524	68.95
396.733	138.58
396.942	132.44
397.152	111.96
397.361	118.1
397.57	118.1
397.78	97.62
397.989	146.77
398.198	167.25
398.407	77.14
398.617	109.91
398.826	167.25
399.035	77.14
399.244	175.44
399.453	148.82
399.663	40.28
399.872	134.48
400.081	85.33
400.29	173.39
400.499	77.14
400.708	132.44
400.917	126.29
401.127	85.33
401.336	161.11
401.545	191.83
401.754	134.48
401.963	142.68
402.172	118.1
402.381	79.19
402.59	118.1
402.799	232.79
403.008	159.06
403.217	183.63
403.426	167.25
403.635	161.11
403.844	159.06
404.053	175.44
404.262	118.1
404.471	220.5
404.68	251.22
404.888	120.15
405.097	120.15
405.306	142.68
405.515	220.5
405.724	167.25
405.933	206.16
406.142	179.54
406.35	267.6
406.559	204.11
406.768	202.07
406.977	292.18
407.185	167.25
407.394	245.07
407.603	177.49
407.812	300.37
408.02	267.6
408.229	275.79
408.438	322.9
408.646	283.99
408.855	304.46
409.064	290.13
409.272	324.94
409.481	365.9
409.69	326.99
409.898	314.7
410.107	378.19
410.315	347.47
410.524	392.53
410.733	431.44
410.941	425.29
411.15	453.97
411.358	462.16
411.567	572.75
411.775	435.53
411.984	529.74
412.192	478.54
412.401	585.04
412.609	654.67
412.818	576.84
413.026	642.38
413.234	642.38
413.443	611.66
413.651	642.38
413.86	691.53
414.068	728.39
414.276	863.56
414.485	720.2
414.693	822.6
414.901	814.41
415.11	841.03
415.318	947.53
415.526	908.62
415.734	949.57
415.943	982.34
416.151	1033.54
416.359	1090.88
416.567	1060.17
416.776	1207.62
416.984	1109.32
417.192	1277.25
417.4	1189.19
417.608	1262.91
417.817	1291.59
418.025	1281.35
418.233	1412.42
418.441	1299.78
418.649	1590.59
418.857	1576.25
419.065	1596.73
419.273	1611.07
419.481	1613.12
419.689	1754.43
419.897	1785.15
420.105	1883.45
420.313	2039.09
420.521	2061.62
420.729	2121.01
420.937	2086.2
421.145	2307.38
421.353	2315.57
421.561	2356.53
421.769	2381.11
421.977	2594.09
422.185	2475.31
422.393	2700.59
422.601	2817.32
422.809	2868.52
423.017	2940.2
423.224	2993.45
423.432	3063.08
423.64	3161.38
423.848	3433.76
424.056	3312.93
424.263	3575.07
424.471	3601.69
424.679	3675.42
424.887	3749.15
425.094	3878.17
425.302	3943.71
425.51	4218.13
425.718	4142.36
425.925	4418.83
426.133	4461.84
426.341	4601.1
426.548	4844.81
426.756	4889.87
426.964	4828.43
427.171	5303.56
427.379	5414.15
427.586	5532.93
427.794	5618.94
428.001	5938.43
428.209	6124.79
428.417	6012.15
428.624	6382.84
428.832	6399.22
429.039	6413.56
429.247	6376.69
429.454	6984.94
429.662	7652.58
429.869	7050.47
430.076	7691.49
430.284	7187.69
430.491	7578.85
430.699	8084.7
430.906	8152.28
431.114	8047.83
431.321	8408.28
431.528	8461.52
431.736	9133.26
431.943	9518.28
432.15	9368.77
432.358	9329.86
432.565	10065.08
432.772	9811.14
432.979	10235.07
433.187	10587.32
433.394	10517.68
433.601	11349.16
433.808	11336.87
434.016	11273.39
434.223	11750.56
434.43	12489.88
434.637	12285.08
434.844	13001.87
435.052	13098.13
435.259	13155.47
435.466	13122.7
435.673	13268.11
435.88	13814.91
436.087	14718.07
436.294	14437.5
436.501	14359.67
436.708	14566.52
436.915	15070.32
437.122	15875.17
437.329	15641.7
437.537	16352.35
437.743	16477.27
437.95	16315.48
438.157	17323.08
438.364	17792.07
438.571	17591.37
438.778	17886.28
438.985	19299.37
439.192	18545.72
439.399	19319.85
439.606	18836.53
439.813	20136.99
440.02	21341.2
440.227	20911.13
440.433	20374.56
440.64	21560.33
440.847	21140.5
441.054	21732.36
441.261	23020.53
441.467	22789.11
441.674	23286.77
441.881	24085.48
442.088	24120.29
442.294	23829.48
442.501	24167.4
442.708	24394.72
442.914	25629.65
443.121	26883
443.328	26110.92
443.534	28140.46
443.741	27319.22
443.948	26610.62
444.154	28687.26
444.361	28572.58
444.568	28838.81
444.774	28621.73
444.981	29117.34
445.187	29764.5
445.394	31497.08
445.6	30978.94
445.807	33874.77
446.013	31925.1
446.22	33037.15
446.426	34179.92
446.633	34380.62
446.839	35625.78
447.046	34347.85
447.252	35803.95
447.459	35922.74
447.665	35808.05
447.871	37399.32
448.078	39133.95
448.284	37176.09
448.491	38351.63
448.697	39693.05
448.903	40557.29
449.11	40452.84
449.316	39668.47
449.522	40598.25
449.728	41687.77
449.935	42080.98
450.141	42050.26
450.347	42447.57
450.553	41126.63
450.76	42134.23
450.966	43330.24
451.172	42787.53
451.378	44206.77
451.584	43539.13
451.791	43997.88
451.997	43893.43
452.203	44872.36
452.409	44696.24
452.615	44655.28
452.821	42777.29
453.027	42627.79
453.233	44677.8
453.44	42801.86
453.646	43524.8
453.852	43393.73
454.058	44274.35
454.264	42758.86
454.47	43807.42
454.676	42717.9
454.882	44384.94
455.088	40035.06
455.294	40581.87
455.5	41435.87
455.705	41726.68
455.911	40020.72
456.117	39805.69
456.323	38810.37
456.529	37014.3
456.735	38632.2
456.941	37501.72
457.147	36672.29
457.352	35775.28
457.558	35595.06
457.764	35717.94
457.97	34624.32
458.176	34380.62
458.381	33620.82
458.587	32488.29
458.793	32158.57
458.999	31007.61
459.204	33057.63
459.41	32117.61
459.616	29881.23
459.821	30110.6
460.027	29711.25
460.233	28926.88
460.438	27904.94
460.644	28238.76
460.85	26987.45
461.055	26737.6
461.261	26479.55
461.466	24112.1
461.672	23522.29
461.878	25529.3
462.083	23507.95
462.289	23131.12
462.494	22959.09
462.7	21988.36
462.905	21552.14
463.111	22068.23
463.316	21939.21
463.522	21658.63
463.727	21857.29
463.932	21707.79
464.138	21320.72
464.343	21171.22
464.549	20859.93
464.754	21259.28
464.959	21324.82
465.165	21300.24
465.37	20005.92
465.575	19772.46
465.781	20329.5
465.986	20417.57
466.191	19696.68
466.397	19313.71
466.602	18621.5
466.807	19012.66
467.012	19168.3
467.218	18912.31
