Data from USB4F104151__225__14-33-57-364.txt Node

Date: Thu Mar 13 14:33:57 EDT 2025
User: louis
Spectrometer: USB4F10415
Trigger mode: 4
Integration Time (sec): 2.500000E-2
Scans to average: 1
Electric dark correction enabled: true
Nonlinearity correction enabled: false
Boxcar width: 0
XAxis mode: Wavelengths
Number of Pixels in Spectrum: 3648
>>>>>Begin Spectral Data<<<<<
178.204	-208.55
178.424	-208.55
178.644	-208.55
178.864	-140.97
179.084	-165.54
179.304	14.68
179.524	-34.47
179.744	22.87
179.964	35.16
180.184	0.34
180.404	-24.23
180.624	-18.09
180.844	-22.19
181.064	-81.58
181.283	53.59
181.503	-20.14
181.723	74.07
181.943	-3.75
182.163	61.78
182.383	-11.95
182.602	100.69
182.822	51.54
183.042	69.97
183.262	41.3
183.482	4.44
183.701	-11.95
183.921	-16.04
184.141	14.68
184.361	94.55
184.58	-3.75
184.8	-20.14
185.02	-11.95
185.239	4.44
185.459	47.44
185.679	45.4
185.898	-65.19
186.118	94.55
186.338	80.21
186.557	69.97
186.777	-7.85
186.997	65.88
187.216	63.83
187.436	112.98
187.655	-1.71
187.875	112.98
188.095	-9.9
188.314	106.84
188.534	65.88
188.753	49.49
188.973	96.6
189.192	82.26
189.412	63.83
189.631	-3.75
189.851	-9.9
190.07	63.83
190.29	26.96
190.509	-11.95
190.729	29.01
190.948	37.2
191.168	201.04
191.387	39.25
191.607	2.39
191.826	61.78
192.045	-3.75
192.265	-7.85
192.484	37.2
192.704	22.87
192.923	10.58
193.142	117.08
193.362	47.44
193.581	65.88
193.8	-26.28
194.02	100.69
194.239	37.2
194.458	0.34
194.678	41.3
194.897	-9.9
195.116	-3.75
195.335	-20.14
195.555	72.02
195.774	-3.75
195.993	14.68
196.212	29.01
196.432	55.64
196.651	0.34
196.87	61.78
197.089	90.45
197.308	0.34
197.528	12.63
197.747	-1.71
197.966	88.4
198.185	119.12
198.404	53.59
198.623	88.4
198.842	49.49
199.062	31.06
199.281	61.78
199.5	-20.14
199.719	14.68
199.938	22.87
200.157	29.01
200.376	121.17
200.595	22.87
200.814	86.36
201.033	16.73
201.252	53.59
201.471	29.01
201.69	61.78
201.909	55.64
202.128	37.2
202.347	14.68
202.566	18.77
202.785	-24.23
203.004	20.82
203.223	151.89
203.442	-22.19
203.661	22.87
203.879	94.55
204.098	20.82
204.317	-11.95
204.536	43.35
204.755	69.97
204.974	-9.9
205.193	74.07
205.411	147.8
205.63	78.16
205.849	33.11
206.068	61.78
206.287	22.87
206.505	24.92
206.724	33.11
206.943	31.06
207.162	37.2
207.381	-36.52
207.599	37.2
207.818	65.88
208.037	41.3
208.255	-28.33
208.474	14.68
208.693	53.59
208.911	82.26
209.13	29.01
209.349	80.21
209.567	4.44
209.786	84.31
210.005	102.74
210.223	33.11
210.442	-26.28
210.661	16.73
210.879	8.53
211.098	41.3
211.316	14.68
211.535	90.45
211.753	53.59
211.972	20.82
212.191	49.49
212.409	94.55
212.628	39.25
212.846	-20.14
213.065	47.44
213.283	-3.75
213.502	4.44
213.72	29.01
213.938	78.16
214.157	-22.19
214.375	115.03
214.594	-28.33
214.812	47.44
215.031	49.49
215.249	65.88
215.467	86.36
215.686	39.25
215.904	37.2
216.122	-9.9
216.341	57.68
216.559	33.11
216.778	121.17
216.996	39.25
217.214	57.68
217.432	-26.28
217.651	-85.67
217.869	16.73
218.087	45.4
218.306	-40.62
218.524	22.87
218.742	41.3
218.96	78.16
219.179	-7.85
219.397	33.11
219.615	160.08
219.833	-36.52
220.051	8.53
220.27	69.97
220.488	104.79
220.706	31.06
220.924	55.64
221.142	8.53
221.36	61.78
221.578	29.01
221.796	4.44
222.015	129.36
222.233	22.87
222.451	61.78
222.669	-77.48
222.887	16.73
223.105	-20.14
223.323	96.6
223.541	39.25
223.759	80.21
223.977	31.06
224.195	39.25
224.413	29.01
224.631	-1.71
224.849	-7.85
225.067	112.98
225.285	-34.47
225.503	43.35
225.721	-18.09
225.939	-26.28
226.157	78.16
226.375	16.73
226.592	84.31
226.81	61.78
227.028	96.6
227.246	55.64
227.464	37.2
227.682	139.6
227.9	-18.09
228.117	33.11
228.335	20.82
228.553	-48.81
228.771	74.07
228.989	123.22
229.206	90.45
229.424	86.36
229.642	29.01
229.86	53.59
230.077	20.82
230.295	-28.33
230.513	-20.14
230.731	63.83
230.948	41.3
231.166	55.64
231.384	29.01
231.601	-52.91
231.819	135.51
232.037	-7.85
232.254	-40.62
232.472	-16.04
232.689	-75.43
232.907	123.22
233.125	-9.9
233.342	55.64
233.56	29.01
233.777	61.78
233.995	4.44
234.213	12.63
234.43	20.82
234.648	-3.75
234.865	12.63
235.083	31.06
235.3	-36.52
235.518	39.25
235.735	20.82
235.953	86.36
236.17	96.6
236.388	-28.33
236.605	16.73
236.822	139.6
237.04	69.97
237.257	74.07
237.475	29.01
237.692	82.26
237.909	63.83
238.127	12.63
238.344	-1.71
238.562	72.02
238.779	-46.76
238.996	45.4
239.214	-1.71
239.431	88.4
239.648	-20.14
239.865	88.4
240.083	47.44
240.3	61.78
240.517	61.78
240.735	45.4
240.952	20.82
241.169	20.82
241.386	86.36
241.603	39.25
241.821	-44.71
242.038	115.03
242.255	121.17
242.472	-13.99
242.689	110.93
242.907	35.16
243.124	-11.95
243.341	12.63
243.558	-3.75
243.775	-52.91
243.992	8.53
244.209	39.25
244.426	151.89
244.643	86.36
244.86	0.34
245.078	72.02
245.295	4.44
245.512	-7.85
245.729	10.58
245.946	-7.85
246.163	29.01
246.38	4.44
246.597	6.49
246.814	43.35
247.031	-5.8
247.248	45.4
247.464	-44.71
247.681	39.25
247.898	33.11
248.115	94.55
248.332	0.34
248.549	4.44
248.766	127.32
248.983	47.44
249.2	53.59
249.417	76.12
249.633	61.78
249.85	135.51
250.067	-7.85
250.284	4.44
250.501	69.97
250.717	82.26
250.934	29.01
251.151	-22.19
251.368	-1.71
251.585	63.83
251.801	-3.75
252.018	-32.43
252.235	86.36
252.451	-48.81
252.668	41.3
252.885	96.6
253.102	20.82
253.318	88.4
253.535	115.03
253.752	37.2
253.968	20.82
254.185	8.53
254.401	10.58
254.618	-34.47
254.835	33.11
255.051	158.03
255.268	37.2
255.484	65.88
255.701	-22.19
255.917	80.21
256.134	-3.75
256.351	78.16
256.567	31.06
256.784	20.82
257	72.02
257.217	63.83
257.433	12.63
257.65	96.6
257.866	-7.85
258.082	39.25
258.299	4.44
258.515	65.88
258.732	-11.95
258.948	31.06
259.165	4.44
259.381	20.82
259.597	63.83
259.814	37.2
260.03	-44.71
260.246	8.53
260.463	41.3
260.679	53.59
260.895	-95.91
261.112	4.44
261.328	94.55
261.544	37.2
261.761	104.79
261.977	33.11
262.193	-5.8
262.409	49.49
262.626	88.4
262.842	65.88
263.058	-48.81
263.274	55.64
263.49	84.31
263.707	47.44
263.923	121.17
264.139	-11.95
264.355	12.63
264.571	57.68
264.787	-1.71
265.004	57.68
265.22	22.87
265.436	37.2
265.652	-36.52
265.868	41.3
266.084	115.03
266.3	92.5
266.516	-11.95
266.732	53.59
266.948	26.96
267.164	-9.9
267.38	80.21
267.596	8.53
267.812	151.89
268.028	61.78
268.244	10.58
268.46	61.78
268.676	33.11
268.892	4.44
269.108	43.35
269.324	-26.28
269.54	-28.33
269.756	41.3
269.972	-50.86
270.188	20.82
270.403	-9.9
270.619	61.78
270.835	96.6
271.051	-1.71
271.267	-20.14
271.483	29.01
271.698	6.49
271.914	96.6
272.13	4.44
272.346	20.82
272.562	33.11
272.777	37.2
272.993	-3.75
273.209	47.44
273.425	123.22
273.64	6.49
273.856	69.97
274.072	47.44
274.287	98.64
274.503	41.3
274.719	69.97
274.934	2.39
275.15	-3.75
275.366	31.06
275.581	-3.75
275.797	-28.33
276.012	-69.29
276.228	37.2
276.444	26.96
276.659	94.55
276.875	-18.09
277.09	78.16
277.306	74.07
277.521	69.97
277.737	10.58
277.952	55.64
278.168	57.68
278.383	37.2
278.599	8.53
278.814	53.59
279.03	80.21
279.245	72.02
279.461	-46.76
279.676	76.12
279.892	49.49
280.107	20.82
280.322	37.2
280.538	-7.85
280.753	-1.71
280.969	127.32
281.184	29.01
281.399	6.49
281.615	14.68
281.83	119.12
282.045	61.78
282.26	22.87
282.476	72.02
282.691	57.68
282.906	96.6
283.122	63.83
283.337	4.44
283.552	35.16
283.767	37.2
283.983	98.64
284.198	45.4
284.413	49.49
284.628	-1.71
284.843	61.78
285.058	74.07
285.274	14.68
285.489	-61.1
285.704	88.4
285.919	92.5
286.134	-24.23
286.349	31.06
286.564	55.64
286.779	96.6
286.995	29.01
287.21	22.87
287.425	106.84
287.64	65.88
287.855	86.36
288.07	-22.19
288.285	57.68
288.5	65.88
288.715	53.59
288.93	-20.14
289.145	55.64
289.36	49.49
289.575	-3.75
289.79	69.97
290.004	61.78
290.219	112.98
290.434	78.16
290.649	-38.57
290.864	80.21
291.079	12.63
291.294	119.12
291.509	22.87
291.724	24.92
291.938	63.83
292.153	45.4
292.368	-26.28
292.583	137.56
292.798	69.97
293.012	57.68
293.227	112.98
293.442	12.63
293.657	65.88
293.871	24.92
294.086	33.11
294.301	69.97
294.516	16.73
294.73	6.49
294.945	47.44
295.16	90.45
295.374	86.36
295.589	14.68
295.804	-1.71
296.018	43.35
296.233	69.97
296.447	63.83
296.662	45.4
296.877	82.26
297.091	72.02
297.306	39.25
297.52	6.49
297.735	-24.23
297.949	104.79
298.164	35.16
298.378	41.3
298.593	61.78
298.807	-5.8
299.022	72.02
299.236	82.26
299.451	63.83
299.665	0.34
299.88	86.36
300.094	26.96
300.309	10.58
300.523	29.01
300.737	94.55
300.952	29.01
301.166	39.25
301.381	45.4
301.595	-1.71
301.809	139.6
302.024	12.63
302.238	-11.95
302.452	143.7
302.667	72.02
302.881	110.93
303.095	125.27
303.309	65.88
303.524	51.54
303.738	65.88
303.952	80.21
304.166	78.16
304.381	-44.71
304.595	69.97
304.809	4.44
305.023	22.87
305.237	-18.09
305.452	8.53
305.666	69.97
305.88	49.49
306.094	37.2
306.308	53.59
306.522	12.63
306.736	55.64
306.95	59.73
307.164	82.26
307.379	29.01
307.593	39.25
307.807	80.21
308.021	-57
308.235	0.34
308.449	-9.9
308.663	12.63
308.877	135.51
309.091	102.74
309.305	80.21
309.519	-24.23
309.733	53.59
309.947	4.44
310.161	74.07
310.374	76.12
310.588	110.93
310.802	59.73
311.016	35.16
311.23	35.16
311.444	39.25
311.658	22.87
311.872	82.26
312.085	55.64
312.299	104.79
312.513	8.53
312.727	86.36
312.941	33.11
313.154	108.88
313.368	106.84
313.582	33.11
313.796	86.36
314.009	61.78
314.223	98.64
314.437	6.49
314.651	47.44
314.864	45.4
315.078	31.06
315.292	10.58
315.505	76.12
315.719	65.88
315.933	86.36
316.146	82.26
316.36	10.58
316.573	102.74
316.787	31.06
317.001	45.4
317.214	-20.14
317.428	61.78
317.641	-3.75
317.855	45.4
318.068	20.82
318.282	104.79
318.495	20.82
318.709	57.68
318.922	74.07
319.136	102.74
319.349	94.55
319.563	98.64
319.776	39.25
319.99	-16.04
320.203	53.59
320.417	39.25
320.63	33.11
320.843	143.7
321.057	31.06
321.27	-11.95
321.483	74.07
321.697	86.36
321.91	94.55
322.124	115.03
322.337	45.4
322.55	0.34
322.763	6.49
322.977	31.06
323.19	29.01
323.403	29.01
323.617	69.97
323.83	90.45
324.043	47.44
324.256	-9.9
324.469	4.44
324.683	16.73
324.896	-9.9
325.109	115.03
325.322	41.3
325.535	102.74
325.748	88.4
325.962	49.49
326.175	63.83
326.388	22.87
326.601	88.4
326.814	110.93
327.027	90.45
327.24	94.55
327.453	16.73
327.666	88.4
327.879	53.59
328.092	69.97
328.305	90.45
328.518	61.78
328.731	-20.14
328.944	14.68
329.157	82.26
329.37	12.63
329.583	151.89
329.796	121.17
330.009	24.92
330.222	41.3
330.435	94.55
330.648	78.16
330.861	33.11
331.073	43.35
331.286	49.49
331.499	98.64
331.712	-40.62
331.925	143.7
332.138	82.26
332.35	0.34
332.563	16.73
332.776	20.82
332.989	-40.62
333.202	-3.75
333.414	33.11
333.627	-20.14
333.84	59.73
334.053	33.11
334.265	24.92
334.478	78.16
334.691	0.34
334.903	29.01
335.116	94.55
335.329	72.02
335.541	55.64
335.754	147.8
335.966	92.5
336.179	29.01
336.392	45.4
336.604	88.4
336.817	110.93
337.029	104.79
337.242	88.4
337.454	90.45
337.667	37.2
337.88	84.31
338.092	143.7
338.305	94.55
338.517	47.44
338.729	94.55
338.942	129.36
339.154	-3.75
339.367	57.68
339.579	4.44
339.792	39.25
340.004	47.44
340.217	55.64
340.429	106.84
340.641	-26.28
340.854	61.78
341.066	117.08
341.278	33.11
341.491	117.08
341.703	115.03
341.915	94.55
342.128	135.51
342.34	-44.71
342.552	29.01
342.764	6.49
342.977	20.82
343.189	102.74
343.401	78.16
343.613	4.44
343.826	53.59
344.038	90.45
344.25	57.68
344.462	67.92
344.674	37.2
344.886	55.64
345.099	49.49
345.311	39.25
345.523	35.16
345.735	-11.95
345.947	80.21
346.159	100.69
346.371	65.88
346.583	86.36
346.795	176.47
347.007	55.64
347.219	55.64
347.431	65.88
347.643	108.88
347.855	4.44
348.067	121.17
348.279	31.06
348.491	-57
348.703	14.68
348.915	84.31
349.127	57.68
349.339	41.3
349.551	47.44
349.763	33.11
349.975	82.26
350.187	53.59
350.399	43.35
350.61	143.7
350.822	6.49
351.034	22.87
351.246	100.69
351.458	78.16
351.669	49.49
351.881	155.99
352.093	94.55
352.305	69.97
352.517	55.64
352.728	53.59
352.94	57.68
353.152	133.46
353.363	22.87
353.575	131.41
353.787	112.98
353.999	88.4
354.21	119.12
354.422	6.49
354.633	-16.04
354.845	96.6
355.057	61.78
355.268	74.07
355.48	69.97
355.692	108.88
355.903	63.83
356.115	47.44
356.326	-26.28
356.538	78.16
356.749	26.96
356.961	31.06
357.172	31.06
357.384	112.98
357.595	104.79
357.807	-11.95
358.018	53.59
358.23	6.49
358.441	112.98
358.653	72.02
358.864	20.82
359.075	127.32
359.287	51.54
359.498	127.32
359.709	78.16
359.921	29.01
360.132	69.97
360.344	110.93
360.555	20.82
360.766	53.59
360.977	119.12
361.189	20.82
361.4	61.78
361.611	69.97
361.823	12.63
362.034	45.4
362.245	55.64
362.456	92.5
362.667	80.21
362.879	12.63
363.09	37.2
363.301	106.84
363.512	31.06
363.723	55.64
363.935	51.54
364.146	112.98
364.357	4.44
364.568	65.88
364.779	61.78
364.99	35.16
365.201	49.49
365.412	180.56
365.623	14.68
365.834	61.78
366.045	69.97
366.256	94.55
366.467	92.5
366.678	31.06
366.889	78.16
367.1	29.01
367.311	72.02
367.522	94.55
367.733	63.83
367.944	137.56
368.155	37.2
368.366	180.56
368.577	20.82
368.788	67.92
368.999	72.02
369.209	-3.75
369.42	115.03
369.631	196.95
369.842	86.36
370.053	94.55
370.264	51.54
370.474	-3.75
370.685	43.35
370.896	74.07
371.107	94.55
371.317	53.59
371.528	121.17
371.739	133.46
371.95	69.97
372.16	139.6
372.371	57.68
372.582	-18.09
372.792	24.92
373.003	72.02
373.214	49.49
373.424	123.22
373.635	-3.75
373.846	53.59
374.056	10.58
374.267	55.64
374.477	78.16
374.688	86.36
374.898	39.25
375.109	39.25
375.319	88.4
375.53	119.12
375.74	61.78
375.951	137.56
376.161	61.78
376.372	201.04
376.582	47.44
376.793	86.36
377.003	8.53
377.214	88.4
377.424	119.12
377.635	133.46
377.845	45.4
378.055	112.98
378.266	45.4
378.476	127.32
378.686	121.17
378.897	-9.9
379.107	78.16
379.317	117.08
379.528	-28.33
379.738	78.16
379.948	24.92
380.158	69.97
380.369	94.55
380.579	104.79
380.789	12.63
380.999	43.35
381.21	92.5
381.42	192.85
381.63	-20.14
381.84	53.59
382.05	74.07
382.261	98.64
382.471	102.74
382.681	123.22
382.891	110.93
383.101	53.59
383.311	74.07
383.521	143.7
383.731	98.64
383.941	78.16
384.151	37.2
384.361	55.64
384.571	129.36
384.781	102.74
384.991	172.37
385.201	80.21
385.411	59.73
385.621	37.2
385.831	92.5
386.041	49.49
386.251	61.78
386.461	121.17
386.671	49.49
386.881	119.12
387.091	29.01
387.301	178.51
387.511	61.78
387.72	55.64
387.93	82.26
388.14	4.44
388.35	102.74
388.56	80.21
388.769	102.74
388.979	102.74
389.189	37.2
389.399	72.02
389.609	123.22
389.818	102.74
390.028	35.16
390.238	98.64
390.447	45.4
390.657	102.74
390.867	53.59
391.076	69.97
391.286	121.17
391.496	72.02
391.705	74.07
391.915	65.88
392.125	78.16
392.334	49.49
392.544	127.32
392.753	119.12
392.963	29.01
393.172	41.3
393.382	80.21
393.591	209.23
393.801	76.12
394.01	151.89
394.22	123.22
394.429	147.8
394.639	127.32
394.848	145.75
395.058	106.84
395.267	151.89
395.477	88.4
395.686	155.99
395.895	178.51
396.105	168.27
396.314	168.27
396.524	147.8
396.733	69.97
396.942	135.51
397.152	217.43
397.361	176.47
397.57	137.56
397.78	192.85
397.989	153.94
398.198	258.39
398.407	184.66
398.617	145.75
398.826	158.03
399.035	147.8
399.244	180.56
399.453	102.74
399.663	201.04
399.872	174.42
400.081	186.71
400.29	221.52
400.499	168.27
400.708	205.14
400.917	166.23
401.127	176.47
401.336	78.16
401.545	227.67
401.754	239.95
401.963	137.56
402.172	160.08
402.381	110.93
402.59	266.58
402.799	227.67
403.008	213.33
403.217	172.37
403.426	282.96
403.635	121.17
403.844	166.23
404.053	266.58
404.262	174.42
404.471	311.63
404.68	307.54
404.888	221.52
405.097	217.43
405.306	217.43
405.515	252.24
405.724	203.09
405.933	233.81
406.142	315.73
406.35	348.5
406.559	282.96
406.768	299.34
406.977	350.54
407.185	317.78
407.394	344.4
407.603	332.11
407.812	309.58
408.02	340.3
408.229	350.54
408.438	317.78
408.646	317.78
408.855	454.99
409.064	495.95
409.272	389.46
409.481	381.26
409.69	360.78
409.898	520.53
410.107	508.24
410.315	450.89
410.524	457.04
410.733	553.29
410.941	565.58
411.15	672.08
411.358	659.79
411.567	618.83
411.775	667.98
411.984	610.64
412.192	747.85
412.401	706.89
412.609	889.16
412.818	790.86
413.026	813.38
413.234	815.43
413.443	807.24
413.651	885.06
413.86	926.02
414.068	1036.61
414.276	938.31
414.485	1069.38
414.693	1118.53
414.901	1147.2
415.11	1112.39
415.318	1136.96
415.526	1202.5
415.734	1227.07
415.943	1327.43
416.151	1382.72
416.359	1364.29
416.567	1409.34
416.776	1460.54
416.984	1595.71
417.192	1726.78
417.4	1630.52
417.608	1634.62
417.817	1775.93
418.025	1718.59
418.233	1925.43
418.441	1954.1
418.649	2064.69
418.857	2160.95
419.065	2169.14
419.273	2122.04
419.481	2265.39
419.689	2371.89
419.897	2396.46
420.105	2550.06
420.313	2625.84
420.521	2734.38
420.729	2660.65
420.937	2797.87
421.145	2918.7
421.353	3047.72
421.561	3227.94
421.769	3207.46
421.977	3399.97
422.185	3420.45
422.393	3641.63
422.601	3727.64
422.809	3848.47
423.017	3799.32
423.224	3957.02
423.432	4215.06
423.64	4268.31
423.848	4550.93
424.056	4446.48
424.263	4710.67
424.471	4706.57
424.679	4833.55
424.887	5187.85
425.094	5169.41
425.302	5366.02
425.51	5507.33
425.718	5634.3
425.925	5560.58
426.133	5953.79
426.341	6340.85
426.548	6695.15
426.756	6551.79
426.964	6627.57
427.171	7053.55
427.379	7141.61
427.586	7184.62
427.794	7508.19
428.001	7837.92
428.209	8233.18
428.417	7977.18
428.624	8685.78
428.832	8730.83
429.039	8788.18
429.247	8499.41
429.454	9490.63
429.662	10039.48
429.869	9404.61
430.076	9990.33
430.284	9638.08
430.491	10297.53
430.699	10703.03
430.906	10666.16
431.114	11126.96
431.321	11372.71
431.528	11739.3
431.736	12152.99
431.943	12722.32
432.15	12427.42
432.358	12601.49
432.565	13222.03
432.772	13353.1
432.979	13979.78
433.187	14219.39
433.394	14139.52
433.601	15280.24
433.808	15247.47
434.016	15126.64
434.223	15583.34
434.43	16521.31
434.637	16435.29
434.844	17160.27
435.052	17752.13
435.259	17723.46
435.466	17891.4
435.673	17543.24
435.88	18522.17
436.087	19687.46
436.294	19578.92
436.501	19234.86
436.708	19642.41
436.915	19947.56
437.122	21166.1
437.329	21123.09
437.537	21829.64
437.743	22065.16
437.95	21792.78
438.157	22849.53
438.364	23687.15
438.571	23568.37
438.778	23846.89
438.985	25937.87
439.192	24889.31
439.399	26036.17
439.606	25374.67
439.813	26748.86
440.02	28317.61
440.227	27998.12
440.433	27525.04
440.64	28297.13
440.847	28264.36
441.054	29013.91
441.261	30756.74
441.467	30250.89
441.674	30697.34
441.881	31948.65
442.088	31874.93
442.294	32024.43
442.501	32634.72
442.708	33019.74
442.914	34346.83
443.121	35579.7
443.328	34715.46
443.534	37252.89
443.741	36247.34
443.948	35174.2
444.154	38270.73
444.361	38240.01
444.568	38430.47
444.774	38293.26
444.981	38909.7
445.187	39462.65
445.394	41516.76
445.6	40933.09
445.807	44318.39
446.013	42712.78
446.22	43687.61
446.426	45530.78
446.633	45588.13
446.839	47404.67
447.046	45336.23
447.252	47406.72
447.459	47791.74
447.665	47472.26
447.871	49522.27
448.078	51289.67
448.284	48873.07
448.491	50462.29
448.697	52342.33
448.903	53102.12
449.11	52813.36
449.316	52618.8
449.522	53771.81
449.728	54857.23
449.935	54984.21
450.141	55524.87
450.347	55805.44
450.553	54345.24
450.76	54926.86
450.966	56821.23
451.172	56208.89
451.378	57392.62
451.584	56704.5
451.791	57988.58
451.997	57591.27
452.203	58443.23
452.409	58527.19
452.615	58459.61
452.821	56382.97
453.027	55985.66
453.233	58463.71
453.44	55772.67
453.646	56905.2
453.852	56804.85
454.058	57880.03
454.264	56356.35
454.47	57312.75
454.676	56204.8
454.882	58090.97
455.088	53354.02
455.294	53839.39
455.5	54754.83
455.705	55105.04
455.911	53386.79
456.117	51977.79
456.323	51379.78
456.529	48963.18
456.735	51125.83
456.941	49800.8
457.147	49104.49
457.352	47695.49
457.558	46612.11
457.764	47353.47
457.97	45926.04
458.176	45428.38
458.381	45117.09
458.587	42811.08
458.793	43077.32
458.999	40685.29
459.204	43128.52
459.41	42315.47
459.616	39927.54
459.821	39878.39
460.027	39632.63
460.233	38784.77
460.438	36951.84
460.644	37392.15
460.85	35768.12
461.055	34987.84
461.261	35034.94
461.466	32509.8
461.672	31477.62
461.878	33560.41
462.083	31410.04
462.289	30508.93
462.494	30762.88
462.7	29292.44
462.905	28575.65
463.111	29300.63
463.316	29761.42
463.522	28882.84
463.727	28919.71
463.932	28727.2
464.138	28479.39
464.343	28503.97
464.549	27985.83
464.754	28751.77
464.959	28567.46
465.165	28270.5
465.37	27060.15
465.575	26044.36
465.781	27494.32
465.986	27520.95
466.191	26273.73
466.397	26015.69
