Data from USB4F104151__291__14-34-52-974.txt Node

Date: Thu Mar 13 14:34:52 EDT 2025
User: louis
Spectrometer: USB4F10415
Trigger mode: 4
Integration Time (sec): 2.500000E-2
Scans to average: 1
Electric dark correction enabled: true
Nonlinearity correction enabled: false
Boxcar width: 0
XAxis mode: Wavelengths
Number of Pixels in Spectrum: 3648
>>>>>Begin Spectral Data<<<<<
178.204	-153.09
178.424	-153.09
178.644	-153.09
178.864	-169.47
179.084	-189.95
179.304	-42.5
179.524	-38.4
179.744	-40.45
179.964	43.52
180.184	72.19
180.404	-19.97
180.624	-1.54
180.844	55.81
181.064	-54.78
181.283	35.33
181.503	4.61
181.723	-13.82
181.943	-1.54
182.163	76.29
182.383	-36.35
182.602	18.94
182.822	41.47
183.042	68.09
183.262	-13.82
183.482	70.14
183.701	-13.82
183.921	49.66
184.141	18.94
184.361	10.75
184.58	16.9
184.8	31.23
185.02	-79.36
185.239	29.18
185.459	84.48
185.679	117.25
185.898	18.94
186.118	102.91
186.338	35.33
186.557	96.77
186.777	-36.35
186.997	4.61
187.216	-32.26
187.436	76.29
187.655	45.57
187.875	-38.4
188.095	-22.02
188.314	6.66
188.534	-13.82
188.753	-5.63
188.973	86.53
189.192	23.04
189.412	35.33
189.631	82.43
189.851	35.33
190.07	45.57
190.29	-15.87
190.509	27.14
190.729	-19.97
190.948	94.72
191.168	137.73
191.387	27.14
191.607	37.38
191.826	27.14
192.045	-5.63
192.265	51.71
192.484	45.57
192.704	27.14
192.923	-46.59
193.142	78.33
193.362	-5.63
193.581	55.81
193.8	-5.63
194.02	84.48
194.239	-38.4
194.458	66.05
194.678	-5.63
194.897	18.94
195.116	-30.21
195.335	-36.35
195.555	6.66
195.774	-22.02
195.993	27.14
196.212	-1.54
196.432	74.24
196.651	-5.63
196.87	135.68
197.089	68.09
197.308	10.75
197.528	-5.63
197.747	45.57
197.966	-38.4
198.185	94.72
198.404	37.38
198.623	41.47
198.842	150.01
199.062	82.43
199.281	27.14
199.5	35.33
199.719	-5.63
199.938	18.94
200.157	2.56
200.376	37.38
200.595	78.33
200.814	12.8
201.033	74.24
201.252	29.18
201.471	-5.63
201.69	25.09
201.909	37.38
202.128	43.52
202.347	55.81
202.566	16.9
202.785	-52.74
203.004	-46.59
203.223	150.01
203.442	18.94
203.661	23.04
203.879	86.53
204.098	35.33
204.317	-13.82
204.536	45.57
204.755	61.95
204.974	68.09
205.193	-3.58
205.411	170.49
205.63	-19.97
205.849	4.61
206.068	-3.58
206.287	-26.11
206.505	66.05
206.724	76.29
206.943	-60.93
207.162	4.61
207.381	12.8
207.599	-3.58
207.818	41.47
208.037	12.8
208.255	-22.02
208.474	-69.12
208.693	4.61
208.911	-5.63
209.13	27.14
209.349	59.9
209.567	68.09
209.786	82.43
210.005	-15.87
210.223	-28.16
210.442	10.75
210.661	33.28
210.879	25.09
211.098	53.76
211.316	10.75
211.535	-15.87
211.753	-9.73
211.972	84.48
212.191	-13.82
212.409	-44.54
212.628	37.38
212.846	12.8
213.065	18.94
213.283	100.86
213.502	18.94
213.72	-22.02
213.938	2.56
214.157	33.28
214.375	2.56
214.594	-5.63
214.812	51.71
215.031	20.99
215.249	18.94
215.467	55.81
215.686	29.18
215.904	39.42
216.122	-46.59
216.341	80.38
216.559	-11.78
216.778	37.38
216.996	66.05
217.214	76.29
217.432	104.96
217.651	-11.78
217.869	51.71
218.087	10.75
218.306	39.42
218.524	-5.63
218.742	76.29
218.96	76.29
219.179	-15.87
219.397	59.9
219.615	80.38
219.833	47.62
220.051	39.42
220.27	53.76
220.488	37.38
220.706	35.33
220.924	-32.26
221.142	-62.98
221.36	61.95
221.578	-26.11
221.796	76.29
222.015	-1.54
222.233	35.33
222.451	51.71
222.669	-71.17
222.887	-32.26
223.105	39.42
223.323	0.51
223.541	64
223.759	53.76
223.977	4.61
224.195	92.67
224.413	53.76
224.631	39.42
224.849	37.38
225.067	168.45
225.285	-13.82
225.503	41.47
225.721	-28.16
225.939	64
226.157	2.56
226.375	111.1
226.592	-17.92
226.81	10.75
227.028	47.62
227.246	133.63
227.464	-1.54
227.682	78.33
227.9	51.71
228.117	70.14
228.335	100.86
228.553	43.52
228.771	-24.06
228.989	66.05
229.206	61.95
229.424	-11.78
229.642	-26.11
229.86	-40.45
230.077	41.47
230.295	68.09
230.513	43.52
230.731	100.86
230.948	88.57
231.166	76.29
231.384	10.75
231.601	6.66
231.819	84.48
232.037	-13.82
232.254	-34.3
232.472	27.14
232.689	-17.92
232.907	37.38
233.125	-46.59
233.342	27.14
233.56	49.66
233.777	27.14
233.995	53.76
234.213	82.43
234.43	8.7
234.648	-42.5
234.865	-52.74
235.083	100.86
235.3	-19.97
235.518	20.99
235.735	84.48
235.953	76.29
236.17	6.66
236.388	64
236.605	16.9
236.822	53.76
237.04	41.47
237.257	88.57
237.475	10.75
237.692	37.38
237.909	51.71
238.127	66.05
238.344	-1.54
238.562	37.38
238.779	-17.92
238.996	-19.97
239.214	59.9
239.431	47.62
239.648	2.56
239.865	82.43
240.083	64
240.3	10.75
240.517	68.09
240.735	18.94
240.952	35.33
241.169	6.66
241.386	-5.63
241.603	-3.58
241.821	-77.31
242.038	35.33
242.255	82.43
242.472	-5.63
242.689	47.62
242.907	84.48
243.124	14.85
243.341	70.14
243.558	14.85
243.775	-58.88
243.992	29.18
244.209	-3.58
244.426	100.86
244.643	45.57
244.86	35.33
245.078	68.09
245.295	43.52
245.512	-38.4
245.729	-85.5
245.946	-5.63
246.163	-3.58
246.38	162.3
246.597	12.8
246.814	-13.82
247.031	14.85
247.248	70.14
247.464	-13.82
247.681	35.33
247.898	23.04
248.115	16.9
248.332	18.94
248.549	133.63
248.766	70.14
248.983	51.71
249.2	12.8
249.417	74.24
249.633	2.56
249.85	29.18
250.067	43.52
250.284	70.14
250.501	92.67
250.717	27.14
250.934	-79.36
251.151	18.94
251.368	16.9
251.585	27.14
251.801	29.18
252.018	-54.78
252.235	-28.16
252.451	20.99
252.668	2.56
252.885	2.56
253.102	49.66
253.318	47.62
253.535	-17.92
253.752	14.85
253.968	-5.63
254.185	10.75
254.401	59.9
254.618	31.23
254.835	-34.3
255.051	39.42
255.268	94.72
255.484	39.42
255.701	72.19
255.917	31.23
256.134	96.77
256.351	-22.02
256.567	10.75
256.784	51.71
257	45.57
257.217	27.14
257.433	70.14
257.65	59.9
257.866	92.67
258.082	43.52
258.299	27.14
258.515	29.18
258.732	-9.73
258.948	35.33
259.165	-5.63
259.381	43.52
259.597	68.09
259.814	45.57
260.03	43.52
260.246	61.95
260.463	88.57
260.679	31.23
260.895	104.96
261.112	92.67
261.328	53.76
261.544	14.85
261.761	98.81
261.977	-1.54
262.193	-5.63
262.409	68.09
262.626	61.95
262.842	35.33
263.058	-38.4
263.274	31.23
263.49	31.23
263.707	-11.78
263.923	-30.21
264.139	2.56
264.355	-3.58
264.571	141.82
264.787	4.61
265.004	4.61
265.22	35.33
265.436	43.52
265.652	18.94
265.868	33.28
266.084	-28.16
266.3	-7.68
266.516	-15.87
266.732	78.33
266.948	37.38
267.164	-22.02
267.38	2.56
267.596	57.86
267.812	100.86
268.028	29.18
268.244	-38.4
268.46	23.04
268.676	-30.21
268.892	20.99
269.108	2.56
269.324	-22.02
269.54	27.14
269.756	45.57
269.972	-5.63
270.188	2.56
270.403	-69.12
270.619	-58.88
270.835	31.23
271.051	-5.63
271.267	-17.92
271.483	59.9
271.698	25.09
271.914	20.99
272.13	-46.59
272.346	-15.87
272.562	102.91
272.777	41.47
272.993	53.76
273.209	45.57
273.425	-24.06
273.64	-5.63
273.856	39.42
274.072	18.94
274.287	6.66
274.503	94.72
274.719	51.71
274.934	-30.21
275.15	35.33
275.366	27.14
275.581	4.61
275.797	35.33
276.012	61.95
276.228	-36.35
276.444	64
276.659	51.71
276.875	-15.87
277.09	29.18
277.306	68.09
277.521	86.53
277.737	59.9
277.952	-11.78
278.168	-26.11
278.383	-9.73
278.599	-36.35
278.814	-30.21
279.03	80.38
279.245	37.38
279.461	39.42
279.676	37.38
279.892	27.14
280.107	35.33
280.322	-1.54
280.538	12.8
280.753	27.14
280.969	25.09
281.184	47.62
281.399	53.76
281.615	39.42
281.83	104.96
282.045	35.33
282.26	-22.02
282.476	10.75
282.691	31.23
282.906	-17.92
283.122	70.14
283.337	-28.16
283.552	129.53
283.767	53.76
283.983	100.86
284.198	80.38
284.413	39.42
284.628	-7.68
284.843	45.57
285.058	47.62
285.274	2.56
285.489	-1.54
285.704	43.52
285.919	39.42
286.134	20.99
286.349	31.23
286.564	-48.64
286.779	102.91
286.995	47.62
287.21	-42.5
287.425	35.33
287.64	53.76
287.855	-22.02
288.07	-69.12
288.285	-22.02
288.5	47.62
288.715	27.14
288.93	53.76
289.145	8.7
289.36	-13.82
289.575	25.09
289.79	113.15
290.004	37.38
290.219	45.57
290.434	51.71
290.649	4.61
290.864	35.33
291.079	53.76
291.294	20.99
291.509	18.94
291.724	94.72
291.938	23.04
292.153	55.81
292.368	-11.78
292.583	23.04
292.798	10.75
293.012	23.04
293.227	39.42
293.442	4.61
293.657	109.05
293.871	68.09
294.086	6.66
294.301	86.53
294.516	168.45
294.73	16.9
294.945	25.09
295.16	109.05
295.374	10.75
295.589	10.75
295.804	45.57
296.018	27.14
296.233	59.9
296.447	29.18
296.662	29.18
296.877	80.38
297.091	37.38
297.306	76.29
297.52	27.14
297.735	35.33
297.949	61.95
298.164	43.52
298.378	-5.63
298.593	12.8
298.807	-3.58
299.022	76.29
299.236	49.66
299.451	10.75
299.665	109.05
299.88	41.47
300.094	-1.54
300.309	-1.54
300.523	59.9
300.737	29.18
300.952	59.9
301.166	61.95
301.381	43.52
301.595	23.04
301.809	35.33
302.024	-46.59
302.238	31.23
302.452	121.34
302.667	59.9
302.881	72.19
303.095	92.67
303.309	33.28
303.524	-17.92
303.738	53.76
303.952	-3.58
304.166	92.67
304.381	-36.35
304.595	14.85
304.809	-34.3
305.023	27.14
305.237	-11.78
305.452	-36.35
305.666	55.81
305.88	64
306.094	37.38
306.308	35.33
306.522	84.48
306.736	64
306.95	70.14
307.164	-5.63
307.379	43.52
307.593	61.95
307.807	35.33
308.021	53.76
308.235	107.01
308.449	20.99
308.663	27.14
308.877	55.81
309.091	68.09
309.305	68.09
309.519	-9.73
309.733	59.9
309.947	31.23
310.161	35.33
310.374	45.57
310.588	4.61
310.802	8.7
311.016	43.52
311.23	158.21
311.444	59.9
311.658	-44.54
311.872	23.04
312.085	117.25
312.299	59.9
312.513	29.18
312.727	53.76
312.941	6.66
313.154	88.57
313.368	12.8
313.582	82.43
313.796	39.42
314.009	-11.78
314.223	43.52
314.437	113.15
314.651	125.44
314.864	10.75
315.078	59.9
315.292	0.51
315.505	47.62
315.719	4.61
315.933	10.75
316.146	27.14
316.36	39.42
316.573	94.72
316.787	18.94
317.001	66.05
317.214	-44.54
317.428	59.9
317.641	2.56
317.855	29.18
318.068	-30.21
318.282	47.62
318.495	68.09
318.709	59.9
318.922	-60.93
319.136	37.38
319.349	80.38
319.563	43.52
319.776	145.92
319.99	41.47
320.203	113.15
320.417	-1.54
320.63	16.9
320.843	70.14
321.057	10.75
321.27	43.52
321.483	51.71
321.697	107.01
321.91	18.94
322.124	43.52
322.337	4.61
322.55	-54.78
322.763	68.09
322.977	-1.54
323.19	-71.17
323.403	121.34
323.617	23.04
323.83	115.2
324.043	-36.35
324.256	31.23
324.469	-1.54
324.683	47.62
324.896	39.42
325.109	76.29
325.322	61.95
325.535	80.38
325.748	129.53
325.962	35.33
326.175	76.29
326.388	27.14
326.601	111.1
326.814	10.75
327.027	119.29
327.24	94.72
327.453	74.24
327.666	51.71
327.879	27.14
328.092	70.14
328.305	6.66
328.518	12.8
328.731	29.18
328.944	94.72
329.157	41.47
329.37	57.86
329.583	12.8
329.796	117.25
330.009	-24.06
330.222	80.38
330.435	64
330.648	115.2
330.861	53.76
331.073	16.9
331.286	23.04
331.499	182.78
331.712	-1.54
331.925	68.09
332.138	-3.58
332.35	123.39
332.563	-22.02
332.776	109.05
332.989	-19.97
333.202	31.23
333.414	27.14
333.627	6.66
333.84	29.18
334.053	57.86
334.265	-42.5
334.478	10.75
334.691	6.66
334.903	64
335.116	-40.45
335.329	98.81
335.541	43.52
335.754	2.56
335.966	6.66
336.179	107.01
336.392	20.99
336.604	53.76
336.817	111.1
337.029	59.9
337.242	-17.92
337.454	45.57
337.667	23.04
337.88	53.76
338.092	107.01
338.305	41.47
338.517	-69.12
338.729	59.9
338.942	131.58
339.154	31.23
339.367	43.52
339.579	35.33
339.792	20.99
340.004	53.76
340.217	68.09
340.429	37.38
340.641	27.14
340.854	59.9
341.066	-9.73
341.278	121.34
341.491	68.09
341.703	35.33
341.915	4.61
342.128	53.76
342.34	53.76
342.552	78.33
342.764	-3.58
342.977	10.75
343.189	6.66
343.401	61.95
343.613	39.42
343.826	31.23
344.038	-24.06
344.25	84.48
344.462	35.33
344.674	-30.21
344.886	100.86
345.099	92.67
345.311	2.56
345.523	92.67
345.735	-5.63
345.947	113.15
346.159	-26.11
346.371	76.29
346.583	68.09
346.795	104.96
347.007	2.56
347.219	78.33
347.431	39.42
347.643	43.52
347.855	51.71
348.067	72.19
348.279	-3.58
348.491	27.14
348.703	12.8
348.915	-19.97
349.127	-13.82
349.339	12.8
349.551	20.99
349.763	88.57
349.975	-48.64
350.187	12.8
350.399	111.1
350.61	68.09
350.822	2.56
351.034	29.18
351.246	84.48
351.458	37.38
351.669	96.77
351.881	61.95
352.093	127.49
352.305	51.71
352.517	14.85
352.728	94.72
352.94	53.76
353.152	92.67
353.363	-3.58
353.575	53.76
353.787	37.38
353.999	68.09
354.21	109.05
354.422	10.75
354.633	57.86
354.845	35.33
355.057	39.42
355.268	61.95
355.48	117.25
355.692	55.81
355.903	12.8
356.115	49.66
356.326	14.85
356.538	68.09
356.749	41.47
356.961	43.52
357.172	78.33
357.384	43.52
357.595	100.86
357.807	78.33
358.018	-9.73
358.23	100.86
358.441	100.86
358.653	76.29
358.864	51.71
359.075	-62.98
359.287	51.71
359.498	39.42
359.709	59.9
359.921	64
360.132	102.91
360.344	18.94
360.555	80.38
360.766	51.71
360.977	51.71
361.189	51.71
361.4	70.14
361.611	64
361.823	94.72
362.034	76.29
362.245	-38.4
362.456	45.57
362.667	70.14
362.879	10.75
363.09	18.94
363.301	37.38
363.512	45.57
363.723	-9.73
363.935	72.19
364.146	86.53
364.357	55.81
364.568	84.48
364.779	-13.82
364.99	-7.68
365.201	10.75
365.412	113.15
365.623	-5.63
365.834	68.09
366.045	70.14
366.256	102.91
366.467	51.71
366.678	127.49
366.889	2.56
367.1	72.19
367.311	55.81
367.522	37.38
367.733	51.71
367.944	76.29
368.155	-5.63
368.366	61.95
368.577	166.4
368.788	10.75
368.999	2.56
369.209	-15.87
369.42	125.44
369.631	113.15
369.842	61.95
370.053	29.18
370.264	35.33
370.474	-5.63
370.685	51.71
370.896	47.62
371.107	70.14
371.317	57.86
371.528	117.25
371.739	119.29
371.95	125.44
372.16	107.01
372.371	53.76
372.582	27.14
372.792	8.7
373.003	102.91
373.214	23.04
373.424	107.01
373.635	-22.02
373.846	80.38
374.056	76.29
374.267	41.47
374.477	72.19
374.688	43.52
374.898	45.57
375.109	59.9
375.319	20.99
375.53	66.05
375.74	90.62
375.951	10.75
376.161	20.99
376.372	76.29
376.582	27.14
376.793	27.14
377.003	39.42
377.214	68.09
377.424	70.14
377.635	70.14
377.845	76.29
378.055	35.33
378.266	72.19
378.476	49.66
378.686	55.81
378.897	76.29
379.107	-1.54
379.317	68.09
379.528	131.58
379.738	68.09
379.948	53.76
380.158	57.86
380.369	76.29
380.579	84.48
380.789	35.33
380.999	43.52
381.21	100.86
381.42	80.38
381.63	111.1
381.84	102.91
382.05	29.18
382.261	92.67
382.471	4.61
382.681	61.95
382.891	113.15
383.101	117.25
383.311	0.51
383.521	51.71
383.731	174.59
383.941	100.86
384.151	76.29
384.361	70.14
384.571	113.15
384.781	111.1
384.991	117.25
385.201	96.77
385.411	111.1
385.621	125.44
385.831	-3.58
386.041	45.57
386.251	68.09
386.461	27.14
386.671	92.67
386.881	88.57
387.091	78.33
387.301	133.63
387.511	72.19
387.72	86.53
387.93	-9.73
388.14	29.18
388.35	10.75
388.56	59.9
388.769	49.66
388.979	53.76
389.189	20.99
389.399	31.23
389.609	78.33
389.818	29.18
390.028	94.72
390.238	4.61
390.447	57.86
390.657	92.67
390.867	35.33
391.076	10.75
391.286	35.33
391.496	51.71
391.705	59.9
391.915	129.53
392.125	53.76
392.334	-3.58
392.544	117.25
392.753	84.48
392.963	27.14
393.172	70.14
393.382	104.96
393.591	72.19
393.801	37.38
394.01	168.45
394.22	39.42
394.429	150.01
394.639	125.44
394.848	158.21
395.058	47.62
395.267	59.9
395.477	68.09
395.686	68.09
395.895	135.68
396.105	207.36
396.314	78.33
396.524	141.82
396.733	76.29
396.942	98.81
397.152	119.29
397.361	51.71
397.57	131.58
397.78	82.43
397.989	111.1
398.198	158.21
398.407	141.82
398.617	92.67
398.826	178.69
399.035	96.77
399.244	90.62
399.453	90.62
399.663	127.49
399.872	76.29
400.081	-22.02
400.29	141.82
400.499	127.49
400.708	135.68
400.917	209.4
401.127	154.11
401.336	129.53
401.545	201.21
401.754	94.72
401.963	174.59
402.172	96.77
402.381	141.82
402.59	125.44
402.799	72.19
403.008	193.02
403.217	182.78
403.426	174.59
403.635	125.44
403.844	137.73
404.053	104.96
404.262	162.3
404.471	223.74
404.68	150.01
404.888	258.56
405.097	109.05
405.306	172.54
405.515	270.84
405.724	109.05
405.933	223.74
406.142	176.64
406.35	285.18
406.559	141.82
406.768	207.36
406.977	297.47
407.185	203.26
407.394	289.28
407.603	334.33
407.812	281.08
408.02	342.52
408.229	289.28
408.438	332.28
408.646	346.62
408.855	256.51
409.064	297.47
409.272	354.81
409.481	358.91
409.69	285.18
409.898	393.72
410.107	430.59
410.315	489.98
410.524	387.58
410.733	455.16
410.941	432.63
411.15	467.45
411.358	543.22
411.567	502.26
411.775	459.26
411.984	485.88
412.192	530.94
412.401	487.93
412.609	545.27
412.818	555.51
413.026	596.47
413.234	739.83
413.443	555.51
413.651	627.19
413.86	606.71
414.068	715.25
414.276	772.6
414.485	698.87
414.693	807.41
414.901	879.09
415.11	856.56
415.318	897.52
415.526	936.43
415.734	932.34
415.943	1081.84
416.151	1094.13
416.359	1110.51
416.567	1157.61
416.776	1108.46
416.984	1208.81
417.192	1153.52
417.4	1247.72
417.608	1200.62
417.817	1321.45
418.025	1466.86
418.233	1450.47
418.441	1362.41
418.649	1346.03
418.857	1599.98
419.065	1618.41
419.273	1624.55
419.481	1624.55
419.689	1763.81
419.897	1870.31
420.105	1898.98
420.313	1978.85
420.521	2099.68
420.729	2050.53
420.937	2028
421.145	2120.16
421.353	2318.81
421.561	2386.4
421.769	2443.74
421.977	2421.21
422.185	2548.19
422.393	2640.34
422.601	2935.25
422.809	2800.09
423.017	2765.27
423.224	2914.77
423.432	3111.38
423.64	3150.29
423.848	3396.04
424.056	3283.41
424.263	3422.67
424.471	3615.18
424.679	3656.14
424.887	3877.32
425.094	3875.27
425.302	3879.36
425.51	4098.5
425.718	4299.2
425.925	4233.66
426.133	4315.58
426.341	4614.59
426.548	4755.9
426.756	4921.78
426.964	4778.42
427.171	5108.15
427.379	5298.61
427.586	5360.05
427.794	5474.73
428.001	5771.69
428.209	5906.85
428.417	5992.87
428.624	6412.7
428.832	6261.15
429.039	6386.08
429.247	6326.69
429.454	6959.51
429.662	7221.65
429.869	7051.67
430.076	7391.63
430.284	7205.27
430.491	7594.38
430.699	7877
430.906	7909.77
431.114	8112.52
431.321	8319.36
431.528	8495.49
431.736	8956.28
431.943	9271.67
432.15	9259.38
432.358	9230.71
432.565	9709.93
432.772	9566.57
432.979	10150.25
433.187	10357.09
433.394	10355.04
433.601	11059.54
433.808	11469.14
434.016	11241.81
434.223	11452.75
434.43	12339.52
434.637	12167.49
434.844	12835.13
435.052	12931.39
435.259	13218.1
435.466	13121.85
435.673	12921.15
435.88	13830.44
436.087	14434.6
436.294	14463.27
436.501	13994.28
436.708	14258.47
436.915	14876.96
437.122	15474.96
437.329	15388.95
437.537	15960.33
437.743	16242.95
437.95	16087.31
438.157	16769.28
438.364	17459.45
438.571	17426.68
438.778	17518.84
438.985	19167.45
439.192	18297.06
439.399	18958.56
439.606	18301.16
439.813	19828.95
440.02	20824.26
440.227	20347.08
440.433	20263.11
440.64	20984
440.847	20625.61
441.054	21428.41
441.261	22550.7
441.467	22585.51
441.674	22880.42
441.881	23828.63
442.088	23900.31
442.294	23240.86
442.501	23715.99
442.708	24357
442.914	25407.61
443.121	26230.9
443.328	25370.75
443.534	27222.11
443.741	26624.11
443.948	26357.87
444.154	28170.32
444.361	28248.14
444.568	28313.68
444.774	28434.51
444.981	28700.75
445.187	29380.67
445.394	30531.63
445.6	30238.77
445.807	33081.35
446.013	31817.75
446.22	31934.49
446.426	33734.65
446.633	34123.77
446.839	35006.44
447.046	33591.3
447.252	35375.08
447.459	35397.6
447.665	35307.49
447.871	37017.55
448.078	38561.72
448.284	36480.98
448.491	37402.57
448.697	38709.17
448.903	39630.76
449.11	39665.57
449.316	39358.38
449.522	39501.73
449.728	41344.91
449.935	41295.75
450.141	41054.09
450.347	42229.63
450.553	40662.93
450.76	41404.3
450.966	42710.9
451.172	42254.2
451.378	43214.7
451.584	42356.6
451.791	43171.69
451.997	43401.07
452.203	44351.32
452.409	44072.8
452.615	44050.27
452.821	42221.44
453.027	41830.27
453.233	43880.29
453.44	41830.27
453.646	42332.03
453.852	42671.99
454.058	43730.79
454.264	42047.36
454.47	42829.68
454.676	41852.8
454.882	42999.66
455.088	39264.17
455.294	40005.53
455.5	40779.67
455.705	41109.39
455.911	39956.38
456.117	38934.45
456.323	38496.18
456.529	36255.7
456.735	38000.57
456.941	37134.28
457.147	36663.25
457.352	35389.41
457.558	34750.45
457.764	35043.31
457.97	33869.82
458.176	33732.61
458.381	33400.83
458.587	31971.35
458.793	31631.39
458.999	30271.54
459.204	32307.22
459.41	31580.19
459.616	29446.21
459.821	29059.14
460.027	29468.73
460.233	28731.47
460.438	27486.3
460.644	27543.64
460.85	26495.08
461.055	25741.43
461.261	25925.75
461.466	23976.08
461.672	23535.77
461.878	25020.55
462.083	22999.2
462.289	22567.08
462.494	22292.65
462.7	21641.4
462.905	21162.17
463.111	21524.66
463.316	21788.85
463.522	21088.45
463.727	21262.52
463.932	21323.96
464.138	20828.35
464.343	20889.79
464.549	20390.09
464.754	20940.99
464.959	20908.22
465.165	20695.24
465.37	19990.73
465.575	19482.84
465.781	19888.34
465.986	20121.8
466.191	19280.09
466.397	19097.82
466.602	18092.27
466.807	18737.38
