Data from USB4F104151__150__14-31-57-924.txt Node

Date: Thu Mar 13 14:31:57 EDT 2025
User: louis
Spectrometer: USB4F10415
Trigger mode: 4
Integration Time (sec): 2.500000E-2
Scans to average: 1
Electric dark correction enabled: true
Nonlinearity correction enabled: false
Boxcar width: 0
XAxis mode: Wavelengths
Number of Pixels in Spectrum: 3648
>>>>>Begin Spectral Data<<<<<
178.204	-112.98
178.424	-112.98
178.644	-112.98
178.864	-162.13
179.084	-119.12
179.304	34.47
179.524	-29.01
179.744	-43.35
179.964	69.29
180.184	106.15
180.404	1.71
180.624	-37.2
180.844	-18.77
181.064	1.71
181.283	20.14
181.503	-90.45
181.723	-14.68
181.943	-12.63
182.163	67.24
182.383	-4.44
182.602	42.67
182.822	1.71
183.042	46.76
183.262	-39.25
183.482	11.95
183.701	1.71
183.921	9.9
184.141	-0.34
184.361	50.86
184.58	3.75
184.8	-20.82
185.02	-22.87
185.239	36.52
185.459	-31.06
185.679	-29.01
185.898	-12.63
186.118	40.62
186.338	-45.4
186.557	83.63
186.777	-4.44
186.997	5.8
187.216	-37.2
187.436	71.34
187.655	-39.25
187.875	46.76
188.095	-31.06
188.314	40.62
188.534	28.33
188.753	1.71
188.973	50.86
189.192	67.24
189.412	42.67
189.631	20.14
189.851	34.47
190.07	-2.39
190.29	-37.2
190.509	30.38
190.729	-20.82
190.948	20.14
191.168	149.16
191.387	24.23
191.607	20.14
191.826	26.28
192.045	26.28
192.265	9.9
192.484	-12.63
192.704	87.72
192.923	18.09
193.142	69.29
193.362	11.95
193.581	-12.63
193.8	-18.77
194.02	-8.53
194.239	67.24
194.458	-18.77
194.678	13.99
194.897	-55.64
195.116	-31.06
195.335	-2.39
195.555	-12.63
195.774	57
195.993	36.52
196.212	1.71
196.432	-12.63
196.651	-29.01
196.87	-0.34
197.089	91.82
197.308	59.05
197.528	79.53
197.747	-33.11
197.966	20.14
198.185	108.2
198.404	26.28
198.623	-6.49
198.842	59.05
199.062	22.19
199.281	44.71
199.5	22.19
199.719	46.76
199.938	5.8
200.157	89.77
200.376	11.95
200.595	-4.44
200.814	5.8
201.033	-26.96
201.252	-8.53
201.471	26.28
201.69	28.33
201.909	-51.54
202.128	34.47
202.347	-31.06
202.566	1.71
202.785	-4.44
203.004	83.63
203.223	91.82
203.442	75.43
203.661	1.71
203.879	-18.77
204.098	122.54
204.317	1.71
204.536	52.91
204.755	61.1
204.974	81.58
205.193	28.33
205.411	75.43
205.63	5.8
205.849	13.99
206.068	-80.21
206.287	18.09
206.505	59.05
206.724	61.1
206.943	13.99
207.162	22.19
207.381	54.95
207.599	34.47
207.818	1.71
208.037	32.43
208.255	-22.87
208.474	26.28
208.693	7.85
208.911	-14.68
209.13	-26.96
209.349	69.29
209.567	-10.58
209.786	30.38
210.005	24.23
210.223	3.75
210.442	-51.54
210.661	50.86
210.879	-35.16
211.098	18.09
211.316	-8.53
211.535	65.19
211.753	-8.53
211.972	44.71
212.191	-18.77
212.409	38.57
212.628	59.05
212.846	-31.06
213.065	42.67
213.283	118.44
213.502	54.95
213.72	1.71
213.938	50.86
214.157	20.14
214.375	-18.77
214.594	30.38
214.812	3.75
215.031	-22.87
215.249	50.86
215.467	59.05
215.686	36.52
215.904	-6.49
216.122	-10.58
216.341	46.76
216.559	34.47
216.778	42.67
216.996	36.52
217.214	61.1
217.432	79.53
217.651	38.57
217.869	-6.49
218.087	-47.44
218.306	1.71
218.524	50.86
218.742	-55.64
218.96	38.57
219.179	20.14
219.397	44.71
219.615	81.58
219.833	-18.77
220.051	5.8
220.27	44.71
220.488	67.24
220.706	52.91
220.924	-22.87
221.142	28.33
221.36	18.09
221.578	-14.68
221.796	75.43
222.015	57
222.233	48.81
222.451	77.48
222.669	-72.02
222.887	73.39
223.105	-47.44
223.323	-24.92
223.541	32.43
223.759	93.87
223.977	30.38
224.195	61.1
224.413	5.8
224.631	-24.92
224.849	-14.68
225.067	38.57
225.285	11.95
225.503	32.43
225.721	-33.11
225.939	-47.44
226.157	85.67
226.375	124.58
226.592	3.75
226.81	32.43
227.028	26.28
227.246	-4.44
227.464	36.52
227.682	-14.68
227.9	44.71
228.117	91.82
228.335	42.67
228.553	32.43
228.771	42.67
228.989	3.75
229.206	20.14
229.424	63.15
229.642	-14.68
229.86	65.19
230.077	28.33
230.295	97.96
230.513	50.86
230.731	28.33
230.948	81.58
231.166	59.05
231.384	-55.64
231.601	57
231.819	54.95
232.037	-31.06
232.254	-6.49
232.472	59.05
232.689	-10.58
232.907	81.58
233.125	1.71
233.342	-20.82
233.56	22.19
233.777	-6.49
233.995	67.24
234.213	54.95
234.43	40.62
234.648	79.53
234.865	5.8
235.083	22.19
235.3	1.71
235.518	36.52
235.735	57
235.953	59.05
236.17	1.71
236.388	42.67
236.605	-10.58
236.822	116.39
237.04	69.29
237.257	13.99
237.475	44.71
237.692	69.29
237.909	71.34
238.127	34.47
238.344	40.62
238.562	63.15
238.779	-51.54
238.996	-29.01
239.214	-86.36
239.431	75.43
239.648	-31.06
239.865	52.91
240.083	75.43
240.3	-10.58
240.517	32.43
240.735	42.67
240.952	132.78
241.169	42.67
241.386	42.67
241.603	-51.54
241.821	-47.44
242.038	7.85
242.255	-14.68
242.472	-55.64
242.689	3.75
242.907	36.52
243.124	7.85
243.341	-2.39
243.558	-6.49
243.775	28.33
243.992	46.76
244.209	-39.25
244.426	124.58
244.643	50.86
244.86	28.33
245.078	63.15
245.295	-22.87
245.512	83.63
245.729	5.8
245.946	61.1
246.163	1.71
246.38	-31.06
246.597	69.29
246.814	24.23
247.031	11.95
247.248	91.82
247.464	13.99
247.681	50.86
247.898	79.53
248.115	69.29
248.332	11.95
248.549	61.1
248.766	52.91
248.983	54.95
249.2	108.2
249.417	26.28
249.633	-10.58
249.85	9.9
250.067	-4.44
250.284	40.62
250.501	50.86
250.717	69.29
250.934	-22.87
251.151	-20.82
251.368	3.75
251.585	124.58
251.801	46.76
252.018	5.8
252.235	83.63
252.451	-6.49
252.668	-51.54
252.885	-4.44
253.102	69.29
253.318	42.67
253.535	-33.11
253.752	42.67
253.968	38.57
254.185	28.33
254.401	91.82
254.618	1.71
254.835	34.47
255.051	118.44
255.268	9.9
255.484	102.06
255.701	52.91
255.917	-18.77
256.134	30.38
256.351	50.86
256.567	-4.44
256.784	-55.64
257	-39.25
257.217	38.57
257.433	18.09
257.65	34.47
257.866	36.52
258.082	-59.73
258.299	-12.63
258.515	-61.78
258.732	44.71
258.948	-139.6
259.165	13.99
259.381	34.47
259.597	100.01
259.814	61.1
260.03	34.47
260.246	30.38
260.463	18.09
260.679	140.97
260.895	28.33
261.112	50.86
261.328	52.91
261.544	28.33
261.761	120.49
261.977	18.09
262.193	5.8
262.409	18.09
262.626	134.82
262.842	22.19
263.058	-26.96
263.274	75.43
263.49	26.28
263.707	26.28
263.923	36.52
264.139	-55.64
264.355	95.91
264.571	93.87
264.787	-22.87
265.004	22.19
265.22	-26.96
265.436	-31.06
265.652	50.86
265.868	50.86
266.084	-4.44
266.3	-39.25
266.516	83.63
266.732	69.29
266.948	1.71
267.164	-26.96
267.38	89.77
267.596	46.76
267.812	63.15
268.028	59.05
268.244	22.19
268.46	71.34
268.676	11.95
268.892	-37.2
269.108	-49.49
269.324	13.99
269.54	-16.73
269.756	118.44
269.972	-29.01
270.188	1.71
270.403	-6.49
270.619	59.05
270.835	79.53
271.051	-29.01
271.267	-69.97
271.483	1.71
271.698	28.33
271.914	-45.4
272.13	38.57
272.346	-37.2
272.562	5.8
272.777	102.06
272.993	69.29
273.209	26.28
273.425	59.05
273.64	-39.25
273.856	42.67
274.072	-14.68
274.287	-18.77
274.503	69.29
274.719	42.67
274.934	11.95
275.15	-2.39
275.366	73.39
275.581	-55.64
275.797	50.86
276.012	-12.63
276.228	20.14
276.444	34.47
276.659	42.67
276.875	18.09
277.09	28.33
277.306	30.38
277.521	71.34
277.737	85.67
277.952	1.71
278.168	13.99
278.383	28.33
278.599	-39.25
278.814	34.47
279.03	3.75
279.245	34.47
279.461	-2.39
279.676	46.76
279.892	-10.58
280.107	52.91
280.322	26.28
280.538	22.19
280.753	-41.3
280.969	18.09
281.184	-26.96
281.399	59.05
281.615	26.28
281.83	28.33
282.045	-55.64
282.26	65.19
282.476	1.71
282.691	42.67
282.906	9.9
283.122	50.86
283.337	5.8
283.552	61.1
283.767	-67.92
283.983	73.39
284.198	5.8
284.413	59.05
284.628	-82.26
284.843	50.86
285.058	124.58
285.274	67.24
285.489	9.9
285.704	34.47
285.919	-0.34
286.134	1.71
286.349	9.9
286.564	-18.77
286.779	46.76
286.995	26.28
287.21	5.8
287.425	-12.63
287.64	46.76
287.855	18.09
288.07	-78.16
288.285	71.34
288.5	67.24
288.715	28.33
288.93	1.71
289.145	28.33
289.36	67.24
289.575	48.81
289.79	26.28
290.004	26.28
290.219	1.71
290.434	18.09
290.649	26.28
290.864	-22.87
291.079	-6.49
291.294	50.86
291.509	28.33
291.724	44.71
291.938	26.28
292.153	-20.82
292.368	-74.07
292.583	46.76
292.798	34.47
293.012	34.47
293.227	52.91
293.442	26.28
293.657	22.19
293.871	1.71
294.086	93.87
294.301	83.63
294.516	5.8
294.73	100.01
294.945	-14.68
295.16	50.86
295.374	57
295.589	40.62
295.804	-4.44
296.018	34.47
296.233	59.05
296.447	42.67
296.662	-4.44
296.877	114.34
297.091	36.52
297.306	44.71
297.52	-47.44
297.735	59.05
297.949	-35.16
298.164	52.91
298.378	-6.49
298.593	5.8
298.807	-22.87
299.022	22.19
299.236	34.47
299.451	-14.68
299.665	77.48
299.88	-6.49
300.094	69.29
300.309	61.1
300.523	34.47
300.737	-55.64
300.952	-37.2
301.166	106.15
301.381	26.28
301.595	30.38
301.809	-47.44
302.024	83.63
302.238	28.33
302.452	63.15
302.667	-92.5
302.881	46.76
303.095	65.19
303.309	50.86
303.524	1.71
303.738	-14.68
303.952	-47.44
304.166	-47.44
304.381	36.52
304.595	42.67
304.809	-39.25
305.023	69.29
305.237	59.05
305.452	-16.73
305.666	42.67
305.88	11.95
306.094	77.48
306.308	85.67
306.522	-35.16
306.736	50.86
306.95	9.9
307.164	83.63
307.379	3.75
307.593	83.63
307.807	52.91
308.021	75.43
308.235	11.95
308.449	-6.49
308.663	7.85
308.877	100.01
309.091	71.34
309.305	26.28
309.519	91.82
309.733	93.87
309.947	13.99
310.161	67.24
310.374	34.47
310.588	120.49
310.802	13.99
311.016	5.8
311.23	1.71
311.444	-63.83
311.658	-14.68
311.872	61.1
312.085	26.28
312.299	26.28
312.513	18.09
312.727	77.48
312.941	11.95
313.154	13.99
313.368	28.33
313.582	9.9
313.796	28.33
314.009	-6.49
314.223	106.15
314.437	67.24
314.651	65.19
314.864	16.04
315.078	67.24
315.292	-10.58
315.505	-55.64
315.719	36.52
315.933	11.95
316.146	5.8
316.36	-29.01
316.573	40.62
316.787	48.81
317.001	102.06
317.214	-72.02
317.428	69.29
317.641	16.04
317.855	63.15
318.068	69.29
318.282	91.82
318.495	110.25
318.709	1.71
318.922	-29.01
319.136	59.05
319.349	124.58
319.563	-4.44
319.776	-63.83
319.99	-22.87
320.203	75.43
320.417	22.19
320.63	83.63
320.843	79.53
321.057	97.96
321.27	59.05
321.483	26.28
321.697	36.52
321.91	71.34
322.124	46.76
322.337	24.23
322.55	-88.4
322.763	79.53
322.977	67.24
323.19	24.23
323.403	-6.49
323.617	67.24
323.83	42.67
324.043	-16.73
324.256	79.53
324.469	5.8
324.683	50.86
324.896	26.28
325.109	54.95
325.322	-16.73
325.535	83.63
325.748	71.34
325.962	-53.59
326.175	16.04
326.388	34.47
326.601	79.53
326.814	42.67
327.027	71.34
327.24	20.14
327.453	-63.83
327.666	20.14
327.879	83.63
328.092	54.95
328.305	-26.96
328.518	9.9
328.731	-45.4
328.944	38.57
329.157	-10.58
329.37	44.71
329.583	87.72
329.796	108.2
330.009	-55.64
330.222	71.34
330.435	-6.49
330.648	59.05
330.861	50.86
331.073	28.33
331.286	69.29
331.499	50.86
331.712	3.75
331.925	75.43
332.138	93.87
332.35	73.39
332.563	3.75
332.776	100.01
332.989	-59.73
333.202	-8.53
333.414	28.33
333.627	-55.64
333.84	42.67
334.053	-2.39
334.265	-14.68
334.478	26.28
334.691	38.57
334.903	67.24
335.116	57
335.329	50.86
335.541	44.71
335.754	28.33
335.966	-22.87
336.179	67.24
336.392	-26.96
336.604	-31.06
336.817	52.91
337.029	93.87
337.242	-18.77
337.454	108.2
337.667	-33.11
337.88	65.19
338.092	73.39
338.305	30.38
338.517	-0.34
338.729	83.63
338.942	54.95
339.154	3.75
339.367	-55.64
339.579	30.38
339.792	-0.34
340.004	73.39
340.217	77.48
340.429	-2.39
340.641	46.76
340.854	28.33
341.066	22.19
341.278	50.86
341.491	136.87
341.703	91.82
341.915	50.86
342.128	100.01
342.34	59.05
342.552	59.05
342.764	38.57
342.977	30.38
343.189	61.1
343.401	67.24
343.613	-8.53
343.826	46.76
344.038	-20.82
344.25	75.43
344.462	11.95
344.674	34.47
344.886	34.47
345.099	83.63
345.311	104.11
345.523	-47.44
345.735	-51.54
345.947	77.48
346.159	36.52
346.371	108.2
346.583	-39.25
346.795	75.43
347.007	-26.96
347.219	-26.96
347.431	-0.34
347.643	100.01
347.855	-39.25
348.067	-14.68
348.279	38.57
348.491	34.47
348.703	36.52
348.915	79.53
349.127	-72.02
349.339	42.67
349.551	-2.39
349.763	38.57
349.975	-6.49
350.187	104.11
350.399	77.48
350.61	93.87
350.822	18.09
351.034	34.47
351.246	22.19
351.458	30.38
351.669	20.14
351.881	13.99
352.093	13.99
352.305	120.49
352.517	59.05
352.728	83.63
352.94	95.91
353.152	89.77
353.363	34.47
353.575	77.48
353.787	50.86
353.999	18.09
354.21	151.21
354.422	34.47
354.633	59.05
354.845	36.52
355.057	22.19
355.268	108.2
355.48	65.19
355.692	42.67
355.903	-20.82
356.115	-22.87
356.326	22.19
356.538	50.86
356.749	36.52
356.961	-18.77
357.172	28.33
357.384	75.43
357.595	110.25
357.807	18.09
358.018	-18.77
358.23	52.91
358.441	132.78
358.653	100.01
358.864	100.01
359.075	36.52
359.287	34.47
359.498	161.45
359.709	42.67
359.921	63.15
360.132	91.82
360.344	46.76
360.555	42.67
360.766	59.05
360.977	-20.82
361.189	36.52
361.4	52.91
361.611	67.24
361.823	116.39
362.034	61.1
362.245	13.99
362.456	-20.82
362.667	38.57
362.879	13.99
363.09	5.8
363.301	42.67
363.512	91.82
363.723	28.33
363.935	18.09
364.146	22.19
364.357	22.19
364.568	102.06
364.779	-14.68
364.99	26.28
365.201	5.8
365.412	26.28
365.623	-6.49
365.834	69.29
366.045	-6.49
366.256	100.01
366.467	112.3
366.678	34.47
366.889	7.85
367.1	34.47
367.311	67.24
367.522	-37.2
367.733	106.15
367.944	50.86
368.155	13.99
368.366	18.09
368.577	108.2
368.788	46.76
368.999	11.95
369.209	-53.59
369.42	104.11
369.631	134.82
369.842	59.05
370.053	91.82
370.264	132.78
370.474	-33.11
370.685	11.95
370.896	57
371.107	120.49
371.317	44.71
371.528	32.43
371.739	63.15
371.95	59.05
372.16	9.9
372.371	65.19
372.582	-43.35
372.792	87.72
373.003	18.09
373.214	34.47
373.424	102.06
373.635	36.52
373.846	69.29
374.056	-6.49
374.267	177.83
374.477	83.63
374.688	-22.87
374.898	63.15
375.109	85.67
375.319	34.47
375.53	155.3
375.74	85.67
375.951	100.01
376.161	38.57
376.372	67.24
376.582	-31.06
376.793	59.05
377.003	28.33
377.214	143.02
377.424	50.86
377.635	46.76
377.845	-63.83
378.055	83.63
378.266	-14.68
378.476	79.53
378.686	-4.44
378.897	44.71
379.107	54.95
379.317	67.24
379.528	36.52
379.738	108.2
379.948	-20.82
380.158	108.2
380.369	71.34
380.579	108.2
380.789	120.49
380.999	46.76
381.21	75.43
381.42	120.49
381.63	38.57
381.84	93.87
382.05	75.43
382.261	112.3
382.471	75.43
382.681	75.43
382.891	26.28
383.101	-6.49
383.311	50.86
383.521	1.71
383.731	28.33
383.941	104.11
384.151	34.47
384.361	-8.53
384.571	59.05
384.781	-24.92
384.991	104.11
385.201	186.02
385.411	110.25
385.621	67.24
385.831	48.81
386.041	34.47
386.251	42.67
386.461	130.73
386.671	79.53
386.881	85.67
387.091	-10.58
387.301	3.75
387.511	18.09
387.72	118.44
387.93	67.24
388.14	83.63
388.35	52.91
388.56	110.25
388.769	91.82
388.979	97.96
389.189	-4.44
389.399	106.15
389.609	34.47
389.818	50.86
390.028	50.86
390.238	71.34
390.447	20.14
390.657	67.24
390.867	20.14
391.076	9.9
391.286	48.81
391.496	13.99
391.705	30.38
391.915	57
392.125	89.77
392.334	-10.58
392.544	91.82
392.753	36.52
392.963	22.19
393.172	18.09
393.382	63.15
393.591	95.91
393.801	83.63
394.01	79.53
394.22	97.96
394.429	100.01
394.639	63.15
394.848	75.43
395.058	83.63
395.267	140.97
395.477	83.63
395.686	85.67
395.895	126.63
396.105	177.83
396.314	124.58
396.524	69.29
396.733	75.43
396.942	116.39
397.152	165.54
397.361	104.11
397.57	116.39
397.78	79.53
397.989	140.97
398.198	75.43
398.407	77.48
398.617	136.87
398.826	42.67
399.035	140.97
399.244	140.97
399.453	67.24
399.663	65.19
399.872	128.68
400.081	42.67
400.29	140.97
400.499	44.71
400.708	128.68
400.917	132.78
401.127	65.19
401.336	108.2
401.545	188.07
401.754	194.22
401.963	83.63
402.172	95.91
402.381	93.87
402.59	159.4
402.799	116.39
403.008	169.64
403.217	102.06
403.426	151.21
403.635	104.11
403.844	186.02
404.053	192.17
404.262	61.1
404.471	218.79
404.68	167.59
404.888	132.78
405.097	132.78
405.306	134.82
405.515	202.41
405.724	153.26
405.933	149.16
406.142	157.35
406.35	159.4
406.559	198.31
406.768	175.78
406.977	255.65
407.185	224.94
407.394	241.32
407.603	206.5
407.812	304.81
408.02	313
408.229	206.5
408.438	231.08
408.646	181.93
408.855	245.41
409.064	280.23
409.272	241.32
409.481	364.2
409.69	257.7
409.898	272.04
410.107	384.68
410.315	370.34
410.524	370.34
410.733	272.04
410.941	435.88
411.15	401.06
411.358	439.97
411.567	462.5
411.775	456.36
411.984	444.07
412.192	485.03
412.401	497.32
412.609	540.32
412.818	566.95
413.026	538.27
413.234	591.52
413.443	595.62
413.651	511.65
413.86	595.62
414.068	698.02
414.276	655.01
414.485	667.3
414.693	755.36
414.901	749.22
415.11	745.12
415.318	755.36
415.526	796.32
415.734	845.47
415.943	878.24
416.151	1005.21
416.359	972.44
416.567	900.76
416.776	929.44
416.984	1003.16
417.192	1107.61
417.4	1109.66
417.608	1001.12
417.817	1236.63
418.025	1240.73
418.233	1230.49
418.441	1207.96
418.649	1263.26
418.857	1359.51
419.065	1412.76
419.273	1300.12
419.481	1511.06
419.689	1558.16
419.897	1562.26
420.105	1683.09
420.313	1662.61
420.521	1863.31
420.729	1939.09
420.937	1894.03
421.145	1871.5
421.353	1992.33
421.561	2090.63
421.769	2201.23
421.977	2205.32
422.185	2213.51
422.393	2442.89
422.601	2455.17
422.809	2524.8
423.017	2588.29
423.224	2682.5
423.432	2750.08
423.64	2799.23
423.848	2971.26
424.056	2926.21
424.263	3122.81
424.471	3141.24
424.679	3227.26
424.887	3225.21
425.094	3561.08
425.302	3495.54
425.51	3618.42
425.718	3745.39
425.925	3737.2
426.133	3745.39
426.341	3999.34
426.548	4275.82
426.756	4220.52
426.964	4341.35
427.171	4664.93
427.379	4781.67
427.586	4800.1
427.794	4904.54
428.001	5072.48
428.209	5351
428.417	5379.67
428.624	5772.88
428.832	5631.57
429.039	5652.05
429.247	5613.14
429.454	6125.13
429.662	6323.79
429.869	6030.93
430.076	6450.76
430.284	6358.6
430.491	6661.7
430.699	7087.68
430.906	6925.89
431.114	7071.29
431.321	7519.8
431.528	7679.54
431.736	8099.38
431.943	8328.75
432.15	8097.33
432.358	8181.29
432.565	8562.22
432.772	8664.61
432.979	8853.03
433.187	9332.25
433.394	9350.68
433.601	9819.67
433.808	9954.83
434.016	9807.38
434.223	10118.67
434.43	11036.16
434.637	10694.15
434.844	11257.34
435.052	11630.07
435.259	11513.34
435.466	11482.62
435.673	11281.92
435.88	12219.89
436.087	12942.82
436.294	12889.57
436.501	12426.73
436.708	12695.02
436.915	13270.5
437.122	13651.42
437.329	13712.86
437.537	14251.47
437.743	14167.51
437.95	14255.57
438.157	14974.41
438.364	15412.67
438.571	15410.62
438.778	15386.05
438.985	16985.51
439.192	16334.26
439.399	16684.46
439.606	16453.04
439.813	17624.48
440.02	18507.15
440.227	18068.89
440.433	17890.71
440.64	18675.09
440.847	18163.09
441.054	18570.64
441.261	20110.71
441.467	19996.03
441.674	20305.27
441.881	20747.63
442.088	20833.64
442.294	20598.13
442.501	21136.74
442.708	21669.22
442.914	22426.96
443.121	23401.8
443.328	22715.73
443.534	24479.03
443.741	23840.06
443.948	23489.86
444.154	25140.52
444.361	24665.39
444.568	24968.49
444.774	24872.24
444.981	25206.06
445.187	25959.71
445.394	27071.76
445.6	26871.06
445.807	29213.93
446.013	28216.57
446.22	28232.96
446.426	29611.24
446.633	29859.04
446.839	30889.17
447.046	29605.09
447.252	31417.55
447.459	31247.57
447.665	31126.74
447.871	32535.74
448.078	33535.15
448.284	32386.24
448.491	33488.04
448.697	34417.82
448.903	34962.58
449.11	35280.02
449.316	34632.86
449.522	35685.51
449.728	36617.34
449.935	36443.26
450.141	36543.61
450.347	37313.65
450.553	36256.9
450.76	36664.44
450.966	38009.96
451.172	37016.69
451.378	38194.28
451.584	37424.24
451.791	38413.41
451.997	37946.47
452.203	39158.87
452.409	39359.57
452.615	38835.29
452.821	37231.73
453.027	37131.38
453.233	38798.43
453.44	37086.32
453.646	37768.3
453.852	37770.35
454.058	38405.22
454.264	37252.21
454.47	38419.55
454.676	37110.9
454.882	38685.79
455.088	35306.64
455.294	35878.02
455.5	36045.96
455.705	36811.9
455.911	35390.61
456.117	34616.47
456.323	34131.11
456.529	32158.91
456.735	33907.88
456.941	32873.65
457.147	32425.15
457.352	31290.57
457.558	31065.3
457.764	31069.39
457.97	30317.79
458.176	29832.42
458.381	29658.34
458.587	28073.21
458.793	28138.75
458.999	26821.91
459.204	28982.51
459.41	28097.79
459.616	26017.05
459.821	26189.08
460.027	26326.3
460.233	25515.3
460.438	24315.19
460.644	24513.84
460.85	23264.58
461.055	22664.53
461.261	22644.05
461.466	21327.21
461.672	20538.74
461.878	22130.01
462.083	20551.03
462.289	20079.99
462.494	20028.79
462.7	19189.13
462.905	18666.89
463.111	19127.69
463.316	19150.21
463.522	18883.98
463.727	18859.4
463.932	18759.05
464.138	18505.1
464.343	18617.74
464.549	18255.25
464.754	18820.49
464.959	18605.45
465.165	18214.29
465.37	17268.13
465.575	16893.35
465.781	17585.57
465.986	17599.9
466.191	16965.03
466.397	16876.97
466.602	16061.88
