Data from USB4F104151__265__14-34-34-928.txt Node

Date: Thu Mar 13 14:34:34 EDT 2025
User: louis
Spectrometer: USB4F10415
Trigger mode: 4
Integration Time (sec): 2.500000E-2
Scans to average: 1
Electric dark correction enabled: true
Nonlinearity correction enabled: false
Boxcar width: 0
XAxis mode: Wavelengths
Number of Pixels in Spectrum: 3648
>>>>>Begin Spectral Data<<<<<
178.204	-104.96
178.424	-104.96
178.644	-104.96
178.864	-197.12
179.084	-147.97
179.304	73.21
179.524	-66.05
179.744	-33.28
179.964	44.54
180.184	-25.09
180.404	3.58
180.624	-53.76
180.844	32.26
181.064	-20.99
181.283	9.73
181.503	-20.99
181.723	56.83
181.943	-12.8
182.163	81.41
182.383	11.78
182.602	44.54
182.822	93.69
183.042	52.74
183.262	28.16
183.482	7.68
183.701	5.63
183.921	42.5
184.141	-16.9
184.361	36.35
184.58	67.07
184.8	15.87
185.02	-51.71
185.239	44.54
185.459	34.3
185.679	65.02
185.898	-4.61
186.118	60.93
186.338	52.74
186.557	-8.7
186.777	15.87
186.997	17.92
187.216	-8.7
187.436	73.21
187.655	-78.33
187.875	73.21
188.095	60.93
188.314	19.97
188.534	65.02
188.753	91.65
188.973	48.64
189.192	58.88
189.412	-12.8
189.631	28.16
189.851	15.87
190.07	159.23
190.29	-6.66
190.509	-8.7
190.729	15.87
190.948	17.92
191.168	114.17
191.387	-25.09
191.607	28.16
191.826	11.78
192.045	48.64
192.265	-59.9
192.484	48.64
192.704	60.93
192.923	-6.66
193.142	163.33
193.362	52.74
193.581	32.26
193.8	81.41
194.02	58.88
194.239	-2.56
194.458	93.69
194.678	3.58
194.897	46.59
195.116	19.97
195.335	44.54
195.555	28.16
195.774	62.98
195.993	-16.9
196.212	46.59
196.432	24.06
196.651	85.5
196.87	-8.7
197.089	32.26
197.308	-29.18
197.528	91.65
197.747	5.63
197.966	17.92
198.185	91.65
198.404	48.64
198.623	40.45
198.842	-16.9
199.062	67.07
199.281	62.98
199.5	28.16
199.719	3.58
199.938	46.59
200.157	81.41
200.376	93.69
200.595	65.02
200.814	34.3
201.033	32.26
201.252	81.41
201.471	105.98
201.69	97.79
201.909	24.06
202.128	7.68
202.347	48.64
202.566	38.4
202.785	-16.9
203.004	-29.18
203.223	91.65
203.442	77.31
203.661	5.63
203.879	50.69
204.098	32.26
204.317	-33.28
204.536	81.41
204.755	-10.75
204.974	-0.51
205.193	-0.51
205.411	134.65
205.63	52.74
205.849	58.88
206.068	73.21
206.287	56.83
206.505	62.98
206.724	60.93
206.943	7.68
207.162	44.54
207.381	56.83
207.599	-29.18
207.818	32.26
208.037	9.73
208.255	44.54
208.474	40.45
208.693	-2.56
208.911	-61.95
209.13	32.26
209.349	-14.85
209.567	36.35
209.786	65.02
210.005	7.68
210.223	28.16
210.442	34.3
210.661	26.11
210.879	48.64
211.098	-31.23
211.316	101.89
211.535	11.78
211.753	62.98
211.972	58.88
212.191	69.12
212.409	11.78
212.628	75.26
212.846	36.35
213.065	42.5
213.283	103.93
213.502	89.6
213.72	138.75
213.938	83.45
214.157	-0.51
214.375	40.45
214.594	40.45
214.812	44.54
215.031	67.07
215.249	48.64
215.467	19.97
215.686	-6.66
215.904	110.08
216.122	34.3
216.341	-0.51
216.559	60.93
216.778	65.02
216.996	48.64
217.214	30.21
217.432	65.02
217.651	-20.99
217.869	52.74
218.087	65.02
218.306	-66.05
218.524	73.21
218.742	11.78
218.96	42.5
219.179	40.45
219.397	32.26
219.615	118.27
219.833	44.54
220.051	32.26
220.27	69.12
220.488	75.26
220.706	24.06
220.924	-31.23
221.142	-18.94
221.36	91.65
221.578	32.26
221.796	-25.09
222.015	19.97
222.233	15.87
222.451	89.6
222.669	36.35
222.887	-0.51
223.105	65.02
223.323	24.06
223.541	-6.66
223.759	83.45
223.977	-16.9
224.195	79.36
224.413	83.45
224.631	36.35
224.849	19.97
225.067	24.06
225.285	42.5
225.503	73.21
225.721	48.64
225.939	3.58
226.157	3.58
226.375	146.94
226.592	15.87
226.81	3.58
227.028	-18.94
227.246	15.87
227.464	54.78
227.682	65.02
227.9	-6.66
228.117	83.45
228.335	22.02
228.553	65.02
228.771	-25.09
228.989	97.79
229.206	-0.51
229.424	28.16
229.642	52.74
229.86	15.87
230.077	-0.51
230.295	50.69
230.513	15.87
230.731	1.54
230.948	83.45
231.166	42.5
231.384	-8.7
231.601	56.83
231.819	99.84
232.037	-12.8
232.254	-47.62
232.472	-0.51
232.689	24.06
232.907	34.3
233.125	15.87
233.342	-33.28
233.56	-12.8
233.777	-25.09
233.995	34.3
234.213	24.06
234.43	69.12
234.648	34.3
234.865	30.21
235.083	136.7
235.3	93.69
235.518	-0.51
235.735	28.16
235.953	24.06
236.17	40.45
236.388	44.54
236.605	-23.04
236.822	9.73
237.04	73.21
237.257	32.26
237.475	36.35
237.692	75.26
237.909	-14.85
238.127	26.11
238.344	40.45
238.562	60.93
238.779	-2.56
238.996	34.3
239.214	-33.28
239.431	42.5
239.648	40.45
239.865	-37.38
240.083	24.06
240.3	62.98
240.517	-61.95
240.735	44.54
240.952	148.99
241.169	36.35
241.386	44.54
241.603	95.74
241.821	77.31
242.038	138.75
242.255	136.7
242.472	46.59
242.689	1.54
242.907	48.64
243.124	-59.9
243.341	-14.85
243.558	75.26
243.775	-8.7
243.992	52.74
244.209	52.74
244.426	89.6
244.643	32.26
244.86	24.06
245.078	73.21
245.295	97.79
245.512	38.4
245.729	30.21
245.946	65.02
246.163	9.73
246.38	67.07
246.597	85.5
246.814	75.26
247.031	24.06
247.248	34.3
247.464	24.06
247.681	-53.76
247.898	103.93
248.115	1.54
248.332	48.64
248.549	24.06
248.766	65.02
248.983	65.02
249.2	83.45
249.417	108.03
249.633	-39.42
249.85	97.79
250.067	1.54
250.284	52.74
250.501	65.02
250.717	114.17
250.934	19.97
251.151	69.12
251.368	28.16
251.585	89.6
251.801	26.11
252.018	34.3
252.235	108.03
252.451	-37.38
252.668	-16.9
252.885	130.56
253.102	114.17
253.318	-0.51
253.535	58.88
253.752	-10.75
253.968	56.83
254.185	22.02
254.401	-27.14
254.618	75.26
254.835	-4.61
255.051	83.45
255.268	52.74
255.484	56.83
255.701	83.45
255.917	79.36
256.134	-33.28
256.351	58.88
256.567	-31.23
256.784	65.02
257	3.58
257.217	30.21
257.433	40.45
257.65	48.64
257.866	71.17
258.082	-82.43
258.299	-8.7
258.515	-57.86
258.732	26.11
258.948	-8.7
259.165	48.64
259.381	34.3
259.597	67.07
259.814	58.88
260.03	-55.81
260.246	114.17
260.463	148.99
260.679	101.89
260.895	60.93
261.112	101.89
261.328	77.31
261.544	-0.51
261.761	155.13
261.977	91.65
262.193	101.89
262.409	48.64
262.626	65.02
262.842	24.06
263.058	11.78
263.274	85.5
263.49	73.21
263.707	79.36
263.923	26.11
264.139	5.63
264.355	-16.9
264.571	97.79
264.787	32.26
265.004	40.45
265.22	7.68
265.436	32.26
265.652	15.87
265.868	26.11
266.084	36.35
266.3	73.21
266.516	-0.51
266.732	77.31
266.948	65.02
267.164	73.21
267.38	65.02
267.596	48.64
267.812	48.64
268.028	65.02
268.244	73.21
268.46	32.26
268.676	9.73
268.892	46.59
269.108	-4.61
269.324	-8.7
269.54	26.11
269.756	-14.85
269.972	9.73
270.188	48.64
270.403	34.3
270.619	32.26
270.835	138.75
271.051	56.83
271.267	73.21
271.483	24.06
271.698	73.21
271.914	30.21
272.13	77.31
272.346	28.16
272.562	28.16
272.777	65.02
272.993	-25.09
273.209	24.06
273.425	85.5
273.64	7.68
273.856	136.7
274.072	79.36
274.287	-0.51
274.503	-2.56
274.719	46.59
274.934	58.88
275.15	32.26
275.366	19.97
275.581	-25.09
275.797	-10.75
276.012	44.54
276.228	50.69
276.444	40.45
276.659	85.5
276.875	15.87
277.09	89.6
277.306	3.58
277.521	87.55
277.737	-25.09
277.952	97.79
278.168	15.87
278.383	48.64
278.599	17.92
278.814	15.87
279.03	1.54
279.245	110.08
279.461	-12.8
279.676	52.74
279.892	-25.09
280.107	-57.86
280.322	7.68
280.538	124.41
280.753	32.26
280.969	38.4
281.184	91.65
281.399	73.21
281.615	-0.51
281.83	73.21
282.045	-47.62
282.26	50.69
282.476	54.78
282.691	17.92
282.906	67.07
283.122	126.46
283.337	26.11
283.552	110.08
283.767	-6.66
283.983	52.74
284.198	28.16
284.413	42.5
284.628	-6.66
284.843	15.87
285.058	-8.7
285.274	-0.51
285.489	30.21
285.704	99.84
285.919	36.35
286.134	30.21
286.349	67.07
286.564	-14.85
286.779	22.02
286.995	5.63
287.21	-12.8
287.425	-12.8
287.64	11.78
287.855	81.41
288.07	-2.56
288.285	65.02
288.5	67.07
288.715	44.54
288.93	71.17
289.145	-6.66
289.36	77.31
289.575	-37.38
289.79	-33.28
290.004	-23.04
290.219	79.36
290.434	108.03
290.649	5.63
290.864	99.84
291.079	7.68
291.294	60.93
291.509	26.11
291.724	-12.8
291.938	87.55
292.153	19.97
292.368	-29.18
292.583	15.87
292.798	77.31
293.012	138.75
293.227	-14.85
293.442	50.69
293.657	7.68
293.871	15.87
294.086	30.21
294.301	52.74
294.516	44.54
294.73	73.21
294.945	-4.61
295.16	81.41
295.374	89.6
295.589	118.27
295.804	-33.28
296.018	56.83
296.233	65.02
296.447	69.12
296.662	48.64
296.877	116.22
297.091	91.65
297.306	97.79
297.52	-88.57
297.735	67.07
297.949	1.54
298.164	148.99
298.378	-14.85
298.593	-72.19
298.807	-4.61
299.022	17.92
299.236	24.06
299.451	89.6
299.665	-33.28
299.88	67.07
300.094	56.83
300.309	65.02
300.523	32.26
300.737	77.31
300.952	-6.66
301.166	-0.51
301.381	32.26
301.595	56.83
301.809	130.56
302.024	34.3
302.238	5.63
302.452	105.98
302.667	19.97
302.881	75.26
303.095	58.88
303.309	81.41
303.524	26.11
303.738	48.64
303.952	24.06
304.166	3.58
304.381	54.78
304.595	157.18
304.809	-37.38
305.023	7.68
305.237	40.45
305.452	7.68
305.666	52.74
305.88	24.06
306.094	3.58
306.308	-16.9
306.522	30.21
306.736	77.31
306.95	-29.18
307.164	-10.75
307.379	32.26
307.593	114.17
307.807	81.41
308.021	65.02
308.235	56.83
308.449	-41.47
308.663	-2.56
308.877	101.89
309.091	26.11
309.305	81.41
309.519	-64
309.733	24.06
309.947	-23.04
310.161	77.31
310.374	73.21
310.588	99.84
310.802	30.21
311.016	54.78
311.23	101.89
311.444	28.16
311.658	34.3
311.872	103.93
312.085	65.02
312.299	114.17
312.513	40.45
312.727	148.99
312.941	118.27
313.154	15.87
313.368	24.06
313.582	89.6
313.796	34.3
314.009	50.69
314.223	1.54
314.437	81.41
314.651	7.68
314.864	56.83
315.078	56.83
315.292	7.68
315.505	11.78
315.719	11.78
315.933	73.21
316.146	15.87
316.36	50.69
316.573	112.13
316.787	85.5
317.001	54.78
317.214	60.93
317.428	42.5
317.641	-16.9
317.855	-6.66
318.068	89.6
318.282	1.54
318.495	89.6
318.709	17.92
318.922	81.41
319.136	105.98
319.349	60.93
319.563	67.07
319.776	58.88
319.99	11.78
320.203	28.16
320.417	46.59
320.63	93.69
320.843	126.46
321.057	77.31
321.27	1.54
321.483	67.07
321.697	58.88
321.91	40.45
322.124	54.78
322.337	58.88
322.55	13.82
322.763	83.45
322.977	50.69
323.19	28.16
323.403	9.73
323.617	73.21
323.83	40.45
324.043	-84.48
324.256	81.41
324.469	-35.33
324.683	50.69
324.896	69.12
325.109	9.73
325.322	54.78
325.535	52.74
325.748	44.54
325.962	9.73
326.175	81.41
326.388	110.08
326.601	75.26
326.814	-4.61
327.027	28.16
327.24	122.37
327.453	9.73
327.666	48.64
327.879	58.88
328.092	93.69
328.305	67.07
328.518	-4.61
328.731	48.64
328.944	9.73
329.157	-12.8
329.37	40.45
329.583	65.02
329.796	67.07
330.009	7.68
330.222	89.6
330.435	7.68
330.648	60.93
330.861	22.02
331.073	34.3
331.286	15.87
331.499	48.64
331.712	-70.14
331.925	1.54
332.138	40.45
332.35	138.75
332.563	40.45
332.776	81.41
332.989	-31.23
333.202	60.93
333.414	15.87
333.627	46.59
333.84	40.45
334.053	24.06
334.265	-49.66
334.478	44.54
334.691	24.06
334.903	28.16
335.116	1.54
335.329	105.98
335.541	65.02
335.754	54.78
335.966	-74.24
336.179	7.68
336.392	5.63
336.604	-18.94
336.817	138.75
337.029	89.6
337.242	93.69
337.454	-14.85
337.667	85.5
337.88	71.17
338.092	48.64
338.305	73.21
338.517	-0.51
338.729	50.69
338.942	85.5
339.154	40.45
339.367	19.97
339.579	48.64
339.792	28.16
340.004	28.16
340.217	-20.99
340.429	9.73
340.641	56.83
340.854	40.45
341.066	-2.56
341.278	95.74
341.491	56.83
341.703	15.87
341.915	34.3
342.128	56.83
342.34	-16.9
342.552	67.07
342.764	89.6
342.977	71.17
343.189	83.45
343.401	7.68
343.613	7.68
343.826	40.45
344.038	-16.9
344.25	62.98
344.462	69.12
344.674	11.78
344.886	36.35
345.099	-37.38
345.311	22.02
345.523	24.06
345.735	-41.47
345.947	89.6
346.159	69.12
346.371	-41.47
346.583	67.07
346.795	151.04
347.007	15.87
347.219	50.69
347.431	40.45
347.643	73.21
347.855	34.3
348.067	17.92
348.279	-8.7
348.491	9.73
348.703	116.22
348.915	15.87
349.127	56.83
349.339	97.79
349.551	9.73
349.763	73.21
349.975	58.88
350.187	99.84
350.399	73.21
350.61	69.12
350.822	91.65
351.034	48.64
351.246	11.78
351.458	60.93
351.669	93.69
351.881	56.83
352.093	110.08
352.305	83.45
352.517	54.78
352.728	81.41
352.94	58.88
353.152	56.83
353.363	-33.28
353.575	56.83
353.787	120.32
353.999	56.83
354.21	75.26
354.422	24.06
354.633	7.68
354.845	-0.51
355.057	83.45
355.268	44.54
355.48	65.02
355.692	-6.66
355.903	34.3
356.115	17.92
356.326	-18.94
356.538	114.17
356.749	60.93
356.961	73.21
357.172	-2.56
357.384	-8.7
357.595	120.32
357.807	7.68
358.018	40.45
358.23	7.68
358.441	50.69
358.653	75.26
358.864	-41.47
359.075	26.11
359.287	124.41
359.498	-20.99
359.709	77.31
359.921	13.82
360.132	60.93
360.344	34.3
360.555	40.45
360.766	50.69
360.977	75.26
361.189	52.74
361.4	9.73
361.611	56.83
361.823	73.21
362.034	85.5
362.245	36.35
362.456	15.87
362.667	9.73
362.879	17.92
363.09	81.41
363.301	24.06
363.512	110.08
363.723	-0.51
363.935	56.83
364.146	105.98
364.357	77.31
364.568	36.35
364.779	73.21
364.99	73.21
365.201	38.4
365.412	103.93
365.623	-39.42
365.834	73.21
366.045	15.87
366.256	108.03
366.467	24.06
366.678	52.74
366.889	91.65
367.1	-8.7
367.311	38.4
367.522	28.16
367.733	79.36
367.944	48.64
368.155	28.16
368.366	-8.7
368.577	34.3
368.788	56.83
368.999	-14.85
369.209	97.79
369.42	99.84
369.631	83.45
369.842	69.12
370.053	32.26
370.264	15.87
370.474	24.06
370.685	-8.7
370.896	19.97
371.107	38.4
371.317	77.31
371.528	22.02
371.739	120.32
371.95	122.37
372.16	-6.66
372.371	26.11
372.582	99.84
372.792	99.84
373.003	118.27
373.214	83.45
373.424	105.98
373.635	52.74
373.846	105.98
374.056	-8.7
374.267	48.64
374.477	32.26
374.688	44.54
374.898	19.97
375.109	95.74
375.319	65.02
375.53	114.17
375.74	38.4
375.951	15.87
376.161	97.79
376.372	91.65
376.582	9.73
376.793	32.26
377.003	48.64
377.214	60.93
377.424	-16.9
377.635	71.17
377.845	52.74
378.055	196.09
378.266	56.83
378.476	56.83
378.686	28.16
378.897	-0.51
379.107	32.26
379.317	71.17
379.528	62.98
379.738	40.45
379.948	-10.75
380.158	48.64
380.369	-4.61
380.579	24.06
380.789	36.35
380.999	91.65
381.21	65.02
381.42	77.31
381.63	38.4
381.84	48.64
382.05	56.83
382.261	79.36
382.471	32.26
382.681	-25.09
382.891	105.98
383.101	91.65
383.311	17.92
383.521	73.21
383.731	-18.94
383.941	105.98
384.151	52.74
384.361	-8.7
384.571	163.33
384.781	32.26
384.991	93.69
385.201	75.26
385.411	34.3
385.621	56.83
385.831	52.74
386.041	48.64
386.251	69.12
386.461	155.13
386.671	89.6
386.881	105.98
387.091	-8.7
387.301	105.98
387.511	91.65
387.72	36.35
387.93	81.41
388.14	56.83
388.35	50.69
388.56	114.17
388.769	120.32
388.979	15.87
389.189	-16.9
389.399	-12.8
389.609	44.54
389.818	93.69
390.028	114.17
390.238	62.98
390.447	15.87
390.657	65.02
390.867	114.17
391.076	67.07
391.286	101.89
391.496	36.35
391.705	46.59
391.915	83.45
392.125	140.8
392.334	-0.51
392.544	118.27
392.753	75.26
392.963	67.07
393.172	85.5
393.382	48.64
393.591	148.99
393.801	138.75
394.01	36.35
394.22	36.35
394.429	48.64
394.639	214.52
394.848	116.22
395.058	65.02
395.267	28.16
395.477	118.27
395.686	44.54
395.895	136.7
396.105	163.33
396.314	112.13
396.524	-4.61
396.733	32.26
396.942	44.54
397.152	83.45
397.361	214.52
397.57	52.74
397.78	75.26
397.989	93.69
398.198	136.7
398.407	116.22
398.617	97.79
398.826	73.21
399.035	36.35
399.244	187.9
399.453	120.32
399.663	81.41
399.872	130.56
400.081	108.03
400.29	146.94
400.499	118.27
400.708	124.41
400.917	124.41
401.127	52.74
401.336	65.02
401.545	171.52
401.754	171.52
401.963	175.61
402.172	83.45
402.381	89.6
402.59	116.22
402.799	134.65
403.008	132.61
403.217	81.41
403.426	75.26
403.635	136.7
403.844	101.89
404.053	101.89
404.262	54.78
404.471	138.75
404.68	91.65
404.888	118.27
405.097	128.51
405.306	153.09
405.515	163.33
405.724	85.5
405.933	200.19
406.142	130.56
406.35	253.44
406.559	187.9
406.768	171.52
406.977	216.57
407.185	206.33
407.394	179.71
407.603	126.46
407.812	179.71
408.02	192
408.229	216.57
408.438	286.2
408.646	198.14
408.855	216.57
409.064	265.72
409.272	245.24
409.481	218.62
409.69	179.71
409.898	261.63
410.107	282.11
410.315	288.25
410.524	294.4
410.733	310.78
410.941	314.88
411.15	333.31
411.358	312.83
411.567	351.74
411.775	302.59
411.984	394.75
412.192	501.24
412.401	411.13
412.609	462.33
412.818	425.47
413.026	462.33
413.234	415.23
413.443	433.66
413.651	450.04
413.86	503.29
414.068	531.96
414.276	482.81
414.485	540.15
414.693	577.02
414.901	730.61
415.11	630.26
415.318	595.45
415.526	572.92
415.734	708.09
415.943	626.17
416.151	769.52
416.359	675.32
416.567	779.76
416.776	830.96
416.984	927.22
417.192	966.13
417.4	835.06
417.608	884.21
417.817	833.01
418.025	966.13
418.233	974.32
418.441	972.27
418.649	1082.86
418.857	1140.21
419.065	1146.35
419.273	1125.87
419.481	1220.08
419.689	1207.79
419.897	1250.8
420.105	1279.47
420.313	1369.58
420.521	1385.96
420.729	1564.14
420.937	1523.18
421.145	1424.87
421.353	1715.69
421.561	1678.82
421.769	1682.92
421.977	1842.66
422.185	1795.56
422.393	1863.14
422.601	2018.79
422.809	2076.13
423.017	2092.51
423.224	2180.57
423.432	2192.86
423.64	2141.66
423.848	2465.24
424.056	2248.16
424.263	2452.95
424.471	2344.41
424.679	2483.67
424.887	2747.86
425.094	2923.99
425.302	2907.6
425.51	2958.8
425.718	2899.41
425.925	2983.38
426.133	3112.4
426.341	3323.34
426.548	3448.27
426.756	3397.07
426.964	3567.05
427.171	3694.02
427.379	3681.74
427.586	3726.79
427.794	3900.87
428.001	4140.48
428.209	4201.92
428.417	4169.15
428.624	4500.92
428.832	4472.25
429.039	4308.41
429.247	4498.88
429.454	4814.26
429.662	5127.6
429.869	4943.28
430.076	5232.05
430.284	5158.32
430.491	5244.34
430.699	5600.68
430.906	5696.94
431.114	5668.27
431.321	5725.61
431.528	5815.72
431.736	6356.38
431.943	6499.74
432.15	6344.1
432.358	6469.02
432.565	6880.66
432.772	6866.33
432.979	7118.23
433.187	7382.42
433.394	7234.96
433.601	7900.55
433.808	7994.76
434.016	7884.17
434.223	8269.19
434.43	8682.88
434.637	8553.85
434.844	8953.21
435.052	9139.57
435.259	8879.48
435.466	9141.62
435.673	9110.9
435.88	9788.78
436.087	10331.49
436.294	10007.91
436.501	9911.66
436.708	10181.99
436.915	10452.32
437.122	10706.27
437.329	11132.25
437.537	11017.56
437.743	11404.63
437.95	11322.71
438.157	12025.16
438.364	12152.13
438.571	12150.09
438.778	12408.13
438.985	13274.42
439.192	12803.39
439.399	13178.17
439.606	13083.96
439.813	13919.53
440.02	14429.48
440.227	14306.6
440.433	14171.43
440.64	14533.92
440.847	14437.67
441.054	14757.15
441.261	15654.16
441.467	15492.37
441.674	15846.67
441.881	16182.54
442.088	16497.92
442.294	16157.96
442.501	16452.87
442.708	16946.43
442.914	17716.47
443.121	18320.62
443.328	17970.41
443.534	19156.19
443.741	18957.53
443.948	18445.54
444.154	19690.71
444.361	19563.73
444.568	19938.51
444.774	19840.21
444.981	19983.57
445.187	20643.01
445.394	21427.39
445.6	21204.16
445.807	22992.03
446.013	22363.31
446.22	22574.25
446.426	23520.41
446.633	23741.59
446.839	24194.19
447.046	23399.58
447.252	24710.28
447.459	24566.92
447.665	24546.44
447.871	25742.46
448.078	26989.67
448.284	25656.44
448.491	26338.41
448.697	27317.34
448.903	27800.66
449.11	27944.02
449.316	27298.91
449.522	27858.01
449.728	28724.3
449.935	28712.01
450.141	29027.4
450.347	29623.36
450.553	28232.79
450.76	28759.11
450.966	29905.98
451.172	29443.13
451.378	30217.27
451.584	29496.38
451.791	30313.52
451.997	29946.94
452.203	30981.16
452.409	30805.03
452.615	30231.6
452.821	29426.75
453.027	29137.99
453.233	30385.2
453.44	29379.65
453.646	29852.73
453.852	29789.24
454.058	30227.51
454.264	29690.94
454.47	30067.77
454.676	29633.6
454.882	30078.01
455.088	27683.93
455.294	28189.78
455.5	28566.6
455.705	28851.27
455.911	27661.4
456.117	27272.29
456.323	26856.55
456.529	25599.1
456.735	26340.46
456.941	25715.83
457.147	25156.74
457.352	24188.05
457.558	24251.53
457.764	24155.28
457.97	23843.99
458.176	23233.69
458.381	23073.95
458.587	22525.1
458.793	21945.52
458.999	20950.21
459.204	22486.18
459.41	21884.08
459.616	20487.37
459.821	20374.73
460.027	20137.16
460.233	19958.99
460.438	19033.31
460.644	19096.8
460.85	18289.9
461.055	17536.24
461.261	18009.33
461.466	16325.89
461.672	16143.63
461.878	16997.63
462.083	15965.45
462.289	15635.73
462.494	15334.68
462.7	14683.42
462.905	14443.81
463.111	14933.28
463.316	14779.68
463.522	14605.6
463.727	14513.44
463.932	14421.28
464.138	14165.29
464.343	14380.32
464.549	13823.28
464.754	14478.63
464.959	14097.7
465.165	14148.9
465.37	13645.1
465.575	13149.5
465.781	13630.77
465.986	13571.38
466.191	13411.64
466.397	12801.34
466.602	12391.75
466.807	12901.69
467.012	12791.1
467.218	12533.06
467.423	12664.13
467.628	12537.15
