Data from USB4F104151__96__14-30-46-918.txt Node

Date: Thu Mar 13 14:30:46 EDT 2025
User: louis
Spectrometer: USB4F10415
Trigger mode: 4
Integration Time (sec): 2.500000E-2
Scans to average: 1
Electric dark correction enabled: true
Nonlinearity correction enabled: false
Boxcar width: 0
XAxis mode: Wavelengths
Number of Pixels in Spectrum: 3648
>>>>>Begin Spectral Data<<<<<
178.204	-190.46
178.424	-190.46
178.644	-190.46
178.864	-147.45
179.084	-104.45
179.304	-59.39
179.524	-14.34
179.744	-75.77
179.964	38.91
180.184	30.72
180.404	47.1
180.624	14.34
180.844	73.73
181.064	-24.58
181.283	-4.1
181.503	-18.43
181.723	-8.19
181.943	-2.05
182.163	118.78
182.383	40.96
182.602	49.15
182.822	90.11
183.042	88.06
183.262	0
183.482	34.82
183.701	16.38
183.921	83.97
184.141	55.3
184.361	73.73
184.58	61.44
184.8	112.64
185.02	-2.05
185.239	100.35
185.459	12.29
185.679	-10.24
185.898	63.49
186.118	55.3
186.338	30.72
186.557	18.43
186.777	92.16
186.997	12.29
187.216	143.36
187.436	69.63
187.655	79.87
187.875	104.45
188.095	88.06
188.314	30.72
188.534	71.68
188.753	18.43
188.973	98.3
189.192	145.41
189.412	47.1
189.631	47.1
189.851	63.49
190.07	73.73
190.29	14.34
190.509	38.91
190.729	-10.24
190.948	88.06
191.168	169.98
191.387	96.25
191.607	43.01
191.826	108.54
192.045	-20.48
192.265	6.14
192.484	96.25
192.704	81.92
192.923	51.2
193.142	120.83
193.362	79.87
193.581	108.54
193.8	104.45
194.02	155.65
194.239	2.05
194.458	55.3
194.678	-6.14
194.897	137.21
195.116	151.55
195.335	49.15
195.555	83.97
195.774	112.64
195.993	47.1
196.212	96.25
196.432	0
196.651	92.16
196.87	34.82
197.089	120.83
197.308	57.34
197.528	102.4
197.747	-2.05
197.966	45.06
198.185	61.44
198.404	30.72
198.623	143.36
198.842	114.69
199.062	88.06
199.281	47.1
199.5	-45.06
199.719	47.1
199.938	79.87
200.157	43.01
200.376	55.3
200.595	98.3
200.814	22.53
201.033	79.87
201.252	137.21
201.471	18.43
201.69	40.96
201.909	45.06
202.128	59.39
202.347	96.25
202.566	43.01
202.785	10.24
203.004	-2.05
203.223	153.6
203.442	22.53
203.661	18.43
203.879	110.59
204.098	55.3
204.317	16.38
204.536	-36.86
204.755	14.34
204.974	96.25
205.193	83.97
205.411	137.21
205.63	55.3
205.849	104.45
206.068	96.25
206.287	26.62
206.505	129.02
206.724	-26.62
206.943	34.82
207.162	63.49
207.381	75.77
207.599	26.62
207.818	102.4
208.037	88.06
208.255	124.93
208.474	71.68
208.693	51.2
208.911	83.97
209.13	106.49
209.349	0
209.567	90.11
209.786	47.1
210.005	47.1
210.223	30.72
210.442	2.05
210.661	59.39
210.879	90.11
211.098	65.54
211.316	88.06
211.535	38.91
211.753	4.1
211.972	169.98
212.191	57.34
212.409	-10.24
212.628	86.01
212.846	49.15
213.065	77.82
213.283	104.45
213.502	63.49
213.72	30.72
213.938	34.82
214.157	10.24
214.375	108.54
214.594	26.62
214.812	40.96
215.031	43.01
215.249	110.59
215.467	71.68
215.686	8.19
215.904	43.01
216.122	55.3
216.341	96.25
216.559	59.39
216.778	49.15
216.996	59.39
217.214	43.01
217.432	43.01
217.651	88.06
217.869	32.77
218.087	98.3
218.306	141.31
218.524	98.3
218.742	24.58
218.96	102.4
219.179	-6.14
219.397	59.39
219.615	116.73
219.833	120.83
220.051	75.77
220.27	153.6
220.488	-47.1
220.706	63.49
220.924	-40.96
221.142	100.35
221.36	51.2
221.578	59.39
221.796	-10.24
222.015	79.87
222.233	38.91
222.451	71.68
222.669	8.19
222.887	73.73
223.105	24.58
223.323	38.91
223.541	-12.29
223.759	63.49
223.977	43.01
224.195	63.49
224.413	88.06
224.631	98.3
224.849	45.06
225.067	100.35
225.285	-2.05
225.503	22.53
225.721	-6.14
225.939	53.25
226.157	81.92
226.375	176.13
226.592	47.1
226.81	92.16
227.028	63.49
227.246	38.91
227.464	-6.14
227.682	139.26
227.9	43.01
228.117	40.96
228.335	63.49
228.553	36.86
228.771	94.21
228.989	118.78
229.206	22.53
229.424	88.06
229.642	-14.34
229.86	88.06
230.077	71.68
230.295	59.39
230.513	14.34
230.731	57.34
230.948	8.19
231.166	69.63
231.384	83.97
231.601	63.49
231.819	36.86
232.037	12.29
232.254	4.1
232.472	63.49
232.689	43.01
232.907	71.68
233.125	96.25
233.342	12.29
233.56	38.91
233.777	73.73
233.995	63.49
234.213	145.41
234.43	49.15
234.648	47.1
234.865	55.3
235.083	49.15
235.3	57.34
235.518	126.97
235.735	147.45
235.953	32.77
236.17	67.58
236.388	100.35
236.605	96.25
236.822	51.2
237.04	59.39
237.257	126.97
237.475	-2.05
237.692	73.73
237.909	81.92
238.127	16.38
238.344	24.58
238.562	57.34
238.779	22.53
238.996	67.58
239.214	61.44
239.431	43.01
239.648	120.83
239.865	14.34
240.083	116.73
240.3	55.3
240.517	51.2
240.735	79.87
240.952	96.25
241.169	53.25
241.386	34.82
241.603	40.96
241.821	28.67
242.038	116.73
242.255	53.25
242.472	16.38
242.689	26.62
242.907	32.77
243.124	36.86
243.341	47.1
243.558	65.54
243.775	73.73
243.992	43.01
244.209	61.44
244.426	172.03
244.643	57.34
244.86	34.82
245.078	122.88
245.295	88.06
245.512	59.39
245.729	34.82
245.946	124.93
246.163	90.11
246.38	43.01
246.597	38.91
246.814	51.2
247.031	100.35
247.248	63.49
247.464	129.02
247.681	63.49
247.898	-24.58
248.115	49.15
248.332	14.34
248.549	14.34
248.766	90.11
248.983	98.3
249.2	71.68
249.417	79.87
249.633	75.77
249.85	47.1
250.067	4.1
250.284	81.92
250.501	47.1
250.717	104.45
250.934	59.39
251.151	10.24
251.368	24.58
251.585	106.49
251.801	28.67
252.018	14.34
252.235	69.63
252.451	24.58
252.668	40.96
252.885	120.83
253.102	65.54
253.318	79.87
253.535	77.82
253.752	38.91
253.968	120.83
254.185	73.73
254.401	40.96
254.618	135.17
254.835	-6.14
255.051	129.02
255.268	65.54
255.484	43.01
255.701	73.73
255.917	32.77
256.134	47.1
256.351	28.67
256.567	10.24
256.784	98.3
257	-8.19
257.217	71.68
257.433	159.74
257.65	61.44
257.866	81.92
258.082	30.72
258.299	45.06
258.515	55.3
258.732	129.02
258.948	32.77
259.165	69.63
259.381	43.01
259.597	151.55
259.814	43.01
260.03	49.15
260.246	38.91
260.463	34.82
260.679	90.11
260.895	83.97
261.112	102.4
261.328	75.77
261.544	75.77
261.761	139.26
261.977	73.73
262.193	6.14
262.409	153.6
262.626	53.25
262.842	114.69
263.058	22.53
263.274	6.14
263.49	75.77
263.707	104.45
263.923	81.92
264.139	-10.24
264.355	73.73
264.571	112.64
264.787	63.49
265.004	124.93
265.22	2.05
265.436	114.69
265.652	53.25
265.868	129.02
266.084	-2.05
266.3	147.45
266.516	47.1
266.732	90.11
266.948	116.73
267.164	36.86
267.38	55.3
267.596	79.87
267.812	112.64
268.028	57.34
268.244	14.34
268.46	92.16
268.676	43.01
268.892	28.67
269.108	133.12
269.324	30.72
269.54	26.62
269.756	112.64
269.972	0
270.188	0
270.403	24.58
270.619	63.49
270.835	108.54
271.051	-2.05
271.267	65.54
271.483	14.34
271.698	-10.24
271.914	124.93
272.13	49.15
272.346	34.82
272.562	98.3
272.777	40.96
272.993	57.34
273.209	79.87
273.425	147.45
273.64	-24.58
273.856	120.83
274.072	16.38
274.287	63.49
274.503	137.21
274.719	73.73
274.934	16.38
275.15	-4.1
275.366	55.3
275.581	69.63
275.797	57.34
276.012	55.3
276.228	-2.05
276.444	47.1
276.659	6.14
276.875	34.82
277.09	88.06
277.306	90.11
277.521	133.12
277.737	77.82
277.952	88.06
278.168	61.44
278.383	112.64
278.599	75.77
278.814	88.06
279.03	71.68
279.245	174.08
279.461	65.54
279.676	92.16
279.892	106.49
280.107	22.53
280.322	14.34
280.538	47.1
280.753	26.62
280.969	120.83
281.184	63.49
281.399	116.73
281.615	47.1
281.83	129.02
282.045	40.96
282.26	0
282.476	61.44
282.691	14.34
282.906	28.67
283.122	73.73
283.337	34.82
283.552	38.91
283.767	26.62
283.983	71.68
284.198	129.02
284.413	26.62
284.628	14.34
284.843	51.2
285.058	219.13
285.274	69.63
285.489	-16.38
285.704	63.49
285.919	55.3
286.134	2.05
286.349	22.53
286.564	-2.05
286.779	96.25
286.995	147.45
287.21	0
287.425	98.3
287.64	57.34
287.855	118.78
288.07	-30.72
288.285	139.26
288.5	215.04
288.715	61.44
288.93	-59.39
289.145	38.91
289.36	51.2
289.575	77.82
289.79	30.72
290.004	81.92
290.219	57.34
290.434	-14.34
290.649	94.21
290.864	55.3
291.079	-14.34
291.294	51.2
291.509	47.1
291.724	79.87
291.938	104.45
292.153	124.93
292.368	65.54
292.583	49.15
292.798	47.1
293.012	88.06
293.227	83.97
293.442	53.25
293.657	94.21
293.871	116.73
294.086	88.06
294.301	120.83
294.516	55.3
294.73	51.2
294.945	63.49
295.16	-12.29
295.374	96.25
295.589	81.92
295.804	14.34
296.018	73.73
296.233	153.6
296.447	151.55
296.662	86.01
296.877	92.16
297.091	139.26
297.306	88.06
297.52	-6.14
297.735	83.97
297.949	26.62
298.164	88.06
298.378	75.77
298.593	104.45
298.807	36.86
299.022	40.96
299.236	38.91
299.451	69.63
299.665	10.24
299.88	149.5
300.094	40.96
300.309	83.97
300.523	59.39
300.737	34.82
300.952	57.34
301.166	88.06
301.381	83.97
301.595	92.16
301.809	12.29
302.024	57.34
302.238	-12.29
302.452	124.93
302.667	-20.48
302.881	92.16
303.095	88.06
303.309	47.1
303.524	-8.19
303.738	65.54
303.952	55.3
304.166	129.02
304.381	6.14
304.595	83.97
304.809	69.63
305.023	118.78
305.237	-26.62
305.452	-8.19
305.666	63.49
305.88	96.25
306.094	69.63
306.308	51.2
306.522	92.16
306.736	51.2
306.95	49.15
307.164	71.68
307.379	96.25
307.593	92.16
307.807	73.73
308.021	75.77
308.235	77.82
308.449	38.91
308.663	98.3
308.877	176.13
309.091	2.05
309.305	157.69
309.519	36.86
309.733	155.65
309.947	104.45
310.161	49.15
310.374	22.53
310.588	104.45
310.802	71.68
311.016	108.54
311.23	49.15
311.444	81.92
311.658	43.01
311.872	120.83
312.085	104.45
312.299	59.39
312.513	104.45
312.727	71.68
312.941	63.49
313.154	131.07
313.368	100.35
313.582	47.1
313.796	55.3
314.009	79.87
314.223	114.69
314.437	49.15
314.651	192.51
314.864	112.64
315.078	40.96
315.292	-14.34
315.505	57.34
315.719	124.93
315.933	118.78
316.146	81.92
316.36	106.49
316.573	102.4
316.787	71.68
317.001	6.14
317.214	10.24
317.428	98.3
317.641	86.01
317.855	149.5
318.068	90.11
318.282	57.34
318.495	141.31
318.709	24.58
318.922	88.06
319.136	88.06
319.349	65.54
319.563	47.1
319.776	137.21
319.99	90.11
320.203	112.64
320.417	100.35
320.63	104.45
320.843	104.45
321.057	145.41
321.27	24.58
321.483	122.88
321.697	98.3
321.91	-2.05
322.124	104.45
322.337	104.45
322.55	81.92
322.763	16.38
322.977	55.3
323.19	38.91
323.403	81.92
323.617	102.4
323.83	104.45
324.043	96.25
324.256	88.06
324.469	53.25
324.683	153.6
324.896	104.45
325.109	90.11
325.322	8.19
325.535	81.92
325.748	30.72
325.962	6.14
326.175	122.88
326.388	98.3
326.601	47.1
326.814	110.59
327.027	55.3
327.24	98.3
327.453	18.43
327.666	81.92
327.879	104.45
328.092	145.41
328.305	178.17
328.518	75.77
328.731	59.39
328.944	120.83
329.157	110.59
329.37	43.01
329.583	129.02
329.796	106.49
330.009	28.67
330.222	145.41
330.435	0
330.648	100.35
330.861	100.35
331.073	32.77
331.286	14.34
331.499	79.87
331.712	-49.15
331.925	88.06
332.138	104.45
332.35	108.54
332.563	92.16
332.776	178.17
332.989	75.77
333.202	86.01
333.414	59.39
333.627	75.77
333.84	16.38
334.053	47.1
334.265	47.1
334.478	30.72
334.691	16.38
334.903	94.21
335.116	81.92
335.329	63.49
335.541	104.45
335.754	145.41
335.966	53.25
336.179	104.45
336.392	14.34
336.604	112.64
336.817	108.54
337.029	40.96
337.242	32.77
337.454	86.01
337.667	131.07
337.88	149.5
338.092	51.2
338.305	88.06
338.517	16.38
338.729	120.83
338.942	49.15
339.154	57.34
339.367	81.92
339.579	47.1
339.792	38.91
340.004	38.91
340.217	69.63
340.429	55.3
340.641	90.11
340.854	77.82
341.066	118.78
341.278	65.54
341.491	141.31
341.703	79.87
341.915	73.73
342.128	57.34
342.34	51.2
342.552	16.38
342.764	53.25
342.977	38.91
343.189	131.07
343.401	79.87
343.613	38.91
343.826	63.49
344.038	55.3
344.25	0
344.462	22.53
344.674	102.4
344.886	57.34
345.099	75.77
345.311	73.73
345.523	55.3
345.735	63.49
345.947	145.41
346.159	92.16
346.371	30.72
346.583	92.16
346.795	145.41
347.007	83.97
347.219	73.73
347.431	26.62
347.643	172.03
347.855	-4.1
348.067	161.79
348.279	22.53
348.491	90.11
348.703	65.54
348.915	57.34
349.127	94.21
349.339	30.72
349.551	14.34
349.763	79.87
349.975	73.73
350.187	16.38
350.399	98.3
350.61	133.12
350.822	30.72
351.034	69.63
351.246	45.06
351.458	137.21
351.669	114.69
351.881	172.03
352.093	57.34
352.305	190.46
352.517	153.6
352.728	98.3
352.94	83.97
353.152	161.79
353.363	98.3
353.575	96.25
353.787	194.56
353.999	96.25
354.21	98.3
354.422	24.58
354.633	71.68
354.845	71.68
355.057	65.54
355.268	55.3
355.48	153.6
355.692	79.87
355.903	40.96
356.115	163.84
356.326	75.77
356.538	131.07
356.749	129.02
356.961	120.83
357.172	139.26
357.384	79.87
357.595	163.84
357.807	30.72
358.018	92.16
358.23	100.35
358.441	155.65
358.653	112.64
358.864	63.49
359.075	112.64
359.287	69.63
359.498	108.54
359.709	38.91
359.921	94.21
360.132	81.92
360.344	34.82
360.555	59.39
360.766	131.07
360.977	71.68
361.189	96.25
361.4	79.87
361.611	104.45
361.823	137.21
362.034	57.34
362.245	18.43
362.456	94.21
362.667	112.64
362.879	137.21
363.09	135.17
363.301	100.35
363.512	104.45
363.723	106.49
363.935	51.2
364.146	55.3
364.357	71.68
364.568	145.41
364.779	43.01
364.99	96.25
365.201	67.58
365.412	172.03
365.623	49.15
365.834	165.89
366.045	59.39
366.256	186.37
366.467	202.75
366.678	155.65
366.889	73.73
367.1	120.83
367.311	96.25
367.522	10.24
367.733	137.21
367.944	104.45
368.155	100.35
368.366	53.25
368.577	96.25
368.788	83.97
368.999	112.64
369.209	104.45
369.42	196.61
369.631	114.69
369.842	45.06
370.053	40.96
370.264	51.2
370.474	122.88
370.685	53.25
370.896	96.25
371.107	43.01
371.317	73.73
371.528	131.07
371.739	139.26
371.95	-2.05
372.16	61.44
372.371	88.06
372.582	40.96
372.792	100.35
373.003	106.49
373.214	75.77
373.424	108.54
373.635	32.77
373.846	145.41
374.056	75.77
374.267	108.54
374.477	120.83
374.688	63.49
374.898	145.41
375.109	24.58
375.319	153.6
375.53	104.45
375.74	116.73
375.951	98.3
376.161	59.39
376.372	159.74
376.582	38.91
376.793	129.02
377.003	90.11
377.214	-32.77
377.424	51.2
377.635	45.06
377.845	77.82
378.055	192.51
378.266	-18.43
378.476	94.21
378.686	57.34
378.897	104.45
379.107	120.83
379.317	114.69
379.528	73.73
379.738	40.96
379.948	71.68
380.158	100.35
380.369	141.31
380.579	73.73
380.789	57.34
380.999	71.68
381.21	65.54
381.42	112.64
381.63	90.11
381.84	163.84
382.05	108.54
382.261	120.83
382.471	143.36
382.681	112.64
382.891	124.93
383.101	90.11
383.311	49.15
383.521	71.68
383.731	88.06
383.941	178.17
384.151	8.19
384.361	104.45
384.571	49.15
384.781	122.88
384.991	118.78
385.201	65.54
385.411	106.49
385.621	112.64
385.831	116.73
386.041	90.11
386.251	36.86
386.461	114.69
386.671	90.11
386.881	86.01
387.091	104.45
387.301	96.25
387.511	120.83
387.72	120.83
387.93	92.16
388.14	169.98
388.35	153.6
388.56	96.25
388.769	104.45
388.979	133.12
389.189	98.3
389.399	59.39
389.609	116.73
389.818	124.93
390.028	104.45
390.238	169.98
390.447	71.68
390.657	133.12
390.867	153.6
391.076	73.73
391.286	137.21
391.496	112.64
391.705	77.82
391.915	188.41
392.125	135.17
392.334	38.91
392.544	229.37
392.753	182.27
392.963	116.73
393.172	90.11
393.382	100.35
393.591	75.77
393.801	73.73
394.01	174.08
394.22	215.04
394.429	196.61
394.639	133.12
394.848	178.17
395.058	83.97
395.267	98.3
395.477	137.21
395.686	188.41
395.895	231.42
396.105	145.41
396.314	221.18
396.524	147.45
396.733	71.68
396.942	153.6
397.152	202.75
397.361	145.41
397.57	149.5
397.78	124.93
397.989	196.61
398.198	219.13
398.407	165.89
398.617	112.64
398.826	124.93
399.035	198.65
399.244	237.56
399.453	112.64
399.663	174.08
399.872	180.22
400.081	147.45
400.29	249.85
400.499	149.5
400.708	131.07
400.917	139.26
401.127	190.46
401.336	169.98
401.545	251.9
401.754	180.22
401.963	260.09
402.172	145.41
402.381	165.89
402.59	137.21
402.799	212.99
403.008	219.13
403.217	290.81
403.426	151.55
403.635	292.86
403.844	145.41
404.053	260.09
404.262	219.13
404.471	307.2
404.68	212.99
404.888	194.56
405.097	256
405.306	235.52
405.515	243.71
405.724	284.67
405.933	258.04
406.142	223.23
406.35	319.48
406.559	245.76
406.768	256
406.977	260.09
407.185	315.39
407.394	303.1
407.603	352.25
407.812	376.83
408.02	419.83
408.229	329.72
408.438	360.44
408.646	288.76
408.855	352.25
409.064	350.2
409.272	342.01
409.481	499.7
409.69	450.55
409.898	489.46
410.107	444.41
410.315	507.9
410.524	514.04
410.733	557.05
410.941	485.37
411.15	450.55
411.358	573.43
411.567	587.77
411.775	538.62
411.984	565.24
412.192	739.32
412.401	684.02
412.609	698.36
412.818	796.66
413.026	767.99
413.234	710.65
413.443	833.52
413.651	767.99
413.86	819.19
414.068	964.59
414.276	835.57
414.485	868.34
414.693	894.96
414.901	1103.86
415.11	1087.47
415.318	1060.85
415.526	1071.09
415.734	1241.07
415.943	1226.73
416.151	1226.73
416.359	1185.77
416.567	1296.36
416.776	1320.94
416.984	1437.67
417.192	1435.63
417.4	1425.39
417.608	1474.54
417.817	1464.3
418.025	1652.71
418.233	1742.82
418.441	1710.05
418.649	1703.91
418.857	1808.36
419.065	1929.19
419.273	1949.67
419.481	2043.87
419.689	2232.29
419.897	2236.38
420.105	2263.01
420.313	2394.08
420.521	2381.79
420.729	2367.45
420.937	2512.86
421.145	2621.4
421.353	2705.37
421.561	2865.11
421.769	2760.66
421.977	2922.45
422.185	2990.03
422.393	3289.04
422.601	3307.47
422.809	3375.05
423.017	3454.92
423.224	3547.08
423.432	3579.85
423.64	3712.97
423.848	4057.03
424.056	3889.09
424.263	4179.9
424.471	4265.92
424.679	4202.43
424.887	4536.25
425.094	4808.63
425.302	4659.13
425.51	4894.65
425.718	5005.24
425.925	4888.5
426.133	5140.4
426.341	5453.74
426.548	5691.31
426.756	5785.51
426.964	5877.67
427.171	6207.39
427.379	6354.85
427.586	6358.94
427.794	6641.56
428.001	6995.86
428.209	7151.51
428.417	7075.73
428.624	7444.37
428.832	7337.87
429.039	7706.51
429.247	7501.71
429.454	8189.83
429.662	8738.68
429.869	8142.72
430.076	8873.85
430.284	8415.1
430.491	8925.05
430.699	9543.53
430.906	9434.99
431.114	9533.29
431.321	9975.66
431.528	10213.22
431.736	10831.71
431.943	11433.81
432.15	10848.09
432.358	11016.02
432.565	11804.49
432.772	11560.78
432.979	12220.23
433.187	12560.19
433.394	12332.87
433.601	13229.88
433.808	13195.06
434.016	13276.98
434.223	13903.66
434.43	14716.7
434.637	14329.64
434.844	15120.15
435.052	15265.56
435.259	15406.87
435.466	15589.14
435.673	15388.44
435.88	16236.3
436.087	17293.05
436.294	17090.3
436.501	16733.95
436.708	17182.46
436.915	17800.94
437.122	18421.48
437.329	18319.08
437.537	19189.47
437.743	19318.49
437.95	19128.03
438.157	20156.11
438.364	20723.4
438.571	20621
438.778	20876.99
438.985	22689.45
439.192	21833.39
439.399	22703.78
439.606	21884.59
439.813	23111.33
440.02	24534.67
440.227	24174.22
440.433	23848.6
440.64	25110.14
440.847	24534.67
441.054	25403
441.261	26934.88
441.467	26502.76
441.674	26996.32
441.881	28175.95
442.088	27852.38
442.294	27758.17
442.501	28689.99
442.708	28870.22
442.914	30031.41
443.121	31436.32
443.328	30817.83
443.534	32706.06
443.741	31901.21
443.948	31307.3
444.154	33635.84
444.361	33115.65
444.568	33449.47
444.774	33693.18
444.981	33758.72
445.187	35098.09
445.394	36509.14
445.6	35966.43
445.807	39396.77
446.013	37529.03
446.22	38413.75
446.426	40039.84
446.633	40074.65
446.839	41268.62
447.046	39640.48
447.252	42118.53
447.459	41848.19
447.665	42251.64
447.871	43863.39
448.078	45245.77
448.284	43195.76
448.491	44338.52
448.697	46019.91
448.903	47205.68
449.11	47050.03
449.316	46167.36
449.522	47303.98
449.728	48549.15
449.935	48727.32
450.141	48901.4
450.347	49868.04
450.553	48135.46
450.76	49052.95
450.966	50232.58
451.172	49648.91
451.378	51301.62
451.584	50220.29
451.791	51029.24
451.997	51301.62
452.203	52176.1
452.409	51971.3
452.615	51438.83
452.821	49777.93
453.027	49319.18
453.233	51985.64
453.44	49882.37
453.646	50478.33
453.852	50783.48
454.058	51551.47
454.264	49507.6
454.47	50736.38
454.676	49274.13
454.882	51543.28
455.088	46921.01
455.294	47762.73
455.5	48276.77
455.705	48909.59
455.911	46859.57
456.117	46198.08
456.323	45188.43
456.529	43224.43
456.735	44793.17
456.941	44119.39
457.147	43335.02
457.352	42065.28
457.558	41622.92
457.764	41272.71
457.97	40656.28
458.176	39730.59
458.381	39843.23
458.587	37694.91
458.793	37836.22
458.999	36199.9
459.204	38467
459.41	37328.33
459.616	35237.35
459.821	35042.79
460.027	34815.47
460.233	34049.53
460.438	32206.36
460.644	32865.8
460.85	31358.5
461.055	30740.01
461.261	30768.68
461.466	28413.52
461.672	27706.97
461.878	29613.63
462.083	27649.63
462.289	27328.1
462.494	26857.06
462.7	26041.97
462.905	24745.61
463.111	25824.89
463.316	25859.7
463.522	25392.76
463.727	25159.3
463.932	25263.74
464.138	25028.23
464.343	25247.36
464.549	24344.2
464.754	25101.95
464.959	24981.12
465.165	24923.78
465.37	23592.6
465.575	23320.22
465.781	24057.49
