Data from USB4F104151__184__14-32-52-058.txt Node

Date: Thu Mar 13 14:32:52 EDT 2025
User: louis
Spectrometer: USB4F10415
Trigger mode: 4
Integration Time (sec): 2.500000E-2
Scans to average: 1
Electric dark correction enabled: true
Nonlinearity correction enabled: false
Boxcar width: 0
XAxis mode: Wavelengths
Number of Pixels in Spectrum: 3648
>>>>>Begin Spectral Data<<<<<
178.204	-124.76
178.424	-124.76
178.644	-124.76
178.864	-165.71
179.084	-112.47
179.304	-30.55
179.524	30.89
179.744	0.17
179.964	-44.88
180.184	90.28
180.404	-18.26
180.624	-30.55
180.844	-5.97
181.064	-28.5
181.283	2.22
181.503	16.55
181.723	18.6
181.943	2.22
182.163	118.95
182.383	75.95
182.602	65.71
182.822	53.42
183.042	96.43
183.262	43.18
183.482	45.23
183.701	80.04
183.921	49.32
184.141	4.27
184.361	71.85
184.58	34.99
184.8	108.71
185.02	98.47
185.239	127.14
185.459	34.99
185.679	168.1
185.898	-53.08
186.118	149.67
186.338	39.08
186.557	59.56
186.777	-44.88
186.997	61.61
187.216	-30.55
187.436	55.47
187.655	61.61
187.875	65.71
188.095	-44.88
188.314	55.47
188.534	96.43
188.753	53.42
188.973	75.95
189.192	86.19
189.412	39.08
189.631	30.89
189.851	43.18
190.07	77.99
190.29	2.22
190.509	84.14
190.729	98.47
190.948	133.29
191.168	209.06
191.387	96.43
191.607	71.85
191.826	2.22
192.045	-22.36
192.265	41.13
192.484	37.03
192.704	-14.17
192.923	53.42
193.142	139.43
193.362	92.33
193.581	57.51
193.8	106.67
194.02	51.37
194.239	75.95
194.458	10.41
194.678	51.37
194.897	69.8
195.116	45.23
195.335	71.85
195.555	43.18
195.774	55.47
195.993	80.04
196.212	22.7
196.432	18.6
196.651	73.9
196.87	37.03
197.089	110.76
197.308	34.99
197.528	108.71
197.747	14.51
197.966	43.18
198.185	69.8
198.404	-18.26
198.623	121
198.842	71.85
199.062	55.47
199.281	110.76
199.5	100.52
199.719	-12.12
199.938	51.37
200.157	104.62
200.376	2.22
200.595	108.71
200.814	57.51
201.033	43.18
201.252	90.28
201.471	12.46
201.69	59.56
201.909	77.99
202.128	129.19
202.347	41.13
202.566	-1.88
202.785	10.41
203.004	-55.12
203.223	145.58
203.442	51.37
203.661	63.66
203.879	94.38
204.098	90.28
204.317	20.65
204.536	67.75
204.755	30.89
204.974	82.09
205.193	59.56
205.411	157.86
205.63	43.18
205.849	26.79
206.068	55.47
206.287	55.47
206.505	47.27
206.724	-14.17
206.943	28.84
207.162	22.7
207.381	133.29
207.599	4.27
207.818	39.08
208.037	75.95
208.255	-1.88
208.474	71.85
208.693	47.27
208.911	4.27
209.13	59.56
209.349	28.84
209.567	61.61
209.786	114.86
210.005	26.79
210.223	157.86
210.442	-44.88
210.661	86.19
210.879	102.57
211.098	8.36
211.316	-10.07
211.535	18.6
211.753	26.79
211.972	10.41
212.191	26.79
212.409	53.42
212.628	110.76
212.846	-12.12
213.065	59.56
213.283	157.86
213.502	104.62
213.72	53.42
213.938	84.14
214.157	20.65
214.375	18.6
214.594	2.22
214.812	59.56
215.031	47.27
215.249	57.51
215.467	14.51
215.686	39.08
215.904	100.52
216.122	6.31
216.341	22.7
216.559	26.79
216.778	77.99
216.996	129.19
217.214	108.71
217.432	30.89
217.651	-14.17
217.869	-53.08
218.087	77.99
218.306	34.99
218.524	28.84
218.742	43.18
218.96	12.46
219.179	30.89
219.397	75.95
219.615	100.52
219.833	84.14
220.051	-3.93
220.27	108.71
220.488	10.41
220.706	100.52
220.924	26.79
221.142	53.42
221.36	59.56
221.578	84.14
221.796	14.51
222.015	100.52
222.233	10.41
222.451	145.58
222.669	10.41
222.887	116.9
223.105	30.89
223.323	100.52
223.541	53.42
223.759	47.27
223.977	159.91
224.195	108.71
224.413	63.66
224.631	43.18
224.849	4.27
225.067	127.14
225.285	84.14
225.503	143.53
225.721	129.19
225.939	37.03
226.157	16.55
226.375	174.25
226.592	-18.26
226.81	41.13
227.028	51.37
227.246	141.48
227.464	135.34
227.682	100.52
227.9	51.37
228.117	4.27
228.335	51.37
228.553	71.85
228.771	108.71
228.989	73.9
229.206	92.33
229.424	45.23
229.642	-55.12
229.86	10.41
230.077	121
230.295	14.51
230.513	61.61
230.731	61.61
230.948	131.24
231.166	98.47
231.384	71.85
231.601	51.37
231.819	86.19
232.037	86.19
232.254	2.22
232.472	10.41
232.689	47.27
232.907	67.75
233.125	10.41
233.342	51.37
233.56	-20.31
233.777	82.09
233.995	18.6
234.213	53.42
234.43	84.14
234.648	127.14
234.865	22.7
235.083	116.9
235.3	37.03
235.518	49.32
235.735	26.79
235.953	84.14
236.17	37.03
236.388	18.6
236.605	47.27
236.822	43.18
237.04	71.85
237.257	92.33
237.475	18.6
237.692	47.27
237.909	39.08
238.127	92.33
238.344	2.22
238.562	104.62
238.779	2.22
238.996	-22.36
239.214	61.61
239.431	94.38
239.648	84.14
239.865	80.04
240.083	100.52
240.3	30.89
240.517	100.52
240.735	84.14
240.952	61.61
241.169	82.09
241.386	86.19
241.603	125.1
241.821	22.7
242.038	71.85
242.255	49.32
242.472	14.51
242.689	88.23
242.907	96.43
243.124	41.13
243.341	-77.65
243.558	34.99
243.775	47.27
243.992	-120.66
244.209	123.05
244.426	166.06
244.643	121
244.86	-14.17
245.078	102.57
245.295	61.61
245.512	59.56
245.729	47.27
245.946	45.23
246.163	30.89
246.38	90.28
246.597	69.8
246.814	43.18
247.031	18.6
247.248	34.99
247.464	86.19
247.681	14.51
247.898	67.75
248.115	98.47
248.332	0.17
248.549	141.48
248.766	118.95
248.983	18.6
249.2	20.65
249.417	18.6
249.633	39.08
249.85	102.57
250.067	26.79
250.284	84.14
250.501	88.23
250.717	34.99
250.934	8.36
251.151	51.37
251.368	20.65
251.585	10.41
251.801	22.7
252.018	4.27
252.235	43.18
252.451	30.89
252.668	-28.5
252.885	45.23
253.102	84.14
253.318	67.75
253.535	28.84
253.752	47.27
253.968	41.13
254.185	45.23
254.401	84.14
254.618	26.79
254.835	86.19
255.051	37.03
255.268	34.99
255.484	61.61
255.701	61.61
255.917	161.96
256.134	-14.17
256.351	2.22
256.567	59.56
256.784	12.46
257	-61.27
257.217	63.66
257.433	102.57
257.65	37.03
257.866	84.14
258.082	69.8
258.299	12.46
258.515	34.99
258.732	37.03
258.948	6.31
259.165	22.7
259.381	34.99
259.597	43.18
259.814	98.47
260.03	-1.88
260.246	43.18
260.463	-1.88
260.679	18.6
260.895	53.42
261.112	10.41
261.328	51.37
261.544	-46.93
261.761	145.58
261.977	80.04
262.193	-5.97
262.409	53.42
262.626	59.56
262.842	102.57
263.058	43.18
263.274	4.27
263.49	-14.17
263.707	73.9
263.923	47.27
264.139	-12.12
264.355	14.51
264.571	73.9
264.787	125.1
265.004	32.94
265.22	-55.12
265.436	112.81
265.652	96.43
265.868	92.33
266.084	53.42
266.3	22.7
266.516	24.75
266.732	67.75
266.948	30.89
267.164	75.95
267.38	53.42
267.596	30.89
267.812	104.62
268.028	94.38
268.244	-28.5
268.46	75.95
268.676	30.89
268.892	92.33
269.108	-38.74
269.324	8.36
269.54	20.65
269.756	110.76
269.972	63.66
270.188	26.79
270.403	51.37
270.619	92.33
270.835	51.37
271.051	28.84
271.267	121
271.483	92.33
271.698	-8.02
271.914	77.99
272.13	32.94
272.346	12.46
272.562	77.99
272.777	118.95
272.993	82.09
273.209	12.46
273.425	110.76
273.64	77.99
273.856	86.19
274.072	75.95
274.287	-61.27
274.503	12.46
274.719	53.42
274.934	20.65
275.15	-10.07
275.366	34.99
275.581	71.85
275.797	39.08
276.012	-14.17
276.228	51.37
276.444	55.47
276.659	67.75
276.875	-36.69
277.09	94.38
277.306	6.31
277.521	53.42
277.737	63.66
277.952	125.1
278.168	69.8
278.383	96.43
278.599	59.56
278.814	86.19
279.03	32.94
279.245	47.27
279.461	8.36
279.676	104.62
279.892	4.27
280.107	30.89
280.322	59.56
280.538	127.14
280.753	-14.17
280.969	92.33
281.184	84.14
281.399	71.85
281.615	63.66
281.83	71.85
282.045	-20.31
282.26	53.42
282.476	30.89
282.691	53.42
282.906	8.36
283.122	135.34
283.337	-10.07
283.552	108.71
283.767	-8.02
283.983	166.06
284.198	20.65
284.413	92.33
284.628	24.75
284.843	67.75
285.058	125.1
285.274	63.66
285.489	69.8
285.704	141.48
285.919	20.65
286.134	43.18
286.349	37.03
286.564	84.14
286.779	53.42
286.995	59.56
287.21	-26.45
287.425	10.41
287.64	-18.26
287.855	88.23
288.07	-67.41
288.285	14.51
288.5	47.27
288.715	86.19
288.93	47.27
289.145	30.89
289.36	22.7
289.575	28.84
289.79	32.94
290.004	69.8
290.219	98.47
290.434	37.03
290.649	37.03
290.864	2.22
291.079	-30.55
291.294	110.76
291.509	55.47
291.724	32.94
291.938	51.37
292.153	30.89
292.368	55.47
292.583	92.33
292.798	121
293.012	75.95
293.227	63.66
293.442	84.14
293.657	30.89
293.871	112.81
294.086	12.46
294.301	63.66
294.516	18.6
294.73	4.27
294.945	100.52
295.16	53.42
295.374	123.05
295.589	45.23
295.804	2.22
296.018	59.56
296.233	118.95
296.447	127.14
296.662	47.27
296.877	149.67
297.091	174.25
297.306	-3.93
297.52	129.19
297.735	63.66
297.949	63.66
298.164	88.23
298.378	69.8
298.593	67.75
298.807	45.23
299.022	-1.88
299.236	112.81
299.451	86.19
299.665	-30.55
299.88	53.42
300.094	39.08
300.309	77.99
300.523	10.41
300.737	4.27
300.952	75.95
301.166	94.38
301.381	8.36
301.595	6.31
301.809	102.57
302.024	71.85
302.238	-22.36
302.452	151.72
302.667	51.37
302.881	96.43
303.095	65.71
303.309	55.47
303.524	34.99
303.738	2.22
303.952	59.56
304.166	57.51
304.381	-12.12
304.595	116.9
304.809	34.99
305.023	51.37
305.237	-22.36
305.452	88.23
305.666	2.22
305.88	71.85
306.094	20.65
306.308	96.43
306.522	73.9
306.736	80.04
306.95	6.31
307.164	37.03
307.379	-46.93
307.593	59.56
307.807	141.48
308.021	84.14
308.235	34.99
308.449	-3.93
308.663	57.51
308.877	215.21
309.091	59.56
309.305	22.7
309.519	61.61
309.733	141.48
309.947	-5.97
310.161	26.79
310.374	12.46
310.588	94.38
310.802	-36.69
311.016	53.42
311.23	96.43
311.444	59.56
311.658	22.7
311.872	92.33
312.085	96.43
312.299	59.56
312.513	114.86
312.727	6.31
312.941	-30.55
313.154	55.47
313.368	18.6
313.582	-24.4
313.796	59.56
314.009	47.27
314.223	133.29
314.437	43.18
314.651	84.14
314.864	-14.17
315.078	43.18
315.292	67.75
315.505	-3.93
315.719	106.67
315.933	110.76
316.146	67.75
316.36	20.65
316.573	153.77
316.787	59.56
317.001	141.48
317.214	2.22
317.428	14.51
317.641	-3.93
317.855	37.03
318.068	145.58
318.282	59.56
318.495	133.29
318.709	14.51
318.922	-34.64
319.136	184.49
319.349	80.04
319.563	100.52
319.776	98.47
319.99	55.47
320.203	65.71
320.417	47.27
320.63	92.33
320.843	108.71
321.057	49.32
321.27	51.37
321.483	45.23
321.697	129.19
321.91	102.57
322.124	112.81
322.337	-5.97
322.55	43.18
322.763	51.37
322.977	106.67
323.19	37.03
323.403	141.48
323.617	67.75
323.83	37.03
324.043	53.42
324.256	112.81
324.469	2.22
324.683	92.33
324.896	20.65
325.109	100.52
325.322	39.08
325.535	73.9
325.748	47.27
325.962	47.27
326.175	22.7
326.388	114.86
326.601	43.18
326.814	84.14
327.027	-10.07
327.24	92.33
327.453	10.41
327.666	71.85
327.879	-1.88
328.092	71.85
328.305	67.75
328.518	80.04
328.731	55.47
328.944	20.65
329.157	34.99
329.37	34.99
329.583	104.62
329.796	133.29
330.009	63.66
330.222	59.56
330.435	55.47
330.648	100.52
330.861	-22.36
331.073	8.36
331.286	102.57
331.499	92.33
331.712	16.55
331.925	43.18
332.138	84.14
332.35	133.29
332.563	71.85
332.776	139.43
332.989	34.99
333.202	100.52
333.414	55.47
333.627	-10.07
333.84	116.9
334.053	94.38
334.265	57.51
334.478	59.56
334.691	59.56
334.903	45.23
335.116	53.42
335.329	34.99
335.541	61.61
335.754	61.61
335.966	84.14
336.179	69.8
336.392	112.81
336.604	100.52
336.817	102.57
337.029	43.18
337.242	61.61
337.454	84.14
337.667	43.18
337.88	157.86
338.092	77.99
338.305	104.62
338.517	0.17
338.729	84.14
338.942	75.95
339.154	47.27
339.367	45.23
339.579	53.42
339.792	59.56
340.004	88.23
340.217	26.79
340.429	67.75
340.641	59.56
340.854	59.56
341.066	47.27
341.278	53.42
341.491	141.48
341.703	102.57
341.915	98.47
342.128	61.61
342.34	141.48
342.552	94.38
342.764	26.79
342.977	-12.12
343.189	98.47
343.401	32.94
343.613	26.79
343.826	77.99
344.038	32.94
344.25	108.71
344.462	-22.36
344.674	73.9
344.886	24.75
345.099	88.23
345.311	59.56
345.523	51.37
345.735	53.42
345.947	69.8
346.159	39.08
346.371	10.41
346.583	75.95
346.795	108.71
347.007	28.84
347.219	129.19
347.431	59.56
347.643	96.43
347.855	-5.97
348.067	116.9
348.279	59.56
348.491	61.61
348.703	26.79
348.915	51.37
349.127	26.79
349.339	-5.97
349.551	4.27
349.763	63.66
349.975	67.75
350.187	59.56
350.399	57.51
350.61	96.43
350.822	63.66
351.034	61.61
351.246	51.37
351.458	69.8
351.669	100.52
351.881	86.19
352.093	71.85
352.305	84.14
352.517	37.03
352.728	110.76
352.94	55.47
353.152	125.1
353.363	20.65
353.575	86.19
353.787	141.48
353.999	18.6
354.21	112.81
354.422	63.66
354.633	34.99
354.845	43.18
355.057	49.32
355.268	84.14
355.48	67.75
355.692	34.99
355.903	47.27
356.115	43.18
356.326	4.27
356.538	112.81
356.749	121
356.961	84.14
357.172	67.75
357.384	24.75
357.595	96.43
357.807	34.99
358.018	28.84
358.23	104.62
358.441	166.06
358.653	59.56
358.864	86.19
359.075	45.23
359.287	71.85
359.498	149.67
359.709	18.6
359.921	18.6
360.132	75.95
360.344	67.75
360.555	116.9
360.766	43.18
360.977	47.27
361.189	125.1
361.4	73.9
361.611	61.61
361.823	104.62
362.034	71.85
362.245	92.33
362.456	43.18
362.667	143.53
362.879	-30.55
363.09	45.23
363.301	151.72
363.512	26.79
363.723	2.22
363.935	55.47
364.146	90.28
364.357	59.56
364.568	45.23
364.779	6.31
364.99	104.62
365.201	45.23
365.412	157.86
365.623	-5.97
365.834	75.95
366.045	63.66
366.256	75.95
366.467	67.75
366.678	125.1
366.889	-18.26
367.1	45.23
367.311	102.57
367.522	30.89
367.733	43.18
367.944	6.31
368.155	90.28
368.366	112.81
368.577	51.37
368.788	123.05
368.999	-30.55
369.209	77.99
369.42	112.81
369.631	127.14
369.842	96.43
370.053	-12.12
370.264	157.86
370.474	61.61
370.685	51.37
370.896	18.6
371.107	30.89
371.317	108.71
371.528	51.37
371.739	98.47
371.95	77.99
372.16	61.61
372.371	34.99
372.582	88.23
372.792	112.81
373.003	92.33
373.214	84.14
373.424	94.38
373.635	-3.93
373.846	135.34
374.056	75.95
374.267	51.37
374.477	96.43
374.688	43.18
374.898	123.05
375.109	67.75
375.319	82.09
375.53	61.61
375.74	96.43
375.951	20.65
376.161	18.6
376.372	151.72
376.582	108.71
376.793	55.47
377.003	67.75
377.214	118.95
377.424	71.85
377.635	114.86
377.845	18.6
378.055	96.43
378.266	69.8
378.476	24.75
378.686	43.18
378.897	125.1
379.107	86.19
379.317	118.95
379.528	77.99
379.738	112.81
379.948	26.79
380.158	34.99
380.369	88.23
380.579	86.19
380.789	145.58
380.999	51.37
381.21	121
381.42	151.72
381.63	30.89
381.84	61.61
382.05	96.43
382.261	43.18
382.471	100.52
382.681	0.17
382.891	63.66
383.101	125.1
383.311	59.56
383.521	16.55
383.731	141.48
383.941	127.14
384.151	106.67
384.361	26.79
384.571	133.29
384.781	32.94
384.991	141.48
385.201	106.67
385.411	98.47
385.621	67.75
385.831	100.52
386.041	84.14
386.251	100.52
386.461	98.47
386.671	39.08
386.881	157.86
387.091	133.29
387.301	45.23
387.511	4.27
387.72	77.99
387.93	88.23
388.14	37.03
388.35	121
388.56	127.14
388.769	104.62
388.979	30.89
389.189	157.86
389.399	34.99
389.609	88.23
389.818	77.99
390.028	116.9
390.238	106.67
390.447	65.71
390.657	53.42
390.867	71.85
391.076	75.95
391.286	133.29
391.496	108.71
391.705	69.8
391.915	125.1
392.125	37.03
392.334	45.23
392.544	84.14
392.753	77.99
392.963	116.9
393.172	96.43
393.382	37.03
393.591	192.68
393.801	116.9
394.01	141.48
394.22	131.24
394.429	100.52
394.639	22.7
394.848	112.81
395.058	59.56
395.267	92.33
395.477	92.33
395.686	53.42
395.895	98.47
396.105	43.18
396.314	129.19
396.524	102.57
396.733	84.14
396.942	182.44
397.152	47.27
397.361	131.24
397.57	94.38
397.78	108.71
397.989	125.1
398.198	198.82
398.407	92.33
398.617	166.06
398.826	125.1
399.035	108.71
399.244	161.96
399.453	86.19
399.663	153.77
399.872	213.16
400.081	67.75
400.29	100.52
400.499	55.47
400.708	145.58
400.917	96.43
401.127	118.95
401.336	125.1
401.545	143.53
401.754	168.1
401.963	178.34
402.172	121
402.381	149.67
402.59	84.14
402.799	69.8
403.008	145.58
403.217	67.75
403.426	153.77
403.635	112.81
403.844	96.43
404.053	145.58
404.262	121
404.471	151.72
404.68	92.33
404.888	194.73
405.097	92.33
405.306	207.02
405.515	178.34
405.724	125.1
405.933	178.34
406.142	207.02
406.35	176.3
406.559	225.45
406.768	202.92
406.977	260.26
407.185	188.58
407.394	227.5
407.603	235.69
407.812	209.06
408.02	266.41
408.229	225.45
408.438	166.06
408.646	264.36
408.855	235.69
409.064	260.26
409.272	305.32
409.481	305.32
409.69	305.32
409.898	350.37
410.107	268.45
410.315	370.85
410.524	323.75
410.733	393.38
410.941	333.99
411.15	401.57
411.358	368.81
411.567	403.62
411.775	346.28
411.984	452.77
412.192	428.2
412.401	432.29
412.609	526.5
412.818	669.86
413.026	491.68
413.234	485.54
413.443	561.31
413.651	460.96
413.86	657.57
414.068	651.42
414.276	723.1
414.485	526.5
414.693	696.48
414.901	714.91
415.11	743.58
415.318	768.16
415.526	723.1
415.734	837.79
415.943	706.72
416.151	858.27
416.359	837.79
416.567	901.28
416.776	882.85
416.984	927.9
417.192	972.96
417.4	956.57
417.608	987.29
417.817	1151.13
418.025	1095.83
418.233	1231
418.441	981.15
418.649	1091.74
418.857	1220.76
419.065	1333.4
419.273	1142.94
419.481	1280.15
419.689	1501.33
419.897	1544.34
420.105	1597.59
420.313	1613.97
420.521	1722.51
420.729	1699.98
420.937	1626.26
421.145	1730.7
421.353	1781.9
421.561	2001.04
421.769	1986.7
421.977	2123.91
422.185	2044.04
422.393	2123.91
422.601	2205.83
422.809	2230.41
423.017	2271.37
423.224	2437.25
423.432	2461.83
423.64	2537.6
423.848	2742.4
424.056	2689.15
424.263	2805.89
424.471	2879.61
424.679	2949.25
424.887	3018.88
425.094	3055.74
425.302	3129.47
425.51	3217.53
425.718	3328.12
425.925	3405.94
426.133	3510.39
426.341	3696.75
426.548	3942.51
426.756	3780.72
426.964	3928.17
427.171	4182.12
427.379	4196.46
427.586	4245.61
427.794	4511.85
428.001	4694.12
428.209	4976.73
428.417	4714.59
428.624	5113.95
428.832	5220.44
429.039	4984.93
429.247	5085.28
429.454	5560.41
429.662	6064.21
429.869	5638.23
430.076	6080.59
430.284	5836.88
430.491	5869.65
430.699	6420.55
430.906	6477.9
431.114	6359.11
431.321	6645.83
431.528	6801.47
431.736	7278.65
431.943	7628.85
432.15	7376.95
432.358	7458.87
432.565	7931.95
432.772	7665.72
432.979	8015.92
433.187	8441.9
433.394	8515.62
433.601	9013.28
433.808	9187.36
434.016	8945.7
434.223	9236.51
434.43	9938.96
434.637	9742.36
434.844	10244.11
435.052	10330.13
435.259	10594.31
435.466	10407.95
435.673	10307.6
435.88	10924.04
436.087	11773.94
436.294	11513.85
436.501	11177.98
436.708	11483.13
436.915	12001.27
437.122	12322.8
437.329	12507.12
437.537	12830.69
437.743	12849.13
437.95	12922.85
438.157	13756.38
438.364	13785.05
438.571	14039
438.778	13805.53
438.985	15394.75
439.192	14790.6
439.399	15167.43
439.606	14753.74
439.813	15837.11
440.02	16805.8
440.227	16512.94
440.433	16181.17
440.64	16811.95
440.847	16588.72
441.054	16920.49
441.261	18313.11
441.467	18005.91
441.674	18124.69
441.881	19017.61
442.088	18694.03
442.294	18694.03
442.501	19419.01
442.708	19371.91
442.914	20477.81
443.121	21198.7
443.328	20469.62
443.534	22007.64
443.741	21442.4
443.948	21065.58
444.154	22683.47
444.361	22531.92
444.568	22503.25
444.774	22415.19
444.981	22634.32
445.187	23215.94
445.394	24811.31
445.6	24139.58
445.807	26810.13
446.013	25540.39
446.22	25718.56
446.426	27158.28
446.633	26961.68
446.839	27948.8
447.046	26824.47
447.252	28331.77
447.459	28448.5
447.665	28303.1
447.871	29695.72
448.078	30717.65
448.284	29286.12
448.491	30025.44
448.697	31399.63
448.903	31559.37
449.11	31835.84
449.316	31014.61
449.522	31878.85
449.728	32634.55
449.935	33326.77
450.141	33298.09
450.347	33324.72
450.553	32335.55
450.76	32904.88
450.966	34094.75
451.172	33611.43
451.378	34705.05
451.584	33973.92
451.791	34762.39
451.997	34408.09
452.203	35053.2
452.409	35264.14
452.615	34872.98
452.821	33597.1
453.027	33349.29
453.233	35190.42
453.44	33558.19
453.646	33978.02
453.852	34098.85
454.058	34733.72
454.264	33334.96
454.47	34512.54
454.676	33386.16
454.882	34307.74
455.088	31729.35
455.294	31848.13
455.5	32583.35
455.705	32833.21
455.911	31547.08
456.117	30863.06
456.323	30213.85
456.529	28688.12
456.735	30043.87
456.941	29023.98
457.147	28677.88
457.352	28147.45
457.558	27959.04
457.764	27733.76
457.97	27158.28
458.176	26666.77
458.381	26345.24
458.587	25505.57
458.793	25018.16
458.999	23742.27
459.204	25421.61
459.41	24975.15
459.616	23183.18
459.821	23531.33
460.027	23127.88
460.233	22654.8
460.438	21634.91
460.644	21946.2
460.85	20746.09
461.055	20467.57
461.261	20313.97
461.466	18986.89
461.672	18192.28
461.878	19335.04
462.083	18145.17
462.289	18038.68
462.494	17690.52
462.7	16826.28
462.905	16314.29
463.111	17119.14
463.316	17026.98
463.522	16678.83
463.727	16869.29
463.932	16830.38
464.138	16609.2
464.343	16764.84
464.549	16091.06
464.754	16775.08
464.959	16480.18
465.165	16590.77
465.37	15839.16
465.575	15101.89
465.781	15765.43
465.986	15978.42
466.191	15523.77
466.397	15108.04
466.602	14491.6
