Data from USB4F104151__0__14-28-18-273.txt Node

Date: Thu Mar 13 14:28:18 EDT 2025
User: louis
Spectrometer: USB4F10415
Trigger mode: 4
Integration Time (sec): 2.500000E-2
Scans to average: 1
Electric dark correction enabled: true
Nonlinearity correction enabled: false
Boxcar width: 0
XAxis mode: Wavelengths
Number of Pixels in Spectrum: 3648
>>>>>Begin Spectral Data<<<<<
178.204	-96.94
178.424	-96.94
178.644	-96.94
178.864	-166.57
179.084	-119.46
179.304	-37.55
179.524	-10.92
179.744	-2.73
179.964	58.71
180.184	-6.83
180.404	3.41
180.624	17.75
180.844	-43.69
181.064	-29.35
181.283	-15.02
181.503	-0.68
181.723	66.9
181.943	-80.55
182.163	50.52
182.383	-4.78
182.602	5.46
182.822	-6.83
183.042	-6.83
183.262	-35.5
183.482	83.28
183.701	11.61
183.921	27.99
184.141	-19.11
184.361	23.89
184.58	56.66
184.8	-8.87
185.02	-12.97
185.239	-6.83
185.459	75.09
185.679	58.71
185.898	-15.02
186.118	118.1
186.338	36.18
186.557	30.04
186.777	-101.03
186.997	11.61
187.216	93.52
187.436	71
187.655	-31.4
187.875	64.85
188.095	-4.78
188.314	3.41
188.534	46.42
188.753	25.94
188.973	44.37
189.192	75.09
189.412	-6.83
189.631	17.75
189.851	34.13
190.07	58.71
190.29	-17.07
190.509	-27.31
190.729	21.85
190.948	140.63
191.168	128.34
191.387	38.23
191.607	-23.21
191.826	25.94
192.045	19.8
192.265	-17.07
192.484	-12.97
192.704	75.09
192.923	-2.73
193.142	91.48
193.362	48.47
193.581	71
193.8	17.75
194.02	17.75
194.239	3.41
194.458	44.37
194.678	11.61
194.897	17.75
195.116	-6.83
195.335	-68.27
195.555	44.37
195.774	-55.98
195.993	36.18
196.212	-15.02
196.432	9.56
196.651	56.66
196.87	-10.92
197.089	60.76
197.308	48.47
197.528	17.75
197.747	-10.92
197.966	73.04
198.185	85.33
198.404	13.65
198.623	46.42
198.842	21.85
199.062	60.76
199.281	40.28
199.5	71
199.719	58.71
199.938	21.85
200.157	71
200.376	50.52
200.595	23.89
200.814	-39.59
201.033	60.76
201.252	1.37
201.471	36.18
201.69	75.09
201.909	42.32
202.128	-6.83
202.347	-0.68
202.566	21.85
202.785	-47.79
203.004	-27.31
203.223	134.48
203.442	56.66
203.661	21.85
203.879	109.91
204.098	66.9
204.317	42.32
204.536	-0.68
204.755	21.85
204.974	9.56
205.193	58.71
205.411	107.86
205.63	77.14
205.849	75.09
206.068	75.09
206.287	50.52
206.505	27.99
206.724	128.34
206.943	11.61
207.162	-39.59
207.381	17.75
207.599	73.04
207.818	17.75
208.037	25.94
208.255	-39.59
208.474	36.18
208.693	15.7
208.911	-23.21
209.13	91.48
209.349	58.71
209.567	58.71
209.786	87.38
210.005	-2.73
210.223	-4.78
210.442	36.18
210.661	101.72
210.879	25.94
211.098	9.56
211.316	32.08
211.535	75.09
211.753	66.9
211.972	9.56
212.191	-37.55
212.409	-39.59
212.628	44.37
212.846	-111.27
213.065	44.37
213.283	124.24
213.502	25.94
213.72	56.66
213.938	15.7
214.157	17.75
214.375	62.8
214.594	-2.73
214.812	42.32
215.031	3.41
215.249	36.18
215.467	-23.21
215.686	44.37
215.904	64.85
216.122	42.32
216.341	42.32
216.559	62.8
216.778	107.86
216.996	17.75
217.214	50.52
217.432	52.56
217.651	54.61
217.869	-60.07
218.087	75.09
218.306	13.65
218.524	-2.73
218.742	9.56
218.96	83.28
219.179	-39.59
219.397	34.13
219.615	81.24
219.833	34.13
220.051	38.23
220.27	71
220.488	36.18
220.706	52.56
220.924	50.52
221.142	-39.59
221.36	7.51
221.578	58.71
221.796	36.18
222.015	-53.93
222.233	1.37
222.451	85.33
222.669	30.04
222.887	54.61
223.105	62.8
223.323	52.56
223.541	13.65
223.759	-6.83
223.977	68.95
224.195	97.62
224.413	27.99
224.631	52.56
224.849	58.71
225.067	148.82
225.285	-29.35
225.503	25.94
225.721	30.04
225.939	-39.59
226.157	107.86
226.375	109.91
226.592	5.46
226.81	-0.68
227.028	87.38
227.246	136.53
227.464	7.51
227.682	50.52
227.9	50.52
228.117	107.86
228.335	9.56
228.553	3.41
228.771	97.62
228.989	95.57
229.206	56.66
229.424	68.95
229.642	62.8
229.86	-12.97
230.077	38.23
230.295	40.28
230.513	7.51
230.731	66.9
230.948	62.8
231.166	66.9
231.384	87.38
231.601	11.61
231.819	11.61
232.037	3.41
232.254	5.46
232.472	91.48
232.689	9.56
232.907	50.52
233.125	126.29
233.342	38.23
233.56	-37.55
233.777	71
233.995	54.61
234.213	99.67
234.43	79.19
234.648	85.33
234.865	3.41
235.083	79.19
235.3	-6.83
235.518	101.72
235.735	66.9
235.953	5.46
236.17	32.08
236.388	48.47
236.605	66.9
236.822	38.23
237.04	-6.83
237.257	107.86
237.475	-12.97
237.692	21.85
237.909	83.28
238.127	17.75
238.344	42.32
238.562	75.09
238.779	9.56
238.996	-45.74
239.214	71
239.431	9.56
239.648	-4.78
239.865	-12.97
240.083	-19.11
240.3	50.52
240.517	-2.73
240.735	-4.78
240.952	56.66
241.169	95.57
241.386	23.89
241.603	27.99
241.821	13.65
242.038	19.8
242.255	-29.35
242.472	19.8
242.689	46.42
242.907	114
243.124	9.56
243.341	-12.97
243.558	-68.27
243.775	44.37
243.992	19.8
244.209	15.7
244.426	111.96
244.643	25.94
244.86	36.18
245.078	34.13
245.295	-45.74
245.512	-62.12
245.729	40.28
245.946	71
246.163	21.85
246.38	19.8
246.597	52.56
246.814	71
247.031	46.42
247.248	42.32
247.464	46.42
247.681	48.47
247.898	42.32
248.115	58.71
248.332	-15.02
248.549	30.04
248.766	50.52
248.983	66.9
249.2	52.56
249.417	71
249.633	50.52
249.85	21.85
250.067	9.56
250.284	46.42
250.501	83.28
250.717	85.33
250.934	21.85
251.151	11.61
251.368	60.76
251.585	85.33
251.801	75.09
252.018	9.56
252.235	87.38
252.451	27.99
252.668	-4.78
252.885	91.48
253.102	-29.35
253.318	34.13
253.535	9.56
253.752	-31.4
253.968	1.37
254.185	27.99
254.401	85.33
254.618	27.99
254.835	1.37
255.051	124.24
255.268	13.65
255.484	73.04
255.701	25.94
255.917	-6.83
256.134	21.85
256.351	79.19
256.567	27.99
256.784	-47.79
257	-47.79
257.217	52.56
257.433	30.04
257.65	62.8
257.866	52.56
258.082	-41.64
258.299	-6.83
258.515	60.76
258.732	-29.35
258.948	58.71
259.165	3.41
259.381	-12.97
259.597	19.8
259.814	34.13
260.03	128.34
260.246	75.09
260.463	87.38
260.679	99.67
260.895	68.95
261.112	58.71
261.328	93.52
261.544	17.75
261.761	126.29
261.977	17.75
262.193	9.56
262.409	3.41
262.626	99.67
262.842	-17.07
263.058	42.32
263.274	17.75
263.49	27.99
263.707	25.94
263.923	17.75
264.139	-45.74
264.355	68.95
264.571	58.71
264.787	9.56
265.004	58.71
265.22	95.57
265.436	3.41
265.652	17.75
265.868	81.24
266.084	25.94
266.3	-27.31
266.516	5.46
266.732	60.76
266.948	46.42
267.164	71
267.38	54.61
267.596	17.75
267.812	101.72
268.028	64.85
268.244	-31.4
268.46	52.56
268.676	44.37
268.892	40.28
269.108	-29.35
269.324	9.56
269.54	-31.4
269.756	136.53
269.972	5.46
270.188	1.37
270.403	85.33
270.619	-10.92
270.835	99.67
271.051	89.43
271.267	-4.78
271.483	36.18
271.698	-15.02
271.914	13.65
272.13	52.56
272.346	25.94
272.562	23.89
272.777	30.04
272.993	5.46
273.209	34.13
273.425	36.18
273.64	50.52
273.856	95.57
274.072	1.37
274.287	17.75
274.503	40.28
274.719	75.09
274.934	-27.31
275.15	-0.68
275.366	34.13
275.581	25.94
275.797	17.75
276.012	38.23
276.228	5.46
276.444	-15.02
276.659	68.95
276.875	-21.16
277.09	62.8
277.306	56.66
277.521	36.18
277.737	27.99
277.952	73.04
278.168	-15.02
278.383	-37.55
278.599	-8.87
278.814	68.95
279.03	5.46
279.245	71
279.461	36.18
279.676	44.37
279.892	1.37
280.107	27.99
280.322	13.65
280.538	66.9
280.753	-37.55
280.969	66.9
281.184	-10.92
281.399	116.05
281.615	21.85
281.83	52.56
282.045	13.65
282.26	50.52
282.476	107.86
282.691	58.71
282.906	44.37
283.122	66.9
283.337	-12.97
283.552	48.47
283.767	-31.4
283.983	148.82
284.198	1.37
284.413	97.62
284.628	-15.02
284.843	42.32
285.058	85.33
285.274	15.7
285.489	42.32
285.704	114
285.919	9.56
286.134	75.09
286.349	30.04
286.564	58.71
286.779	79.19
286.995	52.56
287.21	-15.02
287.425	79.19
287.64	34.13
287.855	52.56
288.07	17.75
288.285	126.29
288.5	-6.83
288.715	34.13
288.93	-25.26
289.145	-15.02
289.36	62.8
289.575	17.75
289.79	13.65
290.004	-10.92
290.219	75.09
290.434	52.56
290.649	36.18
290.864	-2.73
291.079	58.71
291.294	56.66
291.509	46.42
291.724	58.71
291.938	-10.92
292.153	-6.83
292.368	34.13
292.583	-27.31
292.798	83.28
293.012	91.48
293.227	40.28
293.442	52.56
293.657	83.28
293.871	32.08
294.086	52.56
294.301	148.82
294.516	-8.87
294.73	30.04
294.945	21.85
295.16	38.23
295.374	42.32
295.589	62.8
295.804	27.99
296.018	87.38
296.233	87.38
296.447	34.13
296.662	42.32
296.877	71
297.091	77.14
297.306	19.8
297.52	99.67
297.735	36.18
297.949	75.09
298.164	95.57
298.378	50.52
298.593	5.46
298.807	58.71
299.022	13.65
299.236	105.81
299.451	52.56
299.665	66.9
299.88	77.14
300.094	54.61
300.309	-23.21
300.523	-2.73
300.737	66.9
300.952	15.7
301.166	54.61
301.381	17.75
301.595	36.18
301.809	-43.69
302.024	42.32
302.238	83.28
302.452	-15.02
302.667	27.99
302.881	181.59
303.095	9.56
303.309	64.85
303.524	21.85
303.738	-47.79
303.952	1.37
304.166	30.04
304.381	5.46
304.595	87.38
304.809	-15.02
305.023	97.62
305.237	13.65
305.452	68.95
305.666	11.61
305.88	83.28
306.094	68.95
306.308	27.99
306.522	5.46
306.736	64.85
306.95	34.13
307.164	27.99
307.379	42.32
307.593	109.91
307.807	48.47
308.021	124.24
308.235	54.61
308.449	-17.07
308.663	66.9
308.877	132.44
309.091	46.42
309.305	21.85
309.519	-49.83
309.733	93.52
309.947	54.61
310.161	36.18
310.374	60.76
310.588	85.33
310.802	60.76
311.016	40.28
311.23	17.75
311.444	21.85
311.658	83.28
311.872	97.62
312.085	87.38
312.299	99.67
312.513	95.57
312.727	54.61
312.941	21.85
313.154	19.8
313.368	34.13
313.582	93.52
313.796	23.89
314.009	58.71
314.223	44.37
314.437	93.52
314.651	46.42
314.864	34.13
315.078	85.33
315.292	-21.16
315.505	46.42
315.719	5.46
315.933	9.56
316.146	1.37
316.36	17.75
316.573	62.8
316.787	87.38
317.001	9.56
317.214	34.13
317.428	42.32
317.641	1.37
317.855	44.37
318.068	17.75
318.282	79.19
318.495	157.01
318.709	5.46
318.922	-8.87
319.136	77.14
319.349	114
319.563	58.71
319.776	54.61
319.99	-2.73
320.203	107.86
320.417	81.24
320.63	21.85
320.843	36.18
321.057	56.66
321.27	107.86
321.483	95.57
321.697	116.05
321.91	-15.02
322.124	38.23
322.337	-12.97
322.55	-21.16
322.763	44.37
322.977	46.42
323.19	58.71
323.403	40.28
323.617	44.37
323.83	111.96
324.043	-27.31
324.256	40.28
324.469	-21.16
324.683	77.14
324.896	34.13
325.109	75.09
325.322	19.8
325.535	87.38
325.748	19.8
325.962	32.08
326.175	9.56
326.388	50.52
326.601	60.76
326.814	50.52
327.027	85.33
327.24	34.13
327.453	-72.36
327.666	42.32
327.879	66.9
328.092	-27.31
328.305	101.72
328.518	19.8
328.731	15.7
328.944	85.33
329.157	54.61
329.37	44.37
329.583	124.24
329.796	38.23
330.009	25.94
330.222	109.91
330.435	-23.21
330.648	58.71
330.861	148.82
331.073	140.63
331.286	27.99
331.499	25.94
331.712	15.7
331.925	73.04
332.138	50.52
332.35	128.34
332.563	-15.02
332.776	13.65
332.989	5.46
333.202	62.8
333.414	1.37
333.627	58.71
333.84	52.56
334.053	1.37
334.265	21.85
334.478	5.46
334.691	34.13
334.903	9.56
335.116	27.99
335.329	9.56
335.541	-6.83
335.754	71
335.966	116.05
336.179	66.9
336.392	-62.12
336.604	-29.35
336.817	-8.87
337.029	34.13
337.242	68.95
337.454	-33.45
337.667	50.52
337.88	124.24
338.092	52.56
338.305	52.56
338.517	1.37
338.729	91.48
338.942	103.76
339.154	19.8
339.367	17.75
339.579	130.39
339.792	30.04
340.004	111.96
340.217	34.13
340.429	9.56
340.641	17.75
340.854	52.56
341.066	54.61
341.278	101.72
341.491	152.92
341.703	91.48
341.915	-27.31
342.128	83.28
342.34	46.42
342.552	5.46
342.764	54.61
342.977	68.95
343.189	107.86
343.401	38.23
343.613	101.72
343.826	30.04
344.038	91.48
344.25	148.82
344.462	52.56
344.674	87.38
344.886	52.56
345.099	60.76
345.311	17.75
345.523	50.52
345.735	-86.7
345.947	89.43
346.159	27.99
346.371	42.32
346.583	58.71
346.795	62.8
347.007	1.37
347.219	58.71
347.431	25.94
347.643	-6.83
347.855	-12.97
348.067	116.05
348.279	9.56
348.491	42.32
348.703	101.72
348.915	109.91
349.127	58.71
349.339	3.41
349.551	9.56
349.763	136.53
349.975	-2.73
350.187	17.75
350.399	15.7
350.61	77.14
350.822	30.04
351.034	99.67
351.246	66.9
351.458	152.92
351.669	38.23
351.881	56.66
352.093	21.85
352.305	44.37
352.517	27.99
352.728	21.85
352.94	-15.02
353.152	120.15
353.363	9.56
353.575	107.86
353.787	87.38
353.999	34.13
354.21	79.19
354.422	7.51
354.633	36.18
354.845	81.24
355.057	101.72
355.268	25.94
355.48	-10.92
355.692	38.23
355.903	101.72
356.115	36.18
356.326	1.37
356.538	128.34
356.749	-15.02
356.961	107.86
357.172	-37.55
357.384	13.65
357.595	118.1
357.807	52.56
358.018	56.66
358.23	3.41
358.441	165.2
358.653	126.29
358.864	19.8
359.075	-29.35
359.287	109.91
359.498	99.67
359.709	60.76
359.921	38.23
360.132	42.32
360.344	34.13
360.555	44.37
360.766	42.32
360.977	50.52
361.189	46.42
361.4	34.13
361.611	75.09
361.823	36.18
362.034	83.28
362.245	-12.97
362.456	1.37
362.667	58.71
362.879	83.28
363.09	34.13
363.301	13.65
363.512	154.96
363.723	-23.21
363.935	23.89
364.146	144.72
364.357	48.47
364.568	85.33
364.779	-27.31
364.99	42.32
365.201	21.85
365.412	50.52
365.623	56.66
365.834	42.32
366.045	25.94
366.256	83.28
366.467	66.9
366.678	30.04
366.889	85.33
367.1	66.9
367.311	68.95
367.522	38.23
367.733	85.33
367.944	97.62
368.155	3.41
368.366	60.76
368.577	109.91
368.788	66.9
368.999	19.8
369.209	36.18
369.42	148.82
369.631	95.57
369.842	75.09
370.053	-15.02
370.264	126.29
370.474	25.94
370.685	99.67
370.896	-29.35
371.107	99.67
371.317	93.52
371.528	-15.02
371.739	103.76
371.95	64.85
372.16	36.18
372.371	-76.46
372.582	154.96
372.792	91.48
373.003	148.82
373.214	64.85
373.424	107.86
373.635	42.32
373.846	64.85
374.056	27.99
374.267	107.86
374.477	40.28
374.688	21.85
374.898	30.04
375.109	-4.78
375.319	-4.78
375.53	124.24
375.74	62.8
375.951	50.52
376.161	95.57
376.372	99.67
376.582	25.94
376.793	66.9
377.003	25.94
377.214	87.38
377.424	5.46
377.635	46.42
377.845	52.56
378.055	144.72
378.266	42.32
378.476	52.56
378.686	81.24
378.897	95.57
379.107	50.52
379.317	79.19
379.528	-21.16
379.738	1.37
379.948	11.61
380.158	87.38
380.369	109.91
380.579	107.86
380.789	54.61
380.999	42.32
381.21	13.65
381.42	99.67
381.63	50.52
381.84	105.81
382.05	75.09
382.261	1.37
382.471	60.76
382.681	-12.97
382.891	23.89
383.101	50.52
383.311	54.61
383.521	9.56
383.731	91.48
383.941	87.38
384.151	34.13
384.361	-31.4
384.571	66.9
384.781	93.52
384.991	75.09
385.201	40.28
385.411	75.09
385.621	54.61
385.831	50.52
386.041	-27.31
386.251	75.09
386.461	79.19
386.671	134.48
386.881	13.65
387.091	38.23
387.301	81.24
387.511	21.85
387.72	95.57
387.93	103.76
388.14	54.61
388.35	-17.07
388.56	95.57
388.769	189.78
388.979	83.28
389.189	64.85
389.399	71
389.609	124.24
389.818	167.25
390.028	54.61
390.238	19.8
390.447	54.61
390.657	109.91
390.867	25.94
391.076	58.71
391.286	68.95
391.496	120.15
391.705	3.41
391.915	71
392.125	71
392.334	66.9
392.544	134.48
392.753	128.34
392.963	42.32
393.172	120.15
393.382	30.04
393.591	95.57
393.801	93.52
394.01	148.82
394.22	44.37
394.429	75.09
394.639	71
394.848	150.87
395.058	144.72
395.267	93.52
395.477	122.2
395.686	93.52
395.895	93.52
396.105	230.74
396.314	77.14
396.524	93.52
396.733	159.06
396.942	161.11
397.152	71
397.361	202.07
397.57	134.48
397.78	87.38
397.989	128.34
398.198	210.26
398.407	77.14
398.617	118.1
398.826	122.2
399.035	114
399.244	161.11
399.453	19.8
399.663	157.01
399.872	116.05
400.081	130.39
400.29	159.06
400.499	140.63
400.708	159.06
400.917	128.34
401.127	132.44
401.336	157.01
401.545	179.54
401.754	195.92
401.963	171.35
402.172	128.34
402.381	83.28
402.59	169.3
402.799	89.43
403.008	167.25
403.217	152.92
403.426	93.52
403.635	116.05
403.844	148.82
404.053	95.57
404.262	71
404.471	157.01
404.68	132.44
404.888	200.02
405.097	189.78
405.306	185.68
405.515	181.59
405.724	185.68
405.933	212.31
406.142	218.45
406.35	165.2
406.559	189.78
406.768	200.02
406.977	263.51
407.185	304.46
407.394	263.51
407.603	255.31
407.812	304.46
408.02	263.51
408.229	275.79
408.438	312.66
408.646	320.85
408.855	271.7
409.064	308.56
409.272	269.65
409.481	308.56
409.69	347.47
409.898	390.48
410.107	394.58
410.315	345.42
410.524	341.33
410.733	415.06
410.941	468.3
411.15	447.82
411.358	484.69
411.567	531.79
411.775	470.35
411.984	574.8
412.192	576.84
412.401	546.13
412.609	658.76
412.818	601.42
413.026	578.89
413.234	597.32
413.443	642.38
413.651	695.63
413.86	689.48
414.068	757.07
414.276	724.3
414.485	681.29
414.693	841.03
414.901	853.32
415.11	828.74
415.318	779.59
415.526	904.52
415.734	886.09
415.943	955.72
416.151	1056.07
416.359	1027.4
416.567	1084.74
416.776	1135.94
416.984	1269.06
417.192	1228.1
417.4	1207.62
417.608	1312.07
417.817	1254.72
418.025	1371.46
418.233	1451.33
418.441	1400.13
418.649	1434.94
418.857	1582.4
419.065	1647.93
419.273	1576.25
419.481	1690.94
419.689	1770.81
419.897	1811.77
420.105	1869.11
420.313	1944.89
420.521	1908.02
420.729	2039.09
420.937	2069.81
421.145	2164.02
421.353	2229.56
421.561	2395.44
421.769	2436.4
421.977	2604.33
422.185	2571.57
422.393	2622.77
422.601	2755.88
422.809	2862.38
423.017	2845.99
423.224	2901.29
423.432	3069.22
423.64	3081.51
423.848	3360.03
424.056	3282.21
424.263	3573.02
424.471	3667.23
424.679	3470.62
424.887	3771.68
425.094	3970.33
425.302	3843.35
425.51	3974.42
425.718	4191.51
425.925	4195.61
426.133	4312.34
426.341	4637.97
426.548	4717.84
426.756	4738.32
426.964	4908.3
427.171	5170.44
427.379	5123.34
427.586	5352.71
427.794	5596.42
428.001	5844.22
428.209	5997.82
428.417	5786.88
428.624	6360.31
428.832	6354.16
429.039	6202.61
429.247	6300.92
429.454	6763.76
429.662	7359.72
429.869	6831.34
430.076	7431.4
430.284	7259.37
430.491	7390.44
430.699	7869.66
430.906	7759.07
431.114	8090.84
431.321	8183
431.528	8332.5
431.736	8613.07
431.943	9288.9
432.15	9186.51
432.358	9172.17
432.565	9684.16
432.772	9667.78
432.979	10185.91
433.187	10577.08
433.394	10202.3
433.601	11173.03
433.808	10970.29
434.016	11093.16
434.223	11551.91
434.43	12207.26
434.637	11865.25
434.844	12651.67
435.052	12758.16
435.259	12782.74
435.466	12924.05
435.673	12741.78
435.88	13663.36
436.087	14333.05
436.294	14240.89
436.501	14103.68
436.708	14218.36
436.915	14785.65
437.122	15529.06
437.329	15129.71
437.537	15983.71
437.743	15969.38
437.95	15989.86
438.157	16843.86
438.364	17187.92
438.571	17269.84
438.778	17396.81
438.985	19121.2
439.192	18248.77
439.399	18885.69
439.606	18381.88
439.813	19635.24
440.02	20681.75
440.227	20282.4
440.433	19840.04
440.64	20747.29
440.847	20640.79
441.054	20911.13
441.261	22422.53
441.467	21832.71
441.674	22825.98
441.881	23340.02
442.088	23301.11
442.294	23241.71
442.501	23878.63
442.708	24136.68
442.914	25078.74
443.121	26338.24
443.328	25238.48
443.534	27550.64
443.741	26565.57
443.948	25846.73
444.154	27837.36
444.361	27935.66
444.568	27906.99
444.774	27810.73
444.981	28136.36
445.187	29307.8
445.394	30495.62
445.6	29901.71
445.807	32787.3
446.013	31202.17
446.22	31869.81
446.426	33168.22
446.633	33297.24
446.839	34466.63
447.046	33043.29
447.252	35140.41
447.459	34892.61
447.665	35121.98
447.871	36268.84
448.078	37667.61
448.284	36240.17
448.491	37333.79
448.697	38503.18
448.903	39305.98
449.11	39365.37
449.316	38662.92
449.522	39473.92
449.728	40712.94
449.935	40682.22
450.141	40626.92
450.347	41505.5
450.553	40352.49
450.76	40985.32
450.966	42244.82
451.172	42179.28
451.378	42961.61
451.584	42052.31
451.791	42900.17
451.997	42928.84
452.203	43442.88
452.409	43358.91
452.615	43012.81
452.821	41605.85
453.027	41251.55
453.233	43348.67
453.44	41919.19
453.646	42117.84
453.852	42500.81
454.058	43152.07
454.264	42228.43
454.47	42480.33
454.676	41351.9
454.882	42769.1
455.088	39074.56
455.294	39901.94
455.5	40809.19
455.705	40801
455.911	39189.25
456.117	38499.08
456.323	38058.77
456.529	36053.81
456.735	37759.77
456.941	36340.52
457.147	36084.53
457.352	34988.86
457.558	34304.84
457.764	34642.76
457.97	33848.14
458.176	33469.27
458.381	33172.32
458.587	31654.77
458.793	31628.15
458.999	30176.14
459.204	31914.86
459.41	30942.08
459.616	29217.69
459.821	29234.07
460.027	28992.41
460.233	28523.43
460.438	27245.49
460.644	27607.98
460.85	26168.26
461.055	25668.56
461.261	25545.68
461.466	23757.8
461.672	23024.63
461.878	24505.31
462.083	23069.69
462.289	22813.69
462.494	22592.51
462.7	21486.61
462.905	20849.69
463.111	21517.32
463.316	21427.21
463.522	21093.4
463.727	21314.58
463.932	21023.76
464.138	20861.97
464.343	21042.2
464.549	20587.55
464.754	21079.06
464.959	20661.27
465.165	20593.69
465.37	19774.5
465.575	19416.11
465.781	20243.49
465.986	20112.42
466.191	19287.09
466.397	18943.03
466.602	17982.53
466.807	18637.88
467.012	18736.18
467.218	18613.31
467.423	18330.69
467.628	18537.53
