Data from USB4F104151__267__14-34-35-679.txt Node

Date: Thu Mar 13 14:34:35 EDT 2025
User: louis
Spectrometer: USB4F10415
Trigger mode: 4
Integration Time (sec): 2.500000E-2
Scans to average: 1
Electric dark correction enabled: true
Nonlinearity correction enabled: false
Boxcar width: 0
XAxis mode: Wavelengths
Number of Pixels in Spectrum: 3648
>>>>>Begin Spectral Data<<<<<
178.204	-162.47
178.424	-162.47
178.644	-162.47
178.864	-88.75
179.084	-109.22
179.304	-27.31
179.524	-80.55
179.744	-10.92
179.964	17.75
180.184	13.65
180.404	40.28
180.624	-70.31
180.844	11.61
181.064	-37.55
181.283	34.13
181.503	-4.78
181.723	114
181.943	-51.88
182.163	73.04
182.383	136.53
182.602	58.71
182.822	54.61
183.042	68.95
183.262	17.75
183.482	11.61
183.701	-12.97
183.921	-6.83
184.141	-4.78
184.361	68.95
184.58	83.28
184.8	-31.4
185.02	19.8
185.239	36.18
185.459	-86.7
185.679	27.99
185.898	13.65
186.118	46.42
186.338	-27.31
186.557	-27.31
186.777	95.57
186.997	7.51
187.216	25.94
187.436	83.28
187.655	-23.21
187.875	30.04
188.095	19.8
188.314	91.48
188.534	71
188.753	11.61
188.973	54.61
189.192	91.48
189.412	75.09
189.631	5.46
189.851	21.85
190.07	54.61
190.29	-39.59
190.509	38.23
190.729	-29.35
190.948	13.65
191.168	175.44
191.387	93.52
191.607	-2.73
191.826	58.71
192.045	-55.98
192.265	-23.21
192.484	58.71
192.704	19.8
192.923	54.61
193.142	165.2
193.362	7.51
193.581	46.42
193.8	75.09
194.02	36.18
194.239	58.71
194.458	87.38
194.678	-39.59
194.897	-12.97
195.116	-39.59
195.335	-6.83
195.555	34.13
195.774	9.56
195.993	75.09
196.212	-6.83
196.432	50.52
196.651	58.71
196.87	1.37
197.089	140.63
197.308	-12.97
197.528	3.41
197.747	19.8
197.966	66.9
198.185	71
198.404	-15.02
198.623	157.01
198.842	109.91
199.062	5.46
199.281	11.61
199.5	42.32
199.719	68.95
199.938	103.76
200.157	97.62
200.376	5.46
200.595	107.86
200.814	79.19
201.033	-17.07
201.252	-62.12
201.471	30.04
201.69	-47.79
201.909	27.99
202.128	-10.92
202.347	-39.59
202.566	25.94
202.785	11.61
203.004	-25.26
203.223	50.52
203.442	58.71
203.661	-2.73
203.879	-39.59
204.098	91.48
204.317	5.46
204.536	128.34
204.755	34.13
204.974	-53.93
205.193	71
205.411	50.52
205.63	52.56
205.849	25.94
206.068	44.37
206.287	44.37
206.505	38.23
206.724	9.56
206.943	40.28
207.162	71
207.381	68.95
207.599	-43.69
207.818	21.85
208.037	95.57
208.255	13.65
208.474	9.56
208.693	46.42
208.911	60.76
209.13	68.95
209.349	101.72
209.567	99.67
209.786	30.04
210.005	17.75
210.223	17.75
210.442	13.65
210.661	99.67
210.879	-2.73
211.098	97.62
211.316	19.8
211.535	38.23
211.753	-8.87
211.972	91.48
212.191	-37.55
212.409	-6.83
212.628	25.94
212.846	21.85
213.065	30.04
213.283	93.52
213.502	-23.21
213.72	52.56
213.938	79.19
214.157	60.76
214.375	19.8
214.594	-49.83
214.812	58.71
215.031	40.28
215.249	-6.83
215.467	9.56
215.686	58.71
215.904	83.28
216.122	1.37
216.341	54.61
216.559	93.52
216.778	36.18
216.996	60.76
217.214	30.04
217.432	-23.21
217.651	-0.68
217.869	95.57
218.087	58.71
218.306	36.18
218.524	1.37
218.742	-35.5
218.96	85.33
219.179	62.8
219.397	-45.74
219.615	87.38
219.833	148.82
220.051	-6.83
220.27	44.37
220.488	3.41
220.706	93.52
220.924	25.94
221.142	30.04
221.36	-45.74
221.578	34.13
221.796	50.52
222.015	30.04
222.233	30.04
222.451	71
222.669	1.37
222.887	42.32
223.105	25.94
223.323	-33.45
223.541	-2.73
223.759	91.48
223.977	56.66
224.195	87.38
224.413	54.61
224.631	68.95
224.849	34.13
225.067	77.14
225.285	52.56
225.503	1.37
225.721	-10.92
225.939	32.08
226.157	19.8
226.375	132.44
226.592	118.1
226.81	66.9
227.028	-39.59
227.246	62.8
227.464	42.32
227.682	60.76
227.9	101.72
228.117	1.37
228.335	-6.83
228.553	17.75
228.771	-6.83
228.989	17.75
229.206	17.75
229.424	60.76
229.642	-27.31
229.86	21.85
230.077	56.66
230.295	3.41
230.513	64.85
230.731	-21.16
230.948	3.41
231.166	116.05
231.384	-27.31
231.601	38.23
231.819	34.13
232.037	13.65
232.254	-27.31
232.472	9.56
232.689	-19.11
232.907	42.32
233.125	93.52
233.342	-35.5
233.56	-29.35
233.777	36.18
233.995	-2.73
234.213	68.95
234.43	21.85
234.648	42.32
234.865	-0.68
235.083	85.33
235.3	50.52
235.518	-27.31
235.735	58.71
235.953	144.72
236.17	62.8
236.388	11.61
236.605	11.61
236.822	93.52
237.04	23.89
237.257	-43.69
237.475	-23.21
237.692	19.8
237.909	17.75
238.127	7.51
238.344	21.85
238.562	54.61
238.779	-12.97
238.996	32.08
239.214	-12.97
239.431	107.86
239.648	-12.97
239.865	17.75
240.083	7.51
240.3	-12.97
240.517	-39.59
240.735	25.94
240.952	52.56
241.169	93.52
241.386	93.52
241.603	-6.83
241.821	-6.83
242.038	60.76
242.255	66.9
242.472	17.75
242.689	124.24
242.907	40.28
243.124	42.32
243.341	56.66
243.558	-86.7
243.775	-6.83
243.992	-111.27
244.209	5.46
244.426	89.43
244.643	95.57
244.86	34.13
245.078	68.95
245.295	27.99
245.512	17.75
245.729	-8.87
245.946	91.48
246.163	52.56
246.38	25.94
246.597	44.37
246.814	-4.78
247.031	-70.31
247.248	21.85
247.464	11.61
247.681	68.95
247.898	83.28
248.115	32.08
248.332	-2.73
248.549	83.28
248.766	17.75
248.983	71
249.2	17.75
249.417	-6.83
249.633	-4.78
249.85	60.76
250.067	42.32
250.284	3.41
250.501	60.76
250.717	42.32
250.934	19.8
251.151	-4.78
251.368	25.94
251.585	191.83
251.801	60.76
252.018	5.46
252.235	19.8
252.451	-35.5
252.668	1.37
252.885	116.05
253.102	58.71
253.318	50.52
253.535	25.94
253.752	68.95
253.968	1.37
254.185	-29.35
254.401	40.28
254.618	32.08
254.835	23.89
255.051	56.66
255.268	50.52
255.484	38.23
255.701	1.37
255.917	50.52
256.134	19.8
256.351	-4.78
256.567	58.71
256.784	-21.16
257	58.71
257.217	44.37
257.433	87.38
257.65	56.66
257.866	87.38
258.082	-19.11
258.299	1.37
258.515	34.13
258.732	87.38
258.948	9.56
259.165	132.44
259.381	25.94
259.597	83.28
259.814	58.71
260.03	66.9
260.246	25.94
260.463	-2.73
260.679	126.29
260.895	48.47
261.112	46.42
261.328	77.14
261.544	124.24
261.761	144.72
261.977	44.37
262.193	44.37
262.409	25.94
262.626	13.65
262.842	52.56
263.058	46.42
263.274	50.52
263.49	13.65
263.707	17.75
263.923	66.9
264.139	-113.32
264.355	3.41
264.571	83.28
264.787	-35.5
265.004	107.86
265.22	3.41
265.436	-31.4
265.652	54.61
265.868	71
266.084	17.75
266.3	25.94
266.516	-23.21
266.732	17.75
266.948	83.28
267.164	46.42
267.38	103.76
267.596	-6.83
267.812	11.61
268.028	-2.73
268.244	-15.02
268.46	66.9
268.676	81.24
268.892	34.13
269.108	-6.83
269.324	-37.55
269.54	79.19
269.756	62.8
269.972	-2.73
270.188	42.32
270.403	58.71
270.619	87.38
270.835	17.75
271.051	5.46
271.267	9.56
271.483	5.46
271.698	62.8
271.914	-12.97
272.13	15.7
272.346	32.08
272.562	118.1
272.777	71
272.993	38.23
273.209	-84.65
273.425	-29.35
273.64	19.8
273.856	25.94
274.072	-47.79
274.287	-53.93
274.503	11.61
274.719	-19.11
274.934	3.41
275.15	19.8
275.366	75.09
275.581	-39.59
275.797	34.13
276.012	-15.02
276.228	-4.78
276.444	5.46
276.659	103.76
276.875	21.85
277.09	50.52
277.306	1.37
277.521	-15.02
277.737	25.94
277.952	3.41
278.168	11.61
278.383	34.13
278.599	66.9
278.814	99.67
279.03	83.28
279.245	142.68
279.461	25.94
279.676	58.71
279.892	-23.21
280.107	-10.92
280.322	-6.83
280.538	83.28
280.753	46.42
280.969	99.67
281.184	58.71
281.399	34.13
281.615	-6.83
281.83	-41.64
282.045	27.99
282.26	44.37
282.476	60.76
282.691	25.94
282.906	21.85
283.122	56.66
283.337	19.8
283.552	38.23
283.767	-6.83
283.983	17.75
284.198	-58.03
284.413	75.09
284.628	-19.11
284.843	58.71
285.058	73.04
285.274	9.56
285.489	60.76
285.704	34.13
285.919	-21.16
286.134	52.56
286.349	97.62
286.564	23.89
286.779	91.48
286.995	-64.17
287.21	-15.02
287.425	66.9
287.64	-45.74
287.855	64.85
288.07	30.04
288.285	38.23
288.5	99.67
288.715	42.32
288.93	62.8
289.145	-6.83
289.36	83.28
289.575	19.8
289.79	75.09
290.004	52.56
290.219	-10.92
290.434	116.05
290.649	-109.22
290.864	50.52
291.079	68.95
291.294	46.42
291.509	62.8
291.724	9.56
291.938	66.9
292.153	66.9
292.368	-15.02
292.583	50.52
292.798	95.57
293.012	85.33
293.227	34.13
293.442	54.61
293.657	34.13
293.871	62.8
294.086	52.56
294.301	42.32
294.516	58.71
294.73	9.56
294.945	-37.55
295.16	71
295.374	42.32
295.589	79.19
295.804	27.99
296.018	5.46
296.233	60.76
296.447	107.86
296.662	-10.92
296.877	-29.35
297.091	77.14
297.306	9.56
297.52	-12.97
297.735	13.65
297.949	101.72
298.164	11.61
298.378	42.32
298.593	50.52
298.807	11.61
299.022	23.89
299.236	91.48
299.451	93.52
299.665	-10.92
299.88	17.75
300.094	-31.4
300.309	13.65
300.523	34.13
300.737	-23.21
300.952	66.9
301.166	-10.92
301.381	-45.74
301.595	46.42
301.809	83.28
302.024	7.51
302.238	-15.02
302.452	62.8
302.667	9.56
302.881	75.09
303.095	87.38
303.309	50.52
303.524	-45.74
303.738	42.32
303.952	5.46
304.166	21.85
304.381	9.56
304.595	95.57
304.809	-37.55
305.023	93.52
305.237	83.28
305.452	32.08
305.666	36.18
305.88	34.13
306.094	42.32
306.308	93.52
306.522	83.28
306.736	17.75
306.95	19.8
307.164	-17.07
307.379	60.76
307.593	83.28
307.807	71
308.021	62.8
308.235	-39.59
308.449	3.41
308.663	-15.02
308.877	126.29
309.091	38.23
309.305	77.14
309.519	13.65
309.733	95.57
309.947	-23.21
310.161	68.95
310.374	54.61
310.588	120.15
310.802	17.75
311.016	9.56
311.23	109.91
311.444	-4.78
311.658	9.56
311.872	27.99
312.085	101.72
312.299	42.32
312.513	75.09
312.727	1.37
312.941	1.37
313.154	91.48
313.368	48.47
313.582	60.76
313.796	34.13
314.009	1.37
314.223	60.76
314.437	71
314.651	-19.11
314.864	17.75
315.078	50.52
315.292	-12.97
315.505	27.99
315.719	52.56
315.933	25.94
316.146	77.14
316.36	-31.4
316.573	56.66
316.787	3.41
317.001	3.41
317.214	83.28
317.428	30.04
317.641	-21.16
317.855	19.8
318.068	-12.97
318.282	-15.02
318.495	62.8
318.709	30.04
318.922	-4.78
319.136	132.44
319.349	5.46
319.563	-23.21
319.776	-31.4
319.99	5.46
320.203	13.65
320.417	34.13
320.63	30.04
320.843	134.48
321.057	83.28
321.27	62.8
321.483	38.23
321.697	87.38
321.91	-27.31
322.124	-23.21
322.337	17.75
322.55	34.13
322.763	50.52
322.977	75.09
323.19	25.94
323.403	38.23
323.617	75.09
323.83	27.99
324.043	44.37
324.256	109.91
324.469	11.61
324.683	101.72
324.896	58.71
325.109	87.38
325.322	-27.31
325.535	85.33
325.748	34.13
325.962	17.75
326.175	11.61
326.388	48.47
326.601	13.65
326.814	-45.74
327.027	17.75
327.24	120.15
327.453	-62.12
327.666	48.47
327.879	103.76
328.092	46.42
328.305	-23.21
328.518	-2.73
328.731	25.94
328.944	46.42
329.157	19.8
329.37	13.65
329.583	122.2
329.796	140.63
330.009	-27.31
330.222	25.94
330.435	138.58
330.648	60.76
330.861	93.52
331.073	68.95
331.286	38.23
331.499	58.71
331.712	19.8
331.925	-60.07
332.138	-0.68
332.35	83.28
332.563	-21.16
332.776	-15.02
332.989	1.37
333.202	21.85
333.414	75.09
333.627	30.04
333.84	66.9
334.053	34.13
334.265	95.57
334.478	1.37
334.691	44.37
334.903	-37.55
335.116	-12.97
335.329	19.8
335.541	97.62
335.754	77.14
335.966	17.75
336.179	38.23
336.392	11.61
336.604	-35.5
336.817	34.13
337.029	34.13
337.242	58.71
337.454	-15.02
337.667	-19.11
337.88	34.13
338.092	25.94
338.305	124.24
338.517	-31.4
338.729	34.13
338.942	83.28
339.154	56.66
339.367	1.37
339.579	83.28
339.792	-8.87
340.004	66.9
340.217	5.46
340.429	3.41
340.641	54.61
340.854	77.14
341.066	-0.68
341.278	-21.16
341.491	38.23
341.703	7.51
341.915	60.76
342.128	25.94
342.34	-31.4
342.552	34.13
342.764	-4.78
342.977	71
343.189	-6.83
343.401	44.37
343.613	-17.07
343.826	87.38
344.038	48.47
344.25	5.46
344.462	-68.27
344.674	36.18
344.886	-21.16
345.099	73.04
345.311	60.76
345.523	25.94
345.735	7.51
345.947	34.13
346.159	27.99
346.371	25.94
346.583	11.61
346.795	75.09
347.007	75.09
347.219	54.61
347.431	52.56
347.643	52.56
347.855	-23.21
348.067	77.14
348.279	-0.68
348.491	42.32
348.703	46.42
348.915	107.86
349.127	1.37
349.339	42.32
349.551	-23.21
349.763	36.18
349.975	60.76
350.187	66.9
350.399	134.48
350.61	13.65
350.822	25.94
351.034	118.1
351.246	93.52
351.458	21.85
351.669	77.14
351.881	91.48
352.093	109.91
352.305	27.99
352.517	52.56
352.728	30.04
352.94	68.95
353.152	9.56
353.363	-39.59
353.575	32.08
353.787	89.43
353.999	21.85
354.21	107.86
354.422	-60.07
354.633	15.7
354.845	38.23
355.057	75.09
355.268	-29.35
355.48	25.94
355.692	11.61
355.903	27.99
356.115	25.94
356.326	-6.83
356.538	3.41
356.749	83.28
356.961	79.19
357.172	25.94
357.384	-43.69
357.595	46.42
357.807	-23.21
358.018	42.32
358.23	99.67
358.441	95.57
358.653	-0.68
358.864	25.94
359.075	87.38
359.287	30.04
359.498	50.52
359.709	85.33
359.921	48.47
360.132	75.09
360.344	107.86
360.555	1.37
360.766	38.23
360.977	7.51
361.189	58.71
361.4	25.94
361.611	79.19
361.823	58.71
362.034	40.28
362.245	21.85
362.456	66.9
362.667	40.28
362.879	-41.64
363.09	66.9
363.301	144.72
363.512	36.18
363.723	42.32
363.935	1.37
364.146	91.48
364.357	7.51
364.568	107.86
364.779	21.85
364.99	87.38
365.201	-21.16
365.412	116.05
365.623	36.18
365.834	-21.16
366.045	-0.68
366.256	52.56
366.467	52.56
366.678	34.13
366.889	-27.31
367.1	-31.4
367.311	66.9
367.522	42.32
367.733	42.32
367.944	-2.73
368.155	34.13
368.366	30.04
368.577	13.65
368.788	32.08
368.999	27.99
369.209	77.14
369.42	107.86
369.631	140.63
369.842	25.94
370.053	13.65
370.264	126.29
370.474	-17.07
370.685	103.76
370.896	85.33
371.107	66.9
371.317	71
371.528	-2.73
371.739	9.56
371.95	42.32
372.16	116.05
372.371	-39.59
372.582	50.52
372.792	101.72
373.003	83.28
373.214	-2.73
373.424	132.44
373.635	46.42
373.846	58.71
374.056	75.09
374.267	79.19
374.477	130.39
374.688	11.61
374.898	-4.78
375.109	-31.4
375.319	17.75
375.53	34.13
375.74	52.56
375.951	-4.78
376.161	19.8
376.372	48.47
376.582	11.61
376.793	-2.73
377.003	-27.31
377.214	75.09
377.424	-39.59
377.635	17.75
377.845	60.76
378.055	130.39
378.266	46.42
378.476	13.65
378.686	5.46
378.897	25.94
379.107	64.85
379.317	99.67
379.528	50.52
379.738	103.76
379.948	27.99
380.158	38.23
380.369	77.14
380.579	42.32
380.789	13.65
380.999	52.56
381.21	46.42
381.42	144.72
381.63	-15.02
381.84	54.61
382.05	87.38
382.261	109.91
382.471	111.96
382.681	62.8
382.891	23.89
383.101	60.76
383.311	11.61
383.521	34.13
383.731	75.09
383.941	52.56
384.151	27.99
384.361	-2.73
384.571	1.37
384.781	42.32
384.991	68.95
385.201	87.38
385.411	85.33
385.621	11.61
385.831	30.04
386.041	75.09
386.251	1.37
386.461	58.71
386.671	-6.83
386.881	34.13
387.091	30.04
387.301	79.19
387.511	11.61
387.72	34.13
387.93	19.8
388.14	79.19
388.35	54.61
388.56	34.13
388.769	1.37
388.979	-6.83
389.189	50.52
389.399	111.96
389.609	93.52
389.818	107.86
390.028	83.28
390.238	38.23
390.447	27.99
390.657	87.38
390.867	25.94
391.076	19.8
391.286	1.37
391.496	66.9
391.705	1.37
391.915	99.67
392.125	91.48
392.334	71
392.544	136.53
392.753	9.56
392.963	58.71
393.172	-23.21
393.382	46.42
393.591	159.06
393.801	60.76
394.01	134.48
394.22	150.87
394.429	42.32
394.639	64.85
394.848	91.48
395.058	27.99
395.267	25.94
395.477	105.81
395.686	122.2
395.895	122.2
396.105	173.39
396.314	71
396.524	34.13
396.733	83.28
396.942	91.48
397.152	75.09
397.361	169.3
397.57	68.95
397.78	52.56
397.989	101.72
398.198	66.9
398.407	132.44
398.617	124.24
398.826	13.65
399.035	50.52
399.244	93.52
399.453	52.56
399.663	73.04
399.872	44.37
400.081	103.76
400.29	165.2
400.499	99.67
400.708	183.63
400.917	91.48
401.127	62.8
401.336	124.24
401.545	83.28
401.754	111.96
401.963	89.43
402.172	71
402.381	146.77
402.59	128.34
402.799	71
403.008	107.86
403.217	159.06
403.426	66.9
403.635	87.38
403.844	124.24
404.053	109.91
404.262	128.34
404.471	165.2
404.68	91.48
404.888	181.59
405.097	126.29
405.306	101.72
405.515	136.53
405.724	122.2
405.933	81.24
406.142	136.53
406.35	218.45
406.559	116.05
406.768	132.44
406.977	157.01
407.185	185.68
407.394	165.2
407.603	150.87
407.812	216.4
408.02	195.92
408.229	271.7
408.438	263.51
408.646	161.11
408.855	224.59
409.064	232.79
409.272	220.5
409.481	249.17
409.69	208.21
409.898	247.12
410.107	236.88
410.315	304.46
410.524	197.97
410.733	374.1
410.941	329.04
411.15	374.1
411.358	357.71
411.567	388.43
411.775	339.28
411.984	437.58
412.192	363.86
412.401	398.67
412.609	480.59
412.818	468.3
413.026	443.73
413.234	554.32
413.443	488.78
413.651	431.44
413.86	410.96
414.068	503.12
414.276	478.54
414.485	568.65
414.693	558.41
414.901	638.28
415.11	591.18
415.318	630.09
415.526	611.66
415.734	623.95
415.943	724.3
416.151	742.73
416.359	722.25
416.567	752.97
416.776	752.97
416.984	906.57
417.192	902.47
417.4	873.8
417.608	849.22
417.817	824.65
418.025	920.9
418.233	1011.01
418.441	992.58
418.649	1058.12
418.857	1074.5
419.065	1181
419.273	1074.5
419.481	1205.57
419.689	1230.15
419.897	1295.68
420.105	1283.39
420.313	1377.6
420.521	1508.67
420.729	1445.18
420.937	1385.79
421.145	1561.92
421.353	1559.87
421.561	1707.32
421.769	1729.85
421.977	1867.06
422.185	1787.19
422.393	1897.78
422.601	1963.32
422.809	1975.61
423.017	2024.76
423.224	2161.97
423.432	2268.47
423.64	2207.03
423.848	2327.86
424.056	2254.13
424.263	2538.8
424.471	2616.62
424.679	2596.14
424.887	2645.29
425.094	2780.46
425.302	2819.37
425.51	2929.96
425.718	2977.06
425.925	2925.86
426.133	3024.17
426.341	3327.27
426.548	3427.62
426.756	3351.84
426.964	3261.73
427.171	3626.27
427.379	3738.91
427.586	3753.24
427.794	3855.64
428.001	4074.78
428.209	4293.91
428.417	4199.7
428.624	4422.93
428.832	4435.22
429.039	4343.06
429.247	4424.98
429.454	4699.41
429.662	5203.21
429.869	4834.57
430.076	5162.25
430.284	5092.62
430.491	5256.45
430.699	5588.22
430.906	5575.94
431.114	5700.86
431.321	5940.47
431.528	5948.67
431.736	6212.85
431.943	6610.16
432.15	6395.12
432.358	6450.42
432.565	6872.3
432.772	6915.31
432.979	7089.39
433.187	7087.34
433.394	7277.8
433.601	7890.14
433.808	7857.37
434.016	7853.28
434.223	8053.98
434.43	8488.15
434.637	8363.22
434.844	9143.5
435.052	9008.33
435.259	8987.85
435.466	9028.81
435.673	9090.25
435.88	9383.11
436.087	10142.91
436.294	10112.19
436.501	9704.64
436.708	9974.97
436.915	10482.87
437.122	10677.43
437.329	10724.53
437.537	11095.21
437.743	11355.3
437.95	11152.56
438.157	11855.01
438.364	12315.8
438.571	12211.35
438.778	12158.11
438.985	13210.76
439.192	12774.55
439.399	13327.5
439.606	12774.55
439.813	13917.31
440.02	14584.95
440.227	14152.83
440.433	14328.95
440.64	14648.44
440.847	14441.59
441.054	15146.09
441.261	15828.07
441.467	15514.73
441.674	15643.75
441.881	16335.96
442.088	16340.06
442.294	16174.17
442.501	16563.29
442.708	16878.68
442.914	17609.8
443.121	18152.51
443.328	17880.13
443.534	19141.68
443.741	18730.04
443.948	18279.49
444.154	19885.09
444.361	19655.72
444.568	19561.51
444.774	19784.74
444.981	19952.68
445.187	20352.03
445.394	21140.5
445.6	21081.11
445.807	23004.15
446.013	21885.96
446.22	22561.79
446.426	23225.33
446.633	23546.86
446.839	24296.42
447.046	23401.46
447.252	24460.26
447.459	24609.76
447.665	24611.81
447.871	25865.16
448.078	26717.12
448.284	25430.99
448.491	26170.31
448.697	27128.76
448.903	27493.3
449.11	27579.31
449.316	27360.18
449.522	27704.24
449.728	28646.3
449.935	28773.28
450.141	28971.93
450.347	29701.01
450.553	28396.45
450.76	29053.85
450.966	29631.38
451.172	29590.42
451.378	30477.19
451.584	29688.72
451.791	30360.45
451.997	30278.54
452.203	30595.97
452.409	30821.25
452.615	30694.27
452.821	29250.46
453.027	29016.99
453.233	30944.13
453.44	29449.11
453.646	29868.94
453.852	29963.15
454.058	30198.66
454.264	29457.3
454.47	30018.44
454.676	29475.73
454.882	30153.61
455.088	27661.23
455.294	27937.71
455.5	28564.39
455.705	28918.68
455.911	27689.9
456.117	27034.55
456.323	26696.64
456.529	25136.09
456.735	26584
456.941	25461.71
457.147	25297.88
457.352	24163.3
457.558	24341.47
457.764	24386.53
457.97	23669.74
458.176	23415.79
458.381	23274.48
458.587	22184.96
458.793	21996.55
458.999	20780.06
459.204	22260.74
459.41	21617.68
459.616	20509.72
459.821	20100.13
460.027	20237.34
460.233	19813.42
460.438	18893.88
460.644	19135.54
460.85	18156.61
461.055	17873.99
461.261	17314.89
461.466	16421.98
461.672	15928.42
461.878	17001.55
462.083	15957.09
462.289	15621.22
462.494	15418.47
462.7	14767.22
462.905	14058.62
463.111	14791.8
463.316	14804.08
463.522	14437.5
463.727	14427.26
463.932	14677.11
464.138	14320.76
464.343	14384.25
464.549	13882.5
464.754	14449.78
464.959	14324.86
465.165	13995.14
465.37	13550.73
465.575	13198.48
465.781	13479.05
465.986	13882.5
466.191	13245.58
466.397	13053.07
466.602	12334.23
466.807	12878.99
467.012	12817.55
467.218	12555.41
467.423	12428.44
467.628	12395.67
467.833	13169.8
468.038	12473.49
