Data from USB4F104151__42__14-29-49-410.txt Node

Date: Thu Mar 13 14:29:49 EDT 2025
User: louis
Spectrometer: USB4F10415
Trigger mode: 4
Integration Time (sec): 2.500000E-2
Scans to average: 1
Electric dark correction enabled: true
Nonlinearity correction enabled: false
Boxcar width: 0
XAxis mode: Wavelengths
Number of Pixels in Spectrum: 3648
>>>>>Begin Spectral Data<<<<<
178.204	-125.61
178.424	-125.61
178.644	-125.61
178.864	-174.76
179.084	-86.7
179.304	-62.12
179.524	-27.31
179.744	25.94
179.964	-2.73
180.184	3.41
180.404	-2.73
180.624	75.09
180.844	7.51
181.064	-47.79
181.283	66.9
181.503	-51.88
181.723	15.7
181.943	-27.31
182.163	91.48
182.383	64.85
182.602	-2.73
182.822	99.67
183.042	42.32
183.262	-51.88
183.482	-6.83
183.701	34.13
183.921	-8.87
184.141	-10.92
184.361	99.67
184.58	23.89
184.8	60.76
185.02	23.89
185.239	71
185.459	71
185.679	-25.26
185.898	-37.55
186.118	46.42
186.338	54.61
186.557	34.13
186.777	-19.11
186.997	50.52
187.216	25.94
187.436	21.85
187.655	-17.07
187.875	34.13
188.095	23.89
188.314	103.76
188.534	95.57
188.753	87.38
188.973	79.19
189.192	5.46
189.412	-4.78
189.631	54.61
189.851	-27.31
190.07	77.14
190.29	34.13
190.509	99.67
190.729	44.37
190.948	27.99
191.168	185.68
191.387	71
191.607	60.76
191.826	34.13
192.045	40.28
192.265	71
192.484	-27.31
192.704	50.52
192.923	1.37
193.142	40.28
193.362	46.42
193.581	71
193.8	114
194.02	44.37
194.239	38.23
194.458	44.37
194.678	38.23
194.897	81.24
195.116	81.24
195.335	62.8
195.555	64.85
195.774	64.85
195.993	46.42
196.212	5.46
196.432	-60.07
196.651	1.37
196.87	-27.31
197.089	97.62
197.308	75.09
197.528	42.32
197.747	7.51
197.966	46.42
198.185	64.85
198.404	62.8
198.623	34.13
198.842	79.19
199.062	87.38
199.281	13.65
199.5	-35.5
199.719	103.76
199.938	68.95
200.157	105.81
200.376	-8.87
200.595	97.62
200.814	38.23
201.033	-27.31
201.252	75.09
201.471	21.85
201.69	52.56
201.909	79.19
202.128	15.7
202.347	-2.73
202.566	75.09
202.785	38.23
203.004	21.85
203.223	154.96
203.442	44.37
203.661	54.61
203.879	30.04
204.098	27.99
204.317	9.56
204.536	30.04
204.755	34.13
204.974	58.71
205.193	83.28
205.411	169.3
205.63	34.13
205.849	40.28
206.068	23.89
206.287	48.47
206.505	54.61
206.724	-19.11
206.943	32.08
207.162	30.04
207.381	79.19
207.599	116.05
207.818	-43.69
208.037	7.51
208.255	32.08
208.474	5.46
208.693	105.81
208.911	9.56
209.13	165.2
209.349	71
209.567	40.28
209.786	64.85
210.005	38.23
210.223	38.23
210.442	5.46
210.661	81.24
210.879	23.89
211.098	48.47
211.316	-8.87
211.535	79.19
211.753	7.51
211.972	71
212.191	23.89
212.409	7.51
212.628	23.89
212.846	-6.83
213.065	17.75
213.283	54.61
213.502	54.61
213.72	91.48
213.938	79.19
214.157	87.38
214.375	95.57
214.594	1.37
214.812	68.95
215.031	13.65
215.249	9.56
215.467	30.04
215.686	30.04
215.904	71
216.122	87.38
216.341	13.65
216.559	71
216.778	50.52
216.996	64.85
217.214	-19.11
217.432	-35.5
217.651	-33.45
217.869	3.41
218.087	15.7
218.306	44.37
218.524	54.61
218.742	11.61
218.96	-15.02
219.179	95.57
219.397	19.8
219.615	118.1
219.833	32.08
220.051	-15.02
220.27	191.83
220.488	91.48
220.706	13.65
220.924	56.66
221.142	62.8
221.36	5.46
221.578	21.85
221.796	101.72
222.015	71
222.233	17.75
222.451	46.42
222.669	5.46
222.887	138.58
223.105	42.32
223.323	46.42
223.541	48.47
223.759	93.52
223.977	46.42
224.195	87.38
224.413	71
224.631	79.19
224.849	56.66
225.067	128.34
225.285	-0.68
225.503	30.04
225.721	-35.5
225.939	38.23
226.157	64.85
226.375	161.11
226.592	13.65
226.81	62.8
227.028	95.57
227.246	79.19
227.464	58.71
227.682	30.04
227.9	71
228.117	62.8
228.335	64.85
228.553	134.48
228.771	52.56
228.989	79.19
229.206	48.47
229.424	71
229.642	21.85
229.86	1.37
230.077	-19.11
230.295	15.7
230.513	105.81
230.731	116.05
230.948	52.56
231.166	81.24
231.384	21.85
231.601	62.8
231.819	89.43
232.037	103.76
232.254	13.65
232.472	30.04
232.689	-39.59
232.907	13.65
233.125	58.71
233.342	27.99
233.56	58.71
233.777	44.37
233.995	79.19
234.213	134.48
234.43	56.66
234.648	-8.87
234.865	-27.31
235.083	42.32
235.3	-19.11
235.518	19.8
235.735	91.48
235.953	7.51
236.17	83.28
236.388	42.32
236.605	27.99
236.822	66.9
237.04	34.13
237.257	-27.31
237.475	-51.88
237.692	13.65
237.909	25.94
238.127	68.95
238.344	99.67
238.562	15.7
238.779	62.8
238.996	-17.07
239.214	56.66
239.431	71
239.648	5.46
239.865	83.28
240.083	42.32
240.3	73.04
240.517	40.28
240.735	56.66
240.952	99.67
241.169	85.33
241.386	56.66
241.603	9.56
241.821	32.08
242.038	34.13
242.255	116.05
242.472	13.65
242.689	79.19
242.907	99.67
243.124	9.56
243.341	105.81
243.558	32.08
243.775	21.85
243.992	-6.83
244.209	44.37
244.426	122.2
244.643	144.72
244.86	5.46
245.078	40.28
245.295	32.08
245.512	66.9
245.729	11.61
245.946	30.04
246.163	95.57
246.38	34.13
246.597	136.53
246.814	124.24
247.031	15.7
247.248	50.52
247.464	-4.78
247.681	99.67
247.898	30.04
248.115	-58.03
248.332	40.28
248.549	83.28
248.766	124.24
248.983	32.08
249.2	71
249.417	66.9
249.633	5.46
249.85	23.89
250.067	30.04
250.284	-2.73
250.501	25.94
250.717	5.46
250.934	5.46
251.151	-27.31
251.368	21.85
251.585	15.7
251.801	56.66
252.018	-10.92
252.235	99.67
252.451	-115.37
252.668	64.85
252.885	111.96
253.102	38.23
253.318	62.8
253.535	21.85
253.752	62.8
253.968	71
254.185	-53.93
254.401	-66.22
254.618	103.76
254.835	-27.31
255.051	13.65
255.268	30.04
255.484	17.75
255.701	7.51
255.917	83.28
256.134	54.61
256.351	111.96
256.567	-0.68
256.784	13.65
257	-27.31
257.217	103.76
257.433	17.75
257.65	46.42
257.866	120.15
258.082	-35.5
258.299	40.28
258.515	120.15
258.732	48.47
258.948	38.23
259.165	25.94
259.381	87.38
259.597	50.52
259.814	50.52
260.03	50.52
260.246	66.9
260.463	-2.73
260.679	89.43
260.895	21.85
261.112	99.67
261.328	71
261.544	71
261.761	79.19
261.977	71
262.193	54.61
262.409	126.29
262.626	75.09
262.842	44.37
263.058	-55.98
263.274	71
263.49	21.85
263.707	62.8
263.923	62.8
264.139	-8.87
264.355	77.14
264.571	122.2
264.787	54.61
265.004	62.8
265.22	44.37
265.436	62.8
265.652	-29.35
265.868	56.66
266.084	62.8
266.3	17.75
266.516	-2.73
266.732	58.71
266.948	79.19
267.164	13.65
267.38	97.62
267.596	48.47
267.812	73.04
268.028	1.37
268.244	21.85
268.46	93.52
268.676	42.32
268.892	105.81
269.108	-35.5
269.324	50.52
269.54	-51.88
269.756	111.96
269.972	-2.73
270.188	71
270.403	-6.83
270.619	87.38
270.835	34.13
271.051	54.61
271.267	-27.31
271.483	-27.31
271.698	66.9
271.914	38.23
272.13	-0.68
272.346	23.89
272.562	32.08
272.777	124.24
272.993	-10.92
273.209	1.37
273.425	58.71
273.64	1.37
273.856	81.24
274.072	-15.02
274.287	-23.21
274.503	23.89
274.719	107.86
274.934	-4.78
275.15	-58.03
275.366	-45.74
275.581	56.66
275.797	103.76
276.012	-2.73
276.228	73.04
276.444	87.38
276.659	105.81
276.875	1.37
277.09	7.51
277.306	38.23
277.521	48.47
277.737	-0.68
277.952	-15.02
278.168	48.47
278.383	-17.07
278.599	87.38
278.814	40.28
279.03	75.09
279.245	146.77
279.461	64.85
279.676	9.56
279.892	62.8
280.107	-6.83
280.322	21.85
280.538	79.19
280.753	-6.83
280.969	87.38
281.184	-39.59
281.399	87.38
281.615	-8.87
281.83	87.38
282.045	-2.73
282.26	54.61
282.476	95.57
282.691	91.48
282.906	87.38
283.122	19.8
283.337	-10.92
283.552	38.23
283.767	71
283.983	48.47
284.198	85.33
284.413	21.85
284.628	15.7
284.843	21.85
285.058	30.04
285.274	38.23
285.489	17.75
285.704	62.8
285.919	7.51
286.134	5.46
286.349	-43.69
286.564	81.24
286.779	79.19
286.995	25.94
287.21	46.42
287.425	34.13
287.64	13.65
287.855	13.65
288.07	-19.11
288.285	134.48
288.5	77.14
288.715	13.65
288.93	17.75
289.145	21.85
289.36	54.61
289.575	54.61
289.79	30.04
290.004	-4.78
290.219	91.48
290.434	40.28
290.649	-2.73
290.864	5.46
291.079	46.42
291.294	25.94
291.509	66.9
291.724	11.61
291.938	44.37
292.153	17.75
292.368	1.37
292.583	58.71
292.798	62.8
293.012	56.66
293.227	62.8
293.442	46.42
293.657	1.37
293.871	107.86
294.086	-25.26
294.301	38.23
294.516	79.19
294.73	40.28
294.945	34.13
295.16	-10.92
295.374	95.57
295.589	68.95
295.804	38.23
296.018	34.13
296.233	85.33
296.447	64.85
296.662	13.65
296.877	93.52
297.091	64.85
297.306	91.48
297.52	-2.73
297.735	3.41
297.949	54.61
298.164	91.48
298.378	44.37
298.593	15.7
298.807	5.46
299.022	46.42
299.236	79.19
299.451	-35.5
299.665	71
299.88	89.43
300.094	79.19
300.309	60.76
300.523	42.32
300.737	-12.97
300.952	13.65
301.166	56.66
301.381	54.61
301.595	7.51
301.809	-6.83
302.024	23.89
302.238	-41.64
302.452	97.62
302.667	38.23
302.881	13.65
303.095	42.32
303.309	-19.11
303.524	9.56
303.738	89.43
303.952	13.65
304.166	48.47
304.381	-31.4
304.595	79.19
304.809	7.51
305.023	97.62
305.237	73.04
305.452	73.04
305.666	87.38
305.88	48.47
306.094	54.61
306.308	62.8
306.522	36.18
306.736	83.28
306.95	-35.5
307.164	36.18
307.379	95.57
307.593	95.57
307.807	79.19
308.021	7.51
308.235	81.24
308.449	-51.88
308.663	38.23
308.877	132.44
309.091	21.85
309.305	54.61
309.519	-33.45
309.733	87.38
309.947	34.13
310.161	103.76
310.374	105.81
310.588	75.09
310.802	54.61
311.016	77.14
311.23	1.37
311.444	7.51
311.658	107.86
311.872	77.14
312.085	103.76
312.299	38.23
312.513	99.67
312.727	56.66
312.941	85.33
313.154	23.89
313.368	42.32
313.582	-68.27
313.796	-6.83
314.009	27.99
314.223	40.28
314.437	46.42
314.651	-19.11
314.864	-35.5
315.078	58.71
315.292	-51.88
315.505	9.56
315.719	-43.69
315.933	58.71
316.146	87.38
316.36	-8.87
316.573	126.29
316.787	71
317.001	75.09
317.214	38.23
317.428	122.2
317.641	54.61
317.855	66.9
318.068	-8.87
318.282	58.71
318.495	134.48
318.709	46.42
318.922	-21.16
319.136	7.51
319.349	130.39
319.563	17.75
319.776	81.24
319.99	3.41
320.203	103.76
320.417	81.24
320.63	23.89
320.843	87.38
321.057	73.04
321.27	13.65
321.483	54.61
321.697	128.34
321.91	130.39
322.124	42.32
322.337	71
322.55	23.89
322.763	17.75
322.977	23.89
323.19	-19.11
323.403	21.85
323.617	71
323.83	97.62
324.043	42.32
324.256	103.76
324.469	152.91
324.683	146.77
324.896	48.47
325.109	21.85
325.322	3.41
325.535	64.85
325.748	9.56
325.962	-31.4
326.175	11.61
326.388	21.85
326.601	83.28
326.814	38.23
327.027	60.76
327.24	3.41
327.453	-2.73
327.666	122.2
327.879	66.9
328.092	66.9
328.305	97.62
328.518	-10.92
328.731	-2.73
328.944	48.47
329.157	50.52
329.37	38.23
329.583	62.8
329.796	54.61
330.009	30.04
330.222	97.62
330.435	40.28
330.648	19.8
330.861	5.46
331.073	15.7
331.286	105.81
331.499	7.51
331.712	-6.83
331.925	-0.68
332.138	107.86
332.35	105.81
332.563	62.8
332.776	99.67
332.989	75.09
333.202	83.28
333.414	34.13
333.627	36.18
333.84	34.13
334.053	46.42
334.265	-0.68
334.478	97.62
334.691	23.89
334.903	17.75
335.116	25.94
335.329	50.52
335.541	103.76
335.754	89.43
335.966	89.43
336.179	-0.68
336.392	79.19
336.604	17.75
336.817	144.72
337.029	89.43
337.242	66.9
337.454	71
337.667	-19.11
337.88	75.09
338.092	-4.78
338.305	42.32
338.517	36.18
338.729	99.67
338.942	122.2
339.154	-15.02
339.367	-6.83
339.579	66.9
339.792	-39.59
340.004	44.37
340.217	-49.83
340.429	89.43
340.641	54.61
340.854	95.57
341.066	48.47
341.278	91.48
341.491	54.61
341.703	107.86
341.915	23.89
342.128	13.65
342.34	7.51
342.552	42.32
342.764	30.04
342.977	38.23
343.189	71
343.401	103.76
343.613	48.47
343.826	34.13
344.038	1.37
344.25	71
344.462	66.9
344.674	21.85
344.886	11.61
345.099	23.89
345.311	79.19
345.523	-0.68
345.735	-25.26
345.947	25.94
346.159	64.85
346.371	64.85
346.583	23.89
346.795	36.18
347.007	66.9
347.219	77.14
347.431	-8.87
347.643	75.09
347.855	93.52
348.067	122.2
348.279	15.7
348.491	38.23
348.703	52.56
348.915	64.85
349.127	23.89
349.339	62.8
349.551	77.14
349.763	73.04
349.975	9.56
350.187	23.89
350.399	54.61
350.61	154.96
350.822	46.42
351.034	38.23
351.246	15.7
351.458	83.28
351.669	111.96
351.881	138.58
352.093	3.41
352.305	62.8
352.517	17.75
352.728	81.24
352.94	-31.4
353.152	71
353.363	1.37
353.575	30.04
353.787	42.32
353.999	23.89
354.21	130.39
354.422	75.09
354.633	25.94
354.845	81.24
355.057	48.47
355.268	73.04
355.48	150.87
355.692	81.24
355.903	32.08
356.115	11.61
356.326	-2.73
356.538	132.44
356.749	34.13
356.961	91.48
357.172	50.52
357.384	89.43
357.595	132.44
357.807	64.85
358.018	-2.73
358.23	79.19
358.441	154.96
358.653	32.08
358.864	3.41
359.075	34.13
359.287	66.9
359.498	177.49
359.709	114
359.921	-10.92
360.132	87.38
360.344	105.81
360.555	-10.92
360.766	83.28
360.977	38.23
361.189	32.08
361.4	42.32
361.611	81.24
361.823	136.53
362.034	71
362.245	48.47
362.456	23.89
362.667	103.76
362.879	163.15
363.09	75.09
363.301	79.19
363.512	111.96
363.723	-60.07
363.935	50.52
364.146	19.8
364.357	62.8
364.568	36.18
364.779	13.65
364.99	25.94
365.201	9.56
365.412	97.62
365.623	-64.17
365.834	21.85
366.045	68.95
366.256	103.76
366.467	66.9
366.678	52.56
366.889	38.23
367.1	30.04
367.311	66.9
367.522	75.09
367.733	122.2
367.944	52.56
368.155	-19.11
368.366	83.28
368.577	89.43
368.788	30.04
368.999	66.9
369.209	79.19
369.42	171.35
369.631	111.96
369.842	56.66
370.053	50.52
370.264	-10.92
370.474	23.89
370.685	99.67
370.896	103.76
371.107	7.51
371.317	34.13
371.528	62.8
371.739	95.57
371.95	163.15
372.16	95.57
372.371	7.51
372.582	134.48
372.792	-19.11
373.003	68.95
373.214	56.66
373.424	-0.68
373.635	34.13
373.846	87.38
374.056	73.04
374.267	44.37
374.477	23.89
374.688	71
374.898	109.91
375.109	64.85
375.319	42.32
375.53	58.71
375.74	54.61
375.951	56.66
376.161	42.32
376.372	83.28
376.582	30.04
376.793	54.61
377.003	5.46
377.214	132.44
377.424	5.46
377.635	-21.16
377.845	-49.83
378.055	73.04
378.266	7.51
378.476	-15.02
378.686	48.47
378.897	44.37
379.107	128.34
379.317	56.66
379.528	40.28
379.738	71
379.948	-10.92
380.158	87.38
380.369	99.67
380.579	60.76
380.789	50.52
380.999	89.43
381.21	73.04
381.42	175.44
381.63	21.85
381.84	75.09
382.05	111.96
382.261	105.81
382.471	66.9
382.681	46.42
382.891	89.43
383.101	77.14
383.311	9.56
383.521	85.33
383.731	138.58
383.941	46.42
384.151	46.42
384.361	44.37
384.571	75.09
384.781	38.23
384.991	83.28
385.201	132.44
385.411	30.04
385.621	62.8
385.831	36.18
386.041	105.81
386.251	71
386.461	71
386.671	32.08
386.881	54.61
387.091	62.8
387.301	169.3
387.511	52.56
387.72	56.66
387.93	99.67
388.14	66.9
388.35	89.43
388.56	30.04
388.769	95.57
388.979	103.76
389.189	85.33
389.399	87.38
389.609	75.09
389.818	120.15
390.028	79.19
390.238	27.99
390.447	38.23
390.657	114
390.867	73.04
391.076	79.19
391.286	13.65
391.496	52.56
391.705	23.89
391.915	105.81
392.125	144.72
392.334	66.9
392.544	107.86
392.753	95.57
392.963	95.57
393.172	73.04
393.382	56.66
393.591	124.24
393.801	9.56
394.01	120.15
394.22	95.57
394.429	71
394.639	-2.73
394.848	107.86
395.058	46.42
395.267	71
395.477	95.57
395.686	169.3
395.895	120.15
396.105	99.67
396.314	118.1
396.524	161.11
396.733	40.28
396.942	95.57
397.152	62.8
397.361	91.48
397.57	95.57
397.78	54.61
397.989	93.52
398.198	157.01
398.407	46.42
398.617	124.24
398.826	103.76
399.035	105.81
399.244	165.2
399.453	30.04
399.663	107.86
399.872	56.66
400.081	116.05
400.29	68.95
400.499	40.28
400.708	187.73
400.917	93.52
401.127	50.52
401.336	97.62
401.545	122.2
401.754	138.58
401.963	126.29
402.172	99.67
402.381	136.53
402.59	132.44
402.799	144.72
403.008	163.15
403.217	195.92
403.426	146.77
403.635	105.81
403.844	91.48
404.053	202.07
404.262	116.05
404.471	189.78
404.68	128.34
404.888	202.07
405.097	81.24
405.306	200.02
405.515	251.22
405.724	171.35
405.933	134.48
406.142	210.26
406.35	218.45
406.559	154.96
406.768	173.39
406.977	218.45
407.185	212.31
407.394	208.21
407.603	218.45
407.812	261.46
408.02	288.08
408.229	267.6
408.438	234.83
408.646	212.31
408.855	222.55
409.064	308.56
409.272	265.55
409.481	384.34
409.69	288.08
409.898	273.75
410.107	277.84
410.315	351.57
410.524	349.52
410.733	382.29
410.941	353.62
411.15	406.86
411.358	382.29
411.567	539.98
411.775	435.53
411.984	425.29
412.192	374.1
412.401	456.01
412.609	521.55
412.818	531.79
413.026	550.22
413.234	501.07
413.443	574.8
413.651	529.74
413.86	578.89
414.068	607.56
414.276	679.24
414.485	544.08
414.693	613.71
414.901	734.54
415.11	636.24
415.318	734.54
415.526	791.88
415.734	771.4
415.943	830.79
416.151	824.65
416.359	886.09
416.567	908.62
416.776	957.77
416.984	1080.64
417.192	953.67
417.4	1054.02
417.608	1056.07
417.817	1074.5
418.025	1127.75
418.233	1279.3
418.441	1195.33
418.649	1307.97
418.857	1389.89
419.065	1383.74
419.273	1170.76
419.481	1324.35
419.689	1488.19
419.897	1629.5
420.105	1537.34
420.313	1574.21
420.521	1649.98
420.729	1678.65
420.937	1819.96
421.145	1877.3
421.353	1836.35
421.561	2039.09
421.769	1979.7
421.977	2131.25
422.185	2129.2
422.393	2196.79
422.601	2295.09
422.809	2434.35
423.017	2290.99
423.224	2446.64
423.432	2706.73
423.64	2651.44
423.848	2807.08
424.056	2852.14
424.263	2868.52
424.471	2956.58
424.679	2940.2
424.887	3220.77
425.094	3206.44
425.302	3325.22
425.51	3384.61
425.718	3437.86
425.925	3503.39
426.133	3638.56
426.341	3855.64
426.548	3988.76
426.756	4199.7
426.964	4097.3
427.171	4285.72
427.379	4394.26
427.586	4513.04
427.794	4584.72
428.001	4814.09
428.209	5010.7
428.417	5068.04
428.624	5219.59
428.832	5305.6
429.039	5326.08
429.247	5346.56
429.454	5774.59
429.662	6229.24
429.869	5745.92
430.076	6143.22
430.284	6071.54
430.491	6305.01
430.699	6585.58
430.906	6606.06
431.114	6640.88
431.321	6941.93
431.528	7056.62
431.736	7429.35
431.943	7832.8
432.15	7625.95
432.358	7812.32
432.565	7988.44
432.772	8008.92
432.979	8488.15
433.187	8520.92
433.394	8537.3
433.601	9245.9
433.808	9231.56
434.016	9299.14
434.223	9592
434.43	10028.22
434.637	9999.55
434.844	10679.47
435.052	10910.89
435.259	10783.92
435.466	10972.33
435.673	10646.71
435.88	11383.98
436.087	11971.74
436.294	12029.09
436.501	11832.48
436.708	11893.92
436.915	12168.35
437.122	13126.8
437.329	12973.2
437.537	13071.5
437.743	13481.1
437.95	13192.33
438.157	14009.47
438.364	14517.37
438.571	14554.23
438.778	14697.59
438.985	15672.42
439.192	14967.92
439.399	15803.49
439.606	15369.32
439.813	16260.19
440.02	16960.59
440.227	17028.18
440.433	16514.14
440.64	17318.99
440.847	17271.89
441.054	17339.47
441.261	18478.14
441.467	18437.18
441.674	18807.86
441.881	19418.16
442.088	19477.55
442.294	19131.44
442.501	19532.84
442.708	20147.23
442.914	20614.17
443.121	21670.92
443.328	21109.78
443.534	22688.76
443.741	21824.52
443.948	21670.92
444.154	23116.79
444.361	23284.72
444.568	23229.43
444.774	23256.05
444.981	23553.01
445.187	24277.99
445.394	25383.89
445.6	24945.62
445.807	27265.97
446.013	25766.86
446.22	26665.92
446.426	27530.16
446.633	27696.05
446.839	28830.62
447.046	27653.04
447.252	29369.24
447.459	29027.23
447.665	29100.95
447.871	30165.9
448.078	31613.81
448.284	30059.4
448.491	31044.48
448.697	32330.6
448.903	32297.83
449.11	32686.95
449.316	32109.42
449.522	32500.58
449.728	33745.75
449.935	33936.21
450.141	33747.79
450.347	34491.21
450.553	33661.78
450.76	33983.31
450.966	35130.17
451.172	34671.43
451.378	35375.93
451.584	34485.06
451.791	35449.66
451.997	35588.92
452.203	35982.13
452.409	35994.42
452.615	36008.75
452.821	34493.25
453.027	34181.96
453.233	36047.66
453.44	34648.9
453.646	34995.01
453.852	34816.83
454.058	35547.96
454.264	34372.42
454.47	35111.74
454.676	34253.64
454.882	35115.84
455.088	32267.11
455.294	33024.86
455.5	33213.27
455.705	33276.76
455.911	32582.5
456.117	31247.22
456.323	31056.76
456.529	29604.75
456.735	30991.23
456.941	30159.75
457.147	29672.34
457.352	28316.58
457.558	28242.85
457.764	28447.65
457.97	28021.67
458.176	27106.23
458.381	27100.09
458.587	25680.85
458.793	26065.86
458.999	24380.39
459.204	26231.75
459.41	25326.55
459.616	23790.57
459.821	23632.88
460.027	23589.87
460.233	22795.26
460.438	22006.79
460.644	22223.87
460.85	21353.49
461.055	20581.4
461.261	20818.97
461.466	19344.43
461.672	18897.97
461.878	20010.02
462.083	18793.53
462.289	18134.08
462.494	18367.55
462.7	17198.16
462.905	16850
463.111	17341.52
463.316	17468.49
463.522	17032.27
463.727	17235.02
463.932	17118.29
464.138	16749.65
464.343	16895.06
464.549	16237.66
464.754	17110.1
464.959	16718.93
465.165	16616.54
465.37	15903.84
465.575	15465.58
465.781	16041.06
465.986	16249.95
466.191	15676.52
466.397	15414.38
466.602	14478.46
466.807	14871.67
467.012	15055.98
467.218	14918.77
467.423	14799.99
467.628	14632.05
467.833	15572.07
468.038	14808.18
468.244	14390.39
468.449	15117.42
468.654	14441.59
