Data from USB4F104151__186__14-32-57-531.txt Node

Date: Thu Mar 13 14:32:57 EDT 2025
User: louis
Spectrometer: USB4F10415
Trigger mode: 4
Integration Time (sec): 2.500000E-2
Scans to average: 1
Electric dark correction enabled: true
Nonlinearity correction enabled: false
Boxcar width: 0
XAxis mode: Wavelengths
Number of Pixels in Spectrum: 3648
>>>>>Begin Spectral Data<<<<<
178.204	-135.17
178.424	-135.17
178.644	-135.17
178.864	-192.51
179.084	-135.17
179.304	-57.34
179.524	-20.48
179.744	20.48
179.964	40.96
180.184	-2.05
180.404	61.44
180.624	-55.3
180.844	-26.62
181.064	-79.87
181.283	43.01
181.503	20.48
181.723	55.3
181.943	36.86
182.163	102.4
182.383	28.67
182.602	53.25
182.822	69.63
183.042	8.19
183.262	43.01
183.482	47.1
183.701	20.48
183.921	32.77
184.141	77.82
184.361	16.38
184.58	61.44
184.8	57.34
185.02	69.63
185.239	-40.96
185.459	67.58
185.679	102.4
185.898	28.67
186.118	77.82
186.338	-4.1
186.557	114.69
186.777	-6.14
186.997	-28.67
187.216	-57.34
187.436	38.91
187.655	45.06
187.875	94.21
188.095	32.77
188.314	-12.29
188.534	32.77
188.753	57.34
188.973	75.77
189.192	112.64
189.412	45.06
189.631	45.06
189.851	86.01
190.07	69.63
190.29	12.29
190.509	-4.1
190.729	-24.58
190.948	45.06
191.168	184.32
191.387	-16.38
191.607	38.91
191.826	61.44
192.045	-22.53
192.265	-8.19
192.484	34.82
192.704	53.25
192.923	-4.1
193.142	38.91
193.362	16.38
193.581	45.06
193.8	6.14
194.02	-20.48
194.239	16.38
194.458	6.14
194.678	-24.58
194.897	124.93
195.116	16.38
195.335	45.06
195.555	69.63
195.774	61.44
195.993	90.11
196.212	143.36
196.432	16.38
196.651	36.86
196.87	118.78
197.089	88.06
197.308	30.72
197.528	81.92
197.747	20.48
197.966	126.97
198.185	88.06
198.404	61.44
198.623	79.87
198.842	16.38
199.062	63.49
199.281	22.53
199.5	51.2
199.719	88.06
199.938	45.06
200.157	55.3
200.376	6.14
200.595	55.3
200.814	-8.19
201.033	-51.2
201.252	96.25
201.471	32.77
201.69	81.92
201.909	61.44
202.128	53.25
202.347	90.11
202.566	71.68
202.785	-16.38
203.004	-32.77
203.223	110.59
203.442	22.53
203.661	12.29
203.879	65.53
204.098	32.77
204.317	-12.29
204.536	102.4
204.755	53.25
204.974	45.06
205.193	-26.62
205.411	73.73
205.63	-20.48
205.849	75.77
206.068	22.53
206.287	-18.43
206.505	36.86
206.724	36.86
206.943	10.24
207.162	14.34
207.381	4.1
207.599	77.82
207.818	45.06
208.037	12.29
208.255	-20.48
208.474	20.48
208.693	36.86
208.911	20.48
209.13	86.01
209.349	69.63
209.567	36.86
209.786	61.44
210.005	49.15
210.223	-32.77
210.442	-28.67
210.661	-57.34
210.879	53.25
211.098	94.21
211.316	61.44
211.535	90.11
211.753	69.63
211.972	24.58
212.191	36.86
212.409	61.44
212.628	122.88
212.846	36.86
213.065	28.67
213.283	137.21
213.502	30.72
213.72	16.38
213.938	61.44
214.157	8.19
214.375	79.87
214.594	-10.24
214.812	104.45
215.031	16.38
215.249	30.72
215.467	30.72
215.686	6.14
215.904	12.29
216.122	51.2
216.341	83.97
216.559	-16.38
216.778	45.06
216.996	100.35
217.214	-10.24
217.432	-28.67
217.651	-49.15
217.869	-26.62
218.087	57.34
218.306	8.19
218.524	28.67
218.742	-2.05
218.96	55.3
219.179	38.91
219.397	-45.06
219.615	94.21
219.833	79.87
220.051	53.25
220.27	104.45
220.488	12.29
220.706	14.34
220.924	6.14
221.142	-12.29
221.36	49.15
221.578	14.34
221.796	90.11
222.015	108.54
222.233	69.63
222.451	55.3
222.669	-10.24
222.887	36.86
223.105	12.29
223.323	14.34
223.541	47.1
223.759	108.54
223.977	71.68
224.195	53.25
224.413	77.82
224.631	32.77
224.849	-32.77
225.067	63.49
225.285	-10.24
225.503	36.86
225.721	-20.48
225.939	-12.29
226.157	63.49
226.375	200.7
226.592	69.63
226.81	38.91
227.028	57.34
227.246	53.25
227.464	4.1
227.682	65.53
227.9	49.15
228.117	47.1
228.335	81.92
228.553	24.58
228.771	16.38
228.989	14.34
229.206	-10.24
229.424	6.14
229.642	38.91
229.86	4.1
230.077	55.3
230.295	45.06
230.513	122.88
230.731	14.34
230.948	6.14
231.166	131.07
231.384	40.96
231.601	-4.1
231.819	75.77
232.037	-16.38
232.254	28.67
232.472	2.05
232.689	10.24
232.907	-10.24
233.125	36.86
233.342	28.67
233.56	-10.24
233.777	24.58
233.995	114.69
234.213	67.58
234.43	22.53
234.648	-20.48
234.865	51.2
235.083	71.68
235.3	73.73
235.518	-28.67
235.735	102.4
235.953	73.73
236.17	30.72
236.388	-26.62
236.605	79.87
236.822	153.6
237.04	106.49
237.257	49.15
237.475	45.06
237.692	61.44
237.909	16.38
238.127	-10.24
238.344	88.06
238.562	73.73
238.779	-61.44
238.996	-2.05
239.214	-45.06
239.431	77.82
239.648	30.72
239.865	36.86
240.083	73.73
240.3	49.15
240.517	6.14
240.735	57.34
240.952	18.43
241.169	18.43
241.386	4.1
241.603	16.38
241.821	53.25
242.038	53.25
242.255	45.06
242.472	-20.48
242.689	53.25
242.907	61.44
243.124	12.29
243.341	49.15
243.558	12.29
243.775	-8.19
243.992	-49.15
244.209	38.91
244.426	86.01
244.643	36.86
244.86	40.96
245.078	69.63
245.295	61.44
245.512	-10.24
245.729	6.14
245.946	45.06
246.163	104.45
246.38	69.63
246.597	28.67
246.814	12.29
247.031	32.77
247.248	28.67
247.464	57.34
247.681	63.49
247.898	69.63
248.115	45.06
248.332	-10.24
248.549	112.64
248.766	53.25
248.983	65.53
249.2	49.15
249.417	-4.1
249.633	-34.82
249.85	2.05
250.067	36.86
250.284	67.58
250.501	69.63
250.717	73.73
250.934	14.34
251.151	20.48
251.368	36.86
251.585	28.67
251.801	40.96
252.018	6.14
252.235	51.2
252.451	-2.05
252.668	-28.67
252.885	36.86
253.102	47.1
253.318	77.82
253.535	24.58
253.752	-34.82
253.968	69.63
254.185	22.53
254.401	36.86
254.618	57.34
254.835	20.48
255.051	55.3
255.268	-59.39
255.484	147.45
255.701	94.21
255.917	126.97
256.134	8.19
256.351	100.35
256.567	-4.1
256.784	26.62
257	32.77
257.217	12.29
257.433	61.44
257.65	108.54
257.866	110.59
258.082	-26.62
258.299	34.82
258.515	36.86
258.732	55.3
258.948	28.67
259.165	40.96
259.381	71.68
259.597	-8.19
259.814	24.58
260.03	28.67
260.246	-16.38
260.463	36.86
260.679	69.63
260.895	24.58
261.112	51.2
261.328	-4.1
261.544	-40.96
261.761	73.73
261.977	14.34
262.193	40.96
262.409	38.91
262.626	-32.77
262.842	4.1
263.058	81.92
263.274	-12.29
263.49	77.82
263.707	61.44
263.923	2.05
264.139	32.77
264.355	94.21
264.571	126.97
264.787	12.29
265.004	53.25
265.22	32.77
265.436	16.38
265.652	16.38
265.868	-24.58
266.084	-20.48
266.3	-18.43
266.516	-12.29
266.732	69.63
266.948	-20.48
267.164	10.24
267.38	77.82
267.596	38.91
267.812	61.44
268.028	18.43
268.244	-20.48
268.46	-4.1
268.676	-75.77
268.892	30.72
269.108	4.1
269.324	36.86
269.54	71.68
269.756	61.44
269.972	-4.1
270.188	8.19
270.403	47.1
270.619	4.1
270.835	-24.58
271.051	45.06
271.267	47.1
271.483	30.72
271.698	24.58
271.914	12.29
272.13	28.67
272.346	16.38
272.562	18.43
272.777	61.44
272.993	69.63
273.209	20.48
273.425	69.63
273.64	-0
273.856	30.72
274.072	69.63
274.287	6.14
274.503	36.86
274.719	36.86
274.934	45.06
275.15	-102.4
275.366	47.1
275.581	14.34
275.797	65.53
276.012	79.87
276.228	49.15
276.444	49.15
276.659	77.82
276.875	53.25
277.09	77.82
277.306	65.53
277.521	28.67
277.737	61.44
277.952	28.67
278.168	79.87
278.383	30.72
278.599	55.3
278.814	53.25
279.03	36.86
279.245	-0
279.461	32.77
279.676	100.35
279.892	8.19
280.107	36.86
280.322	61.44
280.538	28.67
280.753	53.25
280.969	61.44
281.184	55.3
281.399	65.53
281.615	71.68
281.83	12.29
282.045	-43.01
282.26	45.06
282.476	69.63
282.691	14.34
282.906	81.92
283.122	45.06
283.337	36.86
283.552	73.73
283.767	-28.67
283.983	143.36
284.198	-26.62
284.413	71.68
284.628	-59.39
284.843	71.68
285.058	38.91
285.274	45.06
285.489	-2.05
285.704	14.34
285.919	12.29
286.134	40.96
286.349	36.86
286.564	94.21
286.779	94.21
286.995	61.44
287.21	-61.44
287.425	-12.29
287.64	20.48
287.855	96.25
288.07	51.2
288.285	36.86
288.5	77.82
288.715	57.34
288.93	28.67
289.145	30.72
289.36	126.97
289.575	65.53
289.79	55.3
290.004	65.53
290.219	69.63
290.434	47.1
290.649	8.19
290.864	26.62
291.079	14.34
291.294	71.68
291.509	57.34
291.724	34.82
291.938	30.72
292.153	96.25
292.368	-49.15
292.583	55.3
292.798	90.11
293.012	147.45
293.227	38.91
293.442	77.82
293.657	63.49
293.871	49.15
294.086	32.77
294.301	98.3
294.516	106.49
294.73	53.25
294.945	14.34
295.16	24.58
295.374	55.3
295.589	71.68
295.804	4.1
296.018	67.58
296.233	53.25
296.447	24.58
296.662	-32.77
296.877	43.01
297.091	38.91
297.306	-10.24
297.52	-0
297.735	40.96
297.949	75.77
298.164	69.63
298.378	-0
298.593	-0
298.807	22.53
299.022	6.14
299.236	22.53
299.451	53.25
299.665	22.53
299.88	47.1
300.094	57.34
300.309	18.43
300.523	-20.48
300.737	55.3
300.952	30.72
301.166	53.25
301.381	-45.06
301.595	55.3
301.809	45.06
302.024	22.53
302.238	55.3
302.452	94.21
302.667	38.91
302.881	126.97
303.095	53.25
303.309	104.45
303.524	-2.05
303.738	71.68
303.952	2.05
304.166	12.29
304.381	-61.44
304.595	151.55
304.809	47.1
305.023	90.11
305.237	88.06
305.452	20.48
305.666	90.11
305.88	63.49
306.094	69.63
306.308	61.44
306.522	73.73
306.736	86.01
306.95	79.87
307.164	26.62
307.379	57.34
307.593	24.58
307.807	102.4
308.021	69.63
308.235	69.63
308.449	57.34
308.663	45.06
308.877	153.6
309.091	10.24
309.305	45.06
309.519	-57.34
309.733	49.15
309.947	28.67
310.161	53.25
310.374	69.63
310.588	45.06
310.802	10.24
311.016	-2.05
311.23	61.44
311.444	32.77
311.658	22.53
311.872	20.48
312.085	94.21
312.299	79.87
312.513	67.58
312.727	79.87
312.941	40.96
313.154	53.25
313.368	43.01
313.582	110.59
313.796	-2.05
314.009	32.77
314.223	86.01
314.437	53.25
314.651	86.01
314.864	-20.48
315.078	8.19
315.292	-73.73
315.505	83.97
315.719	12.29
315.933	14.34
316.146	-49.15
316.36	-28.67
316.573	118.78
316.787	96.25
317.001	83.97
317.214	2.05
317.428	73.73
317.641	-18.43
317.855	61.44
318.068	20.48
318.282	6.14
318.495	104.45
318.709	63.49
318.922	73.73
319.136	118.78
319.349	110.59
319.563	32.77
319.776	114.69
319.99	-16.38
320.203	45.06
320.417	53.25
320.63	20.48
320.843	71.68
321.057	63.49
321.27	59.39
321.483	118.78
321.697	94.21
321.91	32.77
322.124	28.67
322.337	106.49
322.55	34.82
322.763	4.1
322.977	126.97
323.19	45.06
323.403	63.49
323.617	18.43
323.83	139.26
324.043	86.01
324.256	24.58
324.469	53.25
324.683	122.88
324.896	47.1
325.109	120.83
325.322	-53.25
325.535	57.34
325.748	131.07
325.962	88.06
326.175	47.1
326.388	98.3
326.601	71.68
326.814	59.39
327.027	49.15
327.24	-0
327.453	-0
327.666	36.86
327.879	65.53
328.092	100.35
328.305	75.77
328.518	-0
328.731	34.82
328.944	40.96
329.157	53.25
329.37	6.14
329.583	126.97
329.796	137.21
330.009	-28.67
330.222	55.3
330.435	22.53
330.648	-36.86
330.861	24.58
331.073	49.15
331.286	59.39
331.499	53.25
331.712	-69.63
331.925	45.06
332.138	-32.77
332.35	77.82
332.563	57.34
332.776	73.73
332.989	12.29
333.202	51.2
333.414	36.86
333.627	12.29
333.84	-2.05
334.053	59.39
334.265	-2.05
334.478	-0
334.691	45.06
334.903	24.58
335.116	-65.54
335.329	61.44
335.541	-4.1
335.754	77.82
335.966	57.34
336.179	30.72
336.392	-16.38
336.604	20.48
336.817	45.06
337.029	53.25
337.242	-2.05
337.454	126.97
337.667	53.25
337.88	126.97
338.092	38.91
338.305	65.53
338.517	28.67
338.729	-8.19
338.942	88.06
339.154	-51.2
339.367	-24.58
339.579	63.49
339.792	-28.67
340.004	71.68
340.217	28.67
340.429	126.97
340.641	-16.38
340.854	61.44
341.066	88.06
341.278	32.77
341.491	88.06
341.703	61.44
341.915	-16.38
342.128	-34.82
342.34	94.21
342.552	12.29
342.764	4.1
342.977	8.19
343.189	45.06
343.401	71.68
343.613	-16.38
343.826	81.92
344.038	-16.38
344.25	143.36
344.462	86.01
344.674	118.78
344.886	28.67
345.099	20.48
345.311	36.86
345.523	49.15
345.735	26.62
345.947	-8.19
346.159	120.83
346.371	55.3
346.583	28.67
346.795	100.35
347.007	40.96
347.219	49.15
347.431	24.58
347.643	143.36
347.855	61.44
348.067	71.68
348.279	-2.05
348.491	49.15
348.703	20.48
348.915	-24.58
349.127	12.29
349.339	77.82
349.551	43.01
349.763	43.01
349.975	90.11
350.187	102.4
350.399	53.25
350.61	61.44
350.822	45.06
351.034	90.11
351.246	53.25
351.458	-12.29
351.669	49.15
351.881	67.58
352.093	57.34
352.305	122.88
352.517	71.68
352.728	24.58
352.94	69.63
353.152	90.11
353.363	8.19
353.575	77.82
353.787	57.34
353.999	88.06
354.21	67.58
354.422	30.72
354.633	-4.1
354.845	36.86
355.057	79.87
355.268	22.53
355.48	86.01
355.692	77.82
355.903	-8.19
356.115	36.86
356.326	12.29
356.538	53.25
356.749	53.25
356.961	73.73
357.172	86.01
357.384	-4.1
357.595	96.25
357.807	6.14
358.018	59.39
358.23	110.59
358.441	86.01
358.653	47.1
358.864	51.2
359.075	30.72
359.287	83.97
359.498	57.34
359.709	120.83
359.921	102.4
360.132	81.92
360.344	92.16
360.555	69.63
360.766	36.86
360.977	43.01
361.189	-10.24
361.4	24.58
361.611	118.78
361.823	57.34
362.034	-10.24
362.245	36.86
362.456	143.36
362.667	45.06
362.879	12.29
363.09	104.45
363.301	22.53
363.512	73.73
363.723	22.53
363.935	-0
364.146	122.88
364.357	90.11
364.568	4.1
364.779	-16.38
364.99	122.88
365.201	-10.24
365.412	28.67
365.623	6.14
365.834	96.25
366.045	88.06
366.256	126.97
366.467	88.06
366.678	94.21
366.889	28.67
367.1	69.63
367.311	45.06
367.522	38.91
367.733	94.21
367.944	135.17
368.155	12.29
368.366	59.39
368.577	102.4
368.788	81.92
368.999	102.4
369.209	77.82
369.42	106.49
369.631	114.69
369.842	22.53
370.053	28.67
370.264	77.82
370.474	14.34
370.685	86.01
370.896	47.1
371.107	86.01
371.317	77.82
371.528	16.38
371.739	53.25
371.95	22.53
372.16	71.68
372.371	-8.19
372.582	-28.67
372.792	24.58
373.003	63.49
373.214	96.25
373.424	67.58
373.635	53.25
373.846	83.97
374.056	69.63
374.267	6.14
374.477	18.43
374.688	34.82
374.898	104.45
375.109	22.53
375.319	81.92
375.53	53.25
375.74	126.97
375.951	77.82
376.161	28.67
376.372	61.44
376.582	63.49
376.793	57.34
377.003	75.77
377.214	53.25
377.424	30.72
377.635	114.69
377.845	12.29
378.055	61.44
378.266	28.67
378.476	53.25
378.686	22.53
378.897	32.77
379.107	86.01
379.317	36.86
379.528	16.38
379.738	71.68
379.948	20.48
380.158	94.21
380.369	67.58
380.579	51.2
380.789	159.74
380.999	110.59
381.21	118.78
381.42	81.92
381.63	-12.29
381.84	57.34
382.05	55.3
382.261	51.2
382.471	92.16
382.681	98.3
382.891	81.92
383.101	26.62
383.311	16.38
383.521	28.67
383.731	63.49
383.941	55.3
384.151	-8.19
384.361	45.06
384.571	71.68
384.781	94.21
384.991	69.63
385.201	120.83
385.411	104.45
385.621	45.06
385.831	20.48
386.041	77.82
386.251	63.49
386.461	98.3
386.671	45.06
386.881	53.25
387.091	49.15
387.301	120.83
387.511	8.19
387.72	94.21
387.93	45.06
388.14	-28.67
388.35	69.63
388.56	118.78
388.769	22.53
388.979	75.77
389.189	73.73
389.399	90.11
389.609	61.44
389.818	104.45
390.028	79.87
390.238	24.58
390.447	77.82
390.657	30.72
390.867	4.1
391.076	-12.29
391.286	53.25
391.496	63.49
391.705	4.1
391.915	63.49
392.125	75.77
392.334	28.67
392.544	135.17
392.753	55.3
392.963	38.91
393.172	61.44
393.382	24.58
393.591	73.73
393.801	-0
394.01	204.8
394.22	45.06
394.429	75.77
394.639	63.49
394.848	120.83
395.058	147.45
395.267	118.78
395.477	63.49
395.686	83.97
395.895	198.65
396.105	106.49
396.314	108.54
396.524	96.25
396.733	102.4
396.942	114.69
397.152	104.45
397.361	159.74
397.57	53.25
397.78	104.45
397.989	159.74
398.198	145.41
398.407	14.34
398.617	104.45
398.826	102.4
399.035	69.63
399.244	167.93
399.453	145.41
399.663	47.1
399.872	124.93
400.081	32.77
400.29	73.73
400.499	114.69
400.708	163.84
400.917	114.69
401.127	129.02
401.336	79.87
401.545	114.69
401.754	184.32
401.963	212.99
402.172	151.55
402.381	96.25
402.59	157.69
402.799	139.26
403.008	184.32
403.217	77.82
403.426	169.98
403.635	57.34
403.844	73.73
404.053	137.21
404.262	194.56
404.471	229.37
404.68	169.98
404.888	167.93
405.097	169.98
405.306	249.85
405.515	176.13
405.724	225.28
405.933	188.41
406.142	178.17
406.35	301.05
406.559	194.56
406.768	157.69
406.977	241.66
407.185	176.13
407.394	225.28
407.603	210.94
407.812	176.13
408.02	268.28
408.229	217.08
408.438	204.8
408.646	186.37
408.855	262.14
409.064	301.05
409.272	247.8
409.481	274.43
409.69	262.14
409.898	258.04
410.107	323.58
410.315	389.11
410.524	290.81
410.733	344.06
410.941	356.35
411.15	399.35
411.358	376.83
411.567	348.15
411.775	442.36
411.984	432.12
412.192	458.74
412.401	462.84
412.609	409.59
412.818	524.28
413.026	471.03
413.234	520.18
413.443	579.58
413.651	538.62
413.86	585.72
414.068	604.15
414.276	659.45
414.485	540.66
414.693	614.39
414.901	692.21
415.11	735.22
415.318	729.08
415.526	684.02
415.734	843.76
415.943	761.84
416.151	843.76
416.359	782.32
416.567	858.1
416.776	868.34
416.984	1021.94
417.192	968.69
417.4	948.21
417.608	1052.66
417.817	974.83
418.025	1071.09
418.233	1136.62
418.441	1232.88
418.649	1093.62
418.857	1363.95
419.065	1351.66
419.273	1165.29
419.481	1400.81
419.689	1435.63
419.897	1503.21
420.105	1499.11
420.313	1619.94
420.521	1630.18
420.729	1638.37
420.937	1626.09
421.145	1789.92
421.353	1859.56
421.561	2125.79
421.769	1918.95
421.977	1980.39
422.185	1859.56
422.393	2047.97
422.601	2285.53
422.809	2326.49
423.017	2310.11
423.224	2486.23
423.432	2346.97
423.64	2342.88
423.848	2738.13
424.056	2641.88
424.263	2879.44
424.471	2889.68
424.679	2838.48
424.887	3102.67
425.094	3137.49
425.302	3147.73
425.51	3241.93
425.718	3428.3
425.925	3379.15
426.133	3489.74
426.341	3758.02
426.548	3772.36
426.756	3846.09
426.964	3930.05
427.171	4085.7
427.379	4267.97
427.586	4227.01
427.794	4521.91
428.001	4624.31
428.209	4822.97
428.417	4655.03
428.624	5060.53
428.832	5160.88
429.039	4884.41
429.247	5250.99
429.454	5533.61
429.662	5947.3
429.869	5420.97
430.076	5902.25
430.284	5836.71
430.491	5877.67
430.699	6215.59
430.906	6360.99
431.114	6410.14
431.321	6696.86
431.528	6991.77
431.736	7364.5
431.943	7311.25
432.15	7485.33
432.358	7348.11
432.565	7962.5
432.772	7784.33
432.979	8302.47
433.187	8263.55
433.394	8499.07
433.601	8984.44
433.808	9056.12
434.016	8814.46
434.223	9234.29
434.43	9564.01
434.637	9703.28
434.844	10082.15
435.052	10258.28
435.259	10284.9
435.466	10379.11
435.673	10307.43
435.88	10932.06
436.087	11726.67
436.294	11554.64
436.501	11278.16
436.708	11474.77
436.915	11812.68
437.122	12328.77
437.329	12332.87
437.537	12898.11
437.743	12924.73
437.95	12808
438.157	13463.35
438.364	14073.64
438.571	13831.98
438.778	14030.63
438.985	15234.84
439.192	14696.22
439.399	15060.76
439.606	14911.26
439.813	15791.89
440.02	16588.55
440.227	16334.6
440.433	16150.28
440.64	16594.69
440.847	16412.42
441.054	16893.69
441.261	18165.48
441.467	17972.97
441.674	18267.88
441.881	18958.05
442.088	18534.12
442.294	18976.48
442.501	19259.1
442.708	19676.88
442.914	20326.09
443.121	20932.29
443.328	20756.16
443.534	22027.95
443.741	21302.97
443.948	21118.65
444.154	22613.67
444.361	22597.29
444.568	22750.88
444.774	22343.34
444.981	22898.34
445.187	23553.69
445.394	24379.02
445.6	24174.22
445.807	26261.1
446.013	25220.74
446.22	25767.54
446.426	26900.07
446.633	26922.6
446.839	28034.64
447.046	26916.45
447.252	28427.85
447.459	28069.46
447.665	28345.94
447.871	29431.36
448.078	30375.47
448.284	29384.26
448.491	29941.3
448.697	30975.53
448.903	31731.23
449.11	31749.66
449.316	31098.41
449.522	31864.35
449.728	32736.78
449.935	33142.28
450.141	33064.46
450.347	33660.41
450.553	32486.93
450.76	32957.96
450.966	34022.9
451.172	33302.02
451.378	34881
451.584	33922.55
451.791	34596.34
451.997	34358.77
452.203	35372.52
452.409	35128.81
452.615	34743.79
452.821	33527.3
453.027	33433.09
453.233	34971.11
453.44	33418.75
453.646	34113.02
453.852	33867.26
454.058	34661.87
454.264	33332.74
454.47	34473.46
454.676	33158.66
454.882	34194.93
455.088	31471.14
455.294	32177.68
455.5	32292.37
455.705	32511.5
455.911	31348.26
456.117	30735.91
456.323	30518.83
456.529	28902.98
456.735	30082.61
456.941	29339.2
457.147	28761.67
457.352	27741.78
457.558	27534.94
457.764	27764.31
457.97	26773.1
458.176	26650.22
458.381	26556.01
458.587	25323.13
458.793	25054.85
458.999	23910.04
459.204	25615.99
459.41	25050.75
459.616	23281.31
459.821	23318.17
460.027	23402.14
460.233	22705.83
460.438	21728.95
460.644	21460.66
460.85	20809.41
461.055	20469.45
461.261	20573.89
461.466	18847.46
461.672	18124.52
461.878	19484.37
462.083	18444.01
462.289	17899.25
462.494	17661.68
462.7	16715.52
462.905	16510.72
463.111	17153.79
463.316	16867.07
463.522	16701.19
463.727	16961.28
463.932	16824.06
464.138	16461.57
464.343	16731.9
464.549	15867.66
464.754	16948.99
464.959	16340.74
465.165	16209.67
465.37	15494.93
465.575	15251.22
465.781	15773.46
465.986	15947.53
466.191	15382.29
466.397	15177.5
466.602	14311.21
466.807	14669.6
467.012	14939.93
467.218	14677.79
