Data from USB4F104151__195__14-33-10-552.txt Node

Date: Thu Mar 13 14:33:10 EDT 2025
User: louis
Spectrometer: USB4F10415
Trigger mode: 4
Integration Time (sec): 2.500000E-2
Scans to average: 1
Electric dark correction enabled: true
Nonlinearity correction enabled: false
Boxcar width: 0
XAxis mode: Wavelengths
Number of Pixels in Spectrum: 3648
>>>>>Begin Spectral Data<<<<<
178.204	-167.25
178.424	-167.25
178.644	-167.25
178.864	-140.63
179.084	-171.35
179.304	-9.56
179.524	21.16
179.744	4.78
179.964	4.78
180.184	29.35
180.404	4.78
180.624	-7.51
180.844	4.78
181.064	-44.37
181.283	39.59
181.503	-64.85
181.723	17.07
181.943	-95.57
182.163	47.79
182.383	-19.8
182.602	8.87
182.822	82.6
183.042	17.07
183.262	-42.32
183.482	-21.85
183.701	62.12
183.921	78.51
184.141	-36.18
184.361	-7.51
184.58	53.93
184.8	-23.89
185.02	-64.85
185.239	103.08
185.459	4.78
185.679	21.16
185.898	-87.38
186.118	113.32
186.338	-1.37
186.557	78.51
186.777	-11.61
186.997	21.16
187.216	23.21
187.436	45.74
187.655	37.55
187.875	58.03
188.095	-103.76
188.314	47.79
188.534	78.51
188.753	12.97
188.973	70.31
189.192	37.55
189.412	58.03
189.631	-30.04
189.851	-15.7
190.07	96.94
190.29	-77.14
190.509	-7.51
190.729	-3.41
190.948	37.55
191.168	31.4
191.387	64.17
191.607	12.97
191.826	21.16
192.045	23.21
192.265	62.12
192.484	37.55
192.704	31.4
192.923	31.4
193.142	119.46
193.362	53.93
193.581	94.89
193.8	21.16
194.02	41.64
194.239	-50.52
194.458	86.7
194.678	15.02
194.897	-32.08
195.116	-50.52
195.335	-3.41
195.555	-9.56
195.774	-1.37
195.993	43.69
196.212	-25.94
196.432	64.17
196.651	2.73
196.87	68.27
197.089	70.31
197.308	62.12
197.528	162.47
197.747	-11.61
197.966	37.55
198.185	53.93
198.404	47.79
198.623	25.26
198.842	29.35
199.062	0.68
199.281	121.51
199.5	4.78
199.719	82.6
199.938	55.98
200.157	84.65
200.376	82.6
200.595	-25.94
200.814	-25.94
201.033	35.5
201.252	-1.37
201.471	-7.51
201.69	-34.13
201.909	53.93
202.128	55.98
202.347	78.51
202.566	-66.9
202.785	-36.18
203.004	-44.37
203.223	98.99
203.442	23.21
203.661	6.83
203.879	49.83
204.098	68.27
204.317	-3.41
204.536	78.51
204.755	23.21
204.974	-7.51
205.193	21.16
205.411	88.75
205.63	37.55
205.849	58.03
206.068	-27.99
206.287	45.74
206.505	113.32
206.724	-3.41
206.943	35.5
207.162	39.59
207.381	37.55
207.599	-15.7
207.818	-13.65
208.037	53.93
208.255	62.12
208.474	53.93
208.693	78.51
208.911	8.87
209.13	25.26
209.349	12.97
209.567	70.31
209.786	86.7
210.005	31.4
210.223	8.87
210.442	-27.99
210.661	23.21
210.879	31.4
211.098	12.97
211.316	17.07
211.535	82.6
211.753	62.12
211.972	4.78
212.191	23.21
212.409	-19.8
212.628	53.93
212.846	-3.41
213.065	41.64
213.283	103.08
213.502	-3.41
213.72	47.79
213.938	45.74
214.157	72.36
214.375	-66.9
214.594	29.35
214.812	-13.65
215.031	-34.13
215.249	23.21
215.467	45.74
215.686	-17.75
215.904	12.97
216.122	-23.89
216.341	127.66
216.559	31.4
216.778	19.11
216.996	98.99
217.214	53.93
217.432	45.74
217.651	-58.71
217.869	-3.41
218.087	-36.18
218.306	-7.51
218.524	47.79
218.742	0.68
218.96	35.5
219.179	31.4
219.397	-1.37
219.615	90.79
219.833	23.21
220.051	6.83
220.27	45.74
220.488	53.93
220.706	-60.76
220.924	62.12
221.142	23.21
221.36	51.88
221.578	21.16
221.796	111.27
222.015	103.08
222.233	39.59
222.451	78.51
222.669	-3.41
222.887	-13.65
223.105	23.21
223.323	-1.37
223.541	37.55
223.759	0.68
223.977	-5.46
224.195	58.03
224.413	4.78
224.631	98.99
224.849	8.87
225.067	58.03
225.285	21.16
225.503	19.11
225.721	-11.61
225.939	-34.13
226.157	84.65
226.375	111.27
226.592	0.68
226.81	62.12
227.028	21.16
227.246	94.89
227.464	-3.41
227.682	0.68
227.9	72.36
228.117	43.69
228.335	-7.51
228.553	17.07
228.771	70.31
228.989	-7.51
229.206	29.35
229.424	-17.75
229.642	33.45
229.86	-7.51
230.077	64.17
230.295	62.12
230.513	78.51
230.731	-27.99
230.948	70.31
231.166	17.07
231.384	6.83
231.601	-25.94
231.819	45.74
232.037	-36.18
232.254	-58.71
232.472	-34.13
232.689	0.68
232.907	21.16
233.125	66.22
233.342	-19.8
233.56	39.59
233.777	31.4
233.995	-25.94
234.213	21.16
234.43	33.45
234.648	-32.08
234.865	12.97
235.083	0.68
235.3	37.55
235.518	-11.61
235.735	96.94
235.953	53.93
236.17	-32.08
236.388	-68.95
236.605	-38.23
236.822	-40.28
237.04	12.97
237.257	70.31
237.475	-23.89
237.692	0.68
237.909	-9.56
238.127	31.4
238.344	78.51
238.562	-9.56
238.779	55.98
238.996	23.21
239.214	12.97
239.431	25.26
239.648	6.83
239.865	8.87
240.083	37.55
240.3	66.22
240.517	-25.94
240.735	-9.56
240.952	25.26
241.169	72.36
241.386	70.31
241.603	-34.13
241.821	-25.94
242.038	-3.41
242.255	41.64
242.472	-52.56
242.689	29.35
242.907	96.94
243.124	31.4
243.341	23.21
243.558	86.7
243.775	15.02
243.992	-15.7
244.209	-17.75
244.426	135.85
244.643	123.56
244.86	39.59
245.078	23.21
245.295	94.89
245.512	33.45
245.729	8.87
245.946	39.59
246.163	-1.37
246.38	45.74
246.597	123.56
246.814	37.55
247.031	17.07
247.248	21.16
247.464	64.17
247.681	45.74
247.898	0.68
248.115	12.97
248.332	-17.75
248.549	-7.51
248.766	19.11
248.983	111.27
249.2	12.97
249.417	64.17
249.633	41.64
249.85	23.21
250.067	-23.89
250.284	-48.47
250.501	88.75
250.717	47.79
250.934	-5.46
251.151	27.31
251.368	-21.85
251.585	137.9
251.801	119.46
252.018	6.83
252.235	74.41
252.451	17.07
252.668	-1.37
252.885	8.87
253.102	74.41
253.318	29.35
253.535	49.83
253.752	53.93
253.968	-5.46
254.185	4.78
254.401	37.55
254.618	17.07
254.835	0.68
255.051	45.74
255.268	31.4
255.484	55.98
255.701	58.03
255.917	88.75
256.134	12.97
256.351	-36.18
256.567	4.78
256.784	15.02
257	74.41
257.217	49.83
257.433	29.35
257.65	4.78
257.866	53.93
258.082	33.45
258.299	-5.46
258.515	88.75
258.732	17.07
258.948	-3.41
259.165	49.83
259.381	15.02
259.597	-11.61
259.814	35.5
260.03	27.31
260.246	-36.18
260.463	64.17
260.679	8.87
260.895	62.12
261.112	37.55
261.328	23.21
261.544	-54.61
261.761	199.34
261.977	12.97
262.193	-77.14
262.409	21.16
262.626	15.02
262.842	55.98
263.058	12.97
263.274	39.59
263.49	10.92
263.707	-36.18
263.923	-15.7
264.139	-11.61
264.355	68.27
264.571	-40.28
264.787	-13.65
265.004	68.27
265.22	41.64
265.436	29.35
265.652	45.74
265.868	-3.41
266.084	4.78
266.3	12.97
266.516	-52.56
266.732	41.64
266.948	37.55
267.164	64.17
267.38	29.35
267.596	25.26
267.812	39.59
268.028	107.18
268.244	-11.61
268.46	10.92
268.676	49.83
268.892	-11.61
269.108	4.78
269.324	8.87
269.54	72.36
269.756	37.55
269.972	-32.08
270.188	53.93
270.403	51.88
270.619	-1.37
270.835	4.78
271.051	43.69
271.267	-50.52
271.483	10.92
271.698	74.41
271.914	72.36
272.13	25.26
272.346	43.69
272.562	21.16
272.777	53.93
272.993	-64.85
273.209	94.89
273.425	39.59
273.64	-17.75
273.856	94.89
274.072	19.11
274.287	-7.51
274.503	29.35
274.719	-7.51
274.934	-17.75
275.15	-23.89
275.366	23.21
275.581	-1.37
275.797	80.55
276.012	47.79
276.228	72.36
276.444	21.16
276.659	80.55
276.875	-27.99
277.09	51.88
277.306	17.07
277.521	45.74
277.737	35.5
277.952	80.55
278.168	47.79
278.383	127.66
278.599	-68.95
278.814	62.12
279.03	39.59
279.245	29.35
279.461	80.55
279.676	72.36
279.892	45.74
280.107	-44.37
280.322	-30.04
280.538	-15.7
280.753	-27.99
280.969	45.74
281.184	-48.47
281.399	37.55
281.615	96.94
281.83	-11.61
282.045	-54.61
282.26	12.97
282.476	76.46
282.691	55.98
282.906	-23.89
283.122	53.93
283.337	29.35
283.552	39.59
283.767	-44.37
283.983	80.55
284.198	39.59
284.413	-1.37
284.628	-68.95
284.843	4.78
285.058	66.22
285.274	37.55
285.489	21.16
285.704	53.93
285.919	45.74
286.134	12.97
286.349	80.55
286.564	-9.56
286.779	127.66
286.995	86.7
287.21	-44.37
287.425	88.75
287.64	0.68
287.855	25.26
288.07	-32.08
288.285	70.31
288.5	82.6
288.715	72.36
288.93	-44.37
289.145	23.21
289.36	64.17
289.575	6.83
289.79	8.87
290.004	66.22
290.219	41.64
290.434	86.7
290.649	55.98
290.864	45.74
291.079	-21.85
291.294	66.22
291.509	66.22
291.724	-50.52
291.938	6.83
292.153	86.7
292.368	12.97
292.583	29.35
292.798	70.31
293.012	19.11
293.227	119.46
293.442	103.08
293.657	135.85
293.871	4.78
294.086	62.12
294.301	45.74
294.516	39.59
294.73	-25.94
294.945	51.88
295.16	62.12
295.374	111.27
295.589	12.97
295.804	74.41
296.018	29.35
296.233	74.41
296.447	74.41
296.662	-9.56
296.877	0.68
297.091	31.4
297.306	33.45
297.52	23.21
297.735	31.4
297.949	12.97
298.164	-34.13
298.378	62.12
298.593	137.9
298.807	-58.71
299.022	4.78
299.236	55.98
299.451	49.83
299.665	64.17
299.88	-36.18
300.094	105.13
300.309	8.87
300.523	119.46
300.737	37.55
300.952	86.7
301.166	31.4
301.381	15.02
301.595	31.4
301.809	84.65
302.024	60.07
302.238	-60.76
302.452	12.97
302.667	25.26
302.881	78.51
303.095	-27.99
303.309	21.16
303.524	-27.99
303.738	-27.99
303.952	25.26
304.166	107.18
304.381	2.73
304.595	62.12
304.809	0.68
305.023	135.85
305.237	37.55
305.452	49.83
305.666	12.97
305.88	103.08
306.094	107.18
306.308	8.87
306.522	45.74
306.736	39.59
306.95	47.79
307.164	78.51
307.379	15.02
307.593	84.65
307.807	84.65
308.021	53.93
308.235	86.7
308.449	45.74
308.663	8.87
308.877	74.41
309.091	12.97
309.305	41.64
309.519	-1.37
309.733	88.75
309.947	-40.28
310.161	55.98
310.374	-9.56
310.588	55.98
310.802	78.51
311.016	41.64
311.23	8.87
311.444	49.83
311.658	23.21
311.872	146.09
312.085	35.5
312.299	55.98
312.513	86.7
312.727	72.36
312.941	-13.65
313.154	21.16
313.368	41.64
313.582	62.12
313.796	-1.37
314.009	70.31
314.223	98.99
314.437	137.9
314.651	25.26
314.864	29.35
315.078	90.79
315.292	53.93
315.505	62.12
315.719	70.31
315.933	51.88
316.146	31.4
316.36	53.93
316.573	70.31
316.787	-32.08
317.001	37.55
317.214	-17.75
317.428	21.16
317.641	53.93
317.855	68.27
318.068	17.07
318.282	-3.41
318.495	105.13
318.709	-17.75
318.922	94.89
319.136	70.31
319.349	53.93
319.563	23.21
319.776	53.93
319.99	-58.71
320.203	31.4
320.417	17.07
320.63	35.5
320.843	162.47
321.057	6.83
321.27	31.4
321.483	21.16
321.697	82.6
321.91	47.79
322.124	12.97
322.337	119.46
322.55	0.68
322.763	-9.56
322.977	-60.76
323.19	-25.94
323.403	70.31
323.617	12.97
323.83	70.31
324.043	45.74
324.256	101.03
324.469	12.97
324.683	53.93
324.896	10.92
325.109	62.12
325.322	58.03
325.535	70.31
325.748	148.14
325.962	-46.42
326.175	39.59
326.388	90.79
326.601	68.27
326.814	8.87
327.027	62.12
327.24	127.66
327.453	-3.41
327.666	55.98
327.879	19.11
328.092	96.94
328.305	2.73
328.518	29.35
328.731	-48.47
328.944	-36.18
329.157	0.68
329.37	41.64
329.583	29.35
329.796	70.31
330.009	-21.85
330.222	78.51
330.435	119.46
330.648	98.99
330.861	127.66
331.073	53.93
331.286	60.07
331.499	62.12
331.712	-64.85
331.925	31.4
332.138	58.03
332.35	72.36
332.563	-36.18
332.776	4.78
332.989	-27.99
333.202	37.55
333.414	12.97
333.627	78.51
333.84	-34.13
334.053	23.21
334.265	4.78
334.478	-9.56
334.691	39.59
334.903	41.64
335.116	-11.61
335.329	68.27
335.541	-75.09
335.754	84.65
335.966	-3.41
336.179	-11.61
336.392	-7.51
336.604	41.64
336.817	78.51
337.029	49.83
337.242	45.74
337.454	111.27
337.667	84.65
337.88	72.36
338.092	25.26
338.305	31.4
338.517	68.27
338.729	94.89
338.942	103.08
339.154	53.93
339.367	41.64
339.579	39.59
339.792	21.16
340.004	129.7
340.217	53.93
340.429	21.16
340.641	15.02
340.854	25.26
341.066	15.02
341.278	86.7
341.491	66.22
341.703	150.18
341.915	-27.99
342.128	8.87
342.34	27.31
342.552	-11.61
342.764	25.26
342.977	12.97
343.189	64.17
343.401	94.89
343.613	80.55
343.826	82.6
344.038	4.78
344.25	53.93
344.462	37.55
344.674	29.35
344.886	51.88
345.099	64.17
345.311	111.27
345.523	21.16
345.735	39.59
345.947	12.97
346.159	8.87
346.371	33.45
346.583	49.83
346.795	119.46
347.007	39.59
347.219	47.79
347.431	17.07
347.643	86.7
347.855	15.02
348.067	60.07
348.279	17.07
348.491	27.31
348.703	21.16
348.915	72.36
349.127	62.12
349.339	80.55
349.551	-48.47
349.763	115.37
349.975	8.87
350.187	-38.23
350.399	105.13
350.61	39.59
350.822	55.98
351.034	133.8
351.246	-7.51
351.458	37.55
351.669	2.73
351.881	72.36
352.093	62.12
352.305	68.27
352.517	144.04
352.728	111.27
352.94	4.78
353.152	62.12
353.363	-34.13
353.575	8.87
353.787	62.12
353.999	-9.56
354.21	178.86
354.422	55.98
354.633	17.07
354.845	33.45
355.057	86.7
355.268	37.55
355.48	74.41
355.692	-3.41
355.903	98.99
356.115	53.93
356.326	-77.14
356.538	90.79
356.749	62.12
356.961	94.89
357.172	31.4
357.384	33.45
357.595	105.13
357.807	70.31
358.018	15.02
358.23	66.22
358.441	137.9
358.653	12.97
358.864	76.46
359.075	74.41
359.287	113.32
359.498	12.97
359.709	19.11
359.921	55.98
360.132	55.98
360.344	105.13
360.555	-3.41
360.766	80.55
360.977	37.55
361.189	62.12
361.4	17.07
361.611	55.98
361.823	103.08
362.034	29.35
362.245	-34.13
362.456	68.27
362.667	51.88
362.879	4.78
363.09	135.85
363.301	6.83
363.512	64.17
363.723	47.79
363.935	-9.56
364.146	144.04
364.357	25.26
364.568	72.36
364.779	4.78
364.99	10.92
365.201	-3.41
365.412	70.31
365.623	45.74
365.834	86.7
366.045	0.68
366.256	86.7
366.467	45.74
366.678	49.83
366.889	43.69
367.1	74.41
367.311	64.17
367.522	45.74
367.733	-19.8
367.944	70.31
368.155	62.12
368.366	105.13
368.577	39.59
368.788	23.21
368.999	47.79
369.209	-25.94
369.42	94.89
369.631	148.14
369.842	-15.7
370.053	113.32
370.264	82.6
370.474	35.5
370.685	27.31
370.896	78.51
371.107	55.98
371.317	4.78
371.528	115.37
371.739	113.32
371.95	31.4
372.16	31.4
372.371	4.78
372.582	45.74
372.792	94.89
373.003	78.51
373.214	64.17
373.424	62.12
373.635	2.73
373.846	156.33
374.056	80.55
374.267	60.07
374.477	86.7
374.688	96.94
374.898	96.94
375.109	43.69
375.319	37.55
375.53	105.13
375.74	6.83
375.951	12.97
376.161	109.22
376.372	66.22
376.582	49.83
376.793	-3.41
377.003	-9.56
377.214	15.02
377.424	51.88
377.635	-19.8
377.845	47.79
378.055	164.52
378.266	39.59
378.476	43.69
378.686	53.93
378.897	21.16
379.107	113.32
379.317	64.17
379.528	-50.52
379.738	15.02
379.948	70.31
380.158	113.32
380.369	51.88
380.579	62.12
380.789	39.59
380.999	131.75
381.21	131.75
381.42	152.23
381.63	105.13
381.84	94.89
382.05	80.55
382.261	137.9
382.471	76.46
382.681	29.35
382.891	119.46
383.101	137.9
383.311	33.45
383.521	39.59
383.731	84.65
383.941	105.13
384.151	96.94
384.361	15.02
384.571	111.27
384.781	111.27
384.991	150.18
385.201	107.18
385.411	82.6
385.621	37.55
385.831	146.09
386.041	76.46
386.251	117.42
386.461	86.7
386.671	107.18
386.881	53.93
387.091	72.36
387.301	70.31
387.511	37.55
387.72	107.18
387.93	72.36
388.14	21.16
388.35	60.07
388.56	90.79
388.769	82.6
388.979	103.08
389.189	43.69
389.399	103.08
389.609	160.42
389.818	103.08
390.028	88.75
390.238	119.46
390.447	29.35
390.657	137.9
390.867	15.02
391.076	19.11
391.286	64.17
391.496	105.13
391.705	45.74
391.915	88.75
392.125	105.13
392.334	53.93
392.544	119.46
392.753	84.65
392.963	86.7
393.172	201.38
393.382	64.17
393.591	154.28
393.801	82.6
394.01	199.34
394.22	160.42
394.429	107.18
394.639	78.51
394.848	185
395.058	105.13
395.267	78.51
395.477	107.18
395.686	119.46
395.895	168.62
396.105	121.51
396.314	139.94
396.524	53.93
396.733	119.46
396.942	217.77
397.152	66.22
397.361	117.42
397.57	64.17
397.78	29.35
397.989	133.8
398.198	260.77
398.407	133.8
398.617	94.89
398.826	78.51
399.035	129.7
399.244	185
399.453	170.66
399.663	119.46
399.872	144.04
400.081	119.46
400.29	260.77
400.499	164.52
400.708	176.81
400.917	141.99
401.127	127.66
401.336	129.7
401.545	154.28
401.754	203.43
401.963	252.58
402.172	166.57
402.381	144.04
402.59	195.24
402.799	152.23
403.008	164.52
403.217	156.33
403.426	146.09
403.635	111.27
403.844	115.37
404.053	164.52
404.262	172.71
404.471	254.63
404.68	205.48
404.888	205.48
405.097	160.42
405.306	172.71
405.515	193.19
405.724	152.23
405.933	234.15
406.142	195.24
406.35	201.38
406.559	234.15
406.768	174.76
406.977	307.88
407.185	246.44
407.394	314.02
407.603	305.83
407.812	334.5
408.02	375.46
408.229	309.93
408.438	291.49
408.646	193.19
408.855	348.84
409.064	271.01
409.272	381.6
409.481	457.38
409.69	359.08
409.898	375.46
410.107	430.76
410.315	430.76
410.524	350.89
410.733	465.57
410.941	494.24
411.15	551.59
411.358	514.72
411.567	635.55
411.775	461.48
411.984	645.79
412.192	588.45
412.401	576.16
412.609	680.61
412.818	670.37
413.026	631.46
413.234	602.79
413.443	774.81
413.651	615.07
413.86	807.58
414.068	787.1
414.276	821.92
414.485	815.77
414.693	967.32
414.901	1049.24
415.11	993.95
415.318	1045.15
415.526	1061.53
415.734	1073.82
415.943	1198.74
416.151	1129.11
416.359	1168.02
416.567	1315.48
416.776	1249.94
416.984	1403.54
417.192	1434.26
417.4	1411.73
417.608	1329.81
417.817	1483.41
418.025	1505.94
418.233	1587.86
418.441	1587.86
418.649	1669.78
418.857	1766.03
419.065	1958.54
419.273	1882.77
419.481	1872.53
419.689	2015.88
419.897	2034.32
420.105	2024.08
420.313	2146.95
420.521	2237.06
420.729	2335.37
420.937	2409.09
421.145	2405
421.353	2550.4
421.561	2783.87
421.769	2757.25
421.977	2912.89
422.185	2898.56
422.393	3162.75
422.601	3287.67
422.809	3168.89
423.017	3334.78
423.224	3261.05
423.432	3617.4
423.64	3523.19
423.848	3906.16
424.056	3730.03
424.263	4049.52
424.471	4043.37
424.679	4065.9
424.887	4342.38
425.094	4487.78
425.302	4495.97
425.51	4717.15
425.718	4758.11
425.925	4924
426.133	5075.55
426.341	5284.44
426.548	5577.3
426.756	5567.06
426.964	5648.98
427.171	5896.78
427.379	6025.81
427.586	6177.36
427.794	6429.26
428.001	6515.27
428.209	7098.94
428.417	6914.63
428.624	7449.14
428.832	7422.52
429.039	7285.31
429.247	7496.25
429.454	8008.24
429.662	8415.79
429.869	8020.53
430.076	8503.85
430.284	8065.58
430.491	8507.94
430.699	9054.75
430.906	9228.83
431.114	9108
431.321	9441.82
431.528	9853.46
431.736	10408.46
431.943	10859.01
432.15	10506.76
432.358	10560.01
432.565	11317.76
432.772	11328
432.979	11686.39
433.187	12130.8
433.394	11950.58
433.601	12792.3
433.808	12796.39
434.016	12835.3
434.223	13195.75
434.43	14062.04
434.637	14002.65
434.844	14707.15
435.052	14809.54
435.259	14995.91
435.466	14997.96
435.673	14907.85
435.88	15995.32
436.087	16660.91
436.294	16718.25
436.501	16472.5
436.708	16587.18
436.915	17170.85
437.122	17920.41
437.329	17754.52
437.537	18442.64
437.743	18575.76
437.95	18502.03
438.157	19499.39
438.364	19986.81
438.571	20083.06
438.778	20277.62
438.985	21961.05
439.192	21408.1
439.399	21719.39
439.606	21440.87
439.813	22612.31
440.02	23974.2
440.227	23611.71
440.433	23445.83
440.64	23953.73
440.847	23789.89
441.054	24412.47
441.261	26210.59
441.467	25463.08
441.674	26132.76
441.881	26939.66
442.088	27056.4
442.294	26865.94
442.501	27580.68
442.708	28117.25
442.914	29157.61
443.121	29995.23
443.328	29133.04
443.534	31447.24
443.741	30783.7
443.948	30372.06
444.154	32258.24
444.361	32407.74
444.568	32465.08
444.774	32317.63
444.981	32915.64
445.187	33939.62
445.394	35270.8
445.6	34709.66
445.807	37806.19
446.013	36382.85
446.22	37089.4
446.426	38522.97
446.633	38678.62
446.839	40138.82
447.046	38486.11
447.252	40650.81
447.459	40544.32
447.665	40208.45
447.871	42188.84
448.078	43894.8
448.284	41863.21
448.491	43032.6
448.697	44365.83
448.903	44974.08
449.11	45391.86
449.316	44734.46
449.522	45187.07
449.728	46317.54
449.935	47089.63
450.141	46860.26
450.347	47937.49
450.553	46589.92
450.76	47124.44
450.966	48615.36
451.172	48170.96
451.378	49373.11
451.584	48246.73
451.791	49741.75
451.997	49121.21
452.203	49838
452.409	49766.32
452.615	49465.27
452.821	47869.9
453.027	47290.33
453.233	49534.9
453.44	48330.7
453.646	48388.04
453.852	48322.51
454.058	49307.58
454.264	48150.48
454.47	48953.28
454.676	47933.39
454.882	49092.54
455.088	45049.85
455.294	46024.68
455.5	46475.24
455.705	47003.61
455.911	45035.52
456.117	43730.96
456.323	44042.25
456.529	41242.68
456.735	43370.52
456.941	42104.87
457.147	41642.03
457.352	39958.6
457.558	39831.63
457.764	39823.43
457.97	39116.89
458.176	37980.26
458.381	38049.89
458.587	36282.5
458.793	36546.68
458.999	34381.98
459.204	36806.78
459.41	36001.93
459.616	33706.15
459.821	33423.53
460.027	33362.09
460.233	32618.68
460.438	31138
460.644	31533.26
460.85	30023.9
461.055	29403.37
461.261	29669.61
461.466	26984.72
461.672	26425.62
461.878	28438.78
462.083	26509.59
462.289	26083.61
462.494	25741.6
462.7	24449.33
462.905	23626.05
463.111	24504.63
463.316	24994.09
463.522	24148.28
463.727	24541.49
463.932	24273.21
464.138	24029.5
464.343	23947.58
464.549	23470.4
464.754	23935.29
464.959	24009.02
465.165	23689.54
465.37	22620.5
465.575	22215
465.781	23191.88
465.986	23130.44
466.191	22493.52
466.397	21506.4
466.602	20746.61
