Data from USB4F104151__222__14-33-54-140.txt Node

Date: Thu Mar 13 14:33:54 EDT 2025
User: louis
Spectrometer: USB4F10415
Trigger mode: 4
Integration Time (sec): 2.500000E-2
Scans to average: 1
Electric dark correction enabled: true
Nonlinearity correction enabled: false
Boxcar width: 0
XAxis mode: Wavelengths
Number of Pixels in Spectrum: 3648
>>>>>Begin Spectral Data<<<<<
178.204	-164.69
178.424	-164.69
178.644	-164.69
178.864	-142.16
179.084	-195.41
179.304	-90.96
179.524	56.49
179.744	5.29
179.964	36.01
180.184	-45.91
180.404	60.59
180.624	-33.62
180.844	-17.24
181.064	-45.91
181.283	21.67
181.503	-0.85
181.723	54.44
181.943	-17.24
182.163	17.58
182.383	-11.09
182.602	-13.14
182.822	29.87
183.042	19.63
183.262	50.35
183.482	62.63
183.701	5.29
183.921	15.53
184.141	-54.1
184.361	46.25
184.58	-2.9
184.8	11.43
185.02	17.58
185.239	85.16
185.459	-29.52
185.679	36.01
185.898	-33.62
186.118	68.78
186.338	15.53
186.557	36.01
186.777	-11.09
186.997	60.59
187.216	44.2
187.436	1.19
187.655	-47.96
187.875	52.39
188.095	-60.24
188.314	93.35
188.534	-33.62
188.753	76.97
188.973	60.59
189.192	48.3
189.412	27.82
189.631	7.34
189.851	-39.76
190.07	76.97
190.29	-13.14
190.509	27.82
190.729	29.87
190.948	64.68
191.168	89.26
191.387	11.43
191.607	-45.91
191.826	-23.38
192.045	68.78
192.265	29.87
192.484	-52.05
192.704	-41.81
192.923	-37.72
193.142	85.16
193.362	54.44
193.581	38.06
193.8	56.49
194.02	72.87
194.239	68.78
194.458	87.21
194.678	-11.09
194.897	64.68
195.116	52.39
195.335	111.78
195.555	31.91
195.774	76.97
195.993	97.45
196.212	56.49
196.432	-66.39
196.651	3.24
196.87	44.2
197.089	68.78
197.308	27.82
197.528	60.59
197.747	11.43
197.966	3.24
198.185	15.53
198.404	-13.14
198.623	27.82
198.842	36.01
199.062	54.44
199.281	97.45
199.5	-0.85
199.719	48.3
199.938	21.67
200.157	83.11
200.376	29.87
200.595	97.45
200.814	31.91
201.033	11.43
201.252	117.93
201.471	21.67
201.69	52.39
201.909	85.16
202.128	-62.29
202.347	64.68
202.566	36.01
202.785	19.63
203.004	15.53
203.223	109.74
203.442	60.59
203.661	-33.62
203.879	38.06
204.098	128.17
204.317	-0.85
204.536	-19.29
204.755	44.2
204.974	19.63
205.193	19.63
205.411	60.59
205.63	85.16
205.849	-13.14
206.068	56.49
206.287	-58.2
206.505	36.01
206.724	-4.95
206.943	-21.33
207.162	60.59
207.381	-2.9
207.599	36.01
207.818	23.72
208.037	29.87
208.255	-0.85
208.474	-2.9
208.693	44.2
208.911	-41.81
209.13	54.44
209.349	19.63
209.567	60.59
209.786	52.39
210.005	-21.33
210.223	29.87
210.442	-9.05
210.661	152.74
210.879	40.11
211.098	27.82
211.316	21.67
211.535	19.63
211.753	27.82
211.972	58.54
212.191	-15.19
212.409	29.87
212.628	60.59
212.846	19.63
213.065	-0.85
213.283	66.73
213.502	7.34
213.72	-7
213.938	101.55
214.157	-29.52
214.375	38.06
214.594	36.01
214.812	-19.29
215.031	29.87
215.249	7.34
215.467	25.77
215.686	38.06
215.904	64.68
216.122	5.29
216.341	13.48
216.559	85.16
216.778	60.59
216.996	40.11
217.214	31.91
217.432	81.07
217.651	-13.14
217.869	50.35
218.087	1.19
218.306	-39.76
218.524	31.91
218.742	-2.9
218.96	31.91
219.179	25.77
219.397	36.01
219.615	68.78
219.833	27.82
220.051	13.48
220.27	130.22
220.488	-17.24
220.706	7.34
220.924	36.01
221.142	19.63
221.36	60.59
221.578	-33.62
221.796	-29.52
222.015	11.43
222.233	-54.1
222.451	126.12
222.669	38.06
222.887	62.63
223.105	-33.62
223.323	21.67
223.541	7.34
223.759	36.01
223.977	-41.81
224.195	31.91
224.413	5.29
224.631	-45.91
224.849	21.67
225.067	72.87
225.285	-9.05
225.503	76.97
225.721	3.24
225.939	36.01
226.157	7.34
226.375	111.78
226.592	-29.52
226.81	87.21
227.028	101.55
227.246	128.17
227.464	40.11
227.682	48.3
227.9	56.49
228.117	111.78
228.335	-43.86
228.553	27.82
228.771	-4.95
228.989	-11.09
229.206	95.4
229.424	13.48
229.642	52.39
229.86	-37.72
230.077	48.3
230.295	7.34
230.513	36.01
230.731	11.43
230.948	76.97
231.166	160.94
231.384	19.63
231.601	-13.14
231.819	62.63
232.037	-58.2
232.254	-2.9
232.472	-4.95
232.689	15.53
232.907	52.39
233.125	52.39
233.342	11.43
233.56	29.87
233.777	-2.9
233.995	36.01
234.213	33.96
234.43	68.78
234.648	23.72
234.865	36.01
235.083	-33.62
235.3	31.91
235.518	-17.24
235.735	23.72
235.953	183.46
236.17	-60.24
236.388	-19.29
236.605	-13.14
236.822	50.35
237.04	50.35
237.257	107.69
237.475	52.39
237.692	76.97
237.909	76.97
238.127	17.58
238.344	52.39
238.562	136.36
238.779	-0.85
238.996	-70.48
239.214	13.48
239.431	-7
239.648	-2.9
239.865	13.48
240.083	-7
240.3	-23.38
240.517	48.3
240.735	-23.38
240.952	99.5
241.169	-9.05
241.386	-13.14
241.603	3.24
241.821	21.67
242.038	7.34
242.255	93.35
242.472	-103.25
242.689	36.01
242.907	21.67
243.124	13.48
243.341	31.91
243.558	48.3
243.775	83.11
243.992	-29.52
244.209	21.67
244.426	124.07
244.643	60.59
244.86	64.68
245.078	68.78
245.295	85.16
245.512	-7
245.729	-11.09
245.946	81.07
246.163	60.59
246.38	87.21
246.597	11.43
246.814	5.29
247.031	40.11
247.248	126.12
247.464	52.39
247.681	36.01
247.898	76.97
248.115	76.97
248.332	23.72
248.549	70.83
248.766	79.02
248.983	79.02
249.2	19.63
249.417	81.07
249.633	27.82
249.85	93.35
250.067	60.59
250.284	72.87
250.501	19.63
250.717	117.93
250.934	-2.9
251.151	-19.29
251.368	5.29
251.585	50.35
251.801	46.25
252.018	15.53
252.235	21.67
252.451	-4.95
252.668	44.2
252.885	62.63
253.102	11.43
253.318	42.15
253.535	-62.29
253.752	1.19
253.968	11.43
254.185	-33.62
254.401	81.07
254.618	60.59
254.835	1.19
255.051	109.74
255.268	93.35
255.484	56.49
255.701	29.87
255.917	54.44
256.134	-0.85
256.351	19.63
256.567	5.29
256.784	-27.48
257	-9.05
257.217	117.93
257.433	27.82
257.65	1.19
257.866	72.87
258.082	-37.72
258.299	-41.81
258.515	60.59
258.732	50.35
258.948	-17.24
259.165	21.67
259.381	29.87
259.597	19.63
259.814	-41.81
260.03	9.39
260.246	72.87
260.463	13.48
260.679	62.63
260.895	-9.05
261.112	87.21
261.328	-43.86
261.544	48.3
261.761	62.63
261.977	27.82
262.193	-21.33
262.409	48.3
262.626	31.91
262.842	70.83
263.058	48.3
263.274	-11.09
263.49	44.2
263.707	15.53
263.923	76.97
264.139	19.63
264.355	11.43
264.571	91.31
264.787	97.45
265.004	60.59
265.22	-13.14
265.436	-4.95
265.652	42.15
265.868	76.97
266.084	-9.05
266.3	13.48
266.516	-66.39
266.732	23.72
266.948	105.64
267.164	60.59
267.38	5.29
267.596	-9.05
267.812	46.25
268.028	52.39
268.244	-0.85
268.46	3.24
268.676	54.44
268.892	81.07
269.108	-84.82
269.324	36.01
269.54	-54.1
269.756	93.35
269.972	29.87
270.188	11.43
270.403	5.29
270.619	52.39
270.835	-9.05
271.051	-11.09
271.267	52.39
271.483	1.19
271.698	-11.09
271.914	21.67
272.13	25.77
272.346	68.78
272.562	-11.09
272.777	40.11
272.993	19.63
273.209	-23.38
273.425	19.63
273.64	-35.67
273.856	107.69
274.072	44.2
274.287	1.19
274.503	87.21
274.719	46.25
274.934	38.06
275.15	-13.14
275.366	38.06
275.581	13.48
275.797	58.54
276.012	19.63
276.228	23.72
276.444	58.54
276.659	101.55
276.875	-23.38
277.09	-13.14
277.306	13.48
277.521	81.07
277.737	42.15
277.952	60.59
278.168	5.29
278.383	40.11
278.599	76.97
278.814	72.87
279.03	48.3
279.245	70.83
279.461	-21.33
279.676	56.49
279.892	46.25
280.107	11.43
280.322	29.87
280.538	126.12
280.753	5.29
280.969	87.21
281.184	52.39
281.399	136.36
281.615	-78.68
281.83	50.35
282.045	27.82
282.26	31.91
282.476	17.58
282.691	60.59
282.906	44.2
283.122	95.4
283.337	-2.9
283.552	36.01
283.767	11.43
283.983	21.67
284.198	-23.38
284.413	38.06
284.628	-17.24
284.843	40.11
285.058	42.15
285.274	5.29
285.489	81.07
285.704	81.07
285.919	29.87
286.134	-43.86
286.349	72.87
286.564	27.82
286.779	5.29
286.995	54.44
287.21	46.25
287.425	62.63
287.64	89.26
287.855	70.83
288.07	-4.95
288.285	160.94
288.5	15.53
288.715	81.07
288.93	64.68
289.145	-52.05
289.36	36.01
289.575	11.43
289.79	48.3
290.004	-4.95
290.219	56.49
290.434	-13.14
290.649	25.77
290.864	66.73
291.079	-23.38
291.294	76.97
291.509	64.68
291.724	46.25
291.938	-21.33
292.153	134.31
292.368	-19.29
292.583	-54.1
292.798	83.11
293.012	25.77
293.227	-41.81
293.442	-4.95
293.657	117.93
293.871	52.39
294.086	29.87
294.301	109.74
294.516	5.29
294.73	54.44
294.945	-25.43
295.16	97.45
295.374	89.26
295.589	175.27
295.804	11.43
296.018	76.97
296.233	36.01
296.447	85.16
296.662	25.77
296.877	11.43
297.091	66.73
297.306	-15.19
297.52	7.34
297.735	113.83
297.949	52.39
298.164	52.39
298.378	-13.14
298.593	54.44
298.807	3.24
299.022	95.4
299.236	36.01
299.451	-7
299.665	-41.81
299.88	48.3
300.094	74.92
300.309	7.34
300.523	-21.33
300.737	-13.14
300.952	52.39
301.166	50.35
301.381	19.63
301.595	11.43
301.809	62.63
302.024	-19.29
302.238	31.91
302.452	111.78
302.667	44.2
302.881	44.2
303.095	101.55
303.309	105.64
303.524	11.43
303.738	-37.72
303.952	-2.9
304.166	-4.95
304.381	40.11
304.595	31.91
304.809	27.82
305.023	107.69
305.237	-7
305.452	19.63
305.666	68.78
305.88	76.97
306.094	46.25
306.308	27.82
306.522	109.74
306.736	44.2
306.95	40.11
307.164	-19.29
307.379	85.16
307.593	160.94
307.807	44.2
308.021	60.59
308.235	11.43
308.449	-31.57
308.663	3.24
308.877	54.44
309.091	76.97
309.305	68.78
309.519	-45.91
309.733	52.39
309.947	-33.62
310.161	9.39
310.374	58.54
310.588	44.2
310.802	-93.01
311.016	-0.85
311.23	19.63
311.444	15.53
311.658	70.83
311.872	81.07
312.085	15.53
312.299	54.44
312.513	60.59
312.727	66.73
312.941	15.53
313.154	44.2
313.368	23.72
313.582	-0.85
313.796	40.11
314.009	85.16
314.223	44.2
314.437	-39.76
314.651	101.55
314.864	-4.95
315.078	29.87
315.292	-25.43
315.505	62.63
315.719	23.72
315.933	56.49
316.146	31.91
316.36	42.15
316.573	7.34
316.787	44.2
317.001	62.63
317.214	15.53
317.428	3.24
317.641	-21.33
317.855	11.43
318.068	60.59
318.282	7.34
318.495	64.68
318.709	79.02
318.922	-9.05
319.136	76.97
319.349	107.69
319.563	-33.62
319.776	48.3
319.99	-25.43
320.203	29.87
320.417	36.01
320.63	93.35
320.843	52.39
321.057	107.69
321.27	38.06
321.483	93.35
321.697	46.25
321.91	40.11
322.124	19.63
322.337	38.06
322.55	-13.14
322.763	-64.34
322.977	79.02
323.19	-58.2
323.403	56.49
323.617	19.63
323.83	79.02
324.043	-29.52
324.256	27.82
324.469	-13.14
324.683	54.44
324.896	-11.09
325.109	76.97
325.322	33.96
325.535	38.06
325.748	107.69
325.962	27.82
326.175	72.87
326.388	60.59
326.601	48.3
326.814	-25.43
327.027	-2.9
327.24	60.59
327.453	29.87
327.666	48.3
327.879	36.01
328.092	95.4
328.305	-21.33
328.518	70.83
328.731	-13.14
328.944	29.87
329.157	-13.14
329.37	93.35
329.583	27.82
329.796	136.36
330.009	19.63
330.222	-0.85
330.435	27.82
330.648	29.87
330.861	44.2
331.073	158.89
331.286	29.87
331.499	21.67
331.712	11.43
331.925	70.83
332.138	-50
332.35	105.64
332.563	19.63
332.776	128.17
332.989	93.35
333.202	44.2
333.414	17.58
333.627	72.87
333.84	27.82
334.053	81.07
334.265	23.72
334.478	11.43
334.691	11.43
334.903	36.01
335.116	21.67
335.329	95.4
335.541	52.39
335.754	109.74
335.966	38.06
336.179	111.78
336.392	66.73
336.604	21.67
336.817	-21.33
337.029	44.2
337.242	11.43
337.454	19.63
337.667	68.78
337.88	101.55
338.092	76.97
338.305	19.63
338.517	19.63
338.729	68.78
338.942	48.3
339.154	-43.86
339.367	-37.72
339.579	52.39
339.792	23.72
340.004	-4.95
340.217	29.87
340.429	23.72
340.641	1.19
340.854	5.29
341.066	76.97
341.278	60.59
341.491	101.55
341.703	36.01
341.915	68.78
342.128	21.67
342.34	46.25
342.552	48.3
342.764	3.24
342.977	81.07
343.189	50.35
343.401	68.78
343.613	-0.85
343.826	3.24
344.038	48.3
344.25	11.43
344.462	64.68
344.674	97.45
344.886	15.53
345.099	15.53
345.311	68.78
345.523	72.87
345.735	-45.91
345.947	44.2
346.159	17.58
346.371	46.25
346.583	87.21
346.795	103.59
347.007	-4.95
347.219	81.07
347.431	42.15
347.643	97.45
347.855	52.39
348.067	117.93
348.279	-19.29
348.491	-17.24
348.703	72.87
348.915	95.4
349.127	-2.9
349.339	36.01
349.551	-21.33
349.763	-0.85
349.975	-35.67
350.187	103.59
350.399	25.77
350.61	79.02
350.822	62.63
351.034	52.39
351.246	54.44
351.458	-21.33
351.669	40.11
351.881	81.07
352.093	31.91
352.305	11.43
352.517	27.82
352.728	130.22
352.94	64.68
353.152	11.43
353.363	5.29
353.575	48.3
353.787	109.74
353.999	3.24
354.21	93.35
354.422	44.2
354.633	56.49
354.845	64.68
355.057	44.2
355.268	29.87
355.48	36.01
355.692	3.24
355.903	79.02
356.115	-33.62
356.326	-0.85
356.538	52.39
356.749	52.39
356.961	109.74
357.172	76.97
357.384	33.96
357.595	68.78
357.807	76.97
358.018	19.63
358.23	52.39
358.441	122.02
358.653	101.55
358.864	64.68
359.075	33.96
359.287	36.01
359.498	117.93
359.709	60.59
359.921	54.44
360.132	-35.67
360.344	50.35
360.555	3.24
360.766	-21.33
360.977	46.25
361.189	64.68
361.4	64.68
361.611	76.97
361.823	52.39
362.034	19.63
362.245	-0.85
362.456	158.89
362.667	60.59
362.879	44.2
363.09	105.64
363.301	101.55
363.512	48.3
363.723	-13.14
363.935	48.3
364.146	48.3
364.357	46.25
364.568	66.73
364.779	93.35
364.99	21.67
365.201	-4.95
365.412	38.06
365.623	1.19
365.834	76.97
366.045	56.49
366.256	3.24
366.467	117.93
366.678	76.97
366.889	-31.57
367.1	101.55
367.311	117.93
367.522	-19.29
367.733	27.82
367.944	60.59
368.155	-37.72
368.366	109.74
368.577	85.16
368.788	76.97
368.999	-17.24
369.209	40.11
369.42	113.83
369.631	146.6
369.842	-13.14
370.053	93.35
370.264	56.49
370.474	40.11
370.685	60.59
370.896	87.21
371.107	113.83
371.317	95.4
371.528	-13.14
371.739	46.25
371.95	101.55
372.16	76.97
372.371	3.24
372.582	36.01
372.792	93.35
373.003	70.83
373.214	70.83
373.424	54.44
373.635	62.63
373.846	115.88
374.056	15.53
374.267	79.02
374.477	70.83
374.688	11.43
374.898	-0.85
375.109	66.73
375.319	36.01
375.53	111.78
375.74	70.83
375.951	3.24
376.161	29.87
376.372	79.02
376.582	-7
376.793	31.91
377.003	124.07
377.214	60.59
377.424	31.91
377.635	11.43
377.845	-35.67
378.055	44.2
378.266	-4.95
378.476	31.91
378.686	109.74
378.897	-11.09
379.107	132.26
379.317	44.2
379.528	23.72
379.738	103.59
379.948	44.2
380.158	68.78
380.369	62.63
380.579	79.02
380.789	-0.85
380.999	93.35
381.21	85.16
381.42	103.59
381.63	76.97
381.84	52.39
382.05	109.74
382.261	150.7
382.471	76.97
382.681	36.01
382.891	97.45
383.101	3.24
383.311	-60.24
383.521	36.01
383.731	103.59
383.941	-11.09
384.151	-29.52
384.361	38.06
384.571	91.31
384.781	185.51
384.991	122.02
385.201	160.94
385.411	103.59
385.621	46.25
385.831	70.83
386.041	64.68
386.251	79.02
386.461	46.25
386.671	95.4
386.881	46.25
387.091	60.59
387.301	93.35
387.511	91.31
387.72	19.63
387.93	60.59
388.14	21.67
388.35	83.11
388.56	85.16
388.769	169.13
388.979	76.97
389.189	38.06
389.399	101.55
389.609	44.2
389.818	93.35
390.028	93.35
390.238	27.82
390.447	-17.24
390.657	70.83
390.867	36.01
391.076	-2.9
391.286	42.15
391.496	68.78
391.705	97.45
391.915	70.83
392.125	105.64
392.334	9.39
392.544	134.31
392.753	101.55
392.963	52.39
393.172	119.98
393.382	62.63
393.591	154.79
393.801	38.06
394.01	169.13
394.22	56.49
394.429	93.35
394.639	70.83
394.848	136.36
395.058	68.78
395.267	126.12
395.477	144.55
395.686	85.16
395.895	101.55
396.105	148.65
396.314	130.22
396.524	76.97
396.733	130.22
396.942	201.9
397.152	103.59
397.361	158.89
397.57	148.65
397.78	122.02
397.989	95.4
398.198	173.22
398.407	91.31
398.617	134.31
398.826	89.26
399.035	107.69
399.244	146.6
399.453	111.78
399.663	36.01
399.872	146.6
400.081	103.59
400.29	93.35
400.499	134.31
400.708	130.22
400.917	68.78
401.127	107.69
401.336	99.5
401.545	208.04
401.754	134.31
401.963	85.16
402.172	103.59
402.381	93.35
402.59	214.18
402.799	185.51
403.008	216.23
403.217	160.94
403.426	138.41
403.635	160.94
403.844	144.55
404.053	199.85
404.262	240.81
404.471	240.81
404.68	132.26
404.888	165.03
405.097	187.56
405.306	228.52
405.515	232.62
405.724	162.98
405.933	191.66
406.142	203.94
406.35	226.47
406.559	228.52
406.768	273.57
406.977	292.01
407.185	257.19
407.394	341.16
407.603	203.94
407.812	232.62
408.02	330.92
408.229	281.77
408.438	335.01
408.646	269.48
408.855	289.96
409.064	308.39
409.272	353.45
409.481	404.64
409.69	355.49
409.898	363.69
410.107	382.12
410.315	322.73
410.524	488.61
410.733	470.18
410.941	431.27
411.15	492.71
411.358	490.66
411.567	515.23
411.775	556.19
411.984	543.91
412.192	601.25
412.401	591.01
412.609	609.44
412.818	699.55
413.026	654.5
413.234	699.55
413.443	656.54
413.651	683.17
413.86	752.8
414.068	785.57
414.276	816.29
414.485	875.68
414.693	906.4
414.901	1004.7
415.11	939.16
415.318	910.49
415.526	980.12
415.734	1051.8
415.943	1029.27
416.151	1168.54
416.359	1105.05
416.567	1066.14
416.776	1143.96
416.984	1227.93
417.192	1285.27
417.4	1229.98
417.608	1318.04
417.817	1467.54
418.025	1500.31
418.233	1576.08
418.441	1453.2
418.649	1658
418.857	1717.39
419.065	1766.54
419.273	1709.2
419.481	1799.31
419.689	1928.33
419.897	1957
420.105	1981.58
420.313	2169.99
420.521	2165.9
420.729	2167.95
420.937	2243.72
421.145	2354.31
421.353	2329.74
421.561	2575.49
421.769	2567.3
421.977	2714.75
422.185	2636.93
422.393	2862.21
422.601	3026.04
422.809	3036.28
423.017	3075.2
423.224	3134.59
423.432	3214.46
423.64	3323
423.848	3652.72
424.056	3523.7
424.263	3755.12
424.471	3716.21
424.679	3834.99
424.887	4058.22
425.094	4140.14
425.302	4174.95
425.51	4385.9
425.718	4525.16
425.925	4488.29
426.133	4662.37
426.341	4965.47
426.548	5149.79
426.756	5149.79
426.964	5203.04
427.171	5438.55
427.379	5631.06
427.586	5774.42
427.794	6061.13
428.001	6122.57
428.209	6566.98
428.417	6530.12
428.624	6896.71
428.832	6892.61
429.039	6812.74
429.247	6857.79
429.454	7412.79
429.662	7992.37
429.869	7244.86
430.076	8023.09
430.284	7801.91
430.491	8121.39
430.699	8530.98
430.906	8567.85
431.114	8786.98
431.321	8891.43
431.528	9264.16
431.736	9772.05
431.943	10015.76
432.15	9823.25
432.358	9970.71
432.565	10474.51
432.772	10497.03
432.979	11158.53
433.187	11176.96
433.394	11355.13
433.601	11998.2
433.808	12291.06
434.016	12086.26
434.223	12653.55
434.43	13091.81
434.637	12946.41
434.844	13923.29
435.052	14052.31
435.259	13829.08
435.466	14214.1
435.673	14074.84
435.88	14765
436.087	15385.54
436.294	15590.33
436.501	15346.62
436.708	15516.61
436.915	15963.06
437.122	16669.61
437.329	16632.75
437.537	17202.08
437.743	17249.19
437.95	17544.09
438.157	18267.03
438.364	19004.3
438.571	18989.96
438.778	19094.41
438.985	20597.62
439.192	19757.95
439.399	20556.66
439.606	20009.85
439.813	21218.15
440.02	22428.5
440.227	21850.97
440.433	21748.57
440.64	22545.23
440.847	22061.91
441.054	23020.36
441.261	24292.15
441.467	23749.44
441.674	24505.14
441.881	25508.65
442.088	25492.26
442.294	25185.07
442.501	25557.8
442.708	26465.05
442.914	27151.12
443.121	28273.4
443.328	27753.22
443.534	29641.45
443.741	28795.64
443.948	28326.65
444.154	30616.28
444.361	30180.06
444.568	30522.07
444.774	30544.6
444.981	30765.78
445.187	31572.68
445.394	32813.75
445.6	32701.11
445.807	35685
446.013	33907.37
446.22	34914.97
446.426	36074.12
446.633	36244.1
446.839	37565.04
447.046	36037.25
447.252	37741.16
447.459	38308.45
447.665	37943.91
447.871	39811.66
448.078	40964.67
448.284	39424.59
448.491	40479.3
448.697	41613.87
448.903	42463.78
449.11	42496.55
449.316	41902.64
449.522	42908.19
449.728	44169.74
449.935	44075.53
450.141	44077.58
450.347	44892.67
450.553	43657.74
450.76	44218.89
450.966	45855.21
451.172	45021.69
451.378	46268.9
451.584	45339.13
451.791	46408.17
451.997	46258.66
452.203	46645.73
452.409	47331.8
452.615	46516.71
452.821	44882.43
453.027	44716.54
453.233	46684.64
453.44	44671.49
453.646	45320.7
453.852	45890.03
454.058	46447.08
454.264	44947.96
454.47	46191.08
454.676	44816.89
454.882	46496.23
455.088	42117.67
455.294	42981.91
455.5	43612.69
455.705	43534.87
455.911	42183.21
456.117	41423.41
456.323	40897.08
456.529	38959.7
456.735	40424
456.941	39518.8
457.147	39090.77
457.352	37358.19
457.558	37425.78
457.764	37681.77
457.97	36651.64
458.176	35740.3
458.381	36045.44
458.587	34247.33
458.793	34189.98
458.999	32045.76
459.204	34509.47
459.41	33774.25
459.616	31562.44
459.821	31464.14
460.027	31333.07
460.233	30599.9
460.438	29248.24
460.644	29569.77
460.85	28291.83
461.055	27546.37
461.261	27824.9
461.466	25643.81
461.672	24726.32
461.878	26387.22
462.083	24904.49
462.289	24066.88
462.494	24097.59
462.7	23192.39
462.905	22559.57
463.111	23163.72
463.316	23601.99
463.522	22680.4
463.727	22997.84
463.932	22612.82
464.138	22715.22
464.343	22348.63
464.549	21885.79
464.754	22825.81
464.959	22313.81
465.165	22260.57
465.37	21244.77
465.575	20716.4
465.781	21560.16
465.986	21807.97
466.191	20919.15
466.397	20534.13
466.602	19483.52
