Data from USB4F104151__298__14-34-56-597.txt Node

Date: Thu Mar 13 14:34:56 EDT 2025
User: louis
Spectrometer: USB4F10415
Trigger mode: 4
Integration Time (sec): 2.500000E-2
Scans to average: 1
Electric dark correction enabled: true
Nonlinearity correction enabled: false
Boxcar width: 0
XAxis mode: Wavelengths
Number of Pixels in Spectrum: 3648
>>>>>Begin Spectral Data<<<<<
178.204	-27.14
178.424	-27.14
178.644	-27.14
178.864	-158.21
179.084	-203.26
179.304	-14.85
179.524	-0.51
179.744	9.73
179.964	-4.61
180.184	5.63
180.404	30.21
180.624	-23.04
180.844	22.02
181.064	-2.56
181.283	-14.85
181.503	-43.52
181.723	36.35
181.943	-16.9
182.163	52.74
182.383	-12.8
182.602	-23.04
182.822	-39.42
183.042	26.11
183.262	-35.33
183.482	83.45
183.701	-20.99
183.921	13.82
184.141	42.5
184.361	44.54
184.58	-27.14
184.8	9.73
185.02	-27.14
185.239	52.74
185.459	17.92
185.679	5.63
185.898	-6.66
186.118	99.84
186.338	75.26
186.557	75.26
186.777	-23.04
186.997	11.78
187.216	13.82
187.436	44.54
187.655	77.31
187.875	1.54
188.095	-10.75
188.314	54.78
188.534	112.13
188.753	-70.14
188.973	38.4
189.192	93.69
189.412	44.54
189.631	73.21
189.851	17.92
190.07	52.74
190.29	-23.04
190.509	52.74
190.729	42.5
190.948	67.07
191.168	128.51
191.387	32.26
191.607	13.82
191.826	116.22
192.045	9.73
192.265	5.63
192.484	95.74
192.704	36.35
192.923	-6.66
193.142	99.84
193.362	60.93
193.581	67.07
193.8	65.02
194.02	157.18
194.239	28.16
194.458	26.11
194.678	34.3
194.897	62.98
195.116	44.54
195.335	17.92
195.555	93.69
195.774	38.4
195.993	91.65
196.212	42.5
196.432	60.93
196.651	52.74
196.87	-8.7
197.089	73.21
197.308	44.54
197.528	46.59
197.747	-10.75
197.966	17.92
198.185	95.74
198.404	-27.14
198.623	1.54
198.842	62.98
199.062	-8.7
199.281	1.54
199.5	-8.7
199.719	30.21
199.938	69.12
200.157	30.21
200.376	108.03
200.595	34.3
200.814	9.73
201.033	67.07
201.252	19.97
201.471	99.84
201.69	46.59
201.909	-20.99
202.128	46.59
202.347	79.36
202.566	42.5
202.785	9.73
203.004	17.92
203.223	58.88
203.442	-51.71
203.661	32.26
203.879	-14.85
204.098	58.88
204.317	26.11
204.536	22.02
204.755	60.93
204.974	-47.62
205.193	50.69
205.411	58.88
205.63	-72.19
205.849	75.26
206.068	54.78
206.287	26.11
206.505	75.26
206.724	13.82
206.943	26.11
207.162	36.35
207.381	71.17
207.599	-55.81
207.818	-39.42
208.037	52.74
208.255	46.59
208.474	73.21
208.693	75.26
208.911	34.3
209.13	58.88
209.349	48.64
209.567	-6.66
209.786	-4.61
210.005	26.11
210.223	19.97
210.442	34.3
210.661	46.59
210.879	-31.23
211.098	50.69
211.316	112.13
211.535	60.93
211.753	9.73
211.972	58.88
212.191	28.16
212.409	17.92
212.628	67.07
212.846	50.69
213.065	110.08
213.283	87.55
213.502	-4.61
213.72	17.92
213.938	30.21
214.157	-12.8
214.375	1.54
214.594	83.45
214.812	73.21
215.031	-4.61
215.249	13.82
215.467	1.54
215.686	17.92
215.904	83.45
216.122	-14.85
216.341	99.84
216.559	112.13
216.778	75.26
216.996	32.26
217.214	-8.7
217.432	56.83
217.651	67.07
217.869	-10.75
218.087	67.07
218.306	1.54
218.524	50.69
218.742	9.73
218.96	56.83
219.179	-27.14
219.397	11.78
219.615	13.82
219.833	105.98
220.051	122.37
220.27	3.58
220.488	62.98
220.706	5.63
220.924	34.3
221.142	58.88
221.36	91.65
221.578	-39.42
221.796	26.11
222.015	38.4
222.233	11.78
222.451	77.31
222.669	112.13
222.887	83.45
223.105	13.82
223.323	22.02
223.541	7.68
223.759	1.54
223.977	13.82
224.195	101.89
224.413	89.6
224.631	22.02
224.849	83.45
225.067	128.51
225.285	-2.56
225.503	26.11
225.721	-29.18
225.939	42.5
226.157	1.54
226.375	136.7
226.592	17.92
226.81	1.54
227.028	144.89
227.246	58.88
227.464	-14.85
227.682	11.78
227.9	93.69
228.117	17.92
228.335	46.59
228.553	22.02
228.771	-6.66
228.989	46.59
229.206	-31.23
229.424	67.07
229.642	85.5
229.86	-43.52
230.077	101.89
230.295	56.83
230.513	108.03
230.731	62.98
230.948	138.75
231.166	81.41
231.384	-6.66
231.601	-2.56
231.819	185.85
232.037	67.07
232.254	28.16
232.472	46.59
232.689	22.02
232.907	58.88
233.125	9.73
233.342	-6.66
233.56	30.21
233.777	-64
233.995	-51.71
234.213	112.13
234.43	67.07
234.648	-72.19
234.865	-23.04
235.083	85.5
235.3	52.74
235.518	69.12
235.735	3.58
235.953	56.83
236.17	-72.19
236.388	11.78
236.605	73.21
236.822	50.69
237.04	17.92
237.257	-4.61
237.475	-78.33
237.692	58.88
237.909	26.11
238.127	9.73
238.344	-43.52
238.562	38.4
238.779	3.58
238.996	-14.85
239.214	52.74
239.431	50.69
239.648	-27.14
239.865	44.54
240.083	87.55
240.3	50.69
240.517	22.02
240.735	75.26
240.952	36.35
241.169	54.78
241.386	3.58
241.603	52.74
241.821	-96.77
242.038	67.07
242.255	83.45
242.472	-33.28
242.689	-14.85
242.907	24.06
243.124	34.3
243.341	36.35
243.558	-20.99
243.775	140.8
243.992	17.92
244.209	108.03
244.426	134.65
244.643	85.5
244.86	46.59
245.078	17.92
245.295	67.07
245.512	34.3
245.729	24.06
245.946	60.93
246.163	28.16
246.38	75.26
246.597	46.59
246.814	34.3
247.031	1.54
247.248	24.06
247.464	50.69
247.681	34.3
247.898	62.98
248.115	28.16
248.332	-45.57
248.549	93.69
248.766	69.12
248.983	-4.61
249.2	67.07
249.417	60.93
249.633	75.26
249.85	26.11
250.067	50.69
250.284	44.54
250.501	30.21
250.717	42.5
250.934	81.41
251.151	11.78
251.368	-55.81
251.585	62.98
251.801	36.35
252.018	32.26
252.235	93.69
252.451	30.21
252.668	44.54
252.885	50.69
253.102	60.93
253.318	28.16
253.535	-2.56
253.752	13.82
253.968	44.54
254.185	15.87
254.401	17.92
254.618	30.21
254.835	60.93
255.051	134.65
255.268	32.26
255.484	9.73
255.701	3.58
255.917	60.93
256.134	26.11
256.351	19.97
256.567	5.63
256.784	-12.8
257	-76.29
257.217	44.54
257.433	9.73
257.65	50.69
257.866	60.93
258.082	50.69
258.299	9.73
258.515	67.07
258.732	-39.42
258.948	42.5
259.165	3.58
259.381	26.11
259.597	67.07
259.814	-14.85
260.03	58.88
260.246	50.69
260.463	5.63
260.679	95.74
260.895	71.17
261.112	36.35
261.328	36.35
261.544	3.58
261.761	173.57
261.977	34.3
262.193	69.12
262.409	34.3
262.626	-29.18
262.842	17.92
263.058	52.74
263.274	83.45
263.49	56.83
263.707	95.74
263.923	87.55
264.139	-57.86
264.355	38.4
264.571	44.54
264.787	34.3
265.004	65.02
265.22	-2.56
265.436	30.21
265.652	-51.71
265.868	83.45
266.084	1.54
266.3	62.98
266.516	22.02
266.732	46.59
266.948	1.54
267.164	17.92
267.38	79.36
267.596	42.5
267.812	165.37
268.028	1.54
268.244	11.78
268.46	36.35
268.676	5.63
268.892	103.93
269.108	62.98
269.324	-0.51
269.54	-2.56
269.756	42.5
269.972	7.68
270.188	42.5
270.403	-37.38
270.619	11.78
270.835	79.36
271.051	62.98
271.267	7.68
271.483	26.11
271.698	42.5
271.914	9.73
272.13	40.45
272.346	75.26
272.562	-6.66
272.777	77.31
272.993	19.97
273.209	3.58
273.425	-29.18
273.64	-94.72
273.856	69.12
274.072	44.54
274.287	67.07
274.503	79.36
274.719	-4.61
274.934	7.68
275.15	-29.18
275.366	17.92
275.581	1.54
275.797	-12.8
276.012	77.31
276.228	34.3
276.444	24.06
276.659	91.65
276.875	32.26
277.09	3.58
277.306	44.54
277.521	50.69
277.737	65.02
277.952	56.83
278.168	3.58
278.383	54.78
278.599	101.89
278.814	75.26
279.03	3.58
279.245	11.78
279.461	-51.71
279.676	58.88
279.892	-39.42
280.107	26.11
280.322	42.5
280.538	79.36
280.753	30.21
280.969	-27.14
281.184	50.69
281.399	44.54
281.615	-29.18
281.83	26.11
282.045	-20.99
282.26	-4.61
282.476	-37.38
282.691	7.68
282.906	132.61
283.122	26.11
283.337	1.54
283.552	62.98
283.767	-14.85
283.983	79.36
284.198	22.02
284.413	50.69
284.628	-16.9
284.843	22.02
285.058	52.74
285.274	67.07
285.489	-29.18
285.704	1.54
285.919	26.11
286.134	42.5
286.349	75.26
286.564	110.08
286.779	91.65
286.995	85.5
287.21	-12.8
287.425	46.59
287.64	34.3
287.855	-55.81
288.07	9.73
288.285	13.82
288.5	85.5
288.715	62.98
288.93	54.78
289.145	-43.52
289.36	50.69
289.575	3.58
289.79	67.07
290.004	26.11
290.219	32.26
290.434	22.02
290.649	1.54
290.864	9.73
291.079	46.59
291.294	34.3
291.509	58.88
291.724	17.92
291.938	-35.33
292.153	91.65
292.368	1.54
292.583	30.21
292.798	32.26
293.012	71.17
293.227	75.26
293.442	-35.33
293.657	1.54
293.871	50.69
294.086	62.98
294.301	42.5
294.516	30.21
294.73	24.06
294.945	83.45
295.16	38.4
295.374	26.11
295.589	77.31
295.804	56.83
296.018	81.41
296.233	97.79
296.447	97.79
296.662	-14.85
296.877	91.65
297.091	148.99
297.306	-6.66
297.52	87.55
297.735	60.93
297.949	13.82
298.164	67.07
298.378	-2.56
298.593	24.06
298.807	50.69
299.022	58.88
299.236	38.4
299.451	-6.66
299.665	1.54
299.88	5.63
300.094	93.69
300.309	50.69
300.523	32.26
300.737	71.17
300.952	11.78
301.166	42.5
301.381	42.5
301.595	28.16
301.809	-4.61
302.024	11.78
302.238	11.78
302.452	108.03
302.667	44.54
302.881	132.61
303.095	67.07
303.309	46.59
303.524	28.16
303.738	85.5
303.952	17.92
304.166	83.45
304.381	-43.52
304.595	50.69
304.809	77.31
305.023	58.88
305.237	-2.56
305.452	42.5
305.666	42.5
305.88	83.45
306.094	50.69
306.308	75.26
306.522	73.21
306.736	13.82
306.95	-35.33
307.164	48.64
307.379	26.11
307.593	136.7
307.807	62.98
308.021	91.65
308.235	93.69
308.449	-8.7
308.663	-8.7
308.877	134.65
309.091	50.69
309.305	108.03
309.519	-27.14
309.733	85.5
309.947	11.78
310.161	1.54
310.374	69.12
310.588	5.63
310.802	11.78
311.016	52.74
311.23	58.88
311.444	-47.62
311.658	26.11
311.872	91.65
312.085	116.22
312.299	93.69
312.513	83.45
312.727	52.74
312.941	36.35
313.154	58.88
313.368	17.92
313.582	67.07
313.796	30.21
314.009	-14.85
314.223	99.84
314.437	22.02
314.651	46.59
314.864	69.12
315.078	44.54
315.292	17.92
315.505	44.54
315.719	-23.04
315.933	54.78
316.146	120.32
316.36	58.88
316.573	116.22
316.787	54.78
317.001	38.4
317.214	-6.66
317.428	26.11
317.641	26.11
317.855	-0.51
318.068	91.65
318.282	77.31
318.495	-70.14
318.709	-6.66
318.922	83.45
319.136	99.84
319.349	93.69
319.563	19.97
319.776	-18.94
319.99	26.11
320.203	52.74
320.417	69.12
320.63	36.35
320.843	159.23
321.057	128.51
321.27	-45.57
321.483	-31.23
321.697	46.59
321.91	103.93
322.124	22.02
322.337	50.69
322.55	32.26
322.763	50.69
322.977	120.32
323.19	42.5
323.403	62.98
323.617	58.88
323.83	60.93
324.043	-16.9
324.256	9.73
324.469	30.21
324.683	36.35
324.896	69.12
325.109	15.87
325.322	9.73
325.535	50.69
325.748	97.79
325.962	50.69
326.175	75.26
326.388	-12.8
326.601	91.65
326.814	42.5
327.027	75.26
327.24	116.22
327.453	1.54
327.666	52.74
327.879	69.12
328.092	58.88
328.305	54.78
328.518	95.74
328.731	-0.51
328.944	-35.33
329.157	62.98
329.37	1.54
329.583	136.7
329.796	56.83
330.009	-47.62
330.222	87.55
330.435	-35.33
330.648	124.41
330.861	9.73
331.073	108.03
331.286	28.16
331.499	85.5
331.712	-27.14
331.925	28.16
332.138	46.59
332.35	110.08
332.563	-35.33
332.776	83.45
332.989	17.92
333.202	-6.66
333.414	65.02
333.627	73.21
333.84	5.63
334.053	62.98
334.265	13.82
334.478	46.59
334.691	101.89
334.903	58.88
335.116	71.17
335.329	34.3
335.541	71.17
335.754	91.65
335.966	-18.94
336.179	34.3
336.392	-4.61
336.604	30.21
336.817	5.63
337.029	-18.94
337.242	60.93
337.454	89.6
337.667	26.11
337.88	79.36
338.092	26.11
338.305	34.3
338.517	38.4
338.729	26.11
338.942	77.31
339.154	24.06
339.367	26.11
339.579	-14.85
339.792	26.11
340.004	9.73
340.217	83.45
340.429	89.6
340.641	-2.56
340.854	71.17
341.066	-23.04
341.278	75.26
341.491	122.37
341.703	36.35
341.915	-6.66
342.128	83.45
342.34	-25.09
342.552	44.54
342.764	46.59
342.977	58.88
343.189	13.82
343.401	9.73
343.613	118.27
343.826	93.69
344.038	58.88
344.25	28.16
344.462	30.21
344.674	15.87
344.886	87.55
345.099	40.45
345.311	28.16
345.523	5.63
345.735	-94.72
345.947	118.27
346.159	-6.66
346.371	124.41
346.583	101.89
346.795	151.04
347.007	26.11
347.219	9.73
347.431	48.64
347.643	48.64
347.855	60.93
348.067	112.13
348.279	17.92
348.491	83.45
348.703	50.69
348.915	-49.66
349.127	42.5
349.339	-23.04
349.551	-2.56
349.763	42.5
349.975	22.02
350.187	114.17
350.399	44.54
350.61	95.74
350.822	9.73
351.034	110.08
351.246	-49.66
351.458	142.85
351.669	75.26
351.881	67.07
352.093	134.65
352.305	58.88
352.517	75.26
352.728	52.74
352.94	140.8
353.152	-6.66
353.363	-14.85
353.575	30.21
353.787	134.65
353.999	-37.38
354.21	110.08
354.422	87.55
354.633	40.45
354.845	108.03
355.057	30.21
355.268	71.17
355.48	42.5
355.692	15.87
355.903	11.78
356.115	15.87
356.326	-14.85
356.538	75.26
356.749	-6.66
356.961	192
357.172	26.11
357.384	28.16
357.595	34.3
357.807	69.12
358.018	62.98
358.23	75.26
358.441	81.41
358.653	134.65
358.864	30.21
359.075	71.17
359.287	77.31
359.498	56.83
359.709	-33.28
359.921	28.16
360.132	91.65
360.344	32.26
360.555	-12.8
360.766	50.69
360.977	26.11
361.189	69.12
361.4	69.12
361.611	17.92
361.823	151.04
362.034	24.06
362.245	-35.33
362.456	26.11
362.667	22.02
362.879	9.73
363.09	69.12
363.301	22.02
363.512	65.02
363.723	9.73
363.935	62.98
364.146	17.92
364.357	-14.85
364.568	136.7
364.779	22.02
364.99	116.22
365.201	-12.8
365.412	81.41
365.623	3.58
365.834	30.21
366.045	-20.99
366.256	54.78
366.467	71.17
366.678	69.12
366.889	108.03
367.1	34.3
367.311	19.97
367.522	62.98
367.733	69.12
367.944	110.08
368.155	17.92
368.366	58.88
368.577	165.37
368.788	67.07
368.999	19.97
369.209	-12.8
369.42	126.46
369.631	159.23
369.842	81.41
370.053	13.82
370.264	60.93
370.474	52.74
370.685	1.54
370.896	17.92
371.107	42.5
371.317	26.11
371.528	56.83
371.739	40.45
371.95	114.17
372.16	103.93
372.371	-20.99
372.582	79.36
372.792	9.73
373.003	75.26
373.214	67.07
373.424	50.69
373.635	13.82
373.846	112.13
374.056	38.4
374.267	101.89
374.477	62.98
374.688	17.92
374.898	28.16
375.109	19.97
375.319	54.78
375.53	101.89
375.74	62.98
375.951	46.59
376.161	91.65
376.372	22.02
376.582	-6.66
376.793	114.17
377.003	3.58
377.214	1.54
377.424	36.35
377.635	28.16
377.845	108.03
378.055	60.93
378.266	42.5
378.476	112.13
378.686	118.27
378.897	11.78
379.107	151.04
379.317	58.88
379.528	-2.56
379.738	101.89
379.948	28.16
380.158	75.26
380.369	148.99
380.579	17.92
380.789	36.35
380.999	87.55
381.21	128.51
381.42	134.65
381.63	26.11
381.84	67.07
382.05	34.3
382.261	157.18
382.471	132.61
382.681	103.93
382.891	67.07
383.101	58.88
383.311	77.31
383.521	75.26
383.731	60.93
383.941	60.93
384.151	77.31
384.361	58.88
384.571	108.03
384.781	108.03
384.991	134.65
385.201	151.04
385.411	34.3
385.621	75.26
385.831	30.21
386.041	161.28
386.251	83.45
386.461	108.03
386.671	11.78
386.881	42.5
387.091	15.87
387.301	108.03
387.511	34.3
387.72	97.79
387.93	99.84
388.14	58.88
388.35	67.07
388.56	77.31
388.769	91.65
388.979	30.21
389.189	83.45
389.399	30.21
389.609	11.78
389.818	75.26
390.028	138.75
390.238	103.93
390.447	48.64
390.657	173.57
390.867	69.12
391.076	9.73
391.286	124.41
391.496	32.26
391.705	26.11
391.915	157.18
392.125	77.31
392.334	-18.94
392.544	142.85
392.753	42.5
392.963	44.54
393.172	75.26
393.382	93.69
393.591	124.41
393.801	62.98
394.01	144.89
394.22	142.85
394.429	38.4
394.639	140.8
394.848	83.45
395.058	75.26
395.267	116.22
395.477	142.85
395.686	75.26
395.895	194.05
396.105	198.14
396.314	81.41
396.524	60.93
396.733	112.13
396.942	48.64
397.152	79.36
397.361	103.93
397.57	144.89
397.78	108.03
397.989	101.89
398.198	75.26
398.407	157.18
398.617	122.37
398.826	165.37
399.035	67.07
399.244	101.89
399.453	155.13
399.663	146.94
399.872	126.46
400.081	85.5
400.29	148.99
400.499	54.78
400.708	222.72
400.917	151.04
401.127	99.84
401.336	108.03
401.545	198.14
401.754	198.14
401.963	235
402.172	103.93
402.381	89.6
402.59	224.76
402.799	118.27
403.008	144.89
403.217	161.28
403.426	226.81
403.635	108.03
403.844	112.13
404.053	181.76
404.262	128.51
404.471	241.15
404.68	212.48
404.888	198.14
405.097	146.94
405.306	239.1
405.515	257.53
405.724	245.24
405.933	267.77
406.142	298.49
406.35	271.87
406.559	181.76
406.768	210.43
406.977	282.11
407.185	218.62
407.394	292.35
407.603	275.96
407.812	304.64
408.02	329.21
408.229	275.96
408.438	249.34
408.646	218.62
408.855	333.31
409.064	329.21
409.272	396.79
409.481	464.38
409.69	331.26
409.898	388.6
410.107	331.26
410.315	466.42
410.524	452.09
410.733	443.9
410.941	468.47
411.15	509.43
411.358	554.49
411.567	558.58
411.775	534.01
411.984	566.78
412.192	624.12
412.401	558.58
412.609	718.33
412.818	687.61
413.026	667.13
413.234	701.94
413.443	642.55
413.651	607.73
413.86	779.76
414.068	787.96
414.276	828.92
414.485	837.11
414.693	804.34
414.901	1029.62
415.11	1054.19
415.318	1060.34
415.526	1066.48
415.734	1068.53
415.943	1037.81
416.151	1156.59
416.359	1068.53
416.567	1140.21
416.776	1152.49
416.984	1230.32
417.192	1320.43
417.4	1447.4
417.608	1385.96
417.817	1406.44
418.025	1377.77
418.233	1629.67
418.441	1535.46
418.649	1639.91
418.857	1697.25
419.065	1857
419.273	1785.32
419.481	1844.71
419.689	1902.05
419.897	2139.62
420.105	1975.78
420.313	2207.2
420.521	2207.2
420.729	2223.58
420.937	2348.51
421.145	2360.8
421.353	2491.87
421.561	2524.63
421.769	2684.38
421.977	2782.68
422.185	2840.02
422.393	2901.46
422.601	3079.63
422.809	3175.89
423.017	3124.69
423.224	3392.97
423.432	3335.63
423.64	3427.79
423.848	3689.93
424.056	3638.73
424.263	3827.14
424.471	3878.34
424.679	4056.51
424.887	4199.87
425.094	4328.89
425.302	4273.6
425.51	4482.49
425.718	4752.82
425.925	4617.66
426.133	4791.73
426.341	5129.65
426.548	5281.2
426.756	5285.3
426.964	5502.38
427.171	5809.58
427.379	5676.46
427.586	5891.49
427.794	6096.29
428.001	6327.71
428.209	6583.71
428.417	6538.65
428.624	7058.84
428.832	7153.04
429.039	6997.4
429.247	7044.5
429.454	7800.2
429.662	8123.78
429.869	7443.85
430.076	8224.13
430.284	7861.64
430.491	8258.95
430.699	8615.29
430.906	8824.19
431.114	8779.13
431.321	9205.11
431.528	9504.11
431.736	9868.65
431.943	10509.66
432.15	10106.21
432.358	10165.6
432.565	10788.19
432.772	10773.85
432.979	11396.43
433.187	11455.83
433.394	11298.13
433.601	12248.39
433.808	12240.2
434.016	12117.32
434.223	12619.07
434.43	13681.97
434.637	13176.12
434.844	14212.39
435.052	14462.24
435.259	14542.11
435.466	14454.05
435.673	14241.06
435.88	15213.85
436.087	16051.47
436.294	15815.95
436.501	15566.1
436.708	15863.05
436.915	16082.19
437.122	17265.91
437.329	17284.34
437.537	17720.56
437.743	17929.45
437.95	17890.54
438.157	18683.11
438.364	19475.67
438.571	19211.48
438.778	19231.96
438.985	21134.53
439.192	20163.79
439.399	21220.54
439.606	20452.55
439.813	21662.9
440.02	22899.87
440.227	22512.81
440.433	22070.45
440.64	23198.88
440.847	22647.97
441.054	23381.15
441.261	25040
441.467	24634.5
441.674	25203.84
441.881	25912.44
442.088	26012.79
442.294	25707.64
442.501	26190.96
442.708	26604.65
442.914	27806.81
443.121	28816.46
443.328	28181.59
443.534	30020.66
443.741	29500.48
443.948	28892.23
444.154	30975.02
444.361	31163.43
444.568	30987.3
444.774	30880.81
444.981	31446.05
445.187	32046.1
445.394	33733.63
445.6	33031.18
445.807	36711.38
446.013	34706.41
446.22	35503.07
446.426	36854.73
446.633	37399.49
446.839	38585.27
447.046	36766.67
447.252	39064.49
447.459	39113.64
447.665	38757.3
447.871	40338.33
448.078	41837.44
448.284	40108.96
448.491	41415.56
448.697	43156.33
448.903	43637.61
449.11	43619.17
449.316	42769.27
449.522	43668.33
449.728	44931.92
449.935	45081.42
450.141	45388.62
450.347	46496.57
450.553	44587.86
450.76	45646.66
450.966	46273.34
451.172	46177.09
451.378	47366.96
451.584	46242.62
451.791	47444.78
451.997	47559.47
452.203	48173.86
452.409	48184.1
452.615	48149.28
452.821	46205.76
453.027	45914.95
453.233	47758.12
453.44	45945.67
453.646	46732.09
453.852	46824.25
454.058	47647.53
454.264	46009.15
454.47	47006.51
454.676	46019.39
454.882	47102.77
455.088	43547.5
455.294	44206.94
455.5	44469.08
455.705	45218.64
455.911	43801.44
456.117	42509.18
456.323	42261.37
456.529	39867.3
456.735	41651.08
456.941	40696.72
457.147	39775.14
457.352	38280.12
457.558	38226.87
457.764	38482.87
457.97	37686.21
458.176	36461.52
458.381	36580.31
458.587	35214.31
458.793	35126.25
458.999	32936.97
459.204	35306.47
459.41	34726.89
459.616	32162.84
459.821	32039.96
460.027	32009.24
460.233	31247.4
460.438	29916.22
460.644	30354.48
460.85	28814.41
461.055	28071
461.261	28308.56
461.466	26371.18
461.672	25322.62
461.878	26858.6
462.083	25310.33
462.289	25001.09
462.494	24630.41
462.7	23628.95
462.905	23178.4
463.111	24099.98
463.316	23831.7
463.522	23395.48
463.727	23452.83
463.932	22914.21
464.138	23039.14
464.343	23168.16
464.549	22209.71
464.754	22983.84
464.959	22926.5
465.165	22838.44
465.37	21652.66
465.575	21243.07
465.781	21941.43
465.986	22117.55
466.191	21337.27
466.397	21089.47
466.602	19686.61
466.807	20804.8
467.012	20630.73
