Data from USB4F104151__307__14-35-02-745.txt Node

Date: Thu Mar 13 14:35:02 EDT 2025
User: louis
Spectrometer: USB4F10415
Trigger mode: 4
Integration Time (sec): 2.500000E-2
Scans to average: 1
Electric dark correction enabled: true
Nonlinearity correction enabled: false
Boxcar width: 0
XAxis mode: Wavelengths
Number of Pixels in Spectrum: 3648
>>>>>Begin Spectral Data<<<<<
178.204	-113.66
178.424	-113.66
178.644	-113.66
178.864	-222.2
179.084	-197.63
179.304	-19.46
179.524	-31.74
179.744	-58.37
179.964	23.55
180.184	-11.26
180.404	9.22
180.624	25.6
180.844	46.08
181.064	-11.26
181.283	-11.26
181.503	-1.02
181.723	39.94
181.943	-33.79
182.163	130.05
182.383	-35.84
182.602	56.32
182.822	76.8
183.042	-9.22
183.262	5.12
183.482	-41.98
183.701	-11.26
183.921	5.12
184.141	-17.41
184.361	-17.41
184.58	-84.99
184.8	56.32
185.02	29.7
185.239	5.12
185.459	-1.02
185.679	11.26
185.898	-113.66
186.118	39.94
186.338	9.22
186.557	113.66
186.777	39.94
186.997	25.6
187.216	5.12
187.436	66.56
187.655	-31.74
187.875	-19.46
188.095	37.89
188.314	56.32
188.534	62.46
188.753	-21.5
188.973	78.85
189.192	80.89
189.412	-9.22
189.631	-35.84
189.851	62.46
190.07	128
190.29	-21.5
190.509	-31.74
190.729	15.36
190.948	-1.02
191.168	130.05
191.387	56.32
191.607	-62.46
191.826	-13.31
192.045	-41.98
192.265	-27.65
192.484	-9.22
192.704	78.85
192.923	-54.27
193.142	46.08
193.362	48.13
193.581	95.23
193.8	74.75
194.02	-17.41
194.239	-9.22
194.458	48.13
194.678	-107.52
194.897	-11.26
195.116	25.6
195.335	-11.26
195.555	-19.46
195.774	-3.07
195.993	17.41
196.212	93.18
196.432	-29.7
196.651	-27.65
196.87	-5.12
197.089	119.81
197.308	15.36
197.528	-7.17
197.747	-29.7
197.966	29.7
198.185	70.65
198.404	5.12
198.623	44.03
198.842	-3.07
199.062	-27.65
199.281	74.75
199.5	33.79
199.719	70.65
199.938	7.17
200.157	62.46
200.376	-25.6
200.595	17.41
200.814	-41.98
201.033	25.6
201.252	21.5
201.471	31.74
201.69	-21.5
201.909	29.7
202.128	33.79
202.347	95.23
202.566	15.36
202.785	-11.26
203.004	21.5
203.223	130.05
203.442	17.41
203.661	-15.36
203.879	-27.65
204.098	56.32
204.317	46.08
204.536	5.12
204.755	-11.26
204.974	103.42
205.193	97.28
205.411	-11.26
205.63	-9.22
205.849	-82.94
206.068	-60.42
206.287	-1.02
206.505	54.27
206.724	-19.46
206.943	27.65
207.162	-1.02
207.381	-11.26
207.599	-41.98
207.818	35.84
208.037	-11.26
208.255	-19.46
208.474	25.6
208.693	56.32
208.911	23.55
209.13	13.31
209.349	13.31
209.567	39.94
209.786	23.55
210.005	64.51
210.223	19.46
210.442	-31.74
210.661	46.08
210.879	-23.55
211.098	-17.41
211.316	-27.65
211.535	97.28
211.753	66.56
211.972	50.18
212.191	-21.5
212.409	13.31
212.628	74.75
212.846	-11.26
213.065	-21.5
213.283	54.27
213.502	9.22
213.72	-1.02
213.938	-3.07
214.157	-19.46
214.375	29.7
214.594	-5.12
214.812	48.13
215.031	-33.79
215.249	54.27
215.467	13.31
215.686	-7.17
215.904	128
216.122	-1.02
216.341	15.36
216.559	-31.74
216.778	78.85
216.996	15.36
217.214	33.79
217.432	9.22
217.651	29.7
217.869	7.17
218.087	17.41
218.306	31.74
218.524	39.94
218.742	62.46
218.96	-19.46
219.179	9.22
219.397	-7.17
219.615	130.05
219.833	-3.07
220.051	21.5
220.27	44.03
220.488	-9.22
220.706	29.7
220.924	-41.98
221.142	-31.74
221.36	9.22
221.578	-1.02
221.796	5.12
222.015	25.6
222.233	13.31
222.451	46.08
222.669	-44.03
222.887	54.27
223.105	-27.65
223.323	31.74
223.541	-76.8
223.759	-9.22
223.977	41.98
224.195	9.22
224.413	-52.22
224.631	-11.26
224.849	50.18
225.067	91.13
225.285	17.41
225.503	-35.84
225.721	-5.12
225.939	-3.07
226.157	-27.65
226.375	87.04
226.592	3.07
226.81	-3.07
227.028	25.6
227.246	46.08
227.464	-66.56
227.682	-3.07
227.9	-7.17
228.117	66.56
228.335	-50.18
228.553	-23.55
228.771	-7.17
228.989	-17.41
229.206	-19.46
229.424	-84.99
229.642	-19.46
229.86	31.74
230.077	17.41
230.295	64.51
230.513	64.51
230.731	17.41
230.948	95.23
231.166	62.46
231.384	-13.31
231.601	-70.65
231.819	89.09
232.037	5.12
232.254	1.02
232.472	-9.22
232.689	9.22
232.907	76.8
233.125	1.02
233.342	-60.42
233.56	-29.7
233.777	7.17
233.995	-7.17
234.213	56.32
234.43	-50.18
234.648	-21.5
234.865	3.07
235.083	-1.02
235.3	-60.42
235.518	-1.02
235.735	-3.07
235.953	87.04
236.17	27.65
236.388	-1.02
236.605	-3.07
236.822	62.46
237.04	64.51
237.257	23.55
237.475	-66.56
237.692	-15.36
237.909	-17.41
238.127	-11.26
238.344	68.61
238.562	-64.51
238.779	-21.5
238.996	70.65
239.214	62.46
239.431	13.31
239.648	-19.46
239.865	-17.41
240.083	13.31
240.3	21.5
240.517	21.5
240.735	5.12
240.952	-3.07
241.169	21.5
241.386	25.6
241.603	13.31
241.821	15.36
242.038	-35.84
242.255	-13.31
242.472	-60.42
242.689	66.56
242.907	44.03
243.124	-3.07
243.341	50.18
243.558	46.08
243.775	41.98
243.992	-39.94
244.209	29.7
244.426	82.94
244.643	-35.84
244.86	48.13
245.078	7.17
245.295	-29.7
245.512	1.02
245.729	-35.84
245.946	72.7
246.163	76.8
246.38	-17.41
246.597	29.7
246.814	-3.07
247.031	5.12
247.248	37.89
247.464	31.74
247.681	-3.07
247.898	29.7
248.115	5.12
248.332	-52.22
248.549	37.89
248.766	78.85
248.983	29.7
249.2	-60.42
249.417	-33.79
249.633	-3.07
249.85	-3.07
250.067	-19.46
250.284	19.46
250.501	-29.7
250.717	5.12
250.934	-39.94
251.151	-11.26
251.368	13.31
251.585	37.89
251.801	37.89
252.018	-11.26
252.235	50.18
252.451	-44.03
252.668	1.02
252.885	5.12
253.102	21.5
253.318	46.08
253.535	-66.56
253.752	23.55
253.968	-35.84
254.185	-33.79
254.401	-19.46
254.618	13.31
254.835	9.22
255.051	-1.02
255.268	29.7
255.484	64.51
255.701	48.13
255.917	89.09
256.134	64.51
256.351	-44.03
256.567	-76.8
256.784	29.7
257	-50.18
257.217	-35.84
257.433	7.17
257.65	60.42
257.866	99.33
258.082	-27.65
258.299	-54.27
258.515	72.7
258.732	-7.17
258.948	-29.7
259.165	17.41
259.381	-35.84
259.597	-58.37
259.814	-7.17
260.03	41.98
260.246	-15.36
260.463	-3.07
260.679	58.37
260.895	-19.46
261.112	89.09
261.328	15.36
261.544	-1.02
261.761	56.32
261.977	-64.51
262.193	5.12
262.409	1.02
262.626	-17.41
262.842	-33.79
263.058	-70.65
263.274	48.13
263.49	15.36
263.707	-35.84
263.923	-39.94
264.139	37.89
264.355	-25.6
264.571	54.27
264.787	-35.84
265.004	-15.36
265.22	95.23
265.436	-17.41
265.652	-9.22
265.868	37.89
266.084	-39.94
266.3	-35.84
266.516	-3.07
266.732	31.74
266.948	19.46
267.164	-9.22
267.38	-23.55
267.596	15.36
267.812	82.94
268.028	-17.41
268.244	-33.79
268.46	-1.02
268.676	-15.36
268.892	64.51
269.108	-48.13
269.324	-68.61
269.54	-50.18
269.756	39.94
269.972	17.41
270.188	13.31
270.403	-119.81
270.619	21.5
270.835	25.6
271.051	48.13
271.267	7.17
271.483	41.98
271.698	-74.75
271.914	-39.94
272.13	-33.79
272.346	-44.03
272.562	19.46
272.777	74.75
272.993	41.98
273.209	66.56
273.425	-17.41
273.64	1.02
273.856	48.13
274.072	33.79
274.287	-58.37
274.503	48.13
274.719	-11.26
274.934	-33.79
275.15	-70.65
275.366	-19.46
275.581	-9.22
275.797	37.89
276.012	-52.22
276.228	1.02
276.444	-66.56
276.659	78.85
276.875	-21.5
277.09	-7.17
277.306	39.94
277.521	33.79
277.737	-11.26
277.952	31.74
278.168	9.22
278.383	-25.6
278.599	-3.07
278.814	72.7
279.03	74.75
279.245	60.42
279.461	-19.46
279.676	87.04
279.892	-44.03
280.107	-15.36
280.322	13.31
280.538	21.5
280.753	60.42
280.969	21.5
281.184	19.46
281.399	76.8
281.615	-27.65
281.83	21.5
282.045	-41.98
282.26	1.02
282.476	-11.26
282.691	78.85
282.906	-41.98
283.122	-3.07
283.337	-35.84
283.552	89.09
283.767	15.36
283.983	82.94
284.198	21.5
284.413	29.7
284.628	-11.26
284.843	-19.46
285.058	58.37
285.274	84.99
285.489	9.22
285.704	46.08
285.919	-44.03
286.134	37.89
286.349	46.08
286.564	-66.56
286.779	62.46
286.995	123.9
287.21	-68.61
287.425	-19.46
287.64	33.79
287.855	11.26
288.07	-5.12
288.285	56.32
288.5	39.94
288.715	9.22
288.93	21.5
289.145	-23.55
289.36	105.47
289.575	29.7
289.79	-31.74
290.004	56.32
290.219	95.23
290.434	-7.17
290.649	-39.94
290.864	-3.07
291.079	-31.74
291.294	29.7
291.509	52.22
291.724	-54.27
291.938	29.7
292.153	56.32
292.368	41.98
292.583	-11.26
292.798	21.5
293.012	62.46
293.227	-21.5
293.442	-31.74
293.657	13.31
293.871	27.65
294.086	25.6
294.301	82.94
294.516	-29.7
294.73	-15.36
294.945	37.89
295.16	29.7
295.374	3.07
295.589	70.65
295.804	60.42
296.018	-23.55
296.233	78.85
296.447	9.22
296.662	-9.22
296.877	9.22
297.091	37.89
297.306	13.31
297.52	56.32
297.735	46.08
297.949	9.22
298.164	64.51
298.378	-35.84
298.593	-54.27
298.807	15.36
299.022	54.27
299.236	87.04
299.451	-33.79
299.665	-3.07
299.88	48.13
300.094	17.41
300.309	1.02
300.523	41.98
300.737	-11.26
300.952	62.46
301.166	-17.41
301.381	-11.26
301.595	-33.79
301.809	-31.74
302.024	11.26
302.238	15.36
302.452	21.5
302.667	-76.8
302.881	66.56
303.095	107.52
303.309	37.89
303.524	-35.84
303.738	-15.36
303.952	-9.22
304.166	54.27
304.381	-54.27
304.595	44.03
304.809	-15.36
305.023	50.18
305.237	-25.6
305.452	15.36
305.666	17.41
305.88	89.09
306.094	13.31
306.308	70.65
306.522	46.08
306.736	48.13
306.95	5.12
307.164	54.27
307.379	-37.89
307.593	80.89
307.807	56.32
308.021	44.03
308.235	15.36
308.449	5.12
308.663	-68.61
308.877	168.96
309.091	109.57
309.305	15.36
309.519	-11.26
309.733	25.6
309.947	29.7
310.161	9.22
310.374	-33.79
310.588	115.71
310.802	-7.17
311.016	-3.07
311.23	56.32
311.444	-39.94
311.658	84.99
311.872	58.37
312.085	-17.41
312.299	35.84
312.513	50.18
312.727	1.02
312.941	-1.02
313.154	-11.26
313.368	-13.31
313.582	89.09
313.796	-41.98
314.009	44.03
314.223	95.23
314.437	1.02
314.651	-35.84
314.864	-9.22
315.078	-7.17
315.292	48.13
315.505	-3.07
315.719	97.28
315.933	-11.26
316.146	15.36
316.36	-27.65
316.573	64.51
316.787	119.81
317.001	-1.02
317.214	-52.22
317.428	-48.13
317.641	-44.03
317.855	-3.07
318.068	-7.17
318.282	21.5
318.495	128
318.709	25.6
318.922	5.12
319.136	89.09
319.349	29.7
319.563	48.13
319.776	5.12
319.99	-19.46
320.203	7.17
320.417	25.6
320.63	21.5
320.843	103.42
321.057	-7.17
321.27	-41.98
321.483	41.98
321.697	5.12
321.91	-64.51
322.124	41.98
322.337	13.31
322.55	70.65
322.763	48.13
322.977	56.32
323.19	-89.09
323.403	17.41
323.617	37.89
323.83	56.32
324.043	41.98
324.256	87.04
324.469	-70.65
324.683	70.65
324.896	23.55
325.109	70.65
325.322	13.31
325.535	78.85
325.748	13.31
325.962	17.41
326.175	5.12
326.388	9.22
326.601	84.99
326.814	-66.56
327.027	46.08
327.24	56.32
327.453	-93.18
327.666	37.89
327.879	58.37
328.092	-19.46
328.305	56.32
328.518	5.12
328.731	78.85
328.944	54.27
329.157	56.32
329.37	5.12
329.583	62.46
329.796	78.85
330.009	-25.6
330.222	27.65
330.435	13.31
330.648	17.41
330.861	13.31
331.073	-11.26
331.286	70.65
331.499	-33.79
331.712	-31.74
331.925	-56.32
332.138	-21.5
332.35	39.94
332.563	5.12
332.776	68.61
332.989	-5.12
333.202	31.74
333.414	15.36
333.627	91.13
333.84	-1.02
334.053	-1.02
334.265	-52.22
334.478	31.74
334.691	-15.36
334.903	66.56
335.116	13.31
335.329	56.32
335.541	25.6
335.754	37.89
335.966	-25.6
336.179	-33.79
336.392	64.51
336.604	54.27
336.817	21.5
337.029	27.65
337.242	41.98
337.454	84.99
337.667	-11.26
337.88	62.46
338.092	-5.12
338.305	-11.26
338.517	9.22
338.729	17.41
338.942	39.94
339.154	-39.94
339.367	-11.26
339.579	-31.74
339.792	17.41
340.004	21.5
340.217	-44.03
340.429	-11.26
340.641	13.31
340.854	13.31
341.066	25.6
341.278	82.94
341.491	37.89
341.703	-7.17
341.915	-80.89
342.128	31.74
342.34	74.75
342.552	-46.08
342.764	-33.79
342.977	-33.79
343.189	113.66
343.401	13.31
343.613	9.22
343.826	-1.02
344.038	56.32
344.25	-41.98
344.462	13.31
344.674	-3.07
344.886	5.12
345.099	41.98
345.311	13.31
345.523	-33.79
345.735	13.31
345.947	-19.46
346.159	39.94
346.371	-19.46
346.583	50.18
346.795	46.08
347.007	66.56
347.219	-3.07
347.431	-19.46
347.643	23.55
347.855	-35.84
348.067	21.5
348.279	-27.65
348.491	-31.74
348.703	78.85
348.915	89.09
349.127	-35.84
349.339	68.61
349.551	-11.26
349.763	80.89
349.975	5.12
350.187	52.22
350.399	66.56
350.61	-31.74
350.822	31.74
351.034	21.5
351.246	3.07
351.458	37.89
351.669	60.42
351.881	97.28
352.093	-27.65
352.305	78.85
352.517	46.08
352.728	31.74
352.94	31.74
353.152	46.08
353.363	-19.46
353.575	82.94
353.787	41.98
353.999	78.85
354.21	66.56
354.422	25.6
354.633	-33.79
354.845	70.65
355.057	-31.74
355.268	54.27
355.48	56.32
355.692	15.36
355.903	23.55
356.115	-15.36
356.326	-68.61
356.538	25.6
356.749	91.13
356.961	87.04
357.172	62.46
357.384	-52.22
357.595	113.66
357.807	-3.07
358.018	-21.5
358.23	56.32
358.441	103.42
358.653	25.6
358.864	-27.65
359.075	-3.07
359.287	-7.17
359.498	78.85
359.709	21.5
359.921	13.31
360.132	29.7
360.344	33.79
360.555	-48.13
360.766	5.12
360.977	13.31
361.189	119.81
361.4	37.89
361.611	27.65
361.823	37.89
362.034	62.46
362.245	-7.17
362.456	-3.07
362.667	23.55
362.879	25.6
363.09	41.98
363.301	-7.17
363.512	48.13
363.723	-33.79
363.935	-9.22
364.146	70.65
364.357	29.7
364.568	31.74
364.779	-11.26
364.99	58.37
365.201	37.89
365.412	70.65
365.623	-68.61
365.834	62.46
366.045	-33.79
366.256	80.89
366.467	91.13
366.678	-41.98
366.889	31.74
367.1	56.32
367.311	37.89
367.522	46.08
367.733	33.79
367.944	74.75
368.155	21.5
368.366	111.61
368.577	39.94
368.788	52.22
368.999	41.98
369.209	-25.6
369.42	25.6
369.631	113.66
369.842	74.75
370.053	-50.18
370.264	33.79
370.474	54.27
370.685	56.32
370.896	25.6
371.107	70.65
371.317	13.31
371.528	62.46
371.739	37.89
371.95	103.42
372.16	27.65
372.371	-9.22
372.582	5.12
372.792	64.51
373.003	41.98
373.214	99.33
373.424	48.13
373.635	-9.22
373.846	56.32
374.056	13.31
374.267	58.37
374.477	87.04
374.688	-7.17
374.898	17.41
375.109	-17.41
375.319	5.12
375.53	87.04
375.74	41.98
375.951	62.46
376.161	19.46
376.372	60.42
376.582	21.5
376.793	46.08
377.003	-74.75
377.214	39.94
377.424	1.02
377.635	82.94
377.845	25.6
378.055	80.89
378.266	-11.26
378.476	72.7
378.686	11.26
378.897	-1.02
379.107	37.89
379.317	17.41
379.528	33.79
379.738	70.65
379.948	7.17
380.158	93.18
380.369	3.07
380.579	62.46
380.789	-41.98
380.999	70.65
381.21	-11.26
381.42	136.19
381.63	-13.31
381.84	46.08
382.05	72.7
382.261	56.32
382.471	19.46
382.681	33.79
382.891	101.37
383.101	50.18
383.311	7.17
383.521	50.18
383.731	78.85
383.941	58.37
384.151	44.03
384.361	-13.31
384.571	46.08
384.781	52.22
384.991	62.46
385.201	99.33
385.411	70.65
385.621	3.07
385.831	46.08
386.041	62.46
386.251	-21.5
386.461	103.42
386.671	-3.07
386.881	-1.02
387.091	29.7
387.301	140.29
387.511	46.08
387.72	23.55
387.93	84.99
388.14	70.65
388.35	44.03
388.56	56.32
388.769	66.56
388.979	72.7
389.189	78.85
389.399	44.03
389.609	70.65
389.818	60.42
390.028	5.12
390.238	82.94
390.447	5.12
390.657	46.08
390.867	46.08
391.076	29.7
391.286	48.13
391.496	29.7
391.705	-23.55
391.915	123.9
392.125	29.7
392.334	87.04
392.544	87.04
392.753	89.09
392.963	-11.26
393.172	41.98
393.382	29.7
393.591	136.19
393.801	21.5
394.01	162.81
394.22	121.85
394.429	107.52
394.639	7.17
394.848	46.08
395.058	54.27
395.267	64.51
395.477	33.79
395.686	103.42
395.895	150.53
396.105	123.9
396.314	128
396.524	62.46
396.733	103.42
396.942	87.04
397.152	13.31
397.361	21.5
397.57	82.94
397.78	95.23
397.989	23.55
398.198	103.42
398.407	136.19
398.617	87.04
398.826	54.27
399.035	23.55
399.244	56.32
399.453	99.33
399.663	103.42
399.872	64.51
400.081	66.56
400.29	136.19
400.499	70.65
400.708	128
400.917	111.61
401.127	144.38
401.336	128
401.545	121.85
401.754	144.38
401.963	66.56
402.172	103.42
402.381	87.04
402.59	154.62
402.799	162.81
403.008	162.81
403.217	195.58
403.426	128
403.635	107.52
403.844	164.86
404.053	56.32
404.262	168.96
404.471	136.19
404.68	185.34
404.888	162.81
405.097	146.43
405.306	189.44
405.515	132.09
405.724	148.48
405.933	89.09
406.142	152.57
406.35	189.44
406.559	136.19
406.768	193.53
406.977	246.78
407.185	193.53
407.394	216.06
407.603	193.53
407.812	207.87
408.02	209.92
408.229	314.36
408.438	304.12
408.646	291.84
408.855	324.6
409.064	304.12
409.272	287.74
409.481	269.31
409.69	297.98
409.898	373.75
410.107	263.16
410.315	383.99
410.524	338.94
410.733	379.9
410.941	349.18
411.15	455.67
411.358	365.56
411.567	431.1
411.775	451.58
411.984	533.5
412.192	541.69
412.401	496.63
412.609	574.46
412.818	627.7
413.026	619.51
413.234	594.93
413.443	582.65
413.651	670.71
413.86	635.89
414.068	652.28
414.276	775.16
414.485	709.62
414.693	801.78
414.901	908.27
415.11	816.12
415.318	902.13
415.526	910.32
415.734	873.46
415.943	973.81
416.151	971.76
416.359	988.14
416.567	1135.6
416.776	1061.87
416.984	1172.46
417.192	1182.7
417.4	1147.89
417.608	1276.91
417.817	1176.56
418.025	1326.06
418.233	1475.56
418.441	1274.86
418.649	1465.32
418.857	1627.11
419.065	1670.12
419.273	1522.66
419.481	1694.69
419.689	1842.15
419.897	1833.96
420.105	1854.44
420.313	1887.2
420.521	2089.95
420.729	2036.7
420.937	2053.09
421.145	2114.53
421.353	2128.86
421.561	2479.07
421.769	2405.34
421.977	2495.45
422.185	2391
422.393	2651.1
422.601	2833.36
422.809	2814.93
423.017	2831.32
423.224	2825.17
423.432	3107.79
423.64	3115.98
423.848	3353.55
424.056	3322.83
424.263	3488.71
424.471	3511.24
424.679	3664.84
424.887	3720.14
425.094	3834.82
425.302	4088.77
425.51	4174.78
425.718	4191.17
425.925	4205.5
426.133	4174.78
426.341	4641.72
426.548	4746.17
426.756	4819.89
426.964	4965.3
427.171	5120.95
427.379	5366.7
427.586	5462.96
427.794	5485.48
428.001	5858.21
428.209	5847.97
428.417	5968.8
428.624	6411.17
428.832	6314.91
429.039	6599.58
429.247	6280.1
429.454	6949.78
429.662	7273.36
429.869	6869.91
430.076	7463.82
430.284	7115.67
430.491	7592.84
430.699	7926.66
430.906	7869.32
431.114	7992.2
431.321	8391.55
431.528	8496
431.736	9051
431.943	9462.64
432.15	9188.21
432.358	9255.79
432.565	9767.79
432.772	9714.54
432.979	10285.92
433.187	10535.78
433.394	10408.8
433.601	11107.16
433.808	11148.12
434.016	11227.99
434.223	11567.95
434.43	12381
434.637	12006.22
434.844	13058.87
435.052	12935.99
435.259	12923.71
435.466	13050.68
435.673	13005.63
435.88	13861.68
436.087	14508.83
436.294	14431.01
436.501	14213.93
436.708	14373.67
436.915	14906.14
437.122	15565.59
437.329	15442.71
437.537	15952.65
437.743	16128.78
437.95	16282.38
438.157	17013.5
438.364	17363.7
438.571	17152.76
438.778	17468.15
438.985	18985.69
439.192	18430.69
439.399	19022.56
439.606	18569.96
439.813	19739.35
440.02	20994.75
440.227	20480.71
440.433	19874.51
440.64	20943.55
440.847	20777.67
441.054	21277.37
441.261	22866.6
441.467	22147.76
441.674	22655.65
441.881	23712.41
442.088	23382.68
442.294	23532.18
442.501	23816.85
442.708	24271.5
442.914	25543.29
443.121	26305.13
443.328	25522.81
443.534	27421.28
443.741	26708.58
443.948	26301.04
444.154	28275.28
444.361	27867.73
444.568	28514.89
444.774	27955.8
444.981	28660.3
445.187	29358.66
445.394	30472.75
445.6	30569.01
445.807	33276.42
446.013	31586.85
446.22	32059.93
446.426	33401.35
446.633	34114.04
446.839	35009
447.046	33536.51
447.252	35400.16
447.459	35588.58
447.665	35260.9
447.871	36743.63
448.078	38209.98
448.284	36780.49
448.491	37720.51
448.697	38967.73
448.903	39709.09
449.11	39657.89
449.316	39137.71
449.522	39807.39
449.728	41021.84
449.935	41154.96
450.141	41208.2
450.347	42031.49
450.553	40645.01
450.76	41460.1
450.966	42436.98
451.172	41908.61
451.378	43405.67
451.584	42049.92
451.791	43125.1
451.997	43473.26
452.203	44054.88
452.409	43958.63
452.615	43645.29
452.821	41732.48
453.027	41335.18
453.233	43680.1
453.44	42377.59
453.646	42275.19
453.852	42836.34
454.058	43377
454.264	41961.86
454.47	43137.39
454.676	41755.01
454.882	43446.63
455.088	40016.29
455.294	40565.14
455.5	40972.69
455.705	40968.59
455.911	39778.72
456.117	38769.07
456.323	38453.69
456.529	36284.89
456.735	38171.07
456.941	37061.07
457.147	36440.53
457.352	35426.79
457.558	34771.44
457.764	35240.42
457.97	34535.92
458.176	33546.75
458.381	33577.47
458.587	32045.59
458.793	31935
458.999	30327.35
459.204	32246.29
459.41	31898.14
459.616	29524.54
459.821	28914.25
460.027	29133.38
460.233	28754.51
460.438	27275.87
460.644	27681.37
460.85	26143.35
461.055	25891.44
461.261	25983.6
461.466	24050.32
461.672	23003.81
461.878	24918.66
462.083	23098.02
462.289	22561.45
462.494	22553.26
462.7	21205.69
462.905	20728.52
463.111	21484.22
463.316	21500.6
463.522	21172.92
463.727	21131.97
463.932	20839.11
464.138	20796.1
464.343	21263.04
464.549	20155.08
464.754	20968.13
464.959	20986.56
465.165	20454.09
465.37	19800.79
465.575	19473.11
465.781	19872.46
465.986	19944.14
466.191	19319.51
466.397	18920.16
466.602	17976.05
