Data from USB4F104151__300__14-34-58-821.txt Node

Date: Thu Mar 13 14:34:58 EDT 2025
User: louis
Spectrometer: USB4F10415
Trigger mode: 4
Integration Time (sec): 2.500000E-2
Scans to average: 1
Electric dark correction enabled: true
Nonlinearity correction enabled: false
Boxcar width: 0
XAxis mode: Wavelengths
Number of Pixels in Spectrum: 3648
>>>>>Begin Spectral Data<<<<<
178.204	-150.36
178.424	-150.36
178.644	-150.36
178.864	-226.13
179.084	-103.25
179.304	44.2
179.524	-13.14
179.744	23.72
179.964	29.87
180.184	-37.72
180.404	7.34
180.624	33.96
180.844	5.29
181.064	-0.85
181.283	-0.85
181.503	-127.83
181.723	36.01
181.943	-7
182.163	76.97
182.383	-50
182.602	109.74
182.822	54.44
183.042	113.83
183.262	76.97
183.482	60.59
183.701	-4.95
183.921	-4.95
184.141	25.77
184.361	52.39
184.58	-13.14
184.8	76.97
185.02	31.91
185.239	25.77
185.459	29.87
185.679	76.97
185.898	-45.91
186.118	58.54
186.338	23.72
186.557	79.02
186.777	-45.91
186.997	13.48
187.216	-29.52
187.436	52.39
187.655	-62.29
187.875	81.07
188.095	3.24
188.314	85.16
188.534	109.74
188.753	-27.48
188.973	36.01
189.192	68.78
189.412	15.53
189.631	-23.38
189.851	60.59
190.07	122.02
190.29	-13.14
190.509	60.59
190.729	40.11
190.948	68.78
191.168	87.21
191.387	91.31
191.607	-11.09
191.826	42.15
192.045	-31.57
192.265	-4.95
192.484	58.54
192.704	52.39
192.923	-52.05
193.142	152.74
193.362	89.26
193.581	93.35
193.8	5.29
194.02	29.87
194.239	33.96
194.458	-29.52
194.678	38.06
194.897	7.34
195.116	11.43
195.335	64.68
195.555	79.02
195.774	-11.09
195.993	15.53
196.212	60.59
196.432	23.72
196.651	56.49
196.87	-9.05
197.089	81.07
197.308	44.2
197.528	13.48
197.747	-29.52
197.966	7.34
198.185	56.49
198.404	-21.33
198.623	27.82
198.842	60.59
199.062	74.92
199.281	52.39
199.5	-19.29
199.719	109.74
199.938	27.82
200.157	122.02
200.376	25.77
200.595	5.29
200.814	-13.14
201.033	64.68
201.252	60.59
201.471	21.67
201.69	95.4
201.909	119.98
202.128	3.24
202.347	105.64
202.566	-0.85
202.785	-13.14
203.004	-37.72
203.223	38.06
203.442	36.01
203.661	89.26
203.879	23.72
204.098	-25.43
204.317	-21.33
204.536	79.02
204.755	-21.33
204.974	27.82
205.193	56.49
205.411	122.02
205.63	3.24
205.849	76.97
206.068	-0.85
206.287	21.67
206.505	-4.95
206.724	-50
206.943	72.87
207.162	-45.91
207.381	3.24
207.599	19.63
207.818	56.49
208.037	-0.85
208.255	60.59
208.474	21.67
208.693	5.29
208.911	-29.52
209.13	29.87
209.349	-29.52
209.567	19.63
209.786	-4.95
210.005	7.34
210.223	38.06
210.442	-21.33
210.661	70.83
210.879	48.3
211.098	46.25
211.316	44.2
211.535	87.21
211.753	-23.38
211.972	21.67
212.191	-4.95
212.409	3.24
212.628	101.55
212.846	-4.95
213.065	-9.05
213.283	60.59
213.502	-9.05
213.72	48.3
213.938	62.63
214.157	19.63
214.375	31.91
214.594	-70.48
214.812	21.67
215.031	27.82
215.249	-15.19
215.467	36.01
215.686	5.29
215.904	85.16
216.122	7.34
216.341	-0.85
216.559	40.11
216.778	111.78
216.996	52.39
217.214	11.43
217.432	-21.33
217.651	-31.57
217.869	81.07
218.087	107.69
218.306	-27.48
218.524	76.97
218.742	36.01
218.96	-25.43
219.179	-31.57
219.397	38.06
219.615	44.2
219.833	36.01
220.051	-2.9
220.27	126.12
220.488	21.67
220.706	21.67
220.924	-2.9
221.142	27.82
221.36	27.82
221.578	60.59
221.796	54.44
222.015	-2.9
222.233	-13.14
222.451	29.87
222.669	13.48
222.887	95.4
223.105	-0.85
223.323	-29.52
223.541	-21.33
223.759	38.06
223.977	15.53
224.195	76.97
224.413	25.77
224.631	1.19
224.849	3.24
225.067	76.97
225.285	3.24
225.503	-2.9
225.721	11.43
225.939	5.29
226.157	-29.52
226.375	119.98
226.592	-0.85
226.81	-11.09
227.028	36.01
227.246	60.59
227.464	111.78
227.682	76.97
227.9	38.06
228.117	11.43
228.335	101.55
228.553	-4.95
228.771	19.63
228.989	64.68
229.206	85.16
229.424	40.11
229.642	36.01
229.86	-21.33
230.077	111.78
230.295	5.29
230.513	74.92
230.731	101.55
230.948	122.02
231.166	11.43
231.384	70.83
231.601	-13.14
231.819	46.25
232.037	-21.33
232.254	36.01
232.472	15.53
232.689	-37.72
232.907	21.67
233.125	15.53
233.342	11.43
233.56	-0.85
233.777	160.94
233.995	50.35
234.213	52.39
234.43	11.43
234.648	-17.24
234.865	23.72
235.083	13.48
235.3	11.43
235.518	111.78
235.735	3.24
235.953	36.01
236.17	54.44
236.388	38.06
236.605	64.68
236.822	76.97
237.04	93.35
237.257	31.91
237.475	11.43
237.692	85.16
237.909	46.25
238.127	19.63
238.344	21.67
238.562	36.01
238.779	-13.14
238.996	-0.85
239.214	-2.9
239.431	52.39
239.648	42.15
239.865	89.26
240.083	74.92
240.3	36.01
240.517	-31.57
240.735	52.39
240.952	72.87
241.169	70.83
241.386	44.2
241.603	-11.09
241.821	-33.62
242.038	44.2
242.255	109.74
242.472	-0.85
242.689	29.87
242.907	19.63
243.124	-2.9
243.341	44.2
243.558	-17.24
243.775	-21.33
243.992	-19.29
244.209	44.2
244.426	50.35
244.643	54.44
244.86	-21.33
245.078	46.25
245.295	46.25
245.512	19.63
245.729	-37.72
245.946	44.2
246.163	42.15
246.38	3.24
246.597	-15.19
246.814	15.53
247.031	31.91
247.248	46.25
247.464	36.01
247.681	40.11
247.898	68.78
248.115	19.63
248.332	44.2
248.549	85.16
248.766	42.15
248.983	79.02
249.2	52.39
249.417	95.4
249.633	23.72
249.85	27.82
250.067	29.87
250.284	70.83
250.501	76.97
250.717	101.55
250.934	38.06
251.151	-0.85
251.368	-19.29
251.585	11.43
251.801	46.25
252.018	-37.72
252.235	21.67
252.451	44.2
252.668	31.91
252.885	126.12
253.102	50.35
253.318	-21.33
253.535	27.82
253.752	60.59
253.968	44.2
254.185	44.2
254.401	-25.43
254.618	76.97
254.835	-33.62
255.051	119.98
255.268	95.4
255.484	60.59
255.701	13.48
255.917	44.2
256.134	48.3
256.351	-15.19
256.567	-70.48
256.784	68.78
257	44.2
257.217	48.3
257.433	-4.95
257.65	68.78
257.866	99.5
258.082	-2.9
258.299	-93.01
258.515	27.82
258.732	72.87
258.948	-33.62
259.165	7.34
259.381	54.44
259.597	21.67
259.814	19.63
260.03	19.63
260.246	-17.24
260.463	38.06
260.679	103.59
260.895	-62.29
261.112	27.82
261.328	29.87
261.544	-43.86
261.761	132.26
261.977	138.41
262.193	-58.2
262.409	23.72
262.626	56.49
262.842	70.83
263.058	21.67
263.274	5.29
263.49	-45.91
263.707	23.72
263.923	81.07
264.139	44.2
264.355	15.53
264.571	93.35
264.787	117.93
265.004	91.31
265.22	-4.95
265.436	56.49
265.652	29.87
265.868	23.72
266.084	-17.24
266.3	48.3
266.516	21.67
266.732	23.72
266.948	31.91
267.164	54.44
267.38	-11.09
267.596	11.43
267.812	83.11
268.028	48.3
268.244	38.06
268.46	23.72
268.676	74.92
268.892	89.26
269.108	-9.05
269.324	5.29
269.54	-31.57
269.756	56.49
269.972	-43.86
270.188	31.91
270.403	-33.62
270.619	5.29
270.835	52.39
271.051	44.2
271.267	33.96
271.483	3.24
271.698	167.08
271.914	13.48
272.13	19.63
272.346	36.01
272.562	36.01
272.777	105.64
272.993	-9.05
273.209	44.2
273.425	52.39
273.64	27.82
273.856	44.2
274.072	3.24
274.287	46.25
274.503	70.83
274.719	48.3
274.934	13.48
275.15	-21.33
275.366	62.63
275.581	29.87
275.797	-4.95
276.012	5.29
276.228	-9.05
276.444	70.83
276.659	54.44
276.875	-23.38
277.09	3.24
277.306	-21.33
277.521	52.39
277.737	3.24
277.952	76.97
278.168	-19.29
278.383	-17.24
278.599	5.29
278.814	40.11
279.03	-9.05
279.245	136.36
279.461	-25.43
279.676	62.63
279.892	52.39
280.107	-45.91
280.322	27.82
280.538	27.82
280.753	11.43
280.969	5.29
281.184	48.3
281.399	95.4
281.615	68.78
281.83	-23.38
282.045	44.2
282.26	68.78
282.476	46.25
282.691	29.87
282.906	58.54
283.122	117.93
283.337	3.24
283.552	-19.29
283.767	9.39
283.983	-47.96
284.198	48.3
284.413	46.25
284.628	-4.95
284.843	38.06
285.058	52.39
285.274	-13.14
285.489	64.68
285.704	72.87
285.919	1.19
286.134	76.97
286.349	5.29
286.564	29.87
286.779	119.98
286.995	40.11
287.21	-0.85
287.425	64.68
287.64	-45.91
287.855	60.59
288.07	-15.19
288.285	40.11
288.5	93.35
288.715	62.63
288.93	81.07
289.145	79.02
289.36	-11.09
289.575	-37.72
289.79	66.73
290.004	85.16
290.219	117.93
290.434	36.01
290.649	-31.57
290.864	95.4
291.079	56.49
291.294	5.29
291.509	68.78
291.724	33.96
291.938	5.29
292.153	-19.29
292.368	1.19
292.583	36.01
292.798	60.59
293.012	27.82
293.227	111.78
293.442	19.63
293.657	60.59
293.871	29.87
294.086	11.43
294.301	60.59
294.516	85.16
294.73	-0.85
294.945	-17.24
295.16	93.35
295.374	44.2
295.589	72.87
295.804	19.63
296.018	44.2
296.233	56.49
296.447	44.2
296.662	109.74
296.877	85.16
297.091	87.21
297.306	-4.95
297.52	-9.05
297.735	85.16
297.949	25.77
298.164	154.79
298.378	-35.67
298.593	68.78
298.807	3.24
299.022	21.67
299.236	122.02
299.451	1.19
299.665	44.2
299.88	29.87
300.094	-29.52
300.309	113.83
300.523	21.67
300.737	50.35
300.952	21.67
301.166	95.4
301.381	-52.05
301.595	-19.29
301.809	31.91
302.024	36.01
302.238	21.67
302.452	136.36
302.667	3.24
302.881	52.39
303.095	19.63
303.309	58.54
303.524	27.82
303.738	46.25
303.952	-2.9
304.166	48.3
304.381	-25.43
304.595	87.21
304.809	19.63
305.023	36.01
305.237	-29.52
305.452	70.83
305.666	95.4
305.88	50.35
306.094	3.24
306.308	76.97
306.522	-11.09
306.736	72.87
306.95	40.11
307.164	27.82
307.379	68.78
307.593	60.59
307.807	48.3
308.021	87.21
308.235	72.87
308.449	54.44
308.663	7.34
308.877	97.45
309.091	52.39
309.305	54.44
309.519	-7
309.733	38.06
309.947	-2.9
310.161	42.15
310.374	27.82
310.588	56.49
310.802	7.34
311.016	54.44
311.23	101.55
311.444	36.01
311.658	54.44
311.872	101.55
312.085	101.55
312.299	60.59
312.513	29.87
312.727	-27.48
312.941	36.01
313.154	27.82
313.368	48.3
313.582	79.02
313.796	76.97
314.009	11.43
314.223	74.92
314.437	87.21
314.651	36.01
314.864	-4.95
315.078	19.63
315.292	31.91
315.505	17.58
315.719	40.11
315.933	40.11
316.146	64.68
316.36	-17.24
316.573	9.39
316.787	36.01
317.001	68.78
317.214	11.43
317.428	64.68
317.641	76.97
317.855	27.82
318.068	15.53
318.282	76.97
318.495	56.49
318.709	70.83
318.922	-11.09
319.136	103.59
319.349	87.21
319.563	-52.05
319.776	-11.09
319.99	-54.1
320.203	83.11
320.417	42.15
320.63	126.12
320.843	79.02
321.057	-66.39
321.27	85.16
321.483	40.11
321.697	48.3
321.91	79.02
322.124	36.01
322.337	29.87
322.55	38.06
322.763	-21.33
322.977	91.31
323.19	-9.05
323.403	62.63
323.617	-21.33
323.83	68.78
324.043	42.15
324.256	95.4
324.469	44.2
324.683	19.63
324.896	23.72
325.109	128.17
325.322	-21.33
325.535	68.78
325.748	109.74
325.962	19.63
326.175	70.83
326.388	23.72
326.601	72.87
326.814	50.35
327.027	27.82
327.24	95.4
327.453	-11.09
327.666	85.16
327.879	29.87
328.092	60.59
328.305	38.06
328.518	101.55
328.731	-52.05
328.944	-13.14
329.157	87.21
329.37	72.87
329.583	93.35
329.796	76.97
330.009	27.82
330.222	42.15
330.435	66.73
330.648	101.55
330.861	7.34
331.073	11.43
331.286	3.24
331.499	27.82
331.712	54.44
331.925	68.78
332.138	36.01
332.35	74.92
332.563	29.87
332.776	76.97
332.989	-35.67
333.202	85.16
333.414	42.15
333.627	-43.86
333.84	64.68
334.053	62.63
334.265	19.63
334.478	23.72
334.691	52.39
334.903	23.72
335.116	74.92
335.329	44.2
335.541	60.59
335.754	48.3
335.966	44.2
336.179	60.59
336.392	-21.33
336.604	44.2
336.817	15.53
337.029	150.7
337.242	44.2
337.454	44.2
337.667	11.43
337.88	60.59
338.092	95.4
338.305	36.01
338.517	52.39
338.729	-29.52
338.942	64.68
339.154	54.44
339.367	-4.95
339.579	7.34
339.792	-11.09
340.004	56.49
340.217	-17.24
340.429	52.39
340.641	44.2
340.854	107.69
341.066	27.82
341.278	109.74
341.491	54.44
341.703	36.01
341.915	-2.9
342.128	-19.29
342.34	70.83
342.552	66.73
342.764	62.63
342.977	-76.63
343.189	19.63
343.401	-4.95
343.613	21.67
343.826	-13.14
344.038	3.24
344.25	46.25
344.462	7.34
344.674	85.16
344.886	68.78
345.099	126.12
345.311	15.53
345.523	21.67
345.735	44.2
345.947	87.21
346.159	44.2
346.371	38.06
346.583	19.63
346.795	99.5
347.007	-27.48
347.219	93.35
347.431	-17.24
347.643	11.43
347.855	81.07
348.067	60.59
348.279	-37.72
348.491	70.83
348.703	38.06
348.915	52.39
349.127	-7
349.339	85.16
349.551	60.59
349.763	93.35
349.975	7.34
350.187	19.63
350.399	66.73
350.61	81.07
350.822	46.25
351.034	68.78
351.246	-15.19
351.458	44.2
351.669	142.5
351.881	62.63
352.093	-0.85
352.305	70.83
352.517	60.59
352.728	68.78
352.94	58.54
353.152	117.93
353.363	19.63
353.575	-2.9
353.787	128.17
353.999	122.02
354.21	79.02
354.422	97.45
354.633	46.25
354.845	40.11
355.057	79.02
355.268	-4.95
355.48	177.32
355.692	-2.9
355.903	5.29
356.115	11.43
356.326	23.72
356.538	87.21
356.749	64.68
356.961	109.74
357.172	52.39
357.384	48.3
357.595	154.79
357.807	117.93
358.018	-37.72
358.23	11.43
358.441	97.45
358.653	85.16
358.864	87.21
359.075	-21.33
359.287	79.02
359.498	-13.14
359.709	36.01
359.921	44.2
360.132	119.98
360.344	52.39
360.555	3.24
360.766	-4.95
360.977	-9.05
361.189	101.55
361.4	21.67
361.611	21.67
361.823	5.29
362.034	74.92
362.245	11.43
362.456	46.25
362.667	38.06
362.879	72.87
363.09	72.87
363.301	79.02
363.512	29.87
363.723	76.97
363.935	58.54
364.146	36.01
364.357	19.63
364.568	19.63
364.779	56.49
364.99	115.88
365.201	-21.33
365.412	56.49
365.623	74.92
365.834	19.63
366.045	19.63
366.256	76.97
366.467	122.02
366.678	113.83
366.889	-17.24
367.1	36.01
367.311	99.5
367.522	58.54
367.733	56.49
367.944	99.5
368.155	31.91
368.366	52.39
368.577	142.5
368.788	56.49
368.999	44.2
369.209	23.72
369.42	101.55
369.631	144.55
369.842	81.07
370.053	27.82
370.264	79.02
370.474	27.82
370.685	19.63
370.896	27.82
371.107	97.45
371.317	27.82
371.528	83.11
371.739	15.53
371.95	48.3
372.16	54.44
372.371	21.67
372.582	25.77
372.792	31.91
373.003	19.63
373.214	79.02
373.424	76.97
373.635	74.92
373.846	150.7
374.056	105.64
374.267	101.55
374.477	68.78
374.688	-45.91
374.898	-19.29
375.109	95.4
375.319	19.63
375.53	91.31
375.74	93.35
375.951	40.11
376.161	33.96
376.372	119.98
376.582	124.07
376.793	54.44
377.003	-29.52
377.214	23.72
377.424	-2.9
377.635	5.29
377.845	27.82
378.055	93.35
378.266	126.12
378.476	3.24
378.686	99.5
378.897	70.83
379.107	64.68
379.317	81.07
379.528	17.58
379.738	11.43
379.948	-13.14
380.158	31.91
380.369	48.3
380.579	70.83
380.789	19.63
380.999	44.2
381.21	91.31
381.42	93.35
381.63	27.82
381.84	68.78
382.05	40.11
382.261	126.12
382.471	11.43
382.681	117.93
382.891	60.59
383.101	38.06
383.311	23.72
383.521	-0.85
383.731	154.79
383.941	62.63
384.151	72.87
384.361	52.39
384.571	52.39
384.781	68.78
384.991	93.35
385.201	134.31
385.411	25.77
385.621	36.01
385.831	134.31
386.041	29.87
386.251	27.82
386.461	60.59
386.671	27.82
386.881	95.4
387.091	72.87
387.301	60.59
387.511	19.63
387.72	93.35
387.93	76.97
388.14	29.87
388.35	40.11
388.56	109.74
388.769	76.97
388.979	15.53
389.189	27.82
389.399	64.68
389.609	95.4
389.818	119.98
390.028	72.87
390.238	60.59
390.447	93.35
390.657	93.35
390.867	85.16
391.076	36.01
391.286	66.73
391.496	68.78
391.705	87.21
391.915	103.59
392.125	144.55
392.334	99.5
392.544	122.02
392.753	60.59
392.963	-7
393.172	62.63
393.382	52.39
393.591	158.89
393.801	93.35
394.01	87.21
394.22	19.63
394.429	195.75
394.639	79.02
394.848	134.31
395.058	52.39
395.267	70.83
395.477	60.59
395.686	93.35
395.895	187.56
396.105	167.08
396.314	68.78
396.524	68.78
396.733	87.21
396.942	134.31
397.152	160.94
397.361	117.93
397.57	66.73
397.78	152.74
397.989	79.02
398.198	191.66
398.407	85.16
398.617	79.02
398.826	152.74
399.035	79.02
399.244	132.26
399.453	85.16
399.663	175.27
399.872	173.22
400.081	132.26
400.29	177.32
400.499	119.98
400.708	136.36
400.917	93.35
401.127	122.02
401.336	48.3
401.545	122.02
401.754	160.94
401.963	79.02
402.172	85.16
402.381	126.12
402.59	99.5
402.799	189.61
403.008	117.93
403.217	146.6
403.426	158.89
403.635	99.5
403.844	162.98
404.053	81.07
404.262	101.55
404.471	199.85
404.68	175.27
404.888	173.22
405.097	175.27
405.306	249
405.515	201.9
405.724	150.7
405.933	224.42
406.142	179.37
406.35	222.38
406.559	195.75
406.768	191.66
406.977	261.29
407.185	236.71
407.394	216.23
407.603	150.7
407.812	283.81
408.02	275.62
408.229	208.04
408.438	371.88
408.646	261.29
408.855	251.05
409.064	251.05
409.272	289.96
409.481	332.97
409.69	324.77
409.898	324.77
410.107	392.36
410.315	439.46
410.524	367.78
410.733	414.88
410.941	355.49
411.15	453.8
411.358	431.27
411.567	519.33
411.775	468.13
411.984	421.03
412.192	539.81
412.401	511.14
412.609	552.1
412.818	496.8
413.026	625.83
413.234	664.74
413.443	543.91
413.651	564.39
413.86	697.5
414.068	724.13
414.276	689.31
414.485	666.78
414.693	797.85
414.901	830.62
415.11	818.33
415.318	797.85
415.526	879.77
415.734	838.81
415.943	916.64
416.151	914.59
416.359	980.12
416.567	941.21
416.776	1105.05
416.984	1035.42
417.192	1207.45
417.4	1078.43
417.608	1125.53
417.817	1150.11
418.025	1305.75
418.233	1334.42
418.441	1299.61
418.649	1395.86
418.857	1574.03
419.065	1469.59
419.273	1463.44
419.481	1518.74
419.689	1754.26
419.897	1741.97
420.105	1830.03
420.313	1791.12
420.521	1848.46
420.729	1907.85
420.937	1922.19
421.145	2075.79
421.353	2077.83
421.561	2337.93
421.769	2256.01
421.977	2446.47
422.185	2299.02
422.393	2571.4
422.601	2538.63
422.809	2698.37
423.017	2776.19
423.224	2696.32
423.432	2866.3
423.64	2858.11
423.848	3230.84
424.056	3083.39
424.263	3271.8
424.471	3378.3
424.679	3402.87
424.887	3460.21
425.094	3763.31
425.302	3677.3
425.51	3703.92
425.718	3878
425.925	3878
426.133	4142.19
426.341	4344.94
426.548	4543.59
426.756	4602.98
426.964	4519.01
427.171	4783.2
427.379	4992.09
427.586	5041.25
427.794	5129.31
428.001	5516.37
428.209	5770.32
428.417	5340.25
428.624	6009.93
428.832	5925.97
429.039	5807.19
429.247	5930.06
429.454	6509.64
429.662	6956.1
429.869	6403.14
430.076	7033.92
430.284	6622.28
430.491	7144.51
430.699	7396.41
430.906	7582.77
431.114	7504.95
431.321	7830.58
431.528	7885.87
431.736	8371.24
431.943	8614.95
432.15	8526.89
432.358	8608.81
432.565	9255.97
432.772	9186.33
432.979	9628.7
433.187	9628.7
433.394	9886.74
433.601	10284.05
433.808	10355.72
434.016	10429.45
434.223	10640.39
434.43	11324.41
434.637	11361.28
434.844	12110.83
435.052	12119.03
435.259	12166.13
435.466	11965.43
435.673	11979.76
435.88	12774.38
436.087	13511.64
436.294	13614.04
436.501	13286.37
436.708	13272.03
436.915	13695.96
437.122	14224.34
437.329	14420.94
437.537	15113.16
437.743	15141.83
437.95	14914.5
438.157	15856.57
438.364	16317.36
438.571	16307.12
438.778	16587.69
438.985	17460.13
439.192	17308.58
439.399	17689.5
439.606	17507.23
439.813	18561.94
440.02	19471.23
440.227	18949
440.433	18801.55
440.64	19573.63
440.847	19286.92
441.054	19925.88
441.261	21195.62
441.467	20734.83
441.674	21295.97
441.881	22233.94
442.088	21982.04
442.294	21801.82
442.501	22037.34
442.708	23014.22
442.914	23581.51
443.121	24552.24
443.328	23802.69
443.534	25365.29
443.741	25146.15
443.948	24419.13
444.154	26512.15
444.361	26247.96
444.568	26366.74
444.774	26159.9
444.981	26805.01
445.187	27917.06
445.394	28627.7
445.6	28220.16
445.807	31267.53
446.013	29641.45
446.22	29909.73
446.426	31476.43
446.633	31662.79
446.839	32672.44
447.046	31613.64
447.252	33077.94
447.459	33145.52
447.665	33039.03
447.871	34374.3
448.078	35957.38
448.284	34300.58
448.491	35347.09
448.697	36082.31
448.903	37102.2
449.11	37188.21
449.316	36854.39
449.522	37270.13
449.728	38062.69
449.935	38427.23
450.141	38681.18
450.347	39410.26
450.553	37685.87
450.76	38707.8
450.966	40092.23
451.172	39182.93
451.378	40704.57
451.584	39342.67
451.791	40567.36
451.997	40698.43
452.203	41343.54
452.409	41527.86
452.615	41185.85
452.821	38949.46
453.027	39004.76
453.233	41247.29
453.44	39549.52
453.646	39660.11
453.852	40256.07
454.058	40610.37
454.264	38967.9
454.47	40428.1
454.676	38961.75
454.882	40415.81
455.088	36962.93
455.294	37595.76
455.5	38636.13
455.705	38584.93
455.911	37223.03
456.117	36373.12
456.323	35936.9
456.529	33526.44
456.735	35623.56
456.941	34517.66
457.147	33907.37
457.352	32834.23
457.558	32697.02
457.764	32848.57
457.97	32160.45
458.176	31335.12
458.381	31158.99
458.587	30016.22
458.793	29618.92
458.999	28130.05
459.204	30059.23
459.41	29481.7
459.616	27650.82
459.821	27200.27
460.027	27583.24
460.233	26960.66
460.438	25416.49
460.644	25549.6
460.85	24761.14
461.055	24312.63
461.261	24083.26
461.466	22135.64
461.672	21560.16
461.878	23141.19
462.083	21521.25
462.289	21209.96
462.494	21105.51
462.7	19948.41
462.905	19583.87
463.111	19782.52
463.316	20175.73
463.522	19673.98
463.727	19620.74
463.932	19690.37
464.138	19293.06
464.343	19413.89
464.549	19078.02
464.754	19448.71
464.959	19360.64
465.165	19268.48
465.37	18193.3
465.575	18056.09
465.781	18508.69
465.986	18908.04
466.191	18011.03
466.397	17830.81
466.602	16927.66
466.807	17490.85
467.012	17658.78
