Data from USB4F104151__299__14-34-56-847.txt Node

Date: Thu Mar 13 14:34:56 EDT 2025
User: louis
Spectrometer: USB4F10415
Trigger mode: 4
Integration Time (sec): 2.500000E-2
Scans to average: 1
Electric dark correction enabled: true
Nonlinearity correction enabled: false
Boxcar width: 0
XAxis mode: Wavelengths
Number of Pixels in Spectrum: 3648
>>>>>Begin Spectral Data<<<<<
178.204	-82.43
178.424	-82.43
178.644	-82.43
178.864	-170.49
179.084	-119.29
179.304	-8.7
179.524	40.45
179.744	-20.99
179.964	95.74
180.184	-59.9
180.404	36.35
180.624	19.97
180.844	-18.94
181.064	-55.81
181.283	-4.61
181.503	-41.47
181.723	17.92
181.943	-29.18
182.163	93.69
182.383	48.64
182.602	44.54
182.822	22.02
183.042	48.64
183.262	85.5
183.482	-12.8
183.701	3.58
183.921	58.88
184.141	-12.8
184.361	69.12
184.58	77.31
184.8	95.74
185.02	15.87
185.239	-18.94
185.459	112.13
185.679	-4.61
185.898	-82.43
186.118	22.02
186.338	69.12
186.557	83.45
186.777	22.02
186.997	19.97
187.216	5.63
187.436	134.65
187.655	69.12
187.875	38.4
188.095	93.69
188.314	151.04
188.534	77.31
188.753	-18.94
188.973	69.12
189.192	134.65
189.412	-10.75
189.631	60.93
189.851	54.78
190.07	22.02
190.29	-4.61
190.509	-2.56
190.729	28.16
190.948	19.97
191.168	126.46
191.387	77.31
191.607	56.83
191.826	101.89
192.045	3.58
192.265	58.88
192.484	30.21
192.704	62.98
192.923	-76.29
193.142	126.46
193.362	44.54
193.581	52.74
193.8	22.02
194.02	52.74
194.239	122.37
194.458	77.31
194.678	105.98
194.897	93.69
195.116	52.74
195.335	65.02
195.555	110.08
195.774	52.74
195.993	32.26
196.212	52.74
196.432	28.16
196.651	11.78
196.87	130.56
197.089	159.23
197.308	-16.9
197.528	73.21
197.747	28.16
197.966	22.02
198.185	24.06
198.404	83.45
198.623	85.5
198.842	112.13
199.062	110.08
199.281	42.5
199.5	81.41
199.719	79.36
199.938	36.35
200.157	142.85
200.376	56.83
200.595	-25.09
200.814	48.64
201.033	19.97
201.252	69.12
201.471	71.17
201.69	93.69
201.909	54.78
202.128	28.16
202.347	54.78
202.566	-4.61
202.785	11.78
203.004	36.35
203.223	140.8
203.442	7.68
203.661	7.68
203.879	95.74
204.098	60.93
204.317	28.16
204.536	126.46
204.755	48.64
204.974	101.89
205.193	48.64
205.411	148.99
205.63	77.31
205.849	36.35
206.068	-12.8
206.287	3.58
206.505	110.08
206.724	-20.99
206.943	-12.8
207.162	48.64
207.381	19.97
207.599	-20.99
207.818	36.35
208.037	65.02
208.255	-8.7
208.474	60.93
208.693	97.79
208.911	52.74
209.13	46.59
209.349	85.5
209.567	56.83
209.786	89.6
210.005	36.35
210.223	42.5
210.442	-70.14
210.661	116.22
210.879	26.11
211.098	-10.75
211.316	15.87
211.535	138.75
211.753	42.5
211.972	110.08
212.191	32.26
212.409	-29.18
212.628	85.5
212.846	46.59
213.065	79.36
213.283	69.12
213.502	11.78
213.72	77.31
213.938	62.98
214.157	-20.99
214.375	132.61
214.594	36.35
214.812	62.98
215.031	-2.56
215.249	22.02
215.467	38.4
215.686	101.89
215.904	26.11
216.122	-10.75
216.341	56.83
216.559	-20.99
216.778	48.64
216.996	114.17
217.214	28.16
217.432	-25.09
217.651	50.69
217.869	-29.18
218.087	122.37
218.306	3.58
218.524	110.08
218.742	13.82
218.96	93.69
219.179	-25.09
219.397	24.06
219.615	34.3
219.833	32.26
220.051	-37.38
220.27	110.08
220.488	46.59
220.706	-18.94
220.924	3.58
221.142	52.74
221.36	71.17
221.578	114.17
221.796	56.83
222.015	24.06
222.233	-12.8
222.451	77.31
222.669	54.78
222.887	60.93
223.105	-2.56
223.323	-20.99
223.541	24.06
223.759	30.21
223.977	60.93
224.195	69.12
224.413	60.93
224.631	81.41
224.849	-10.75
225.067	97.79
225.285	73.21
225.503	-4.61
225.721	19.97
225.939	28.16
226.157	36.35
226.375	36.35
226.592	19.97
226.81	22.02
227.028	93.69
227.246	89.6
227.464	-18.94
227.682	19.97
227.9	28.16
228.117	101.89
228.335	60.93
228.553	85.5
228.771	42.5
228.989	60.93
229.206	54.78
229.424	62.98
229.642	-4.61
229.86	5.63
230.077	79.36
230.295	69.12
230.513	95.74
230.731	56.83
230.948	38.4
231.166	48.64
231.384	40.45
231.601	-18.94
231.819	75.26
232.037	-12.8
232.254	24.06
232.472	79.36
232.689	-12.8
232.907	60.93
233.125	24.06
233.342	75.26
233.56	17.92
233.777	22.02
233.995	19.97
234.213	79.36
234.43	36.35
234.648	101.89
234.865	42.5
235.083	-4.61
235.3	48.64
235.518	44.54
235.735	26.11
235.953	44.54
236.17	13.82
236.388	-25.09
236.605	69.12
236.822	30.21
237.04	54.78
237.257	22.02
237.475	-29.18
237.692	36.35
237.909	24.06
238.127	65.02
238.344	46.59
238.562	19.97
238.779	54.78
238.996	44.54
239.214	60.93
239.431	60.93
239.648	-35.33
239.865	81.41
240.083	118.27
240.3	44.54
240.517	40.45
240.735	44.54
240.952	124.41
241.169	67.07
241.386	28.16
241.603	60.93
241.821	-10.75
242.038	56.83
242.255	30.21
242.472	-92.67
242.689	85.5
242.907	65.02
243.124	3.58
243.341	-20.99
243.558	-25.09
243.775	-31.23
243.992	-49.66
244.209	118.27
244.426	95.74
244.643	87.55
244.86	-25.09
245.078	79.36
245.295	19.97
245.512	32.26
245.729	54.78
245.946	69.12
246.163	101.89
246.38	40.45
246.597	38.4
246.814	65.02
247.031	60.93
247.248	69.12
247.464	69.12
247.681	60.93
247.898	19.97
248.115	56.83
248.332	69.12
248.549	11.78
248.766	114.17
248.983	52.74
249.2	46.59
249.417	-4.61
249.633	5.63
249.85	3.58
250.067	19.97
250.284	44.54
250.501	28.16
250.717	48.64
250.934	7.68
251.151	60.93
251.368	77.31
251.585	62.98
251.801	22.02
252.018	11.78
252.235	54.78
252.451	3.58
252.668	36.35
252.885	65.02
253.102	30.21
253.318	77.31
253.535	5.63
253.752	19.97
253.968	9.73
254.185	3.58
254.401	77.31
254.618	46.59
254.835	40.45
255.051	112.13
255.268	87.55
255.484	34.3
255.701	38.4
255.917	38.4
256.134	-33.28
256.351	65.02
256.567	-8.7
256.784	52.74
257	-37.38
257.217	108.03
257.433	62.98
257.65	40.45
257.866	93.69
258.082	-33.28
258.299	71.17
258.515	58.88
258.732	-20.99
258.948	24.06
259.165	30.21
259.381	28.16
259.597	22.02
259.814	36.35
260.03	-49.66
260.246	69.12
260.463	36.35
260.679	52.74
260.895	28.16
261.112	60.93
261.328	13.82
261.544	77.31
261.761	130.56
261.977	77.31
262.193	-4.61
262.409	87.55
262.626	101.89
262.842	38.4
263.058	-10.75
263.274	46.59
263.49	48.64
263.707	87.55
263.923	32.26
264.139	-4.61
264.355	19.97
264.571	103.93
264.787	42.5
265.004	46.59
265.22	13.82
265.436	46.59
265.652	60.93
265.868	138.75
266.084	28.16
266.3	62.98
266.516	-41.47
266.732	56.83
266.948	65.02
267.164	67.07
267.38	62.98
267.596	52.74
267.812	120.32
268.028	126.46
268.244	-2.56
268.46	36.35
268.676	85.5
268.892	60.93
269.108	17.92
269.324	-29.18
269.54	3.58
269.756	77.31
269.972	-0.51
270.188	52.74
270.403	9.73
270.619	85.5
270.835	118.27
271.051	62.98
271.267	17.92
271.483	36.35
271.698	77.31
271.914	11.78
272.13	95.74
272.346	38.4
272.562	-8.7
272.777	114.17
272.993	30.21
273.209	40.45
273.425	69.12
273.64	36.35
273.856	40.45
274.072	13.82
274.287	62.98
274.503	136.7
274.719	69.12
274.934	56.83
275.15	7.68
275.366	52.74
275.581	11.78
275.797	48.64
276.012	36.35
276.228	-16.9
276.444	69.12
276.659	-0.51
276.875	-45.57
277.09	85.5
277.306	85.5
277.521	142.85
277.737	-53.76
277.952	69.12
278.168	75.26
278.383	79.36
278.599	17.92
278.814	38.4
279.03	11.78
279.245	179.71
279.461	15.87
279.676	101.89
279.892	3.58
280.107	87.55
280.322	17.92
280.538	60.93
280.753	93.69
280.969	44.54
281.184	22.02
281.399	56.83
281.615	13.82
281.83	-18.94
282.045	-10.75
282.26	58.88
282.476	3.58
282.691	42.5
282.906	46.59
283.122	15.87
283.337	-23.04
283.552	146.94
283.767	36.35
283.983	93.69
284.198	26.11
284.413	36.35
284.628	28.16
284.843	11.78
285.058	110.08
285.274	36.35
285.489	-12.8
285.704	118.27
285.919	-35.33
286.134	22.02
286.349	77.31
286.564	44.54
286.779	65.02
286.995	128.51
287.21	40.45
287.425	83.45
287.64	46.59
287.855	3.58
288.07	62.98
288.285	28.16
288.5	28.16
288.715	105.98
288.93	36.35
289.145	19.97
289.36	144.89
289.575	28.16
289.79	93.69
290.004	19.97
290.219	69.12
290.434	40.45
290.649	-25.09
290.864	13.82
291.079	22.02
291.294	36.35
291.509	85.5
291.724	36.35
291.938	36.35
292.153	93.69
292.368	73.21
292.583	7.68
292.798	77.31
293.012	56.83
293.227	28.16
293.442	38.4
293.657	19.97
293.871	89.6
294.086	60.93
294.301	50.69
294.516	62.98
294.73	85.5
294.945	19.97
295.16	105.98
295.374	81.41
295.589	142.85
295.804	19.97
296.018	60.93
296.233	52.74
296.447	-18.94
296.662	54.78
296.877	24.06
297.091	52.74
297.306	65.02
297.52	69.12
297.735	114.17
297.949	-2.56
298.164	71.17
298.378	30.21
298.593	-6.66
298.807	118.27
299.022	52.74
299.236	60.93
299.451	79.36
299.665	75.26
299.88	116.22
300.094	36.35
300.309	30.21
300.523	60.93
300.737	-20.99
300.952	28.16
301.166	159.23
301.381	32.26
301.595	60.93
301.809	93.69
302.024	44.54
302.238	91.65
302.452	73.21
302.667	85.5
302.881	54.78
303.095	69.12
303.309	105.98
303.524	28.16
303.738	1.54
303.952	-0.51
304.166	79.36
304.381	-27.14
304.595	54.78
304.809	24.06
305.023	50.69
305.237	-20.99
305.452	62.98
305.666	71.17
305.88	7.68
306.094	77.31
306.308	69.12
306.522	44.54
306.736	32.26
306.95	60.93
307.164	91.65
307.379	26.11
307.593	60.93
307.807	60.93
308.021	-0.51
308.235	69.12
308.449	60.93
308.663	7.68
308.877	91.65
309.091	69.12
309.305	105.98
309.519	-37.38
309.733	112.13
309.947	36.35
310.161	103.93
310.374	138.75
310.588	97.79
310.802	-18.94
311.016	7.68
311.23	54.78
311.444	-8.7
311.658	40.45
311.872	69.12
312.085	54.78
312.299	54.78
312.513	52.74
312.727	36.35
312.941	-57.86
313.154	44.54
313.368	38.4
313.582	69.12
313.796	52.74
314.009	5.63
314.223	114.17
314.437	173.57
314.651	9.73
314.864	62.98
315.078	-20.99
315.292	19.97
315.505	69.12
315.719	42.5
315.933	28.16
316.146	-18.94
316.36	-10.75
316.573	103.93
316.787	44.54
317.001	46.59
317.214	36.35
317.428	81.41
317.641	-23.04
317.855	40.45
318.068	69.12
318.282	73.21
318.495	108.03
318.709	58.88
318.922	24.06
319.136	134.65
319.349	69.12
319.563	65.02
319.776	71.17
319.99	40.45
320.203	79.36
320.417	136.7
320.63	101.89
320.843	79.36
321.057	85.5
321.27	65.02
321.483	46.59
321.697	142.85
321.91	44.54
322.124	95.74
322.337	73.21
322.55	77.31
322.763	69.12
322.977	48.64
323.19	7.68
323.403	60.93
323.617	83.45
323.83	89.6
324.043	3.58
324.256	28.16
324.469	40.45
324.683	69.12
324.896	28.16
325.109	77.31
325.322	42.5
325.535	38.4
325.748	130.56
325.962	95.74
326.175	40.45
326.388	44.54
326.601	69.12
326.814	19.97
327.027	85.5
327.24	93.69
327.453	-70.14
327.666	60.93
327.879	105.98
328.092	110.08
328.305	71.17
328.518	11.78
328.731	46.59
328.944	-29.18
329.157	44.54
329.37	28.16
329.583	105.98
329.796	101.89
330.009	15.87
330.222	7.68
330.435	62.98
330.648	93.69
330.861	19.97
331.073	15.87
331.286	130.56
331.499	95.74
331.712	48.64
331.925	81.41
332.138	36.35
332.35	58.88
332.563	7.68
332.776	28.16
332.989	-4.61
333.202	93.69
333.414	44.54
333.627	36.35
333.84	22.02
334.053	48.64
334.265	79.36
334.478	71.17
334.691	60.93
334.903	46.59
335.116	54.78
335.329	93.69
335.541	167.42
335.754	155.13
335.966	-29.18
336.179	85.5
336.392	-12.8
336.604	65.02
336.817	87.55
337.029	105.98
337.242	93.69
337.454	13.82
337.667	28.16
337.88	103.93
338.092	99.84
338.305	81.41
338.517	-12.8
338.729	32.26
338.942	60.93
339.154	3.58
339.367	77.31
339.579	-0.51
339.792	71.17
340.004	44.54
340.217	54.78
340.429	71.17
340.641	48.64
340.854	19.97
341.066	40.45
341.278	95.74
341.491	67.07
341.703	7.68
341.915	67.07
342.128	155.13
342.34	36.35
342.552	22.02
342.764	40.45
342.977	5.63
343.189	32.26
343.401	112.13
343.613	-29.18
343.826	73.21
344.038	50.69
344.25	46.59
344.462	60.93
344.674	3.58
344.886	56.83
345.099	69.12
345.311	22.02
345.523	136.7
345.735	19.97
345.947	126.46
346.159	103.93
346.371	36.35
346.583	28.16
346.795	142.85
347.007	36.35
347.219	134.65
347.431	73.21
347.643	73.21
347.855	101.89
348.067	89.6
348.279	85.5
348.491	128.51
348.703	42.5
348.915	48.64
349.127	-33.28
349.339	101.89
349.551	17.92
349.763	77.31
349.975	69.12
350.187	101.89
350.399	95.74
350.61	60.93
350.822	48.64
351.034	110.08
351.246	52.74
351.458	60.93
351.669	60.93
351.881	69.12
352.093	112.13
352.305	36.35
352.517	11.78
352.728	42.5
352.94	-2.56
353.152	134.65
353.363	81.41
353.575	136.7
353.787	28.16
353.999	69.12
354.21	81.41
354.422	24.06
354.633	-16.9
354.845	65.02
355.057	103.93
355.268	56.83
355.48	142.85
355.692	-2.56
355.903	67.07
356.115	112.13
356.326	-37.38
356.538	134.65
356.749	28.16
356.961	-12.8
357.172	110.08
357.384	85.5
357.595	114.17
357.807	85.5
358.018	58.88
358.23	28.16
358.441	101.89
358.653	60.93
358.864	13.82
359.075	19.97
359.287	5.63
359.498	161.28
359.709	79.36
359.921	44.54
360.132	60.93
360.344	110.08
360.555	50.69
360.766	87.55
360.977	65.02
361.189	93.69
361.4	97.79
361.611	77.31
361.823	83.45
362.034	62.98
362.245	73.21
362.456	-4.61
362.667	163.33
362.879	52.74
363.09	3.58
363.301	-27.14
363.512	77.31
363.723	40.45
363.935	-4.61
364.146	81.41
364.357	44.54
364.568	-4.61
364.779	42.5
364.99	171.52
365.201	19.97
365.412	97.79
365.623	120.32
365.834	79.36
366.045	97.79
366.256	81.41
366.467	54.78
366.678	-18.94
366.889	93.69
367.1	56.83
367.311	81.41
367.522	60.93
367.733	101.89
367.944	69.12
368.155	83.45
368.366	112.13
368.577	62.98
368.788	93.69
368.999	13.82
369.209	62.98
369.42	167.42
369.631	200.19
369.842	85.5
370.053	153.09
370.264	91.65
370.474	81.41
370.685	93.69
370.896	81.41
371.107	52.74
371.317	118.27
371.528	73.21
371.739	28.16
371.95	81.41
372.16	89.6
372.371	11.78
372.582	91.65
372.792	7.68
373.003	52.74
373.214	22.02
373.424	110.08
373.635	28.16
373.846	167.42
374.056	69.12
374.267	71.17
374.477	118.27
374.688	83.45
374.898	128.51
375.109	95.74
375.319	85.5
375.53	83.45
375.74	11.78
375.951	126.46
376.161	134.65
376.372	40.45
376.582	46.59
376.793	69.12
377.003	60.93
377.214	44.54
377.424	-2.56
377.635	5.63
377.845	69.12
378.055	105.98
378.266	-12.8
378.476	3.58
378.686	40.45
378.897	110.08
379.107	69.12
379.317	34.3
379.528	110.08
379.738	112.13
379.948	44.54
380.158	110.08
380.369	56.83
380.579	200.19
380.789	101.89
380.999	118.27
381.21	116.22
381.42	151.04
381.63	56.83
381.84	136.7
382.05	87.55
382.261	79.36
382.471	95.74
382.681	24.06
382.891	157.18
383.101	87.55
383.311	11.78
383.521	36.35
383.731	9.73
383.941	167.42
384.151	46.59
384.361	95.74
384.571	-2.56
384.781	91.65
384.991	142.85
385.201	110.08
385.411	36.35
385.621	110.08
385.831	22.02
386.041	28.16
386.251	54.78
386.461	134.65
386.671	48.64
386.881	85.5
387.091	48.64
387.301	101.89
387.511	36.35
387.72	38.4
387.93	110.08
388.14	-12.8
388.35	134.65
388.56	110.08
388.769	153.09
388.979	77.31
389.189	40.45
389.399	52.74
389.609	77.31
389.818	134.65
390.028	46.59
390.238	112.13
390.447	85.5
390.657	110.08
390.867	159.23
391.076	85.5
391.286	116.22
391.496	126.46
391.705	44.54
391.915	52.74
392.125	108.03
392.334	110.08
392.544	142.85
392.753	130.56
392.963	85.5
393.172	62.98
393.382	91.65
393.591	153.09
393.801	101.89
394.01	183.81
394.22	142.85
394.429	146.94
394.639	87.55
394.848	177.66
395.058	118.27
395.267	-4.61
395.477	126.46
395.686	138.75
395.895	167.42
396.105	185.85
396.314	89.6
396.524	128.51
396.733	120.32
396.942	202.24
397.152	126.46
397.361	185.85
397.57	26.11
397.78	187.9
397.989	243.2
398.198	171.52
398.407	126.46
398.617	222.72
398.826	128.51
399.035	282.11
399.244	167.42
399.453	122.37
399.663	167.42
399.872	136.7
400.081	118.27
400.29	140.8
400.499	97.79
400.708	173.57
400.917	122.37
401.127	159.23
401.336	226.81
401.545	212.48
401.754	146.94
401.963	183.81
402.172	159.23
402.381	161.28
402.59	101.89
402.799	159.23
403.008	161.28
403.217	169.47
403.426	169.47
403.635	169.47
403.844	200.19
404.053	177.66
404.262	167.42
404.471	230.91
404.68	146.94
404.888	273.92
405.097	212.48
405.306	222.72
405.515	241.15
405.724	220.67
405.933	292.35
406.142	249.34
406.35	249.34
406.559	192
406.768	216.57
406.977	325.12
407.185	249.34
407.394	255.48
407.603	235
407.812	294.4
408.02	359.93
408.229	339.45
408.438	316.92
408.646	331.26
408.855	355.83
409.064	331.26
409.272	327.16
409.481	374.27
409.69	298.49
409.898	355.83
410.107	456.19
410.315	456.19
410.524	470.52
410.733	425.47
410.941	415.23
411.15	505.34
411.358	460.28
411.567	540.15
411.775	507.38
411.984	552.44
412.192	681.46
412.401	527.86
412.609	667.13
412.818	671.22
413.026	693.75
413.234	687.61
413.443	718.33
413.651	728.56
413.86	828.92
414.068	882.16
414.276	792.05
414.485	761.33
414.693	921.07
414.901	1078.77
415.11	902.64
415.318	941.55
415.526	970.23
415.734	1099.25
415.943	1062.38
416.151	1117.68
416.359	1152.49
416.567	1119.73
416.776	1310.19
416.984	1404.39
417.192	1324.52
417.4	1338.86
417.608	1420.78
417.817	1347.05
418.025	1666.53
418.233	1611.24
418.441	1574.38
418.649	1668.58
418.857	1748.45
419.065	1795.56
419.273	1842.66
419.481	1879.52
419.689	1940.96
419.897	2180.57
420.105	2045.41
420.313	2147.81
420.521	2156
420.729	2264.54
420.937	2348.51
421.145	2448.86
421.353	2573.78
421.561	2661.85
421.769	2635.22
421.977	2809.3
422.185	2676.18
422.393	3034.58
422.601	3251.66
422.809	3016.15
423.017	3263.95
423.224	3313.1
423.432	3431.88
423.64	3366.35
423.848	3757.51
424.056	3528.14
424.263	3829.19
424.471	3831.24
424.679	4087.23
424.887	4005.31
425.094	4203.97
425.302	4410.81
425.51	4423.1
425.718	4615.61
425.925	4683.19
426.133	4937.14
426.341	5041.59
426.548	5371.31
426.756	5467.56
426.964	5295.54
427.171	5805.48
427.379	5823.91
427.586	6063.52
427.794	6063.52
428.001	6522.27
428.209	6782.36
428.417	6573.47
428.624	7089.56
428.832	7001.49
429.039	6999.45
429.247	7060.88
429.454	7673.23
429.662	8201.6
429.869	7536.01
430.076	8111.49
430.284	7937.41
430.491	8226.18
430.699	8605.05
430.906	8664.44
431.114	8922.49
431.321	9244.02
431.528	9489.78
431.736	10042.73
431.943	10433.89
432.15	10055.01
432.358	10112.36
432.565	10624.35
432.772	10558.81
432.979	11017.56
433.187	11357.52
433.394	11464.02
433.601	12225.86
433.808	12571.97
434.016	12318.02
434.223	12705.09
434.43	13405.49
434.637	13401.4
434.844	14038.31
435.052	14355.75
435.259	14382.37
435.466	14284.07
435.673	14380.32
435.88	15224.09
436.087	15863.05
436.294	15947.02
436.501	15820.05
436.708	15920.4
436.915	16264.46
437.122	17128.7
437.329	17239.29
437.537	17564.92
437.743	17849.58
437.95	17468.66
438.157	18689.25
438.364	19281.11
438.571	19350.74
438.778	19274.97
438.985	21042.37
439.192	20436.17
439.399	20884.67
439.606	20229.32
439.813	21787.83
440.02	22903.97
440.227	22398.12
440.433	22357.16
440.64	23057.57
440.847	22895.78
441.054	23569.56
441.261	24843.4
441.467	24573.07
441.674	25279.61
441.881	25822.33
442.088	25920.63
442.294	25799.8
442.501	26242.16
442.708	27231.33
442.914	27712.6
443.121	29025.35
443.328	28095.57
443.534	30131.25
443.741	29398.08
443.948	28838.98
444.154	31331.36
444.361	30909.48
444.568	31030.31
444.774	31061.03
444.981	31593.5
445.187	32261.14
445.394	33526.78
445.6	33135.62
445.807	35959.77
446.013	34853.87
446.22	35185.64
446.426	36887.5
446.633	37397.45
446.839	38400.95
447.046	36840.4
447.252	38704.05
447.459	38863.79
447.665	38841.26
447.871	40745.87
448.078	41771.91
448.284	40180.63
448.491	40924.05
448.697	42529.66
448.903	42910.58
449.11	43246.44
449.316	42965.87
449.522	44268.38
449.728	44698.45
449.935	44835.67
450.141	45318.99
450.347	46007.11
450.553	44536.66
450.76	45253.45
450.966	46676.79
451.172	45984.58
451.378	47735.59
451.584	46467.9
451.791	47362.86
451.997	47725.35
452.203	48251.68
452.409	48194.34
452.615	47665.96
452.821	46355.26
453.027	45325.13
453.233	48102.18
453.44	45884.23
453.646	46775.09
453.852	46664.5
454.058	47711.02
454.264	46058.31
454.47	46983.99
454.676	45908.8
454.882	47276.85
455.088	43635.56
455.294	43914.08
455.5	44464.99
455.705	44850
455.911	43348.84
456.117	42374.01
456.323	41730.95
456.529	39730.08
456.735	41325.45
456.941	40575.89
457.147	39879.58
457.352	38777.78
457.558	38187.96
457.764	38589.36
457.97	37387.21
458.176	36862.93
458.381	36819.92
458.587	34995.18
458.793	34694.13
458.999	33264.64
459.204	34862.06
459.41	34407.41
459.616	32433.17
459.821	31853.59
460.027	31804.44
460.233	31648.8
460.438	29594.68
460.644	30149.68
460.85	28841.03
461.055	28251.22
461.261	28343.38
461.466	26074.23
461.672	25601.15
461.878	27038.82
462.083	25224.32
462.289	24996.99
462.494	24822.92
462.7	23743.64
462.905	22920.35
463.111	23874.71
463.316	23864.47
463.522	23295.13
463.727	23248.03
463.932	23116.96
464.138	22914.21
464.343	22891.68
464.549	22359.21
464.754	23280.8
464.959	23047.33
465.165	22729.89
465.37	21558.46
465.575	21308.6
465.781	21955.76
465.986	21984.43
