Data from USB4F104151__37__14-29-44-961.txt Node

Date: Thu Mar 13 14:29:44 EDT 2025
User: louis
Spectrometer: USB4F10415
Trigger mode: 4
Integration Time (sec): 2.500000E-2
Scans to average: 1
Electric dark correction enabled: true
Nonlinearity correction enabled: false
Boxcar width: 0
XAxis mode: Wavelengths
Number of Pixels in Spectrum: 3648
>>>>>Begin Spectral Data<<<<<
178.204	-177.32
178.424	-177.32
178.644	-177.32
178.864	-148.65
179.084	-156.84
179.304	-68.78
179.524	-76.97
179.744	-48.3
179.964	107.35
180.184	-25.77
180.404	-44.2
180.624	37.72
180.844	7
181.064	29.52
181.283	-7.34
181.503	11.09
181.723	78.68
181.943	-23.72
182.163	56.15
182.383	21.33
182.602	11.09
182.822	29.52
183.042	21.33
183.262	19.29
183.482	-40.11
183.701	39.76
183.921	54.1
184.141	86.87
184.361	37.72
184.58	15.19
184.8	9.05
185.02	-19.63
185.239	97.11
185.459	70.48
185.679	86.87
185.898	-15.53
186.118	-3.24
186.338	21.33
186.557	72.53
186.777	-23.72
186.997	-3.24
187.216	-50.35
187.436	17.24
187.655	72.53
187.875	23.38
188.095	37.72
188.314	50
188.534	-3.24
188.753	15.19
188.973	84.82
189.192	113.49
189.412	4.95
189.631	35.67
189.851	-33.96
190.07	29.52
190.29	-44.2
190.509	86.87
190.729	-3.24
190.948	47.96
191.168	152.4
191.387	56.15
191.607	4.95
191.826	80.72
192.045	-36.01
192.265	-25.77
192.484	2.9
192.704	-44.2
192.923	-33.96
193.142	129.88
193.362	56.15
193.581	-19.63
193.8	88.92
194.02	13.14
194.239	-19.63
194.458	47.96
194.678	7
194.897	39.76
195.116	23.38
195.335	29.52
195.555	58.2
195.774	-3.24
195.993	15.19
196.212	2.9
196.432	43.86
196.651	13.14
196.87	45.91
197.089	101.2
197.308	37.72
197.528	17.24
197.747	-36.01
197.966	0.85
198.185	129.88
198.404	-36.01
198.623	45.91
198.842	15.19
199.062	58.2
199.281	37.72
199.5	4.95
199.719	47.96
199.938	33.62
200.157	58.2
200.376	50
200.595	29.52
200.814	21.33
201.033	41.81
201.252	41.81
201.471	21.33
201.69	31.57
201.909	86.87
202.128	74.58
202.347	56.15
202.566	-23.72
202.785	15.19
203.004	33.62
203.223	101.2
203.442	9.05
203.661	-29.87
203.879	41.81
204.098	70.48
204.317	0.85
204.536	-3.24
204.755	23.38
204.974	113.49
205.193	-17.58
205.411	41.81
205.63	50
205.849	-58.54
206.068	4.95
206.287	-5.29
206.505	29.52
206.724	72.53
206.943	-13.48
207.162	-25.77
207.381	-33.96
207.599	21.33
207.818	86.87
208.037	64.34
208.255	37.72
208.474	64.34
208.693	9.05
208.911	97.11
209.13	-3.24
209.349	50
209.567	21.33
209.786	2.9
210.005	93.01
210.223	33.62
210.442	-31.91
210.661	64.34
210.879	-11.43
211.098	37.72
211.316	13.14
211.535	56.15
211.753	66.39
211.972	97.11
212.191	33.62
212.409	7
212.628	4.95
212.846	-60.59
213.065	154.45
213.283	103.25
213.502	21.33
213.72	13.14
213.938	-9.39
214.157	21.33
214.375	7
214.594	21.33
214.812	68.44
215.031	-36.01
215.249	54.1
215.467	13.14
215.686	13.14
215.904	54.1
216.122	-19.63
216.341	82.77
216.559	56.15
216.778	50
216.996	21.33
217.214	33.62
217.432	-25.77
217.651	-21.67
217.869	21.33
218.087	-3.24
218.306	4.95
218.524	62.29
218.742	-31.91
218.96	50
219.179	74.58
219.397	29.52
219.615	105.3
219.833	13.14
220.051	7
220.27	31.57
220.488	31.57
220.706	41.81
220.924	15.19
221.142	-36.01
221.36	-3.24
221.578	58.2
221.796	7
222.015	13.14
222.233	58.2
222.451	-9.39
222.669	-19.63
222.887	82.77
223.105	37.72
223.323	29.52
223.541	-21.67
223.759	-1.19
223.977	-23.72
224.195	29.52
224.413	9.05
224.631	13.14
224.849	-7.34
225.067	45.91
225.285	21.33
225.503	54.1
225.721	25.43
225.939	54.1
226.157	23.38
226.375	123.73
226.592	-42.15
226.81	-36.01
227.028	52.05
227.246	119.64
227.464	-27.82
227.682	-5.29
227.9	50
228.117	70.48
228.335	-13.48
228.553	70.48
228.771	54.1
228.989	-7.34
229.206	37.72
229.424	-27.82
229.642	-48.3
229.86	-52.39
230.077	88.92
230.295	4.95
230.513	66.39
230.731	62.29
230.948	70.48
231.166	97.11
231.384	90.96
231.601	-17.58
231.819	47.96
232.037	-60.59
232.254	56.15
232.472	-3.24
232.689	-3.24
232.907	17.24
233.125	29.52
233.342	4.95
233.56	-105.64
233.777	41.81
233.995	-3.24
234.213	17.24
234.43	80.72
234.648	4.95
234.865	-68.78
235.083	-44.2
235.3	23.38
235.518	15.19
235.735	47.96
235.953	50
236.17	33.62
236.388	37.72
236.605	-19.63
236.822	74.58
237.04	-9.39
237.257	11.09
237.475	37.72
237.692	58.2
237.909	64.34
238.127	-19.63
238.344	-3.24
238.562	70.48
238.779	-1.19
238.996	19.29
239.214	-3.24
239.431	70.48
239.648	-5.29
239.865	43.86
240.083	50
240.3	-9.39
240.517	-3.24
240.735	70.48
240.952	7
241.169	37.72
241.386	80.72
241.603	31.57
241.821	54.1
242.038	113.49
242.255	21.33
242.472	-19.63
242.689	-3.24
242.907	45.91
243.124	86.87
243.341	-36.01
243.558	-3.24
243.775	-33.96
243.992	-36.01
244.209	66.39
244.426	29.52
244.643	78.68
244.86	0.85
245.078	82.77
245.295	-40.11
245.512	-27.82
245.729	-33.96
245.946	21.33
246.163	15.19
246.38	45.91
246.597	-7.34
246.814	95.06
247.031	29.52
247.248	29.52
247.464	31.57
247.681	70.48
247.898	58.2
248.115	2.9
248.332	72.53
248.549	50
248.766	50
248.983	-23.72
249.2	23.38
249.417	23.38
249.633	29.52
249.85	29.52
250.067	-31.91
250.284	50
250.501	115.54
250.717	15.19
250.934	29.52
251.151	-19.63
251.368	21.33
251.585	-11.43
251.801	56.15
252.018	58.2
252.235	41.81
252.451	-85.16
252.668	-7.34
252.885	82.77
253.102	31.57
253.318	50
253.535	35.67
253.752	-11.43
253.968	-11.43
254.185	-17.58
254.401	62.29
254.618	60.24
254.835	29.52
255.051	-36.01
255.268	9.05
255.484	88.92
255.701	-9.39
255.917	27.48
256.134	-44.2
256.351	88.92
256.567	-19.63
256.784	50
257	43.86
257.217	78.68
257.433	88.92
257.65	23.38
257.866	113.49
258.082	37.72
258.299	-48.3
258.515	13.14
258.732	-13.48
258.948	72.53
259.165	41.81
259.381	64.34
259.597	-19.63
259.814	-60.59
260.03	27.48
260.246	-17.58
260.463	21.33
260.679	70.48
260.895	86.87
261.112	-23.72
261.328	33.62
261.544	-3.24
261.761	78.68
261.977	0.85
262.193	4.95
262.409	111.44
262.626	-3.24
262.842	23.38
263.058	13.14
263.274	111.44
263.49	41.81
263.707	99.16
263.923	15.19
264.139	-23.72
264.355	64.34
264.571	111.44
264.787	33.62
265.004	11.09
265.22	29.52
265.436	13.14
265.652	39.76
265.868	13.14
266.084	-3.24
266.3	72.53
266.516	-1.19
266.732	31.57
266.948	-54.44
267.164	19.29
267.38	90.96
267.596	50
267.812	37.72
268.028	25.43
268.244	9.05
268.46	113.49
268.676	-11.43
268.892	-40.11
269.108	-27.82
269.324	33.62
269.54	62.29
269.756	64.34
269.972	-19.63
270.188	-42.15
270.403	-48.3
270.619	43.86
270.835	-19.63
271.051	123.73
271.267	23.38
271.483	21.33
271.698	64.34
271.914	21.33
272.13	50
272.346	62.29
272.562	29.52
272.777	-17.58
272.993	-27.82
273.209	-25.77
273.425	-1.19
273.64	-46.25
273.856	23.38
274.072	21.33
274.287	-9.39
274.503	95.06
274.719	54.1
274.934	19.29
275.15	-17.58
275.366	7
275.581	-23.72
275.797	-1.19
276.012	29.52
276.228	29.52
276.444	58.2
276.659	-19.63
276.875	9.05
277.09	45.91
277.306	41.81
277.521	-3.24
277.737	45.91
277.952	74.58
278.168	54.1
278.383	21.33
278.599	58.2
278.814	17.24
279.03	47.96
279.245	74.58
279.461	-11.43
279.676	-36.01
279.892	-1.19
280.107	54.1
280.322	4.95
280.538	29.52
280.753	-11.43
280.969	33.62
281.184	70.48
281.399	29.52
281.615	66.39
281.83	41.81
282.045	-9.39
282.26	54.1
282.476	-9.39
282.691	86.87
282.906	-19.63
283.122	37.72
283.337	-19.63
283.552	-11.43
283.767	88.92
283.983	62.29
284.198	-9.39
284.413	72.53
284.628	-91.31
284.843	47.96
285.058	47.96
285.274	4.95
285.489	17.24
285.704	37.72
285.919	74.58
286.134	11.09
286.349	-3.24
286.564	-27.82
286.779	56.15
286.995	25.43
287.21	15.19
287.425	47.96
287.64	-1.19
287.855	31.57
288.07	-9.39
288.285	113.49
288.5	68.44
288.715	50
288.93	-38.06
289.145	-3.24
289.36	0.85
289.575	-3.24
289.79	39.76
290.004	-11.43
290.219	64.34
290.434	62.29
290.649	54.1
290.864	0.85
291.079	25.43
291.294	95.06
291.509	33.62
291.724	25.43
291.938	-25.77
292.153	-7.34
292.368	-31.91
292.583	58.2
292.798	13.14
293.012	54.1
293.227	45.91
293.442	21.33
293.657	23.38
293.871	90.96
294.086	-27.82
294.301	158.55
294.516	37.72
294.73	9.05
294.945	25.43
295.16	-9.39
295.374	17.24
295.589	80.72
295.804	-31.91
296.018	7
296.233	136.02
296.447	64.34
296.662	58.2
296.877	23.38
297.091	23.38
297.306	-11.43
297.52	-1.19
297.735	-19.63
297.949	25.43
298.164	39.76
298.378	58.2
298.593	21.33
298.807	-17.58
299.022	39.76
299.236	58.2
299.451	-11.43
299.665	-44.2
299.88	-25.77
300.094	4.95
300.309	-19.63
300.523	-70.83
300.737	15.19
300.952	-40.11
301.166	9.05
301.381	-27.82
301.595	70.48
301.809	-11.43
302.024	54.1
302.238	37.72
302.452	37.72
302.667	56.15
302.881	4.95
303.095	78.68
303.309	37.72
303.524	-62.63
303.738	25.43
303.952	25.43
304.166	13.14
304.381	-23.72
304.595	152.4
304.809	15.19
305.023	11.09
305.237	43.86
305.452	-40.11
305.666	23.38
305.88	72.53
306.094	-85.16
306.308	70.48
306.522	41.81
306.736	-40.11
306.95	29.52
307.164	66.39
307.379	27.48
307.593	138.07
307.807	64.34
308.021	21.33
308.235	90.96
308.449	-11.43
308.663	25.43
308.877	60.24
309.091	37.72
309.305	62.29
309.519	-52.39
309.733	58.2
309.947	-19.63
310.161	111.44
310.374	29.52
310.588	107.35
310.802	-15.53
311.016	7
311.23	78.68
311.444	-15.53
311.658	84.82
311.872	62.29
312.085	41.81
312.299	47.96
312.513	15.19
312.727	78.68
312.941	-52.39
313.154	45.91
313.368	11.09
313.582	86.87
313.796	54.1
314.009	4.95
314.223	88.92
314.437	103.25
314.651	41.81
314.864	-7.34
315.078	29.52
315.292	-25.77
315.505	-23.72
315.719	78.68
315.933	-36.01
316.146	43.86
316.36	37.72
316.573	72.53
316.787	50
317.001	-40.11
317.214	-17.58
317.428	9.05
317.641	47.96
317.855	-21.67
318.068	-9.39
318.282	15.19
318.495	37.72
318.709	127.83
318.922	-11.43
319.136	72.53
319.349	50
319.563	31.57
319.776	74.58
319.99	9.05
320.203	82.77
320.417	25.43
320.63	19.29
320.843	146.26
321.057	17.24
321.27	27.48
321.483	54.1
321.697	66.39
321.91	-52.39
322.124	82.77
322.337	111.44
322.55	66.39
322.763	-1.19
322.977	-11.43
323.19	23.38
323.403	103.25
323.617	39.76
323.83	52.05
324.043	21.33
324.256	64.34
324.469	-9.39
324.683	41.81
324.896	-7.34
325.109	-5.29
325.322	-50.35
325.535	64.34
325.748	11.09
325.962	58.2
326.175	-33.96
326.388	47.96
326.601	-3.24
326.814	13.14
327.027	-17.58
327.24	80.72
327.453	-27.82
327.666	90.96
327.879	97.11
328.092	-27.82
328.305	88.92
328.518	-52.39
328.731	60.24
328.944	-36.01
329.157	23.38
329.37	-33.96
329.583	115.54
329.796	105.3
330.009	-17.58
330.222	13.14
330.435	29.52
330.648	13.14
330.861	43.86
331.073	-11.43
331.286	37.72
331.499	-17.58
331.712	33.62
331.925	105.3
332.138	64.34
332.35	13.14
332.563	9.05
332.776	45.91
332.989	-31.91
333.202	21.33
333.414	52.05
333.627	-23.72
333.84	-38.06
334.053	52.05
334.265	17.24
334.478	-17.58
334.691	70.48
334.903	-9.39
335.116	29.52
335.329	45.91
335.541	58.2
335.754	23.38
335.966	2.9
336.179	64.34
336.392	-48.3
336.604	-44.2
336.817	33.62
337.029	13.14
337.242	-3.24
337.454	76.63
337.667	58.2
337.88	62.29
338.092	4.95
338.305	54.1
338.517	45.91
338.729	56.15
338.942	86.87
339.154	-33.96
339.367	-105.64
339.579	78.68
339.792	-3.24
340.004	33.62
340.217	-3.24
340.429	107.35
340.641	-40.11
340.854	-13.48
341.066	21.33
341.278	56.15
341.491	111.44
341.703	68.44
341.915	-11.43
342.128	105.3
342.34	115.54
342.552	15.19
342.764	9.05
342.977	-15.53
343.189	78.68
343.401	39.76
343.613	-27.82
343.826	47.96
344.038	-11.43
344.25	39.76
344.462	7
344.674	-11.43
344.886	23.38
345.099	54.1
345.311	62.29
345.523	29.52
345.735	-23.72
345.947	0.85
346.159	-27.82
346.371	-19.63
346.583	15.19
346.795	64.34
347.007	52.05
347.219	54.1
347.431	17.24
347.643	111.44
347.855	-36.01
348.067	76.63
348.279	-48.3
348.491	86.87
348.703	37.72
348.915	52.05
349.127	37.72
349.339	41.81
349.551	11.09
349.763	86.87
349.975	-40.11
350.187	64.34
350.399	86.87
350.61	50
350.822	13.14
351.034	15.19
351.246	7
351.458	29.52
351.669	4.95
351.881	54.1
352.093	7
352.305	70.48
352.517	-1.19
352.728	4.95
352.94	78.68
353.152	4.95
353.363	74.58
353.575	23.38
353.787	58.2
353.999	50
354.21	82.77
354.422	50
354.633	27.48
354.845	15.19
355.057	70.48
355.268	37.72
355.48	68.44
355.692	17.24
355.903	13.14
356.115	54.1
356.326	23.38
356.538	88.92
356.749	95.06
356.961	93.01
357.172	54.1
357.384	-3.24
357.595	78.68
357.807	47.96
358.018	23.38
358.23	4.95
358.441	37.72
358.653	-50.35
358.864	-31.91
359.075	64.34
359.287	-17.58
359.498	62.29
359.709	111.44
359.921	-7.34
360.132	-5.29
360.344	-3.24
360.555	7
360.766	41.81
360.977	86.87
361.189	74.58
361.4	-19.63
361.611	111.44
361.823	13.14
362.034	68.44
362.245	4.95
362.456	4.95
362.667	-3.24
362.879	-11.43
363.09	-11.43
363.301	19.29
363.512	90.96
363.723	60.24
363.935	-13.48
364.146	37.72
364.357	2.9
364.568	37.72
364.779	-19.63
364.99	78.68
365.201	66.39
365.412	33.62
365.623	9.05
365.834	64.34
366.045	4.95
366.256	62.29
366.467	15.19
366.678	21.33
366.889	70.48
367.1	33.62
367.311	58.2
367.522	4.95
367.733	58.2
367.944	111.44
368.155	15.19
368.366	37.72
368.577	86.87
368.788	86.87
368.999	-27.82
369.209	-11.43
369.42	21.33
369.631	138.07
369.842	56.15
370.053	-76.97
370.264	29.52
370.474	-15.53
370.685	105.3
370.896	58.2
371.107	31.57
371.317	86.87
371.528	41.81
371.739	62.29
371.95	33.62
372.16	37.72
372.371	25.43
372.582	72.53
372.792	37.72
373.003	-40.11
373.214	-50.35
373.424	50
373.635	17.24
373.846	47.96
374.056	29.52
374.267	45.91
374.477	50
374.688	33.62
374.898	70.48
375.109	86.87
375.319	82.77
375.53	70.48
375.74	121.68
375.951	2.9
376.161	66.39
376.372	58.2
376.582	29.52
376.793	9.05
377.003	-33.96
377.214	37.72
377.424	47.96
377.635	58.2
377.845	31.57
378.055	82.77
378.266	52.05
378.476	70.48
378.686	33.62
378.897	37.72
379.107	41.81
379.317	62.29
379.528	86.87
379.738	70.48
379.948	-15.53
380.158	62.29
380.369	-7.34
380.579	54.1
380.789	29.52
380.999	117.59
381.21	76.63
381.42	56.15
381.63	82.77
381.84	136.02
382.05	-11.43
382.261	80.72
382.471	39.76
382.681	41.81
382.891	95.06
383.101	74.58
383.311	13.14
383.521	7
383.731	123.73
383.941	25.43
384.151	80.72
384.361	95.06
384.571	54.1
384.781	23.38
384.991	97.11
385.201	72.53
385.411	47.96
385.621	97.11
385.831	70.48
386.041	76.63
386.251	54.1
386.461	43.86
386.671	82.77
386.881	82.77
387.091	45.91
387.301	-25.77
387.511	54.1
387.72	105.3
387.93	105.3
388.14	80.72
388.35	78.68
388.56	19.29
388.769	56.15
388.979	97.11
389.189	-33.96
389.399	43.86
389.609	86.87
389.818	15.19
390.028	21.33
390.238	54.1
390.447	-46.25
390.657	136.02
390.867	86.87
391.076	-25.77
391.286	41.81
391.496	70.48
391.705	97.11
391.915	88.92
392.125	82.77
392.334	13.14
392.544	111.44
392.753	58.2
392.963	47.96
393.172	95.06
393.382	23.38
393.591	90.96
393.801	52.05
394.01	123.73
394.22	107.35
394.429	37.72
394.639	45.91
394.848	121.68
395.058	4.95
395.267	68.44
395.477	78.68
395.686	35.67
395.895	86.87
396.105	144.21
396.314	144.21
396.524	80.72
396.733	103.25
396.942	103.25
397.152	86.87
397.361	41.81
397.57	129.88
397.78	127.83
397.989	105.3
398.198	127.83
398.407	129.88
398.617	119.64
398.826	80.72
399.035	101.2
399.244	138.07
399.453	76.63
399.663	43.86
399.872	47.96
400.081	76.63
400.29	164.69
400.499	52.05
400.708	76.63
400.917	107.35
401.127	115.54
401.336	99.16
401.545	176.98
401.754	103.25
401.963	111.44
402.172	72.53
402.381	131.92
402.59	125.78
402.799	142.16
403.008	148.31
403.217	107.35
403.426	113.49
403.635	88.92
403.844	39.76
404.053	189.27
404.262	31.57
404.471	219.99
404.68	111.44
404.888	54.1
405.097	107.35
405.306	103.25
405.515	160.59
405.724	162.64
405.933	244.56
406.142	131.92
406.35	168.79
406.559	119.64
406.768	144.21
406.977	201.55
407.185	217.94
407.394	316.24
407.603	271.19
407.812	201.55
408.02	226.13
408.229	219.99
408.438	250.71
408.646	189.27
408.855	201.55
409.064	250.71
409.272	205.65
409.481	365.39
409.69	283.47
409.898	267.09
410.107	301.9
410.315	320.34
410.524	279.38
410.733	316.24
410.941	281.43
411.15	408.4
411.358	357.2
411.567	398.16
411.775	365.39
411.984	363.34
412.192	430.93
412.401	508.75
412.609	574.28
412.818	500.56
413.026	500.56
413.234	537.42
413.443	508.75
413.651	482.13
413.86	590.67
414.068	633.68
414.276	613.2
414.485	602.96
414.693	787.27
414.901	766.79
415.11	719.69
415.318	713.55
415.526	789.32
415.734	832.33
415.943	801.61
416.151	779.08
416.359	875.34
416.567	1000.26
416.776	889.67
416.984	953.16
417.192	1030.98
417.4	1012.55
417.608	922.44
417.817	975.69
418.025	1194.82
418.233	1110.85
418.441	1129.28
418.649	1209.15
418.857	1282.88
419.065	1282.88
419.273	1319.75
419.481	1434.43
419.689	1471.29
419.897	1512.25
420.105	1643.32
420.313	1573.69
420.521	1737.53
420.729	1723.2
420.937	1833.79
421.145	1817.4
421.353	1921.85
421.561	2044.73
421.769	2044.73
421.977	2218.8
422.185	2079.54
422.393	2286.39
422.601	2323.25
422.809	2454.32
423.017	2325.3
423.224	2552.62
423.432	2571.05
423.64	2691.88
423.848	2816.81
424.056	2767.66
424.263	2894.63
424.471	3007.27
424.679	2990.89
424.887	3037.99
425.094	3314.47
425.302	3281.7
425.51	3322.66
425.718	3404.58
425.925	3496.74
426.133	3498.78
426.341	3756.83
426.548	3920.67
426.756	4037.4
426.964	3998.49
427.171	4440.85
427.379	4440.85
427.586	4551.44
427.794	4621.07
428.001	4832.01
428.209	4885.26
428.417	4866.83
428.624	5374.72
428.832	5321.48
429.039	5298.95
429.247	5196.55
429.454	5845.76
429.662	5999.35
429.869	5886.72
430.076	6185.72
430.284	6118.14
430.491	6128.38
430.699	6675.18
430.906	6572.79
431.114	6748.91
431.321	6925.04
431.528	7115.5
431.736	7488.23
431.943	7752.42
432.15	7684.83
432.358	7635.68
432.565	8061.66
432.772	7971.55
432.979	8340.18
433.187	8538.84
433.394	8854.22
433.601	9097.93
433.808	9216.71
434.016	9038.54
434.223	9491.14
434.43	10175.16
434.637	9882.3
434.844	10599.09
435.052	10728.11
435.259	10801.84
435.466	10801.84
435.673	10687.15
435.88	11342.5
436.087	11958.94
436.294	11825.82
436.501	11492.01
436.708	12081.82
436.915	12278.43
437.122	12845.71
437.329	12858
437.537	13001.36
437.743	13593.22
437.95	13159.05
438.157	14248.57
438.364	14432.89
438.571	14334.59
438.778	14486.14
438.985	15719.01
439.192	15053.42
439.399	15473.26
439.606	15116.91
439.813	16058.98
440.02	17179.22
440.227	16691.8
440.433	16314.97
440.64	17375.82
440.847	17211.98
441.054	17470.03
441.261	18739.77
441.467	18625.08
441.674	18815.54
441.881	19313.2
442.088	19268.14
442.294	19184.18
442.501	19681.83
442.708	20159.01
442.914	20836.89
443.121	21600.78
443.328	21029.4
443.534	22319.62
443.741	21776.91
443.948	21619.21
444.154	23046.65
444.361	23099.89
444.568	23032.31
444.774	23071.22
444.981	23431.66
445.187	24115.69
445.394	25141.72
445.6	24949.21
445.807	27249.08
446.013	26026.44
446.22	26632.64
446.426	27449.78
446.633	27658.67
446.839	28795.29
447.046	27552.18
447.252	29403.54
447.459	29395.35
447.665	28811.68
447.871	30450.05
448.078	31791.47
448.284	30146.95
448.491	30884.22
448.697	32039.28
448.903	32518.5
449.11	32962.91
449.316	32104.81
449.522	32854.37
449.728	33626.45
449.935	33524.05
450.141	33691.99
450.347	34556.23
450.553	33368.41
450.76	33757.52
450.966	34965.82
451.172	34459.98
451.378	35418.42
451.584	34011.47
451.791	35621.17
451.997	35537.21
452.203	36073.77
452.409	36147.5
452.615	35795.25
452.821	34431.3
453.027	33866.06
453.233	36213.04
453.44	34875.71
453.646	34920.77
453.852	35060.03
454.058	35146.05
454.264	34758.98
454.47	35019.07
454.676	34277.71
454.882	35258.68
455.088	32311.66
455.294	32829.79
455.5	33272.15
455.705	33347.93
455.911	32414.05
456.117	31578.48
456.323	31189.37
456.529	29569.43
456.735	30744.96
456.941	30179.72
457.147	29297.05
457.352	28547.49
457.558	28367.27
457.764	28174.76
457.97	27470.26
458.176	26954.17
458.381	27089.34
458.587	25731.53
458.793	25682.38
458.999	24351.2
459.204	26223.05
459.41	25278.93
459.616	23392.75
459.821	23880.17
460.027	23409.14
460.233	23165.43
460.438	21815.82
460.644	22010.37
460.85	21285.39
461.055	20736.54
461.261	20910.61
461.466	19137.07
461.672	18577.98
461.878	19943.97
462.083	18426.43
462.289	18219.58
462.494	17836.61
462.7	17281.61
462.905	16861.78
463.111	17236.56
463.316	17517.13
463.522	16972.37
463.727	16792.15
463.932	16857.68
464.138	16421.47
464.343	16779.86
464.549	16128.61
464.754	16833.11
464.959	16593.5
465.165	16437.85
465.37	15657.57
465.575	15282.8
465.781	16022.11
465.986	16159.33
466.191	15530.6
466.397	15008.37
466.602	14285.44
466.807	15141.49
467.012	14848.63
467.218	15043.18
467.423	14690.93
467.628	14817.91
467.833	15372.91
468.038	14647.93
