Data from USB4F104151__115__14-31-12-911.txt Node

Date: Thu Mar 13 14:31:12 EDT 2025
User: louis
Spectrometer: USB4F10415
Trigger mode: 4
Integration Time (sec): 2.500000E-2
Scans to average: 1
Electric dark correction enabled: true
Nonlinearity correction enabled: false
Boxcar width: 0
XAxis mode: Wavelengths
Number of Pixels in Spectrum: 3648
>>>>>Begin Spectral Data<<<<<
178.204	-108.71
178.424	-108.71
178.644	-108.71
178.864	-127.14
179.084	-100.52
179.304	30.55
179.524	-2.22
179.744	-14.51
179.964	75.6
180.184	-43.18
180.404	12.12
180.624	22.36
180.844	-59.56
181.064	8.02
181.283	-22.7
181.503	-6.31
181.723	-0.17
181.943	-14.51
182.163	161.62
182.383	5.97
182.602	63.32
182.822	71.51
183.042	51.03
183.262	-2.22
183.482	48.98
183.701	-24.75
183.921	-8.36
184.141	14.17
184.361	14.17
184.58	53.08
184.8	57.17
185.02	57.17
185.239	91.99
185.459	91.99
185.679	87.89
185.898	-8.36
186.118	48.98
186.338	34.64
186.557	81.75
186.777	-14.51
186.997	96.08
187.216	55.12
187.436	100.18
187.655	63.32
187.875	108.37
188.095	73.56
188.314	48.98
188.534	32.6
188.753	-18.6
188.973	120.66
189.192	55.12
189.412	30.55
189.631	1.88
189.851	8.02
190.07	71.51
190.29	-2.22
190.509	55.12
190.729	-0.17
190.948	91.99
191.168	157.52
191.387	100.18
191.607	-34.99
191.826	30.55
192.045	104.28
192.265	-12.46
192.484	36.69
192.704	75.6
192.923	-34.99
193.142	128.85
193.362	8.02
193.581	26.45
193.8	-2.22
194.02	77.65
194.239	61.27
194.458	73.56
194.678	1.88
194.897	16.21
195.116	59.22
195.335	75.6
195.555	81.75
195.774	46.93
195.993	46.93
196.212	38.74
196.432	71.51
196.651	87.89
196.87	71.51
197.089	89.94
197.308	94.04
197.528	96.08
197.747	71.51
197.966	-6.31
198.185	30.55
198.404	55.12
198.623	30.55
198.842	53.08
199.062	79.7
199.281	65.36
199.5	14.17
199.719	55.12
199.938	-12.46
200.157	30.55
200.376	104.28
200.595	46.93
200.814	51.03
201.033	38.74
201.252	171.86
201.471	-2.22
201.69	63.32
201.909	30.55
202.128	59.22
202.347	108.37
202.566	55.12
202.785	-47.27
203.004	-26.79
203.223	188.24
203.442	55.12
203.661	91.99
203.879	71.51
204.098	38.74
204.317	51.03
204.536	63.32
204.755	79.7
204.974	71.51
205.193	14.17
205.411	165.71
205.63	59.22
205.849	40.79
206.068	89.94
206.287	36.69
206.505	34.64
206.724	30.55
206.943	38.74
207.162	71.51
207.381	67.41
207.599	-2.22
207.818	36.69
208.037	22.36
208.255	55.12
208.474	83.8
208.693	79.7
208.911	55.12
209.13	26.45
209.349	83.8
209.567	116.56
209.786	46.93
210.005	16.21
210.223	73.56
210.442	-22.7
210.661	46.93
210.879	-10.41
211.098	102.23
211.316	57.17
211.535	79.7
211.753	38.74
211.972	48.98
212.191	-10.41
212.409	69.46
212.628	12.12
212.846	46.93
213.065	-8.36
213.283	145.24
213.502	46.93
213.72	57.17
213.938	34.64
214.157	55.12
214.375	98.13
214.594	-18.6
214.812	63.32
215.031	69.46
215.249	46.93
215.467	63.32
215.686	112.47
215.904	79.7
216.122	67.41
216.341	63.32
216.559	38.74
216.778	65.36
216.996	5.97
217.214	10.07
217.432	14.17
217.651	8.02
217.869	71.51
218.087	-4.27
218.306	-14.51
218.524	91.99
218.742	22.36
218.96	30.55
219.179	104.28
219.397	22.36
219.615	137.04
219.833	71.51
220.051	16.21
220.27	73.56
220.488	55.12
220.706	79.7
220.924	34.64
221.142	83.8
221.36	12.12
221.578	30.55
221.796	89.94
222.015	-10.41
222.233	8.02
222.451	141.14
222.669	20.31
222.887	24.4
223.105	46.93
223.323	48.98
223.541	-8.36
223.759	77.65
223.977	44.88
224.195	165.71
224.413	71.51
224.631	30.55
224.849	-10.41
225.067	85.84
225.285	91.99
225.503	-16.55
225.721	48.98
225.939	48.98
226.157	79.7
226.375	178
226.592	-2.22
226.81	-2.22
227.028	46.93
227.246	55.12
227.464	30.55
227.682	67.41
227.9	91.99
228.117	81.75
228.335	98.13
228.553	8.02
228.771	106.32
228.989	81.75
229.206	63.32
229.424	51.03
229.642	-14.51
229.86	87.89
230.077	46.93
230.295	8.02
230.513	83.8
230.731	14.17
230.948	120.66
231.166	71.51
231.384	38.74
231.601	40.79
231.819	145.24
232.037	71.51
232.254	-6.31
232.472	51.03
232.689	-18.6
232.907	94.04
233.125	65.36
233.342	-34.99
233.56	16.21
233.777	32.6
233.995	12.12
234.213	57.17
234.43	14.17
234.648	22.36
234.865	40.79
235.083	98.13
235.3	63.32
235.518	1.88
235.735	112.47
235.953	91.99
236.17	91.99
236.388	38.74
236.605	89.94
236.822	104.28
237.04	94.04
237.257	75.6
237.475	1.88
237.692	40.79
237.909	55.12
238.127	-32.94
238.344	59.22
238.562	38.74
238.779	16.21
238.996	16.21
239.214	30.55
239.431	79.7
239.648	87.89
239.865	26.45
240.083	16.21
240.3	67.41
240.517	79.7
240.735	14.17
240.952	124.76
241.169	34.64
241.386	51.03
241.603	5.97
241.821	22.36
242.038	16.21
242.255	139.09
242.472	-41.13
242.689	77.65
242.907	73.56
243.124	-2.22
243.341	116.56
243.558	22.36
243.775	-34.99
243.992	63.32
244.209	89.94
244.426	75.6
244.643	44.88
244.86	8.02
245.078	30.55
245.295	5.97
245.512	32.6
245.729	89.94
245.946	85.84
246.163	79.7
246.38	46.93
246.597	38.74
246.814	5.97
247.031	63.32
247.248	55.12
247.464	73.56
247.681	-41.13
247.898	1.88
248.115	14.17
248.332	-43.18
248.549	100.18
248.766	94.04
248.983	81.75
249.2	-0.17
249.417	-51.37
249.633	55.12
249.85	114.52
250.067	-51.37
250.284	96.08
250.501	67.41
250.717	100.18
250.934	42.84
251.151	48.98
251.368	104.28
251.585	30.55
251.801	-45.23
252.018	-39.08
252.235	30.55
252.451	22.36
252.668	-2.22
252.885	55.12
253.102	22.36
253.318	30.55
253.535	34.64
253.752	46.93
253.968	75.6
254.185	14.17
254.401	8.02
254.618	8.02
254.835	59.22
255.051	143.19
255.268	96.08
255.484	5.97
255.701	36.69
255.917	81.75
256.134	-0.17
256.351	91.99
256.567	-24.75
256.784	55.12
257	14.17
257.217	46.93
257.433	151.38
257.65	51.03
257.866	14.17
258.082	-6.31
258.299	38.74
258.515	63.32
258.732	53.08
258.948	55.12
259.165	-14.51
259.381	69.46
259.597	83.8
259.814	46.93
260.03	5.97
260.246	22.36
260.463	81.75
260.679	108.37
260.895	46.93
261.112	46.93
261.328	67.41
261.544	10.07
261.761	120.66
261.977	22.36
262.193	-18.6
262.409	112.47
262.626	48.98
262.842	63.32
263.058	-37.03
263.274	55.12
263.49	61.27
263.707	100.18
263.923	91.99
264.139	87.89
264.355	108.37
264.571	145.24
264.787	53.08
265.004	106.32
265.22	34.64
265.436	87.89
265.652	63.32
265.868	48.98
266.084	79.7
266.3	16.21
266.516	83.8
266.732	96.08
266.948	46.93
267.164	61.27
267.38	71.51
267.596	42.84
267.812	71.51
268.028	120.66
268.244	51.03
268.46	81.75
268.676	-12.46
268.892	57.17
269.108	30.55
269.324	63.32
269.54	26.45
269.756	73.56
269.972	14.17
270.188	87.89
270.403	38.74
270.619	46.93
270.835	65.36
271.051	51.03
271.267	46.93
271.483	65.36
271.698	87.89
271.914	73.56
272.13	100.18
272.346	5.97
272.562	40.79
272.777	145.24
272.993	-0.17
273.209	75.6
273.425	48.98
273.64	79.7
273.856	38.74
274.072	8.02
274.287	75.6
274.503	106.32
274.719	71.51
274.934	59.22
275.15	51.03
275.366	-45.23
275.581	30.55
275.797	71.51
276.012	55.12
276.228	53.08
276.444	24.4
276.659	51.03
276.875	61.27
277.09	104.28
277.306	14.17
277.521	57.17
277.737	10.07
277.952	79.7
278.168	59.22
278.383	87.89
278.599	61.27
278.814	114.52
279.03	79.7
279.245	87.89
279.461	16.21
279.676	67.41
279.892	-10.41
280.107	96.08
280.322	-8.36
280.538	102.23
280.753	75.6
280.969	145.24
281.184	73.56
281.399	91.99
281.615	137.04
281.83	14.17
282.045	-26.79
282.26	40.79
282.476	48.98
282.691	61.27
282.906	71.51
283.122	46.93
283.337	53.08
283.552	112.47
283.767	-24.75
283.983	98.13
284.198	40.79
284.413	48.98
284.628	57.17
284.843	48.98
285.058	106.32
285.274	38.74
285.489	63.32
285.704	59.22
285.919	-2.22
286.134	65.36
286.349	79.7
286.564	30.55
286.779	77.65
286.995	24.4
287.21	-43.18
287.425	71.51
287.64	32.6
287.855	55.12
288.07	24.4
288.285	122.71
288.5	16.21
288.715	137.04
288.93	63.32
289.145	104.28
289.36	63.32
289.575	75.6
289.79	69.46
290.004	32.6
290.219	26.45
290.434	81.75
290.649	63.32
290.864	30.55
291.079	-2.22
291.294	-53.42
291.509	22.36
291.724	48.98
291.938	1.88
292.153	46.93
292.368	30.55
292.583	128.85
292.798	124.76
293.012	57.17
293.227	61.27
293.442	104.28
293.657	122.71
293.871	114.52
294.086	34.64
294.301	122.71
294.516	30.55
294.73	73.56
294.945	22.36
295.16	44.88
295.374	59.22
295.589	85.84
295.804	38.74
296.018	16.21
296.233	100.18
296.447	112.47
296.662	-59.56
296.877	120.66
297.091	139.09
297.306	75.6
297.52	-12.46
297.735	75.6
297.949	30.55
298.164	71.51
298.378	46.93
298.593	-16.55
298.807	48.98
299.022	34.64
299.236	83.8
299.451	69.46
299.665	94.04
299.88	71.51
300.094	-10.41
300.309	69.46
300.523	63.32
300.737	73.56
300.952	91.99
301.166	32.6
301.381	22.36
301.595	98.13
301.809	42.84
302.024	55.12
302.238	-12.46
302.452	55.12
302.667	30.55
302.881	118.61
303.095	110.42
303.309	75.6
303.524	59.22
303.738	104.28
303.952	-0.17
304.166	40.79
304.381	87.89
304.595	24.4
304.809	14.17
305.023	26.45
305.237	55.12
305.452	55.12
305.666	51.03
305.88	112.47
306.094	63.32
306.308	112.47
306.522	83.8
306.736	40.79
306.95	112.47
307.164	32.6
307.379	38.74
307.593	175.95
307.807	71.51
308.021	128.85
308.235	87.89
308.449	22.36
308.663	30.55
308.877	120.66
309.091	20.31
309.305	87.89
309.519	-10.41
309.733	81.75
309.947	24.4
310.161	89.94
310.374	118.61
310.588	91.99
310.802	38.74
311.016	28.5
311.23	55.12
311.444	-2.22
311.658	24.4
311.872	141.14
312.085	38.74
312.299	83.8
312.513	178
312.727	24.4
312.941	8.02
313.154	71.51
313.368	83.8
313.582	69.46
313.796	34.64
314.009	55.12
314.223	91.99
314.437	100.18
314.651	83.8
314.864	10.07
315.078	-43.18
315.292	1.88
315.505	96.08
315.719	94.04
315.933	57.17
316.146	38.74
316.36	-26.79
316.573	48.98
316.787	73.56
317.001	59.22
317.214	57.17
317.428	48.98
317.641	63.32
317.855	-2.22
318.068	71.51
318.282	96.08
318.495	122.71
318.709	12.12
318.922	30.55
319.136	83.8
319.349	108.37
319.563	16.21
319.776	106.32
319.99	1.88
320.203	48.98
320.417	96.08
320.63	14.17
320.843	130.9
321.057	112.47
321.27	65.36
321.483	96.08
321.697	120.66
321.91	-6.31
322.124	151.38
322.337	-2.22
322.55	38.74
322.763	89.94
322.977	124.76
323.19	-14.51
323.403	3.93
323.617	75.6
323.83	61.27
324.043	38.74
324.256	42.84
324.469	57.17
324.683	100.18
324.896	1.88
325.109	73.56
325.322	-63.66
325.535	104.28
325.748	46.93
325.962	63.32
326.175	22.36
326.388	155.47
326.601	73.56
326.814	46.93
327.027	22.36
327.24	96.08
327.453	51.03
327.666	79.7
327.879	81.75
328.092	55.12
328.305	61.27
328.518	108.37
328.731	34.64
328.944	63.32
329.157	120.66
329.37	-24.75
329.583	96.08
329.796	89.94
330.009	69.46
330.222	26.45
330.435	55.12
330.648	98.13
330.861	30.55
331.073	104.28
331.286	147.28
331.499	55.12
331.712	22.36
331.925	30.55
332.138	71.51
332.35	100.18
332.563	67.41
332.776	71.51
332.989	26.45
333.202	87.89
333.414	22.36
333.627	63.32
333.84	106.32
334.053	28.5
334.265	65.36
334.478	53.08
334.691	5.97
334.903	116.56
335.116	100.18
335.329	110.42
335.541	16.21
335.754	89.94
335.966	10.07
336.179	-16.55
336.392	55.12
336.604	34.64
336.817	96.08
337.029	-10.41
337.242	108.37
337.454	96.08
337.667	30.55
337.88	91.99
338.092	122.71
338.305	112.47
338.517	18.26
338.729	155.47
338.942	106.32
339.154	75.6
339.367	-30.89
339.579	30.55
339.792	55.12
340.004	98.13
340.217	28.5
340.429	81.75
340.641	34.64
340.854	106.32
341.066	104.28
341.278	63.32
341.491	161.62
341.703	96.08
341.915	40.79
342.128	32.6
342.34	42.84
342.552	-10.41
342.764	81.75
342.977	100.18
343.189	100.18
343.401	79.7
343.613	40.79
343.826	-37.03
344.038	79.7
344.25	34.64
344.462	-2.22
344.674	122.71
344.886	53.08
345.099	96.08
345.311	48.98
345.523	18.26
345.735	42.84
345.947	139.09
346.159	69.46
346.371	-0.17
346.583	18.26
346.795	206.67
347.007	-26.79
347.219	128.85
347.431	51.03
347.643	106.32
347.855	42.84
348.067	106.32
348.279	59.22
348.491	55.12
348.703	51.03
348.915	100.18
349.127	53.08
349.339	63.32
349.551	5.97
349.763	79.7
349.975	1.88
350.187	67.41
350.399	104.28
350.61	46.93
350.822	-18.6
351.034	48.98
351.246	79.7
351.458	130.9
351.669	73.56
351.881	91.99
352.093	32.6
352.305	100.18
352.517	53.08
352.728	75.6
352.94	71.51
353.152	46.93
353.363	32.6
353.575	106.32
353.787	141.14
353.999	79.7
354.21	106.32
354.422	34.64
354.633	16.21
354.845	79.7
355.057	79.7
355.268	91.99
355.48	87.89
355.692	20.31
355.903	89.94
356.115	75.6
356.326	40.79
356.538	75.6
356.749	-10.41
356.961	96.08
357.172	18.26
357.384	79.7
357.595	110.42
357.807	55.12
358.018	-16.55
358.23	65.36
358.441	124.76
358.653	5.97
358.864	46.93
359.075	32.6
359.287	67.41
359.498	155.47
359.709	55.12
359.921	38.74
360.132	116.56
360.344	55.12
360.555	87.89
360.766	-2.22
360.977	96.08
361.189	73.56
361.4	71.51
361.611	34.64
361.823	94.04
362.034	87.89
362.245	63.32
362.456	63.32
362.667	112.47
362.879	48.98
363.09	147.28
363.301	77.65
363.512	73.56
363.723	-73.9
363.935	96.08
364.146	169.81
364.357	20.31
364.568	79.7
364.779	38.74
364.99	102.23
365.201	30.55
365.412	106.32
365.623	-16.55
365.834	96.08
366.045	46.93
366.256	55.12
366.467	128.85
366.678	83.8
366.889	-16.55
367.1	122.71
367.311	79.7
367.522	32.6
367.733	71.51
367.944	87.89
368.155	61.27
368.366	34.64
368.577	59.22
368.788	5.97
368.999	59.22
369.209	112.47
369.42	83.8
369.631	139.09
369.842	71.51
370.053	63.32
370.264	102.23
370.474	81.75
370.685	104.28
370.896	65.36
371.107	102.23
371.317	114.52
371.528	34.64
371.739	114.52
371.95	32.6
372.16	81.75
372.371	79.7
372.582	81.75
372.792	81.75
373.003	73.56
373.214	137.04
373.424	65.36
373.635	77.65
373.846	81.75
374.056	65.36
374.267	120.66
374.477	30.55
374.688	67.41
374.898	98.13
375.109	153.43
375.319	38.74
375.53	124.76
375.74	91.99
375.951	55.12
376.161	55.12
376.372	75.6
376.582	87.89
376.793	63.32
377.003	87.89
377.214	73.56
377.424	57.17
377.635	3.93
377.845	130.9
378.055	96.08
378.266	55.12
378.476	69.46
378.686	63.32
378.897	65.36
379.107	118.61
379.317	46.93
379.528	48.98
379.738	75.6
379.948	-4.27
380.158	57.17
380.369	79.7
380.579	202.58
380.789	63.32
380.999	55.12
381.21	130.9
381.42	178
381.63	40.79
381.84	128.85
382.05	59.22
382.261	167.76
382.471	59.22
382.681	106.32
382.891	157.52
383.101	91.99
383.311	-20.65
383.521	73.56
383.731	104.28
383.941	30.55
384.151	96.08
384.361	38.74
384.571	22.36
384.781	153.43
384.991	120.66
385.201	157.52
385.411	163.67
385.621	71.51
385.831	55.12
386.041	75.6
386.251	65.36
386.461	89.94
386.671	38.74
386.881	96.08
387.091	73.56
387.301	104.28
387.511	122.71
387.72	163.67
387.93	81.75
388.14	24.4
388.35	116.56
388.56	110.42
388.769	96.08
388.979	163.67
389.189	63.32
389.399	145.24
389.609	161.62
389.818	96.08
390.028	91.99
390.238	75.6
390.447	114.52
390.657	120.66
390.867	30.55
391.076	22.36
391.286	173.91
391.496	98.13
391.705	169.81
391.915	141.14
392.125	85.84
392.334	132.95
392.544	149.33
392.753	120.66
392.963	51.03
393.172	135
393.382	108.37
393.591	194.39
393.801	59.22
394.01	163.67
394.22	120.66
394.429	42.84
394.639	-10.41
394.848	42.84
395.058	108.37
395.267	137.04
395.477	128.85
395.686	59.22
395.895	231.25
396.105	237.39
396.314	186.19
396.524	63.32
396.733	116.56
396.942	130.9
397.152	143.19
397.361	153.43
397.57	112.47
397.78	208.72
397.989	180.05
398.198	196.43
398.407	139.09
398.617	118.61
398.826	112.47
399.035	102.23
399.244	186.19
399.453	186.19
399.663	73.56
399.872	100.18
400.081	153.43
400.29	139.09
400.499	137.04
400.708	221.01
400.917	155.47
401.127	120.66
401.336	137.04
401.545	153.43
401.754	108.37
401.963	153.43
402.172	182.1
402.381	100.18
402.59	171.86
402.799	145.24
403.008	157.52
403.217	153.43
403.426	155.47
403.635	108.37
403.844	280.4
404.053	161.62
404.262	155.47
404.471	253.78
404.68	210.77
404.888	175.95
405.097	194.39
405.306	239.44
405.515	235.35
405.724	266.07
405.933	292.69
406.142	300.88
406.35	245.59
406.559	245.59
406.768	290.64
406.977	294.74
407.185	311.12
407.394	319.31
407.603	280.4
407.812	384.85
408.02	270.16
408.229	268.11
408.438	350.03
408.646	407.38
408.855	393.04
409.064	399.18
409.272	366.42
409.481	448.33
409.69	415.57
409.898	489.29
410.107	460.62
410.315	474.96
410.524	415.57
410.733	477.01
410.941	429.9
411.15	464.72
411.358	497.49
411.567	532.3
411.775	575.31
411.984	626.51
412.192	632.65
412.401	610.12
412.609	655.18
412.818	706.38
413.026	687.95
413.234	714.57
413.443	798.54
413.651	800.59
413.86	800.59
414.068	902.98
414.276	905.03
414.485	792.39
414.693	862.02
414.901	972.61
415.11	933.7
415.318	1021.77
415.526	1003.33
415.734	974.66
415.943	1083.2
416.151	1165.12
416.359	1218.37
416.567	1140.55
416.776	1197.89
416.984	1333.06
417.192	1376.06
417.4	1367.87
417.608	1455.94
417.817	1541.95
418.025	1597.24
418.233	1632.06
418.441	1591.1
418.649	1668.92
418.857	1806.14
419.065	1873.72
419.273	1851.19
419.481	1943.35
419.689	2015.03
419.897	2068.28
420.105	2189.11
420.313	2211.64
420.521	2277.17
420.729	2348.85
420.937	2258.74
421.145	2340.66
421.353	2371.38
421.561	2686.76
421.769	2705.2
421.977	2889.51
422.185	2750.25
422.393	3036.97
422.601	3237.67
422.809	3088.17
423.017	3358.5
423.224	3209
423.432	3538.72
423.64	3540.77
423.848	3790.62
424.056	3587.87
424.263	4017.94
424.471	3923.74
424.679	4052.76
424.887	4261.65
425.094	4310.8
425.302	4456.21
425.51	4652.81
425.718	4593.42
425.925	4810.51
426.133	5089.03
426.341	5271.3
426.548	5609.22
426.756	5523.2
426.964	5713.66
427.171	5986.04
427.379	5820.16
427.586	6151.93
427.794	6274.81
428.001	6500.08
428.209	6686.45
428.417	6747.89
428.624	7329.51
428.832	7237.35
429.039	7120.62
429.247	7108.33
429.454	7980.76
429.662	8406.74
429.869	7948
430.076	8507.09
430.284	8089.31
430.491	8445.65
430.699	9094.86
430.906	9090.76
431.114	9041.61
431.321	9260.74
431.528	9674.43
431.736	10110.65
431.943	10763.95
432.15	10403.51
432.358	10526.39
432.565	11019.95
432.772	11081.39
432.979	11687.59
433.187	11613.86
433.394	11843.23
433.601	12412.57
433.808	12635.8
434.016	12457.62
434.223	12820.11
434.43	13827.71
434.637	13807.23
434.844	14399.1
435.052	14536.31
435.259	14800.5
435.466	14861.94
435.673	14704.24
435.88	15472.23
436.087	16320.09
436.294	16318.04
436.501	16025.18
436.708	16512.6
436.915	16991.83
437.122	17772.1
437.329	17806.92
437.537	18011.71
437.743	18310.72
437.95	18077.25
438.157	19201.58
438.364	19824.17
438.571	19727.91
438.778	19797.54
438.985	21691.91
439.192	20764.18
439.399	21620.24
439.606	21188.11
439.813	22394.37
440.02	23807.47
440.227	23248.37
440.433	23182.84
440.64	23510.51
440.847	23637.48
441.054	24227.3
441.261	25927.11
441.467	25306.58
441.674	25861.58
441.881	26852.8
442.088	26576.32
442.294	26207.69
442.501	27010.49
442.708	27549.1
442.914	28700.06
443.121	29828.49
443.328	28822.94
443.534	31327.61
443.741	30279.05
443.948	29789.58
444.154	32146.79
444.361	31939.95
444.568	31790.45
444.774	31743.34
444.981	32372.07
445.187	33080.67
445.394	35056.96
445.6	33951.06
445.807	37446.94
446.013	35616.05
446.22	36635.94
446.426	37952.79
446.633	38137.1
446.839	39875.83
447.046	37872.92
447.252	39781.62
447.459	40303.85
447.665	39707.9
447.871	41362.65
448.078	43306.18
448.284	41364.7
448.491	42513.61
448.697	44027.06
448.903	44752.04
449.11	44577.97
449.316	44385.46
449.522	45112.48
449.728	46279.83
449.935	46470.29
450.141	46662.8
450.347	47213.7
450.553	45673.63
450.76	46687.37
450.966	47848.57
451.172	47406.21
451.378	48876.65
451.584	47645.82
451.791	48710.77
451.997	48499.83
452.203	49491.04
452.409	49572.96
452.615	49372.26
452.821	46918.79
453.027	47340.67
453.233	49409.12
453.44	46988.42
453.646	47787.13
453.852	48024.7
454.058	49101.93
454.264	47524.99
454.47	48829.55
454.676	47510.66
454.882	49028.2
455.088	45169.83
455.294	45585.57
455.5	46163.09
455.705	46417.04
455.911	44352.69
456.117	43885.75
456.323	43564.22
456.529	41282.78
456.735	43164.87
456.941	41958.61
457.147	40926.44
457.352	40000.75
457.558	39595.26
457.764	39697.66
457.97	39054.59
458.176	37680.41
458.381	37704.98
458.587	36193.58
458.793	36291.88
458.999	34518.34
459.204	36662.57
459.41	35900.72
459.616	33490.26
459.821	33760.59
460.027	33545.56
460.233	32374.12
460.438	31118.71
460.644	31655.28
460.85	29945.23
461.055	29068.7
461.261	29414.8
461.466	27043.26
461.672	26148.29
461.878	28370.34
462.083	26320.32
462.289	26088.9
462.494	25734.6
462.7	24649.18
462.905	24053.22
463.111	24630.75
463.316	24729.05
463.522	24090.09
463.727	24239.59
463.932	23985.64
464.138	23653.87
464.343	23748.07
464.549	23160.31
464.754	23850.47
464.959	23803.37
465.165	23750.12
465.37	22420.99
465.575	22228.48
465.781	22709.75
465.986	22699.51
466.191	21976.58
