Data from USB4F104151__236__14-34-05-812.txt Node

Date: Thu Mar 13 14:34:05 EDT 2025
User: louis
Spectrometer: USB4F10415
Trigger mode: 4
Integration Time (sec): 2.500000E-2
Scans to average: 1
Electric dark correction enabled: true
Nonlinearity correction enabled: false
Boxcar width: 0
XAxis mode: Wavelengths
Number of Pixels in Spectrum: 3648
>>>>>Begin Spectral Data<<<<<
178.204	-117.59
178.424	-117.59
178.644	-117.59
178.864	-82.77
179.084	-144.21
179.304	-21.33
179.524	95.4
179.744	-82.77
179.964	-17.24
180.184	-33.62
180.404	62.63
180.624	13.48
180.844	5.29
181.064	-0.85
181.283	29.87
181.503	-17.24
181.723	-33.62
181.943	-50
182.163	117.93
182.383	36.01
182.602	85.16
182.822	81.07
183.042	13.48
183.262	36.01
183.482	72.87
183.701	21.67
183.921	-35.67
184.141	1.19
184.361	40.11
184.58	79.02
184.8	64.68
185.02	58.54
185.239	85.16
185.459	13.48
185.679	62.63
185.898	-52.05
186.118	81.07
186.338	25.77
186.557	64.68
186.777	85.16
186.997	101.55
187.216	72.87
187.436	-2.9
187.655	81.07
187.875	99.5
188.095	-21.33
188.314	126.12
188.534	97.45
188.753	-9.05
188.973	38.06
189.192	13.48
189.412	52.39
189.631	23.72
189.851	29.87
190.07	93.35
190.29	-13.14
190.509	36.01
190.729	3.24
190.948	70.83
191.168	144.55
191.387	105.64
191.607	-58.2
191.826	70.83
192.045	52.39
192.265	-13.14
192.484	-43.86
192.704	-45.91
192.923	13.48
193.142	81.07
193.362	-11.09
193.581	15.53
193.8	58.54
194.02	124.07
194.239	33.96
194.458	150.7
194.678	1.19
194.897	27.82
195.116	44.2
195.335	76.97
195.555	-11.09
195.774	3.24
195.993	25.77
196.212	11.43
196.432	-37.72
196.651	-7
196.87	-25.43
197.089	64.68
197.308	36.01
197.528	70.83
197.747	-37.72
197.966	21.67
198.185	93.35
198.404	60.59
198.623	-13.14
198.842	44.2
199.062	85.16
199.281	109.74
199.5	15.53
199.719	60.59
199.938	126.12
200.157	36.01
200.376	105.64
200.595	56.49
200.814	48.3
201.033	79.02
201.252	54.44
201.471	40.11
201.69	142.5
201.909	-23.38
202.128	-4.95
202.347	103.59
202.566	56.49
202.785	-37.72
203.004	-23.38
203.223	132.26
203.442	-15.19
203.661	-2.9
203.879	23.72
204.098	46.25
204.317	79.02
204.536	76.97
204.755	83.11
204.974	13.48
205.193	17.58
205.411	76.97
205.63	60.59
205.849	85.16
206.068	-13.14
206.287	19.63
206.505	152.74
206.724	95.4
206.943	40.11
207.162	48.3
207.381	29.87
207.599	36.01
207.818	44.2
208.037	85.16
208.255	17.58
208.474	44.2
208.693	27.82
208.911	11.43
209.13	74.92
209.349	76.97
209.567	7.34
209.786	128.17
210.005	-7
210.223	68.78
210.442	54.44
210.661	29.87
210.879	21.67
211.098	-4.95
211.316	79.02
211.535	3.24
211.753	68.78
211.972	81.07
212.191	64.68
212.409	31.91
212.628	31.91
212.846	44.2
213.065	109.74
213.283	52.39
213.502	-23.38
213.72	117.93
213.938	117.93
214.157	-66.39
214.375	-45.91
214.594	-35.67
214.812	-2.9
215.031	3.24
215.249	3.24
215.467	-9.05
215.686	-54.1
215.904	44.2
216.122	48.3
216.341	91.31
216.559	38.06
216.778	27.82
216.996	103.59
217.214	-11.09
217.432	48.3
217.651	50.35
217.869	38.06
218.087	13.48
218.306	15.53
218.524	74.92
218.742	42.15
218.96	134.31
219.179	21.67
219.397	70.83
219.615	150.7
219.833	15.53
220.051	-60.24
220.27	85.16
220.488	11.43
220.706	-2.9
220.924	-23.38
221.142	-52.05
221.36	31.91
221.578	31.91
221.796	-21.33
222.015	-58.2
222.233	21.67
222.451	81.07
222.669	-43.86
222.887	70.83
223.105	3.24
223.323	42.15
223.541	33.96
223.759	29.87
223.977	105.64
224.195	138.41
224.413	52.39
224.631	27.82
224.849	85.16
225.067	130.22
225.285	-11.09
225.503	-13.14
225.721	-25.43
225.939	52.39
226.157	19.63
226.375	152.74
226.592	3.24
226.81	36.01
227.028	44.2
227.246	113.83
227.464	-4.95
227.682	44.2
227.9	52.39
228.117	21.67
228.335	72.87
228.553	105.64
228.771	60.59
228.989	46.25
229.206	13.48
229.424	11.43
229.642	13.48
229.86	70.83
230.077	144.55
230.295	68.78
230.513	70.83
230.731	48.3
230.948	76.97
231.166	44.2
231.384	76.97
231.601	27.82
231.819	79.02
232.037	-15.19
232.254	-4.95
232.472	46.25
232.689	97.45
232.907	76.97
233.125	70.83
233.342	27.82
233.56	3.24
233.777	76.97
233.995	68.78
234.213	87.21
234.43	46.25
234.648	97.45
234.865	85.16
235.083	62.63
235.3	46.25
235.518	19.63
235.735	52.39
235.953	79.02
236.17	5.29
236.388	11.43
236.605	27.82
236.822	60.59
237.04	85.16
237.257	79.02
237.475	-4.95
237.692	76.97
237.909	3.24
238.127	19.63
238.344	99.5
238.562	-11.09
238.779	-2.9
238.996	36.01
239.214	36.01
239.431	11.43
239.648	25.77
239.865	44.2
240.083	52.39
240.3	5.29
240.517	44.2
240.735	62.63
240.952	44.2
241.169	109.74
241.386	40.11
241.603	117.93
241.821	42.15
242.038	76.97
242.255	23.72
242.472	-11.09
242.689	62.63
242.907	93.35
243.124	5.29
243.341	3.24
243.558	-27.48
243.775	54.44
243.992	21.67
244.209	93.35
244.426	38.06
244.643	68.78
244.86	19.63
245.078	38.06
245.295	44.2
245.512	-86.87
245.729	122.02
245.946	87.21
246.163	-9.05
246.38	54.44
246.597	85.16
246.814	-4.95
247.031	126.12
247.248	46.25
247.464	5.29
247.681	-21.33
247.898	109.74
248.115	52.39
248.332	3.24
248.549	103.59
248.766	21.67
248.983	60.59
249.2	101.55
249.417	89.26
249.633	-4.95
249.85	56.49
250.067	93.35
250.284	-7
250.501	76.97
250.717	68.78
250.934	-31.57
251.151	-43.86
251.368	31.91
251.585	44.2
251.801	-21.33
252.018	15.53
252.235	83.11
252.451	27.82
252.668	15.53
252.885	89.26
253.102	15.53
253.318	5.29
253.535	29.87
253.752	-45.91
253.968	52.39
254.185	27.82
254.401	52.39
254.618	19.63
254.835	-29.52
255.051	134.31
255.268	21.67
255.484	44.2
255.701	46.25
255.917	158.89
256.134	29.87
256.351	60.59
256.567	36.01
256.784	11.43
257	-4.95
257.217	76.97
257.433	85.16
257.65	93.35
257.866	76.97
258.082	101.55
258.299	-21.33
258.515	-2.9
258.732	29.87
258.948	48.3
259.165	85.16
259.381	23.72
259.597	36.01
259.814	29.87
260.03	7.34
260.246	-7
260.463	29.87
260.679	103.59
260.895	117.93
261.112	50.35
261.328	-13.14
261.544	1.19
261.761	48.3
261.977	27.82
262.193	-2.9
262.409	52.39
262.626	44.2
262.842	13.48
263.058	-17.24
263.274	70.83
263.49	70.83
263.707	79.02
263.923	101.55
264.139	40.11
264.355	60.59
264.571	126.12
264.787	-13.14
265.004	52.39
265.22	21.67
265.436	36.01
265.652	72.87
265.868	40.11
266.084	68.78
266.3	105.64
266.516	68.78
266.732	60.59
266.948	68.78
267.164	101.55
267.38	25.77
267.596	54.44
267.812	152.74
268.028	1.19
268.244	91.31
268.46	56.49
268.676	115.88
268.892	44.2
269.108	27.82
269.324	11.43
269.54	11.43
269.756	76.97
269.972	3.24
270.188	83.11
270.403	9.39
270.619	111.78
270.835	46.25
271.051	48.3
271.267	97.45
271.483	60.59
271.698	13.48
271.914	101.55
272.13	-17.24
272.346	19.63
272.562	72.87
272.777	48.3
272.993	11.43
273.209	13.48
273.425	76.97
273.64	36.01
273.856	29.87
274.072	27.82
274.287	-2.9
274.503	19.63
274.719	9.39
274.934	23.72
275.15	72.87
275.366	95.4
275.581	11.43
275.797	11.43
276.012	64.68
276.228	58.54
276.444	15.53
276.659	44.2
276.875	11.43
277.09	64.68
277.306	60.59
277.521	48.3
277.737	31.91
277.952	27.82
278.168	105.64
278.383	31.91
278.599	101.55
278.814	68.78
279.03	40.11
279.245	60.59
279.461	44.2
279.676	119.98
279.892	60.59
280.107	23.72
280.322	19.63
280.538	52.39
280.753	29.87
280.969	70.83
281.184	68.78
281.399	122.02
281.615	-17.24
281.83	19.63
282.045	46.25
282.26	-41.81
282.476	27.82
282.691	56.49
282.906	7.34
283.122	62.63
283.337	9.39
283.552	79.02
283.767	21.67
283.983	36.01
284.198	31.91
284.413	85.16
284.628	-27.48
284.843	70.83
285.058	68.78
285.274	70.83
285.489	105.64
285.704	64.68
285.919	7.34
286.134	87.21
286.349	119.98
286.564	36.01
286.779	74.92
286.995	-17.24
287.21	-17.24
287.425	76.97
287.64	9.39
287.855	46.25
288.07	-21.33
288.285	122.02
288.5	79.02
288.715	68.78
288.93	17.58
289.145	38.06
289.36	60.59
289.575	31.91
289.79	40.11
290.004	64.68
290.219	29.87
290.434	-11.09
290.649	-15.19
290.864	36.01
291.079	72.87
291.294	54.44
291.509	11.43
291.724	-29.52
291.938	-0.85
292.153	70.83
292.368	62.63
292.583	-21.33
292.798	85.16
293.012	99.5
293.227	85.16
293.442	76.97
293.657	48.3
293.871	97.45
294.086	11.43
294.301	117.93
294.516	29.87
294.73	29.87
294.945	-29.52
295.16	38.06
295.374	62.63
295.589	85.16
295.804	40.11
296.018	64.68
296.233	44.2
296.447	36.01
296.662	19.63
296.877	128.17
297.091	48.3
297.306	3.24
297.52	-56.15
297.735	27.82
297.949	62.63
298.164	48.3
298.378	54.44
298.593	21.67
298.807	-2.9
299.022	36.01
299.236	7.34
299.451	85.16
299.665	17.58
299.88	103.59
300.094	23.72
300.309	15.53
300.523	64.68
300.737	19.63
300.952	64.68
301.166	31.91
301.381	27.82
301.595	36.01
301.809	-4.95
302.024	23.72
302.238	85.16
302.452	54.44
302.667	56.49
302.881	79.02
303.095	52.39
303.309	58.54
303.524	-41.81
303.738	50.35
303.952	21.67
304.166	101.55
304.381	-35.67
304.595	89.26
304.809	46.25
305.023	38.06
305.237	-13.14
305.452	38.06
305.666	19.63
305.88	46.25
306.094	70.83
306.308	21.67
306.522	76.97
306.736	-0.85
306.95	36.01
307.164	76.97
307.379	3.24
307.593	111.78
307.807	68.78
308.021	7.34
308.235	136.36
308.449	-11.09
308.663	23.72
308.877	165.03
309.091	29.87
309.305	5.29
309.519	44.2
309.733	68.78
309.947	38.06
310.161	3.24
310.374	36.01
310.588	150.7
310.802	-4.95
311.016	-0.85
311.23	52.39
311.444	52.39
311.658	40.11
311.872	89.26
312.085	36.01
312.299	111.78
312.513	103.59
312.727	91.31
312.941	70.83
313.154	60.59
313.368	93.35
313.582	-19.29
313.796	130.22
314.009	31.91
314.223	40.11
314.437	50.35
314.651	23.72
314.864	70.83
315.078	19.63
315.292	44.2
315.505	60.59
315.719	56.49
315.933	23.72
316.146	-25.43
316.36	60.59
316.573	160.94
316.787	81.07
317.001	36.01
317.214	11.43
317.428	17.58
317.641	11.43
317.855	19.63
318.068	76.97
318.282	134.31
318.495	109.74
318.709	91.31
318.922	68.78
319.136	124.07
319.349	48.3
319.563	27.82
319.776	64.68
319.99	31.91
320.203	167.08
320.417	33.96
320.63	48.3
320.843	101.55
321.057	66.73
321.27	-37.72
321.483	79.02
321.697	119.98
321.91	56.49
322.124	48.3
322.337	165.03
322.55	81.07
322.763	50.35
322.977	31.91
323.19	62.63
323.403	29.87
323.617	38.06
323.83	81.07
324.043	107.69
324.256	62.63
324.469	15.53
324.683	122.02
324.896	70.83
325.109	101.55
325.322	19.63
325.535	25.77
325.748	60.59
325.962	50.35
326.175	85.16
326.388	44.2
326.601	109.74
326.814	44.2
327.027	76.97
327.24	142.5
327.453	11.43
327.666	29.87
327.879	68.78
328.092	79.02
328.305	81.07
328.518	44.2
328.731	29.87
328.944	126.12
329.157	-9.05
329.37	89.26
329.583	97.45
329.796	107.69
330.009	9.39
330.222	79.02
330.435	126.12
330.648	7.34
330.861	29.87
331.073	23.72
331.286	93.35
331.499	99.5
331.712	27.82
331.925	36.01
332.138	52.39
332.35	85.16
332.563	36.01
332.776	40.11
332.989	40.11
333.202	52.39
333.414	21.67
333.627	109.74
333.84	25.77
334.053	-15.19
334.265	31.91
334.478	36.01
334.691	19.63
334.903	93.35
335.116	31.91
335.329	27.82
335.541	52.39
335.754	142.5
335.966	9.39
336.179	85.16
336.392	3.24
336.604	23.72
336.817	101.55
337.029	46.25
337.242	113.83
337.454	126.12
337.667	72.87
337.88	126.12
338.092	36.01
338.305	64.68
338.517	54.44
338.729	13.48
338.942	66.73
339.154	85.16
339.367	-9.05
339.579	103.59
339.792	15.53
340.004	21.67
340.217	50.35
340.429	74.92
340.641	97.45
340.854	52.39
341.066	-11.09
341.278	70.83
341.491	36.01
341.703	68.78
341.915	11.43
342.128	52.39
342.34	19.63
342.552	19.63
342.764	87.21
342.977	52.39
343.189	52.39
343.401	62.63
343.613	93.35
343.826	85.16
344.038	36.01
344.25	68.78
344.462	11.43
344.674	52.39
344.886	93.35
345.099	64.68
345.311	46.25
345.523	97.45
345.735	25.77
345.947	60.59
346.159	-7
346.371	85.16
346.583	23.72
346.795	134.31
347.007	40.11
347.219	158.89
347.431	-2.9
347.643	126.12
347.855	60.59
348.067	89.26
348.279	36.01
348.491	85.16
348.703	93.35
348.915	72.87
349.127	36.01
349.339	23.72
349.551	72.87
349.763	68.78
349.975	25.77
350.187	93.35
350.399	44.2
350.61	52.39
350.822	40.11
351.034	38.06
351.246	52.39
351.458	23.72
351.669	52.39
351.881	76.97
352.093	74.92
352.305	68.78
352.517	142.5
352.728	126.12
352.94	56.49
353.152	5.29
353.363	-35.67
353.575	119.98
353.787	58.54
353.999	111.78
354.21	128.17
354.422	-0.85
354.633	52.39
354.845	111.78
355.057	3.24
355.268	56.49
355.48	46.25
355.692	85.16
355.903	76.97
356.115	64.68
356.326	23.72
356.538	177.32
356.749	111.78
356.961	197.8
357.172	52.39
357.384	7.34
357.595	72.87
357.807	87.21
358.018	60.59
358.23	27.82
358.441	79.02
358.653	107.69
358.864	64.68
359.075	52.39
359.287	60.59
359.498	83.11
359.709	105.64
359.921	-13.14
360.132	68.78
360.344	21.67
360.555	15.53
360.766	95.4
360.977	36.01
361.189	126.12
361.4	72.87
361.611	105.64
361.823	95.4
362.034	68.78
362.245	76.97
362.456	44.2
362.667	85.16
362.879	7.34
363.09	89.26
363.301	117.93
363.512	31.91
363.723	36.01
363.935	70.83
364.146	33.96
364.357	76.97
364.568	52.39
364.779	19.63
364.99	144.55
365.201	68.78
365.412	154.79
365.623	-54.1
365.834	52.39
366.045	95.4
366.256	130.22
366.467	79.02
366.678	130.22
366.889	62.63
367.1	52.39
367.311	21.67
367.522	25.77
367.733	-21.33
367.944	11.43
368.155	122.02
368.366	91.31
368.577	76.97
368.788	119.98
368.999	62.63
369.209	-17.24
369.42	62.63
369.631	152.74
369.842	11.43
370.053	68.78
370.264	117.93
370.474	15.53
370.685	19.63
370.896	68.78
371.107	83.11
371.317	162.98
371.528	87.21
371.739	48.3
371.95	70.83
372.16	117.93
372.371	19.63
372.582	136.36
372.792	62.63
373.003	3.24
373.214	60.59
373.424	101.55
373.635	93.35
373.846	132.26
374.056	105.64
374.267	79.02
374.477	3.24
374.688	83.11
374.898	9.39
375.109	79.02
375.319	93.35
375.53	140.46
375.74	54.44
375.951	105.64
376.161	111.78
376.372	48.3
376.582	70.83
376.793	60.59
377.003	36.01
377.214	97.45
377.424	54.44
377.635	111.78
377.845	54.44
378.055	126.12
378.266	7.34
378.476	101.55
378.686	3.24
378.897	101.55
379.107	128.17
379.317	76.97
379.528	68.78
379.738	130.22
379.948	93.35
380.158	68.78
380.369	58.54
380.579	27.82
380.789	117.93
380.999	134.31
381.21	93.35
381.42	81.07
381.63	36.01
381.84	81.07
382.05	60.59
382.261	42.15
382.471	119.98
382.681	-0.85
382.891	89.26
383.101	31.91
383.311	66.73
383.521	85.16
383.731	31.91
383.941	87.21
384.151	122.02
384.361	31.91
384.571	113.83
384.781	83.11
384.991	185.51
385.201	191.66
385.411	107.69
385.621	97.45
385.831	48.3
386.041	76.97
386.251	-13.14
386.461	48.3
386.671	113.83
386.881	122.02
387.091	68.78
387.301	52.39
387.511	29.87
387.72	101.55
387.93	117.93
388.14	79.02
388.35	9.39
388.56	158.89
388.769	126.12
388.979	21.67
389.189	85.16
389.399	144.55
389.609	87.21
389.818	50.35
390.028	119.98
390.238	132.26
390.447	85.16
390.657	107.69
390.867	87.21
391.076	101.55
391.286	205.99
391.496	52.39
391.705	87.21
391.915	107.69
392.125	117.93
392.334	79.02
392.544	134.31
392.753	62.63
392.963	85.16
393.172	117.93
393.382	89.26
393.591	117.93
393.801	109.74
394.01	85.16
394.22	183.46
394.429	68.78
394.639	136.36
394.848	195.75
395.058	87.21
395.267	64.68
395.477	97.45
395.686	109.74
395.895	208.04
396.105	232.62
396.314	115.88
396.524	169.13
396.733	95.4
396.942	199.85
397.152	113.83
397.361	183.46
397.57	40.11
397.78	60.59
397.989	154.79
398.198	175.27
398.407	148.65
398.617	183.46
398.826	167.08
399.035	119.98
399.244	126.12
399.453	117.93
399.663	216.23
399.872	187.56
400.081	91.31
400.29	208.04
400.499	87.21
400.708	251.05
400.917	136.36
401.127	177.32
401.336	146.6
401.545	167.08
401.754	185.51
401.963	162.98
402.172	128.17
402.381	214.18
402.59	199.85
402.799	162.98
403.008	162.98
403.217	199.85
403.426	134.31
403.635	95.4
403.844	162.98
404.053	218.28
404.262	154.79
404.471	226.47
404.68	216.23
404.888	275.62
405.097	195.75
405.306	224.42
405.515	171.18
405.724	199.85
405.933	177.32
406.142	281.77
406.35	253.09
406.559	240.81
406.768	244.9
406.977	339.11
407.185	335.01
407.394	285.86
407.603	326.82
407.812	314.53
408.02	355.49
408.229	300.2
408.438	337.06
408.646	298.15
408.855	347.3
409.064	421.03
409.272	421.03
409.481	414.88
409.69	359.59
409.898	375.97
410.107	490.66
410.315	486.56
410.524	453.8
410.733	498.85
410.941	470.18
411.15	521.38
411.358	543.91
411.567	652.45
411.775	726.18
411.984	636.06
412.192	625.83
412.401	660.64
412.609	711.84
412.818	677.02
413.026	818.33
413.234	816.29
413.443	783.52
413.651	791.71
413.86	818.33
414.068	914.59
414.276	959.64
414.485	976.03
414.693	1027.23
414.901	1037.47
415.11	1070.23
415.318	1043.61
415.526	1137.82
415.734	1158.3
415.943	1266.84
416.151	1227.93
416.359	1219.74
416.567	1299.61
416.776	1365.14
416.984	1387.67
417.192	1438.87
417.4	1389.72
417.608	1461.4
417.817	1565.84
418.025	1707.15
418.233	1739.92
418.441	1715.34
418.649	1809.55
418.857	1938.57
419.065	1993.87
419.273	1944.72
419.481	2002.06
419.689	2227.34
419.897	2284.68
420.105	2227.34
420.313	2413.7
420.521	2358.41
420.729	2444.42
420.937	2641.03
421.145	2645.12
421.353	2782.34
421.561	2950.27
421.769	2892.93
421.977	3193.98
422.185	2931.84
422.393	3290.23
422.601	3581.04
422.809	3394.68
423.017	3652.72
423.224	3566.71
423.432	3679.35
423.64	3828.85
423.848	4000.88
424.056	3921.01
424.263	4160.62
424.471	4316.26
424.679	4367.46
424.887	4600.93
425.094	4740.19
425.302	4721.76
425.51	4971.61
425.718	5049.44
425.925	5389.4
426.133	5293.15
426.341	5700.69
426.548	5942.35
426.756	5778.51
426.964	6091.85
427.171	6302.79
427.379	6515.78
427.586	6646.85
427.794	6888.51
428.001	7054.4
428.209	7375.93
428.417	7394.36
428.624	7756.85
428.832	7803.96
429.039	7746.61
429.247	7834.68
429.454	8442.92
429.662	9063.46
429.869	8479.79
430.076	9149.47
430.284	8916
430.491	9227.29
430.699	9952.27
430.906	9833.49
431.114	9882.64
431.321	10406.92
431.528	10488.84
431.736	11025.41
431.943	11504.64
432.15	11217.92
432.358	11232.26
432.565	11981.81
432.772	11877.37
432.979	12461.04
433.187	12680.17
433.394	12909.54
433.601	13743.06
433.808	13599.71
434.016	13673.43
434.223	14066.64
434.43	14826.44
434.637	14857.16
434.844	15576
435.052	16016.31
435.259	15877.05
435.466	15954.87
435.673	15692.73
435.88	16962.47
436.087	17865.63
436.294	17515.42
436.501	17468.32
436.708	17662.88
436.915	18066.33
437.122	18992.01
437.329	19139.46
437.537	19716.99
437.743	19893.12
437.95	19786.62
438.157	20931.44
438.364	21441.38
438.571	21689.18
438.778	21621.6
438.985	23235.4
439.192	22313.81
439.399	23055.18
439.606	23006.03
439.813	23962.43
440.02	25627.43
440.227	24892.21
440.433	24783.66
440.64	25391.91
440.847	25361.19
441.054	25852.7
441.261	27935.49
441.467	27255.56
441.674	27693.83
441.881	28855.03
442.088	28582.65
442.294	28566.26
442.501	29262.57
442.708	29928.16
442.914	31326.92
443.121	32252.61
443.328	31443.66
443.534	33594.03
443.741	32981.68
443.948	32012.99
444.154	34572.96
444.361	34327.2
444.568	34871.96
444.774	34134.69
444.981	34693.79
445.187	35668.62
445.394	37821.03
445.6	37180.02
445.807	40489.54
446.013	38779.48
446.22	39293.52
446.426	40849.98
446.633	40997.43
446.839	42521.12
447.046	40725.05
447.252	42945.05
447.459	43149.85
447.665	42869.28
447.871	44995.07
448.078	46432.74
448.284	44296.71
448.491	45933.04
448.697	47499.73
448.903	48710.08
449.11	48366.02
449.316	47571.41
449.522	48828.87
449.728	49672.63
449.935	49951.15
450.141	50225.58
450.347	51022.24
450.553	49375.67
450.76	49793.46
450.966	51675.54
451.172	51534.23
451.378	52396.43
451.584	51276.19
451.791	52525.45
451.997	52390.28
452.203	53320.06
452.409	53496.19
452.615	52740.49
452.821	51241.37
453.027	50147.76
453.233	53072.26
453.44	51157.41
453.646	51534.23
453.852	51925.39
454.058	52513.16
454.264	51069.34
454.47	52216.21
454.676	50885.03
454.882	53051.78
455.088	48470.47
455.294	48947.65
455.5	49742.26
455.705	50223.53
455.911	48277.96
456.117	47329.75
456.323	46981.6
456.529	44012.04
456.735	46567.91
456.941	44866.05
457.147	44139.02
457.352	42639.9
457.558	42670.62
457.764	42701.34
457.97	42015.27
458.176	41124.41
458.381	40723.01
458.587	38918.74
458.793	38601.31
458.999	37237.36
459.204	39414.35
459.41	38513.25
459.616	36063.88
459.821	36110.98
460.027	36012.68
460.233	34841.24
460.438	33358.51
460.644	33530.54
460.85	31994.56
461.055	31787.72
461.261	31750.85
461.466	29235.95
461.672	28515.06
461.878	30464.73
462.083	28351.23
462.289	27915.01
462.494	27427.59
462.7	26376.98
462.905	25590.56
463.111	26655.51
463.316	26665.75
463.522	26059.55
463.727	26239.77
463.932	25801.5
464.138	25957.15
464.343	26139.42
464.549	25309.99
464.754	26131.23
464.959	25494.31
465.165	25445.16
465.37	24130.36
465.575	23542.6
465.781	24664.88
465.986	24697.65
