Data from USB4F104151__215__14-33-48-491.txt Node

Date: Thu Mar 13 14:33:48 EDT 2025
User: louis
Spectrometer: USB4F10415
Trigger mode: 4
Integration Time (sec): 2.500000E-2
Scans to average: 1
Electric dark correction enabled: true
Nonlinearity correction enabled: false
Boxcar width: 0
XAxis mode: Wavelengths
Number of Pixels in Spectrum: 3648
>>>>>Begin Spectral Data<<<<<
178.204	-241.66
178.424	-241.66
178.644	-241.66
178.864	-126.97
179.084	-149.5
179.304	-32.77
179.524	-20.48
179.744	14.34
179.964	53.25
180.184	-90.11
180.404	8.19
180.624	-4.1
180.844	47.1
181.064	0
181.283	20.48
181.503	-28.67
181.723	32.77
181.943	-75.77
182.163	86.01
182.383	12.29
182.602	55.3
182.822	-8.19
183.042	4.1
183.262	-12.29
183.482	53.25
183.701	-16.38
183.921	-8.19
184.141	-20.48
184.361	63.49
184.58	53.25
184.8	28.67
185.02	12.29
185.239	77.82
185.459	10.24
185.679	22.53
185.898	-53.25
186.118	69.63
186.338	-30.72
186.557	77.82
186.777	2.05
186.997	-22.53
187.216	61.44
187.436	61.44
187.655	8.19
187.875	-8.19
188.095	10.24
188.314	30.72
188.534	71.68
188.753	69.63
188.973	22.53
189.192	122.88
189.412	22.53
189.631	-4.1
189.851	-38.91
190.07	120.83
190.29	12.29
190.509	-4.1
190.729	12.29
190.948	-28.67
191.168	182.27
191.387	36.86
191.607	20.48
191.826	49.15
192.045	32.77
192.265	65.53
192.484	-18.43
192.704	53.25
192.923	20.48
193.142	88.06
193.362	-12.29
193.581	98.3
193.8	12.29
194.02	26.62
194.239	-34.82
194.458	65.53
194.678	14.34
194.897	-12.29
195.116	61.44
195.335	-10.24
195.555	45.06
195.774	98.3
195.993	49.15
196.212	-2.05
196.432	-4.1
196.651	53.25
196.87	-2.05
197.089	106.49
197.308	4.1
197.528	-18.43
197.747	-8.19
197.966	45.06
198.185	96.25
198.404	6.14
198.623	45.06
198.842	20.48
199.062	40.96
199.281	-28.67
199.5	24.58
199.719	4.1
199.938	86.01
200.157	81.92
200.376	94.21
200.595	69.63
200.814	20.48
201.033	69.63
201.252	-34.82
201.471	-20.48
201.69	88.06
201.909	-18.43
202.128	45.06
202.347	20.48
202.566	-20.48
202.785	-2.05
203.004	-34.82
203.223	219.13
203.442	-26.62
203.661	-12.29
203.879	14.34
204.098	55.3
204.317	16.38
204.536	20.48
204.755	28.67
204.974	-2.05
205.193	22.53
205.411	63.49
205.63	36.86
205.849	-2.05
206.068	79.87
206.287	-28.67
206.505	61.44
206.724	53.25
206.943	16.38
207.162	-16.38
207.381	-12.29
207.599	38.91
207.818	-34.82
208.037	-28.67
208.255	26.62
208.474	-34.82
208.693	34.82
208.911	20.48
209.13	0
209.349	36.86
209.567	131.07
209.786	71.68
210.005	69.63
210.223	73.73
210.442	4.1
210.661	-12.29
210.879	-38.91
211.098	-4.1
211.316	-24.58
211.535	32.77
211.753	-4.1
211.972	61.44
212.191	14.34
212.409	-59.39
212.628	-34.82
212.846	12.29
213.065	96.25
213.283	71.68
213.502	4.1
213.72	22.53
213.938	-6.14
214.157	-45.06
214.375	63.49
214.594	86.01
214.812	45.06
215.031	30.72
215.249	-6.14
215.467	-2.05
215.686	45.06
215.904	176.13
216.122	57.34
216.341	20.48
216.559	38.91
216.778	-12.29
216.996	73.73
217.214	14.34
217.432	20.48
217.651	55.3
217.869	65.53
218.087	4.1
218.306	40.96
218.524	22.53
218.742	-45.06
218.96	24.58
219.179	-36.86
219.397	-8.19
219.615	90.11
219.833	28.67
220.051	26.62
220.27	77.82
220.488	40.96
220.706	12.29
220.924	-4.1
221.142	4.1
221.36	-24.58
221.578	32.77
221.796	53.25
222.015	-14.34
222.233	-34.82
222.451	55.3
222.669	12.29
222.887	26.62
223.105	-86.01
223.323	45.06
223.541	32.77
223.759	36.86
223.977	20.48
224.195	47.1
224.413	-12.29
224.631	61.44
224.849	-4.1
225.067	98.3
225.285	-6.14
225.503	71.68
225.721	-8.19
225.939	24.58
226.157	6.14
226.375	118.78
226.592	55.3
226.81	30.72
227.028	45.06
227.246	38.91
227.464	18.43
227.682	38.91
227.9	14.34
228.117	16.38
228.335	6.14
228.553	36.86
228.771	-14.34
228.989	79.87
229.206	55.3
229.424	4.1
229.642	24.58
229.86	98.3
230.077	-32.77
230.295	-32.77
230.513	30.72
230.731	73.73
230.948	12.29
231.166	45.06
231.384	47.1
231.601	-16.38
231.819	53.25
232.037	30.72
232.254	20.48
232.472	45.06
232.689	-30.72
232.907	77.82
233.125	-20.48
233.342	-24.58
233.56	12.29
233.777	-12.29
233.995	32.77
234.213	28.67
234.43	26.62
234.648	22.53
234.865	26.62
235.083	73.73
235.3	8.19
235.518	32.77
235.735	40.96
235.953	45.06
236.17	49.15
236.388	47.1
236.605	-57.34
236.822	6.14
237.04	40.96
237.257	-8.19
237.475	-88.06
237.692	73.73
237.909	-20.48
238.127	63.49
238.344	79.87
238.562	61.44
238.779	-34.82
238.996	61.44
239.214	-73.73
239.431	-20.48
239.648	-104.45
239.865	0
240.083	94.21
240.3	24.58
240.517	-8.19
240.735	6.14
240.952	77.82
241.169	36.86
241.386	53.25
241.603	-36.86
241.821	49.15
242.038	110.59
242.255	6.14
242.472	-28.67
242.689	36.86
242.907	4.1
243.124	51.2
243.341	47.1
243.558	20.48
243.775	-10.24
243.992	-94.21
244.209	8.19
244.426	155.65
244.643	-2.05
244.86	22.53
245.078	36.86
245.295	-4.1
245.512	53.25
245.729	-28.67
245.946	45.06
246.163	32.77
246.38	-8.19
246.597	-30.72
246.814	28.67
247.031	32.77
247.248	30.72
247.464	30.72
247.681	36.86
247.898	28.67
248.115	24.58
248.332	-90.11
248.549	63.49
248.766	65.53
248.983	94.21
249.2	-32.77
249.417	-8.19
249.633	73.73
249.85	77.82
250.067	-30.72
250.284	94.21
250.501	28.67
250.717	-18.43
250.934	12.29
251.151	-12.29
251.368	61.44
251.585	18.43
251.801	40.96
252.018	-8.19
252.235	20.48
252.451	73.73
252.668	118.78
252.885	57.34
253.102	-18.43
253.318	-40.96
253.535	55.3
253.752	-20.48
253.968	-12.29
254.185	-30.72
254.401	-65.54
254.618	55.3
254.835	-34.82
255.051	102.4
255.268	65.53
255.484	55.3
255.701	45.06
255.917	16.38
256.134	-36.86
256.351	-53.25
256.567	-2.05
256.784	77.82
257	-28.67
257.217	112.64
257.433	24.58
257.65	81.92
257.866	45.06
258.082	-16.38
258.299	-61.44
258.515	55.3
258.732	20.48
258.948	81.92
259.165	57.34
259.381	16.38
259.597	49.15
259.814	16.38
260.03	22.53
260.246	-57.34
260.463	14.34
260.679	75.77
260.895	-4.1
261.112	16.38
261.328	71.68
261.544	77.82
261.761	75.77
261.977	57.34
262.193	28.67
262.409	110.59
262.626	36.86
262.842	-12.29
263.058	-20.48
263.274	-20.48
263.49	-28.67
263.707	145.41
263.923	-28.67
264.139	-10.24
264.355	8.19
264.571	88.06
264.787	-18.43
265.004	47.1
265.22	20.48
265.436	4.1
265.652	30.72
265.868	12.29
266.084	-36.86
266.3	-10.24
266.516	-75.77
266.732	81.92
266.948	53.25
267.164	45.06
267.38	20.48
267.596	94.21
267.812	16.38
268.028	32.77
268.244	-61.44
268.46	22.53
268.676	45.06
268.892	118.78
269.108	40.96
269.324	-22.53
269.54	-8.19
269.756	43.01
269.972	-49.15
270.188	69.63
270.403	-51.2
270.619	-18.43
270.835	63.49
271.051	12.29
271.267	20.48
271.483	-20.48
271.698	36.86
271.914	61.44
272.13	45.06
272.346	20.48
272.562	43.01
272.777	24.58
272.993	-2.05
273.209	61.44
273.425	57.34
273.64	-12.29
273.856	28.67
274.072	-30.72
274.287	61.44
274.503	55.3
274.719	94.21
274.934	22.53
275.15	-65.54
275.366	32.77
275.581	-57.34
275.797	24.58
276.012	28.67
276.228	12.29
276.444	20.48
276.659	67.58
276.875	-34.82
277.09	12.29
277.306	24.58
277.521	98.3
277.737	20.48
277.952	129.02
278.168	57.34
278.383	86.01
278.599	69.63
278.814	96.25
279.03	36.86
279.245	45.06
279.461	-20.48
279.676	98.3
279.892	40.96
280.107	-2.05
280.322	-4.1
280.538	49.15
280.753	-36.86
280.969	-73.73
281.184	0
281.399	102.4
281.615	-10.24
281.83	20.48
282.045	8.19
282.26	20.48
282.476	-32.77
282.691	22.53
282.906	86.01
283.122	40.96
283.337	-61.44
283.552	65.53
283.767	26.62
283.983	53.25
284.198	12.29
284.413	131.07
284.628	-20.48
284.843	-2.05
285.058	61.44
285.274	-18.43
285.489	22.53
285.704	24.58
285.919	-16.38
286.134	-18.43
286.349	47.1
286.564	-30.72
286.779	98.3
286.995	28.67
287.21	20.48
287.425	-10.24
287.64	16.38
287.855	12.29
288.07	94.21
288.285	-18.43
288.5	30.72
288.715	36.86
288.93	-77.82
289.145	36.86
289.36	-36.86
289.575	55.3
289.79	110.59
290.004	-32.77
290.219	63.49
290.434	-69.63
290.649	20.48
290.864	18.43
291.079	22.53
291.294	36.86
291.509	36.86
291.724	94.21
291.938	6.14
292.153	63.49
292.368	36.86
292.583	112.64
292.798	61.44
293.012	88.06
293.227	53.25
293.442	20.48
293.657	110.59
293.871	57.34
294.086	53.25
294.301	129.02
294.516	77.82
294.73	-26.62
294.945	8.19
295.16	40.96
295.374	36.86
295.589	34.82
295.804	43.01
296.018	69.63
296.233	49.15
296.447	-4.1
296.662	10.24
296.877	47.1
297.091	14.34
297.306	14.34
297.52	83.97
297.735	88.06
297.949	20.48
298.164	77.82
298.378	30.72
298.593	4.1
298.807	86.01
299.022	32.77
299.236	34.82
299.451	18.43
299.665	47.1
299.88	24.58
300.094	6.14
300.309	36.86
300.523	20.48
300.737	36.86
300.952	36.86
301.166	10.24
301.381	0
301.595	77.82
301.809	55.3
302.024	14.34
302.238	45.06
302.452	69.63
302.667	-32.77
302.881	135.17
303.095	106.49
303.309	36.86
303.524	94.21
303.738	4.1
303.952	16.38
304.166	131.07
304.381	2.05
304.595	79.87
304.809	49.15
305.023	14.34
305.237	79.87
305.452	12.29
305.666	51.2
305.88	47.1
306.094	-61.44
306.308	51.2
306.522	45.06
306.736	102.4
306.95	63.49
307.164	26.62
307.379	61.44
307.593	40.96
307.807	94.21
308.021	65.53
308.235	22.53
308.449	-53.25
308.663	-12.29
308.877	71.68
309.091	12.29
309.305	-6.14
309.519	-30.72
309.733	22.53
309.947	-2.05
310.161	40.96
310.374	96.25
310.588	112.64
310.802	34.82
311.016	16.38
311.23	40.96
311.444	2.05
311.658	-20.48
311.872	92.16
312.085	69.63
312.299	45.06
312.513	86.01
312.727	30.72
312.941	-28.67
313.154	53.25
313.368	-4.1
313.582	114.69
313.796	43.01
314.009	6.14
314.223	86.01
314.437	102.4
314.651	40.96
314.864	16.38
315.078	-12.29
315.292	53.25
315.505	12.29
315.719	86.01
315.933	-2.05
316.146	69.63
316.36	-20.48
316.573	143.36
316.787	106.49
317.001	77.82
317.214	0
317.428	26.62
317.641	24.58
317.855	61.44
318.068	40.96
318.282	43.01
318.495	-10.24
318.709	49.15
318.922	-4.1
319.136	79.87
319.349	81.92
319.563	94.21
319.776	12.29
319.99	-2.05
320.203	75.77
320.417	20.48
320.63	69.63
320.843	53.25
321.057	8.19
321.27	12.29
321.483	22.53
321.697	96.25
321.91	90.11
322.124	14.34
322.337	24.58
322.55	-10.24
322.763	24.58
322.977	8.19
323.19	4.1
323.403	14.34
323.617	75.77
323.83	61.44
324.043	20.48
324.256	28.67
324.469	-67.58
324.683	40.96
324.896	12.29
325.109	0
325.322	-49.15
325.535	-6.14
325.748	86.01
325.962	18.43
326.175	18.43
326.388	69.63
326.601	65.53
326.814	53.25
327.027	-32.77
327.24	77.82
327.453	28.67
327.666	47.1
327.879	61.44
328.092	71.68
328.305	14.34
328.518	6.14
328.731	-4.1
328.944	12.29
329.157	45.06
329.37	14.34
329.583	88.06
329.796	47.1
330.009	22.53
330.222	77.82
330.435	94.21
330.648	81.92
330.861	36.86
331.073	4.1
331.286	-8.19
331.499	-6.14
331.712	-8.19
331.925	-8.19
332.138	45.06
332.35	98.3
332.563	34.82
332.776	-12.29
332.989	55.3
333.202	61.44
333.414	57.34
333.627	65.53
333.84	-32.77
334.053	24.58
334.265	45.06
334.478	75.77
334.691	18.43
334.903	75.77
335.116	18.43
335.329	55.3
335.541	55.3
335.754	57.34
335.966	-24.58
336.179	86.01
336.392	61.44
336.604	47.1
336.817	71.68
337.029	-24.58
337.242	36.86
337.454	4.1
337.667	53.25
337.88	79.87
338.092	77.82
338.305	36.86
338.517	79.87
338.729	110.59
338.942	86.01
339.154	-6.14
339.367	40.96
339.579	75.77
339.792	-20.48
340.004	73.73
340.217	2.05
340.429	55.3
340.641	49.15
340.854	2.05
341.066	49.15
341.278	94.21
341.491	112.64
341.703	36.86
341.915	-20.48
342.128	45.06
342.34	0
342.552	-8.19
342.764	71.68
342.977	40.96
343.189	79.87
343.401	30.72
343.613	69.63
343.826	57.34
344.038	-69.63
344.25	86.01
344.462	79.87
344.674	88.06
344.886	-6.14
345.099	65.53
345.311	71.68
345.523	-26.62
345.735	65.53
345.947	32.77
346.159	30.72
346.371	36.86
346.583	24.58
346.795	114.69
347.007	45.06
347.219	143.36
347.431	71.68
347.643	149.5
347.855	28.67
348.067	45.06
348.279	53.25
348.491	-8.19
348.703	79.87
348.915	55.3
349.127	61.44
349.339	57.34
349.551	20.48
349.763	81.92
349.975	32.77
350.187	69.63
350.399	38.91
350.61	-45.06
350.822	36.86
351.034	63.49
351.246	77.82
351.458	104.45
351.669	28.67
351.881	86.01
352.093	120.83
352.305	14.34
352.517	63.49
352.728	38.91
352.94	16.38
353.152	110.59
353.363	53.25
353.575	69.63
353.787	90.11
353.999	90.11
354.21	69.63
354.422	45.06
354.633	28.67
354.845	-2.05
355.057	55.3
355.268	10.24
355.48	45.06
355.692	-20.48
355.903	79.87
356.115	30.72
356.326	-2.05
356.538	57.34
356.749	-12.29
356.961	88.06
357.172	-20.48
357.384	12.29
357.595	94.21
357.807	-26.62
358.018	6.14
358.23	94.21
358.441	47.1
358.653	79.87
358.864	8.19
359.075	63.49
359.287	104.45
359.498	90.11
359.709	133.12
359.921	47.1
360.132	135.17
360.344	126.97
360.555	-8.19
360.766	30.72
360.977	-36.86
361.189	-2.05
361.4	32.77
361.611	110.59
361.823	126.97
362.034	79.87
362.245	38.91
362.456	12.29
362.667	75.77
362.879	-49.15
363.09	86.01
363.301	49.15
363.512	49.15
363.723	-4.1
363.935	45.06
364.146	126.97
364.357	4.1
364.568	69.63
364.779	12.29
364.99	110.59
365.201	94.21
365.412	40.96
365.623	-61.44
365.834	83.97
366.045	65.53
366.256	55.3
366.467	43.01
366.678	67.58
366.889	4.1
367.1	4.1
367.311	61.44
367.522	6.14
367.733	61.44
367.944	126.97
368.155	-2.05
368.366	94.21
368.577	77.82
368.788	110.59
368.999	57.34
369.209	-4.1
369.42	145.41
369.631	71.68
369.842	126.97
370.053	22.53
370.264	10.24
370.474	28.67
370.685	45.06
370.896	65.53
371.107	112.64
371.317	133.12
371.528	38.91
371.739	149.5
371.95	45.06
372.16	88.06
372.371	98.3
372.582	61.44
372.792	151.55
373.003	55.3
373.214	-10.24
373.424	129.02
373.635	30.72
373.846	104.45
374.056	94.21
374.267	45.06
374.477	53.25
374.688	79.87
374.898	32.77
375.109	77.82
375.319	63.49
375.53	100.35
375.74	53.25
375.951	-36.86
376.161	45.06
376.372	122.88
376.582	53.25
376.793	63.49
377.003	38.91
377.214	59.39
377.424	71.68
377.635	12.29
377.845	73.73
378.055	94.21
378.266	-12.29
378.476	94.21
378.686	94.21
378.897	67.58
379.107	126.97
379.317	53.25
379.528	-8.19
379.738	24.58
379.948	4.1
380.158	20.48
380.369	100.35
380.579	88.06
380.789	104.45
380.999	63.49
381.21	38.91
381.42	122.88
381.63	22.53
381.84	110.59
382.05	30.72
382.261	-16.38
382.471	98.3
382.681	28.67
382.891	139.26
383.101	40.96
383.311	63.49
383.521	118.78
383.731	16.38
383.941	86.01
384.151	143.36
384.361	36.86
384.571	98.3
384.781	124.93
384.991	133.12
385.201	86.01
385.411	102.4
385.621	53.25
385.831	75.77
386.041	43.01
386.251	92.16
386.461	118.78
386.671	53.25
386.881	47.1
387.091	-16.38
387.301	110.59
387.511	12.29
387.72	65.53
387.93	59.39
388.14	88.06
388.35	116.73
388.56	143.36
388.769	77.82
388.979	94.21
389.189	12.29
389.399	129.02
389.609	153.6
389.818	116.73
390.028	110.59
390.238	108.54
390.447	86.01
390.657	120.83
390.867	77.82
391.076	45.06
391.286	73.73
391.496	63.49
391.705	88.06
391.915	90.11
392.125	106.49
392.334	96.25
392.544	167.93
392.753	92.16
392.963	63.49
393.172	159.74
393.382	92.16
393.591	110.59
393.801	61.44
394.01	110.59
394.22	104.45
394.429	94.21
394.639	102.4
394.848	143.36
395.058	102.4
395.267	73.73
395.477	67.58
395.686	90.11
395.895	182.27
396.105	143.36
396.314	151.55
396.524	90.11
396.733	122.88
396.942	112.64
397.152	75.77
397.361	167.93
397.57	118.78
397.78	153.6
397.989	124.93
398.198	192.51
398.407	65.53
398.617	143.36
398.826	71.68
399.035	118.78
399.244	98.3
399.453	184.32
399.663	172.03
399.872	202.75
400.081	161.79
400.29	178.17
400.499	98.3
400.708	202.75
400.917	40.96
401.127	43.01
401.336	118.78
401.545	258.04
401.754	208.89
401.963	145.41
402.172	126.97
402.381	112.64
402.59	180.22
402.799	217.08
403.008	155.65
403.217	161.79
403.426	210.94
403.635	81.92
403.844	225.28
404.053	221.18
404.262	176.13
404.471	258.04
404.68	208.89
404.888	219.13
405.097	235.52
405.306	247.8
405.515	245.76
405.724	256
405.933	272.38
406.142	278.52
406.35	350.2
406.559	319.48
406.768	278.52
406.977	313.34
407.185	352.25
407.394	301.05
407.603	335.87
407.812	296.96
408.02	415.74
408.229	339.96
408.438	280.57
408.646	354.3
408.855	360.44
409.064	315.39
409.272	325.63
409.481	497.66
409.69	421.88
409.898	382.97
410.107	458.75
410.315	456.7
410.524	464.89
410.733	460.79
410.941	503.8
411.15	577.53
411.358	491.51
411.567	686.07
411.775	634.87
411.984	589.81
412.192	653.3
412.401	651.25
412.609	690.17
412.818	727.03
413.026	784.37
413.234	686.07
413.443	825.33
413.651	729.08
413.86	804.85
414.068	903.15
414.276	995.31
414.485	915.44
414.693	991.22
414.901	1066.99
415.11	1064.94
415.318	1054.7
415.526	1118.19
415.734	1163.25
415.943	1091.57
416.151	1329.13
416.359	1179.63
416.567	1368.04
416.776	1296.36
416.984	1427.43
417.192	1533.93
417.4	1445.87
417.608	1511.4
417.817	1497.07
418.025	1656.81
418.233	1740.77
418.441	1775.59
418.649	1863.65
418.857	1945.57
419.065	1996.77
419.273	1972.19
419.481	2144.22
419.689	2248.67
419.897	2303.96
420.105	2406.36
420.313	2381.79
420.521	2422.75
420.729	2613.21
420.937	2666.46
421.145	2719.7
421.353	2865.11
421.561	3063.76
421.769	2963.41
421.977	3209.17
422.185	2981.84
422.393	3321.81
422.601	3399.63
422.809	3536.84
423.017	3518.41
423.224	3649.48
423.432	3817.41
423.64	3661.77
423.848	4231.1
424.056	4071.36
424.263	4396.99
424.471	4386.75
424.679	4444.09
424.887	4681.66
425.094	4855.73
425.302	4714.42
425.51	5083.06
425.718	5205.94
425.925	5353.39
426.133	5427.12
426.341	5648.3
426.548	6010.79
426.756	6096.8
426.964	6240.16
427.171	6479.77
427.379	6770.58
427.586	6868.89
427.794	6993.81
428.001	7229.33
428.209	7548.81
428.417	7389.07
428.624	8103.81
428.832	7978.89
429.039	7987.08
429.247	7894.92
429.454	8820.6
429.662	8994.68
429.869	8638.33
430.076	9289.59
430.284	8839.03
430.491	9643.88
430.699	9998.18
430.906	10026.85
431.114	9973.61
431.321	10219.36
431.528	10563.42
431.736	11370.32
431.943	11798.35
432.15	11755.34
432.358	11523.92
432.565	12054.34
432.772	11943.75
432.979	12648.25
433.187	12955.45
433.394	13264.69
433.601	14128.94
433.808	13913.9
434.016	13926.19
434.223	14606.11
434.43	15372.05
434.637	15372.05
434.844	15927.05
435.052	16176.91
435.259	16174.86
435.466	16420.61
435.673	16088.84
435.88	17090.3
436.087	18231.02
436.294	17747.7
436.501	17895.15
436.708	18034.41
436.915	18665.19
437.122	19556.05
437.329	19429.08
437.537	20246.22
437.743	20305.61
437.95	20145.87
438.157	21120.7
438.364	22120.11
438.571	21632.69
438.778	22163.12
438.985	23887.51
439.192	22976.16
439.399	24118.93
439.606	23219.87
439.813	24669.83
440.02	26312.3
440.227	25595.51
440.433	25306.75
440.64	26365.55
440.847	26353.26
441.054	26846.82
441.261	28560.97
441.467	28251.73
441.674	28810.82
441.881	29652.54
442.088	29544
442.294	29326.91
442.501	30080.56
442.708	30756.39
442.914	31759.9
443.121	33179.14
443.328	32185.88
443.534	34354.68
443.741	33488.39
443.948	32986.63
444.154	35648.99
444.361	35472.87
444.568	35427.81
444.774	35599.84
444.981	36126.17
445.187	36775.37
445.394	38593.97
445.6	38059.45
445.807	41510.28
446.013	39941.53
446.22	40836.5
446.426	42802.55
446.633	42173.82
446.839	43478.38
447.046	42237.31
447.252	44094.82
447.459	44227.93
447.665	44305.76
447.871	45884.74
448.078	47981.86
448.284	45436.23
448.491	46945.59
448.697	48608.54
448.903	49192.21
449.11	49505.55
449.316	48872.73
449.522	50005.25
449.728	50851.06
449.935	51256.56
450.141	51496.17
450.347	52358.37
450.553	50674.94
450.76	51180.79
450.966	52833.5
451.172	52366.56
451.378	53916.87
451.584	52124.9
451.791	54119.62
451.997	53554.38
452.203	54564.03
452.409	54623.42
452.615	53970.12
452.821	52233.44
453.027	51258.61
453.233	53839.05
453.44	52501.73
453.646	52589.79
453.852	52561.12
454.058	53990.6
454.264	52034.79
454.47	53318.87
454.676	51705.07
454.882	53740.75
455.088	49341.71
455.294	49341.71
455.5	50142.47
455.705	51051.76
455.911	48938.26
456.117	48080.16
456.323	47719.72
456.529	45374.8
456.735	46753.08
456.941	45442.38
457.147	44559.7
457.352	43492.71
457.558	43285.87
457.764	43447.66
457.97	42294.65
458.176	42112.38
458.381	41475.46
458.587	39450.02
458.793	39413.16
458.999	37721.54
459.204	39966.11
459.41	38905.26
459.616	36683.22
459.821	36470.23
460.027	36464.08
460.233	35722.72
460.438	34233.85
460.644	34293.24
460.85	32738.83
461.055	32300.56
461.261	32124.44
461.466	29791.8
461.672	28894.79
461.878	30912.04
462.083	28956.23
462.289	28413.52
462.494	27989.59
462.7	26740.33
462.905	26080.88
463.111	26748.52
463.316	26889.83
463.522	26783.34
463.727	26596.97
463.932	26859.11
464.138	26236.53
464.343	26539.63
464.549	25538.17
464.754	26115.7
464.959	26494.57
465.165	26197.62
465.37	24919.68
465.575	24252.05
465.781	25024.13
465.986	25255.55
466.191	24358.54
466.397	24217.23
