Data from USB4F104151__187__14-32-57-906.txt Node

Date: Thu Mar 13 14:32:57 EDT 2025
User: louis
Spectrometer: USB4F10415
Trigger mode: 4
Integration Time (sec): 2.500000E-2
Scans to average: 1
Electric dark correction enabled: true
Nonlinearity correction enabled: false
Boxcar width: 0
XAxis mode: Wavelengths
Number of Pixels in Spectrum: 3648
>>>>>Begin Spectral Data<<<<<
178.204	-112.81
178.424	-112.81
178.644	-112.81
178.864	-161.96
179.084	-168.1
179.304	34.64
179.524	26.45
179.744	-28.84
179.964	-6.31
180.184	-67.75
180.404	67.41
180.624	-22.7
180.844	-39.08
181.064	-94.38
181.283	-28.84
181.503	67.41
181.723	91.99
181.943	-69.8
182.163	51.03
182.383	-14.51
182.602	79.7
182.822	18.26
183.042	51.03
183.262	22.36
183.482	-24.75
183.701	85.84
183.921	-4.27
184.141	38.74
184.361	55.12
184.58	59.22
184.8	30.55
185.02	18.26
185.239	46.93
185.459	-37.03
185.679	-49.32
185.898	-30.89
186.118	59.22
186.338	-12.46
186.557	94.04
186.777	-14.51
186.997	-67.75
187.216	8.02
187.436	65.36
187.655	63.32
187.875	77.65
188.095	-14.51
188.314	108.37
188.534	40.79
188.753	61.27
188.973	34.64
189.192	83.8
189.412	22.36
189.631	51.03
189.851	75.6
190.07	63.32
190.29	-26.79
190.509	69.46
190.729	-39.08
190.948	83.8
191.168	83.8
191.387	10.07
191.607	94.04
191.826	102.23
192.045	91.99
192.265	26.45
192.484	48.98
192.704	12.12
192.923	-28.84
193.142	75.6
193.362	51.03
193.581	100.18
193.8	42.84
194.02	42.84
194.239	36.69
194.458	18.26
194.678	-45.23
194.897	59.22
195.116	32.6
195.335	1.88
195.555	24.4
195.774	20.31
195.993	46.93
196.212	116.56
196.432	1.88
196.651	-20.65
196.87	-14.51
197.089	132.95
197.308	3.93
197.528	85.84
197.747	8.02
197.966	10.07
198.185	51.03
198.404	51.03
198.623	91.99
198.842	38.74
199.062	110.42
199.281	149.33
199.5	65.36
199.719	63.32
199.938	73.56
200.157	22.36
200.376	-6.31
200.595	57.17
200.814	18.26
201.033	10.07
201.252	51.03
201.471	18.26
201.69	83.8
201.909	120.66
202.128	65.36
202.347	26.45
202.566	59.22
202.785	-18.6
203.004	-39.08
203.223	132.95
203.442	-6.31
203.661	-10.41
203.879	67.41
204.098	94.04
204.317	20.31
204.536	53.08
204.755	-41.13
204.974	118.61
205.193	77.65
205.411	91.99
205.63	75.6
205.849	118.61
206.068	24.4
206.287	-0.17
206.505	73.56
206.724	46.93
206.943	-34.99
207.162	1.88
207.381	36.69
207.599	3.93
207.818	108.37
208.037	-4.27
208.255	24.4
208.474	75.6
208.693	75.6
208.911	28.5
209.13	-14.51
209.349	44.88
209.567	-2.22
209.786	42.84
210.005	42.84
210.223	46.93
210.442	-8.36
210.661	51.03
210.879	100.18
211.098	83.8
211.316	34.64
211.535	14.17
211.753	-41.13
211.972	-2.22
212.191	10.07
212.409	-30.89
212.628	46.93
212.846	36.69
213.065	-0.17
213.283	91.99
213.502	42.84
213.72	1.88
213.938	26.45
214.157	34.64
214.375	67.41
214.594	51.03
214.812	65.36
215.031	10.07
215.249	18.26
215.467	116.56
215.686	14.17
215.904	184.15
216.122	71.51
216.341	83.8
216.559	-14.51
216.778	5.97
216.996	18.26
217.214	14.17
217.432	-30.89
217.651	42.84
217.869	34.64
218.087	44.88
218.306	36.69
218.524	40.79
218.742	-24.75
218.96	61.27
219.179	59.22
219.397	10.07
219.615	44.88
219.833	22.36
220.051	14.17
220.27	104.28
220.488	59.22
220.706	94.04
220.924	85.84
221.142	42.84
221.36	-10.41
221.578	18.26
221.796	14.17
222.015	71.51
222.233	12.12
222.451	147.28
222.669	-10.41
222.887	75.6
223.105	1.88
223.323	34.64
223.541	14.17
223.759	44.88
223.977	3.93
224.195	-2.22
224.413	59.22
224.631	110.42
224.849	22.36
225.067	34.64
225.285	-53.42
225.503	26.45
225.721	-34.99
225.939	24.4
226.157	53.08
226.375	157.52
226.592	20.31
226.81	-6.31
227.028	69.46
227.246	98.13
227.464	-22.7
227.682	24.4
227.9	69.46
228.117	89.94
228.335	91.99
228.553	10.07
228.771	51.03
228.989	12.12
229.206	18.26
229.424	-2.22
229.642	24.4
229.86	12.12
230.077	71.51
230.295	32.6
230.513	34.64
230.731	42.84
230.948	96.08
231.166	69.46
231.384	-14.51
231.601	-22.7
231.819	34.64
232.037	94.04
232.254	36.69
232.472	38.74
232.689	-18.6
232.907	10.07
233.125	-30.89
233.342	-6.31
233.56	5.97
233.777	51.03
233.995	38.74
234.213	75.6
234.43	75.6
234.648	51.03
234.865	22.36
235.083	46.93
235.3	5.97
235.518	59.22
235.735	75.6
235.953	22.36
236.17	135
236.388	42.84
236.605	53.08
236.822	87.89
237.04	1.88
237.257	94.04
237.475	10.07
237.692	18.26
237.909	32.6
238.127	30.55
238.344	34.64
238.562	106.32
238.779	22.36
238.996	-104.62
239.214	-10.41
239.431	26.45
239.648	63.32
239.865	59.22
240.083	89.94
240.3	87.89
240.517	22.36
240.735	28.5
240.952	126.8
241.169	67.41
241.386	18.26
241.603	-63.66
241.821	67.41
242.038	28.5
242.255	79.7
242.472	-37.03
242.689	94.04
242.907	55.12
243.124	-28.84
243.341	36.69
243.558	12.12
243.775	-0.17
243.992	-47.27
244.209	59.22
244.426	44.88
244.643	85.84
244.86	-20.65
245.078	71.51
245.295	53.08
245.512	18.26
245.729	-14.51
245.946	44.88
246.163	10.07
246.38	34.64
246.597	30.55
246.814	61.27
247.031	-0.17
247.248	-34.99
247.464	3.93
247.681	26.45
247.898	-18.6
248.115	34.64
248.332	40.79
248.549	100.18
248.766	53.08
248.983	53.08
249.2	22.36
249.417	-4.27
249.633	87.89
249.85	67.41
250.067	85.84
250.284	32.6
250.501	77.65
250.717	26.45
250.934	20.31
251.151	77.65
251.368	48.98
251.585	42.84
251.801	59.22
252.018	-65.71
252.235	18.26
252.451	1.88
252.668	61.27
252.885	42.84
253.102	67.41
253.318	14.17
253.535	32.6
253.752	14.17
253.968	67.41
254.185	-61.61
254.401	-12.46
254.618	18.26
254.835	-12.46
255.051	116.56
255.268	16.21
255.484	-43.18
255.701	3.93
255.917	57.17
256.134	-22.7
256.351	-4.27
256.567	-114.86
256.784	14.17
257	-24.75
257.217	36.69
257.433	55.12
257.65	24.4
257.866	10.07
258.082	22.36
258.299	44.88
258.515	3.93
258.732	18.26
258.948	42.84
259.165	42.84
259.381	-67.75
259.597	51.03
259.814	14.17
260.03	16.21
260.246	20.31
260.463	61.27
260.679	83.8
260.895	18.26
261.112	42.84
261.328	110.42
261.544	34.64
261.761	83.8
261.977	-0.17
262.193	26.45
262.409	44.88
262.626	-43.18
262.842	38.74
263.058	-12.46
263.274	51.03
263.49	26.45
263.707	55.12
263.923	18.26
264.139	-2.22
264.355	96.08
264.571	77.65
264.787	10.07
265.004	-37.03
265.22	-8.36
265.436	12.12
265.652	-6.31
265.868	12.12
266.084	-4.27
266.3	3.93
266.516	28.5
266.732	18.26
266.948	10.07
267.164	26.45
267.38	61.27
267.596	-6.31
267.812	116.56
268.028	20.31
268.244	-39.08
268.46	96.08
268.676	42.84
268.892	14.17
269.108	18.26
269.324	-32.94
269.54	48.98
269.756	5.97
269.972	53.08
270.188	-4.27
270.403	-32.94
270.619	-96.43
270.835	34.64
271.051	61.27
271.267	-10.41
271.483	34.64
271.698	-39.08
271.914	-51.37
272.13	3.93
272.346	55.12
272.562	-43.18
272.777	36.69
272.993	-22.7
273.209	65.36
273.425	63.32
273.64	59.22
273.856	79.7
274.072	51.03
274.287	-14.51
274.503	83.8
274.719	53.08
274.934	-69.8
275.15	-18.6
275.366	120.66
275.581	10.07
275.797	12.12
276.012	53.08
276.228	-6.31
276.444	46.93
276.659	79.7
276.875	22.36
277.09	-53.42
277.306	-30.89
277.521	83.8
277.737	8.02
277.952	34.64
278.168	-43.18
278.383	-100.52
278.599	14.17
278.814	-30.89
279.03	28.5
279.245	46.93
279.461	34.64
279.676	-12.46
279.892	-10.41
280.107	3.93
280.322	18.26
280.538	18.26
280.753	-6.31
280.969	71.51
281.184	57.17
281.399	20.31
281.615	22.36
281.83	69.46
282.045	-12.46
282.26	22.36
282.476	-18.6
282.691	3.93
282.906	1.88
283.122	-6.31
283.337	-61.61
283.552	46.93
283.767	-34.99
283.983	20.31
284.198	12.12
284.413	22.36
284.628	5.97
284.843	42.84
285.058	40.79
285.274	-63.66
285.489	10.07
285.704	77.65
285.919	-39.08
286.134	-4.27
286.349	59.22
286.564	87.89
286.779	96.08
286.995	34.64
287.21	1.88
287.425	61.27
287.64	-59.56
287.855	116.56
288.07	-37.03
288.285	55.12
288.5	46.93
288.715	32.6
288.93	-2.22
289.145	75.6
289.36	59.22
289.575	18.26
289.79	55.12
290.004	73.56
290.219	87.89
290.434	-47.27
290.649	28.5
290.864	-2.22
291.079	100.18
291.294	128.85
291.509	26.45
291.724	96.08
291.938	-6.31
292.153	110.42
292.368	-14.51
292.583	12.12
292.798	48.98
293.012	69.46
293.227	46.93
293.442	14.17
293.657	1.88
293.871	67.41
294.086	112.47
294.301	14.17
294.516	83.8
294.73	20.31
294.945	-4.27
295.16	18.26
295.374	44.88
295.589	81.75
295.804	51.03
296.018	48.98
296.233	-39.08
296.447	-12.46
296.662	40.79
296.877	12.12
297.091	77.65
297.306	51.03
297.52	1.88
297.735	51.03
297.949	65.36
298.164	67.41
298.378	14.17
298.593	-47.27
298.807	-45.23
299.022	61.27
299.236	67.41
299.451	20.31
299.665	77.65
299.88	51.03
300.094	59.22
300.309	59.22
300.523	63.32
300.737	-28.84
300.952	44.88
301.166	-18.6
301.381	32.6
301.595	-39.08
301.809	51.03
302.024	108.37
302.238	10.07
302.452	67.41
302.667	28.5
302.881	26.45
303.095	22.36
303.309	51.03
303.524	16.21
303.738	3.93
303.952	57.17
304.166	51.03
304.381	-6.31
304.595	34.64
304.809	51.03
305.023	30.55
305.237	18.26
305.452	30.55
305.666	81.75
305.88	20.31
306.094	44.88
306.308	-14.51
306.522	132.95
306.736	18.26
306.95	61.27
307.164	40.79
307.379	67.41
307.593	118.61
307.807	89.94
308.021	61.27
308.235	137.04
308.449	44.88
308.663	51.03
308.877	51.03
309.091	51.03
309.305	81.75
309.519	44.88
309.733	171.86
309.947	1.88
310.161	36.69
310.374	42.84
310.588	67.41
310.802	42.84
311.016	38.74
311.23	1.88
311.444	26.45
311.658	87.89
311.872	126.8
312.085	42.84
312.299	-55.47
312.513	34.64
312.727	44.88
312.941	10.07
313.154	-55.47
313.368	46.93
313.582	59.22
313.796	28.5
314.009	44.88
314.223	20.31
314.437	-18.6
314.651	55.12
314.864	18.26
315.078	14.17
315.292	28.5
315.505	59.22
315.719	69.46
315.933	44.88
316.146	51.03
316.36	71.51
316.573	100.18
316.787	69.46
317.001	42.84
317.214	44.88
317.428	30.55
317.641	42.84
317.855	63.32
318.068	-30.89
318.282	3.93
318.495	141.14
318.709	14.17
318.922	110.42
319.136	53.08
319.349	102.23
319.563	28.5
319.776	67.41
319.99	-30.89
320.203	71.51
320.417	42.84
320.63	22.36
320.843	55.12
321.057	44.88
321.27	77.65
321.483	112.47
321.697	65.36
321.91	-12.46
322.124	22.36
322.337	65.36
322.55	63.32
322.763	26.45
322.977	10.07
323.19	-6.31
323.403	73.56
323.617	55.12
323.83	112.47
324.043	5.97
324.256	22.36
324.469	-6.31
324.683	116.56
324.896	24.4
325.109	53.08
325.322	46.93
325.535	42.84
325.748	91.99
325.962	42.84
326.175	79.7
326.388	5.97
326.601	42.84
326.814	42.84
327.027	28.5
327.24	42.84
327.453	12.12
327.666	10.07
327.879	67.41
328.092	110.42
328.305	91.99
328.518	22.36
328.731	30.55
328.944	67.41
329.157	22.36
329.37	14.17
329.583	83.8
329.796	71.51
330.009	-20.65
330.222	67.41
330.435	59.22
330.648	116.56
330.861	28.5
331.073	42.84
331.286	42.84
331.499	30.55
331.712	116.56
331.925	10.07
332.138	10.07
332.35	18.26
332.563	69.46
332.776	75.6
332.989	14.17
333.202	22.36
333.414	100.18
333.627	26.45
333.84	14.17
334.053	18.26
334.265	46.93
334.478	22.36
334.691	71.51
334.903	108.37
335.116	-30.89
335.329	-2.22
335.541	120.66
335.754	100.18
335.966	14.17
336.179	61.27
336.392	65.36
336.604	-10.41
336.817	30.55
337.029	63.32
337.242	-18.6
337.454	83.8
337.667	73.56
337.88	128.85
338.092	-10.41
338.305	75.6
338.517	18.26
338.729	22.36
338.942	145.24
339.154	10.07
339.367	8.02
339.579	102.23
339.792	10.07
340.004	89.94
340.217	22.36
340.429	55.12
340.641	-0.17
340.854	34.64
341.066	108.37
341.278	108.37
341.491	85.84
341.703	51.03
341.915	38.74
342.128	53.08
342.34	-4.27
342.552	59.22
342.764	-30.89
342.977	42.84
343.189	44.88
343.401	69.46
343.613	-6.31
343.826	61.27
344.038	-41.13
344.25	112.47
344.462	-14.51
344.674	53.08
344.886	-45.23
345.099	73.56
345.311	77.65
345.523	22.36
345.735	1.88
345.947	30.55
346.159	26.45
346.371	5.97
346.583	20.31
346.795	89.94
347.007	-59.56
347.219	128.85
347.431	71.51
347.643	65.36
347.855	75.6
348.067	102.23
348.279	53.08
348.491	12.12
348.703	63.32
348.915	51.03
349.127	57.17
349.339	110.42
349.551	-2.22
349.763	67.41
349.975	12.12
350.187	94.04
350.399	46.93
350.61	40.79
350.822	61.27
351.034	30.55
351.246	83.8
351.458	51.03
351.669	-8.36
351.881	77.65
352.093	104.28
352.305	63.32
352.517	63.32
352.728	-6.31
352.94	75.6
353.152	61.27
353.363	-80.04
353.575	12.12
353.787	190.29
353.999	85.84
354.21	122.71
354.422	53.08
354.633	14.17
354.845	-20.65
355.057	57.17
355.268	22.36
355.48	61.27
355.692	42.84
355.903	34.64
356.115	-26.79
356.326	-10.41
356.538	102.23
356.749	46.93
356.961	94.04
357.172	63.32
357.384	10.07
357.595	51.03
357.807	104.28
358.018	8.02
358.23	-2.22
358.441	85.84
358.653	42.84
358.864	-43.18
359.075	91.99
359.287	46.93
359.498	124.76
359.709	63.32
359.921	100.18
360.132	-6.31
360.344	26.45
360.555	53.08
360.766	42.84
360.977	-10.41
361.189	18.26
361.4	12.12
361.611	51.03
361.823	34.64
362.034	59.22
362.245	8.02
362.456	20.31
362.667	-14.51
362.879	81.75
363.09	79.7
363.301	65.36
363.512	34.64
363.723	12.12
363.935	-43.18
364.146	98.13
364.357	-22.7
364.568	73.56
364.779	42.84
364.99	26.45
365.201	112.47
365.412	141.14
365.623	3.93
365.834	61.27
366.045	102.23
366.256	126.8
366.467	16.21
366.678	61.27
366.889	34.64
367.1	-10.41
367.311	94.04
367.522	63.32
367.733	26.45
367.944	96.08
368.155	14.17
368.366	42.84
368.577	63.32
368.788	-6.31
368.999	-4.27
369.209	28.5
369.42	55.12
369.631	83.8
369.842	59.22
370.053	26.45
370.264	42.84
370.474	-12.46
370.685	-24.75
370.896	67.41
371.107	75.6
371.317	42.84
371.528	42.84
371.739	30.55
371.95	-47.27
372.16	100.18
372.371	20.31
372.582	83.8
372.792	36.69
373.003	67.41
373.214	26.45
373.424	77.65
373.635	36.69
373.846	67.41
374.056	-12.46
374.267	85.84
374.477	-20.65
374.688	-37.03
374.898	85.84
375.109	83.8
375.319	-20.65
375.53	51.03
375.74	182.1
375.951	44.88
376.161	53.08
376.372	42.84
376.582	85.84
376.793	114.52
377.003	28.5
377.214	100.18
377.424	-22.7
377.635	51.03
377.845	28.5
378.055	104.28
378.266	55.12
378.476	42.84
378.686	63.32
378.897	75.6
379.107	14.17
379.317	165.71
379.528	63.32
379.738	59.22
379.948	28.5
380.158	69.46
380.369	-6.31
380.579	59.22
380.789	-4.27
380.999	75.6
381.21	67.41
381.42	110.42
381.63	63.32
381.84	75.6
382.05	59.22
382.261	141.14
382.471	67.41
382.681	94.04
382.891	100.18
383.101	91.99
383.311	-4.27
383.521	73.56
383.731	87.89
383.941	65.36
384.151	18.26
384.361	16.21
384.571	65.36
384.781	85.84
384.991	130.9
385.201	120.66
385.411	87.89
385.621	67.41
385.831	79.7
386.041	59.22
386.251	71.51
386.461	69.46
386.671	114.52
386.881	67.41
387.091	42.84
387.301	8.02
387.511	67.41
387.72	83.8
387.93	10.07
388.14	51.03
388.35	30.55
388.56	67.41
388.769	55.12
388.979	-12.46
389.189	51.03
389.399	143.19
389.609	124.76
389.818	63.32
390.028	122.71
390.238	141.14
390.447	18.26
390.657	79.7
390.867	3.93
391.076	-30.89
391.286	77.65
391.496	38.74
391.705	75.6
391.915	75.6
392.125	85.84
392.334	32.6
392.544	51.03
392.753	18.26
392.963	10.07
393.172	100.18
393.382	67.41
393.591	149.33
393.801	108.37
394.01	165.71
394.22	85.84
394.429	87.89
394.639	59.22
394.848	114.52
395.058	40.79
395.267	112.47
395.477	124.76
395.686	57.17
395.895	139.09
396.105	216.91
396.314	79.7
396.524	55.12
396.733	73.56
396.942	128.85
397.152	91.99
397.361	167.76
397.57	69.46
397.78	71.51
397.989	124.76
398.198	194.39
398.407	77.65
398.617	112.47
398.826	132.95
399.035	102.23
399.244	165.71
399.453	81.75
399.663	44.88
399.872	126.8
400.081	61.27
400.29	216.91
400.499	122.71
400.708	132.95
400.917	118.61
401.127	126.8
401.336	46.93
401.545	171.86
401.754	149.33
401.963	169.81
402.172	-14.51
402.381	102.23
402.59	53.08
402.799	118.61
403.008	126.8
403.217	63.32
403.426	98.13
403.635	87.89
403.844	100.18
404.053	91.99
404.262	151.38
404.471	184.15
404.68	141.14
404.888	173.91
405.097	128.85
405.306	247.63
405.515	173.91
405.724	110.42
405.933	167.76
406.142	141.14
406.35	227.15
406.559	198.48
406.768	143.19
406.977	190.29
407.185	190.29
407.394	167.76
407.603	165.71
407.812	208.72
408.02	264.02
408.229	266.07
408.438	178
408.646	212.82
408.855	239.44
409.064	206.67
409.272	184.15
409.481	313.17
409.69	268.11
409.898	313.17
410.107	325.46
410.315	266.07
410.524	331.6
410.733	339.79
410.941	288.59
411.15	380.75
411.358	409.42
411.567	354.13
411.775	339.79
411.984	413.52
412.192	442.19
412.401	452.43
412.609	509.77
412.818	487.25
413.026	444.24
413.234	460.62
413.443	563.02
413.651	593.74
413.86	495.44
414.068	610.12
414.276	608.08
414.485	624.46
414.693	653.13
414.901	694.09
415.11	689.99
415.318	751.43
415.526	636.75
415.734	751.43
415.943	806.73
416.151	823.11
416.359	806.73
416.567	907.08
416.776	796.49
416.984	997.19
417.192	907.08
417.4	966.47
417.608	993.09
417.817	1058.63
418.025	1068.87
418.233	1136.45
418.441	1101.64
418.649	1197.89
418.857	1232.71
419.065	1345.34
419.273	1255.23
419.481	1386.3
419.689	1341.25
419.897	1423.17
420.105	1482.56
420.313	1578.81
420.521	1541.95
420.729	1650.49
420.937	1677.12
421.145	1730.36
421.353	1914.68
421.561	1969.98
421.769	1945.4
421.977	1820.47
422.185	1894.2
422.393	2205.49
422.601	2223.92
422.809	2166.58
423.017	2207.54
423.224	2350.9
423.432	2498.35
423.64	2463.54
423.848	2787.11
424.056	2467.63
424.263	2778.92
424.471	2731.82
424.679	2850.6
424.887	3051.3
425.094	2981.67
425.302	3024.68
425.51	3096.36
425.718	3368.74
425.925	3397.41
426.133	3612.45
426.341	3712.8
426.548	3794.72
426.756	3925.79
426.964	3901.21
427.171	4157.21
427.379	4110.1
427.586	4263.7
427.794	4302.61
428.001	4718.35
428.209	4851.47
428.417	4626.19
428.624	5050.12
428.832	4900.62
429.039	5105.42
429.247	5144.33
429.454	5537.54
429.662	5947.13
429.869	5476.1
430.076	5893.88
430.284	5748.48
430.491	5951.23
430.699	6405.88
430.906	6434.55
431.114	6313.72
431.321	6614.77
431.528	6670.06
431.736	7259.88
431.943	7409.38
432.15	7259.88
432.358	7325.41
432.565	7722.72
432.772	7802.59
432.979	8206.04
433.187	8185.56
433.394	8361.69
433.601	8754.9
433.808	8881.87
434.016	8898.25
434.223	9062.09
434.43	9670.34
434.637	9563.84
434.844	10110.65
435.052	10391.22
435.259	10292.92
435.466	10292.92
435.673	10327.74
435.88	10731.19
436.087	11472.55
436.294	11380.39
436.501	11255.47
436.708	11335.34
436.915	11945.63
437.122	12369.56
437.329	12117.66
437.537	12519.06
437.743	12916.37
437.95	12652.18
438.157	13661.83
438.364	13880.96
438.571	13801.09
438.778	13903.49
438.985	15019.63
439.192	14632.57
439.399	14962.29
439.606	14728.82
439.813	15519.34
440.02	16285.28
440.227	16035.42
440.433	16135.78
440.64	16395.87
440.847	16461.4
441.054	16762.45
441.261	17878.6
441.467	17722.95
441.674	17931.84
441.881	18703.93
442.088	18495.04
442.294	18593.34
442.501	19150.39
442.708	19308.08
442.914	19992.1
443.121	20928.02
443.328	20469.28
443.534	21800.46
443.741	21376.53
443.948	20827.67
444.154	22281.73
444.361	22392.32
444.568	22509.05
444.774	22345.22
444.981	22521.34
445.187	23336.43
445.394	24194.53
445.6	24311.27
445.807	26066.38
446.013	25021.91
446.22	25533.9
446.426	26308.04
446.633	26613.18
446.839	27542.96
447.046	26392
447.252	28341.67
447.459	27864.49
447.665	27712.94
447.871	29169.05
448.078	30725.5
448.284	28956.06
448.491	29855.12
448.697	30686.59
448.903	31378.81
449.11	31288.7
449.316	30924.16
449.522	31206.78
449.728	32564.58
449.935	32497
450.141	32378.22
450.347	33473.88
450.553	32171.37
450.76	32701.79
450.966	33811.79
451.172	33574.23
451.378	34209.1
451.584	33346.9
451.791	34477.38
451.997	34364.74
452.203	34614.6
452.409	34835.78
452.615	34346.31
452.821	33236.31
453.027	32816.48
453.233	34499.91
453.44	32990.56
453.646	33723.73
453.852	33627.48
454.058	34368.84
454.264	33125.72
454.47	33865.04
454.676	32910.69
454.882	34254.15
455.088	31188.35
455.294	31526.26
455.5	32269.67
455.705	32458.09
455.911	31233.4
456.117	30707.07
456.323	30102.92
456.529	28788.13
456.735	29709.71
456.941	29123.99
457.147	28523.94
457.352	27737.52
457.558	27135.42
457.764	27522.48
457.97	26883.52
458.176	26252.74
458.381	26021.32
458.587	24907.23
458.793	24882.65
458.999	23307.76
459.204	25288.15
459.41	24352.23
459.616	23121.4
459.821	22818.3
460.027	22722.04
460.233	22263.3
460.438	21558.8
460.644	21677.58
460.85	20448.8
461.055	19772.97
461.261	19783.21
461.466	18310.72
461.672	17759.81
461.878	19342.89
462.083	17978.95
462.289	17786.44
462.494	17585.74
462.7	16885.33
462.905	16148.06
463.111	16539.22
463.316	16856.66
463.522	16754.26
463.727	16662.1
463.932	16647.77
464.138	16336.48
464.343	16334.43
464.549	15902.31
464.754	16502.36
464.959	16287.32
465.165	16135.78
465.37	15408.75
465.575	15107.69
465.781	15640.17
465.986	15881.83
466.191	15343.21
466.397	14880.37
466.602	14270.08
466.807	14741.11
