Data from USB4F104151__284__14-34-46-650.txt Node

Date: Thu Mar 13 14:34:46 EDT 2025
User: louis
Spectrometer: USB4F10415
Trigger mode: 4
Integration Time (sec): 2.500000E-2
Scans to average: 1
Electric dark correction enabled: true
Nonlinearity correction enabled: false
Boxcar width: 0
XAxis mode: Wavelengths
Number of Pixels in Spectrum: 3648
>>>>>Begin Spectral Data<<<<<
178.204	-136.7
178.424	-136.7
178.644	-136.7
178.864	-146.94
179.084	-155.13
179.304	23.04
179.524	-24.06
179.744	-22.02
179.964	29.18
180.184	61.95
180.404	39.42
180.624	27.14
180.844	-9.73
181.064	-60.93
181.283	-62.98
181.503	-58.88
181.723	57.86
181.943	-38.4
182.163	61.95
182.383	10.75
182.602	92.67
182.822	31.23
183.042	-1.54
183.262	59.9
183.482	43.52
183.701	-30.21
183.921	16.9
184.141	-56.83
184.361	104.96
184.58	47.62
184.8	31.23
185.02	23.04
185.239	107.01
185.459	64
185.679	55.81
185.898	-44.54
186.118	121.34
186.338	20.99
186.557	41.47
186.777	-48.64
186.997	23.04
187.216	-15.87
187.436	10.75
187.655	39.42
187.875	74.24
188.095	41.47
188.314	64
188.534	82.43
188.753	-30.21
188.973	33.28
189.192	39.42
189.412	-9.73
189.631	8.7
189.851	20.99
190.07	141.82
190.29	39.42
190.509	31.23
190.729	18.94
190.948	55.81
191.168	123.39
191.387	80.38
191.607	25.09
191.826	-17.92
192.045	-17.92
192.265	0.51
192.484	68.09
192.704	55.81
192.923	10.75
193.142	137.73
193.362	-65.02
193.581	-13.82
193.8	61.95
194.02	92.67
194.239	59.9
194.458	66.05
194.678	23.04
194.897	6.66
195.116	78.33
195.335	33.28
195.555	80.38
195.774	25.09
195.993	31.23
196.212	6.66
196.432	6.66
196.651	-65.02
196.87	33.28
197.089	113.15
197.308	72.19
197.528	0.51
197.747	-48.64
197.966	14.85
198.185	82.43
198.404	-17.92
198.623	59.9
198.842	43.52
199.062	107.01
199.281	68.09
199.5	-34.3
199.719	125.44
199.938	-34.3
200.157	90.62
200.376	80.38
200.595	31.23
200.814	-30.21
201.033	-15.87
201.252	100.86
201.471	55.81
201.69	35.33
201.909	29.18
202.128	14.85
202.347	72.19
202.566	43.52
202.785	33.28
203.004	-11.78
203.223	133.63
203.442	33.28
203.661	0.51
203.879	68.09
204.098	72.19
204.317	33.28
204.536	121.34
204.755	-46.59
204.974	55.81
205.193	20.99
205.411	145.92
205.63	39.42
205.849	41.47
206.068	16.9
206.287	31.23
206.505	74.24
206.724	55.81
206.943	47.62
207.162	35.33
207.381	23.04
207.599	-56.83
207.818	25.09
208.037	47.62
208.255	27.14
208.474	29.18
208.693	14.85
208.911	6.66
209.13	64
209.349	43.52
209.567	88.57
209.786	76.29
210.005	113.15
210.223	76.29
210.442	-17.92
210.661	-22.02
210.879	25.09
211.098	10.75
211.316	55.81
211.535	70.14
211.753	-22.02
211.972	23.04
212.191	43.52
212.409	55.81
212.628	-32.26
212.846	-7.68
213.065	18.94
213.283	84.48
213.502	16.9
213.72	-48.64
213.938	88.57
214.157	-34.3
214.375	14.85
214.594	-11.78
214.812	55.81
215.031	51.71
215.249	23.04
215.467	43.52
215.686	6.66
215.904	98.81
216.122	104.96
216.341	47.62
216.559	39.42
216.778	107.01
216.996	55.81
217.214	-1.54
217.432	55.81
217.651	2.56
217.869	-22.02
218.087	80.38
218.306	-13.82
218.524	57.86
218.742	68.09
218.96	16.9
219.179	16.9
219.397	23.04
219.615	43.52
219.833	-1.54
220.051	51.71
220.27	72.19
220.488	39.42
220.706	107.01
220.924	10.75
221.142	-26.11
221.36	96.77
221.578	47.62
221.796	74.24
222.015	123.39
222.233	25.09
222.451	96.77
222.669	84.48
222.887	-7.68
223.105	-56.83
223.323	-9.73
223.541	-11.78
223.759	78.33
223.977	-7.68
224.195	141.82
224.413	96.77
224.631	57.86
224.849	33.28
225.067	76.29
225.285	33.28
225.503	88.57
225.721	8.7
225.939	117.25
226.157	55.81
226.375	98.81
226.592	20.99
226.81	55.81
227.028	27.14
227.246	170.49
227.464	-1.54
227.682	59.9
227.9	16.9
228.117	57.86
228.335	43.52
228.553	8.7
228.771	100.86
228.989	16.9
229.206	47.62
229.424	64
229.642	2.56
229.86	-50.69
230.077	59.9
230.295	-46.59
230.513	23.04
230.731	33.28
230.948	55.81
231.166	47.62
231.384	-48.64
231.601	64
231.819	8.7
232.037	14.85
232.254	-34.3
232.472	57.86
232.689	6.66
232.907	92.67
233.125	14.85
233.342	64
233.56	55.81
233.777	47.62
233.995	33.28
234.213	31.23
234.43	27.14
234.648	25.09
234.865	10.75
235.083	49.66
235.3	39.42
235.518	92.67
235.735	4.61
235.953	88.57
236.17	16.9
236.388	33.28
236.605	33.28
236.822	-1.54
237.04	61.95
237.257	88.57
237.475	41.47
237.692	31.23
237.909	-32.26
238.127	2.56
238.344	80.38
238.562	115.2
238.779	-1.54
238.996	14.85
239.214	14.85
239.431	16.9
239.648	31.23
239.865	39.42
240.083	80.38
240.3	66.05
240.517	80.38
240.735	-7.68
240.952	117.25
241.169	61.95
241.386	39.42
241.603	-30.21
241.821	115.2
242.038	51.71
242.255	64
242.472	-65.02
242.689	86.53
242.907	55.81
243.124	-32.26
243.341	66.05
243.558	2.56
243.775	6.66
243.992	76.29
244.209	39.42
244.426	121.34
244.643	61.95
244.86	72.19
245.078	64
245.295	-42.5
245.512	55.81
245.729	-7.68
245.946	16.9
246.163	14.85
246.38	14.85
246.597	39.42
246.814	39.42
247.031	113.15
247.248	33.28
247.464	96.77
247.681	8.7
247.898	41.47
248.115	49.66
248.332	8.7
248.549	49.66
248.766	125.44
248.983	49.66
249.2	76.29
249.417	80.38
249.633	51.71
249.85	72.19
250.067	53.76
250.284	-26.11
250.501	88.57
250.717	27.14
250.934	61.95
251.151	84.48
251.368	35.33
251.585	80.38
251.801	-50.69
252.018	16.9
252.235	80.38
252.451	47.62
252.668	10.75
252.885	121.34
253.102	127.49
253.318	31.23
253.535	-1.54
253.752	14.85
253.968	47.62
254.185	-15.87
254.401	41.47
254.618	23.04
254.835	64
255.051	113.15
255.268	31.23
255.484	35.33
255.701	100.86
255.917	96.77
256.134	-71.17
256.351	-50.69
256.567	10.75
256.784	-1.54
257	-30.21
257.217	55.81
257.433	61.95
257.65	-32.26
257.866	74.24
258.082	92.67
258.299	33.28
258.515	12.8
258.732	41.47
258.948	23.04
259.165	55.81
259.381	59.9
259.597	80.38
259.814	39.42
260.03	14.85
260.246	14.85
260.463	8.7
260.679	147.97
260.895	55.81
261.112	16.9
261.328	90.62
261.544	0.51
261.761	98.81
261.977	35.33
262.193	25.09
262.409	55.81
262.626	57.86
262.842	37.38
263.058	16.9
263.274	66.05
263.49	55.81
263.707	64
263.923	53.76
264.139	-26.11
264.355	49.66
264.571	80.38
264.787	72.19
265.004	72.19
265.22	39.42
265.436	82.43
265.652	53.76
265.868	51.71
266.084	0.51
266.3	72.19
266.516	-7.68
266.732	12.8
266.948	55.81
267.164	33.28
267.38	64
267.596	55.81
267.812	59.9
268.028	96.77
268.244	23.04
268.46	80.38
268.676	31.23
268.892	55.81
269.108	-9.73
269.324	29.18
269.54	20.99
269.756	72.19
269.972	23.04
270.188	29.18
270.403	-36.35
270.619	68.09
270.835	-9.73
271.051	14.85
271.267	57.86
271.483	41.47
271.698	14.85
271.914	18.94
272.13	84.48
272.346	33.28
272.562	31.23
272.777	76.29
272.993	51.71
273.209	39.42
273.425	80.38
273.64	64
273.856	57.86
274.072	64
274.287	49.66
274.503	0.51
274.719	-9.73
274.934	39.42
275.15	14.85
275.366	6.66
275.581	16.9
275.797	6.66
276.012	74.24
276.228	-58.88
276.444	-13.82
276.659	23.04
276.875	-54.78
277.09	39.42
277.306	-38.4
277.521	107.01
277.737	6.66
277.952	14.85
278.168	64
278.383	84.48
278.599	55.81
278.814	33.28
279.03	16.9
279.245	43.52
279.461	-42.5
279.676	88.57
279.892	-9.73
280.107	-15.87
280.322	51.71
280.538	41.47
280.753	55.81
280.969	90.62
281.184	88.57
281.399	84.48
281.615	14.85
281.83	43.52
282.045	31.23
282.26	16.9
282.476	51.71
282.691	92.67
282.906	-24.06
283.122	-9.73
283.337	-3.58
283.552	39.42
283.767	55.81
283.983	0.51
284.198	6.66
284.413	16.9
284.628	-26.11
284.843	31.23
285.058	66.05
285.274	25.09
285.489	2.56
285.704	-9.73
285.919	0.51
286.134	14.85
286.349	47.62
286.564	10.75
286.779	98.81
286.995	23.04
287.21	-3.58
287.425	59.9
287.64	43.52
287.855	2.56
288.07	-7.68
288.285	47.62
288.5	33.28
288.715	35.33
288.93	64
289.145	51.71
289.36	39.42
289.575	47.62
289.79	129.53
290.004	33.28
290.219	82.43
290.434	-17.92
290.649	35.33
290.864	133.63
291.079	39.42
291.294	131.58
291.509	-3.58
291.724	23.04
291.938	-40.45
292.153	39.42
292.368	45.57
292.583	33.28
292.798	57.86
293.012	2.56
293.227	23.04
293.442	72.19
293.657	47.62
293.871	98.81
294.086	-13.82
294.301	88.57
294.516	64
294.73	16.9
294.945	-15.87
295.16	47.62
295.374	41.47
295.589	47.62
295.804	49.66
296.018	47.62
296.233	143.87
296.447	64
296.662	-54.78
296.877	47.62
297.091	-30.21
297.306	78.33
297.52	-5.63
297.735	20.99
297.949	84.48
298.164	59.9
298.378	59.9
298.593	-36.35
298.807	0.51
299.022	80.38
299.236	64
299.451	100.86
299.665	-11.78
299.88	84.48
300.094	39.42
300.309	6.66
300.523	39.42
300.737	59.9
300.952	31.23
301.166	-26.11
301.381	-1.54
301.595	18.94
301.809	6.66
302.024	47.62
302.238	31.23
302.452	68.09
302.667	53.76
302.881	88.57
303.095	70.14
303.309	78.33
303.524	33.28
303.738	49.66
303.952	16.9
304.166	20.99
304.381	-17.92
304.595	113.15
304.809	-26.11
305.023	68.09
305.237	10.75
305.452	18.94
305.666	6.66
305.88	16.9
306.094	-7.68
306.308	55.81
306.522	84.48
306.736	55.81
306.95	57.86
307.164	49.66
307.379	-1.54
307.593	31.23
307.807	57.86
308.021	31.23
308.235	76.29
308.449	-24.06
308.663	-22.02
308.877	33.28
309.091	4.61
309.305	35.33
309.519	18.94
309.733	45.57
309.947	39.42
310.161	72.19
310.374	49.66
310.588	55.81
310.802	104.96
311.016	-9.73
311.23	64
311.444	6.66
311.658	96.77
311.872	131.58
312.085	27.14
312.299	49.66
312.513	57.86
312.727	25.09
312.941	-30.21
313.154	64
313.368	35.33
313.582	88.57
313.796	33.28
314.009	43.52
314.223	137.73
314.437	68.09
314.651	98.81
314.864	-15.87
315.078	64
315.292	98.81
315.505	-5.63
315.719	23.04
315.933	18.94
316.146	-3.58
316.36	47.62
316.573	100.86
316.787	49.66
317.001	117.25
317.214	16.9
317.428	43.52
317.641	16.9
317.855	96.77
318.068	57.86
318.282	47.62
318.495	115.2
318.709	86.53
318.922	96.77
319.136	82.43
319.349	96.77
319.563	0.51
319.776	68.09
319.99	2.56
320.203	27.14
320.417	6.66
320.63	33.28
320.843	158.21
321.057	64
321.27	0.51
321.483	82.43
321.697	154.11
321.91	51.71
322.124	23.04
322.337	10.75
322.55	82.43
322.763	-15.87
322.977	68.09
323.19	-38.4
323.403	41.47
323.617	20.99
323.83	104.96
324.043	-17.92
324.256	68.09
324.469	27.14
324.683	68.09
324.896	57.86
325.109	82.43
325.322	8.7
325.535	86.53
325.748	72.19
325.962	0.51
326.175	80.38
326.388	47.62
326.601	104.96
326.814	-22.02
327.027	61.95
327.24	115.2
327.453	82.43
327.666	121.34
327.879	90.62
328.092	74.24
328.305	49.66
328.518	45.57
328.731	23.04
328.944	31.23
329.157	23.04
329.37	39.42
329.583	82.43
329.796	76.29
330.009	88.57
330.222	64
330.435	80.38
330.648	57.86
330.861	55.81
331.073	10.75
331.286	150.01
331.499	14.85
331.712	57.86
331.925	29.18
332.138	57.86
332.35	51.71
332.563	-15.87
332.776	135.68
332.989	-3.58
333.202	31.23
333.414	74.24
333.627	82.43
333.84	41.47
334.053	-22.02
334.265	55.81
334.478	-26.11
334.691	61.95
334.903	64
335.116	43.52
335.329	12.8
335.541	-9.73
335.754	68.09
335.966	51.71
336.179	31.23
336.392	33.28
336.604	88.57
336.817	51.71
337.029	72.19
337.242	82.43
337.454	104.96
337.667	12.8
337.88	70.14
338.092	92.67
338.305	47.62
338.517	47.62
338.729	78.33
338.942	88.57
339.154	33.28
339.367	-79.36
339.579	55.81
339.792	57.86
340.004	41.47
340.217	80.38
340.429	74.24
340.641	16.9
340.854	-1.54
341.066	33.28
341.278	39.42
341.491	39.42
341.703	-3.58
341.915	-34.3
342.128	66.05
342.34	92.67
342.552	23.04
342.764	-1.54
342.977	27.14
343.189	72.19
343.401	88.57
343.613	8.7
343.826	57.86
344.038	10.75
344.25	121.34
344.462	57.86
344.674	57.86
344.886	70.14
345.099	-5.63
345.311	84.48
345.523	10.75
345.735	-9.73
345.947	96.77
346.159	10.75
346.371	-13.82
346.583	-40.45
346.795	172.54
347.007	92.67
347.219	64
347.431	53.76
347.643	92.67
347.855	8.7
348.067	51.71
348.279	33.28
348.491	88.57
348.703	43.52
348.915	8.7
349.127	35.33
349.339	35.33
349.551	41.47
349.763	41.47
349.975	6.66
350.187	143.87
350.399	16.9
350.61	100.86
350.822	64
351.034	96.77
351.246	39.42
351.458	82.43
351.669	-5.63
351.881	88.57
352.093	92.67
352.305	82.43
352.517	72.19
352.728	55.81
352.94	31.23
353.152	43.52
353.363	25.09
353.575	39.42
353.787	76.29
353.999	107.01
354.21	82.43
354.422	39.42
354.633	-26.11
354.845	14.85
355.057	37.38
355.268	76.29
355.48	23.04
355.692	-46.59
355.903	8.7
356.115	31.23
356.326	41.47
356.538	96.77
356.749	18.94
356.961	107.01
357.172	31.23
357.384	-13.82
357.595	109.05
357.807	-38.4
358.018	72.19
358.23	-9.73
358.441	141.82
358.653	47.62
358.864	-28.16
359.075	111.1
359.287	14.85
359.498	-3.58
359.709	18.94
359.921	84.48
360.132	100.86
360.344	74.24
360.555	-38.4
360.766	109.05
360.977	18.94
361.189	39.42
361.4	94.72
361.611	23.04
361.823	107.01
362.034	55.81
362.245	-1.54
362.456	31.23
362.667	86.53
362.879	6.66
363.09	51.71
363.301	131.58
363.512	47.62
363.723	-1.54
363.935	31.23
364.146	35.33
364.357	76.29
364.568	37.38
364.779	16.9
364.99	74.24
365.201	47.62
365.412	37.38
365.623	31.23
365.834	59.9
366.045	64
366.256	59.9
366.467	74.24
366.678	92.67
366.889	100.86
367.1	14.85
367.311	121.34
367.522	-9.73
367.733	82.43
367.944	72.19
368.155	23.04
368.366	59.9
368.577	49.66
368.788	72.19
368.999	-15.87
369.209	68.09
369.42	57.86
369.631	133.63
369.842	31.23
370.053	-17.92
370.264	80.38
370.474	2.56
370.685	96.77
370.896	102.91
371.107	74.24
371.317	139.77
371.528	53.76
371.739	80.38
371.95	76.29
372.16	113.15
372.371	23.04
372.582	23.04
372.792	84.48
373.003	55.81
373.214	49.66
373.424	72.19
373.635	-9.73
373.846	90.62
374.056	18.94
374.267	121.34
374.477	43.52
374.688	74.24
374.898	88.57
375.109	41.47
375.319	88.57
375.53	14.85
375.74	123.39
375.951	-19.97
376.161	2.56
376.372	66.05
376.582	41.47
376.793	80.38
377.003	33.28
377.214	4.61
377.424	86.53
377.635	70.14
377.845	39.42
378.055	59.9
378.266	72.19
378.476	74.24
378.686	47.62
378.897	66.05
379.107	145.92
379.317	6.66
379.528	55.81
379.738	121.34
379.948	49.66
380.158	55.81
380.369	55.81
380.579	23.04
380.789	129.53
380.999	4.61
381.21	121.34
381.42	96.77
381.63	10.75
381.84	31.23
382.05	29.18
382.261	84.48
382.471	154.11
382.681	-22.02
382.891	98.81
383.101	64
383.311	-1.54
383.521	113.15
383.731	98.81
383.941	90.62
384.151	39.42
384.361	100.86
384.571	100.86
384.781	86.53
384.991	59.9
385.201	123.39
385.411	33.28
385.621	88.57
385.831	88.57
386.041	55.81
386.251	18.94
386.461	115.2
386.671	35.33
386.881	113.15
387.091	68.09
387.301	100.86
387.511	29.18
387.72	53.76
387.93	43.52
388.14	45.57
388.35	96.77
388.56	55.81
388.769	109.05
388.979	47.62
389.189	70.14
389.399	53.76
389.609	96.77
389.818	41.47
390.028	88.57
390.238	39.42
390.447	64
390.657	88.57
390.867	47.62
391.076	61.95
391.286	76.29
391.496	70.14
391.705	55.81
391.915	96.77
392.125	133.63
392.334	47.62
392.544	190.97
392.753	8.7
392.963	59.9
393.172	39.42
393.382	23.04
393.591	137.73
393.801	55.81
394.01	178.69
394.22	49.66
394.429	86.53
394.639	18.94
394.848	111.1
395.058	64
395.267	176.64
395.477	100.86
395.686	147.97
395.895	197.12
396.105	209.4
396.314	61.95
396.524	55.81
396.733	109.05
396.942	88.57
397.152	150.01
397.361	172.54
397.57	111.1
397.78	111.1
397.989	115.2
398.198	201.21
398.407	86.53
398.617	154.11
398.826	107.01
399.035	66.05
399.244	104.96
399.453	49.66
399.663	111.1
399.872	174.59
400.081	35.33
400.29	141.82
400.499	100.86
400.708	233.98
400.917	96.77
401.127	88.57
401.336	129.53
401.545	133.63
401.754	190.97
401.963	236.03
402.172	133.63
402.381	39.42
402.59	109.05
402.799	98.81
403.008	195.07
403.217	109.05
403.426	164.35
403.635	113.15
403.844	129.53
404.053	174.59
404.262	170.49
404.471	211.45
404.68	121.34
404.888	215.55
405.097	145.92
405.306	176.64
405.515	129.53
405.724	223.74
405.933	209.4
406.142	219.64
406.35	186.88
406.559	203.26
406.768	172.54
406.977	236.03
407.185	205.31
407.394	186.88
407.603	195.07
407.812	258.56
408.02	219.64
408.229	256.51
408.438	193.02
408.646	154.11
408.855	170.49
409.064	221.69
409.272	270.84
409.481	326.14
409.69	215.55
409.898	260.6
410.107	303.61
410.315	264.7
410.524	356.86
410.733	367.1
410.941	397.82
411.15	375.29
411.358	494.07
411.567	434.68
411.775	408.06
411.984	414.2
412.192	426.49
412.401	473.59
412.609	467.45
412.818	502.26
413.026	420.35
413.234	539.13
413.443	557.56
413.651	557.56
413.86	565.75
414.068	506.36
414.276	672.25
414.485	629.24
414.693	698.87
414.901	684.53
415.11	686.58
415.318	764.4
415.526	797.17
415.734	727.54
415.943	764.4
416.151	842.23
416.359	852.47
416.567	909.81
416.776	889.33
416.984	991.73
417.192	883.19
417.4	973.3
417.608	1059.31
417.817	1065.46
418.025	1176.05
418.233	1137.13
418.441	1096.18
418.649	1145.33
418.857	1294.83
419.065	1319.4
419.273	1360.36
419.481	1335.79
419.689	1440.23
419.897	1526.25
420.105	1534.44
420.313	1585.64
420.521	1665.51
420.729	1704.42
420.937	1589.74
421.145	1726.95
421.353	1808.87
421.561	1935.84
421.769	1884.64
421.977	2148.83
422.185	2071.01
422.393	2189.79
422.601	2265.57
422.809	2259.42
423.017	2292.19
423.224	2386.4
423.432	2464.22
423.64	2566.62
423.848	2779.61
424.056	2800.09
424.263	2882
424.471	2816.47
424.679	3013.07
424.887	3006.93
425.094	3250.64
425.302	3234.25
425.51	3228.11
425.718	3406.28
425.925	3424.72
426.133	3684.81
426.341	3717.58
426.548	3897.8
426.756	3889.6
426.964	3899.84
427.171	4180.42
427.379	4411.84
427.586	4444.6
427.794	4446.65
428.001	4886.97
428.209	4796.85
428.417	4864.44
428.624	5214.64
428.832	4936.12
429.039	5138.87
429.247	5046.71
429.454	5644.71
429.662	6171.04
429.869	5454.25
430.076	6015.4
430.284	5749.16
430.491	6007.2
430.699	6269.34
430.906	6330.78
431.114	6480.29
431.321	6730.14
431.528	6955.41
431.736	7149.97
431.943	7311.76
432.15	7401.87
432.358	7233.94
432.565	7856.52
432.772	7977.35
432.979	7954.82
433.187	8487.29
433.394	8509.82
433.601	8935.8
433.808	9034.1
434.016	9040.25
434.223	9263.47
434.43	9738.6
434.637	9505.13
434.844	10357.09
435.052	10248.55
435.259	10199.4
435.466	10514.78
435.673	10330.47
435.88	10926.43
436.087	11710.8
436.294	11426.13
436.501	11336.02
436.708	11622.73
436.915	11897.16
437.122	12147.01
437.329	12288.32
437.537	12978.49
437.743	12978.49
437.95	12925.24
438.157	13822.25
438.364	14059.82
438.571	14108.97
438.778	14117.16
438.985	15288.6
439.192	14792.99
439.399	15321.37
439.606	14815.52
439.813	15864.08
440.02	16505.09
440.227	16490.76
440.433	16161.03
440.64	16646.4
440.847	16539.91
441.054	16881.92
441.261	17856.75
441.467	18006.25
441.674	18327.78
441.881	18993.37
442.088	18989.28
442.294	18471.14
442.501	19060.96
442.708	19550.42
442.914	19955.92
443.121	20938.94
443.328	20308.17
443.534	21969.07
443.741	21381.31
443.948	20791.49
444.154	22497.45
444.361	22661.29
444.568	22231.21
444.774	22159.53
444.981	23005.34
445.187	23218.33
445.394	24576.14
445.6	24164.5
445.807	26577
446.013	25411.71
446.22	25557.11
446.426	26912.87
446.633	27080.8
446.839	27885.65
447.046	26683.5
447.252	28448.85
447.459	28373.07
447.665	28051.54
447.871	29251.65
448.078	30586.93
448.284	29235.27
448.491	29780.03
448.697	30904.36
448.903	31797.27
449.11	31787.03
449.316	31170.6
449.522	32163.86
449.728	32589.84
449.935	32972.81
450.141	32847.88
450.347	33341.44
450.553	32663.57
450.76	32819.21
450.966	33961.98
451.172	33714.17
451.378	34471.92
451.584	33894.39
451.791	34549.74
451.997	34539.5
452.203	34836.46
452.409	35379.17
452.615	34856.94
452.821	33640.45
453.027	33267.72
453.233	35190.76
453.44	33411.07
453.646	33787.9
453.852	33912.83
454.058	34650.1
454.264	33490.94
454.47	34320.37
454.676	33511.42
454.882	34324.47
455.088	31668.25
455.294	31895.58
455.5	32231.44
455.705	32618.51
455.911	31578.14
456.117	31010.85
456.323	30476.33
456.529	28553.29
456.735	29978.68
456.941	28991.56
457.147	28694.6
457.352	27787.35
457.558	27564.12
457.764	27781.21
457.97	27297.89
458.176	26630.25
458.381	26310.77
458.587	25036.93
458.793	25141.38
458.999	23939.22
459.204	25415.8
459.41	24600.71
459.616	23107.74
459.821	23216.29
460.027	23310.49
460.233	22476.97
460.438	21471.42
460.644	21719.22
460.85	20709.57
461.055	20353.23
461.261	20170.96
461.466	18540.77
461.672	17993.97
461.878	19605.72
462.083	18061.55
462.289	17615.09
462.494	17783.02
462.7	16673.03
462.905	16462.08
463.111	16652.55
463.316	16982.27
463.522	16460.04
463.727	16580.87
463.932	16443.65
464.138	16572.68
464.343	16294.15
464.549	16058.63
464.754	16400.65
464.959	16343.3
465.165	16107.79
465.37	15560.98
465.575	15071.51
465.781	15628.56
465.986	15681.81
466.191	15339.8
466.397	14960.92
466.602	14027.05
466.807	14692.64
467.012	14758.17
467.218	14573.86
467.423	14407.97
467.628	14522.66
467.833	14778.65
468.038	14426.4
468.244	14129.45
