Data from USB4F104151__40__14-29-48-360.txt Node

Date: Thu Mar 13 14:29:48 EDT 2025
User: louis
Spectrometer: USB4F10415
Trigger mode: 4
Integration Time (sec): 2.500000E-2
Scans to average: 1
Electric dark correction enabled: true
Nonlinearity correction enabled: false
Boxcar width: 0
XAxis mode: Wavelengths
Number of Pixels in Spectrum: 3648
>>>>>Begin Spectral Data<<<<<
178.204	-57.34
178.424	-57.34
178.644	-57.34
178.864	-129.02
179.084	-180.22
179.304	-20.48
179.524	34.82
179.744	-26.62
179.964	108.54
180.184	-18.43
180.404	6.14
180.624	-36.86
180.844	12.29
181.064	-34.82
181.283	-6.14
181.503	16.38
181.723	-34.82
181.943	-61.44
182.163	59.39
182.383	45.06
182.602	26.62
182.822	131.07
183.042	55.3
183.262	-38.91
183.482	30.72
183.701	30.72
183.921	-38.91
184.141	-10.24
184.361	26.62
184.58	67.58
184.8	71.68
185.02	0
185.239	34.82
185.459	55.3
185.679	26.62
185.898	100.35
186.118	40.96
186.338	34.82
186.557	-6.14
186.777	-4.1
186.997	47.1
187.216	-12.29
187.436	96.25
187.655	71.68
187.875	12.29
188.095	75.77
188.314	83.97
188.534	116.73
188.753	49.15
188.973	77.82
189.192	96.25
189.412	43.01
189.631	53.25
189.851	-18.43
190.07	92.16
190.29	-14.34
190.509	26.62
190.729	2.05
190.948	61.44
191.168	223.23
191.387	45.06
191.607	-6.14
191.826	63.49
192.045	53.25
192.265	-14.34
192.484	-6.14
192.704	14.34
192.923	16.38
193.142	61.44
193.362	12.29
193.581	61.44
193.8	71.68
194.02	100.35
194.239	40.96
194.458	-16.38
194.678	26.62
194.897	-26.62
195.116	-6.14
195.335	4.1
195.555	-34.82
195.774	59.39
195.993	90.11
196.212	18.43
196.432	-14.34
196.651	36.86
196.87	98.3
197.089	186.37
197.308	83.97
197.528	83.97
197.747	-22.53
197.966	-2.05
198.185	100.35
198.404	63.49
198.623	104.45
198.842	36.86
199.062	34.82
199.281	100.35
199.5	-57.34
199.719	34.82
199.938	-4.1
200.157	81.92
200.376	77.82
200.595	61.44
200.814	34.82
201.033	26.62
201.252	-6.14
201.471	-12.29
201.69	53.25
201.909	47.1
202.128	-8.19
202.347	114.69
202.566	51.2
202.785	-14.34
203.004	24.58
203.223	59.39
203.442	-28.67
203.661	79.87
203.879	10.24
204.098	116.73
204.317	6.14
204.536	55.3
204.755	20.48
204.974	141.31
205.193	20.48
205.411	100.35
205.63	-28.67
205.849	26.62
206.068	92.16
206.287	4.1
206.505	43.01
206.724	86.01
206.943	-18.43
207.162	14.34
207.381	18.43
207.599	67.58
207.818	45.06
208.037	10.24
208.255	-8.19
208.474	2.05
208.693	22.53
208.911	12.29
209.13	63.49
209.349	-4.1
209.567	6.14
209.786	59.39
210.005	51.2
210.223	45.06
210.442	-51.2
210.661	30.72
210.879	-38.91
211.098	-28.67
211.316	4.1
211.535	43.01
211.753	59.39
211.972	43.01
212.191	102.4
212.409	4.1
212.628	118.78
212.846	59.39
213.065	43.01
213.283	110.59
213.502	20.48
213.72	59.39
213.938	30.72
214.157	6.14
214.375	88.06
214.594	69.63
214.812	12.29
215.031	14.34
215.249	16.38
215.467	2.05
215.686	57.34
215.904	149.5
216.122	63.49
216.341	4.1
216.559	43.01
216.778	67.58
216.996	108.54
217.214	-12.29
217.432	-4.1
217.651	51.2
217.869	69.63
218.087	6.14
218.306	6.14
218.524	26.62
218.742	22.53
218.96	32.77
219.179	63.49
219.397	34.82
219.615	110.59
219.833	28.67
220.051	43.01
220.27	126.97
220.488	71.68
220.706	10.24
220.924	-6.14
221.142	8.19
221.36	102.4
221.578	47.1
221.796	-34.82
222.015	30.72
222.233	24.58
222.451	65.54
222.669	16.38
222.887	36.86
223.105	22.53
223.323	26.62
223.541	151.55
223.759	43.01
223.977	59.39
224.195	81.92
224.413	75.77
224.631	10.24
224.849	75.77
225.067	59.39
225.285	26.62
225.503	43.01
225.721	-4.1
225.939	47.1
226.157	79.87
226.375	100.35
226.592	-22.53
226.81	-24.58
227.028	75.77
227.246	75.77
227.464	71.68
227.682	-2.05
227.9	51.2
228.117	6.14
228.335	12.29
228.553	24.58
228.771	26.62
228.989	83.97
229.206	-10.24
229.424	-2.05
229.642	4.1
229.86	-24.58
230.077	102.4
230.295	26.62
230.513	61.44
230.731	122.88
230.948	55.3
231.166	43.01
231.384	-16.38
231.601	49.15
231.819	92.16
232.037	-34.82
232.254	-28.67
232.472	47.1
232.689	-45.06
232.907	43.01
233.125	26.62
233.342	6.14
233.56	22.53
233.777	22.53
233.995	-14.34
234.213	59.39
234.43	51.2
234.648	-10.24
234.865	69.63
235.083	94.21
235.3	-20.48
235.518	92.16
235.735	94.21
235.953	59.39
236.17	47.1
236.388	12.29
236.605	71.68
236.822	-4.1
237.04	110.59
237.257	45.06
237.475	-45.06
237.692	38.91
237.909	59.39
238.127	-12.29
238.344	59.39
238.562	40.96
238.779	-28.67
238.996	28.67
239.214	-4.1
239.431	30.72
239.648	51.2
239.865	100.35
240.083	98.3
240.3	30.72
240.517	10.24
240.735	-34.82
240.952	-10.24
241.169	51.2
241.386	34.82
241.603	18.43
241.821	34.82
242.038	30.72
242.255	30.72
242.472	34.82
242.689	38.91
242.907	51.2
243.124	-26.62
243.341	22.53
243.558	10.24
243.775	-2.05
243.992	-49.15
244.209	2.05
244.426	126.97
244.643	135.17
244.86	16.38
245.078	18.43
245.295	12.29
245.512	40.96
245.729	51.2
245.946	51.2
246.163	34.82
246.38	26.62
246.597	61.44
246.814	22.53
247.031	22.53
247.248	69.63
247.464	34.82
247.681	63.49
247.898	24.58
248.115	102.4
248.332	0
248.549	18.43
248.766	45.06
248.983	12.29
249.2	26.62
249.417	59.39
249.633	-6.14
249.85	10.24
250.067	51.2
250.284	36.86
250.501	43.01
250.717	36.86
250.934	-6.14
251.151	43.01
251.368	40.96
251.585	96.25
251.801	51.2
252.018	116.73
252.235	34.82
252.451	18.43
252.668	2.05
252.885	55.3
253.102	10.24
253.318	-4.1
253.535	94.21
253.752	18.43
253.968	-47.1
254.185	47.1
254.401	47.1
254.618	34.82
254.835	55.3
255.051	45.06
255.268	67.58
255.484	-8.19
255.701	57.34
255.917	69.63
256.134	69.63
256.351	-51.2
256.567	12.29
256.784	53.25
257	2.05
257.217	28.67
257.433	-16.38
257.65	151.55
257.866	26.62
258.082	51.2
258.299	51.2
258.515	38.91
258.732	22.53
258.948	-22.53
259.165	47.1
259.381	28.67
259.597	-6.14
259.814	22.53
260.03	26.62
260.246	47.1
260.463	114.69
260.679	53.25
260.895	69.63
261.112	100.35
261.328	10.24
261.544	47.1
261.761	124.93
261.977	92.16
262.193	-6.14
262.409	30.72
262.626	18.43
262.842	81.92
263.058	14.34
263.274	36.86
263.49	24.58
263.707	88.06
263.923	36.86
264.139	-22.53
264.355	18.43
264.571	92.16
264.787	30.72
265.004	28.67
265.22	77.82
265.436	63.49
265.652	43.01
265.868	18.43
266.084	6.14
266.3	83.97
266.516	38.91
266.732	108.54
266.948	38.91
267.164	75.77
267.38	10.24
267.596	4.1
267.812	104.45
268.028	59.39
268.244	-38.91
268.46	59.39
268.676	30.72
268.892	71.68
269.108	28.67
269.324	-12.29
269.54	14.34
269.756	92.16
269.972	26.62
270.188	30.72
270.403	20.48
270.619	124.93
270.835	-2.05
271.051	32.77
271.267	34.82
271.483	4.1
271.698	108.54
271.914	67.58
272.13	14.34
272.346	38.91
272.562	28.67
272.777	26.62
272.993	12.29
273.209	75.77
273.425	36.86
273.64	-6.14
273.856	65.54
274.072	34.82
274.287	47.1
274.503	18.43
274.719	53.25
274.934	16.38
275.15	69.63
275.366	-2.05
275.581	-20.48
275.797	67.58
276.012	49.15
276.228	34.82
276.444	10.24
276.659	67.58
276.875	20.48
277.09	51.2
277.306	67.58
277.521	88.06
277.737	59.39
277.952	34.82
278.168	133.12
278.383	38.91
278.599	53.25
278.814	28.67
279.03	45.06
279.245	104.45
279.461	-6.14
279.676	-14.34
279.892	6.14
280.107	-6.14
280.322	14.34
280.538	51.2
280.753	40.96
280.969	55.3
281.184	14.34
281.399	63.49
281.615	61.44
281.83	100.35
282.045	-30.72
282.26	45.06
282.476	47.1
282.691	53.25
282.906	36.86
283.122	38.91
283.337	-2.05
283.552	67.58
283.767	6.14
283.983	14.34
284.198	18.43
284.413	67.58
284.628	10.24
284.843	67.58
285.058	22.53
285.274	92.16
285.489	-20.48
285.704	30.72
285.919	-20.48
286.134	28.67
286.349	75.77
286.564	2.05
286.779	94.21
286.995	-36.86
287.21	-6.14
287.425	45.06
287.64	38.91
287.855	51.2
288.07	4.1
288.285	69.63
288.5	86.01
288.715	47.1
288.93	-14.34
289.145	18.43
289.36	92.16
289.575	26.62
289.79	73.73
290.004	10.24
290.219	51.2
290.434	67.58
290.649	-18.43
290.864	38.91
291.079	2.05
291.294	100.35
291.509	120.83
291.724	-63.49
291.938	-6.14
292.153	94.21
292.368	61.44
292.583	-14.34
292.798	-47.1
293.012	67.58
293.227	63.49
293.442	26.62
293.657	18.43
293.871	75.77
294.086	67.58
294.301	92.16
294.516	94.21
294.73	26.62
294.945	10.24
295.16	77.82
295.374	61.44
295.589	96.25
295.804	26.62
296.018	100.35
296.233	20.48
296.447	-30.72
296.662	-12.29
296.877	61.44
297.091	55.3
297.306	61.44
297.52	-6.14
297.735	-43.01
297.949	63.49
298.164	102.4
298.378	32.77
298.593	92.16
298.807	77.82
299.022	22.53
299.236	-22.53
299.451	86.01
299.665	30.72
299.88	77.82
300.094	20.48
300.309	53.25
300.523	63.49
300.737	102.4
300.952	-24.58
301.166	-6.14
301.381	8.19
301.595	61.44
301.809	26.62
302.024	6.14
302.238	-43.01
302.452	149.5
302.667	26.62
302.881	-2.05
303.095	110.59
303.309	67.58
303.524	32.77
303.738	79.87
303.952	-12.29
304.166	83.97
304.381	-49.15
304.595	55.3
304.809	-47.1
305.023	20.48
305.237	-4.1
305.452	-55.3
305.666	55.3
305.88	88.06
306.094	83.97
306.308	59.39
306.522	75.77
306.736	157.69
306.95	112.64
307.164	63.49
307.379	12.29
307.593	69.63
307.807	38.91
308.021	90.11
308.235	108.54
308.449	-2.05
308.663	36.86
308.877	133.12
309.091	-12.29
309.305	79.87
309.519	-34.82
309.733	12.29
309.947	-45.06
310.161	51.2
310.374	20.48
310.588	124.93
310.802	-67.58
311.016	28.67
311.23	47.1
311.444	10.24
311.658	73.73
311.872	36.86
312.085	51.2
312.299	59.39
312.513	106.49
312.727	83.97
312.941	-2.05
313.154	61.44
313.368	43.01
313.582	43.01
313.796	22.53
314.009	57.34
314.223	18.43
314.437	32.77
314.651	30.72
314.864	10.24
315.078	51.2
315.292	-55.3
315.505	59.39
315.719	75.77
315.933	18.43
316.146	-10.24
316.36	-26.62
316.573	88.06
316.787	67.58
317.001	14.34
317.214	73.73
317.428	38.91
317.641	14.34
317.855	34.82
318.068	14.34
318.282	43.01
318.495	69.63
318.709	36.86
318.922	-2.05
319.136	108.54
319.349	67.58
319.563	47.1
319.776	108.54
319.99	-55.3
320.203	-6.14
320.417	83.97
320.63	63.49
320.843	141.31
321.057	8.19
321.27	65.54
321.483	28.67
321.697	26.62
321.91	81.92
322.124	8.19
322.337	55.3
322.55	43.01
322.763	49.15
322.977	-14.34
323.19	59.39
323.403	67.58
323.617	63.49
323.83	36.86
324.043	-51.2
324.256	77.82
324.469	36.86
324.683	94.21
324.896	24.58
325.109	30.72
325.322	51.2
325.535	-2.05
325.748	43.01
325.962	75.77
326.175	71.68
326.388	47.1
326.601	69.63
326.814	2.05
327.027	79.87
327.24	71.68
327.453	-10.24
327.666	45.06
327.879	88.06
328.092	57.34
328.305	102.4
328.518	-2.05
328.731	34.82
328.944	16.38
329.157	43.01
329.37	14.34
329.583	100.35
329.796	131.07
330.009	22.53
330.222	108.54
330.435	24.58
330.648	-12.29
330.861	-38.91
331.073	10.24
331.286	100.35
331.499	45.06
331.712	6.14
331.925	45.06
332.138	28.67
332.35	61.44
332.563	2.05
332.776	67.58
332.989	77.82
333.202	30.72
333.414	-43.01
333.627	43.01
333.84	-10.24
334.053	71.68
334.265	32.77
334.478	32.77
334.691	26.62
334.903	34.82
335.116	10.24
335.329	34.82
335.541	94.21
335.754	118.78
335.966	-26.62
336.179	67.58
336.392	20.48
336.604	-18.43
336.817	126.97
337.029	47.1
337.242	38.91
337.454	59.39
337.667	18.43
337.88	67.58
338.092	10.24
338.305	51.2
338.517	6.14
338.729	20.48
338.942	110.59
339.154	63.49
339.367	2.05
339.579	63.49
339.792	20.48
340.004	8.19
340.217	2.05
340.429	2.05
340.641	53.25
340.854	92.16
341.066	-55.3
341.278	133.12
341.491	118.78
341.703	79.87
341.915	55.3
342.128	30.72
342.34	59.39
342.552	6.14
342.764	69.63
342.977	26.62
343.189	120.83
343.401	14.34
343.613	57.34
343.826	-34.82
344.038	77.82
344.25	43.01
344.462	69.63
344.674	-22.53
344.886	75.77
345.099	67.58
345.311	55.3
345.523	67.58
345.735	16.38
345.947	83.97
346.159	30.72
346.371	22.53
346.583	26.62
346.795	100.35
347.007	100.35
347.219	108.54
347.431	59.39
347.643	75.77
347.855	-2.05
348.067	83.97
348.279	-28.67
348.491	36.86
348.703	-12.29
348.915	-6.14
349.127	45.06
349.339	161.79
349.551	-45.06
349.763	14.34
349.975	45.06
350.187	59.39
350.399	120.83
350.61	-10.24
350.822	59.39
351.034	92.16
351.246	53.25
351.458	51.2
351.669	20.48
351.881	83.97
352.093	92.16
352.305	100.35
352.517	59.39
352.728	43.01
352.94	28.67
353.152	28.67
353.363	8.19
353.575	118.78
353.787	129.02
353.999	79.87
354.21	112.64
354.422	43.01
354.633	63.49
354.845	28.67
355.057	20.48
355.268	38.91
355.48	75.77
355.692	59.39
355.903	10.24
356.115	26.62
356.326	28.67
356.538	108.54
356.749	65.54
356.961	49.15
357.172	118.78
357.384	26.62
357.595	67.58
357.807	36.86
358.018	38.91
358.23	18.43
358.441	116.73
358.653	28.67
358.864	-10.24
359.075	-14.34
359.287	63.49
359.498	104.45
359.709	116.73
359.921	83.97
360.132	63.49
360.344	81.92
360.555	-51.2
360.766	83.97
360.977	0
361.189	96.25
361.4	51.2
361.611	92.16
361.823	34.82
362.034	47.1
362.245	110.59
362.456	75.77
362.667	90.11
362.879	55.3
363.09	36.86
363.301	94.21
363.512	135.17
363.723	-6.14
363.935	43.01
364.146	53.25
364.357	28.67
364.568	135.17
364.779	16.38
364.99	71.68
365.201	92.16
365.412	51.2
365.623	30.72
365.834	45.06
366.045	-12.29
366.256	12.29
366.467	-28.67
366.678	45.06
366.889	51.2
367.1	36.86
367.311	77.82
367.522	71.68
367.733	75.77
367.944	-6.14
368.155	-12.29
368.366	-18.43
368.577	94.21
368.788	100.35
368.999	-14.34
369.209	20.48
369.42	120.83
369.631	26.62
369.842	61.44
370.053	2.05
370.264	38.91
370.474	20.48
370.685	51.2
370.896	40.96
371.107	69.63
371.317	43.01
371.528	43.01
371.739	124.93
371.95	75.77
372.16	75.77
372.371	6.14
372.582	26.62
372.792	26.62
373.003	-2.05
373.214	88.06
373.424	151.55
373.635	-14.34
373.846	75.77
374.056	24.58
374.267	92.16
374.477	34.82
374.688	-20.48
374.898	88.06
375.109	81.92
375.319	59.39
375.53	83.97
375.74	-6.14
375.951	65.54
376.161	71.68
376.372	86.01
376.582	10.24
376.793	69.63
377.003	36.86
377.214	2.05
377.424	116.73
377.635	75.77
377.845	-30.72
378.055	69.63
378.266	4.1
378.476	-24.58
378.686	81.92
378.897	77.82
379.107	34.82
379.317	2.05
379.528	67.58
379.738	67.58
379.948	92.16
380.158	67.58
380.369	69.63
380.579	59.39
380.789	81.92
380.999	38.91
381.21	20.48
381.42	114.69
381.63	30.72
381.84	53.25
382.05	73.73
382.261	69.63
382.471	16.38
382.681	100.35
382.891	116.73
383.101	104.45
383.311	12.29
383.521	-10.24
383.731	96.25
383.941	30.72
384.151	71.68
384.361	-14.34
384.571	59.39
384.781	24.58
384.991	55.3
385.201	45.06
385.411	59.39
385.621	116.73
385.831	45.06
386.041	59.39
386.251	43.01
386.461	120.83
386.671	14.34
386.881	149.5
387.091	36.86
387.301	88.06
387.511	129.02
387.72	100.35
387.93	122.88
388.14	28.67
388.35	38.91
388.56	79.87
388.769	186.37
388.979	92.16
389.189	47.1
389.399	112.64
389.609	94.21
389.818	55.3
390.028	49.15
390.238	28.67
390.447	-6.14
390.657	118.78
390.867	22.53
391.076	10.24
391.286	133.12
391.496	157.69
391.705	45.06
391.915	116.73
392.125	26.62
392.334	2.05
392.544	167.93
392.753	51.2
392.963	63.49
393.172	118.78
393.382	43.01
393.591	34.82
393.801	94.21
394.01	133.12
394.22	75.77
394.429	75.77
394.639	43.01
394.848	137.21
395.058	67.58
395.267	34.82
395.477	110.59
395.686	51.2
395.895	157.69
396.105	153.6
396.314	47.1
396.524	135.17
396.733	77.82
396.942	100.35
397.152	135.17
397.361	190.46
397.57	75.77
397.78	102.4
397.989	163.84
398.198	157.69
398.407	75.77
398.617	124.93
398.826	92.16
399.035	51.2
399.244	129.02
399.453	110.59
399.663	133.12
399.872	202.75
400.081	88.06
400.29	129.02
400.499	126.97
400.708	139.26
400.917	59.39
401.127	51.2
401.336	155.65
401.545	116.73
401.754	217.08
401.963	176.13
402.172	100.35
402.381	51.2
402.59	102.4
402.799	145.41
403.008	198.65
403.217	86.01
403.426	151.55
403.635	86.01
403.844	200.7
404.053	45.06
404.262	112.64
404.471	198.65
404.68	182.27
404.888	169.98
405.097	178.17
405.306	245.76
405.515	219.13
405.724	204.8
405.933	192.51
406.142	153.6
406.35	237.56
406.559	190.46
406.768	149.5
406.977	264.19
407.185	231.42
407.394	215.04
407.603	184.32
407.812	200.7
408.02	268.28
408.229	305.15
408.438	231.42
408.646	157.69
408.855	274.43
409.064	206.84
409.272	247.8
409.481	331.77
409.69	325.63
409.898	264.19
410.107	317.44
410.315	358.39
410.524	258.04
410.733	378.87
410.941	399.35
411.15	378.87
411.358	444.41
411.567	430.07
411.775	391.16
411.984	378.87
412.192	522.23
412.401	579.58
412.609	477.18
412.818	550.9
413.026	540.66
413.234	479.22
413.443	571.38
413.651	526.33
413.86	651.25
414.068	626.68
414.276	636.92
414.485	665.59
414.693	645.11
414.901	694.26
415.11	698.36
415.318	653.3
415.526	774.13
415.734	849.91
415.943	835.57
416.151	944.11
416.359	813.04
416.567	911.35
416.776	915.44
416.984	989.17
417.192	1038.32
417.4	1050.61
417.608	1095.66
417.817	1062.9
418.025	1181.68
418.233	1265.64
418.441	1148.91
418.649	1247.21
418.857	1329.13
419.065	1380.33
419.273	1394.67
419.481	1370.09
419.689	1529.83
419.897	1634.28
420.105	1570.79
420.313	1601.51
420.521	1740.77
420.729	1757.16
420.937	1781.73
421.145	1794.02
421.353	1816.55
421.561	2017.25
421.769	2060.26
421.977	2170.85
422.185	2150.37
422.393	2297.82
422.601	2361.31
422.809	2492.38
423.017	2414.56
423.224	2486.23
423.432	2641.88
423.64	2549.72
423.848	2850.77
424.056	2811.86
424.263	2977.75
424.471	2879.44
424.679	3000.27
424.887	3114.96
425.094	3258.32
425.302	3364.81
425.51	3364.81
425.718	3545.03
425.925	3581.9
426.133	3682.25
426.341	3860.42
426.548	3993.54
426.756	3989.44
426.964	4097.99
427.171	4437.95
427.379	4370.37
427.586	4634.55
427.794	4644.79
428.001	4982.71
428.209	5064.63
428.417	5105.59
428.624	5328.81
428.832	5341.1
429.039	5158.83
429.247	5310.38
429.454	5711.78
429.662	6221.73
429.869	5828.52
430.076	6184.87
430.284	6041.51
430.491	6244.26
430.699	6545.31
430.906	6668.19
431.114	6567.84
431.321	6836.12
431.528	6930.33
431.736	7534.48
431.943	7931.78
432.15	7620.49
432.358	7708.55
432.565	8112
432.772	8103.81
432.979	8423.3
433.187	8556.41
433.394	8558.46
433.601	9199.48
433.808	9131.89
434.016	9080.69
434.223	9697.13
434.43	10202.98
434.637	10071.91
434.844	10454.88
435.052	10712.92
435.259	10549.09
435.466	10856.28
435.673	10680.16
435.88	11374.42
436.087	11890.51
436.294	11941.71
436.501	11755.34
436.708	11970.38
436.915	12468.03
437.122	13000.51
437.329	12939.07
437.537	13281.08
437.743	13526.83
437.95	13399.86
438.157	14016.3
438.364	14497.57
438.571	14352.16
438.778	14403.36
438.985	15824.65
439.192	15189.78
439.399	15529.75
439.606	15124.25
439.813	16029.45
440.02	17139.45
440.227	16946.94
440.433	16695.04
440.64	17475.32
440.847	17082.11
441.054	17714.93
441.261	18851.55
441.467	18493.16
441.674	18677.47
441.881	19547.86
442.088	19328.73
442.294	19273.43
442.501	19517.14
442.708	20002.51
442.914	20899.52
443.121	21763.76
443.328	20948.67
443.534	22714.02
443.741	22111.92
443.948	21974.7
444.154	23271.07
444.361	23230.11
444.568	23176.86
444.774	23359.13
444.981	23647.9
445.187	24411.79
445.394	25370.24
445.6	24747.65
445.807	27526.75
446.013	26201.71
446.22	26459.76
446.426	27821.66
446.633	27657.82
446.839	28827.21
447.046	27930.2
447.252	29052.48
447.459	29201.99
447.665	29230.66
447.871	30455.34
448.078	31378.98
448.284	30027.32
448.491	30641.71
448.697	31911.45
448.903	32669.2
449.11	32790.03
449.316	32570.9
449.522	32949.77
449.728	33646.08
449.935	33830.4
450.141	34024.95
450.347	34696.69
450.553	33338.88
450.76	33961.47
450.966	34932.2
451.172	34887.15
451.378	35503.59
451.584	34522.61
451.791	35677.66
451.997	35454.43
452.203	35835.36
452.409	36171.22
452.615	35960.28
452.821	34551.28
453.027	33994.23
453.233	36023.77
453.44	34708.97
453.646	34987.5
453.852	34788.85
454.058	35595.74
454.264	34260.47
454.47	35280.36
454.676	34090.49
454.882	35735.01
455.088	32122.39
455.294	32966.15
455.5	33406.47
455.705	33787.39
455.911	32132.63
456.117	31245.86
456.323	31483.42
456.529	29322.82
456.735	30596.65
456.941	29888.06
457.147	29322.82
457.352	28487.25
457.558	28165.71
457.764	28573.26
457.97	27416.16
458.176	27227.74
458.381	27104.87
458.587	25755.25
458.793	25611.9
458.999	24194.7
459.204	26244.72
459.41	25732.73
459.616	23738.01
459.821	23776.92
460.027	23834.26
460.233	22955.68
460.438	22105.77
460.644	22050.48
460.85	21155.52
461.055	20981.44
461.261	20870.85
461.466	19420.89
461.672	18505.45
461.878	20049.61
462.083	18454.25
462.289	18128.62
462.494	17972.97
462.7	17354.49
462.905	16625.41
463.111	17385.21
463.316	17280.76
463.522	17037.05
463.727	16969.47
463.932	17016.57
464.138	16592.64
464.343	16928.51
464.549	16535.3
464.754	17075.96
464.959	16656.13
465.165	16658.18
465.37	15814.41
465.575	15402.77
465.781	16189.19
465.986	16170.76
466.191	15445.78
466.397	15175.45
466.602	14470.95
466.807	14970.65
467.012	15056.67
