Data from USB4F104151__261__14-34-31-705.txt Node

Date: Thu Mar 13 14:34:31 EDT 2025
User: louis
Spectrometer: USB4F10415
Trigger mode: 4
Integration Time (sec): 2.500000E-2
Scans to average: 1
Electric dark correction enabled: true
Nonlinearity correction enabled: false
Boxcar width: 0
XAxis mode: Wavelengths
Number of Pixels in Spectrum: 3648
>>>>>Begin Spectral Data<<<<<
178.204	-104.79
178.424	-104.79
178.644	-104.79
178.864	-217.43
179.084	-170.32
179.304	-51.54
179.524	26.28
179.744	-22.87
179.964	13.99
180.184	42.67
180.404	63.15
180.624	-4.44
180.844	-2.39
181.064	-63.83
181.283	-35.16
181.503	-61.78
181.723	95.91
181.943	-6.49
182.163	32.43
182.383	-2.39
182.602	44.71
182.822	59.05
183.042	42.67
183.262	1.71
183.482	3.75
183.701	-24.92
183.921	-72.02
184.141	61.1
184.361	95.91
184.58	-14.68
184.8	9.9
185.02	34.47
185.239	67.24
185.459	-31.06
185.679	34.47
185.898	26.28
186.118	106.15
186.338	26.28
186.557	44.71
186.777	63.15
186.997	20.14
187.216	42.67
187.436	65.19
187.655	50.86
187.875	69.29
188.095	38.57
188.314	-26.96
188.534	128.68
188.753	50.86
188.973	69.29
189.192	149.16
189.412	59.05
189.631	18.09
189.851	120.49
190.07	116.39
190.29	-39.25
190.509	11.95
190.729	38.57
190.948	52.91
191.168	149.16
191.387	-4.44
191.607	71.34
191.826	-65.88
192.045	26.28
192.265	30.38
192.484	63.15
192.704	30.38
192.923	-96.6
193.142	167.59
193.362	28.33
193.581	89.77
193.8	85.67
194.02	136.87
194.239	75.43
194.458	104.11
194.678	18.09
194.897	-51.54
195.116	16.04
195.335	-22.87
195.555	22.19
195.774	61.1
195.993	63.15
196.212	83.63
196.432	34.47
196.651	20.14
196.87	110.25
197.089	75.43
197.308	22.19
197.528	83.63
197.747	-8.53
197.966	54.95
198.185	124.58
198.404	-22.87
198.623	100.01
198.842	79.53
199.062	83.63
199.281	38.57
199.5	83.63
199.719	26.28
199.938	-2.39
200.157	20.14
200.376	24.23
200.595	50.86
200.814	34.47
201.033	18.09
201.252	169.64
201.471	1.71
201.69	93.87
201.909	20.14
202.128	104.11
202.347	38.57
202.566	-39.25
202.785	-67.92
203.004	-14.68
203.223	108.2
203.442	54.95
203.661	1.71
203.879	11.95
204.098	38.57
204.317	59.05
204.536	38.57
204.755	26.28
204.974	42.67
205.193	69.29
205.411	159.4
205.63	11.95
205.849	-4.44
206.068	24.23
206.287	59.05
206.505	100.01
206.724	1.71
206.943	50.86
207.162	34.47
207.381	79.53
207.599	-39.25
207.818	-18.77
208.037	3.75
208.255	28.33
208.474	81.58
208.693	28.33
208.911	61.1
209.13	26.28
209.349	42.67
209.567	28.33
209.786	118.44
210.005	63.15
210.223	50.86
210.442	-4.44
210.661	145.06
210.879	1.71
211.098	83.63
211.316	42.67
211.535	85.67
211.753	83.63
211.972	69.29
212.191	-22.87
212.409	50.86
212.628	57
212.846	-16.73
213.065	36.52
213.283	22.19
213.502	5.8
213.72	67.24
213.938	16.04
214.157	46.76
214.375	75.43
214.594	44.71
214.812	67.24
215.031	69.29
215.249	34.47
215.467	26.28
215.686	28.33
215.904	13.99
216.122	36.52
216.341	-6.49
216.559	40.62
216.778	59.05
216.996	50.86
217.214	9.9
217.432	-18.77
217.651	-20.82
217.869	5.8
218.087	59.05
218.306	13.99
218.524	110.25
218.742	13.99
218.96	128.68
219.179	46.76
219.397	-14.68
219.615	124.58
219.833	42.67
220.051	9.9
220.27	44.71
220.488	71.34
220.706	26.28
220.924	-0.34
221.142	26.28
221.36	34.47
221.578	26.28
221.796	85.67
222.015	67.24
222.233	24.23
222.451	73.39
222.669	-53.59
222.887	155.3
223.105	-14.68
223.323	26.28
223.541	7.85
223.759	61.1
223.977	11.95
224.195	116.39
224.413	34.47
224.631	-41.3
224.849	5.8
225.067	112.3
225.285	102.06
225.503	24.23
225.721	-55.64
225.939	-14.68
226.157	108.2
226.375	145.06
226.592	28.33
226.81	57
227.028	83.63
227.246	69.29
227.464	3.75
227.682	77.48
227.9	67.24
228.117	32.43
228.335	67.24
228.553	18.09
228.771	34.47
228.989	59.05
229.206	30.38
229.424	-14.68
229.642	-14.68
229.86	38.57
230.077	42.67
230.295	83.63
230.513	42.67
230.731	69.29
230.948	108.2
231.166	63.15
231.384	-14.68
231.601	-2.39
231.819	59.05
232.037	-6.49
232.254	11.95
232.472	18.09
232.689	-63.83
232.907	89.77
233.125	89.77
233.342	26.28
233.56	3.75
233.777	52.91
233.995	30.38
234.213	91.82
234.43	108.2
234.648	44.71
234.865	-4.44
235.083	11.95
235.3	32.43
235.518	85.67
235.735	77.48
235.953	34.47
236.17	69.29
236.388	30.38
236.605	-6.49
236.822	106.15
237.04	42.67
237.257	-2.39
237.475	-14.68
237.692	128.68
237.909	83.63
238.127	-35.16
238.344	71.34
238.562	46.76
238.779	-47.44
238.996	42.67
239.214	-10.58
239.431	69.29
239.648	-72.02
239.865	34.47
240.083	52.91
240.3	-63.83
240.517	52.91
240.735	149.16
240.952	13.99
241.169	30.38
241.386	18.09
241.603	13.99
241.821	108.2
242.038	18.09
242.255	9.9
242.472	-20.82
242.689	11.95
242.907	75.43
243.124	79.53
243.341	3.75
243.558	63.15
243.775	-29.01
243.992	-55.64
244.209	42.67
244.426	91.82
244.643	91.82
244.86	50.86
245.078	20.14
245.295	46.76
245.512	1.71
245.729	75.43
245.946	44.71
246.163	59.05
246.38	-6.49
246.597	-22.87
246.814	95.91
247.031	-14.68
247.248	26.28
247.464	63.15
247.681	40.62
247.898	-53.59
248.115	67.24
248.332	-22.87
248.549	26.28
248.766	91.82
248.983	59.05
249.2	104.11
249.417	100.01
249.633	1.71
249.85	11.95
250.067	63.15
250.284	89.77
250.501	-14.68
250.717	42.67
250.934	11.95
251.151	28.33
251.368	-14.68
251.585	24.23
251.801	108.2
252.018	75.43
252.235	34.47
252.451	28.33
252.668	28.33
252.885	-22.87
253.102	42.67
253.318	100.01
253.535	-39.25
253.752	73.39
253.968	13.99
254.185	11.95
254.401	75.43
254.618	-4.44
254.835	42.67
255.051	108.2
255.268	91.82
255.484	52.91
255.701	-2.39
255.917	97.96
256.134	67.24
256.351	9.9
256.567	18.09
256.784	-0.34
257	-2.39
257.217	24.23
257.433	1.71
257.65	83.63
257.866	93.87
258.082	9.9
258.299	22.19
258.515	18.09
258.732	-18.77
258.948	54.95
259.165	67.24
259.381	9.9
259.597	83.63
259.814	75.43
260.03	3.75
260.246	-31.06
260.463	16.04
260.679	52.91
260.895	22.19
261.112	95.91
261.328	46.76
261.544	52.91
261.761	26.28
261.977	-72.02
262.193	-2.39
262.409	132.78
262.626	20.14
262.842	-6.49
263.058	-18.77
263.274	-8.53
263.49	26.28
263.707	61.1
263.923	42.67
264.139	1.71
264.355	34.47
264.571	110.25
264.787	87.72
265.004	52.91
265.22	34.47
265.436	3.75
265.652	-14.68
265.868	44.71
266.084	48.81
266.3	13.99
266.516	22.19
266.732	1.71
266.948	120.49
267.164	-29.01
267.38	1.71
267.596	-76.12
267.812	91.82
268.028	91.82
268.244	-41.3
268.46	-22.87
268.676	61.1
268.892	32.43
269.108	-2.39
269.324	-12.63
269.54	-29.01
269.756	75.43
269.972	-92.5
270.188	-20.82
270.403	-31.06
270.619	97.96
270.835	36.52
271.051	36.52
271.267	22.19
271.483	16.04
271.698	7.85
271.914	18.09
272.13	-18.77
272.346	-2.39
272.562	13.99
272.777	26.28
272.993	83.63
273.209	7.85
273.425	100.01
273.64	44.71
273.856	65.19
274.072	18.09
274.287	-29.01
274.503	28.33
274.719	75.43
274.934	13.99
275.15	3.75
275.366	50.86
275.581	50.86
275.797	-14.68
276.012	36.52
276.228	-39.25
276.444	-31.06
276.659	165.54
276.875	3.75
277.09	16.04
277.306	20.14
277.521	3.75
277.737	18.09
277.952	93.87
278.168	73.39
278.383	9.9
278.599	42.67
278.814	124.58
279.03	30.38
279.245	18.09
279.461	38.57
279.676	61.1
279.892	79.53
280.107	-14.68
280.322	-12.63
280.538	67.24
280.753	13.99
280.969	124.58
281.184	-12.63
281.399	59.05
281.615	63.15
281.83	42.67
282.045	-10.58
282.26	46.76
282.476	-0.34
282.691	85.67
282.906	59.05
283.122	79.53
283.337	42.67
283.552	85.67
283.767	1.71
283.983	-31.06
284.198	46.76
284.413	26.28
284.628	-31.06
284.843	61.1
285.058	63.15
285.274	-6.49
285.489	-31.06
285.704	110.25
285.919	-14.68
286.134	36.52
286.349	-24.92
286.564	61.1
286.779	46.76
286.995	-35.16
287.21	-20.82
287.425	28.33
287.64	46.76
287.855	1.71
288.07	-61.78
288.285	42.67
288.5	83.63
288.715	34.47
288.93	54.95
289.145	83.63
289.36	18.09
289.575	-14.68
289.79	54.95
290.004	26.28
290.219	18.09
290.434	1.71
290.649	9.9
290.864	-45.4
291.079	9.9
291.294	34.47
291.509	79.53
291.724	34.47
291.938	-31.06
292.153	67.24
292.368	9.9
292.583	22.19
292.798	24.23
293.012	89.77
293.227	46.76
293.442	34.47
293.657	128.68
293.871	124.58
294.086	13.99
294.301	40.62
294.516	26.28
294.73	1.71
294.945	-6.49
295.16	22.19
295.374	102.06
295.589	69.29
295.804	42.67
296.018	54.95
296.233	30.38
296.447	93.87
296.662	-16.73
296.877	118.44
297.091	38.57
297.306	69.29
297.52	-12.63
297.735	83.63
297.949	1.71
298.164	112.3
298.378	112.3
298.593	26.28
298.807	13.99
299.022	18.09
299.236	73.39
299.451	59.05
299.665	-4.44
299.88	34.47
300.094	-2.39
300.309	59.05
300.523	-14.68
300.737	16.04
300.952	69.29
301.166	83.63
301.381	-22.87
301.595	57
301.809	124.58
302.024	67.24
302.238	3.75
302.452	116.39
302.667	40.62
302.881	63.15
303.095	59.05
303.309	69.29
303.524	69.29
303.738	65.19
303.952	50.86
304.166	42.67
304.381	11.95
304.595	36.52
304.809	-16.73
305.023	71.34
305.237	3.75
305.452	-2.39
305.666	42.67
305.88	18.09
306.094	108.2
306.308	-24.92
306.522	87.72
306.736	42.67
306.95	-4.44
307.164	-57.68
307.379	-53.59
307.593	34.47
307.807	50.86
308.021	22.19
308.235	75.43
308.449	-6.49
308.663	44.71
308.877	52.91
309.091	38.57
309.305	116.39
309.519	-14.68
309.733	63.15
309.947	34.47
310.161	108.2
310.374	87.72
310.588	77.48
310.802	-76.12
311.016	3.75
311.23	28.33
311.444	34.47
311.658	3.75
311.872	69.29
312.085	87.72
312.299	28.33
312.513	79.53
312.727	36.52
312.941	42.67
313.154	85.67
313.368	30.38
313.582	34.47
313.796	79.53
314.009	59.05
314.223	75.43
314.437	26.28
314.651	50.86
314.864	50.86
315.078	65.19
315.292	59.05
315.505	50.86
315.719	7.85
315.933	7.85
316.146	57
316.36	-31.06
316.573	69.29
316.787	26.28
317.001	118.44
317.214	20.14
317.428	87.72
317.641	-14.68
317.855	52.91
318.068	38.57
318.282	-63.83
318.495	69.29
318.709	59.05
318.922	-22.87
319.136	67.24
319.349	116.39
319.563	5.8
319.776	69.29
319.99	83.63
320.203	42.67
320.417	30.38
320.63	42.67
320.843	130.73
321.057	9.9
321.27	13.99
321.483	11.95
321.697	173.74
321.91	73.39
322.124	7.85
322.337	102.06
322.55	16.04
322.763	67.24
322.977	42.67
323.19	9.9
323.403	50.86
323.617	22.19
323.83	85.67
324.043	5.8
324.256	13.99
324.469	18.09
324.683	71.34
324.896	69.29
325.109	50.86
325.322	-41.3
325.535	110.25
325.748	20.14
325.962	13.99
326.175	26.28
326.388	18.09
326.601	42.67
326.814	20.14
327.027	48.81
327.24	95.91
327.453	-69.97
327.666	16.04
327.879	42.67
328.092	16.04
328.305	32.43
328.518	44.71
328.731	44.71
328.944	34.47
329.157	63.15
329.37	108.2
329.583	140.97
329.796	140.97
330.009	-4.44
330.222	34.47
330.435	95.91
330.648	77.48
330.861	28.33
331.073	75.43
331.286	102.06
331.499	165.54
331.712	-18.77
331.925	46.76
332.138	48.81
332.35	57
332.563	69.29
332.776	24.23
332.989	36.52
333.202	42.67
333.414	-10.58
333.627	26.28
333.84	16.04
334.053	42.67
334.265	61.1
334.478	110.25
334.691	44.71
334.903	104.11
335.116	34.47
335.329	20.14
335.541	59.05
335.754	110.25
335.966	-22.87
336.179	20.14
336.392	65.19
336.604	-22.87
336.817	100.01
337.029	85.67
337.242	26.28
337.454	91.82
337.667	-12.63
337.88	75.43
338.092	-37.2
338.305	116.39
338.517	13.99
338.729	16.04
338.942	157.35
339.154	-20.82
339.367	-8.53
339.579	75.43
339.792	-6.49
340.004	-6.49
340.217	5.8
340.429	34.47
340.641	83.63
340.854	11.95
341.066	50.86
341.278	102.06
341.491	95.91
341.703	-2.39
341.915	73.39
342.128	91.82
342.34	16.04
342.552	42.67
342.764	50.86
342.977	52.91
343.189	124.58
343.401	26.28
343.613	38.57
343.826	26.28
344.038	1.71
344.25	75.43
344.462	54.95
344.674	18.09
344.886	-31.06
345.099	75.43
345.311	91.82
345.523	22.19
345.735	-59.73
345.947	85.67
346.159	83.63
346.371	95.91
346.583	42.67
346.795	36.52
347.007	30.38
347.219	85.67
347.431	34.47
347.643	83.63
347.855	69.29
348.067	83.63
348.279	-35.16
348.491	67.24
348.703	-22.87
348.915	36.52
349.127	59.05
349.339	50.86
349.551	38.57
349.763	40.62
349.975	32.43
350.187	106.15
350.399	124.58
350.61	104.11
350.822	26.28
351.034	71.34
351.246	69.29
351.458	63.15
351.669	91.82
351.881	57
352.093	67.24
352.305	38.57
352.517	13.99
352.728	102.06
352.94	52.91
353.152	73.39
353.363	5.8
353.575	63.15
353.787	59.05
353.999	20.14
354.21	42.67
354.422	13.99
354.633	63.15
354.845	-35.16
355.057	59.05
355.268	20.14
355.48	40.62
355.692	54.95
355.903	79.53
356.115	44.71
356.326	-6.49
356.538	106.15
356.749	91.82
356.961	112.3
357.172	106.15
357.384	54.95
357.595	202.41
357.807	91.82
358.018	-37.2
358.23	42.67
358.441	104.11
358.653	75.43
358.864	46.76
359.075	-39.25
359.287	38.57
359.498	63.15
359.709	40.62
359.921	36.52
360.132	91.82
360.344	-22.87
360.555	-24.92
360.766	42.67
360.977	-18.77
361.189	36.52
361.4	34.47
361.611	83.63
361.823	106.15
362.034	3.75
362.245	69.29
362.456	26.28
362.667	91.82
362.879	44.71
363.09	30.38
363.301	169.64
363.512	87.72
363.723	73.39
363.935	18.09
364.146	91.82
364.357	52.91
364.568	69.29
364.779	-47.44
364.99	50.86
365.201	-2.39
365.412	18.09
365.623	18.09
365.834	54.95
366.045	38.57
366.256	30.38
366.467	46.76
366.678	26.28
366.889	67.24
367.1	42.67
367.311	-6.49
367.522	42.67
367.733	38.57
367.944	65.19
368.155	18.09
368.366	34.47
368.577	30.38
368.788	173.74
368.999	28.33
369.209	91.82
369.42	145.06
369.631	67.24
369.842	71.34
370.053	59.05
370.264	69.29
370.474	59.05
370.685	16.04
370.896	13.99
371.107	114.34
371.317	59.05
371.528	-51.54
371.739	149.16
371.95	110.25
372.16	100.01
372.371	9.9
372.582	-4.44
372.792	42.67
373.003	42.67
373.214	-4.44
373.424	-14.68
373.635	30.38
373.846	124.58
374.056	69.29
374.267	46.76
374.477	36.52
374.688	9.9
374.898	122.54
375.109	28.33
375.319	28.33
375.53	75.43
375.74	30.38
375.951	46.76
376.161	22.19
376.372	100.01
376.582	153.26
376.793	50.86
377.003	-22.87
377.214	16.04
377.424	7.85
377.635	71.34
377.845	83.63
378.055	124.58
378.266	46.76
378.476	46.76
378.686	24.23
378.897	26.28
379.107	69.29
379.317	50.86
379.528	30.38
379.738	110.25
379.948	-14.68
380.158	36.52
380.369	-8.53
380.579	24.23
380.789	18.09
380.999	57
381.21	140.97
381.42	120.49
381.63	22.19
381.84	95.91
382.05	54.95
382.261	104.11
382.471	69.29
382.681	18.09
382.891	61.1
383.101	54.95
383.311	-29.01
383.521	-26.96
383.731	65.19
383.941	112.3
384.151	91.82
384.361	5.8
384.571	40.62
384.781	126.63
384.991	108.2
385.201	140.97
385.411	28.33
385.621	85.67
385.831	73.39
386.041	38.57
386.251	20.14
386.461	95.91
386.671	59.05
386.881	69.29
387.091	36.52
387.301	81.58
387.511	130.73
387.72	69.29
387.93	48.81
388.14	-35.16
388.35	20.14
388.56	102.06
388.769	85.67
388.979	102.06
389.189	52.91
389.399	11.95
389.609	100.01
389.818	116.39
390.028	67.24
390.238	116.39
390.447	48.81
390.657	11.95
390.867	-26.96
391.076	75.43
391.286	34.47
391.496	61.1
391.705	69.29
391.915	108.2
392.125	124.58
392.334	61.1
392.544	145.06
392.753	112.3
392.963	73.39
393.172	52.91
393.382	77.48
393.591	143.02
393.801	20.14
394.01	120.49
394.22	100.01
394.429	54.95
394.639	44.71
394.848	65.19
395.058	69.29
395.267	73.39
395.477	108.2
395.686	102.06
395.895	104.11
396.105	118.44
396.314	77.48
396.524	59.05
396.733	1.71
396.942	57
397.152	100.01
397.361	36.52
397.57	110.25
397.78	106.15
397.989	116.39
398.198	140.97
398.407	46.76
398.617	77.48
398.826	67.24
399.035	145.06
399.244	194.22
399.453	91.82
399.663	93.87
399.872	171.69
400.081	50.86
400.29	104.11
400.499	63.15
400.708	83.63
400.917	140.97
401.127	71.34
401.336	93.87
401.545	97.96
401.754	46.76
401.963	34.47
402.172	26.28
402.381	63.15
402.59	46.76
402.799	128.68
403.008	210.6
403.217	124.58
403.426	134.82
403.635	52.91
403.844	116.39
404.053	95.91
404.262	108.2
404.471	169.64
404.68	102.06
404.888	81.58
405.097	140.97
405.306	190.12
405.515	149.16
405.724	134.82
405.933	128.68
406.142	157.35
406.35	192.17
406.559	132.78
406.768	165.54
406.977	153.26
407.185	190.12
407.394	216.74
407.603	143.02
407.812	200.36
408.02	186.02
408.229	140.97
408.438	181.93
408.646	165.54
408.855	202.41
409.064	192.17
409.272	265.89
409.481	202.41
409.69	231.08
409.898	222.89
410.107	263.85
410.315	239.27
410.524	257.7
410.733	231.08
410.941	237.22
411.15	356.01
411.358	300.71
411.567	403.11
411.775	292.52
411.984	362.15
412.192	329.38
412.401	345.77
412.609	444.07
412.818	460.45
413.026	403.11
413.234	370.34
413.443	425.64
413.651	505.51
413.86	460.45
414.068	507.55
414.276	528.03
414.485	513.7
414.693	607.91
414.901	560.8
415.11	556.71
415.318	566.95
415.526	618.15
415.734	626.34
415.943	622.24
416.151	714.4
416.359	659.1
416.567	693.92
416.776	671.39
416.984	788.13
417.192	820.89
417.4	890.53
417.608	849.57
417.817	855.71
418.025	943.77
418.233	972.44
418.441	923.29
418.649	1003.16
418.857	1060.51
419.065	1109.66
419.273	1052.31
419.481	1058.46
419.689	1128.09
419.897	1271.45
420.105	1265.3
420.313	1236.63
420.521	1314.45
420.729	1394.33
420.937	1310.36
421.145	1461.91
421.353	1461.91
421.561	1617.55
421.769	1554.07
421.977	1656.47
422.185	1697.42
422.393	1781.39
422.601	1951.37
422.809	1822.35
423.017	1951.37
423.224	1916.56
423.432	2123.4
423.64	2029.2
423.848	2274.95
424.056	2115.21
424.263	2358.92
424.471	2295.43
424.679	2455.17
424.887	2479.75
425.094	2565.76
425.302	2578.05
425.51	2623.11
425.718	2811.52
425.925	2860.67
426.133	2764.42
426.341	2969.21
426.548	3139.19
426.756	3094.14
426.964	3327.61
427.171	3409.53
427.379	3501.69
427.586	3540.6
427.794	3671.67
428.001	3862.13
428.209	4105.84
428.417	3894.9
428.624	4228.71
428.832	4089.45
429.039	4114.03
429.247	4138.6
429.454	4603.49
429.662	4804.19
429.869	4472.42
430.076	4884.06
430.284	4769.38
430.491	4945.5
430.699	5146.2
430.906	5103.2
431.114	5121.63
431.321	5453.4
431.528	5367.38
431.736	5809.75
431.943	6237.77
432.15	5985.87
432.358	5869.14
432.565	6305.35
432.772	6149.71
432.979	6704.71
433.187	6704.71
433.394	6661.7
433.601	7358.01
433.808	7319.1
434.016	7179.84
434.223	7368.25
434.43	8001.07
434.637	7974.45
434.844	8205.87
435.052	8427.05
435.259	8349.23
435.466	8474.15
435.673	8293.93
435.88	8859.17
436.087	9489.95
436.294	9283.1
436.501	9086.5
436.708	9127.46
436.915	9809.43
437.122	9975.31
437.329	10100.24
437.537	10360.33
437.743	10470.92
437.95	10266.13
438.157	11032.07
438.364	11062.79
438.571	11130.37
438.778	11429.37
438.985	12301.81
439.192	11881.97
439.399	12140.02
439.606	11980.28
439.813	12711.4
440.02	13348.32
440.227	13092.32
440.433	13141.47
440.64	13327.84
440.847	13120.99
441.054	13706.71
441.261	14648.78
441.467	14169.55
441.674	14628.3
441.881	15119.81
442.088	15187.39
442.294	14998.98
442.501	15353.28
442.708	15623.61
442.914	16260.53
443.121	16936.36
443.328	16407.98
443.534	17675.68
443.741	17114.53
443.948	16784.81
444.154	18306.45
444.361	17962.39
444.568	17927.58
444.774	17972.63
444.981	18206.1
445.187	19010.95
445.394	19627.39
445.6	19502.47
445.807	21175.66
446.013	20292.98
446.22	21007.72
446.426	21777.76
446.633	21554.53
446.839	22658.38
447.046	21556.58
447.252	22973.77
447.459	22725.97
447.665	22707.54
447.871	23760.19
448.078	24745.27
448.284	23502.15
448.491	24272.18
448.697	25105.71
448.903	25333.03
449.11	25492.77
449.316	25171.24
449.522	25617.7
449.728	26234.14
449.935	26608.92
450.141	26428.7
450.347	27215.12
450.553	26309.91
450.76	26516.76
450.966	27485.45
451.172	27194.64
451.378	27997.44
451.584	27127.05
451.791	28163.32
451.997	27622.66
452.203	28501.24
452.409	28265.72
452.615	28028.16
452.821	26885.39
453.027	26778.9
453.233	28286.2
453.44	26848.53
453.646	27518.21
453.852	27190.54
454.058	27776.26
454.264	27032.85
454.47	27669.76
454.676	26758.42
454.882	27860.23
455.088	25746.72
455.294	25836.83
455.5	26027.29
455.705	26651.92
455.911	25627.94
456.117	24898.86
456.323	24376.63
456.529	23235.91
456.735	24024.38
456.941	23426.37
457.147	23145.8
457.352	22291.8
457.558	22074.71
457.764	22306.13
457.97	21575.01
458.176	21466.47
458.381	21157.22
458.587	20182.39
458.793	20155.77
458.999	19096.97
459.204	20491.63
459.41	20075.9
459.616	18568.59
459.821	18630.03
460.027	18560.4
460.233	18003.35
460.438	17261.99
460.644	17468.83
460.85	16709.04
461.055	16172.47
461.261	16387.5
461.466	15082.95
461.672	14583.24
461.878	15674.81
462.083	14542.28
462.289	14048.72
462.494	14015.96
462.7	13530.59
462.905	13092.32
463.111	13442.53
463.316	13491.68
463.522	13368.8
463.727	13305.31
463.932	13018.6
464.138	13110.75
464.343	13157.86
464.549	12772.84
464.754	13153.76
464.959	13080.04
465.165	12897.77
465.37	12449.26
465.575	12107.25
465.781	12527.08
465.986	12666.35
466.191	12115.44
466.397	11828.73
466.602	11234.82
466.807	11912.69
467.012	11838.97
