Data from USB4F104151__177__14-32-44-360.txt Node

Date: Thu Mar 13 14:32:44 EDT 2025
User: louis
Spectrometer: USB4F10415
Trigger mode: 4
Integration Time (sec): 2.500000E-2
Scans to average: 1
Electric dark correction enabled: true
Nonlinearity correction enabled: false
Boxcar width: 0
XAxis mode: Wavelengths
Number of Pixels in Spectrum: 3648
>>>>>Begin Spectral Data<<<<<
178.204	-108.54
178.424	-108.54
178.644	-108.54
178.864	-174.08
179.084	-169.98
179.304	40.96
179.524	-2.05
179.744	-4.1
179.964	79.87
180.184	40.96
180.404	-2.05
180.624	-51.2
180.844	16.38
181.064	-77.82
181.283	-75.77
181.503	16.38
181.723	18.43
181.943	-104.45
182.163	32.77
182.383	20.48
182.602	-24.58
182.822	92.16
183.042	16.38
183.262	-12.29
183.482	-43.01
183.701	2.05
183.921	-32.77
184.141	-22.53
184.361	10.24
184.58	63.49
184.8	47.1
185.02	-40.96
185.239	-14.34
185.459	40.96
185.679	63.49
185.898	-59.39
186.118	-18.43
186.338	8.19
186.557	96.25
186.777	32.77
186.997	-47.1
187.216	-26.62
187.436	38.91
187.655	22.53
187.875	79.87
188.095	4.1
188.314	-34.82
188.534	57.34
188.753	40.96
188.973	47.1
189.192	73.73
189.412	-36.86
189.631	-8.19
189.851	24.58
190.07	63.49
190.29	-10.24
190.509	77.82
190.729	-26.62
190.948	38.91
191.168	165.89
191.387	22.53
191.607	0
191.826	22.53
192.045	-24.58
192.265	71.68
192.484	2.05
192.704	-18.43
192.923	-16.38
193.142	32.77
193.362	79.87
193.581	59.39
193.8	36.86
194.02	57.34
194.239	-32.77
194.458	100.35
194.678	28.67
194.897	-10.24
195.116	-55.3
195.335	22.53
195.555	24.58
195.774	38.91
195.993	63.49
196.212	24.58
196.432	-71.68
196.651	-18.43
196.87	-30.72
197.089	34.82
197.308	14.34
197.528	32.77
197.747	-4.1
197.966	-38.91
198.185	116.73
198.404	32.77
198.623	59.39
198.842	40.96
199.062	57.34
199.281	24.58
199.5	18.43
199.719	-83.97
199.938	10.24
200.157	36.86
200.376	-24.58
200.595	45.06
200.814	57.34
201.033	-43.01
201.252	22.53
201.471	65.54
201.69	65.54
201.909	47.1
202.128	6.14
202.347	65.54
202.566	-8.19
202.785	-8.19
203.004	6.14
203.223	65.54
203.442	-2.05
203.661	-26.62
203.879	34.82
204.098	-28.67
204.317	-18.43
204.536	88.06
204.755	67.58
204.974	79.87
205.193	71.68
205.411	57.34
205.63	22.53
205.849	14.34
206.068	34.82
206.287	-10.24
206.505	40.96
206.724	18.43
206.943	-45.06
207.162	-26.62
207.381	40.96
207.599	65.54
207.818	-14.34
208.037	40.96
208.255	22.53
208.474	4.1
208.693	43.01
208.911	18.43
209.13	77.82
209.349	51.2
209.567	-26.62
209.786	63.49
210.005	30.72
210.223	-94.21
210.442	24.58
210.661	8.19
210.879	34.82
211.098	8.19
211.316	10.24
211.535	63.49
211.753	28.67
211.972	-16.38
212.191	-20.48
212.409	53.25
212.628	88.06
212.846	-79.87
213.065	75.77
213.283	65.54
213.502	55.3
213.72	100.35
213.938	47.1
214.157	28.67
214.375	79.87
214.594	26.62
214.812	94.21
215.031	8.19
215.249	-8.19
215.467	40.96
215.686	24.58
215.904	65.54
216.122	30.72
216.341	14.34
216.559	-26.62
216.778	75.77
216.996	55.3
217.214	-22.53
217.432	40.96
217.651	49.15
217.869	-6.14
218.087	-40.96
218.306	36.86
218.524	-40.96
218.742	2.05
218.96	49.15
219.179	4.1
219.397	47.1
219.615	6.14
219.833	67.58
220.051	47.1
220.27	8.19
220.488	30.72
220.706	53.25
220.924	-2.05
221.142	26.62
221.36	110.59
221.578	2.05
221.796	45.06
222.015	-2.05
222.233	55.3
222.451	65.54
222.669	-28.67
222.887	14.34
223.105	-6.14
223.323	30.72
223.541	10.24
223.759	-20.48
223.977	-18.43
224.195	131.07
224.413	0
224.631	16.38
224.849	40.96
225.067	67.58
225.285	14.34
225.503	8.19
225.721	-61.44
225.939	30.72
226.157	51.2
226.375	155.65
226.592	-22.53
226.81	57.34
227.028	38.91
227.246	118.78
227.464	57.34
227.682	75.77
227.9	40.96
228.117	100.35
228.335	63.49
228.553	-8.19
228.771	24.58
228.989	45.06
229.206	47.1
229.424	-43.01
229.642	-30.72
229.86	-24.58
230.077	45.06
230.295	26.62
230.513	43.01
230.731	38.91
230.948	51.2
231.166	65.54
231.384	63.49
231.601	-10.24
231.819	30.72
232.037	40.96
232.254	-47.1
232.472	71.68
232.689	14.34
232.907	22.53
233.125	-18.43
233.342	0
233.56	18.43
233.777	73.73
233.995	-57.34
234.213	22.53
234.43	63.49
234.648	-24.58
234.865	-30.72
235.083	26.62
235.3	40.96
235.518	65.54
235.735	55.3
235.953	57.34
236.17	4.1
236.388	57.34
236.605	8.19
236.822	63.49
237.04	47.1
237.257	22.53
237.475	-6.14
237.692	-81.92
237.909	-38.91
238.127	-75.77
238.344	24.58
238.562	112.64
238.779	-57.34
238.996	-26.62
239.214	38.91
239.431	-81.92
239.648	32.77
239.865	49.15
240.083	-47.1
240.3	-40.96
240.517	57.34
240.735	32.77
240.952	-8.19
241.169	98.3
241.386	24.58
241.603	51.2
241.821	-65.54
242.038	0
242.255	71.68
242.472	-75.77
242.689	28.67
242.907	0
243.124	16.38
243.341	-34.82
243.558	-26.62
243.775	24.58
243.992	-6.14
244.209	22.53
244.426	79.87
244.643	30.72
244.86	-22.53
245.078	32.77
245.295	10.24
245.512	24.58
245.729	22.53
245.946	-4.1
246.163	6.14
246.38	51.2
246.597	6.14
246.814	94.21
247.031	-18.43
247.248	36.86
247.464	14.34
247.681	-32.77
247.898	-14.34
248.115	22.53
248.332	-100.35
248.549	63.49
248.766	49.15
248.983	-16.38
249.2	88.06
249.417	47.1
249.633	47.1
249.85	55.3
250.067	2.05
250.284	-6.14
250.501	-30.72
250.717	47.1
250.934	10.24
251.151	40.96
251.368	-51.2
251.585	90.11
251.801	59.39
252.018	-10.24
252.235	-16.38
252.451	40.96
252.668	-32.77
252.885	26.62
253.102	32.77
253.318	-26.62
253.535	-2.05
253.752	-51.2
253.968	-36.86
254.185	2.05
254.401	14.34
254.618	-24.58
254.835	-43.01
255.051	106.49
255.268	-18.43
255.484	88.06
255.701	-16.38
255.917	40.96
256.134	-43.01
256.351	24.58
256.567	55.3
256.784	51.2
257	-20.48
257.217	-4.1
257.433	57.34
257.65	73.73
257.866	32.77
258.082	-2.05
258.299	-45.06
258.515	-18.43
258.732	6.14
258.948	71.68
259.165	81.92
259.381	-73.73
259.597	2.05
259.814	-69.63
260.03	-43.01
260.246	59.39
260.463	18.43
260.679	16.38
260.895	-30.72
261.112	30.72
261.328	8.19
261.544	-79.87
261.761	57.34
261.977	-18.43
262.193	8.19
262.409	8.19
262.626	90.11
262.842	24.58
263.058	8.19
263.274	57.34
263.49	-20.48
263.707	88.06
263.923	30.72
264.139	-96.25
264.355	47.1
264.571	61.44
264.787	16.38
265.004	63.49
265.22	-22.53
265.436	-43.01
265.652	-12.29
265.868	55.3
266.084	18.43
266.3	-8.19
266.516	57.34
266.732	30.72
266.948	-38.91
267.164	30.72
267.38	-55.3
267.596	24.58
267.812	38.91
268.028	-38.91
268.244	-8.19
268.46	22.53
268.676	-18.43
268.892	32.77
269.108	-81.92
269.324	22.53
269.54	-36.86
269.756	71.68
269.972	-8.19
270.188	34.82
270.403	12.29
270.619	-6.14
270.835	61.44
271.051	-73.73
271.267	14.34
271.483	-26.62
271.698	14.34
271.914	-40.96
272.13	104.45
272.346	59.39
272.562	133.12
272.777	38.91
272.993	22.53
273.209	14.34
273.425	112.64
273.64	6.14
273.856	108.54
274.072	30.72
274.287	22.53
274.503	16.38
274.719	-6.14
274.934	-2.05
275.15	-40.96
275.366	90.11
275.581	-47.1
275.797	0
276.012	-34.82
276.228	10.24
276.444	30.72
276.659	-2.05
276.875	-32.77
277.09	32.77
277.306	30.72
277.521	6.14
277.737	47.1
277.952	34.82
278.168	90.11
278.383	-6.14
278.599	0
278.814	14.34
279.03	-2.05
279.245	55.3
279.461	20.48
279.676	30.72
279.892	-32.77
280.107	18.43
280.322	38.91
280.538	73.73
280.753	-14.34
280.969	47.1
281.184	22.53
281.399	24.58
281.615	0
281.83	6.14
282.045	2.05
282.26	-59.39
282.476	36.86
282.691	22.53
282.906	-38.91
283.122	-2.05
283.337	-4.1
283.552	16.38
283.767	-22.53
283.983	-10.24
284.198	-20.48
284.413	30.72
284.628	18.43
284.843	-34.82
285.058	47.1
285.274	-26.62
285.489	24.58
285.704	116.73
285.919	12.29
286.134	6.14
286.349	-28.67
286.564	-47.1
286.779	63.49
286.995	-22.53
287.21	-139.26
287.425	22.53
287.64	-16.38
287.855	88.06
288.07	-2.05
288.285	-40.96
288.5	-6.14
288.715	61.44
288.93	-14.34
289.145	-40.96
289.36	-2.05
289.575	6.14
289.79	51.2
290.004	40.96
290.219	-34.82
290.434	45.06
290.649	16.38
290.864	14.34
291.079	12.29
291.294	-2.05
291.509	47.1
291.724	73.73
291.938	-12.29
292.153	10.24
292.368	-34.82
292.583	63.49
292.798	-26.62
293.012	47.1
293.227	83.97
293.442	-22.53
293.657	96.25
293.871	110.59
294.086	57.34
294.301	47.1
294.516	59.39
294.73	43.01
294.945	30.72
295.16	14.34
295.374	90.11
295.589	59.39
295.804	0
296.018	40.96
296.233	8.19
296.447	-6.14
296.662	47.1
296.877	4.1
297.091	73.73
297.306	24.58
297.52	38.91
297.735	14.34
297.949	63.49
298.164	26.62
298.378	-10.24
298.593	6.14
298.807	-34.82
299.022	47.1
299.236	69.63
299.451	-12.29
299.665	59.39
299.88	26.62
300.094	-49.15
300.309	43.01
300.523	38.91
300.737	63.49
300.952	-16.38
301.166	4.1
301.381	57.34
301.595	-2.05
301.809	55.3
302.024	4.1
302.238	0
302.452	45.06
302.667	14.34
302.881	129.02
303.095	51.2
303.309	26.62
303.524	-57.34
303.738	-16.38
303.952	6.14
304.166	0
304.381	-40.96
304.595	90.11
304.809	-40.96
305.023	14.34
305.237	18.43
305.452	30.72
305.666	22.53
305.88	8.19
306.094	55.3
306.308	22.53
306.522	77.82
306.736	106.49
306.95	59.39
307.164	-30.72
307.379	24.58
307.593	28.67
307.807	57.34
308.021	36.86
308.235	26.62
308.449	8.19
308.663	18.43
308.877	34.82
309.091	-2.05
309.305	-10.24
309.519	47.1
309.733	6.14
309.947	-67.58
310.161	108.54
310.374	59.39
310.588	30.72
310.802	-8.19
311.016	34.82
311.23	47.1
311.444	-86.01
311.658	-10.24
311.872	43.01
312.085	51.2
312.299	49.15
312.513	47.1
312.727	83.97
312.941	-16.38
313.154	88.06
313.368	38.91
313.582	24.58
313.796	-8.19
314.009	47.1
314.223	10.24
314.437	38.91
314.651	18.43
314.864	12.29
315.078	38.91
315.292	6.14
315.505	14.34
315.719	14.34
315.933	-43.01
316.146	55.3
316.36	12.29
316.573	38.91
316.787	45.06
317.001	55.3
317.214	-75.77
317.428	-2.05
317.641	6.14
317.855	-6.14
318.068	-38.91
318.282	-34.82
318.495	71.68
318.709	-26.62
318.922	71.68
319.136	32.77
319.349	10.24
319.563	-14.34
319.776	67.58
319.99	-14.34
320.203	-49.15
320.417	6.14
320.63	30.72
320.843	63.49
321.057	24.58
321.27	83.97
321.483	-51.2
321.697	116.73
321.91	2.05
322.124	-8.19
322.337	10.24
322.55	-8.19
322.763	81.92
322.977	-10.24
323.19	-22.53
323.403	83.97
323.617	20.48
323.83	145.41
324.043	30.72
324.256	-34.82
324.469	-43.01
324.683	59.39
324.896	14.34
325.109	-51.2
325.322	6.14
325.535	14.34
325.748	-6.14
325.962	-43.01
326.175	-18.43
326.388	30.72
326.601	71.68
326.814	28.67
327.027	-34.82
327.24	104.45
327.453	-8.19
327.666	10.24
327.879	10.24
328.092	-30.72
328.305	34.82
328.518	-26.62
328.731	-59.39
328.944	-24.58
329.157	-51.2
329.37	36.86
329.583	65.54
329.796	-2.05
330.009	-34.82
330.222	38.91
330.435	-59.39
330.648	30.72
330.861	51.2
331.073	81.92
331.286	22.53
331.499	10.24
331.712	-63.49
331.925	16.38
332.138	-6.14
332.35	-16.38
332.563	6.14
332.776	77.82
332.989	38.91
333.202	-47.1
333.414	10.24
333.627	75.77
333.84	-2.05
334.053	-14.34
334.265	-26.62
334.478	59.39
334.691	-24.58
334.903	24.58
335.116	-8.19
335.329	47.1
335.541	16.38
335.754	57.34
335.966	-92.16
336.179	49.15
336.392	18.43
336.604	38.91
336.817	79.87
337.029	71.68
337.242	40.96
337.454	43.01
337.667	75.77
337.88	45.06
338.092	-6.14
338.305	79.87
338.517	55.3
338.729	-18.43
338.942	65.54
339.154	-8.19
339.367	-43.01
339.579	12.29
339.792	-38.91
340.004	14.34
340.217	-8.19
340.429	83.97
340.641	30.72
340.854	-73.73
341.066	79.87
341.278	55.3
341.491	-16.38
341.703	38.91
341.915	6.14
342.128	14.34
342.34	49.15
342.552	20.48
342.764	53.25
342.977	47.1
343.189	49.15
343.401	6.14
343.613	-26.62
343.826	30.72
344.038	32.77
344.25	38.91
344.462	-16.38
344.674	-59.39
344.886	-59.39
345.099	71.68
345.311	18.43
345.523	8.19
345.735	-67.58
345.947	18.43
346.159	26.62
346.371	43.01
346.583	108.54
346.795	124.93
347.007	47.1
347.219	51.2
347.431	-10.24
347.643	71.68
347.855	10.24
348.067	24.58
348.279	-43.01
348.491	6.14
348.703	4.1
348.915	40.96
349.127	-38.91
349.339	10.24
349.551	-47.1
349.763	-16.38
349.975	43.01
350.187	106.49
350.399	-51.2
350.61	8.19
350.822	67.58
351.034	47.1
351.246	79.87
351.458	-4.1
351.669	55.3
351.881	104.45
352.093	14.34
352.305	-18.43
352.517	102.4
352.728	120.83
352.94	6.14
353.152	6.14
353.363	8.19
353.575	30.72
353.787	55.3
353.999	-18.43
354.21	71.68
354.422	-38.91
354.633	47.1
354.845	43.01
355.057	55.3
355.268	-8.19
355.48	28.67
355.692	-26.62
355.903	32.77
356.115	83.97
356.326	32.77
356.538	106.49
356.749	65.54
356.961	18.43
357.172	-14.34
357.384	55.3
357.595	88.06
357.807	79.87
358.018	-40.96
358.23	38.91
358.441	112.64
358.653	38.91
358.864	8.19
359.075	55.3
359.287	-24.58
359.498	-26.62
359.709	26.62
359.921	-30.72
360.132	79.87
360.344	4.1
360.555	63.49
360.766	26.62
360.977	-2.05
361.189	53.25
361.4	6.14
361.611	47.1
361.823	55.3
362.034	0
362.245	-26.62
362.456	53.25
362.667	67.58
362.879	-18.43
363.09	34.82
363.301	18.43
363.512	81.92
363.723	-38.91
363.935	47.1
364.146	92.16
364.357	63.49
364.568	16.38
364.779	-40.96
364.99	75.77
365.201	-24.58
365.412	100.35
365.623	-6.14
365.834	22.53
366.045	-2.05
366.256	18.43
366.467	6.14
366.678	106.49
366.889	-8.19
367.1	-28.67
367.311	112.64
367.522	24.58
367.733	63.49
367.944	43.01
368.155	-18.43
368.366	38.91
368.577	-22.53
368.788	-92.16
368.999	-14.34
369.209	-30.72
369.42	88.06
369.631	26.62
369.842	47.1
370.053	-57.34
370.264	71.68
370.474	18.43
370.685	24.58
370.896	38.91
371.107	6.14
371.317	55.3
371.528	-18.43
371.739	47.1
371.95	96.25
372.16	94.21
372.371	-51.2
372.582	63.49
372.792	90.11
373.003	53.25
373.214	34.82
373.424	79.87
373.635	-10.24
373.846	73.73
374.056	49.15
374.267	-14.34
374.477	-14.34
374.688	-28.67
374.898	30.72
375.109	-18.43
375.319	49.15
375.53	30.72
375.74	79.87
375.951	49.15
376.161	47.1
376.372	114.69
376.582	-49.15
376.793	-12.29
377.003	47.1
377.214	22.53
377.424	40.96
377.635	14.34
377.845	-36.86
378.055	151.55
378.266	32.77
378.476	-51.2
378.686	6.14
378.897	38.91
379.107	88.06
379.317	-43.01
379.528	30.72
379.738	18.43
379.948	-14.34
380.158	34.82
380.369	43.01
380.579	71.68
380.789	63.49
380.999	34.82
381.21	36.86
381.42	-12.29
381.63	-8.19
381.84	79.87
382.05	-24.58
382.261	65.54
382.471	100.35
382.681	67.58
382.891	71.68
383.101	6.14
383.311	20.48
383.521	-26.62
383.731	26.62
383.941	34.82
384.151	2.05
384.361	32.77
384.571	63.49
384.781	40.96
384.991	161.79
385.201	88.06
385.411	45.06
385.621	45.06
385.831	8.19
386.041	0
386.251	61.44
386.461	94.21
386.671	-6.14
386.881	45.06
387.091	-2.05
387.301	-26.62
387.511	-10.24
387.72	-8.19
387.93	30.72
388.14	53.25
388.35	32.77
388.56	16.38
388.769	16.38
388.979	30.72
389.189	-18.43
389.399	88.06
389.609	51.2
389.818	65.54
390.028	47.1
390.238	24.58
390.447	-2.05
390.657	30.72
390.867	24.58
391.076	-14.34
391.286	30.72
391.496	-18.43
391.705	-14.34
391.915	139.26
392.125	65.54
392.334	57.34
392.544	106.49
392.753	18.43
392.963	45.06
393.172	47.1
393.382	55.3
393.591	100.35
393.801	30.72
394.01	45.06
394.22	32.77
394.429	-57.34
394.639	6.14
394.848	112.64
395.058	75.77
395.267	129.02
395.477	79.87
395.686	-26.62
395.895	45.06
396.105	88.06
396.314	38.91
396.524	38.91
396.733	92.16
396.942	57.34
397.152	47.1
397.361	79.87
397.57	100.35
397.78	120.83
397.989	30.72
398.198	104.45
398.407	30.72
398.617	86.01
398.826	47.1
399.035	63.49
399.244	79.87
399.453	77.82
399.663	104.45
399.872	120.83
400.081	43.01
400.29	45.06
400.499	-22.53
400.708	88.06
400.917	47.1
401.127	75.77
401.336	88.06
401.545	104.45
401.754	83.97
401.963	88.06
402.172	90.11
402.381	120.83
402.59	34.82
402.799	22.53
403.008	30.72
403.217	59.39
403.426	120.83
403.635	-2.05
403.844	45.06
404.053	83.97
404.262	49.15
404.471	135.17
404.68	57.34
404.888	145.41
405.097	83.97
405.306	174.08
405.515	196.61
405.724	122.88
405.933	92.16
406.142	118.78
406.35	145.41
406.559	73.73
406.768	116.73
406.977	186.37
407.185	174.08
407.394	239.61
407.603	155.65
407.812	169.98
408.02	126.97
408.229	92.16
408.438	51.2
408.646	59.39
408.855	178.17
409.064	243.71
409.272	169.98
409.481	229.37
409.69	212.99
409.898	120.83
410.107	221.18
410.315	253.95
410.524	235.52
410.733	317.44
410.941	219.13
411.15	251.9
411.358	194.56
411.567	358.39
411.775	212.99
411.984	282.62
412.192	223.23
412.401	294.91
412.609	366.59
412.818	280.57
413.026	387.07
413.234	352.25
413.443	323.58
413.651	360.44
413.86	471.03
414.068	415.74
414.276	432.12
414.485	417.79
414.693	428.03
414.901	464.89
415.11	460.79
415.318	481.27
415.526	530.42
415.734	546.81
415.943	442.36
416.151	628.73
416.359	499.7
416.567	540.66
416.776	583.67
416.984	761.84
417.192	710.65
417.4	671.73
417.608	675.83
417.817	608.25
418.025	776.18
418.233	849.91
418.441	684.02
418.649	755.7
418.857	886.77
419.065	974.83
419.273	899.06
419.481	1036.27
419.689	933.87
419.897	1015.79
420.105	1013.74
420.313	1079.28
420.521	1202.16
420.729	1148.91
420.937	1177.58
421.145	1210.35
421.353	1320.94
421.561	1341.42
421.769	1374.19
421.977	1380.33
422.185	1511.4
422.393	1458.15
422.601	1624.04
422.809	1613.8
423.017	1644.52
423.224	1646.57
423.432	1755.11
423.64	1742.82
423.848	1853.41
424.056	1857.51
424.263	1943.52
424.471	1832.93
424.679	1988.58
424.887	2070.5
425.094	2181.09
425.302	2226.14
425.51	2277.34
425.718	2381.79
425.925	2277.34
426.133	2471.9
426.341	2623.45
426.548	2693.08
426.756	2643.93
426.964	2717.65
427.171	2750.42
427.379	2977.75
427.586	2850.77
427.794	3112.91
428.001	3268.56
428.209	3385.29
428.417	3260.37
428.624	3561.42
428.832	3635.14
429.039	3585.99
429.247	3577.8
429.454	3735.49
429.662	4251.58
429.869	3827.65
430.076	4134.85
430.284	4054.98
430.491	4077.51
430.699	4470.72
430.906	4335.55
431.114	4276.16
431.321	4669.37
431.528	4618.17
431.736	4841.4
431.943	5144.5
432.15	5109.68
432.358	5150.64
432.565	5484.46
432.772	5257.14
432.979	5726.12
433.187	5595.05
433.394	5767.08
433.601	6012.84
433.808	6135.71
434.016	6137.76
434.223	6408.09
434.43	6598.56
434.637	6649.75
434.844	6932.37
435.052	7249.81
435.259	7151.51
435.466	7157.65
435.673	7034.77
435.88	7573.39
436.087	7919.5
436.294	7972.74
436.501	7794.57
436.708	7849.86
436.915	8263.55
437.122	8783.74
437.329	8486.78
437.537	8945.53
437.743	9074.55
437.95	8828.79
438.157	9361.27
438.364	9682.8
438.571	9635.69
438.778	9564.01
438.985	10588
439.192	10155.88
439.399	10348.39
439.606	10217.32
439.813	10927.96
440.02	11261.78
440.227	11192.15
440.433	11102.04
440.64	11466.58
440.847	11302.74
441.054	11835.21
441.261	12486.47
441.467	12267.33
441.674	12504.9
441.881	12984.12
442.088	13000.51
442.294	12932.92
442.501	13154.1
442.708	13643.57
442.914	14079.79
443.121	14546.72
443.328	14145.32
443.534	15179.54
443.741	14632.74
443.948	14458.66
444.154	15587.09
444.361	15515.41
444.568	15644.43
444.774	15402.77
444.981	15787.79
445.187	16346.89
445.394	16901.89
445.6	16682.75
445.807	18161.39
446.013	17393.4
446.22	17682.16
446.426	18638.56
446.633	18626.28
446.839	19275.48
447.046	18294.5
447.252	19572.44
447.459	19439.32
447.665	19322.59
447.871	20119.24
448.078	21149.37
448.284	20080.33
448.491	20590.28
448.697	21513.91
448.903	21913.27
449.11	21950.13
449.316	21374.65
449.522	22001.33
449.728	22335.15
449.935	22857.38
450.141	22644.39
450.347	22951.59
450.553	22238.89
450.76	22724.26
450.966	23711.38
451.172	23453.34
451.378	24200.85
451.584	23398.04
451.791	23840.4
451.997	23778.97
452.203	24360.59
452.409	24241.81
452.615	23903.89
452.821	23121.57
453.027	22861.48
453.233	24143.5
453.44	23522.97
453.646	23375.52
453.852	23205.53
454.058	23832.21
454.264	23031.46
454.47	23844.5
454.676	22886.05
454.882	24125.07
455.088	21534.39
455.294	22124.21
455.5	22361.77
455.705	22296.24
455.911	21198.52
456.117	21196.48
456.323	20926.14
456.529	19756.75
456.735	20817.6
456.941	20362.95
457.147	19537.62
457.352	19039.97
457.558	18691.81
457.764	19203.8
457.97	18587.36
458.176	18314.98
458.381	18185.96
458.587	17319.67
458.793	17403.64
458.999	16211.72
459.204	17661.68
459.41	17057.53
459.616	15988.49
459.821	15900.43
460.027	15795.98
460.233	15408.92
460.438	14872.35
460.644	14696.22
460.85	14147.37
461.055	14028.59
461.261	14030.63
461.466	13104.95
461.672	12779.33
461.878	13469.49
462.083	12574.53
462.289	12269.38
462.494	11923.27
462.7	11732.81
462.905	11302.74
463.111	11698
463.316	11829.07
463.522	11611.98
463.727	11589.46
463.932	11501.39
464.138	11327.32
464.343	11597.65
464.549	11224.92
464.754	11368.27
464.959	11220.82
465.165	11243.35
465.37	10631.01
465.575	10540.9
465.781	10852.19
465.986	10954.58
466.191	10516.32
466.397	10491.74
466.602	10184.55
466.807	10131.3
467.012	10235.75
467.218	10256.23
467.423	10108.77
467.628	10305.38
