Data from USB4F104151__144__14-31-50-900.txt Node

Date: Thu Mar 13 14:31:50 EDT 2025
User: louis
Spectrometer: USB4F10415
Trigger mode: 4
Integration Time (sec): 2.500000E-2
Scans to average: 1
Electric dark correction enabled: true
Nonlinearity correction enabled: false
Boxcar width: 0
XAxis mode: Wavelengths
Number of Pixels in Spectrum: 3648
>>>>>Begin Spectral Data<<<<<
178.204	-147.28
178.424	-147.28
178.644	-147.28
178.864	-165.71
179.084	-151.38
179.304	-32.6
179.524	24.75
179.744	-40.79
179.964	61.61
180.184	12.46
180.404	-10.07
180.624	28.84
180.844	-20.31
181.064	30.89
181.283	69.8
181.503	-28.5
181.723	-96.08
181.943	-65.36
182.163	45.23
182.383	63.66
182.602	37.03
182.822	-1.88
183.042	28.84
183.262	-42.84
183.482	-1.88
183.701	-38.74
183.921	90.28
184.141	-36.69
184.361	57.51
184.58	86.19
184.8	6.31
185.02	-10.07
185.239	20.65
185.459	98.47
185.679	32.94
185.898	-26.45
186.118	49.32
186.338	41.13
186.557	45.23
186.777	10.41
186.997	61.61
187.216	22.7
187.436	153.77
187.655	20.65
187.875	32.94
188.095	43.18
188.314	45.23
188.534	-14.17
188.753	-48.98
188.973	106.67
189.192	114.86
189.412	73.9
189.631	45.23
189.851	20.65
190.07	57.51
190.29	2.22
190.509	16.55
190.729	10.41
190.948	12.46
191.168	209.06
191.387	12.46
191.607	4.27
191.826	12.46
192.045	14.51
192.265	0.17
192.484	51.37
192.704	71.85
192.923	37.03
193.142	145.58
193.362	2.22
193.581	80.04
193.8	86.19
194.02	41.13
194.239	67.75
194.458	65.71
194.678	88.23
194.897	49.32
195.116	-24.4
195.335	45.23
195.555	26.79
195.774	16.55
195.993	30.89
196.212	63.66
196.432	-44.88
196.651	12.46
196.87	32.94
197.089	92.33
197.308	86.19
197.528	8.36
197.747	-3.93
197.966	-20.31
198.185	131.24
198.404	2.22
198.623	-12.12
198.842	-10.07
199.062	73.9
199.281	43.18
199.5	49.32
199.719	53.42
199.938	16.55
200.157	-3.93
200.376	96.43
200.595	0.17
200.814	16.55
201.033	45.23
201.252	57.51
201.471	77.99
201.69	69.8
201.909	28.84
202.128	16.55
202.347	102.57
202.566	16.55
202.785	22.7
203.004	-28.5
203.223	108.71
203.442	28.84
203.661	-8.02
203.879	100.52
204.098	-3.93
204.317	12.46
204.536	77.99
204.755	26.79
204.974	94.38
205.193	16.55
205.411	88.23
205.63	71.85
205.849	-3.93
206.068	20.65
206.287	26.79
206.505	49.32
206.724	-3.93
206.943	30.89
207.162	112.81
207.381	26.79
207.599	30.89
207.818	43.18
208.037	12.46
208.255	24.75
208.474	71.85
208.693	12.46
208.911	39.08
209.13	20.65
209.349	55.47
209.567	-12.12
209.786	14.51
210.005	53.42
210.223	61.61
210.442	-20.31
210.661	69.8
210.879	24.75
211.098	104.62
211.316	96.43
211.535	143.53
211.753	-12.12
211.972	84.14
212.191	12.46
212.409	-1.88
212.628	45.23
212.846	-36.69
213.065	61.61
213.283	90.28
213.502	-36.69
213.72	47.27
213.938	63.66
214.157	73.9
214.375	-8.02
214.594	-1.88
214.812	-28.5
215.031	39.08
215.249	22.7
215.467	28.84
215.686	45.23
215.904	88.23
216.122	41.13
216.341	22.7
216.559	-48.98
216.778	112.81
216.996	129.19
217.214	53.42
217.432	24.75
217.651	-44.88
217.869	63.66
218.087	82.09
218.306	0.17
218.524	96.43
218.742	-73.56
218.96	-18.26
219.179	-3.93
219.397	-59.22
219.615	4.27
219.833	73.9
220.051	-20.31
220.27	30.89
220.488	77.99
220.706	32.94
220.924	82.09
221.142	-3.93
221.36	69.8
221.578	-16.21
221.796	-1.88
222.015	-20.31
222.233	14.51
222.451	55.47
222.669	61.61
222.887	55.47
223.105	24.75
223.323	82.09
223.541	-28.5
223.759	-38.74
223.977	53.42
224.195	110.76
224.413	-30.55
224.631	69.8
224.849	45.23
225.067	135.34
225.285	-53.08
225.503	20.65
225.721	-94.04
225.939	80.04
226.157	110.76
226.375	118.95
226.592	20.65
226.81	4.27
227.028	77.99
227.246	159.91
227.464	-20.31
227.682	30.89
227.9	102.57
228.117	45.23
228.335	71.85
228.553	-3.93
228.771	22.7
228.989	28.84
229.206	61.61
229.424	37.03
229.642	-32.6
229.86	53.42
230.077	73.9
230.295	49.32
230.513	53.42
230.731	102.57
230.948	69.8
231.166	145.58
231.384	63.66
231.601	20.65
231.819	-1.88
232.037	4.27
232.254	28.84
232.472	-18.26
232.689	-20.31
232.907	118.95
233.125	49.32
233.342	96.43
233.56	53.42
233.777	-12.12
233.995	20.65
234.213	-1.88
234.43	6.31
234.648	45.23
234.865	24.75
235.083	51.37
235.3	86.19
235.518	57.51
235.735	94.38
235.953	67.75
236.17	110.76
236.388	28.84
236.605	24.75
236.822	75.95
237.04	8.36
237.257	-10.07
237.475	4.27
237.692	63.66
237.909	-22.36
238.127	-26.45
238.344	-18.26
238.562	65.71
238.779	32.94
238.996	24.75
239.214	-28.5
239.431	53.42
239.648	20.65
239.865	6.31
240.083	28.84
240.3	0.17
240.517	-3.93
240.735	55.47
240.952	57.51
241.169	4.27
241.386	14.51
241.603	4.27
241.821	39.08
242.038	45.23
242.255	37.03
242.472	6.31
242.689	55.47
242.907	-14.17
243.124	28.84
243.341	37.03
243.558	61.61
243.775	22.7
243.992	-94.04
244.209	30.89
244.426	139.43
244.643	69.8
244.86	22.7
245.078	45.23
245.295	86.19
245.512	-36.69
245.729	18.6
245.946	28.84
246.163	71.85
246.38	73.9
246.597	53.42
246.814	8.36
247.031	-20.31
247.248	55.47
247.464	22.7
247.681	37.03
247.898	53.42
248.115	121
248.332	16.55
248.549	75.95
248.766	110.76
248.983	80.04
249.2	69.8
249.417	94.38
249.633	82.09
249.85	12.46
250.067	16.55
250.284	8.36
250.501	51.37
250.717	39.08
250.934	-44.88
251.151	26.79
251.368	22.7
251.585	28.84
251.801	-12.12
252.018	53.42
252.235	37.03
252.451	28.84
252.668	61.61
252.885	69.8
253.102	20.65
253.318	28.84
253.535	-65.36
253.752	71.85
253.968	28.84
254.185	61.61
254.401	-22.36
254.618	-28.5
254.835	69.8
255.051	65.71
255.268	84.14
255.484	16.55
255.701	45.23
255.917	45.23
256.134	30.89
256.351	71.85
256.567	18.6
256.784	37.03
257	80.04
257.217	12.46
257.433	28.84
257.65	45.23
257.866	28.84
258.082	86.19
258.299	12.46
258.515	-1.88
258.732	59.56
258.948	-91.99
259.165	80.04
259.381	118.95
259.597	39.08
259.814	69.8
260.03	53.42
260.246	37.03
260.463	37.03
260.679	4.27
260.895	-24.4
261.112	104.62
261.328	-12.12
261.544	20.65
261.761	45.23
261.977	8.36
262.193	55.47
262.409	28.84
262.626	53.42
262.842	88.23
263.058	53.42
263.274	39.08
263.49	41.13
263.707	71.85
263.923	37.03
264.139	53.42
264.355	22.7
264.571	61.61
264.787	16.55
265.004	75.95
265.22	22.7
265.436	45.23
265.652	-48.98
265.868	65.71
266.084	-5.97
266.3	127.14
266.516	0.17
266.732	26.79
266.948	-20.31
267.164	59.56
267.38	34.99
267.596	28.84
267.812	125.1
268.028	39.08
268.244	8.36
268.46	57.51
268.676	-28.5
268.892	24.75
269.108	12.46
269.324	6.31
269.54	20.65
269.756	37.03
269.972	-53.08
270.188	12.46
270.403	12.46
270.619	-36.69
270.835	20.65
271.051	20.65
271.267	0.17
271.483	20.65
271.698	57.51
271.914	131.24
272.13	12.46
272.346	41.13
272.562	20.65
272.777	77.99
272.993	53.42
273.209	69.8
273.425	-14.17
273.64	55.47
273.856	41.13
274.072	110.76
274.287	16.55
274.503	-3.93
274.719	82.09
274.934	37.03
275.15	-61.27
275.366	51.37
275.581	-24.4
275.797	22.7
276.012	-44.88
276.228	0.17
276.444	-36.69
276.659	67.75
276.875	-44.88
277.09	4.27
277.306	37.03
277.521	96.43
277.737	-12.12
277.952	77.99
278.168	12.46
278.383	22.7
278.599	20.65
278.814	30.89
279.03	26.79
279.245	39.08
279.461	30.89
279.676	102.57
279.892	0.17
280.107	-24.4
280.322	6.31
280.538	63.66
280.753	-40.79
280.969	57.51
281.184	61.61
281.399	-1.88
281.615	12.46
281.83	71.85
282.045	8.36
282.26	55.47
282.476	6.31
282.691	16.55
282.906	-12.12
283.122	92.33
283.337	-18.26
283.552	67.75
283.767	-20.31
283.983	75.95
284.198	37.03
284.413	61.61
284.628	57.51
284.843	82.09
285.058	28.84
285.274	47.27
285.489	-40.79
285.704	-32.6
285.919	-5.97
286.134	61.61
286.349	-12.12
286.564	47.27
286.779	55.47
286.995	28.84
287.21	-24.4
287.425	88.23
287.64	47.27
287.855	65.71
288.07	12.46
288.285	82.09
288.5	112.81
288.715	86.19
288.93	45.23
289.145	55.47
289.36	55.47
289.575	39.08
289.79	65.71
290.004	12.46
290.219	47.27
290.434	12.46
290.649	6.31
290.864	53.42
291.079	-12.12
291.294	-57.17
291.509	-12.12
291.724	22.7
291.938	26.79
292.153	71.85
292.368	45.23
292.583	20.65
292.798	39.08
293.012	24.75
293.227	6.31
293.442	86.19
293.657	-3.93
293.871	102.57
294.086	24.75
294.301	77.99
294.516	47.27
294.73	57.51
294.945	-36.69
295.16	6.31
295.374	2.22
295.589	45.23
295.804	10.41
296.018	-3.93
296.233	59.56
296.447	22.7
296.662	-3.93
296.877	96.43
297.091	55.47
297.306	86.19
297.52	43.18
297.735	-28.5
297.949	-16.21
298.164	32.94
298.378	-38.74
298.593	41.13
298.807	-26.45
299.022	125.1
299.236	77.99
299.451	80.04
299.665	-16.21
299.88	-20.31
300.094	14.51
300.309	24.75
300.523	49.32
300.737	73.9
300.952	67.75
301.166	39.08
301.381	-20.31
301.595	-1.88
301.809	28.84
302.024	24.75
302.238	20.65
302.452	41.13
302.667	-51.03
302.881	71.85
303.095	88.23
303.309	55.47
303.524	32.94
303.738	59.56
303.952	0.17
304.166	73.9
304.381	-38.74
304.595	63.66
304.809	45.23
305.023	86.19
305.237	22.7
305.452	12.46
305.666	28.84
305.88	98.47
306.094	4.27
306.308	47.27
306.522	65.71
306.736	73.9
306.95	14.51
307.164	28.84
307.379	-46.93
307.593	8.36
307.807	82.09
308.021	45.23
308.235	24.75
308.449	-3.93
308.663	41.13
308.877	137.38
309.091	-57.17
309.305	127.14
309.519	-130.9
309.733	53.42
309.947	34.99
310.161	32.94
310.374	41.13
310.588	108.71
310.802	-44.88
311.016	59.56
311.23	4.27
311.444	73.9
311.658	-3.93
311.872	86.19
312.085	129.19
312.299	57.51
312.513	94.38
312.727	14.51
312.941	47.27
313.154	8.36
313.368	-10.07
313.582	18.6
313.796	32.94
314.009	39.08
314.223	135.34
314.437	28.84
314.651	53.42
314.864	-42.84
315.078	37.03
315.292	45.23
315.505	-73.56
315.719	88.23
315.933	-20.31
316.146	4.27
316.36	20.65
316.573	114.86
316.787	-24.4
317.001	45.23
317.214	14.51
317.428	45.23
317.641	-32.6
317.855	39.08
318.068	39.08
318.282	49.32
318.495	127.14
318.709	-3.93
318.922	61.61
319.136	88.23
319.349	82.09
319.563	53.42
319.776	65.71
319.99	57.51
320.203	84.14
320.417	30.89
320.63	73.9
320.843	92.33
321.057	118.95
321.27	129.19
321.483	82.09
321.697	37.03
321.91	37.03
322.124	86.19
322.337	6.31
322.55	14.51
322.763	67.75
322.977	73.9
323.19	49.32
323.403	63.66
323.617	24.75
323.83	90.28
324.043	84.14
324.256	22.7
324.469	-20.31
324.683	26.79
324.896	20.65
325.109	57.51
325.322	4.27
325.535	125.1
325.748	94.38
325.962	37.03
326.175	-46.93
326.388	84.14
326.601	28.84
326.814	-20.31
327.027	32.94
327.24	98.47
327.453	-65.36
327.666	112.81
327.879	82.09
328.092	102.57
328.305	71.85
328.518	32.94
328.731	41.13
328.944	45.23
329.157	65.71
329.37	88.23
329.583	37.03
329.796	4.27
330.009	-3.93
330.222	45.23
330.435	69.8
330.648	57.51
330.861	61.61
331.073	80.04
331.286	24.75
331.499	43.18
331.712	32.94
331.925	98.47
332.138	51.37
332.35	106.67
332.563	-36.69
332.776	59.56
332.989	51.37
333.202	2.22
333.414	16.55
333.627	-22.36
333.84	6.31
334.053	39.08
334.265	4.27
334.478	39.08
334.691	71.85
334.903	4.27
335.116	34.99
335.329	53.42
335.541	90.28
335.754	39.08
335.966	77.99
336.179	20.65
336.392	28.84
336.604	86.19
336.817	43.18
337.029	43.18
337.242	0.17
337.454	88.23
337.667	20.65
337.88	37.03
338.092	45.23
338.305	-10.07
338.517	-10.07
338.729	104.62
338.942	53.42
339.154	20.65
339.367	22.7
339.579	22.7
339.792	77.99
340.004	49.32
340.217	65.71
340.429	47.27
340.641	34.99
340.854	34.99
341.066	82.09
341.278	86.19
341.491	63.66
341.703	6.31
341.915	26.79
342.128	86.19
342.34	12.46
342.552	53.42
342.764	-18.26
342.977	53.42
343.189	53.42
343.401	41.13
343.613	-53.08
343.826	47.27
344.038	-16.21
344.25	53.42
344.462	-18.26
344.674	-34.64
344.886	41.13
345.099	84.14
345.311	30.89
345.523	16.55
345.735	-53.08
345.947	49.32
346.159	-18.26
346.371	34.99
346.583	-3.93
346.795	39.08
347.007	-20.31
347.219	77.99
347.431	8.36
347.643	155.82
347.855	16.55
348.067	47.27
348.279	12.46
348.491	-26.45
348.703	63.66
348.915	32.94
349.127	55.47
349.339	-38.74
349.551	55.47
349.763	71.85
349.975	-59.22
350.187	151.72
350.399	102.57
350.61	39.08
350.822	6.31
351.034	61.61
351.246	8.36
351.458	37.03
351.669	47.27
351.881	51.37
352.093	86.19
352.305	53.42
352.517	94.38
352.728	135.34
352.94	63.66
353.152	69.8
353.363	45.23
353.575	67.75
353.787	92.33
353.999	0.17
354.21	143.53
354.422	-12.12
354.633	-20.31
354.845	53.42
355.057	39.08
355.268	73.9
355.48	20.65
355.692	-5.97
355.903	24.75
356.115	14.51
356.326	63.66
356.538	110.76
356.749	57.51
356.961	92.33
357.172	59.56
357.384	37.03
357.595	151.72
357.807	57.51
358.018	20.65
358.23	77.99
358.441	104.62
358.653	55.47
358.864	-20.31
359.075	-1.88
359.287	77.99
359.498	125.1
359.709	104.62
359.921	59.56
360.132	127.14
360.344	61.61
360.555	53.42
360.766	0.17
360.977	59.56
361.189	80.04
361.4	53.42
361.611	86.19
361.823	47.27
362.034	98.47
362.245	0.17
362.456	26.79
362.667	-28.5
362.879	51.37
363.09	45.23
363.301	73.9
363.512	-24.4
363.723	69.8
363.935	34.99
364.146	73.9
364.357	77.99
364.568	63.66
364.779	12.46
364.99	77.99
365.201	86.19
365.412	88.23
365.623	-34.64
365.834	65.71
366.045	63.66
366.256	6.31
366.467	96.43
366.678	45.23
366.889	53.42
367.1	20.65
367.311	69.8
367.522	14.51
367.733	47.27
367.944	98.47
368.155	49.32
368.366	53.42
368.577	110.76
368.788	77.99
368.999	16.55
369.209	73.9
369.42	125.1
369.631	47.27
369.842	34.99
370.053	61.61
370.264	51.37
370.474	-12.12
370.685	116.9
370.896	55.47
371.107	100.52
371.317	53.42
371.528	94.38
371.739	88.23
371.95	12.46
372.16	69.8
372.371	41.13
372.582	-24.4
372.792	102.57
373.003	45.23
373.214	18.6
373.424	28.84
373.635	41.13
373.846	127.14
374.056	86.19
374.267	98.47
374.477	96.43
374.688	-18.26
374.898	4.27
375.109	53.42
375.319	59.56
375.53	77.99
375.74	86.19
375.951	88.23
376.161	123.05
376.372	75.95
376.582	14.51
376.793	80.04
377.003	-32.6
377.214	30.89
377.424	143.53
377.635	129.19
377.845	-67.41
378.055	110.76
378.266	6.31
378.476	94.38
378.686	-24.4
378.897	55.47
379.107	53.42
379.317	53.42
379.528	16.55
379.738	73.9
379.948	67.75
380.158	149.67
380.369	114.86
380.579	22.7
380.789	28.84
380.999	57.51
381.21	118.95
381.42	112.81
381.63	16.55
381.84	102.57
382.05	77.99
382.261	86.19
382.471	12.46
382.681	133.29
382.891	61.61
383.101	69.8
383.311	57.51
383.521	94.38
383.731	123.05
383.941	65.71
384.151	69.8
384.361	57.51
384.571	-3.93
384.781	106.67
384.991	133.29
385.201	104.62
385.411	57.51
385.621	77.99
385.831	22.7
386.041	88.23
386.251	98.47
386.461	102.57
386.671	102.57
386.881	121
387.091	65.71
387.301	104.62
387.511	67.75
387.72	77.99
387.93	22.7
388.14	30.89
388.35	98.47
388.56	110.76
388.769	151.72
388.979	94.38
389.189	-3.93
389.399	55.47
389.609	22.7
389.818	131.24
390.028	106.67
390.238	114.86
390.447	53.42
390.657	123.05
390.867	4.27
391.076	-16.21
391.286	12.46
391.496	92.33
391.705	37.03
391.915	67.75
392.125	86.19
392.334	65.71
392.544	96.43
392.753	55.47
392.963	77.99
393.172	20.65
393.382	53.42
393.591	102.57
393.801	96.43
394.01	125.1
394.22	88.23
394.429	6.31
394.639	102.57
394.848	71.85
395.058	135.34
395.267	47.27
395.477	20.65
395.686	114.86
395.895	164.01
396.105	135.34
396.314	59.56
396.524	170.15
396.733	121
396.942	102.57
397.152	86.19
397.361	127.14
397.57	37.03
397.78	28.84
397.989	180.39
398.198	137.38
398.407	86.19
398.617	131.24
398.826	131.24
399.035	86.19
399.244	121
399.453	47.27
399.663	147.62
399.872	61.61
400.081	96.43
400.29	137.38
400.499	137.38
400.708	71.85
400.917	170.15
401.127	61.61
401.336	129.19
401.545	211.11
401.754	182.44
401.963	198.82
402.172	123.05
402.381	104.62
402.59	65.71
402.799	102.57
403.008	186.54
403.217	153.77
403.426	159.91
403.635	88.23
403.844	170.15
404.053	143.53
404.262	104.62
404.471	225.45
404.68	159.91
404.888	161.96
405.097	104.62
405.306	172.2
405.515	143.53
405.724	172.2
405.933	211.11
406.142	98.47
406.35	233.64
406.559	188.58
406.768	213.16
406.977	327.85
407.185	204.97
407.394	204.97
407.603	190.63
407.812	274.6
408.02	354.47
408.229	282.79
408.438	262.31
408.646	233.64
408.855	250.02
409.064	290.98
409.272	274.6
409.481	258.21
409.69	258.21
409.898	397.48
410.107	313.51
410.315	301.22
410.524	407.72
410.733	356.52
410.941	372.9
411.15	370.85
411.358	448.68
411.567	422.05
411.775	483.49
411.984	495.78
412.192	530.59
412.401	389.28
412.609	544.93
412.818	516.26
413.026	493.73
413.234	561.31
413.443	557.22
413.651	610.47
413.86	553.12
414.068	688.29
414.276	759.97
414.485	667.81
414.693	737.44
414.901	757.92
415.11	772.25
415.318	848.03
415.526	876.7
415.734	891.04
415.943	888.99
416.151	946.33
416.359	866.46
416.567	1081.5
416.776	1020.06
416.984	1028.25
417.192	1079.45
417.4	1183.9
417.608	1032.35
417.817	1147.03
418.025	1323.16
418.233	1341.59
418.441	1261.72
418.649	1333.4
418.857	1390.74
419.065	1527.96
419.273	1413.27
419.481	1556.63
419.689	1585.3
419.897	1648.79
420.105	1618.07
420.313	1802.38
420.521	1814.67
420.729	1874.06
420.937	1921.17
421.145	2089.1
421.353	2033.8
421.561	2273.42
421.769	2267.27
421.977	2306.18
422.185	2322.57
422.393	2343.05
422.601	2572.42
422.809	2553.99
423.017	2521.22
423.224	2683.01
423.432	2773.12
423.64	2766.98
423.848	3078.27
424.056	3129.47
424.263	3192.95
424.471	3262.58
424.679	3342.46
424.887	3364.98
425.094	3657.84
425.302	3414.13
425.51	3713.14
425.718	3747.95
425.925	4014.19
426.133	3962.99
426.341	4305
426.548	4360.3
426.756	4452.45
426.964	4423.78
427.171	4651.11
427.379	4741.22
427.586	4866.14
427.794	5042.27
428.001	5355.61
428.209	5681.24
428.417	5249.11
428.624	5976.14
428.832	5627.99
429.039	5742.68
429.247	5707.86
429.454	6379.59
429.662	6807.62
429.869	6254.67
430.076	6787.14
430.284	6565.96
430.491	6991.94
430.699	7110.72
430.906	7202.88
431.114	7290.94
431.321	7499.83
431.528	7759.92
431.736	8093.74
431.943	8534.06
432.15	8296.49
432.358	8349.74
432.565	8949.79
432.772	8867.88
432.979	9105.44
433.187	9175.07
433.394	9687.06
433.601	10133.52
433.808	10088.46
434.016	10186.77
434.223	10637.32
434.43	11055.11
434.637	10952.71
434.844	11638.78
435.052	11837.43
435.259	11618.3
435.466	11937.78
435.673	11722.74
435.88	12437.48
436.087	13242.34
436.294	12896.23
436.501	12879.85
436.708	12849.13
436.915	13412.32
437.122	14256.08
437.329	14024.66
437.537	14481.36
437.743	14725.07
437.95	14606.28
438.157	15347.65
438.364	15826.87
438.571	15910.84
438.778	15935.42
438.985	17274.79
439.192	16637.87
439.399	17100.71
439.606	16826.28
439.813	17878.94
440.02	18786.19
440.227	18392.98
440.433	18337.68
440.64	19109.77
440.847	18821
441.054	19300.23
441.261	20748.14
441.467	20504.43
441.674	20576.11
441.881	21593.95
442.088	21176.17
442.294	21311.33
442.501	21718.88
442.708	22234.97
442.914	23099.21
443.121	23848.77
443.328	23406.41
443.534	25546.53
443.741	24379.19
443.948	24194.87
444.154	25544.48
444.361	25804.58
444.568	25538.34
444.774	25712.42
444.981	26044.19
445.187	26611.48
445.394	27750.15
445.6	27295.5
445.807	30025.44
446.013	28983.02
446.22	29263.6
446.426	30363.36
446.633	30850.77
446.839	31846.08
447.046	30377.69
447.252	32192.19
447.459	31923.91
447.665	31919.81
447.871	33509.04
448.078	35192.47
448.284	33162.93
448.491	34135.71
448.697	35004.05
448.903	35765.9
449.11	36071.04
449.316	35440.27
449.522	36097.67
449.728	37340.78
449.935	37275.25
450.141	37262.96
450.347	38352.48
450.553	36744.83
450.76	37213.81
450.966	38647.39
451.172	38112.87
451.378	39523.92
451.584	38176.36
451.791	39425.62
451.997	39059.03
452.203	40101.45
452.409	39951.95
452.615	39581.26
452.821	37975.66
453.027	37408.37
453.233	39259.73
453.44	37910.12
453.646	38379.11
453.852	38669.92
454.058	39196.24
454.264	38202.98
454.47	39302.74
454.676	37848.68
454.882	39194.2
455.088	35796.62
455.294	36474.49
455.5	36585.08
455.705	37035.64
455.911	35796.62
456.117	34803.35
456.323	34647.71
456.529	32499.39
456.735	33965.73
456.941	33234.61
457.147	32599.74
457.352	31635.14
457.558	31229.65
457.764	31315.66
457.97	31018.71
458.176	30201.57
458.381	29892.32
458.587	28657.4
458.793	28247.8
458.999	27078.41
459.204	28872.43
459.41	28233.47
459.616	26429.21
459.821	26384.15
460.027	26113.82
460.233	25741.09
460.438	24284.98
460.644	24373.05
460.85	23648.07
461.055	23195.46
461.261	22931.28
461.466	21669.73
461.672	20920.17
461.878	22243.16
462.083	20928.36
462.289	20330.36
462.494	20137.85
462.7	19355.52
462.905	18636.69
463.111	19132.29
463.316	19699.58
463.522	19027.85
463.727	19314.56
463.932	19099.53
464.138	18595.73
464.343	18700.17
464.549	18399.12
464.754	18950.03
464.959	18491.28
465.165	18628.49
465.37	17774.49
465.575	17649.57
465.781	17893.27
465.986	18247.57
466.191	17608.61
466.397	17074.09
466.602	16220.08
466.807	17063.85
