Data from USB4F104151__238__14-34-06-462.txt Node

Date: Thu Mar 13 14:34:06 EDT 2025
User: louis
Spectrometer: USB4F10415
Trigger mode: 4
Integration Time (sec): 2.500000E-2
Scans to average: 1
Electric dark correction enabled: true
Nonlinearity correction enabled: false
Boxcar width: 0
XAxis mode: Wavelengths
Number of Pixels in Spectrum: 3648
>>>>>Begin Spectral Data<<<<<
178.204	-133.97
178.424	-133.97
178.644	-133.97
178.864	-82.77
179.084	-136.02
179.304	-9.05
179.524	-15.19
179.744	21.67
179.964	25.77
180.184	-21.33
180.404	15.53
180.624	7.34
180.844	-29.52
181.064	-35.67
181.283	54.44
181.503	-27.48
181.723	13.48
181.943	-11.09
182.163	89.26
182.383	-45.91
182.602	103.59
182.822	38.06
183.042	70.83
183.262	33.96
183.482	-19.29
183.701	-2.9
183.921	5.29
184.141	42.15
184.361	62.63
184.58	48.3
184.8	-0.85
185.02	99.5
185.239	111.78
185.459	52.39
185.679	-27.48
185.898	25.77
186.118	79.02
186.338	-27.48
186.557	1.19
186.777	-52.05
186.997	46.25
187.216	46.25
187.436	48.3
187.655	91.31
187.875	126.12
188.095	9.39
188.314	83.11
188.534	40.11
188.753	17.58
188.973	87.21
189.192	103.59
189.412	50.35
189.631	70.83
189.851	126.12
190.07	160.94
190.29	-11.09
190.509	-2.9
190.729	64.68
190.948	11.43
191.168	158.89
191.387	54.44
191.607	-19.29
191.826	23.72
192.045	-7
192.265	7.34
192.484	33.96
192.704	44.2
192.923	17.58
193.142	46.25
193.362	-11.09
193.581	79.02
193.8	25.77
194.02	66.73
194.239	13.48
194.458	36.01
194.678	97.45
194.897	38.06
195.116	62.63
195.335	46.25
195.555	15.53
195.774	79.02
195.993	54.44
196.212	-47.96
196.432	-19.29
196.651	-0.85
196.87	13.48
197.089	83.11
197.308	62.63
197.528	58.54
197.747	5.29
197.966	-27.48
198.185	113.83
198.404	11.43
198.623	-4.95
198.842	101.55
199.062	13.48
199.281	25.77
199.5	-9.05
199.719	29.87
199.938	50.35
200.157	44.2
200.376	21.67
200.595	38.06
200.814	74.92
201.033	66.73
201.252	111.78
201.471	23.72
201.69	103.59
201.909	87.21
202.128	58.54
202.347	50.35
202.566	54.44
202.785	-11.09
203.004	60.59
203.223	138.41
203.442	13.48
203.661	-9.05
203.879	70.83
204.098	70.83
204.317	56.49
204.536	42.15
204.755	21.67
204.974	103.59
205.193	62.63
205.411	79.02
205.63	48.3
205.849	46.25
206.068	-11.09
206.287	38.06
206.505	9.39
206.724	38.06
206.943	27.82
207.162	54.44
207.381	54.44
207.599	7.34
207.818	40.11
208.037	13.48
208.255	46.25
208.474	1.19
208.693	58.54
208.911	46.25
209.13	62.63
209.349	79.02
209.567	76.97
209.786	44.2
210.005	-52.05
210.223	21.67
210.442	-68.44
210.661	-25.43
210.879	13.48
211.098	-13.14
211.316	-21.33
211.535	103.59
211.753	66.73
211.972	17.58
212.191	5.29
212.409	79.02
212.628	46.25
212.846	62.63
213.065	13.48
213.283	-35.67
213.502	9.39
213.72	27.82
213.938	-99.16
214.157	-11.09
214.375	23.72
214.594	56.49
214.812	17.58
215.031	54.44
215.249	21.67
215.467	66.73
215.686	-2.9
215.904	42.15
216.122	46.25
216.341	95.4
216.559	33.96
216.778	124.07
216.996	-31.57
217.214	70.83
217.432	-23.38
217.651	-9.05
217.869	74.92
218.087	29.87
218.306	-0.85
218.524	109.74
218.742	1.19
218.96	-7
219.179	46.25
219.397	7.34
219.615	97.45
219.833	29.87
220.051	-76.63
220.27	40.11
220.488	46.25
220.706	13.48
220.924	-0.85
221.142	13.48
221.36	13.48
221.578	15.53
221.796	33.96
222.015	-56.15
222.233	58.54
222.451	111.78
222.669	-11.09
222.887	74.92
223.105	38.06
223.323	38.06
223.541	-15.19
223.759	29.87
223.977	-0.85
224.195	58.54
224.413	48.3
224.631	-11.09
224.849	11.43
225.067	103.59
225.285	-52.05
225.503	46.25
225.721	-68.44
225.939	-9.05
226.157	5.29
226.375	111.78
226.592	-82.77
226.81	70.83
227.028	56.49
227.246	74.92
227.464	97.45
227.682	79.02
227.9	13.48
228.117	21.67
228.335	-0.85
228.553	13.48
228.771	52.39
228.989	9.39
229.206	76.97
229.424	62.63
229.642	25.77
229.86	-27.48
230.077	46.25
230.295	-78.68
230.513	152.74
230.731	48.3
230.948	99.5
231.166	56.49
231.384	15.53
231.601	1.19
231.819	103.59
232.037	-33.62
232.254	-25.43
232.472	-11.09
232.689	60.59
232.907	46.25
233.125	54.44
233.342	46.25
233.56	21.67
233.777	5.29
233.995	13.48
234.213	97.45
234.43	87.21
234.648	103.59
234.865	46.25
235.083	52.39
235.3	-9.05
235.518	83.11
235.735	76.97
235.953	64.68
236.17	-13.14
236.388	89.26
236.605	54.44
236.822	23.72
237.04	74.92
237.257	42.15
237.475	-19.29
237.692	21.67
237.909	40.11
238.127	-19.29
238.344	89.26
238.562	119.98
238.779	-19.29
238.996	-2.9
239.214	-9.05
239.431	33.96
239.648	33.96
239.865	40.11
240.083	81.07
240.3	56.49
240.517	15.53
240.735	15.53
240.952	62.63
241.169	50.35
241.386	74.92
241.603	-33.62
241.821	-39.76
242.038	54.44
242.255	19.63
242.472	5.29
242.689	70.83
242.907	5.29
243.124	81.07
243.341	-43.86
243.558	-43.86
243.775	7.34
243.992	-11.09
244.209	23.72
244.426	21.67
244.643	95.4
244.86	-35.67
245.078	-15.19
245.295	72.87
245.512	48.3
245.729	29.87
245.946	15.53
246.163	5.29
246.38	56.49
246.597	62.63
246.814	-7
247.031	23.72
247.248	105.64
247.464	9.39
247.681	9.39
247.898	113.83
248.115	33.96
248.332	17.58
248.549	21.67
248.766	52.39
248.983	19.63
249.2	46.25
249.417	85.16
249.633	48.3
249.85	38.06
250.067	60.59
250.284	79.02
250.501	74.92
250.717	95.4
250.934	5.29
251.151	5.29
251.368	11.43
251.585	-27.48
251.801	66.73
252.018	-11.09
252.235	130.22
252.451	13.48
252.668	13.48
252.885	95.4
253.102	33.96
253.318	64.68
253.535	-23.38
253.752	36.01
253.968	38.06
254.185	54.44
254.401	5.29
254.618	101.55
254.835	38.06
255.051	99.5
255.268	70.83
255.484	66.73
255.701	56.49
255.917	111.78
256.134	-27.48
256.351	-41.81
256.567	25.77
256.784	-15.19
257	-11.09
257.217	111.78
257.433	21.67
257.65	81.07
257.866	79.02
258.082	87.21
258.299	-25.43
258.515	89.26
258.732	25.77
258.948	-27.48
259.165	-31.57
259.381	74.92
259.597	15.53
259.814	38.06
260.03	76.97
260.246	-41.81
260.463	38.06
260.679	11.43
260.895	17.58
261.112	68.78
261.328	-2.9
261.544	31.91
261.761	83.11
261.977	64.68
262.193	-41.81
262.409	66.73
262.626	62.63
262.842	1.19
263.058	-54.1
263.274	38.06
263.49	46.25
263.707	46.25
263.923	7.34
264.139	21.67
264.355	29.87
264.571	56.49
264.787	40.11
265.004	54.44
265.22	23.72
265.436	7.34
265.652	-9.05
265.868	38.06
266.084	27.82
266.3	144.55
266.516	31.91
266.732	70.83
266.948	42.15
267.164	66.73
267.38	89.26
267.596	62.63
267.812	13.48
268.028	31.91
268.244	-13.14
268.46	-4.95
268.676	-15.19
268.892	52.39
269.108	21.67
269.324	70.83
269.54	-11.09
269.756	128.17
269.972	-35.67
270.188	36.01
270.403	25.77
270.619	-13.14
270.835	40.11
271.051	31.91
271.267	15.53
271.483	81.07
271.698	17.58
271.914	54.44
272.13	62.63
272.346	-27.48
272.562	13.48
272.777	58.54
272.993	11.43
273.209	46.25
273.425	42.15
273.64	-39.76
273.856	111.78
274.072	29.87
274.287	15.53
274.503	83.11
274.719	-2.9
274.934	-0.85
275.15	-0.85
275.366	11.43
275.581	40.11
275.797	70.83
276.012	85.16
276.228	17.58
276.444	29.87
276.659	48.3
276.875	111.78
277.09	38.06
277.306	21.67
277.521	70.83
277.737	83.11
277.952	48.3
278.168	46.25
278.383	38.06
278.599	87.21
278.814	177.32
279.03	38.06
279.245	105.64
279.461	-9.05
279.676	99.5
279.892	-33.62
280.107	85.16
280.322	-23.38
280.538	7.34
280.753	-47.96
280.969	70.83
281.184	70.83
281.399	66.73
281.615	25.77
281.83	23.72
282.045	27.82
282.26	13.48
282.476	40.11
282.691	17.58
282.906	-11.09
283.122	62.63
283.337	5.29
283.552	21.67
283.767	-29.52
283.983	83.11
284.198	21.67
284.413	150.7
284.628	52.39
284.843	40.11
285.058	91.31
285.274	1.19
285.489	46.25
285.704	54.44
285.919	9.39
286.134	46.25
286.349	17.58
286.564	-35.67
286.779	95.4
286.995	-4.95
287.21	38.06
287.425	9.39
287.64	29.87
287.855	13.48
288.07	-2.9
288.285	-11.09
288.5	-23.38
288.715	56.49
288.93	99.5
289.145	-25.43
289.36	58.54
289.575	7.34
289.79	23.72
290.004	29.87
290.219	81.07
290.434	50.35
290.649	70.83
290.864	103.59
291.079	58.54
291.294	1.19
291.509	46.25
291.724	25.77
291.938	29.87
292.153	17.58
292.368	-0.85
292.583	42.15
292.798	111.78
293.012	87.21
293.227	38.06
293.442	50.35
293.657	7.34
293.871	66.73
294.086	29.87
294.301	74.92
294.516	81.07
294.73	79.02
294.945	-15.19
295.16	56.49
295.374	122.02
295.589	62.63
295.804	15.53
296.018	64.68
296.233	136.36
296.447	79.02
296.662	79.02
296.877	33.96
297.091	85.16
297.306	81.07
297.52	-0.85
297.735	21.67
297.949	52.39
298.164	83.11
298.378	97.45
298.593	5.29
298.807	19.63
299.022	15.53
299.236	-0.85
299.451	13.48
299.665	46.25
299.88	64.68
300.094	33.96
300.309	-35.67
300.523	64.68
300.737	40.11
300.952	56.49
301.166	46.25
301.381	25.77
301.595	79.02
301.809	-70.48
302.024	56.49
302.238	5.29
302.452	54.44
302.667	76.97
302.881	44.2
303.095	66.73
303.309	46.25
303.524	13.48
303.738	56.49
303.952	-7
304.166	79.02
304.381	23.72
304.595	95.4
304.809	62.63
305.023	21.67
305.237	29.87
305.452	74.92
305.666	52.39
305.88	81.07
306.094	62.63
306.308	21.67
306.522	76.97
306.736	21.67
306.95	62.63
307.164	46.25
307.379	-2.9
307.593	40.11
307.807	29.87
308.021	58.54
308.235	81.07
308.449	-35.67
308.663	46.25
308.877	40.11
309.091	25.77
309.305	74.92
309.519	-60.24
309.733	-31.57
309.947	-11.09
310.161	134.31
310.374	62.63
310.588	99.5
310.802	-9.05
311.016	13.48
311.23	64.68
311.444	33.96
311.658	74.92
311.872	81.07
312.085	97.45
312.299	97.45
312.513	115.88
312.727	-23.38
312.941	40.11
313.154	42.15
313.368	66.73
313.582	-27.48
313.796	76.97
314.009	21.67
314.223	48.3
314.437	64.68
314.651	95.4
314.864	93.35
315.078	62.63
315.292	-68.44
315.505	40.11
315.719	54.44
315.933	25.77
316.146	79.02
316.36	46.25
316.573	107.69
316.787	1.19
317.001	50.35
317.214	-11.09
317.428	36.01
317.641	15.53
317.855	60.59
318.068	1.19
318.282	29.87
318.495	97.45
318.709	25.77
318.922	-29.52
319.136	124.07
319.349	113.83
319.563	103.59
319.776	15.53
319.99	13.48
320.203	-2.9
320.417	56.49
320.63	79.02
320.843	119.98
321.057	89.26
321.27	38.06
321.483	38.06
321.697	42.15
321.91	42.15
322.124	54.44
322.337	89.26
322.55	-11.09
322.763	56.49
322.977	21.67
323.19	54.44
323.403	87.21
323.617	72.87
323.83	60.59
324.043	42.15
324.256	62.63
324.469	7.34
324.683	50.35
324.896	-2.9
325.109	111.78
325.322	1.19
325.535	89.26
325.748	54.44
325.962	79.02
326.175	46.25
326.388	-11.09
326.601	103.59
326.814	95.4
327.027	29.87
327.24	111.78
327.453	9.39
327.666	79.02
327.879	95.4
328.092	27.82
328.305	79.02
328.518	87.21
328.731	-15.19
328.944	56.49
329.157	62.63
329.37	33.96
329.583	93.35
329.796	62.63
330.009	5.29
330.222	195.75
330.435	36.01
330.648	13.48
330.861	-11.09
331.073	40.11
331.286	81.07
331.499	81.07
331.712	29.87
331.925	44.2
332.138	119.98
332.35	105.64
332.563	3.24
332.776	62.63
332.989	-52.05
333.202	72.87
333.414	70.83
333.627	70.83
333.84	50.35
334.053	62.63
334.265	29.87
334.478	103.59
334.691	91.31
334.903	72.87
335.116	-35.67
335.329	19.63
335.541	29.87
335.754	48.3
335.966	79.02
336.179	111.78
336.392	111.78
336.604	50.35
336.817	31.91
337.029	79.02
337.242	25.77
337.454	13.48
337.667	46.25
337.88	87.21
338.092	105.64
338.305	60.59
338.517	21.67
338.729	19.63
338.942	-29.52
339.154	97.45
339.367	62.63
339.579	-7
339.792	-11.09
340.004	91.31
340.217	-11.09
340.429	111.78
340.641	-2.9
340.854	29.87
341.066	9.39
341.278	64.68
341.491	97.45
341.703	99.5
341.915	40.11
342.128	70.83
342.34	31.91
342.552	48.3
342.764	25.77
342.977	87.21
343.189	27.82
343.401	7.34
343.613	54.44
343.826	62.63
344.038	62.63
344.25	81.07
344.462	38.06
344.674	58.54
344.886	83.11
345.099	46.25
345.311	66.73
345.523	17.58
345.735	3.24
345.947	56.49
346.159	105.64
346.371	40.11
346.583	5.29
346.795	115.88
347.007	15.53
347.219	107.69
347.431	50.35
347.643	36.01
347.855	25.77
348.067	17.58
348.279	-39.76
348.491	40.11
348.703	42.15
348.915	5.29
349.127	38.06
349.339	111.78
349.551	-11.09
349.763	74.92
349.975	79.02
350.187	113.83
350.399	74.92
350.61	72.87
350.822	52.39
351.034	31.91
351.246	128.17
351.458	29.87
351.669	64.68
351.881	122.02
352.093	58.54
352.305	33.96
352.517	124.07
352.728	56.49
352.94	46.25
353.152	17.58
353.363	15.53
353.575	89.26
353.787	46.25
353.999	79.02
354.21	111.78
354.422	46.25
354.633	31.91
354.845	-19.29
355.057	21.67
355.268	66.73
355.48	56.49
355.692	38.06
355.903	23.72
356.115	-11.09
356.326	50.35
356.538	87.21
356.749	44.2
356.961	156.84
357.172	46.25
357.384	97.45
357.595	107.69
357.807	33.96
358.018	58.54
358.23	38.06
358.441	203.94
358.653	111.78
358.864	70.83
359.075	81.07
359.287	52.39
359.498	111.78
359.709	48.3
359.921	87.21
360.132	103.59
360.344	-7
360.555	29.87
360.766	-2.9
360.977	79.02
361.189	119.98
361.4	54.44
361.611	66.73
361.823	107.69
362.034	95.4
362.245	25.77
362.456	25.77
362.667	79.02
362.879	5.29
363.09	-25.43
363.301	81.07
363.512	21.67
363.723	62.63
363.935	-17.24
364.146	103.59
364.357	79.02
364.568	169.13
364.779	-31.57
364.99	113.83
365.201	42.15
365.412	54.44
365.623	23.72
365.834	15.53
366.045	95.4
366.256	40.11
366.467	27.82
366.678	38.06
366.889	105.64
367.1	50.35
367.311	103.59
367.522	40.11
367.733	56.49
367.944	113.83
368.155	38.06
368.366	44.2
368.577	72.87
368.788	31.91
368.999	46.25
369.209	23.72
369.42	111.78
369.631	173.22
369.842	99.5
370.053	-35.67
370.264	64.68
370.474	5.29
370.685	70.83
370.896	21.67
371.107	23.72
371.317	113.83
371.528	29.87
371.739	128.17
371.95	44.2
372.16	50.35
372.371	50.35
372.582	42.15
372.792	60.59
373.003	70.83
373.214	15.53
373.424	103.59
373.635	1.19
373.846	70.83
374.056	19.63
374.267	95.4
374.477	91.31
374.688	-13.14
374.898	64.68
375.109	7.34
375.319	74.92
375.53	97.45
375.74	54.44
375.951	25.77
376.161	152.74
376.372	152.74
376.582	64.68
376.793	54.44
377.003	40.11
377.214	109.74
377.424	40.11
377.635	19.63
377.845	46.25
378.055	144.55
378.266	29.87
378.476	128.17
378.686	128.17
378.897	150.7
379.107	-4.95
379.317	95.4
379.528	70.83
379.738	40.11
379.948	66.73
380.158	70.83
380.369	13.48
380.579	76.97
380.789	42.15
380.999	66.73
381.21	95.4
381.42	138.41
381.63	23.72
381.84	138.41
382.05	115.88
382.261	103.59
382.471	99.5
382.681	38.06
382.891	103.59
383.101	148.65
383.311	31.91
383.521	140.46
383.731	113.83
383.941	111.78
384.151	111.78
384.361	70.83
384.571	103.59
384.781	17.58
384.991	91.31
385.201	175.27
385.411	111.78
385.621	79.02
385.831	74.92
386.041	81.07
386.251	52.39
386.461	95.4
386.671	33.96
386.881	76.97
387.091	81.07
387.301	93.35
387.511	68.78
387.72	48.3
387.93	99.5
388.14	42.15
388.35	124.07
388.56	144.55
388.769	111.78
388.979	119.98
389.189	79.02
389.399	-17.24
389.609	76.97
389.818	128.17
390.028	146.6
390.238	109.74
390.447	31.91
390.657	124.07
390.867	27.82
391.076	-19.29
391.286	74.92
391.496	113.83
391.705	13.48
391.915	171.18
392.125	148.65
392.334	58.54
392.544	95.4
392.753	64.68
392.963	111.78
393.172	64.68
393.382	50.35
393.591	177.32
393.801	54.44
394.01	138.41
394.22	89.26
394.429	138.41
394.639	109.74
394.848	156.84
395.058	160.94
395.267	144.55
395.477	54.44
395.686	115.88
395.895	95.4
396.105	177.32
396.314	195.75
396.524	162.98
396.733	132.26
396.942	214.18
397.152	119.98
397.361	87.21
397.57	97.45
397.78	124.07
397.989	136.36
398.198	124.07
398.407	54.44
398.617	119.98
398.826	46.25
399.035	46.25
399.244	107.69
399.453	95.4
399.663	144.55
399.872	162.98
400.081	99.5
400.29	185.51
400.499	228.52
400.708	175.27
400.917	156.84
401.127	122.02
401.336	105.64
401.545	300.2
401.754	142.5
401.963	208.04
402.172	152.74
402.381	169.13
402.59	169.13
402.799	169.13
403.008	146.6
403.217	271.53
403.426	193.7
403.635	148.65
403.844	160.94
404.053	210.09
404.262	263.33
404.471	232.62
404.68	208.04
404.888	177.32
405.097	185.51
405.306	218.28
405.515	226.47
405.724	283.81
405.933	257.19
406.142	244.9
406.35	242.85
406.559	263.33
406.768	304.29
406.977	296.1
407.185	251.05
407.394	246.95
407.603	306.34
407.812	328.87
408.02	373.92
408.229	337.06
408.438	316.58
408.646	349.35
408.855	300.2
409.064	382.12
409.272	369.83
409.481	390.31
409.69	378.02
409.898	337.06
410.107	459.94
410.315	484.52
410.524	431.27
410.733	423.08
410.941	588.96
411.15	488.61
411.358	535.71
411.567	597.15
411.775	603.3
411.984	529.57
412.192	685.22
412.401	629.92
412.609	693.41
412.818	744.61
413.026	808.09
413.234	701.6
413.443	775.33
413.651	758.94
413.86	742.56
414.068	799.9
414.276	988.32
414.485	955.55
414.693	963.74
414.901	1062.04
415.11	1113.24
415.318	1086.62
415.526	1135.77
415.734	1191.06
415.943	1225.88
416.151	1105.05
416.359	1285.27
416.567	1189.02
416.776	1385.62
416.984	1381.53
417.192	1442.96
417.4	1488.02
417.608	1504.4
417.817	1547.41
418.025	1645.71
418.233	1801.36
418.441	1694.86
418.649	1825.93
418.857	1954.96
419.065	2043.02
419.273	1924.24
419.481	2004.11
419.689	2225.29
419.897	2266.25
420.105	2167.95
420.313	2309.26
420.521	2378.89
420.729	2421.89
420.937	2501.76
421.145	2696.32
421.353	2669.7
421.561	2989.18
421.769	2894.97
421.977	3101.82
422.185	2937.98
422.393	3249.27
422.601	3415.16
422.809	3411.06
423.017	3552.37
423.224	3519.6
423.432	3751.03
423.64	3644.53
423.848	4093.04
424.056	4015.21
424.263	4301.93
424.471	4260.97
424.679	4449.38
424.887	4559.97
425.094	4813.92
425.302	4734.05
425.51	4813.92
425.718	5078.11
425.925	5190.75
426.133	5176.41
426.341	5588.05
426.548	5895.25
426.756	5782.61
426.964	5882.96
427.171	6276.17
427.379	6476.87
427.586	6714.44
427.794	6739.01
428.001	7117.89
428.209	7267.39
428.417	7191.61
428.624	7887.92
428.832	7797.81
429.039	7771.19
429.247	7674.93
429.454	8623.14
429.662	8868.9
429.869	8412.2
430.076	9135.14
430.284	8746.02
430.491	9008.16
430.699	9706.52
430.906	9657.37
431.114	9905.17
431.321	10169.36
431.528	10392.59
431.736	10966.02
431.943	11500.54
432.15	11281.41
432.358	11265.02
432.565	11844.6
432.772	11799.54
432.979	12387.31
433.187	12760.04
433.394	12719.08
433.601	13571.04
433.808	13349.85
434.016	13698.01
434.223	13972.44
434.43	14875.59
434.637	14851.02
434.844	15780.79
435.052	15602.62
435.259	15610.81
435.466	15758.27
435.673	15840.18
435.88	16843.69
436.087	17703.84
436.294	17836.95
436.501	17271.72
436.708	17640.35
436.915	18416.53
437.122	18981.77
437.329	18908.04
437.537	19190.66
437.743	19528.58
437.95	19614.59
438.157	20738.93
438.364	21150.57
438.571	21316.45
438.778	21527.39
438.985	23296.84
439.192	22543.19
439.399	23169.87
439.606	22555.47
439.813	24148.79
440.02	25371.43
440.227	25017.13
440.433	24982.32
440.64	25258.79
440.847	25205.55
441.054	26008.35
441.261	27828.99
441.467	27198.22
441.674	27788.03
441.881	28840.69
442.088	28500.73
442.294	28371.71
442.501	29115.12
442.708	29618.92
442.914	31247.05
443.121	31955.65
443.328	31550.15
443.534	33473.2
443.741	32379.58
443.948	32195.26
444.154	34255.52
444.361	34232.99
444.568	34405.02
444.774	34513.56
444.981	34749.08
445.187	35900.04
445.394	37415.54
445.6	36856.44
445.807	40135.24
446.013	38691.42
446.22	39129.69
446.426	40753.72
446.633	41237.05
446.839	42813.98
447.046	40782.4
447.252	42943
447.459	42854.94
447.665	43067.93
447.871	44571.14
448.078	46377.45
448.284	44415.49
448.491	45595.12
448.697	47184.35
448.903	47944.14
449.11	47849.94
449.316	47589.84
449.522	48515.53
449.728	49641.91
449.935	50168.24
450.141	50151.85
450.347	50831.78
450.553	49265.08
450.76	50194.86
450.966	51253.66
451.172	50903.46
451.378	52300.17
451.584	51063.2
451.791	52523.4
451.997	52349.32
452.203	52830.6
452.409	52902.28
452.615	52945.28
452.821	51130.78
453.027	50727.33
453.233	52875.65
453.44	51003.81
453.646	51323.29
453.852	51390.87
454.058	52294.03
454.264	50784.68
454.47	52128.14
454.676	50956.71
454.882	52355.47
455.088	48595.4
455.294	48720.32
455.5	49441.21
455.705	49906.1
455.911	47946.19
456.117	47376.86
456.323	46649.83
456.529	44446.21
456.735	46082.54
456.941	44499.46
457.147	44276.23
457.352	42572.32
457.558	42676.77
457.764	42768.93
457.97	41534
458.176	40581.7
458.381	40589.89
458.587	38693.47
458.793	38830.68
458.999	36930.17
459.204	39307.86
459.41	38302.31
459.616	35863.18
459.821	35807.88
460.027	35723.91
460.233	35138.19
460.438	33405.61
460.644	33782.44
460.85	31871.68
461.055	31580.87
461.261	31984.32
461.466	29266.67
461.672	28140.29
461.878	29887.2
462.083	28295.93
462.289	27599.62
462.494	27611.91
462.7	26356.5
462.905	25527.08
463.111	26479.38
463.316	26516.25
463.522	26024.73
463.727	25961.25
463.932	25758.5
464.138	25764.64
464.343	25746.21
464.549	24982.32
464.754	25600.8
464.959	25684.77
465.165	25174.83
465.37	24095.55
465.575	23735.1
465.781	24490.8
465.986	24474.42
466.191	23794.5
