Data from USB4F104151__173__14-32-31-664.txt Node

Date: Thu Mar 13 14:32:31 EDT 2025
User: louis
Spectrometer: USB4F10415
Trigger mode: 4
Integration Time (sec): 2.500000E-2
Scans to average: 1
Electric dark correction enabled: true
Nonlinearity correction enabled: false
Boxcar width: 0
XAxis mode: Wavelengths
Number of Pixels in Spectrum: 3648
>>>>>Begin Spectral Data<<<<<
178.204	-180.05
178.424	-180.05
178.644	-180.05
178.864	-169.81
179.084	-190.29
179.304	-18.26
179.524	6.31
179.744	-83.8
179.964	-1.88
180.184	106.67
180.404	-18.26
180.624	8.36
180.844	-1.88
181.064	-24.4
181.283	-16.21
181.503	-14.17
181.723	57.51
181.943	-59.22
182.163	49.32
182.383	39.08
182.602	22.7
182.822	47.27
183.042	26.79
183.262	28.84
183.482	-1.88
183.701	-67.41
183.921	30.89
184.141	-36.69
184.361	49.32
184.58	104.62
184.8	-34.64
185.02	-24.4
185.239	104.62
185.459	39.08
185.679	8.36
185.898	-77.65
186.118	55.47
186.338	-10.07
186.557	75.95
186.777	-1.88
186.997	-71.51
187.216	0.17
187.436	80.04
187.655	47.27
187.875	-1.88
188.095	14.51
188.314	32.94
188.534	47.27
188.753	-34.64
188.973	-16.21
189.192	63.66
189.412	57.51
189.631	80.04
189.851	47.27
190.07	82.09
190.29	-12.12
190.509	41.13
190.729	14.51
190.948	96.43
191.168	143.53
191.387	90.28
191.607	20.65
191.826	37.03
192.045	49.32
192.265	8.36
192.484	63.66
192.704	6.31
192.923	22.7
193.142	49.32
193.362	47.27
193.581	71.85
193.8	100.52
194.02	186.54
194.239	59.56
194.458	41.13
194.678	30.89
194.897	14.51
195.116	6.31
195.335	47.27
195.555	59.56
195.774	96.43
195.993	30.89
196.212	71.85
196.432	-69.46
196.651	18.6
196.87	-26.45
197.089	96.43
197.308	22.7
197.528	55.47
197.747	-16.21
197.966	-16.21
198.185	59.56
198.404	8.36
198.623	41.13
198.842	75.95
199.062	75.95
199.281	125.1
199.5	-18.26
199.719	0.17
199.938	80.04
200.157	92.33
200.376	94.38
200.595	100.52
200.814	90.28
201.033	37.03
201.252	18.6
201.471	96.43
201.69	94.38
201.909	39.08
202.128	22.7
202.347	51.37
202.566	-24.4
202.785	-14.17
203.004	16.55
203.223	73.9
203.442	71.85
203.661	-12.12
203.879	80.04
204.098	55.47
204.317	32.94
204.536	145.58
204.755	65.71
204.974	37.03
205.193	80.04
205.411	65.71
205.63	61.61
205.849	-28.5
206.068	-79.7
206.287	-1.88
206.505	71.85
206.724	-10.07
206.943	24.75
207.162	-40.79
207.381	65.71
207.599	32.94
207.818	-1.88
208.037	20.65
208.255	-32.6
208.474	30.89
208.693	71.85
208.911	-5.97
209.13	6.31
209.349	55.47
209.567	104.62
209.786	22.7
210.005	71.85
210.223	53.42
210.442	-48.98
210.661	-12.12
210.879	49.32
211.098	30.89
211.316	57.51
211.535	65.71
211.753	8.36
211.972	71.85
212.191	-16.21
212.409	2.22
212.628	14.51
212.846	49.32
213.065	55.47
213.283	55.47
213.502	22.7
213.72	61.61
213.938	-65.36
214.157	98.47
214.375	18.6
214.594	14.51
214.812	47.27
215.031	104.62
215.249	39.08
215.467	6.31
215.686	47.27
215.904	-16.21
216.122	-5.97
216.341	82.09
216.559	-26.45
216.778	24.75
216.996	0.17
217.214	4.27
217.432	18.6
217.651	55.47
217.869	26.79
218.087	-18.26
218.306	2.22
218.524	32.94
218.742	-16.21
218.96	24.75
219.179	-18.26
219.397	-28.5
219.615	86.19
219.833	2.22
220.051	80.04
220.27	41.13
220.488	30.89
220.706	55.47
220.924	6.31
221.142	73.9
221.36	10.41
221.578	39.08
221.796	34.99
222.015	51.37
222.233	4.27
222.451	96.43
222.669	32.94
222.887	96.43
223.105	-8.02
223.323	41.13
223.541	73.9
223.759	-1.88
223.977	28.84
224.195	32.94
224.413	71.85
224.631	67.75
224.849	39.08
225.067	80.04
225.285	67.75
225.503	39.08
225.721	-59.22
225.939	86.19
226.157	6.31
226.375	30.89
226.592	14.51
226.81	55.47
227.028	114.86
227.246	57.51
227.464	-38.74
227.682	75.95
227.9	110.76
228.117	49.32
228.335	-24.4
228.553	30.89
228.771	39.08
228.989	57.51
229.206	30.89
229.424	10.41
229.642	39.08
229.86	-18.26
230.077	139.43
230.295	63.66
230.513	59.56
230.731	71.85
230.948	92.33
231.166	51.37
231.384	14.51
231.601	6.31
231.819	49.32
232.037	-8.02
232.254	-1.88
232.472	-34.64
232.689	-20.31
232.907	39.08
233.125	71.85
233.342	14.51
233.56	39.08
233.777	32.94
233.995	80.04
234.213	98.47
234.43	14.51
234.648	49.32
234.865	-30.55
235.083	63.66
235.3	10.41
235.518	49.32
235.735	155.82
235.953	65.71
236.17	-46.93
236.388	-1.88
236.605	26.79
236.822	82.09
237.04	92.33
237.257	2.22
237.475	-14.17
237.692	-26.45
237.909	6.31
238.127	22.7
238.344	59.56
238.562	121
238.779	-28.5
238.996	-34.64
239.214	0.17
239.431	24.75
239.648	43.18
239.865	-10.07
240.083	73.9
240.3	47.27
240.517	0.17
240.735	67.75
240.952	88.23
241.169	28.84
241.386	2.22
241.603	8.36
241.821	-1.88
242.038	88.23
242.255	73.9
242.472	-40.79
242.689	55.47
242.907	51.37
243.124	2.22
243.341	30.89
243.558	22.7
243.775	96.43
243.992	65.71
244.209	98.47
244.426	75.95
244.643	-26.45
244.86	-16.21
245.078	39.08
245.295	32.94
245.512	41.13
245.729	22.7
245.946	63.66
246.163	34.99
246.38	-40.79
246.597	-30.55
246.814	22.7
247.031	-10.07
247.248	-16.21
247.464	-18.26
247.681	88.23
247.898	73.9
248.115	106.67
248.332	26.79
248.549	88.23
248.766	88.23
248.983	20.65
249.2	14.51
249.417	-34.64
249.633	80.04
249.85	57.51
250.067	24.75
250.284	88.23
250.501	49.32
250.717	14.51
250.934	-24.4
251.151	47.27
251.368	-44.88
251.585	-12.12
251.801	43.18
252.018	-36.69
252.235	116.9
252.451	4.27
252.668	-57.17
252.885	-46.93
253.102	39.08
253.318	-5.97
253.535	39.08
253.752	12.46
253.968	61.61
254.185	-26.45
254.401	30.89
254.618	16.55
254.835	26.79
255.051	82.09
255.268	43.18
255.484	47.27
255.701	14.51
255.917	39.08
256.134	59.56
256.351	-16.21
256.567	-34.64
256.784	-10.07
257	55.47
257.217	80.04
257.433	71.85
257.65	37.03
257.866	10.41
258.082	-51.03
258.299	39.08
258.515	22.7
258.732	-73.56
258.948	75.95
259.165	129.19
259.381	-79.7
259.597	16.55
259.814	80.04
260.03	-34.64
260.246	39.08
260.463	65.71
260.679	104.62
260.895	6.31
261.112	32.94
261.328	-20.31
261.544	-77.65
261.761	73.9
261.977	80.04
262.193	26.79
262.409	59.56
262.626	-1.88
262.842	0.17
263.058	39.08
263.274	41.13
263.49	-32.6
263.707	59.56
263.923	16.55
264.139	22.7
264.355	55.47
264.571	84.14
264.787	-28.5
265.004	4.27
265.22	92.33
265.436	18.6
265.652	-14.17
265.868	47.27
266.084	-10.07
266.3	129.19
266.516	24.75
266.732	26.79
266.948	67.75
267.164	112.81
267.38	-18.26
267.596	149.67
267.812	63.66
268.028	39.08
268.244	53.42
268.46	94.38
268.676	-91.99
268.892	45.23
269.108	30.89
269.324	8.36
269.54	-42.84
269.756	114.86
269.972	127.14
270.188	47.27
270.403	-18.26
270.619	55.47
270.835	-20.31
271.051	39.08
271.267	-5.97
271.483	-16.21
271.698	39.08
271.914	96.43
272.13	22.7
272.346	18.6
272.562	30.89
272.777	71.85
272.993	39.08
273.209	-10.07
273.425	14.51
273.64	8.36
273.856	63.66
274.072	30.89
274.287	0.17
274.503	80.04
274.719	108.71
274.934	41.13
275.15	43.18
275.366	-10.07
275.581	20.65
275.797	14.51
276.012	47.27
276.228	-10.07
276.444	32.94
276.659	34.99
276.875	-26.45
277.09	-1.88
277.306	53.42
277.521	57.51
277.737	86.19
277.952	6.31
278.168	51.37
278.383	6.31
278.599	55.47
278.814	51.37
279.03	63.66
279.245	34.99
279.461	-8.02
279.676	22.7
279.892	-26.45
280.107	65.71
280.322	-16.21
280.538	30.89
280.753	14.51
280.969	14.51
281.184	-34.64
281.399	26.79
281.615	47.27
281.83	59.56
282.045	-48.98
282.26	18.6
282.476	14.51
282.691	47.27
282.906	-26.45
283.122	-5.97
283.337	51.37
283.552	18.6
283.767	-14.17
283.983	71.85
284.198	-1.88
284.413	16.55
284.628	34.99
284.843	55.47
285.058	37.03
285.274	39.08
285.489	-20.31
285.704	80.04
285.919	39.08
286.134	43.18
286.349	8.36
286.564	-16.21
286.779	57.51
286.995	41.13
287.21	-46.93
287.425	71.85
287.64	-42.84
287.855	82.09
288.07	-44.88
288.285	112.81
288.5	22.7
288.715	14.51
288.93	-8.02
289.145	2.22
289.36	8.36
289.575	-1.88
289.79	71.85
290.004	14.51
290.219	55.47
290.434	28.84
290.649	24.75
290.864	80.04
291.079	10.41
291.294	39.08
291.509	-1.88
291.724	55.47
291.938	2.22
292.153	16.55
292.368	10.41
292.583	14.51
292.798	71.85
293.012	-67.41
293.227	43.18
293.442	39.08
293.657	28.84
293.871	90.28
294.086	6.31
294.301	73.9
294.516	55.47
294.73	16.55
294.945	0.17
295.16	47.27
295.374	-10.07
295.589	16.55
295.804	-16.21
296.018	6.31
296.233	157.86
296.447	39.08
296.662	-5.97
296.877	8.36
297.091	22.7
297.306	88.23
297.52	57.51
297.735	47.27
297.949	80.04
298.164	26.79
298.378	-20.31
298.593	-10.07
298.807	18.6
299.022	84.14
299.236	-14.17
299.451	-32.6
299.665	90.28
299.88	-20.31
300.094	59.56
300.309	0.17
300.523	22.7
300.737	57.51
300.952	51.37
301.166	59.56
301.381	43.18
301.595	51.37
301.809	18.6
302.024	47.27
302.238	-12.12
302.452	73.9
302.667	-1.88
302.881	41.13
303.095	59.56
303.309	47.27
303.524	80.04
303.738	-14.17
303.952	77.99
304.166	24.75
304.381	-51.03
304.595	32.94
304.809	-14.17
305.023	90.28
305.237	41.13
305.452	-26.45
305.666	55.47
305.88	67.75
306.094	51.37
306.308	14.51
306.522	-42.84
306.736	43.18
306.95	14.51
307.164	32.94
307.379	55.47
307.593	39.08
307.807	104.62
308.021	12.46
308.235	-10.07
308.449	55.47
308.663	6.31
308.877	141.48
309.091	82.09
309.305	18.6
309.519	39.08
309.733	49.32
309.947	-16.21
310.161	98.47
310.374	55.47
310.588	90.28
310.802	-3.93
311.016	-8.02
311.23	14.51
311.444	14.51
311.658	26.79
311.872	55.47
312.085	49.32
312.299	41.13
312.513	88.23
312.727	49.32
312.941	-1.88
313.154	2.22
313.368	43.18
313.582	6.31
313.796	-10.07
314.009	34.99
314.223	24.75
314.437	65.71
314.651	123.05
314.864	-24.4
315.078	-18.26
315.292	-24.4
315.505	16.55
315.719	30.89
315.933	43.18
316.146	20.65
316.36	-12.12
316.573	24.75
316.787	49.32
317.001	116.9
317.214	63.66
317.428	14.51
317.641	-26.45
317.855	10.41
318.068	14.51
318.282	51.37
318.495	104.62
318.709	67.75
318.922	-30.55
319.136	96.43
319.349	84.14
319.563	16.55
319.776	65.71
319.99	-24.4
320.203	47.27
320.417	32.94
320.63	16.55
320.843	125.1
321.057	57.51
321.27	47.27
321.483	59.56
321.697	63.66
321.91	71.85
322.124	39.08
322.337	39.08
322.55	24.75
322.763	0.17
322.977	73.9
323.19	39.08
323.403	8.36
323.617	-5.97
323.83	22.7
324.043	51.37
324.256	18.6
324.469	-10.07
324.683	80.04
324.896	10.41
325.109	67.75
325.322	-28.5
325.535	34.99
325.748	39.08
325.962	65.71
326.175	55.47
326.388	121
326.601	75.95
326.814	80.04
327.027	88.23
327.24	47.27
327.453	8.36
327.666	71.85
327.879	63.66
328.092	92.33
328.305	37.03
328.518	8.36
328.731	-22.36
328.944	30.89
329.157	34.99
329.37	30.89
329.583	141.48
329.796	61.61
330.009	-42.84
330.222	88.23
330.435	61.61
330.648	80.04
330.861	41.13
331.073	59.56
331.286	49.32
331.499	26.79
331.712	4.27
331.925	63.66
332.138	112.81
332.35	20.65
332.563	-32.6
332.776	30.89
332.989	63.66
333.202	39.08
333.414	-42.84
333.627	80.04
333.84	-8.02
334.053	137.38
334.265	6.31
334.478	61.61
334.691	49.32
334.903	41.13
335.116	18.6
335.329	112.81
335.541	88.23
335.754	71.85
335.966	39.08
336.179	75.95
336.392	47.27
336.604	59.56
336.817	47.27
337.029	10.41
337.242	71.85
337.454	45.23
337.667	51.37
337.88	-18.26
338.092	32.94
338.305	59.56
338.517	-32.6
338.729	47.27
338.942	96.43
339.154	22.7
339.367	18.6
339.579	32.94
339.792	47.27
340.004	106.67
340.217	-28.5
340.429	51.37
340.641	57.51
340.854	10.41
341.066	49.32
341.278	86.19
341.491	69.8
341.703	59.56
341.915	57.51
342.128	2.22
342.34	65.71
342.552	-67.41
342.764	53.42
342.977	-16.21
343.189	65.71
343.401	82.09
343.613	18.6
343.826	28.84
344.038	-18.26
344.25	-22.36
344.462	30.89
344.674	47.27
344.886	-1.88
345.099	-12.12
345.311	59.56
345.523	59.56
345.735	-10.07
345.947	116.9
346.159	-40.79
346.371	10.41
346.583	14.51
346.795	139.43
347.007	6.31
347.219	4.27
347.431	41.13
347.643	59.56
347.855	-28.5
348.067	88.23
348.279	77.99
348.491	49.32
348.703	30.89
348.915	0.17
349.127	0.17
349.339	63.66
349.551	-46.93
349.763	43.18
349.975	123.05
350.187	80.04
350.399	2.22
350.61	37.03
350.822	77.99
351.034	6.31
351.246	34.99
351.458	121
351.669	69.8
351.881	22.7
352.093	63.66
352.305	121
352.517	88.23
352.728	129.19
352.94	104.62
353.152	49.32
353.363	-5.97
353.575	30.89
353.787	55.47
353.999	51.37
354.21	98.47
354.422	-16.21
354.633	-28.5
354.845	43.18
355.057	16.55
355.268	2.22
355.48	43.18
355.692	24.75
355.903	41.13
356.115	-38.74
356.326	18.6
356.538	43.18
356.749	39.08
356.961	135.34
357.172	41.13
357.384	-44.88
357.595	145.58
357.807	59.56
358.018	55.47
358.23	2.22
358.441	96.43
358.653	82.09
358.864	-10.07
359.075	55.47
359.287	37.03
359.498	6.31
359.709	84.14
359.921	71.85
360.132	28.84
360.344	41.13
360.555	-3.93
360.766	49.32
360.977	-44.88
361.189	-55.12
361.4	6.31
361.611	90.28
361.823	69.8
362.034	82.09
362.245	-24.4
362.456	73.9
362.667	82.09
362.879	-24.4
363.09	6.31
363.301	37.03
363.512	-51.03
363.723	-16.21
363.935	26.79
364.146	129.19
364.357	26.79
364.568	133.29
364.779	-42.84
364.99	41.13
365.201	-34.64
365.412	114.86
365.623	-26.45
365.834	96.43
366.045	75.95
366.256	77.99
366.467	30.89
366.678	49.32
366.889	-40.79
367.1	47.27
367.311	53.42
367.522	10.41
367.733	10.41
367.944	108.71
368.155	45.23
368.366	104.62
368.577	82.09
368.788	34.99
368.999	71.85
369.209	12.46
369.42	145.58
369.631	51.37
369.842	84.14
370.053	-10.07
370.264	14.51
370.474	59.56
370.685	39.08
370.896	104.62
371.107	112.81
371.317	49.32
371.528	10.41
371.739	80.04
371.95	84.14
372.16	22.7
372.371	39.08
372.582	14.51
372.792	22.7
373.003	43.18
373.214	32.94
373.424	63.66
373.635	49.32
373.846	145.58
374.056	-34.64
374.267	90.28
374.477	28.84
374.688	-1.88
374.898	18.6
375.109	84.14
375.319	34.99
375.53	34.99
375.74	57.51
375.951	96.43
376.161	55.47
376.372	43.18
376.582	41.13
376.793	80.04
377.003	6.31
377.214	6.31
377.424	39.08
377.635	30.89
377.845	77.99
378.055	0.17
378.266	24.75
378.476	71.85
378.686	8.36
378.897	65.71
379.107	41.13
379.317	67.75
379.528	47.27
379.738	96.43
379.948	0.17
380.158	133.29
380.369	75.95
380.579	90.28
380.789	6.31
380.999	6.31
381.21	30.89
381.42	41.13
381.63	37.03
381.84	88.23
382.05	88.23
382.261	112.81
382.471	59.56
382.681	47.27
382.891	108.71
383.101	47.27
383.311	24.75
383.521	22.7
383.731	137.38
383.941	104.62
384.151	47.27
384.361	30.89
384.571	112.81
384.781	43.18
384.991	145.58
385.201	100.52
385.411	47.27
385.621	26.79
385.831	84.14
386.041	73.9
386.251	24.75
386.461	55.47
386.671	96.43
386.881	129.19
387.091	41.13
387.301	43.18
387.511	47.27
387.72	0.17
387.93	69.8
388.14	43.18
388.35	92.33
388.56	86.19
388.769	71.85
388.979	30.89
389.189	-30.55
389.399	131.24
389.609	96.43
389.818	65.71
390.028	106.67
390.238	77.99
390.447	-32.6
390.657	69.8
390.867	-26.45
391.076	121
391.286	61.61
391.496	92.33
391.705	30.89
391.915	55.47
392.125	112.81
392.334	41.13
392.544	80.04
392.753	88.23
392.963	45.23
393.172	143.53
393.382	-10.07
393.591	125.1
393.801	55.47
394.01	63.66
394.22	-1.88
394.429	10.41
394.639	75.95
394.848	47.27
395.058	43.18
395.267	90.28
395.477	20.65
395.686	149.67
395.895	129.19
396.105	80.04
396.314	112.81
396.524	84.14
396.733	104.62
396.942	73.9
397.152	47.27
397.361	73.9
397.57	141.48
397.78	59.56
397.989	82.09
398.198	121
398.407	43.18
398.617	55.47
398.826	96.43
399.035	47.27
399.244	184.49
399.453	47.27
399.663	39.08
399.872	131.24
400.081	55.47
400.29	159.91
400.499	92.33
400.708	190.63
400.917	63.66
401.127	65.71
401.336	34.99
401.545	129.19
401.754	59.56
401.963	112.81
402.172	59.56
402.381	0.17
402.59	110.76
402.799	155.82
403.008	180.39
403.217	129.19
403.426	104.62
403.635	71.85
403.844	75.95
404.053	131.24
404.262	75.95
404.471	157.86
404.68	108.71
404.888	86.19
405.097	100.52
405.306	39.08
405.515	147.62
405.724	92.33
405.933	231.59
406.142	129.19
406.35	178.34
406.559	157.86
406.768	184.49
406.977	223.4
407.185	233.64
407.394	172.2
407.603	180.39
407.812	178.34
408.02	260.26
408.229	223.4
408.438	194.73
408.646	202.92
408.855	241.83
409.064	213.16
409.272	268.45
409.481	233.64
409.69	194.73
409.898	213.16
410.107	303.27
410.315	325.8
410.524	313.51
410.733	350.37
410.941	229.54
411.15	370.85
411.358	374.95
411.567	364.71
411.775	333.99
411.984	321.7
412.192	465.06
412.401	440.48
412.609	377
412.818	460.96
413.026	454.82
413.234	477.35
413.443	436.39
413.651	381.09
413.86	510.11
414.068	542.88
414.276	594.08
414.485	616.61
414.693	606.37
414.901	772.25
415.11	612.51
415.318	637.09
415.526	680.1
415.734	749.73
415.943	663.71
416.151	694.43
416.359	747.68
416.567	784.54
416.776	764.06
416.984	975
417.192	903.32
417.4	858.27
417.608	909.47
417.817	1022.11
418.025	1018.01
418.233	1089.69
418.441	1079.45
418.649	964.76
418.857	1144.99
419.065	1198.23
419.273	1169.56
419.481	1235.1
419.689	1331.35
419.897	1441.94
420.105	1306.77
420.313	1425.56
420.521	1476.76
420.729	1423.51
420.937	1609.87
421.145	1652.88
421.353	1718.42
421.561	1826.96
421.769	1833.1
421.977	1931.41
422.185	1941.65
422.393	1960.08
422.601	2173.07
422.809	2152.59
423.017	2080.91
423.224	2205.83
423.432	2367.62
423.64	2218.12
423.848	2500.74
424.056	2320.52
424.263	2529.41
424.471	2539.65
424.679	2558.08
424.887	2771.07
425.094	2934.91
425.302	2840.7
425.51	2926.72
425.718	3078.27
425.925	3061.88
426.133	3170.43
426.341	3496.05
426.548	3457.14
426.756	3618.93
426.964	3635.32
427.171	3670.13
427.379	3840.11
427.586	4085.87
427.794	4120.68
428.001	4202.6
428.209	4364.39
428.417	4343.91
428.624	4728.93
428.832	4681.83
429.039	4702.31
429.247	4681.83
429.454	5150.81
429.662	5460.06
429.869	5060.7
430.076	5445.72
430.284	5298.27
430.491	5429.34
430.699	5810.26
430.906	5767.25
431.114	5922.9
431.321	6076.49
431.528	6152.27
431.736	6625.35
431.943	6731.84
432.15	6721.6
432.358	6781
432.565	6957.12
432.772	7159.87
432.979	7505.98
433.187	7665.72
433.394	7835.7
433.601	8165.42
433.808	8333.36
434.016	8300.59
434.223	8525.86
434.43	8984.61
434.637	8878.12
434.844	9508.89
435.052	9701.4
435.259	9623.58
435.466	9560.09
435.673	9535.51
435.88	10235.92
436.087	10754.05
436.294	10602.5
436.501	10178.58
436.708	10647.56
436.915	10868.74
437.122	11466.75
437.329	11444.22
437.537	11929.59
437.743	11804.66
437.95	11790.33
438.157	12558.32
438.364	12933.09
438.571	13047.78
438.778	12890.09
438.985	13940.69
439.192	13457.37
439.399	13899.73
439.606	13668.31
439.813	14505.93
440.02	15034.31
440.227	15038.41
440.433	14915.53
440.64	15384.51
440.847	15071.17
441.054	15427.52
441.261	16578.48
441.467	16248.75
441.674	16885.67
441.881	17348.51
442.088	17194.92
442.294	16975.78
442.501	17561.5
442.708	17842.07
442.914	18814.86
443.121	19255.17
443.328	18886.54
443.534	20172.66
443.741	19965.82
443.948	19732.35
444.154	21020.52
444.361	20584.3
444.568	21012.33
444.774	20785.01
444.981	21284.71
445.187	22042.46
445.394	22450
445.6	22216.54
445.807	24260.41
446.013	23328.58
446.22	23265.1
446.426	24629.04
446.633	24573.75
446.839	25702.18
447.046	24745.78
447.252	26058.53
447.459	26072.86
447.665	25806.62
447.871	26840.85
448.078	27928.32
448.284	27117.32
448.491	27428.62
448.697	28759.8
448.903	29284.08
449.11	29173.49
449.316	28630.77
449.522	29689.57
449.728	30324.44
449.935	30527.19
450.141	30244.57
450.347	30787.28
450.553	29884.13
450.76	30217.95
450.966	31338.19
451.172	31063.76
451.378	31999.68
451.584	30977.75
451.791	31874.76
451.997	31299.28
452.203	32587.45
452.409	32517.82
452.615	32077.51
452.821	30955.22
453.027	30633.69
453.233	32284.35
453.44	31045.33
453.646	30981.84
453.852	31067.86
454.058	31934.15
454.264	30781.14
454.47	31538.89
454.676	30854.87
454.882	31715.01
455.088	29245.16
455.294	29269.74
455.5	29626.09
455.705	30213.85
455.911	28962.54
456.117	28116.73
456.323	28153.6
456.529	26294.04
456.735	27782.91
456.941	26689.3
457.147	26468.12
457.352	25505.57
457.558	25351.98
457.764	25749.28
457.97	24942.38
458.176	24405.81
458.381	24325.94
458.587	23244.62
458.793	23019.34
458.999	22034.27
459.204	23250.76
459.41	22837.07
459.616	21415.78
459.821	21378.92
460.027	21182.31
460.233	20979.56
460.438	19804.03
460.644	19961.72
460.85	19214.21
461.055	18982.79
461.261	18806.67
461.466	17479.58
461.672	16635.82
461.878	18169.75
462.083	16850.86
462.289	16445.36
462.494	16318.39
462.7	15355.84
462.905	15099.84
463.111	15603.64
463.316	16037.81
463.522	15472.57
463.727	15687.61
463.932	15452.09
464.138	15196.1
464.343	15310.79
464.549	14862.28
464.754	15529.92
464.959	15017.93
465.165	15220.67
465.37	14561.23
465.575	14086.1
465.781	14483.41
465.986	14704.59
466.191	14303.18
466.397	14039
466.602	13051.88
466.807	13899.73
467.012	13727.71
467.218	13686.75
467.423	13465.57
