Data from USB4F104151__289__14-34-50-399.txt Node

Date: Thu Mar 13 14:34:50 EDT 2025
User: louis
Spectrometer: USB4F10415
Trigger mode: 4
Integration Time (sec): 2.500000E-2
Scans to average: 1
Electric dark correction enabled: true
Nonlinearity correction enabled: false
Boxcar width: 0
XAxis mode: Wavelengths
Number of Pixels in Spectrum: 3648
>>>>>Begin Spectral Data<<<<<
178.204	-135.51
178.424	-135.51
178.644	-135.51
178.864	-104.79
179.084	-135.51
179.304	-12.63
179.524	-6.49
179.744	22.19
179.964	30.38
180.184	18.09
180.404	5.8
180.624	20.14
180.844	-31.06
181.064	-80.21
181.283	-4.44
181.503	-20.82
181.723	59.05
181.943	-80.21
182.163	108.2
182.383	69.29
182.602	102.06
182.822	28.33
183.042	140.97
183.262	28.33
183.482	36.52
183.701	-63.83
183.921	11.95
184.141	-4.44
184.361	44.71
184.58	61.1
184.8	9.9
185.02	34.47
185.239	50.86
185.459	42.67
185.679	36.52
185.898	18.09
186.118	44.71
186.338	73.39
186.557	-2.39
186.777	-26.96
186.997	-39.25
187.216	18.09
187.436	54.95
187.655	95.91
187.875	20.14
188.095	44.71
188.314	11.95
188.534	67.24
188.753	16.04
188.973	77.48
189.192	93.87
189.412	91.82
189.631	9.9
189.851	73.39
190.07	100.01
190.29	20.14
190.509	9.9
190.729	69.29
190.948	136.87
191.168	177.83
191.387	69.29
191.607	11.95
191.826	13.99
192.045	26.28
192.265	50.86
192.484	7.85
192.704	71.34
192.923	-45.4
193.142	87.72
193.362	59.05
193.581	67.24
193.8	32.43
194.02	91.82
194.239	52.91
194.458	71.34
194.678	-4.44
194.897	26.28
195.116	69.29
195.335	79.53
195.555	116.39
195.774	-29.01
195.993	1.71
196.212	-26.96
196.432	-2.39
196.651	-37.2
196.87	42.67
197.089	149.16
197.308	91.82
197.528	59.05
197.747	42.67
197.966	63.15
198.185	165.54
198.404	1.71
198.623	89.77
198.842	24.23
199.062	140.97
199.281	34.47
199.5	3.75
199.719	59.05
199.938	40.62
200.157	104.11
200.376	63.15
200.595	3.75
200.814	26.28
201.033	87.72
201.252	1.71
201.471	18.09
201.69	140.97
201.909	91.82
202.128	-72.02
202.347	77.48
202.566	52.91
202.785	3.75
203.004	18.09
203.223	83.63
203.442	11.95
203.661	-6.49
203.879	44.71
204.098	44.71
204.317	18.09
204.536	42.67
204.755	-31.06
204.974	83.63
205.193	42.67
205.411	75.43
205.63	13.99
205.849	5.8
206.068	20.14
206.287	63.15
206.505	26.28
206.724	34.47
206.943	-35.16
207.162	52.91
207.381	34.47
207.599	-6.49
207.818	75.43
208.037	9.9
208.255	-26.96
208.474	116.39
208.693	-8.53
208.911	-2.39
209.13	24.23
209.349	-22.87
209.567	34.47
209.786	44.71
210.005	48.81
210.223	-4.44
210.442	-51.54
210.661	1.71
210.879	118.44
211.098	-0.34
211.316	89.77
211.535	71.34
211.753	-8.53
211.972	75.43
212.191	-6.49
212.409	36.52
212.628	13.99
212.846	11.95
213.065	50.86
213.283	42.67
213.502	-6.49
213.72	13.99
213.938	13.99
214.157	-0.34
214.375	57
214.594	11.95
214.812	30.38
215.031	5.8
215.249	11.95
215.467	77.48
215.686	20.14
215.904	81.58
216.122	9.9
216.341	77.48
216.559	-45.4
216.778	79.53
216.996	5.8
217.214	30.38
217.432	-14.68
217.651	-51.54
217.869	57
218.087	102.06
218.306	-55.64
218.524	97.96
218.742	-2.39
218.96	18.09
219.179	42.67
219.397	54.95
219.615	165.54
219.833	18.09
220.051	-10.58
220.27	61.1
220.488	73.39
220.706	83.63
220.924	34.47
221.142	-2.39
221.36	-26.96
221.578	-18.77
221.796	22.19
222.015	36.52
222.233	44.71
222.451	100.01
222.669	9.9
222.887	87.72
223.105	36.52
223.323	87.72
223.541	-37.2
223.759	147.11
223.977	97.96
224.195	69.29
224.413	11.95
224.631	59.05
224.849	18.09
225.067	91.82
225.285	-39.25
225.503	22.19
225.721	-2.39
225.939	50.86
226.157	-24.92
226.375	106.15
226.592	-14.68
226.81	18.09
227.028	91.82
227.246	75.43
227.464	71.34
227.682	26.28
227.9	52.91
228.117	-35.16
228.335	75.43
228.553	3.75
228.771	75.43
228.989	52.91
229.206	16.04
229.424	36.52
229.642	11.95
229.86	-4.44
230.077	26.28
230.295	61.1
230.513	89.77
230.731	75.43
230.948	79.53
231.166	87.72
231.384	40.62
231.601	9.9
231.819	93.87
232.037	63.15
232.254	38.57
232.472	52.91
232.689	-6.49
232.907	59.05
233.125	59.05
233.342	-18.77
233.56	13.99
233.777	26.28
233.995	44.71
234.213	71.34
234.43	59.05
234.648	1.71
234.865	36.52
235.083	-6.49
235.3	9.9
235.518	-2.39
235.735	71.34
235.953	108.2
236.17	67.24
236.388	124.58
236.605	61.1
236.822	24.23
237.04	42.67
237.257	65.19
237.475	24.23
237.692	46.76
237.909	34.47
238.127	71.34
238.344	30.38
238.562	44.71
238.779	-26.96
238.996	-6.49
239.214	71.34
239.431	54.95
239.648	9.9
239.865	-8.53
240.083	110.25
240.3	61.1
240.517	1.71
240.735	-26.96
240.952	91.82
241.169	95.91
241.386	44.71
241.603	38.57
241.821	61.1
242.038	100.01
242.255	75.43
242.472	85.67
242.689	46.76
242.907	75.43
243.124	26.28
243.341	20.14
243.558	-0.34
243.775	-31.06
243.992	16.04
244.209	20.14
244.426	130.73
244.643	69.29
244.86	32.43
245.078	34.47
245.295	91.82
245.512	38.57
245.729	28.33
245.946	-43.35
246.163	20.14
246.38	46.76
246.597	77.48
246.814	50.86
247.031	3.75
247.248	38.57
247.464	61.1
247.681	-8.53
247.898	77.48
248.115	75.43
248.332	36.52
248.549	102.06
248.766	34.47
248.983	59.05
249.2	-22.87
249.417	108.2
249.633	75.43
249.85	93.87
250.067	5.8
250.284	75.43
250.501	-59.73
250.717	97.96
250.934	-26.96
251.151	13.99
251.368	59.05
251.585	1.71
251.801	1.71
252.018	-65.88
252.235	38.57
252.451	1.71
252.668	32.43
252.885	67.24
253.102	48.81
253.318	28.33
253.535	50.86
253.752	1.71
253.968	28.33
254.185	63.15
254.401	5.8
254.618	46.76
254.835	30.38
255.051	28.33
255.268	18.09
255.484	38.57
255.701	38.57
255.917	-14.68
256.134	61.1
256.351	36.52
256.567	50.86
256.784	16.04
257	-37.2
257.217	34.47
257.433	100.01
257.65	-14.68
257.866	138.92
258.082	24.23
258.299	38.57
258.515	42.67
258.732	59.05
258.948	-24.92
259.165	57
259.381	36.52
259.597	50.86
259.814	36.52
260.03	9.9
260.246	-12.63
260.463	59.05
260.679	77.48
260.895	9.9
261.112	91.82
261.328	-29.01
261.544	1.71
261.761	61.1
261.977	69.29
262.193	26.28
262.409	38.57
262.626	20.14
262.842	34.47
263.058	28.33
263.274	-55.64
263.49	77.48
263.707	13.99
263.923	11.95
264.139	-33.11
264.355	28.33
264.571	122.54
264.787	42.67
265.004	75.43
265.22	54.95
265.436	93.87
265.652	-6.49
265.868	36.52
266.084	77.48
266.3	9.9
266.516	-63.83
266.732	16.04
266.948	38.57
267.164	40.62
267.38	-4.44
267.596	50.86
267.812	61.1
268.028	65.19
268.244	1.71
268.46	61.1
268.676	48.81
268.892	118.44
269.108	13.99
269.324	13.99
269.54	18.09
269.756	116.39
269.972	-33.11
270.188	38.57
270.403	-4.44
270.619	89.77
270.835	54.95
271.051	9.9
271.267	11.95
271.483	38.57
271.698	46.76
271.914	128.68
272.13	9.9
272.346	26.28
272.562	-14.68
272.777	83.63
272.993	-2.39
273.209	20.14
273.425	67.24
273.64	7.85
273.856	85.67
274.072	50.86
274.287	30.38
274.503	118.44
274.719	5.8
274.934	-6.49
275.15	18.09
275.366	59.05
275.581	13.99
275.797	75.43
276.012	89.77
276.228	52.91
276.444	65.19
276.659	110.25
276.875	20.14
277.09	38.57
277.306	63.15
277.521	-24.92
277.737	57
277.952	38.57
278.168	9.9
278.383	93.87
278.599	63.15
278.814	57
279.03	34.47
279.245	104.11
279.461	1.71
279.676	91.82
279.892	-63.83
280.107	36.52
280.322	40.62
280.538	61.1
280.753	44.71
280.969	38.57
281.184	3.75
281.399	108.2
281.615	81.58
281.83	26.28
282.045	20.14
282.26	-14.68
282.476	-20.82
282.691	85.67
282.906	-31.06
283.122	3.75
283.337	3.75
283.552	22.19
283.767	-22.87
283.983	48.81
284.198	69.29
284.413	79.53
284.628	48.81
284.843	83.63
285.058	114.34
285.274	50.86
285.489	34.47
285.704	59.05
285.919	71.34
286.134	20.14
286.349	65.19
286.564	-35.16
286.779	108.2
286.995	54.95
287.21	-18.77
287.425	24.23
287.64	54.95
287.855	63.15
288.07	-31.06
288.285	83.63
288.5	91.82
288.715	140.97
288.93	91.82
289.145	-2.39
289.36	100.01
289.575	-80.21
289.79	108.2
290.004	52.91
290.219	100.01
290.434	36.52
290.649	42.67
290.864	-43.35
291.079	34.47
291.294	50.86
291.509	50.86
291.724	67.24
291.938	20.14
292.153	46.76
292.368	50.86
292.583	5.8
292.798	63.15
293.012	59.05
293.227	-47.44
293.442	50.86
293.657	50.86
293.871	89.77
294.086	85.67
294.301	126.63
294.516	-12.63
294.73	18.09
294.945	26.28
295.16	73.39
295.374	132.78
295.589	61.1
295.804	11.95
296.018	81.58
296.233	149.16
296.447	-69.97
296.662	22.19
296.877	36.52
297.091	67.24
297.306	-18.77
297.52	11.95
297.735	138.92
297.949	20.14
298.164	85.67
298.378	-0.34
298.593	26.28
298.807	50.86
299.022	-10.58
299.236	5.8
299.451	87.72
299.665	24.23
299.88	44.71
300.094	75.43
300.309	50.86
300.523	79.53
300.737	-14.68
300.952	75.43
301.166	83.63
301.381	-2.39
301.595	59.05
301.809	11.95
302.024	34.47
302.238	79.53
302.452	95.91
302.667	67.24
302.881	116.39
303.095	38.57
303.309	95.91
303.524	36.52
303.738	-22.87
303.952	36.52
304.166	-6.49
304.381	-14.68
304.595	71.34
304.809	1.71
305.023	52.91
305.237	34.47
305.452	30.38
305.666	104.11
305.88	116.39
306.094	46.76
306.308	50.86
306.522	24.23
306.736	28.33
306.95	120.49
307.164	1.71
307.379	124.58
307.593	83.63
307.807	50.86
308.021	100.01
308.235	44.71
308.449	1.71
308.663	34.47
308.877	132.78
309.091	61.1
309.305	59.05
309.519	-35.16
309.733	95.91
309.947	46.76
310.161	87.72
310.374	9.9
310.588	85.67
310.802	42.67
311.016	42.67
311.23	93.87
311.444	42.67
311.658	77.48
311.872	102.06
312.085	100.01
312.299	120.49
312.513	77.48
312.727	54.95
312.941	-6.49
313.154	61.1
313.368	87.72
313.582	59.05
313.796	73.39
314.009	67.24
314.223	63.15
314.437	59.05
314.651	69.29
314.864	42.67
315.078	38.57
315.292	52.91
315.505	42.67
315.719	13.99
315.933	50.86
316.146	-14.68
316.36	40.62
316.573	24.23
316.787	102.06
317.001	-4.44
317.214	71.34
317.428	42.67
317.641	38.57
317.855	75.43
318.068	-20.82
318.282	20.14
318.495	116.39
318.709	52.91
318.922	-31.06
319.136	65.19
319.349	85.67
319.563	28.33
319.776	122.54
319.99	34.47
320.203	7.85
320.417	71.34
320.63	20.14
320.843	124.58
321.057	52.91
321.27	69.29
321.483	85.67
321.697	52.91
321.91	79.53
322.124	11.95
322.337	91.82
322.55	34.47
322.763	59.05
322.977	54.95
323.19	40.62
323.403	52.91
323.617	95.91
323.83	83.63
324.043	22.19
324.256	91.82
324.469	9.9
324.683	54.95
324.896	52.91
325.109	77.48
325.322	-6.49
325.535	38.57
325.748	67.24
325.962	42.67
326.175	3.75
326.388	57
326.601	38.57
326.814	54.95
327.027	67.24
327.24	67.24
327.453	48.81
327.666	50.86
327.879	87.72
328.092	69.29
328.305	13.99
328.518	28.33
328.731	75.43
328.944	61.1
329.157	83.63
329.37	22.19
329.583	110.25
329.796	30.38
330.009	71.34
330.222	75.43
330.435	63.15
330.648	26.28
330.861	34.47
331.073	40.62
331.286	38.57
331.499	40.62
331.712	46.76
331.925	42.67
332.138	77.48
332.35	83.63
332.563	9.9
332.776	81.58
332.989	22.19
333.202	46.76
333.414	34.47
333.627	83.63
333.84	75.43
334.053	79.53
334.265	22.19
334.478	5.8
334.691	9.9
334.903	104.11
335.116	34.47
335.329	61.1
335.541	-10.58
335.754	112.3
335.966	-2.39
336.179	3.75
336.392	28.33
336.604	50.86
336.817	30.38
337.029	91.82
337.242	-8.53
337.454	59.05
337.667	73.39
337.88	102.06
338.092	9.9
338.305	97.96
338.517	-37.2
338.729	54.95
338.942	52.91
339.154	50.86
339.367	9.9
339.579	81.58
339.792	20.14
340.004	42.67
340.217	-33.11
340.429	54.95
340.641	75.43
340.854	-16.73
341.066	61.1
341.278	75.43
341.491	46.76
341.703	46.76
341.915	-2.39
342.128	69.29
342.34	89.77
342.552	5.8
342.764	67.24
342.977	34.47
343.189	46.76
343.401	28.33
343.613	91.82
343.826	50.86
344.038	9.9
344.25	-6.49
344.462	-4.44
344.674	77.48
344.886	9.9
345.099	63.15
345.311	50.86
345.523	9.9
345.735	50.86
345.947	69.29
346.159	34.47
346.371	75.43
346.583	20.14
346.795	69.29
347.007	9.9
347.219	124.58
347.431	77.48
347.643	20.14
347.855	52.91
348.067	50.86
348.279	-14.68
348.491	5.8
348.703	102.06
348.915	59.05
349.127	-0.34
349.339	38.57
349.551	69.29
349.763	75.43
349.975	69.29
350.187	124.58
350.399	110.25
350.61	67.24
350.822	42.67
351.034	83.63
351.246	-20.82
351.458	44.71
351.669	85.67
351.881	69.29
352.093	67.24
352.305	159.4
352.517	85.67
352.728	50.86
352.94	-20.82
353.152	75.43
353.363	100.01
353.575	81.58
353.787	100.01
353.999	157.35
354.21	120.49
354.422	110.25
354.633	18.09
354.845	36.52
355.057	54.95
355.268	18.09
355.48	50.86
355.692	-20.82
355.903	63.15
356.115	5.8
356.326	52.91
356.538	163.5
356.749	81.58
356.961	46.76
357.172	-4.44
357.384	46.76
357.595	143.02
357.807	59.05
358.018	50.86
358.23	50.86
358.441	77.48
358.653	77.48
358.864	42.67
359.075	71.34
359.287	1.71
359.498	32.43
359.709	-26.96
359.921	-12.63
360.132	165.54
360.344	67.24
360.555	-10.58
360.766	95.91
360.977	5.8
361.189	100.01
361.4	52.91
361.611	28.33
361.823	136.87
362.034	157.35
362.245	59.05
362.456	38.57
362.667	50.86
362.879	-20.82
363.09	28.33
363.301	69.29
363.512	124.58
363.723	87.72
363.935	18.09
364.146	75.43
364.357	59.05
364.568	102.06
364.779	-47.44
364.99	54.95
365.201	-20.82
365.412	106.15
365.623	34.47
365.834	87.72
366.045	16.04
366.256	108.2
366.467	104.11
366.678	77.48
366.889	18.09
367.1	22.19
367.311	61.1
367.522	50.86
367.733	87.72
367.944	128.68
368.155	18.09
368.366	100.01
368.577	118.44
368.788	89.77
368.999	5.8
369.209	83.63
369.42	118.44
369.631	120.49
369.842	28.33
370.053	3.75
370.264	118.44
370.474	26.28
370.685	57
370.896	34.47
371.107	143.02
371.317	77.48
371.528	-2.39
371.739	59.05
371.95	48.81
372.16	52.91
372.371	42.67
372.582	95.91
372.792	61.1
373.003	124.58
373.214	34.47
373.424	120.49
373.635	59.05
373.846	59.05
374.056	50.86
374.267	69.29
374.477	34.47
374.688	-2.39
374.898	83.63
375.109	67.24
375.319	100.01
375.53	61.1
375.74	9.9
375.951	57
376.161	5.8
376.372	110.25
376.582	7.85
376.793	126.63
377.003	18.09
377.214	71.34
377.424	93.87
377.635	83.63
377.845	57
378.055	132.78
378.266	13.99
378.476	71.34
378.686	34.47
378.897	26.28
379.107	67.24
379.317	81.58
379.528	67.24
379.738	59.05
379.948	9.9
380.158	81.58
380.369	44.71
380.579	130.73
380.789	87.72
380.999	71.34
381.21	61.1
381.42	50.86
381.63	34.47
381.84	79.53
382.05	-26.96
382.261	83.63
382.471	171.69
382.681	44.71
382.891	214.7
383.101	85.67
383.311	54.95
383.521	28.33
383.731	65.19
383.941	104.11
384.151	11.95
384.361	11.95
384.571	110.25
384.781	100.01
384.991	100.01
385.201	91.82
385.411	91.82
385.621	67.24
385.831	69.29
386.041	54.95
386.251	75.43
386.461	73.39
386.671	77.48
386.881	85.67
387.091	63.15
387.301	132.78
387.511	110.25
387.72	42.67
387.93	9.9
388.14	-6.49
388.35	34.47
388.56	91.82
388.769	104.11
388.979	102.06
389.189	77.48
389.399	42.67
389.609	81.58
389.818	175.78
390.028	63.15
390.238	118.44
390.447	50.86
390.657	75.43
390.867	128.68
391.076	102.06
391.286	73.39
391.496	75.43
391.705	69.29
391.915	153.26
392.125	61.1
392.334	48.81
392.544	177.83
392.753	79.53
392.963	26.28
393.172	91.82
393.382	75.43
393.591	120.49
393.801	91.82
394.01	175.78
394.22	153.26
394.429	67.24
394.639	77.48
394.848	83.63
395.058	179.88
395.267	97.96
395.477	153.26
395.686	91.82
395.895	220.84
396.105	202.41
396.314	157.35
396.524	77.48
396.733	100.01
396.942	202.41
397.152	108.2
397.361	124.58
397.57	44.71
397.78	149.16
397.989	100.01
398.198	218.79
398.407	91.82
398.617	104.11
398.826	50.86
399.035	102.06
399.244	124.58
399.453	149.16
399.663	106.15
399.872	132.78
400.081	38.57
400.29	120.49
400.499	106.15
400.708	165.54
400.917	140.97
401.127	110.25
401.336	87.72
401.545	198.31
401.754	183.98
401.963	198.31
402.172	149.16
402.381	128.68
402.59	124.58
402.799	102.06
403.008	183.98
403.217	151.21
403.426	136.87
403.635	126.63
403.844	132.78
404.053	190.12
404.262	79.53
404.471	214.7
404.68	206.5
404.888	171.69
405.097	210.6
405.306	100.01
405.515	243.37
405.724	222.89
405.933	210.6
406.142	243.37
406.35	216.74
406.559	202.41
406.768	190.12
406.977	247.46
407.185	263.85
407.394	253.61
407.603	265.89
407.812	306.85
408.02	300.71
408.229	255.65
408.438	265.89
408.646	280.23
408.855	298.66
409.064	356.01
409.272	343.72
409.481	345.77
409.69	280.23
409.898	360.1
410.107	427.68
410.315	337.57
410.524	401.06
410.733	415.4
410.941	454.31
411.15	554.66
411.358	460.45
411.567	501.41
411.775	513.7
411.984	478.88
412.192	550.56
412.401	532.13
412.609	575.14
412.818	632.48
413.026	669.34
413.234	626.34
413.443	583.33
413.651	689.82
413.86	679.58
414.068	747.17
414.276	755.36
414.485	771.74
414.693	812.7
414.901	870.05
415.11	919.2
415.318	872.09
415.526	951.96
415.734	917.15
415.943	1013.4
416.151	1027.74
416.359	1109.66
416.567	1083.03
416.776	1191.58
416.984	1218.2
417.192	1236.63
417.4	1132.19
417.608	1199.77
417.817	1298.07
418.025	1285.78
418.233	1394.33
418.441	1371.8
418.649	1435.28
418.857	1574.55
419.065	1592.98
419.273	1607.31
419.481	1668.75
419.689	1709.71
419.897	1699.47
420.105	1740.43
420.313	1918.61
420.521	1949.32
420.729	2000.52
420.937	2066.06
421.145	2051.72
421.353	2107.02
421.561	2330.25
421.769	2422.41
421.977	2428.55
422.185	2559.62
422.393	2557.57
422.601	2737.79
422.809	2774.66
423.017	2832
423.224	2756.22
423.432	3118.72
423.64	3214.97
423.848	3300.98
424.056	3327.61
424.263	3411.57
424.471	3350.14
424.679	3430.01
424.887	3788.4
425.094	3800.69
425.302	3851.89
425.51	3829.36
425.718	4163.18
425.925	4179.56
426.133	4277.87
426.341	4419.18
426.548	4638.31
426.756	4642.4
426.964	4703.84
427.171	4974.17
427.379	5183.07
427.586	5322.33
427.794	5434.97
428.001	5615.19
428.209	6006.35
428.417	5729.88
428.624	6250.06
428.832	6252.11
429.039	6284.87
429.247	6153.8
429.454	6893.12
429.662	7151.17
429.869	6770.24
430.076	7337.53
430.284	6938.18
430.491	7411.26
430.699	7513.66
430.906	7681.59
431.114	7697.97
431.321	8076.85
431.528	8193.58
431.736	8758.82
431.943	9188.89
432.15	8943.14
432.358	8922.66
432.565	9653.78
432.772	9408.03
432.979	9750.04
433.187	10182.16
433.394	10290.7
433.601	10800.65
433.808	10987.01
434.016	10905.09
434.223	11191.81
434.43	11908.6
434.637	11605.5
434.844	12305.9
435.052	12844.52
435.259	12453.36
435.466	12699.11
435.673	12398.06
435.88	13583.84
436.087	14124.5
436.294	13805.02
436.501	13759.96
436.708	14042.58
436.915	14534.09
437.122	15041.99
437.329	15058.37
437.537	15703.48
437.743	15685.05
437.95	15654.33
438.157	16604.59
438.364	16987.56
438.571	17081.77
438.778	17182.12
438.985	18541.97
439.192	17925.53
439.399	18423.19
439.606	18054.55
439.813	19305.86
440.02	20254.07
440.227	19950.97
440.433	19426.69
440.64	20249.97
440.847	20065.66
441.054	20989.29
441.261	21914.97
441.467	21767.52
441.674	21790.05
441.881	23113.03
442.088	22742.35
442.294	22898
442.501	23258.44
442.708	23799.1
442.914	24530.23
443.121	25722.15
443.328	24984.88
443.534	26438.94
443.741	26236.19
443.948	25634.08
444.154	27516.17
444.361	27510.02
444.568	27753.73
444.774	27208.97
444.981	27655.43
445.187	28583.16
445.394	30057.7
445.6	29469.93
445.807	32259.26
446.013	30975.19
446.22	31190.22
446.426	32738.49
446.633	32625.85
446.839	34096.29
447.046	32677.05
447.252	34491.55
447.459	34329.76
447.665	34497.69
447.871	35568.78
448.078	37497.97
448.284	35714.19
448.491	36830.33
448.697	37485.68
448.903	38362.21
449.11	38425.7
449.316	38007.91
449.522	38618.21
449.728	39685.2
449.935	40008.78
450.141	39801.93
450.347	40555.58
450.553	39507.02
450.76	40178.76
450.966	41620.53
451.172	41147.45
451.378	42189.86
451.584	41065.53
451.791	42415.14
451.997	42169.38
452.203	42611.74
452.409	42853.4
452.615	42703.9
452.821	40924.22
453.027	40539.2
453.233	42603.55
453.44	41215.03
453.646	41413.68
453.852	41399.35
454.058	42497.06
454.264	40705.09
454.47	41927.72
454.676	40784.96
454.882	42279.97
455.088	38470.75
455.294	38956.12
455.5	39801.93
455.705	40203.33
455.911	38337.63
456.117	37620.84
456.323	37592.17
456.529	35157.14
456.735	36711.55
456.941	35738.76
457.147	35566.73
457.352	34368.67
457.558	33995.94
457.764	33920.17
457.97	33465.52
458.176	32564.41
458.381	32224.45
458.587	30907.6
458.793	30874.84
458.999	29019.38
459.204	31243.47
459.41	30573.78
459.616	28609.78
459.821	28404.99
460.027	28560.63
460.233	27815.17
460.438	26322.2
460.644	26570.01
460.85	25756.96
461.055	25017.64
461.261	25269.55
461.466	23182.66
461.672	22615.38
461.878	23842.11
462.083	22394.2
462.289	21947.74
462.494	21964.12
462.7	20925.8
462.905	20311.41
463.111	20657.52
463.316	20915.56
463.522	20620.66
463.727	20467.06
463.932	20542.83
464.138	20299.12
464.343	20563.31
464.549	19987.83
464.754	20344.18
464.959	20348.28
465.165	20051.32
465.37	18988.42
465.575	18593.17
465.781	19461.51
465.986	19357.06
466.191	18789.77
466.397	18656.65
466.602	17522.08
466.807	18302.36
467.012	18216.34
467.218	18007.45
