Data from USB4F104151__270__14-34-38-377.txt Node

Date: Thu Mar 13 14:34:38 EDT 2025
User: louis
Spectrometer: USB4F10415
Trigger mode: 4
Integration Time (sec): 2.500000E-2
Scans to average: 1
Electric dark correction enabled: true
Nonlinearity correction enabled: false
Boxcar width: 0
XAxis mode: Wavelengths
Number of Pixels in Spectrum: 3648
>>>>>Begin Spectral Data<<<<<
178.204	-162.13
178.424	-162.13
178.644	-162.13
178.864	-176.47
179.084	-205.14
179.304	3.75
179.524	-55.64
179.744	1.71
179.964	44.71
180.184	54.95
180.404	7.85
180.624	-39.25
180.844	-14.68
181.064	18.09
181.283	-6.49
181.503	-49.49
181.723	34.47
181.943	-43.35
182.163	112.3
182.383	30.38
182.602	28.33
182.822	1.71
183.042	42.67
183.262	-2.39
183.482	3.75
183.701	-69.97
183.921	-22.87
184.141	-123.22
184.361	52.91
184.58	40.62
184.8	-22.87
185.02	36.52
185.239	100.01
185.459	34.47
185.679	18.09
185.898	30.38
186.118	83.63
186.338	-26.96
186.557	59.05
186.777	-22.87
186.997	-24.92
187.216	59.05
187.436	100.01
187.655	120.49
187.875	26.28
188.095	-16.73
188.314	28.33
188.534	79.53
188.753	-47.44
188.973	9.9
189.192	46.76
189.412	-18.77
189.631	34.47
189.851	11.95
190.07	108.2
190.29	-31.06
190.509	11.95
190.729	59.05
190.948	85.67
191.168	155.3
191.387	50.86
191.607	18.09
191.826	-31.06
192.045	-20.82
192.265	-10.58
192.484	1.71
192.704	48.81
192.923	-69.97
193.142	108.2
193.362	100.01
193.581	46.76
193.8	-20.82
194.02	9.9
194.239	-18.77
194.458	36.52
194.678	-6.49
194.897	-8.53
195.116	26.28
195.335	-22.87
195.555	-6.49
195.774	-4.44
195.993	13.99
196.212	26.28
196.432	38.57
196.651	26.28
196.87	32.43
197.089	3.75
197.308	9.9
197.528	-22.87
197.747	-14.68
197.966	-35.16
198.185	83.63
198.404	-80.21
198.623	9.9
198.842	63.15
199.062	-2.39
199.281	-22.87
199.5	13.99
199.719	7.85
199.938	52.91
200.157	9.9
200.376	30.38
200.595	1.71
200.814	38.57
201.033	54.95
201.252	34.47
201.471	9.9
201.69	42.67
201.909	44.71
202.128	-88.4
202.347	28.33
202.566	24.23
202.785	-14.68
203.004	22.19
203.223	132.78
203.442	-14.68
203.661	-45.4
203.879	-37.2
204.098	59.05
204.317	28.33
204.536	36.52
204.755	34.47
204.974	42.67
205.193	-22.87
205.411	38.57
205.63	1.71
205.849	-4.44
206.068	34.47
206.287	57
206.505	83.63
206.724	-18.77
206.943	13.99
207.162	18.09
207.381	18.09
207.599	-8.53
207.818	42.67
208.037	18.09
208.255	32.43
208.474	-20.82
208.693	38.57
208.911	-53.59
209.13	44.71
209.349	18.09
209.567	61.1
209.786	11.95
210.005	30.38
210.223	-37.2
210.442	-47.44
210.661	44.71
210.879	-20.82
211.098	3.75
211.316	59.05
211.535	46.76
211.753	-61.78
211.972	-0.34
212.191	-10.58
212.409	26.28
212.628	61.1
212.846	-47.44
213.065	3.75
213.283	3.75
213.502	-26.96
213.72	-4.44
213.938	50.86
214.157	-31.06
214.375	85.67
214.594	-10.58
214.812	-10.58
215.031	44.71
215.249	30.38
215.467	63.15
215.686	40.62
215.904	59.05
216.122	-31.06
216.341	36.52
216.559	-22.87
216.778	42.67
216.996	59.05
217.214	-12.63
217.432	110.25
217.651	3.75
217.869	42.67
218.087	-53.59
218.306	63.15
218.524	34.47
218.742	-33.11
218.96	1.71
219.179	1.71
219.397	-14.68
219.615	71.34
219.833	36.52
220.051	22.19
220.27	1.71
220.488	71.34
220.706	18.09
220.924	67.24
221.142	38.57
221.36	42.67
221.578	57
221.796	-2.39
222.015	9.9
222.233	26.28
222.451	67.24
222.669	-8.53
222.887	1.71
223.105	-18.77
223.323	42.67
223.541	9.9
223.759	50.86
223.977	-6.49
224.195	52.91
224.413	-31.06
224.631	38.57
224.849	-20.82
225.067	65.19
225.285	18.09
225.503	3.75
225.721	-47.44
225.939	3.75
226.157	38.57
226.375	89.77
226.592	-47.44
226.81	-47.44
227.028	48.81
227.246	36.52
227.464	-55.64
227.682	48.81
227.9	26.28
228.117	30.38
228.335	-12.63
228.553	67.24
228.771	-31.06
228.989	-6.49
229.206	-88.4
229.424	46.76
229.642	-16.73
229.86	34.47
230.077	3.75
230.295	-6.49
230.513	26.28
230.731	59.05
230.948	5.8
231.166	-2.39
231.384	18.09
231.601	-31.06
231.819	48.81
232.037	-16.73
232.254	-41.3
232.472	-2.39
232.689	-53.59
232.907	-31.06
233.125	124.58
233.342	85.67
233.56	-53.59
233.777	54.95
233.995	-14.68
234.213	50.86
234.43	75.43
234.648	-10.58
234.865	50.86
235.083	32.43
235.3	26.28
235.518	-22.87
235.735	75.43
235.953	112.3
236.17	18.09
236.388	9.9
236.605	44.71
236.822	61.1
237.04	91.82
237.257	-12.63
237.475	-67.92
237.692	18.09
237.909	-61.78
238.127	18.09
238.344	18.09
238.562	3.75
238.779	-57.68
238.996	18.09
239.214	57
239.431	-2.39
239.648	1.71
239.865	42.67
240.083	48.81
240.3	-39.25
240.517	-53.59
240.735	57
240.952	44.71
241.169	42.67
241.386	-14.68
241.603	-2.39
241.821	-24.92
242.038	-14.68
242.255	30.38
242.472	40.62
242.689	-20.82
242.907	30.38
243.124	46.76
243.341	26.28
243.558	-29.01
243.775	-14.68
243.992	-96.6
244.209	40.62
244.426	61.1
244.643	28.33
244.86	3.75
245.078	61.1
245.295	73.39
245.512	-20.82
245.729	-6.49
245.946	9.9
246.163	34.47
246.38	20.14
246.597	-2.39
246.814	42.67
247.031	28.33
247.248	13.99
247.464	50.86
247.681	9.9
247.898	50.86
248.115	42.67
248.332	-20.82
248.549	-12.63
248.766	59.05
248.983	87.72
249.2	-14.68
249.417	1.71
249.633	-26.96
249.85	73.39
250.067	38.57
250.284	3.75
250.501	102.06
250.717	71.34
250.934	-51.54
251.151	18.09
251.368	-39.25
251.585	42.67
251.801	44.71
252.018	-43.35
252.235	28.33
252.451	20.14
252.668	20.14
252.885	81.58
253.102	3.75
253.318	36.52
253.535	18.09
253.752	-10.58
253.968	52.91
254.185	5.8
254.401	3.75
254.618	-45.4
254.835	-14.68
255.051	40.62
255.268	89.77
255.484	159.4
255.701	61.1
255.917	71.34
256.134	50.86
256.351	-31.06
256.567	-65.88
256.784	-6.49
257	-37.2
257.217	59.05
257.433	-31.06
257.65	3.75
257.866	-26.96
258.082	75.43
258.299	-6.49
258.515	59.05
258.732	-37.2
258.948	-10.58
259.165	61.1
259.381	28.33
259.597	-6.49
259.814	-22.87
260.03	46.76
260.246	28.33
260.463	73.39
260.679	42.67
260.895	-37.2
261.112	46.76
261.328	5.8
261.544	11.95
261.761	46.76
261.977	-47.44
262.193	59.05
262.409	9.9
262.626	20.14
262.842	16.04
263.058	22.19
263.274	-6.49
263.49	18.09
263.707	9.9
263.923	18.09
264.139	-14.68
264.355	-2.39
264.571	100.01
264.787	28.33
265.004	69.29
265.22	-22.87
265.436	-47.44
265.652	34.47
265.868	-6.49
266.084	7.85
266.3	-6.49
266.516	-6.49
266.732	11.95
266.948	59.05
267.164	-61.78
267.38	71.34
267.596	-2.39
267.812	50.86
268.028	59.05
268.244	-26.96
268.46	26.28
268.676	9.9
268.892	-8.53
269.108	13.99
269.324	50.86
269.54	13.99
269.756	69.29
269.972	-6.49
270.188	59.05
270.403	-33.11
270.619	34.47
270.835	59.05
271.051	-29.01
271.267	13.99
271.483	-39.25
271.698	50.86
271.914	-55.64
272.13	42.67
272.346	-12.63
272.562	42.67
272.777	71.34
272.993	20.14
273.209	28.33
273.425	83.63
273.64	-47.44
273.856	9.9
274.072	-6.49
274.287	-94.55
274.503	24.23
274.719	61.1
274.934	9.9
275.15	1.71
275.366	52.91
275.581	-69.97
275.797	1.71
276.012	-14.68
276.228	-26.96
276.444	69.29
276.659	-2.39
276.875	-6.49
277.09	26.28
277.306	-18.77
277.521	52.91
277.737	63.15
277.952	71.34
278.168	9.9
278.383	18.09
278.599	-6.49
278.814	18.09
279.03	83.63
279.245	34.47
279.461	32.43
279.676	75.43
279.892	-53.59
280.107	-6.49
280.322	69.29
280.538	-0.34
280.753	-6.49
280.969	36.52
281.184	-31.06
281.399	-45.4
281.615	57
281.83	34.47
282.045	-4.44
282.26	54.95
282.476	89.77
282.691	28.33
282.906	-29.01
283.122	20.14
283.337	-14.68
283.552	89.77
283.767	-26.96
283.983	-10.58
284.198	-4.44
284.413	-6.49
284.628	-18.77
284.843	104.11
285.058	61.1
285.274	11.95
285.489	-72.02
285.704	124.58
285.919	11.95
286.134	22.19
286.349	-31.06
286.564	36.52
286.779	48.81
286.995	67.24
287.21	-18.77
287.425	9.9
287.64	48.81
287.855	24.23
288.07	-14.68
288.285	-63.83
288.5	59.05
288.715	-12.63
288.93	20.14
289.145	-35.16
289.36	11.95
289.575	26.28
289.79	42.67
290.004	34.47
290.219	65.19
290.434	-20.82
290.649	7.85
290.864	26.28
291.079	-2.39
291.294	-6.49
291.509	-55.64
291.724	20.14
291.938	52.91
292.153	91.82
292.368	1.71
292.583	83.63
292.798	57
293.012	44.71
293.227	59.05
293.442	36.52
293.657	13.99
293.871	63.15
294.086	30.38
294.301	24.23
294.516	32.43
294.73	61.1
294.945	-29.01
295.16	46.76
295.374	116.39
295.589	-2.39
295.804	-6.49
296.018	-4.44
296.233	102.06
296.447	1.71
296.662	36.52
296.877	67.24
297.091	-10.58
297.306	30.38
297.52	34.47
297.735	-37.2
297.949	1.71
298.164	-6.49
298.378	91.82
298.593	52.91
298.807	-29.01
299.022	75.43
299.236	40.62
299.451	40.62
299.665	20.14
299.88	-24.92
300.094	-49.49
300.309	77.48
300.523	-55.64
300.737	71.34
300.952	-0.34
301.166	18.09
301.381	3.75
301.595	38.57
301.809	34.47
302.024	-31.06
302.238	9.9
302.452	67.24
302.667	-49.49
302.881	71.34
303.095	42.67
303.309	54.95
303.524	34.47
303.738	89.77
303.952	11.95
304.166	42.67
304.381	-72.02
304.595	57
304.809	-14.68
305.023	44.71
305.237	-31.06
305.452	85.67
305.666	9.9
305.88	83.63
306.094	1.71
306.308	75.43
306.522	54.95
306.736	52.91
306.95	52.91
307.164	-4.44
307.379	-22.87
307.593	112.3
307.807	13.99
308.021	20.14
308.235	40.62
308.449	7.85
308.663	7.85
308.877	108.2
309.091	30.38
309.305	16.04
309.519	-6.49
309.733	59.05
309.947	-47.44
310.161	42.67
310.374	50.86
310.588	44.71
310.802	-20.82
311.016	-4.44
311.23	-4.44
311.444	-14.68
311.658	-45.4
311.872	-29.01
312.085	22.19
312.299	54.95
312.513	65.19
312.727	18.09
312.941	24.23
313.154	-14.68
313.368	36.52
313.582	-14.68
313.796	-80.21
314.009	34.47
314.223	3.75
314.437	93.87
314.651	9.9
314.864	-0.34
315.078	-6.49
315.292	18.09
315.505	-84.31
315.719	-14.68
315.933	9.9
316.146	-2.39
316.36	50.86
316.573	26.28
316.787	69.29
317.001	71.34
317.214	26.28
317.428	1.71
317.641	11.95
317.855	34.47
318.068	-0.34
318.282	50.86
318.495	3.75
318.709	50.86
318.922	16.04
319.136	34.47
319.349	126.63
319.563	-8.53
319.776	54.95
319.99	-22.87
320.203	5.8
320.417	46.76
320.63	-14.68
320.843	83.63
321.057	-2.39
321.27	-14.68
321.483	63.15
321.697	75.43
321.91	-31.06
322.124	73.39
322.337	-29.01
322.55	9.9
322.763	36.52
322.977	-22.87
323.19	69.29
323.403	26.28
323.617	28.33
323.83	87.72
324.043	-37.2
324.256	-14.68
324.469	-24.92
324.683	59.05
324.896	-14.68
325.109	46.76
325.322	-10.58
325.535	100.01
325.748	63.15
325.962	-4.44
326.175	11.95
326.388	44.71
326.601	38.57
326.814	-29.01
327.027	67.24
327.24	34.47
327.453	-24.92
327.666	30.38
327.879	38.57
328.092	75.43
328.305	-6.49
328.518	1.71
328.731	-47.44
328.944	-43.35
329.157	28.33
329.37	26.28
329.583	65.19
329.796	-10.58
330.009	-72.02
330.222	-31.06
330.435	9.9
330.648	-2.39
330.861	20.14
331.073	75.43
331.286	1.71
331.499	1.71
331.712	-31.06
331.925	61.1
332.138	-65.88
332.35	9.9
332.563	7.85
332.776	79.53
332.989	-14.68
333.202	-16.73
333.414	-14.68
333.627	50.86
333.84	-4.44
334.053	30.38
334.265	36.52
334.478	-4.44
334.691	24.23
334.903	9.9
335.116	38.57
335.329	-22.87
335.541	-12.63
335.754	116.39
335.966	1.71
336.179	20.14
336.392	5.8
336.604	69.29
336.817	30.38
337.029	-12.63
337.242	57
337.454	-31.06
337.667	44.71
337.88	40.62
338.092	46.76
338.305	38.57
338.517	-76.12
338.729	42.67
338.942	59.05
339.154	-31.06
339.367	-6.49
339.579	18.09
339.792	-2.39
340.004	36.52
340.217	54.95
340.429	65.19
340.641	-0.34
340.854	-31.06
341.066	-51.54
341.278	48.81
341.491	91.82
341.703	-12.63
341.915	-20.82
342.128	67.24
342.34	67.24
342.552	18.09
342.764	-2.39
342.977	-6.49
343.189	-14.68
343.401	1.71
343.613	-47.44
343.826	50.86
344.038	-47.44
344.25	91.82
344.462	-43.35
344.674	20.14
344.886	42.67
345.099	46.76
345.311	36.52
345.523	22.19
345.735	-72.02
345.947	42.67
346.159	-0.34
346.371	5.8
346.583	116.39
346.795	104.11
347.007	42.67
347.219	54.95
347.431	22.19
347.643	73.39
347.855	44.71
348.067	73.39
348.279	18.09
348.491	-29.01
348.703	50.86
348.915	48.81
349.127	50.86
349.339	28.33
349.551	34.47
349.763	32.43
349.975	44.71
350.187	63.15
350.399	13.99
350.61	65.19
350.822	36.52
351.034	34.47
351.246	30.38
351.458	18.09
351.669	34.47
351.881	81.58
352.093	48.81
352.305	-4.44
352.517	59.05
352.728	95.91
352.94	-31.06
353.152	50.86
353.363	-31.06
353.575	11.95
353.787	3.75
353.999	59.05
354.21	95.91
354.422	85.67
354.633	28.33
354.845	5.8
355.057	-78.16
355.268	28.33
355.48	20.14
355.692	22.19
355.903	-18.77
356.115	-6.49
356.326	-108.88
356.538	69.29
356.749	7.85
356.961	65.19
357.172	34.47
357.384	-14.68
357.595	91.82
357.807	-35.16
358.018	-37.2
358.23	44.71
358.441	87.72
358.653	1.71
358.864	54.95
359.075	-115.03
359.287	-10.58
359.498	42.67
359.709	59.05
359.921	-4.44
360.132	1.71
360.344	9.9
360.555	91.82
360.766	9.9
360.977	26.28
361.189	-8.53
361.4	59.05
361.611	75.43
361.823	57
362.034	50.86
362.245	-39.25
362.456	-18.77
362.667	13.99
362.879	-4.44
363.09	-41.3
363.301	38.57
363.512	9.9
363.723	22.19
363.935	79.53
364.146	77.48
364.357	11.95
364.568	26.28
364.779	-45.4
364.99	85.67
365.201	-14.68
365.412	22.19
365.623	-53.59
365.834	69.29
366.045	89.77
366.256	136.87
366.467	85.67
366.678	18.09
366.889	57
367.1	-51.54
367.311	69.29
367.522	-6.49
367.733	-31.06
367.944	-22.87
368.155	136.87
368.366	61.1
368.577	59.05
368.788	30.38
368.999	-10.58
369.209	116.39
369.42	46.76
369.631	75.43
369.842	-20.82
370.053	63.15
370.264	9.9
370.474	18.09
370.685	46.76
370.896	46.76
371.107	71.34
371.317	34.47
371.528	13.99
371.739	-22.87
371.95	69.29
372.16	42.67
372.371	-88.4
372.582	-29.01
372.792	50.86
373.003	42.67
373.214	91.82
373.424	42.67
373.635	34.47
373.846	42.67
374.056	26.28
374.267	67.24
374.477	50.86
374.688	9.9
374.898	9.9
375.109	-0.34
375.319	59.05
375.53	42.67
375.74	26.28
375.951	-51.54
376.161	52.91
376.372	108.2
376.582	26.28
376.793	7.85
377.003	1.71
377.214	13.99
377.424	100.01
377.635	44.71
377.845	-14.68
378.055	95.91
378.266	-69.97
378.476	61.1
378.686	67.24
378.897	69.29
379.107	61.1
379.317	52.91
379.528	79.53
379.738	-14.68
379.948	36.52
380.158	44.71
380.369	61.1
380.579	69.29
380.789	-26.96
380.999	28.33
381.21	30.38
381.42	112.3
381.63	11.95
381.84	-14.68
382.05	-10.58
382.261	44.71
382.471	61.1
382.681	20.14
382.891	63.15
383.101	108.2
383.311	-6.49
383.521	-6.49
383.731	36.52
383.941	44.71
384.151	50.86
384.361	50.86
384.571	77.48
384.781	75.43
384.991	11.95
385.201	61.1
385.411	5.8
385.621	54.95
385.831	40.62
386.041	67.24
386.251	30.38
386.461	79.53
386.671	3.75
386.881	42.67
387.091	34.47
387.301	46.76
387.511	100.01
387.72	46.76
387.93	63.15
388.14	-90.45
388.35	-6.49
388.56	132.78
388.769	34.47
388.979	75.43
389.189	-45.4
389.399	-14.68
389.609	93.87
389.818	13.99
390.028	63.15
390.238	50.86
390.447	44.71
390.657	77.48
390.867	28.33
391.076	-43.35
391.286	11.95
391.496	13.99
391.705	30.38
391.915	63.15
392.125	95.91
392.334	28.33
392.544	42.67
392.753	22.19
392.963	3.75
393.172	32.43
393.382	18.09
393.591	110.25
393.801	38.57
394.01	126.63
394.22	13.99
394.429	42.67
394.639	59.05
394.848	63.15
395.058	75.43
395.267	42.67
395.477	77.48
395.686	120.49
395.895	120.49
396.105	108.2
396.314	116.39
396.524	52.91
396.733	-18.77
396.942	73.39
397.152	24.23
397.361	161.45
397.57	46.76
397.78	-2.39
397.989	108.2
398.198	124.58
398.407	13.99
398.617	67.24
398.826	65.19
399.035	116.39
399.244	91.82
399.453	77.48
399.663	102.06
399.872	46.76
400.081	38.57
400.29	73.39
400.499	28.33
400.708	104.11
400.917	26.28
401.127	59.05
401.336	54.95
401.545	151.21
401.754	140.97
401.963	140.97
402.172	-14.68
402.381	20.14
402.59	79.53
402.799	67.24
403.008	118.44
403.217	130.73
403.426	229.03
403.635	28.33
403.844	122.54
404.053	110.25
404.262	102.06
404.471	173.74
404.68	116.39
404.888	63.15
405.097	151.21
405.306	77.48
405.515	110.25
405.724	100.01
405.933	175.78
406.142	102.06
406.35	190.12
406.559	97.96
406.768	151.21
406.977	218.79
407.185	175.78
407.394	190.12
407.603	149.16
407.812	159.4
408.02	198.31
408.229	263.85
408.438	210.6
408.646	173.74
408.855	239.27
409.064	251.56
409.272	190.12
409.481	241.32
409.69	269.99
409.898	206.5
410.107	272.04
410.315	274.09
410.524	370.34
410.733	364.2
410.941	272.04
411.15	300.71
411.358	366.25
411.567	368.29
411.775	325.29
411.984	423.59
412.192	390.82
412.401	423.59
412.609	448.16
412.818	476.84
413.026	517.79
413.234	530.08
413.443	429.73
413.651	511.65
413.86	454.31
414.068	589.47
414.276	534.18
414.485	616.1
414.693	673.44
414.901	665.25
415.11	546.47
415.318	675.49
415.526	679.58
415.734	763.55
415.943	751.26
416.151	882.33
416.359	763.55
416.567	812.7
416.776	878.24
416.984	870.05
417.192	896.67
417.4	843.42
417.608	1025.69
417.817	980.64
418.025	1050.27
418.233	1175.19
418.441	1009.31
418.649	1050.27
418.857	1222.3
419.065	1210.01
419.273	1189.53
419.481	1222.3
419.689	1253.02
419.897	1322.65
420.105	1439.38
420.313	1427.09
420.521	1486.48
420.729	1552.02
420.937	1568.4
421.145	1607.31
421.353	1681.04
421.561	1736.34
421.769	1881.74
421.977	1910.41
422.185	1959.56
422.393	1951.37
422.601	2158.22
422.809	2123.4
423.017	2107.02
423.224	2199.18
423.432	2285.19
423.64	2324.1
423.848	2639.49
424.056	2492.04
424.263	2692.74
424.471	2614.91
424.679	2762.37
424.887	2852.48
425.094	2926.21
425.302	2942.59
425.51	3198.59
425.718	3237.5
425.925	3055.23
426.133	3311.22
426.341	3384.95
426.548	3575.41
426.756	3712.63
426.964	3690.1
427.171	3960.43
427.379	3853.94
427.586	3993.2
427.794	4044.4
428.001	4433.51
428.209	4554.34
428.417	4558.44
428.624	4720.23
428.832	4779.62
429.039	4873.82
429.247	4679.27
429.454	5181.02
429.662	5480.02
429.869	5252.7
430.076	5455.45
430.284	5310.04
430.491	5523.03
430.699	5924.43
430.906	5953.1
431.114	6071.89
431.321	6164.04
431.528	6374.99
431.736	6659.65
431.943	6975.04
432.15	6745.67
432.358	6901.31
432.565	7290.43
432.772	7153.21
432.979	7583.29
433.187	7792.18
433.394	7808.56
433.601	8316.46
433.808	8457.77
434.016	8275.5
434.223	8635.94
434.43	9109.02
434.637	9037.34
434.844	9561.62
435.052	9612.82
435.259	9520.67
435.466	9651.74
435.673	9563.67
435.88	10059.28
436.087	10608.14
436.294	10716.68
436.501	10493.45
436.708	10649.1
436.915	11056.64
437.122	11615.74
437.329	11533.82
437.537	11902.45
437.743	12207.6
437.95	11814.39
438.157	12545.52
438.364	13096.42
438.571	13049.32
438.778	13116.9
438.985	13997.53
439.192	13821.4
439.399	13919.7
439.606	13694.43
439.813	14462.41
440.02	15470.01
440.227	15263.17
440.433	14884.3
440.64	15545.79
440.847	15330.75
441.054	15771.07
441.261	17081.77
441.467	16563.63
441.674	16975.27
441.881	17532.32
442.088	17368.48
442.294	17280.42
442.501	17751.45
442.708	17976.73
442.914	18797.96
443.121	19508.61
443.328	18804.11
443.534	20360.56
443.741	19930.49
443.948	19449.22
444.154	21116.26
444.361	20974.95
444.568	21063.02
444.774	20759.92
444.981	21081.45
445.187	21814.62
445.394	22558.03
445.6	22527.31
445.807	24290.62
446.013	23469.38
446.22	24079.68
446.426	24896.81
446.633	25056.56
446.839	26015.01
447.046	25011.5
447.252	26440.98
447.459	26363.16
447.665	26283.29
447.871	27653.38
448.078	28505.34
448.284	26983.69
448.491	28015.87
448.697	28734.71
448.903	29490.41
449.11	29676.77
449.316	29015.28
449.522	29691.11
449.728	30170.33
449.935	31012.05
450.141	30862.55
450.347	31528.14
450.553	30311.64
450.76	31069.39
450.966	31960.26
451.172	31538.38
451.378	32152.77
451.584	31517.9
451.791	32416.96
451.997	32144.58
452.203	32732.34
452.409	32658.62
452.615	32750.77
452.821	31302.86
453.027	30946.51
453.233	32883.89
453.44	31497.42
453.646	31800.52
453.852	31679.69
454.058	32193.73
454.264	31401.16
454.47	31800.52
454.676	31327.44
454.882	32294.08
455.088	29684.97
455.294	29695.21
455.5	30268.64
455.705	30657.75
455.911	29269.23
456.117	28923.12
456.323	28439.8
456.529	26742.03
456.735	28114.17
456.941	27157.77
457.147	26901.78
457.352	25871.65
457.558	25595.17
457.764	25855.26
457.97	25330.98
458.176	24900.91
458.381	24476.98
458.587	23375.17
458.793	23250.25
458.999	22646.1
459.204	23803.2
459.41	23049.55
459.616	21646.69
459.821	21525.86
460.027	21792.09
460.233	21050.73
460.438	19987.83
460.644	20098.42
460.85	19197.32
461.055	18953.61
461.261	19068.3
461.466	17386.91
461.672	16897.45
461.878	18267.54
462.083	16962.98
462.289	16598.45
462.494	16457.14
462.7	15758.78
462.905	15187.39
463.111	15787.45
463.316	15701.44
463.522	15693.24
463.727	15427.01
463.932	15748.54
464.138	15101.38
464.343	15373.76
464.549	14616.01
464.754	15470.01
464.959	15230.4
465.165	14915.02
465.37	14288.34
465.575	13567.45
465.781	14708.17
465.986	14489.04
466.191	14263.76
466.397	13831.64
466.602	13067.75
466.807	13622.75
467.012	13506.01
467.218	13194.72
