Data from USB4F104151__233__14-34-02-788.txt Node

Date: Thu Mar 13 14:34:02 EDT 2025
User: louis
Spectrometer: USB4F10415
Trigger mode: 4
Integration Time (sec): 2.500000E-2
Scans to average: 1
Electric dark correction enabled: true
Nonlinearity correction enabled: false
Boxcar width: 0
XAxis mode: Wavelengths
Number of Pixels in Spectrum: 3648
>>>>>Begin Spectral Data<<<<<
178.204	-176.98
178.424	-176.98
178.644	-176.98
178.864	-213.84
179.084	-115.54
179.304	-13.14
179.524	58.54
179.744	-41.81
179.964	66.73
180.184	-17.24
180.404	-17.24
180.624	-7
180.844	23.72
181.064	-15.19
181.283	-31.57
181.503	-70.48
181.723	64.68
181.943	15.53
182.163	72.87
182.383	5.29
182.602	48.3
182.822	-31.57
183.042	7.34
183.262	56.49
183.482	52.39
183.701	-23.38
183.921	40.11
184.141	36.01
184.361	7.34
184.58	11.43
184.8	7.34
185.02	-25.43
185.239	56.49
185.459	7.34
185.679	79.02
185.898	-39.76
186.118	1.19
186.338	-29.52
186.557	31.91
186.777	-17.24
186.997	-0.85
187.216	44.2
187.436	42.15
187.655	95.4
187.875	25.77
188.095	50.35
188.314	124.07
188.534	17.58
188.753	-2.9
188.973	3.24
189.192	93.35
189.412	-7
189.631	68.78
189.851	17.58
190.07	109.74
190.29	-99.16
190.509	25.77
190.729	-54.1
190.948	23.72
191.168	181.42
191.387	81.07
191.607	-45.91
191.826	105.64
192.045	117.93
192.265	64.68
192.484	40.11
192.704	-37.72
192.923	-13.14
193.142	83.11
193.362	38.06
193.581	113.83
193.8	93.35
194.02	156.84
194.239	56.49
194.458	7.34
194.678	-4.95
194.897	138.41
195.116	5.29
195.335	52.39
195.555	-25.43
195.774	58.54
195.993	91.31
196.212	31.91
196.432	7.34
196.651	1.19
196.87	9.39
197.089	5.29
197.308	19.63
197.528	62.63
197.747	-9.05
197.966	7.34
198.185	99.5
198.404	-17.24
198.623	72.87
198.842	33.96
199.062	83.11
199.281	44.2
199.5	48.3
199.719	9.39
199.938	40.11
200.157	31.91
200.376	117.93
200.595	31.91
200.814	81.07
201.033	36.01
201.252	-15.19
201.471	99.5
201.69	66.73
201.909	31.91
202.128	81.07
202.347	25.77
202.566	3.24
202.785	31.91
203.004	-4.95
203.223	109.74
203.442	-9.05
203.661	48.3
203.879	128.17
204.098	44.2
204.317	15.53
204.536	66.73
204.755	56.49
204.974	15.53
205.193	56.49
205.411	183.46
205.63	105.64
205.849	124.07
206.068	31.91
206.287	27.82
206.505	15.53
206.724	11.43
206.943	-4.95
207.162	72.87
207.381	109.74
207.599	9.39
207.818	19.63
208.037	23.72
208.255	11.43
208.474	68.78
208.693	3.24
208.911	15.53
209.13	33.96
209.349	7.34
209.567	58.54
209.786	113.83
210.005	130.22
210.223	89.26
210.442	33.96
210.661	33.96
210.879	40.11
211.098	44.2
211.316	27.82
211.535	27.82
211.753	15.53
211.972	44.2
212.191	31.91
212.409	60.59
212.628	31.91
212.846	-17.24
213.065	83.11
213.283	58.54
213.502	23.72
213.72	60.59
213.938	40.11
214.157	-50
214.375	60.59
214.594	-15.19
214.812	81.07
215.031	23.72
215.249	-31.57
215.467	64.68
215.686	9.39
215.904	33.96
216.122	50.35
216.341	50.35
216.559	-0.85
216.778	97.45
216.996	40.11
217.214	1.19
217.432	23.72
217.651	5.29
217.869	15.53
218.087	66.73
218.306	7.34
218.524	52.39
218.742	-4.95
218.96	-4.95
219.179	33.96
219.397	74.92
219.615	85.16
219.833	15.53
220.051	-0.85
220.27	91.31
220.488	62.63
220.706	-4.95
220.924	23.72
221.142	40.11
221.36	42.15
221.578	66.73
221.796	25.77
222.015	64.68
222.233	105.64
222.451	48.3
222.669	15.53
222.887	21.67
223.105	-54.1
223.323	11.43
223.541	-13.14
223.759	72.87
223.977	11.43
224.195	107.69
224.413	115.88
224.631	-9.05
224.849	-45.91
225.067	66.73
225.285	74.92
225.503	-56.15
225.721	-45.91
225.939	91.31
226.157	54.44
226.375	115.88
226.592	5.29
226.81	60.59
227.028	99.5
227.246	76.97
227.464	85.16
227.682	40.11
227.9	52.39
228.117	113.83
228.335	81.07
228.553	7.34
228.771	97.45
228.989	64.68
229.206	68.78
229.424	-25.43
229.642	33.96
229.86	33.96
230.077	101.55
230.295	11.43
230.513	25.77
230.731	113.83
230.948	85.16
231.166	89.26
231.384	36.01
231.601	48.3
231.819	36.01
232.037	1.19
232.254	21.67
232.472	40.11
232.689	52.39
232.907	56.49
233.125	66.73
233.342	17.58
233.56	7.34
233.777	64.68
233.995	-25.43
234.213	105.64
234.43	17.58
234.648	23.72
234.865	52.39
235.083	83.11
235.3	-9.05
235.518	11.43
235.735	33.96
235.953	81.07
236.17	38.06
236.388	58.54
236.605	31.91
236.822	101.55
237.04	36.01
237.257	17.58
237.475	74.92
237.692	40.11
237.909	-21.33
238.127	-25.43
238.344	31.91
238.562	48.3
238.779	1.19
238.996	72.87
239.214	50.35
239.431	31.91
239.648	70.83
239.865	113.83
240.083	72.87
240.3	81.07
240.517	89.26
240.735	40.11
240.952	-15.19
241.169	48.3
241.386	64.68
241.603	19.63
241.821	7.34
242.038	-4.95
242.255	93.35
242.472	33.96
242.689	25.77
242.907	15.53
243.124	54.44
243.341	62.63
243.558	56.49
243.775	56.49
243.992	11.43
244.209	105.64
244.426	105.64
244.643	40.11
244.86	76.97
245.078	72.87
245.295	-0.85
245.512	56.49
245.729	64.68
245.946	29.87
246.163	-17.24
246.38	-37.72
246.597	72.87
246.814	7.34
247.031	-15.19
247.248	36.01
247.464	33.96
247.681	56.49
247.898	56.49
248.115	60.59
248.332	-82.77
248.549	-21.33
248.766	113.83
248.983	52.39
249.2	-15.19
249.417	56.49
249.633	-39.76
249.85	99.5
250.067	54.44
250.284	64.68
250.501	-2.9
250.717	83.11
250.934	-47.96
251.151	54.44
251.368	-25.43
251.585	36.01
251.801	25.77
252.018	54.44
252.235	31.91
252.451	3.24
252.668	79.02
252.885	132.26
253.102	44.2
253.318	87.21
253.535	60.59
253.752	-25.43
253.968	40.11
254.185	-76.63
254.401	17.58
254.618	76.97
254.835	19.63
255.051	81.07
255.268	27.82
255.484	74.92
255.701	64.68
255.917	93.35
256.134	40.11
256.351	72.87
256.567	7.34
256.784	31.91
257	-13.14
257.217	38.06
257.433	70.83
257.65	40.11
257.866	93.35
258.082	1.19
258.299	7.34
258.515	48.3
258.732	-13.14
258.948	-21.33
259.165	105.64
259.381	11.43
259.597	74.92
259.814	25.77
260.03	23.72
260.246	40.11
260.463	-4.95
260.679	113.83
260.895	17.58
261.112	89.26
261.328	56.49
261.544	31.91
261.761	146.6
261.977	-0.85
262.193	-25.43
262.409	31.91
262.626	25.77
262.842	89.26
263.058	40.11
263.274	74.92
263.49	117.93
263.707	42.15
263.923	81.07
264.139	36.01
264.355	60.59
264.571	54.44
264.787	44.2
265.004	23.72
265.22	25.77
265.436	-19.29
265.652	50.35
265.868	31.91
266.084	15.53
266.3	42.15
266.516	-50
266.732	72.87
266.948	89.26
267.164	66.73
267.38	11.43
267.596	46.25
267.812	148.65
268.028	44.2
268.244	-17.24
268.46	105.64
268.676	9.39
268.892	115.88
269.108	33.96
269.324	-37.72
269.54	36.01
269.756	60.59
269.972	56.49
270.188	56.49
270.403	9.39
270.619	-0.85
270.835	74.92
271.051	58.54
271.267	21.67
271.483	48.3
271.698	97.45
271.914	101.55
272.13	17.58
272.346	91.31
272.562	31.91
272.777	83.11
272.993	27.82
273.209	56.49
273.425	68.78
273.64	36.01
273.856	56.49
274.072	23.72
274.287	19.63
274.503	103.59
274.719	83.11
274.934	48.3
275.15	-31.57
275.366	124.07
275.581	-88.92
275.797	-17.24
276.012	17.58
276.228	-23.38
276.444	25.77
276.659	72.87
276.875	17.58
277.09	81.07
277.306	27.82
277.521	52.39
277.737	-15.19
277.952	76.97
278.168	68.78
278.383	58.54
278.599	-15.19
278.814	17.58
279.03	60.59
279.245	64.68
279.461	40.11
279.676	74.92
279.892	40.11
280.107	-2.9
280.322	58.54
280.538	56.49
280.753	13.48
280.969	101.55
281.184	48.3
281.399	64.68
281.615	58.54
281.83	50.35
282.045	15.53
282.26	17.58
282.476	124.07
282.691	97.45
282.906	72.87
283.122	31.91
283.337	36.01
283.552	21.67
283.767	50.35
283.983	27.82
284.198	58.54
284.413	107.69
284.628	-58.2
284.843	23.72
285.058	-0.85
285.274	44.2
285.489	93.35
285.704	89.26
285.919	-50
286.134	50.35
286.349	21.67
286.564	23.72
286.779	50.35
286.995	44.2
287.21	-35.67
287.425	31.91
287.64	36.01
287.855	27.82
288.07	-0.85
288.285	60.59
288.5	93.35
288.715	38.06
288.93	11.43
289.145	40.11
289.36	89.26
289.575	50.35
289.79	-0.85
290.004	25.77
290.219	89.26
290.434	66.73
290.649	17.58
290.864	89.26
291.079	56.49
291.294	83.11
291.509	99.5
291.724	-15.19
291.938	23.72
292.153	54.44
292.368	56.49
292.583	48.3
292.798	93.35
293.012	1.19
293.227	62.63
293.442	72.87
293.657	15.53
293.871	74.92
294.086	91.31
294.301	124.07
294.516	85.16
294.73	79.02
294.945	17.58
295.16	50.35
295.374	7.34
295.589	40.11
295.804	31.91
296.018	15.53
296.233	-9.05
296.447	23.72
296.662	-50
296.877	74.92
297.091	122.02
297.306	17.58
297.52	-7
297.735	89.26
297.949	89.26
298.164	89.26
298.378	89.26
298.593	11.43
298.807	29.87
299.022	15.53
299.236	154.79
299.451	36.01
299.665	-7
299.88	42.15
300.094	7.34
300.309	74.92
300.523	13.48
300.737	52.39
300.952	40.11
301.166	-4.95
301.381	48.3
301.595	58.54
301.809	29.87
302.024	48.3
302.238	23.72
302.452	89.26
302.667	76.97
302.881	52.39
303.095	83.11
303.309	7.34
303.524	40.11
303.738	79.02
303.952	103.59
304.166	144.55
304.381	-19.29
304.595	142.5
304.809	23.72
305.023	52.39
305.237	-4.95
305.452	7.34
305.666	42.15
305.88	11.43
306.094	1.19
306.308	103.59
306.522	95.4
306.736	95.4
306.95	13.48
307.164	-11.09
307.379	11.43
307.593	97.45
307.807	130.22
308.021	146.6
308.235	25.77
308.449	11.43
308.663	-17.24
308.877	23.72
309.091	42.15
309.305	5.29
309.519	-50
309.733	23.72
309.947	11.43
310.161	109.74
310.374	40.11
310.588	-0.85
310.802	95.4
311.016	70.83
311.23	27.82
311.444	1.19
311.658	17.58
311.872	115.88
312.085	105.64
312.299	83.11
312.513	56.49
312.727	66.73
312.941	-9.05
313.154	-33.62
313.368	56.49
313.582	124.07
313.796	44.2
314.009	-0.85
314.223	76.97
314.437	64.68
314.651	-7
314.864	62.63
315.078	74.92
315.292	44.2
315.505	7.34
315.719	74.92
315.933	7.34
316.146	27.82
316.36	58.54
316.573	126.12
316.787	40.11
317.001	42.15
317.214	42.15
317.428	105.64
317.641	-29.52
317.855	13.48
318.068	-25.43
318.282	74.92
318.495	146.6
318.709	124.07
318.922	-33.62
319.136	19.63
319.349	117.93
319.563	44.2
319.776	113.83
319.99	-64.34
320.203	66.73
320.417	-23.38
320.63	85.16
320.843	113.83
321.057	74.92
321.27	-33.62
321.483	72.87
321.697	162.98
321.91	89.26
322.124	29.87
322.337	1.19
322.55	-15.19
322.763	93.35
322.977	72.87
323.19	-76.63
323.403	52.39
323.617	-0.85
323.83	68.78
324.043	23.72
324.256	11.43
324.469	-13.14
324.683	58.54
324.896	72.87
325.109	60.59
325.322	31.91
325.535	122.02
325.748	85.16
325.962	23.72
326.175	72.87
326.388	130.22
326.601	44.2
326.814	126.12
327.027	48.3
327.24	105.64
327.453	-29.52
327.666	54.44
327.879	48.3
328.092	-17.24
328.305	113.83
328.518	119.98
328.731	27.82
328.944	40.11
329.157	72.87
329.37	-0.85
329.583	74.92
329.796	128.17
330.009	-15.19
330.222	117.93
330.435	40.11
330.648	122.02
330.861	-19.29
331.073	113.83
331.286	89.26
331.499	52.39
331.712	36.01
331.925	1.19
332.138	3.24
332.35	54.44
332.563	58.54
332.776	62.63
332.989	33.96
333.202	74.92
333.414	21.67
333.627	48.3
333.84	83.11
334.053	72.87
334.265	-7
334.478	23.72
334.691	1.19
334.903	60.59
335.116	89.26
335.329	36.01
335.541	42.15
335.754	85.16
335.966	-0.85
336.179	31.91
336.392	-82.77
336.604	113.83
336.817	87.21
337.029	48.3
337.242	-13.14
337.454	72.87
337.667	56.49
337.88	74.92
338.092	15.53
338.305	62.63
338.517	85.16
338.729	119.98
338.942	52.39
339.154	91.31
339.367	19.63
339.579	42.15
339.792	11.43
340.004	105.64
340.217	33.96
340.429	27.82
340.641	13.48
340.854	-7
341.066	-52.05
341.278	48.3
341.491	91.31
341.703	79.02
341.915	31.91
342.128	132.26
342.34	25.77
342.552	109.74
342.764	36.01
342.977	31.91
343.189	44.2
343.401	25.77
343.613	11.43
343.826	50.35
344.038	-17.24
344.25	111.78
344.462	-9.05
344.674	29.87
344.886	81.07
345.099	68.78
345.311	64.68
345.523	46.25
345.735	11.43
345.947	-27.48
346.159	-9.05
346.371	11.43
346.583	124.07
346.795	93.35
347.007	-0.85
347.219	113.83
347.431	33.96
347.643	109.74
347.855	52.39
348.067	119.98
348.279	-9.05
348.491	76.97
348.703	72.87
348.915	83.11
349.127	-4.95
349.339	52.39
349.551	11.43
349.763	89.26
349.975	81.07
350.187	89.26
350.399	81.07
350.61	31.91
350.822	107.69
351.034	72.87
351.246	38.06
351.458	87.21
351.669	54.44
351.881	83.11
352.093	56.49
352.305	89.26
352.517	-0.85
352.728	130.22
352.94	72.87
353.152	97.45
353.363	11.43
353.575	33.96
353.787	81.07
353.999	44.2
354.21	83.11
354.422	25.77
354.633	25.77
354.845	50.35
355.057	40.11
355.268	81.07
355.48	115.88
355.692	-0.85
355.903	56.49
356.115	89.26
356.326	-41.81
356.538	74.92
356.749	138.41
356.961	130.22
357.172	50.35
357.384	25.77
357.595	52.39
357.807	99.5
358.018	68.78
358.23	33.96
358.441	160.94
358.653	83.11
358.864	40.11
359.075	19.63
359.287	15.53
359.498	97.45
359.709	130.22
359.921	64.68
360.132	-9.05
360.344	60.59
360.555	36.01
360.766	89.26
360.977	74.92
361.189	25.77
361.4	-17.24
361.611	85.16
361.823	179.37
362.034	17.58
362.245	31.91
362.456	138.41
362.667	58.54
362.879	48.3
363.09	89.26
363.301	54.44
363.512	81.07
363.723	89.26
363.935	-60.24
364.146	44.2
364.357	111.78
364.568	50.35
364.779	25.77
364.99	58.54
365.201	-33.62
365.412	122.02
365.623	-9.05
365.834	72.87
366.045	36.01
366.256	64.68
366.467	85.16
366.678	9.39
366.889	3.24
367.1	58.54
367.311	97.45
367.522	105.64
367.733	134.31
367.944	83.11
368.155	48.3
368.366	95.4
368.577	124.07
368.788	74.92
368.999	97.45
369.209	50.35
369.42	165.03
369.631	115.88
369.842	89.26
370.053	9.39
370.264	130.22
370.474	48.3
370.685	56.49
370.896	17.58
371.107	54.44
371.317	74.92
371.528	111.78
371.739	27.82
371.95	89.26
372.16	58.54
372.371	7.34
372.582	85.16
372.792	85.16
373.003	50.35
373.214	58.54
373.424	40.11
373.635	23.72
373.846	101.55
374.056	60.59
374.267	115.88
374.477	56.49
374.688	46.25
374.898	60.59
375.109	5.29
375.319	91.31
375.53	142.5
375.74	85.16
375.951	50.35
376.161	91.31
376.372	60.59
376.582	23.72
376.793	-4.95
377.003	1.19
377.214	81.07
377.424	101.55
377.635	83.11
377.845	60.59
378.055	99.5
378.266	60.59
378.476	33.96
378.686	156.84
378.897	72.87
379.107	60.59
379.317	64.68
379.528	-56.15
379.738	79.02
379.948	25.77
380.158	50.35
380.369	122.02
380.579	50.35
380.789	52.39
380.999	31.91
381.21	126.12
381.42	68.78
381.63	9.39
381.84	74.92
382.05	130.22
382.261	93.35
382.471	40.11
382.681	68.78
382.891	91.31
383.101	27.82
383.311	7.34
383.521	23.72
383.731	83.11
383.941	64.68
384.151	56.49
384.361	66.73
384.571	126.12
384.781	66.73
384.991	146.6
385.201	134.31
385.411	76.97
385.621	29.87
385.831	23.72
386.041	81.07
386.251	29.87
386.461	97.45
386.671	66.73
386.881	83.11
387.091	68.78
387.301	50.35
387.511	70.83
387.72	122.02
387.93	21.67
388.14	40.11
388.35	72.87
388.56	83.11
388.769	48.3
388.979	68.78
389.189	3.24
389.399	64.68
389.609	93.35
389.818	56.49
390.028	15.53
390.238	11.43
390.447	42.15
390.657	89.26
390.867	64.68
391.076	50.35
391.286	105.64
391.496	97.45
391.705	40.11
391.915	138.41
392.125	60.59
392.334	9.39
392.544	126.12
392.753	19.63
392.963	31.91
393.172	109.74
393.382	68.78
393.591	171.18
393.801	50.35
394.01	89.26
394.22	60.59
394.429	56.49
394.639	11.43
394.848	64.68
395.058	68.78
395.267	83.11
395.477	50.35
395.686	105.64
395.895	138.41
396.105	177.32
396.314	144.55
396.524	113.83
396.733	81.07
396.942	13.48
397.152	124.07
397.361	162.98
397.57	146.6
397.78	81.07
397.989	142.5
398.198	179.37
398.407	162.98
398.617	66.73
398.826	107.69
399.035	40.11
399.244	144.55
399.453	105.64
399.663	154.79
399.872	122.02
400.081	68.78
400.29	146.6
400.499	87.21
400.708	167.08
400.917	48.3
401.127	85.16
401.336	40.11
401.545	171.18
401.754	99.5
401.963	113.83
402.172	130.22
402.381	138.41
402.59	138.41
402.799	165.03
403.008	187.56
403.217	130.22
403.426	203.94
403.635	144.55
403.844	171.18
404.053	128.17
404.262	105.64
404.471	240.81
404.68	167.08
404.888	208.04
405.097	107.69
405.306	167.08
405.515	154.79
405.724	240.81
405.933	187.56
406.142	259.24
406.35	199.85
406.559	154.79
406.768	185.51
406.977	271.53
407.185	267.43
407.394	253.09
407.603	195.75
407.812	281.77
408.02	210.09
408.229	279.72
408.438	244.9
408.646	316.58
408.855	337.06
409.064	337.06
409.272	347.3
409.481	365.73
409.69	337.06
409.898	285.86
410.107	378.02
410.315	320.68
410.524	369.83
410.733	400.55
410.941	353.45
411.15	484.52
411.358	433.32
411.567	470.18
411.775	468.13
411.984	470.18
412.192	443.56
412.401	531.62
412.609	584.87
412.818	578.72
413.026	609.44
413.234	621.73
413.443	613.54
413.651	644.26
413.86	650.4
414.068	695.46
414.276	801.95
414.485	730.27
414.693	738.46
414.901	937.12
415.11	797.85
415.318	914.59
415.526	867.49
415.734	867.49
415.943	1027.23
416.151	973.98
416.359	877.73
416.567	928.92
416.776	1066.14
416.984	1186.97
417.192	1164.44
417.4	1195.16
417.608	1168.54
417.817	1219.74
418.025	1297.56
418.233	1467.54
418.441	1359
418.649	1334.42
418.857	1510.55
419.065	1547.41
419.273	1516.69
419.481	1531.03
419.689	1797.26
419.897	1842.32
420.105	1858.7
420.313	1903.76
420.521	1899.66
420.729	1907.85
420.937	2088.07
421.145	2200.71
421.353	2286.73
421.561	2440.33
421.769	2417.8
421.977	2505.86
422.185	2389.13
422.393	2499.72
422.601	2882.69
422.809	2763.9
423.017	2827.39
423.224	2784.38
423.432	3083.39
423.64	2958.46
423.848	3251.32
424.056	3175.55
424.263	3411.06
424.471	3382.39
424.679	3458.17
424.887	3579
425.094	3714.16
425.302	3834.99
425.51	3964.01
425.718	4144.24
425.925	4097.13
426.133	4318.31
426.341	4480.1
426.548	4746.34
426.756	4586.6
426.964	4775.01
427.171	5086.3
427.379	5250.14
427.586	5172.32
427.794	5315.67
428.001	5629.01
428.209	5983.31
428.417	5749.84
428.624	6235.21
428.832	6210.64
429.039	6120.53
429.247	6079.57
429.454	6716.48
429.662	7367.74
429.869	6620.23
430.076	7177.28
430.284	6995.01
430.491	7412.79
430.699	7785.52
430.906	7584.82
431.114	7777.33
431.321	8068.14
431.528	8080.43
431.736	8690.73
431.943	9010.21
432.15	9128.99
432.358	8854.56
432.565	9481.24
432.772	9468.95
432.979	9884.69
433.187	10044.43
433.394	10003.47
433.601	10632.2
433.808	10779.65
434.016	10681.35
434.223	11363.33
434.43	11873.27
434.637	11574.27
434.844	12547.05
435.052	12323.82
435.259	12567.53
435.466	12645.35
435.673	12415.98
435.88	13069.28
436.087	14058.45
436.294	13751.26
436.501	13771.74
436.708	13669.34
436.915	14316.5
437.122	15010.76
437.329	15098.82
437.537	15047.62
437.743	15694.78
437.95	15680.44
438.157	16360.37
438.364	16982.95
438.571	16925.61
438.778	16997.29
438.985	18195.35
439.192	17828.76
439.399	18303.89
439.606	18074.52
439.813	18842.51
440.02	19985.27
440.227	19768.19
440.433	19487.62
440.64	20458.35
440.847	20224.89
441.054	20378.48
441.261	21936.99
441.467	21480.29
441.674	22088.54
441.881	22752.08
442.088	22831.95
442.294	22496.08
442.501	23112.52
442.708	23266.12
442.914	24636.21
443.121	25307.94
443.328	24873.78
443.534	26432.28
443.741	25705.25
443.948	25385.77
444.154	27573
444.361	27247.37
444.568	27120.4
444.774	27450.12
444.981	27704.07
445.187	28353.27
445.394	29680.36
445.6	29373.16
445.807	31871.68
446.013	30649.05
446.22	31181.52
446.426	32113.34
446.633	32805.56
446.839	33520.3
447.046	32158.4
447.252	34067.11
447.459	34015.91
447.665	34097.83
447.871	35515.02
448.078	37395.06
448.284	35181.2
448.491	35988.1
448.697	37624.43
448.903	38234.72
449.11	38414.94
449.316	37843.56
449.522	38388.32
449.728	39381.59
449.935	39914.06
450.141	39647.82
450.347	40448.58
450.553	39574.09
450.76	39832.14
450.966	40981.05
451.172	40931.9
451.378	41507.38
451.584	40651.33
451.791	41804.33
451.997	41521.71
452.203	42308.13
452.409	42512.93
452.615	42070.57
452.821	40022.6
453.027	40065.61
453.233	41970.22
453.44	40254.02
453.646	41089.59
453.852	41144.89
454.058	41644.59
454.264	40131.14
454.47	41409.07
454.676	40219.2
454.882	41742.89
455.088	37808.75
455.294	38867.55
455.5	39203.41
455.705	39514.7
455.911	37843.56
456.117	37204.59
456.323	36784.76
456.529	34798.23
456.735	36395.65
456.941	35209.87
457.147	34724.5
457.352	33675.94
457.558	33454.76
457.764	33823.4
457.97	32559.8
458.176	32221.89
458.381	31853.25
458.587	30628.57
458.793	30380.76
458.999	28621.56
459.204	30917.33
459.41	29774.56
459.616	28019.46
459.821	28293.88
460.027	27927.3
460.233	27405.06
460.438	26376.98
460.644	26108.7
460.85	25293.61
461.055	24468.28
461.261	24501.04
461.466	22932.3
461.672	21971.8
461.878	23491.4
462.083	22289.24
462.289	21814.11
462.494	21320.55
462.7	20667.25
462.905	19862.4
463.111	20542.32
463.316	20429.68
463.522	20202.36
463.727	20532.08
463.932	20151.16
464.138	20032.38
464.343	19714.94
464.549	19561.34
464.754	20032.38
464.959	19757.95
465.165	19807.1
465.37	18908.04
465.575	18316.18
465.781	19159.94
465.986	19055.5
466.191	18520.98
466.397	18097.05
466.602	17185.7
466.807	18029.46
467.012	17955.74
