Data from USB4F104151__190__14-33-04-954.txt Node

Date: Thu Mar 13 14:33:04 EDT 2025
User: louis
Spectrometer: USB4F10415
Trigger mode: 4
Integration Time (sec): 2.500000E-2
Scans to average: 1
Electric dark correction enabled: true
Nonlinearity correction enabled: false
Boxcar width: 0
XAxis mode: Wavelengths
Number of Pixels in Spectrum: 3648
>>>>>Begin Spectral Data<<<<<
178.204	-167.93
178.424	-167.93
178.644	-167.93
178.864	-149.5
179.084	-100.35
179.304	20.48
179.524	-38.91
179.744	12.29
179.964	4.1
180.184	-65.53
180.404	-38.91
180.624	-16.38
180.844	10.24
181.064	40.96
181.283	30.72
181.503	-26.62
181.723	67.58
181.943	-49.15
182.163	63.49
182.383	-45.06
182.602	55.3
182.822	124.93
183.042	-34.82
183.262	20.48
183.482	77.82
183.701	2.05
183.921	-47.1
184.141	-59.39
184.361	45.06
184.58	36.86
184.8	14.34
185.02	24.58
185.239	-2.05
185.459	51.2
185.679	51.2
185.898	-45.06
186.118	77.82
186.338	51.2
186.557	100.35
186.777	-24.58
186.997	18.43
187.216	67.58
187.436	110.59
187.655	36.86
187.875	73.73
188.095	-34.82
188.314	47.1
188.534	81.92
188.753	-6.14
188.973	73.73
189.192	26.62
189.412	16.38
189.631	43.01
189.851	92.16
190.07	86.01
190.29	4.1
190.509	-61.44
190.729	86.01
190.948	2.05
191.168	133.12
191.387	-4.1
191.607	61.44
191.826	-34.82
192.045	65.54
192.265	-36.86
192.484	-12.29
192.704	-40.96
192.923	22.53
193.142	126.97
193.362	-12.29
193.581	51.2
193.8	124.93
194.02	83.97
194.239	-30.72
194.458	22.53
194.678	30.72
194.897	104.45
195.116	-4.1
195.335	26.62
195.555	59.39
195.774	36.86
195.993	30.72
196.212	6.14
196.432	-8.19
196.651	77.82
196.87	-6.14
197.089	110.59
197.308	-22.53
197.528	53.25
197.747	-12.29
197.966	57.34
198.185	71.68
198.404	-2.05
198.623	71.68
198.842	83.97
199.062	65.54
199.281	77.82
199.5	-22.53
199.719	43.01
199.938	43.01
200.157	118.78
200.376	-6.14
200.595	69.63
200.814	38.91
201.033	10.24
201.252	28.67
201.471	38.91
201.69	18.43
201.909	16.38
202.128	118.78
202.347	36.86
202.566	10.24
202.785	26.62
203.004	-75.77
203.223	96.25
203.442	-2.05
203.661	-18.43
203.879	18.43
204.098	26.62
204.317	34.82
204.536	32.77
204.755	71.68
204.974	-14.34
205.193	14.34
205.411	55.3
205.63	75.77
205.849	6.14
206.068	75.77
206.287	-53.25
206.505	51.2
206.724	30.72
206.943	51.2
207.162	-20.48
207.381	18.43
207.599	86.01
207.818	83.97
208.037	-4.1
208.255	10.24
208.474	53.25
208.693	83.97
208.911	26.62
209.13	79.87
209.349	47.1
209.567	51.2
209.786	86.01
210.005	-30.72
210.223	2.05
210.442	-63.49
210.661	34.82
210.879	71.68
211.098	-53.25
211.316	16.38
211.535	18.43
211.753	90.11
211.972	-24.58
212.191	-6.14
212.409	34.82
212.628	43.01
212.846	-8.19
213.065	92.16
213.283	92.16
213.502	45.06
213.72	45.06
213.938	30.72
214.157	43.01
214.375	36.86
214.594	2.05
214.812	0
215.031	69.63
215.249	30.72
215.467	32.77
215.686	55.3
215.904	83.97
216.122	59.39
216.341	59.39
216.559	53.25
216.778	4.1
216.996	2.05
217.214	28.67
217.432	0
217.651	-2.05
217.869	59.39
218.087	45.06
218.306	71.68
218.524	4.1
218.742	-26.62
218.96	75.77
219.179	43.01
219.397	10.24
219.615	90.11
219.833	59.39
220.051	-14.34
220.27	141.31
220.488	116.73
220.706	-20.48
220.924	-12.29
221.142	108.54
221.36	24.58
221.578	69.63
221.796	2.05
222.015	-8.19
222.233	51.2
222.451	161.79
222.669	26.62
222.887	6.14
223.105	4.1
223.323	94.21
223.541	4.1
223.759	36.86
223.977	14.34
224.195	-20.48
224.413	-43.01
224.631	63.49
224.849	22.53
225.067	135.17
225.285	16.38
225.503	10.24
225.721	-63.49
225.939	22.53
226.157	20.48
226.375	149.5
226.592	2.05
226.81	-2.05
227.028	-2.05
227.246	100.35
227.464	-34.82
227.682	51.2
227.9	38.91
228.117	51.2
228.335	28.67
228.553	55.3
228.771	-2.05
228.989	69.63
229.206	26.62
229.424	-6.14
229.642	14.34
229.86	26.62
230.077	4.1
230.295	-6.14
230.513	51.2
230.731	10.24
230.948	51.2
231.166	73.73
231.384	-30.72
231.601	63.49
231.819	67.58
232.037	-47.1
232.254	-22.53
232.472	45.06
232.689	-4.1
232.907	67.58
233.125	51.2
233.342	-2.05
233.56	28.67
233.777	-71.68
233.995	18.43
234.213	102.4
234.43	10.24
234.648	36.86
234.865	10.24
235.083	83.97
235.3	-30.72
235.518	34.82
235.735	43.01
235.953	67.58
236.17	20.48
236.388	14.34
236.605	47.1
236.822	43.01
237.04	40.96
237.257	71.68
237.475	34.82
237.692	67.58
237.909	22.53
238.127	-6.14
238.344	-4.1
238.562	124.93
238.779	26.62
238.996	10.24
239.214	47.1
239.431	-22.53
239.648	51.2
239.865	43.01
240.083	34.82
240.3	30.72
240.517	20.48
240.735	71.68
240.952	-2.05
241.169	122.88
241.386	18.43
241.603	34.82
241.821	20.48
242.038	20.48
242.255	100.35
242.472	-16.38
242.689	47.1
242.907	63.49
243.124	59.39
243.341	75.77
243.558	-12.29
243.775	36.86
243.992	79.87
244.209	88.06
244.426	67.58
244.643	-6.14
244.86	6.14
245.078	36.86
245.295	67.58
245.512	34.82
245.729	38.91
245.946	-16.38
246.163	55.3
246.38	88.06
246.597	40.96
246.814	86.01
247.031	20.48
247.248	18.43
247.464	51.2
247.681	51.2
247.898	67.58
248.115	-30.72
248.332	16.38
248.549	83.97
248.766	145.41
248.983	98.3
249.2	28.67
249.417	40.96
249.633	30.72
249.85	51.2
250.067	77.82
250.284	-14.34
250.501	83.97
250.717	112.64
250.934	59.39
251.151	-10.24
251.368	22.53
251.585	73.73
251.801	18.43
252.018	-30.72
252.235	34.82
252.451	-2.05
252.668	-49.15
252.885	14.34
253.102	18.43
253.318	43.01
253.535	6.14
253.752	-104.45
253.968	12.29
254.185	22.53
254.401	14.34
254.618	43.01
254.835	-28.67
255.051	120.83
255.268	104.45
255.484	24.58
255.701	38.91
255.917	69.63
256.134	45.06
256.351	53.25
256.567	67.58
256.784	77.82
257	34.82
257.217	-10.24
257.433	75.77
257.65	96.25
257.866	55.3
258.082	-2.05
258.299	30.72
258.515	10.24
258.732	28.67
258.948	28.67
259.165	53.25
259.381	-22.53
259.597	69.63
259.814	36.86
260.03	2.05
260.246	10.24
260.463	36.86
260.679	20.48
260.895	26.62
261.112	47.1
261.328	18.43
261.544	-10.24
261.761	92.16
261.977	67.58
262.193	59.39
262.409	4.1
262.626	26.62
262.842	10.24
263.058	-30.72
263.274	100.35
263.49	-38.91
263.707	112.64
263.923	53.25
264.139	28.67
264.355	28.67
264.571	36.86
264.787	116.73
265.004	94.21
265.22	38.91
265.436	38.91
265.652	51.2
265.868	14.34
266.084	18.43
266.3	51.2
266.516	2.05
266.732	-6.14
266.948	8.19
267.164	-14.34
267.38	28.67
267.596	18.43
267.812	110.59
268.028	67.58
268.244	-43.01
268.46	-59.39
268.676	30.72
268.892	69.63
269.108	55.3
269.324	51.2
269.54	67.58
269.756	38.91
269.972	-26.62
270.188	6.14
270.403	43.01
270.619	10.24
270.835	53.25
271.051	-4.1
271.267	-55.3
271.483	14.34
271.698	20.48
271.914	67.58
272.13	32.77
272.346	75.77
272.562	40.96
272.777	100.35
272.993	32.77
273.209	38.91
273.425	38.91
273.64	-51.2
273.856	20.48
274.072	-14.34
274.287	6.14
274.503	2.05
274.719	34.82
274.934	94.21
275.15	-26.62
275.366	51.2
275.581	-55.3
275.797	14.34
276.012	69.63
276.228	47.1
276.444	34.82
276.659	-6.14
276.875	-18.43
277.09	45.06
277.306	-38.91
277.521	86.01
277.737	55.3
277.952	34.82
278.168	83.97
278.383	18.43
278.599	86.01
278.814	83.97
279.03	-40.96
279.245	63.49
279.461	8.19
279.676	100.35
279.892	6.14
280.107	12.29
280.322	38.91
280.538	45.06
280.753	26.62
280.969	77.82
281.184	-30.72
281.399	71.68
281.615	-14.34
281.83	26.62
282.045	38.91
282.26	-30.72
282.476	53.25
282.691	28.67
282.906	92.16
283.122	10.24
283.337	34.82
283.552	86.01
283.767	-30.72
283.983	51.2
284.198	36.86
284.413	38.91
284.628	30.72
284.843	12.29
285.058	71.68
285.274	30.72
285.489	43.01
285.704	77.82
285.919	8.19
286.134	-6.14
286.349	47.1
286.564	43.01
286.779	65.54
286.995	18.43
287.21	-53.25
287.425	-6.14
287.64	-32.77
287.855	126.97
288.07	12.29
288.285	38.91
288.5	73.73
288.715	75.77
288.93	49.15
289.145	59.39
289.36	-4.1
289.575	120.83
289.79	77.82
290.004	90.11
290.219	98.3
290.434	71.68
290.649	53.25
290.864	28.67
291.079	4.1
291.294	45.06
291.509	16.38
291.724	67.58
291.938	59.39
292.153	124.93
292.368	16.38
292.583	92.16
292.798	18.43
293.012	-34.82
293.227	51.2
293.442	26.62
293.657	38.91
293.871	20.48
294.086	20.48
294.301	79.87
294.516	24.58
294.73	43.01
294.945	-8.19
295.16	120.83
295.374	55.3
295.589	94.21
295.804	47.1
296.018	28.67
296.233	26.62
296.447	55.3
296.662	88.06
296.877	100.35
297.091	79.87
297.306	65.54
297.52	16.38
297.735	-14.34
297.949	-49.15
298.164	36.86
298.378	2.05
298.593	2.05
298.807	40.96
299.022	-14.34
299.236	53.25
299.451	-4.1
299.665	45.06
299.88	49.15
300.094	26.62
300.309	22.53
300.523	67.58
300.737	83.97
300.952	51.2
301.166	92.16
301.381	14.34
301.595	36.86
301.809	32.77
302.024	18.43
302.238	45.06
302.452	8.19
302.667	28.67
302.881	114.69
303.095	116.73
303.309	59.39
303.524	-14.34
303.738	-12.29
303.952	-20.48
304.166	51.2
304.381	4.1
304.595	182.27
304.809	-63.49
305.023	98.3
305.237	96.25
305.452	34.82
305.666	22.53
305.88	63.49
306.094	106.49
306.308	57.34
306.522	92.16
306.736	102.4
306.95	94.21
307.164	47.1
307.379	69.63
307.593	108.54
307.807	34.82
308.021	94.21
308.235	-2.05
308.449	-30.72
308.663	12.29
308.877	83.97
309.091	116.73
309.305	94.21
309.519	-6.14
309.733	94.21
309.947	4.1
310.161	92.16
310.374	63.49
310.588	53.25
310.802	30.72
311.016	47.1
311.23	79.87
311.444	43.01
311.658	28.67
311.872	94.21
312.085	47.1
312.299	63.49
312.513	24.58
312.727	110.59
312.941	-4.1
313.154	30.72
313.368	43.01
313.582	2.05
313.796	75.77
314.009	79.87
314.223	100.35
314.437	126.97
314.651	67.58
314.864	18.43
315.078	59.39
315.292	36.86
315.505	-6.14
315.719	100.35
315.933	26.62
316.146	43.01
316.36	-12.29
316.573	108.54
316.787	45.06
317.001	53.25
317.214	-24.58
317.428	63.49
317.641	18.43
317.855	57.34
318.068	86.01
318.282	53.25
318.495	57.34
318.709	88.06
318.922	-73.73
319.136	110.59
319.349	59.39
319.563	75.77
319.776	18.43
319.99	-30.72
320.203	92.16
320.417	30.72
320.63	100.35
320.843	63.49
321.057	34.82
321.27	69.63
321.483	120.83
321.697	174.08
321.91	-30.72
322.124	120.83
322.337	2.05
322.55	-75.77
322.763	38.91
322.977	-2.05
323.19	-18.43
323.403	22.53
323.617	57.34
323.83	92.16
324.043	32.77
324.256	34.82
324.469	-14.34
324.683	96.25
324.896	26.62
325.109	34.82
325.322	-8.19
325.535	-16.38
325.748	45.06
325.962	69.63
326.175	81.92
326.388	30.72
326.601	36.86
326.814	-43.01
327.027	-2.05
327.24	120.83
327.453	49.15
327.666	51.2
327.879	79.87
328.092	65.54
328.305	94.21
328.518	22.53
328.731	28.67
328.944	18.43
329.157	75.77
329.37	-30.72
329.583	22.53
329.796	124.93
330.009	14.34
330.222	122.88
330.435	53.25
330.648	69.63
330.861	61.44
331.073	43.01
331.286	51.2
331.499	43.01
331.712	59.39
331.925	16.38
332.138	36.86
332.35	86.01
332.563	32.77
332.776	122.88
332.989	59.39
333.202	-14.34
333.414	45.06
333.627	65.54
333.84	86.01
334.053	34.82
334.265	2.05
334.478	34.82
334.691	10.24
334.903	100.35
335.116	-14.34
335.329	63.49
335.541	141.31
335.754	43.01
335.966	55.3
336.179	4.1
336.392	45.06
336.604	67.58
336.817	90.11
337.029	67.58
337.242	75.77
337.454	14.34
337.667	51.2
337.88	59.39
338.092	28.67
338.305	55.3
338.517	61.44
338.729	112.64
338.942	38.91
339.154	4.1
339.367	26.62
339.579	12.29
339.792	43.01
340.004	26.62
340.217	69.63
340.429	79.87
340.641	55.3
340.854	34.82
341.066	67.58
341.278	86.01
341.491	53.25
341.703	30.72
341.915	43.01
342.128	106.49
342.34	59.39
342.552	36.86
342.764	75.77
342.977	-28.67
343.189	67.58
343.401	-22.53
343.613	-10.24
343.826	139.26
344.038	28.67
344.25	100.35
344.462	45.06
344.674	28.67
344.886	40.96
345.099	18.43
345.311	65.54
345.523	18.43
345.735	-12.29
345.947	90.11
346.159	-6.14
346.371	2.05
346.583	18.43
346.795	137.21
347.007	2.05
347.219	100.35
347.431	53.25
347.643	43.01
347.855	73.73
348.067	137.21
348.279	51.2
348.491	75.77
348.703	69.63
348.915	47.1
349.127	-4.1
349.339	34.82
349.551	59.39
349.763	86.01
349.975	-14.34
350.187	83.97
350.399	122.88
350.61	83.97
350.822	114.69
351.034	18.43
351.246	102.4
351.458	36.86
351.669	53.25
351.881	65.54
352.093	12.29
352.305	43.01
352.517	67.58
352.728	77.82
352.94	75.77
353.152	71.68
353.363	-34.82
353.575	79.87
353.787	53.25
353.999	43.01
354.21	10.24
354.422	26.62
354.633	-47.1
354.845	47.1
355.057	96.25
355.268	116.73
355.48	14.34
355.692	51.2
355.903	83.97
356.115	26.62
356.326	-30.72
356.538	79.87
356.749	102.4
356.961	100.35
357.172	51.2
357.384	-14.34
357.595	153.6
357.807	86.01
358.018	-26.62
358.23	20.48
358.441	102.4
358.653	34.82
358.864	16.38
359.075	28.67
359.287	100.35
359.498	47.1
359.709	83.97
359.921	18.43
360.132	45.06
360.344	-14.34
360.555	67.58
360.766	59.39
360.977	14.34
361.189	71.68
361.4	55.3
361.611	77.82
361.823	100.35
362.034	40.96
362.245	36.86
362.456	32.77
362.667	100.35
362.879	-30.72
363.09	94.21
363.301	65.54
363.512	63.49
363.723	-6.14
363.935	61.44
364.146	126.97
364.357	65.54
364.568	28.67
364.779	6.14
364.99	69.63
365.201	63.49
365.412	47.1
365.623	28.67
365.834	67.58
366.045	28.67
366.256	102.4
366.467	75.77
366.678	96.25
366.889	10.24
367.1	16.38
367.311	55.3
367.522	53.25
367.733	108.54
367.944	75.77
368.155	30.72
368.366	137.21
368.577	116.73
368.788	65.54
368.999	-8.19
369.209	81.92
369.42	153.6
369.631	161.79
369.842	71.68
370.053	77.82
370.264	112.64
370.474	10.24
370.685	163.84
370.896	-6.14
371.107	143.36
371.317	75.77
371.528	79.87
371.739	98.3
371.95	30.72
372.16	38.91
372.371	45.06
372.582	88.06
372.792	55.3
373.003	51.2
373.214	63.49
373.424	4.1
373.635	36.86
373.846	98.3
374.056	81.92
374.267	34.82
374.477	45.06
374.688	26.62
374.898	47.1
375.109	61.44
375.319	34.82
375.53	69.63
375.74	57.34
375.951	51.2
376.161	38.91
376.372	133.12
376.582	55.3
376.793	34.82
377.003	18.43
377.214	43.01
377.424	86.01
377.635	45.06
377.845	-6.14
378.055	96.25
378.266	36.86
378.476	102.4
378.686	36.86
378.897	108.54
379.107	71.68
379.317	71.68
379.528	110.59
379.738	92.16
379.948	-12.29
380.158	165.89
380.369	26.62
380.579	79.87
380.789	165.89
380.999	79.87
381.21	63.49
381.42	126.97
381.63	96.25
381.84	20.48
382.05	124.93
382.261	16.38
382.471	124.93
382.681	79.87
382.891	96.25
383.101	92.16
383.311	20.48
383.521	38.91
383.731	43.01
383.941	100.35
384.151	-22.53
384.361	69.63
384.571	55.3
384.781	73.73
384.991	124.93
385.201	112.64
385.411	104.45
385.621	69.63
385.831	18.43
386.041	69.63
386.251	49.15
386.461	71.68
386.671	43.01
386.881	36.86
387.091	6.14
387.301	149.5
387.511	67.58
387.72	108.54
387.93	90.11
388.14	20.48
388.35	73.73
388.56	34.82
388.769	83.97
388.979	157.69
389.189	30.72
389.399	53.25
389.609	61.44
389.818	100.35
390.028	0
390.238	51.2
390.447	6.14
390.657	94.21
390.867	34.82
391.076	12.29
391.286	94.21
391.496	116.73
391.705	51.2
391.915	77.82
392.125	133.12
392.334	116.73
392.544	133.12
392.753	34.82
392.963	38.91
393.172	116.73
393.382	14.34
393.591	118.78
393.801	-63.49
394.01	165.89
394.22	114.69
394.429	88.06
394.639	59.39
394.848	126.97
395.058	98.3
395.267	110.59
395.477	20.48
395.686	124.93
395.895	88.06
396.105	110.59
396.314	135.17
396.524	73.73
396.733	151.55
396.942	149.5
397.152	116.73
397.361	71.68
397.57	83.97
397.78	149.5
397.989	110.59
398.198	137.21
398.407	26.62
398.617	51.2
398.826	137.21
399.035	116.73
399.244	71.68
399.453	30.72
399.663	104.45
399.872	167.93
400.081	43.01
400.29	124.93
400.499	118.78
400.708	151.55
400.917	108.54
401.127	75.77
401.336	116.73
401.545	182.27
401.754	157.69
401.963	165.89
402.172	200.7
402.381	135.17
402.59	141.31
402.799	149.5
403.008	141.31
403.217	206.84
403.426	149.5
403.635	124.93
403.844	169.98
404.053	118.78
404.262	94.21
404.471	233.47
404.68	169.98
404.888	176.13
405.097	139.26
405.306	198.65
405.515	190.46
405.724	124.93
405.933	256
406.142	126.97
406.35	186.37
406.559	215.04
406.768	231.42
406.977	288.76
407.185	215.04
407.394	192.51
407.603	190.46
407.812	227.32
408.02	307.2
408.229	194.56
408.438	294.91
408.646	184.32
408.855	258.04
409.064	294.91
409.272	317.44
409.481	329.72
409.69	264.19
409.898	315.39
410.107	387.07
410.315	356.35
410.524	280.57
410.733	403.45
410.941	354.3
411.15	432.12
411.358	454.65
411.567	485.37
411.775	448.51
411.984	391.16
412.192	415.74
412.401	503.8
412.609	567.29
412.818	628.73
413.026	600.05
413.234	550.9
413.443	606.2
413.651	583.67
413.86	620.53
414.068	684.02
414.276	718.84
414.485	698.36
414.693	741.36
414.901	772.08
415.11	782.32
415.318	772.08
415.526	755.7
415.734	831.48
415.943	878.58
416.151	870.39
416.359	858.1
416.567	983.03
416.776	913.39
416.984	999.41
417.192	1095.66
417.4	1050.61
417.608	1181.68
417.817	1048.56
418.025	1220.59
418.233	1312.75
418.441	1206.25
418.649	1230.83
418.857	1421.29
419.065	1415.15
419.273	1386.47
419.481	1560.55
419.689	1576.94
419.897	1705.96
420.105	1675.24
420.313	1703.91
420.521	1791.97
420.729	1855.46
420.937	1890.28
421.145	1941.47
421.353	2050.02
421.561	2140.13
421.769	2150.37
421.977	2193.37
422.185	2156.51
422.393	2373.6
422.601	2652.12
422.809	2525.15
423.017	2381.79
423.224	2619.35
423.432	2652.12
423.64	2688.98
423.848	3076.05
424.056	2975.7
424.263	3164.11
424.471	3098.58
424.679	3200.98
424.887	3317.71
425.094	3454.92
425.302	3403.72
425.51	3590.09
425.718	3803.08
425.925	3770.31
426.133	3901.38
426.341	4104.13
426.548	4329.41
426.756	4300.73
426.964	4374.46
427.171	4548.54
427.379	4763.58
427.586	4908.98
427.794	4659.13
428.001	5017.52
428.209	5318.57
428.417	5273.52
428.624	5689.26
428.832	5660.59
429.039	5580.71
429.247	5705.64
429.454	6129.57
429.662	6580.12
429.869	6016.93
430.076	6623.13
430.284	6326.18
430.491	6795.16
430.699	7088.02
430.906	6940.57
431.114	7100.31
431.321	7323.54
431.528	7516.05
431.736	7989.13
431.943	8441.73
432.15	8017.8
432.358	8222.59
432.565	8523.65
432.772	8546.17
432.979	9211.76
433.187	9250.67
433.394	9291.63
433.601	9881.45
433.808	9817.96
434.016	9922.41
434.223	10229.6
434.43	10751.84
434.637	10735.45
434.844	11110.23
435.052	11429.71
435.259	11456.34
435.466	11640.65
435.673	11573.07
435.88	12138.31
436.087	12361.54
436.294	12746.56
436.501	12568.38
436.708	12678.97
436.915	13186.87
437.122	13653.81
437.329	13692.72
437.537	14133.03
437.743	14581.54
437.95	14210.86
438.157	15001.37
438.364	15503.12
438.571	15384.34
438.778	15476.5
438.985	16725.76
439.192	16369.41
439.399	16834.3
439.606	16361.22
439.813	17520.37
440.02	18222.83
440.227	18083.56
440.433	17729.27
440.64	18527.97
440.847	18353.9
441.054	18599.65
441.261	19887.82
441.467	19508.95
441.674	20199.12
441.881	20932.29
442.088	20606.66
442.294	21049.02
442.501	20997.82
442.708	21681.85
442.914	22355.63
443.121	23113.38
443.328	22865.57
443.534	24481.42
443.741	23508.63
443.948	23140
444.154	24940.16
444.361	24931.97
444.568	25063.04
444.774	25032.32
444.981	25376.38
445.187	25673.34
445.394	27262.56
445.6	26695.27
445.807	29433.41
446.013	27997.78
446.22	28626.51
446.426	29828.66
446.633	29957.69
446.839	30834.22
447.046	29507.13
447.252	31350.31
447.459	31254.05
447.665	30901.8
447.871	32595.47
448.078	34338.29
448.284	32120.34
448.491	33003.02
448.697	34422.26
448.903	35022.31
449.11	35182.06
449.316	34231.8
449.522	35276.26
449.728	36038.11
449.935	36701.65
450.141	36640.21
450.347	37148.11
450.553	35829.21
450.76	36642.26
450.966	37926.33
451.172	37275.08
451.378	37950.91
451.584	37371.33
451.791	38432.18
451.997	37940.67
452.203	38647.22
452.409	38768.05
452.615	38391.22
452.821	37072.33
453.027	36586.96
453.233	38684.08
453.44	36820.43
453.646	37152.2
453.852	37492.16
454.058	38141.37
454.264	36875.73
454.47	37920.19
454.676	36728.27
454.882	37842.37
455.088	34285.04
455.294	35075.56
455.5	35464.67
455.705	36015.58
455.911	34747.89
456.117	33816.06
456.323	33695.23
456.529	31671.84
456.735	33123.85
456.941	32112.15
457.147	31440.42
457.352	30391.86
457.558	30463.54
457.764	30187.06
457.97	29711.93
458.176	29111.88
458.381	29206.08
458.587	27840.09
458.793	27584.09
458.999	26574.44
459.204	27862.61
459.41	27188.83
459.616	25556.6
459.821	25476.73
460.027	25601.66
460.233	24741.51
460.438	23647.9
460.644	23738.01
460.85	22793.89
461.055	22376.11
461.261	22619.81
461.466	20735.68
461.672	19916.5
461.878	21532.34
462.083	20061.9
462.289	19680.98
462.494	19578.58
462.7	18718.43
462.905	18351.85
463.111	18714.34
463.316	18775.78
463.522	18425.57
463.727	18634.47
463.932	18357.99
464.138	18091.76
464.343	18347.75
464.549	17942.25
464.754	18452.2
464.959	18173.67
465.165	18091.76
465.37	16983.8
465.575	16903.93
465.781	17387.25
465.986	17635.06
466.191	17012.48
466.397	16609.03
466.602	15830.8
466.807	16611.07
467.012	16439.05
