Data from USB4F104151__313__14-35-06-344.txt Node

Date: Thu Mar 13 14:35:06 EDT 2025
User: louis
Spectrometer: USB4F10415
Trigger mode: 4
Integration Time (sec): 2.500000E-2
Scans to average: 1
Electric dark correction enabled: true
Nonlinearity correction enabled: false
Boxcar width: 0
XAxis mode: Wavelengths
Number of Pixels in Spectrum: 3648
>>>>>Begin Spectral Data<<<<<
178.204	-152.91
178.424	-152.91
178.644	-152.91
178.864	-187.73
179.084	-136.53
179.304	8.87
179.524	-40.28
179.744	-11.61
179.964	6.83
180.184	39.59
180.404	-21.85
180.624	23.21
180.844	27.31
181.064	-30.04
181.283	-9.56
181.503	17.07
181.723	-9.56
181.943	17.07
182.163	19.11
182.383	15.02
182.602	43.69
182.822	41.64
183.042	39.59
183.262	25.26
183.482	-21.85
183.701	49.83
183.921	-17.75
184.141	6.83
184.361	37.55
184.58	64.17
184.8	58.03
185.02	-13.65
185.239	27.31
185.459	72.36
185.679	19.11
185.898	-23.89
186.118	72.36
186.338	-9.56
186.557	10.92
186.777	92.84
186.997	8.87
187.216	31.4
187.436	49.83
187.655	86.7
187.875	90.79
188.095	74.41
188.314	60.07
188.534	41.64
188.753	-21.85
188.973	2.73
189.192	129.7
189.412	64.17
189.631	35.5
189.851	37.55
190.07	8.87
190.29	51.88
190.509	-3.41
190.729	84.65
190.948	31.4
191.168	154.28
191.387	70.31
191.607	47.79
191.826	90.79
192.045	31.4
192.265	58.03
192.484	15.02
192.704	31.4
192.923	-44.37
193.142	121.51
193.362	49.83
193.581	80.55
193.8	-54.61
194.02	55.98
194.239	19.11
194.458	-3.41
194.678	49.83
194.897	64.17
195.116	31.4
195.335	88.75
195.555	6.83
195.774	58.03
195.993	64.17
196.212	31.4
196.432	33.45
196.651	23.21
196.87	49.83
197.089	152.23
197.308	29.35
197.528	105.13
197.747	55.98
197.966	33.45
198.185	96.94
198.404	15.02
198.623	47.79
198.842	31.4
199.062	58.03
199.281	60.07
199.5	-15.7
199.719	146.09
199.938	88.75
200.157	66.22
200.376	31.4
200.595	98.99
200.814	-3.41
201.033	15.02
201.252	23.21
201.471	-9.56
201.69	90.79
201.909	70.31
202.128	39.59
202.347	10.92
202.566	35.5
202.785	41.64
203.004	6.83
203.223	107.18
203.442	33.45
203.661	41.64
203.879	27.31
204.098	105.13
204.317	-32.08
204.536	39.59
204.755	47.79
204.974	8.87
205.193	31.4
205.411	154.28
205.63	72.36
205.849	72.36
206.068	17.07
206.287	64.17
206.505	43.69
206.724	-62.8
206.943	31.4
207.162	12.97
207.381	39.59
207.599	39.59
207.818	55.98
208.037	43.69
208.255	-42.32
208.474	98.99
208.693	-5.46
208.911	84.65
209.13	49.83
209.349	92.84
209.567	41.64
209.786	72.36
210.005	-7.51
210.223	47.79
210.442	15.02
210.661	35.5
210.879	6.83
211.098	2.73
211.316	49.83
211.535	96.94
211.753	51.88
211.972	35.5
212.191	-23.89
212.409	-50.52
212.628	55.98
212.846	15.02
213.065	64.17
213.283	115.37
213.502	-64.85
213.72	8.87
213.938	33.45
214.157	31.4
214.375	23.21
214.594	0.68
214.812	76.46
215.031	60.07
215.249	10.92
215.467	-30.04
215.686	-9.56
215.904	111.27
216.122	35.5
216.341	139.94
216.559	78.51
216.778	23.21
216.996	23.21
217.214	31.4
217.432	-46.42
217.651	111.27
217.869	47.79
218.087	0.68
218.306	55.98
218.524	-48.47
218.742	-19.8
218.96	27.31
219.179	72.36
219.397	68.27
219.615	137.9
219.833	23.21
220.051	-25.94
220.27	49.83
220.488	60.07
220.706	-7.51
220.924	-99.67
221.142	19.11
221.36	6.83
221.578	25.26
221.796	-21.85
222.015	6.83
222.233	78.51
222.451	51.88
222.669	-50.52
222.887	-7.51
223.105	33.45
223.323	47.79
223.541	78.51
223.759	25.26
223.977	41.64
224.195	98.99
224.413	2.73
224.631	84.65
224.849	29.35
225.067	76.46
225.285	-40.28
225.503	2.73
225.721	10.92
225.939	2.73
226.157	-5.46
226.375	82.6
226.592	76.46
226.81	39.59
227.028	49.83
227.246	64.17
227.464	-13.65
227.682	-1.37
227.9	68.27
228.117	31.4
228.335	105.13
228.553	55.98
228.771	72.36
228.989	64.17
229.206	-1.37
229.424	19.11
229.642	-30.04
229.86	15.02
230.077	-7.51
230.295	39.59
230.513	68.27
230.731	55.98
230.948	51.88
231.166	43.69
231.384	27.31
231.601	41.64
231.819	58.03
232.037	-34.13
232.254	10.92
232.472	43.69
232.689	6.83
232.907	39.59
233.125	45.74
233.342	39.59
233.56	-13.65
233.777	-1.37
233.995	80.55
234.213	-7.51
234.43	25.26
234.648	31.4
234.865	47.79
235.083	15.02
235.3	23.21
235.518	51.88
235.735	51.88
235.953	-5.46
236.17	43.69
236.388	84.65
236.605	41.64
236.822	35.5
237.04	72.36
237.257	31.4
237.475	-1.37
237.692	51.88
237.909	31.4
238.127	74.41
238.344	53.93
238.562	88.75
238.779	27.31
238.996	10.92
239.214	15.02
239.431	80.55
239.648	23.21
239.865	49.83
240.083	-21.85
240.3	-9.56
240.517	6.83
240.735	-15.7
240.952	80.55
241.169	49.83
241.386	15.02
241.603	101.03
241.821	15.02
242.038	123.56
242.255	55.98
242.472	-17.75
242.689	74.41
242.907	84.65
243.124	35.5
243.341	80.55
243.558	-17.75
243.775	-7.51
243.992	60.07
244.209	53.93
244.426	109.23
244.643	74.41
244.86	31.4
245.078	129.7
245.295	35.5
245.512	53.93
245.729	33.45
245.946	19.11
246.163	8.87
246.38	66.22
246.597	96.94
246.814	58.03
247.031	72.36
247.248	51.88
247.464	64.17
247.681	25.26
247.898	105.13
248.115	80.55
248.332	17.07
248.549	98.99
248.766	158.38
248.983	68.27
249.2	-50.52
249.417	78.51
249.633	55.98
249.85	62.12
250.067	33.45
250.284	92.84
250.501	80.55
250.717	96.94
250.934	-34.13
251.151	51.88
251.368	51.88
251.585	49.83
251.801	-48.47
252.018	-17.75
252.235	29.35
252.451	35.5
252.668	78.51
252.885	105.13
253.102	2.73
253.318	58.03
253.535	25.26
253.752	-32.08
253.968	-15.7
254.185	-25.94
254.401	-15.7
254.618	90.79
254.835	51.88
255.051	94.89
255.268	-13.65
255.484	31.4
255.701	64.17
255.917	60.07
256.134	45.74
256.351	0.68
256.567	2.73
256.784	58.03
257	-54.61
257.217	64.17
257.433	25.26
257.65	55.98
257.866	33.45
258.082	-9.56
258.299	-42.32
258.515	129.7
258.732	66.22
258.948	-1.37
259.165	-1.37
259.381	23.21
259.597	72.36
259.814	68.27
260.03	-5.46
260.246	88.75
260.463	41.64
260.679	41.64
260.895	-48.47
261.112	113.32
261.328	31.4
261.544	43.69
261.761	127.66
261.977	-25.94
262.193	23.21
262.409	58.03
262.626	49.83
262.842	121.51
263.058	17.07
263.274	47.79
263.49	98.99
263.707	6.83
263.923	76.46
264.139	17.07
264.355	39.59
264.571	6.83
264.787	31.4
265.004	49.83
265.22	37.55
265.436	60.07
265.652	19.11
265.868	96.94
266.084	43.69
266.3	39.59
266.516	6.83
266.732	131.75
266.948	35.5
267.164	27.31
267.38	60.07
267.596	53.93
267.812	31.4
268.028	31.4
268.244	21.16
268.46	25.26
268.676	-23.89
268.892	6.83
269.108	31.4
269.324	68.27
269.54	-40.28
269.756	107.18
269.972	33.45
270.188	0.68
270.403	-36.18
270.619	-13.65
270.835	49.83
271.051	17.07
271.267	-50.52
271.483	45.74
271.698	70.31
271.914	60.07
272.13	-34.13
272.346	8.87
272.562	98.99
272.777	47.79
272.993	23.21
273.209	15.02
273.425	49.83
273.64	-23.89
273.856	17.07
274.072	80.55
274.287	125.61
274.503	47.79
274.719	121.51
274.934	37.55
275.15	-7.51
275.366	39.59
275.581	-71
275.797	39.59
276.012	43.69
276.228	43.69
276.444	8.87
276.659	39.59
276.875	39.59
277.09	-1.37
277.306	33.45
277.521	41.64
277.737	35.5
277.952	29.35
278.168	35.5
278.383	55.98
278.599	92.84
278.814	90.79
279.03	41.64
279.245	90.79
279.461	72.36
279.676	51.88
279.892	27.31
280.107	72.36
280.322	-11.61
280.538	23.21
280.753	0.68
280.969	68.27
281.184	70.31
281.399	74.41
281.615	35.5
281.83	88.75
282.045	-50.52
282.26	-17.75
282.476	53.93
282.691	119.46
282.906	39.59
283.122	96.94
283.337	41.64
283.552	10.92
283.767	64.17
283.983	66.22
284.198	-32.08
284.413	62.12
284.628	23.21
284.843	109.23
285.058	31.4
285.274	72.36
285.489	-11.61
285.704	47.79
285.919	-23.89
286.134	19.11
286.349	6.83
286.564	-7.51
286.779	-5.46
286.995	80.55
287.21	64.17
287.425	98.99
287.64	0.68
287.855	2.73
288.07	12.97
288.285	107.18
288.5	94.89
288.715	64.17
288.93	31.4
289.145	-40.28
289.36	47.79
289.575	39.59
289.79	125.61
290.004	23.21
290.219	23.21
290.434	33.45
290.649	41.64
290.864	84.65
291.079	27.31
291.294	19.11
291.509	-54.61
291.724	39.59
291.938	-5.46
292.153	23.21
292.368	23.21
292.583	17.07
292.798	80.55
293.012	80.55
293.227	86.7
293.442	31.4
293.657	70.31
293.871	88.75
294.086	84.65
294.301	53.93
294.516	8.87
294.73	60.07
294.945	25.26
295.16	39.59
295.374	121.51
295.589	115.37
295.804	86.7
296.018	90.79
296.233	74.41
296.447	105.13
296.662	58.03
296.877	113.32
297.091	41.64
297.306	-7.51
297.52	53.93
297.735	6.83
297.949	47.79
298.164	72.36
298.378	47.79
298.593	-19.8
298.807	15.02
299.022	25.26
299.236	103.08
299.451	64.17
299.665	-5.46
299.88	55.98
300.094	31.4
300.309	-13.65
300.523	-5.46
300.737	80.55
300.952	66.22
301.166	23.21
301.381	-3.41
301.595	47.79
301.809	105.13
302.024	19.11
302.238	-34.13
302.452	92.84
302.667	80.55
302.881	121.51
303.095	33.45
303.309	19.11
303.524	-42.32
303.738	45.74
303.952	-40.28
304.166	119.46
304.381	27.31
304.595	90.79
304.809	-25.94
305.023	107.18
305.237	23.21
305.452	15.02
305.666	55.98
305.88	195.24
306.094	35.5
306.308	113.32
306.522	96.94
306.736	117.42
306.95	8.87
307.164	41.64
307.379	96.94
307.593	47.79
307.807	84.65
308.021	58.03
308.235	55.98
308.449	-23.89
308.663	55.98
308.877	98.99
309.091	64.17
309.305	121.51
309.519	-56.66
309.733	23.21
309.947	-1.37
310.161	72.36
310.374	68.27
310.588	47.79
310.802	39.59
311.016	76.46
311.23	72.36
311.444	49.83
311.658	39.59
311.872	55.98
312.085	33.45
312.299	31.4
312.513	23.21
312.727	55.98
312.941	-21.85
313.154	109.23
313.368	55.98
313.582	53.93
313.796	60.07
314.009	6.83
314.223	88.75
314.437	55.98
314.651	96.94
314.864	76.46
315.078	37.55
315.292	84.65
315.505	6.83
315.719	49.83
315.933	84.65
316.146	10.92
316.36	55.98
316.573	74.41
316.787	74.41
317.001	23.21
317.214	-15.7
317.428	64.17
317.641	-9.56
317.855	58.03
318.068	121.51
318.282	72.36
318.495	121.51
318.709	60.07
318.922	60.07
319.136	45.74
319.349	96.94
319.563	-13.65
319.776	43.69
319.99	25.26
320.203	68.27
320.417	47.79
320.63	0.68
320.843	131.75
321.057	-9.56
321.27	55.98
321.483	121.51
321.697	84.65
321.91	76.46
322.124	55.98
322.337	60.07
322.55	17.07
322.763	45.74
322.977	39.59
323.19	21.16
323.403	43.69
323.617	113.32
323.83	90.79
324.043	39.59
324.256	6.83
324.469	-50.52
324.683	90.79
324.896	0.68
325.109	51.88
325.322	80.55
325.535	90.79
325.748	121.51
325.962	64.17
326.175	-9.56
326.388	107.18
326.601	-9.56
326.814	58.03
327.027	31.4
327.24	154.28
327.453	-27.99
327.666	-13.65
327.879	33.45
328.092	88.75
328.305	6.83
328.518	15.02
328.731	12.97
328.944	35.5
329.157	96.94
329.37	60.07
329.583	103.08
329.796	72.36
330.009	-11.61
330.222	49.83
330.435	31.4
330.648	-1.37
330.861	27.31
331.073	70.31
331.286	107.18
331.499	72.36
331.712	-9.56
331.925	47.79
332.138	154.28
332.35	55.98
332.563	6.83
332.776	76.46
332.989	25.26
333.202	-9.56
333.414	-19.8
333.627	17.07
333.84	37.55
334.053	64.17
334.265	64.17
334.478	10.92
334.691	33.45
334.903	27.31
335.116	39.59
335.329	88.75
335.541	82.6
335.754	64.17
335.966	47.79
336.179	15.02
336.392	19.11
336.604	58.03
336.817	80.55
337.029	39.59
337.242	25.26
337.454	64.17
337.667	58.03
337.88	23.21
338.092	49.83
338.305	121.51
338.517	39.59
338.729	72.36
338.942	74.41
339.154	25.26
339.367	-30.04
339.579	0.68
339.792	-23.89
340.004	51.88
340.217	47.79
340.429	-9.56
340.641	-11.61
340.854	105.13
341.066	58.03
341.278	117.42
341.491	80.55
341.703	86.7
341.915	64.17
342.128	27.31
342.34	101.03
342.552	98.99
342.764	39.59
342.977	96.94
343.189	39.59
343.401	72.36
343.613	-73.04
343.826	6.83
344.038	31.4
344.25	105.13
344.462	109.23
344.674	6.83
344.886	25.26
345.099	139.94
345.311	90.79
345.523	58.03
345.735	-44.37
345.947	105.13
346.159	92.84
346.371	55.98
346.583	82.6
346.795	146.09
347.007	0.68
347.219	33.45
347.431	15.02
347.643	101.03
347.855	33.45
348.067	33.45
348.279	2.73
348.491	84.65
348.703	105.13
348.915	123.56
349.127	58.03
349.339	45.74
349.551	-60.76
349.763	10.92
349.975	84.65
350.187	23.21
350.399	55.98
350.61	98.99
350.822	-23.89
351.034	6.83
351.246	27.31
351.458	72.36
351.669	76.46
351.881	150.18
352.093	115.37
352.305	6.83
352.517	25.26
352.728	19.11
352.94	66.22
353.152	47.79
353.363	-42.32
353.575	47.79
353.787	133.8
353.999	105.13
354.21	47.79
354.422	27.31
354.633	10.92
354.845	62.12
355.057	64.17
355.268	55.98
355.48	187.05
355.692	31.4
355.903	-15.7
356.115	72.36
356.326	4.78
356.538	113.32
356.749	105.13
356.961	94.89
357.172	33.45
357.384	-1.37
357.595	154.28
357.807	51.88
358.018	47.79
358.23	37.55
358.441	90.79
358.653	74.41
358.864	94.89
359.075	23.21
359.287	39.59
359.498	117.42
359.709	58.03
359.921	25.26
360.132	33.45
360.344	25.26
360.555	131.75
360.766	58.03
360.977	64.17
361.189	119.46
361.4	64.17
361.611	113.32
361.823	115.37
362.034	55.98
362.245	25.26
362.456	-17.75
362.667	19.11
362.879	117.42
363.09	78.51
363.301	47.79
363.512	86.7
363.723	-7.51
363.935	98.99
364.146	98.99
364.357	107.18
364.568	90.79
364.779	19.11
364.99	27.31
365.201	72.36
365.412	117.42
365.623	72.36
365.834	51.88
366.045	39.59
366.256	60.07
366.467	55.98
366.678	12.97
366.889	64.17
367.1	88.75
367.311	115.37
367.522	41.64
367.733	4.78
367.944	64.17
368.155	35.5
368.366	39.59
368.577	113.32
368.788	115.37
368.999	37.55
369.209	74.41
369.42	154.28
369.631	182.95
369.842	62.12
370.053	15.02
370.264	123.56
370.474	60.07
370.685	78.51
370.896	49.83
371.107	82.6
371.317	-9.56
371.528	107.18
371.739	12.97
371.95	6.83
372.16	82.6
372.371	-38.23
372.582	39.59
372.792	35.5
373.003	6.83
373.214	-15.7
373.424	-7.51
373.635	49.83
373.846	113.32
374.056	62.12
374.267	98.99
374.477	88.75
374.688	64.17
374.898	33.45
375.109	146.09
375.319	125.61
375.53	70.31
375.74	80.55
375.951	80.55
376.161	160.42
376.372	80.55
376.582	84.65
376.793	19.11
377.003	80.55
377.214	17.07
377.424	68.27
377.635	15.02
377.845	72.36
378.055	109.23
378.266	-15.7
378.476	55.98
378.686	84.65
378.897	25.26
379.107	72.36
379.317	66.22
379.528	12.97
379.738	51.88
379.948	49.83
380.158	96.94
380.369	113.32
380.579	137.9
380.789	-7.51
380.999	80.55
381.21	60.07
381.42	66.22
381.63	23.21
381.84	72.36
382.05	78.51
382.261	72.36
382.471	162.47
382.681	148.14
382.891	49.83
383.101	156.33
383.311	-30.04
383.521	31.4
383.731	64.17
383.941	64.17
384.151	-1.37
384.361	72.36
384.571	-1.37
384.781	88.75
384.991	166.57
385.201	156.33
385.411	4.78
385.621	6.83
385.831	107.18
386.041	74.41
386.251	74.41
386.461	58.03
386.671	117.42
386.881	47.79
387.091	113.32
387.301	41.64
387.511	23.21
387.72	88.75
387.93	35.5
388.14	21.16
388.35	35.5
388.56	88.75
388.769	146.09
388.979	129.7
389.189	55.98
389.399	33.45
389.609	72.36
389.818	90.79
390.028	45.74
390.238	172.71
390.447	55.98
390.657	88.75
390.867	84.65
391.076	2.73
391.286	105.13
391.496	76.46
391.705	23.21
391.915	78.51
392.125	129.7
392.334	80.55
392.544	66.22
392.753	10.92
392.963	121.51
393.172	176.81
393.382	-19.8
393.591	164.52
393.801	19.11
394.01	117.42
394.22	101.03
394.429	88.75
394.639	90.79
394.848	150.18
395.058	98.99
395.267	176.81
395.477	105.13
395.686	146.09
395.895	176.81
396.105	217.77
396.314	182.95
396.524	94.89
396.733	129.7
396.942	203.43
397.152	137.9
397.361	178.86
397.57	133.8
397.78	60.07
397.989	101.03
398.198	187.05
398.407	117.42
398.617	96.94
398.826	94.89
399.035	129.7
399.244	172.71
399.453	101.03
399.663	170.66
399.872	172.71
400.081	27.31
400.29	174.76
400.499	101.03
400.708	137.9
400.917	98.99
401.127	123.56
401.336	72.36
401.545	228.01
401.754	74.41
401.963	252.58
402.172	96.94
402.381	64.17
402.59	121.51
402.799	187.05
403.008	68.27
403.217	137.9
403.426	133.8
403.635	139.94
403.844	201.38
404.053	150.18
404.262	203.43
404.471	203.43
404.68	219.82
404.888	148.14
405.097	215.72
405.306	164.52
405.515	195.24
405.724	240.3
405.933	221.86
406.142	195.24
406.35	264.87
406.559	205.48
406.768	223.91
406.977	277.16
407.185	275.11
407.394	293.54
407.603	246.44
407.812	240.3
408.02	361.13
408.229	350.89
408.438	285.35
408.646	277.16
408.855	281.25
409.064	336.55
409.272	318.12
409.481	387.75
409.69	387.75
409.898	350.89
410.107	375.46
410.315	457.38
410.524	326.31
410.733	424.61
410.941	395.94
411.15	510.63
411.358	504.48
411.567	457.38
411.775	481.96
411.984	539.3
412.192	565.92
412.401	543.39
412.609	565.92
412.818	664.22
413.026	592.55
413.234	639.65
413.443	617.12
413.651	680.61
413.86	682.66
414.068	768.67
414.276	785.05
414.485	815.77
414.693	860.83
414.901	875.17
415.11	973.47
415.318	891.55
415.526	916.12
415.734	909.98
415.943	977.56
416.151	981.66
416.359	1014.43
416.567	1186.46
416.776	1055.39
416.984	1143.45
417.192	1251.99
417.4	1196.7
417.608	1362.58
417.817	1239.7
418.025	1323.67
418.233	1551
418.441	1485.46
418.649	1501.84
418.857	1551
419.065	1706.64
419.273	1610.39
419.481	1841.81
419.689	1798.8
419.897	1843.85
420.105	1995.4
420.313	2075.27
420.521	2005.64
420.729	2149
420.937	2155.15
421.145	2192.01
421.353	2255.5
421.561	2384.52
421.769	2579.08
421.977	2542.21
422.185	2521.73
422.393	2767.49
422.601	2882.17
422.809	2845.31
423.017	2912.89
423.224	3046.01
423.432	3293.82
423.64	3172.99
423.848	3492.47
424.056	3431.03
424.263	3588.72
424.471	3629.68
424.679	3644.02
424.887	3914.35
425.094	4031.09
425.302	4057.71
425.51	4096.62
425.718	4303.46
425.925	4450.92
426.133	4358.76
426.341	4708.96
426.548	4833.89
426.756	5081.69
426.964	4964.96
427.171	5407.32
427.379	5444.18
427.586	5413.46
427.794	5585.49
428.001	5886.54
428.209	6345.29
428.417	6052.43
428.624	6660.68
428.832	6691.4
429.039	6478.41
429.247	6523.46
429.454	7158.33
429.662	7668.28
429.869	7113.28
430.076	7682.61
430.284	7414.33
430.491	7739.96
430.699	8061.49
430.906	8153.65
431.114	8190.51
431.321	8743.46
431.528	8587.82
431.736	9384.48
431.943	9706.01
432.15	9413.15
432.358	9407
432.565	10082.83
432.772	9953.81
432.979	10506.76
433.187	10738.18
433.394	10721.8
433.601	11532.79
433.808	11442.68
434.016	11555.32
434.223	11979.25
434.43	12495.34
434.637	12499.44
434.844	12820.97
435.052	13326.82
435.259	13220.32
435.466	13359.58
435.673	13173.22
435.88	14055.89
436.087	15038.92
436.294	14686.67
436.501	14350.8
436.708	14651.85
436.915	15251.91
437.122	16040.37
437.329	16044.47
437.537	16335.28
437.743	16507.31
437.95	16736.68
438.157	17465.76
438.364	17996.18
438.571	17766.81
438.778	18198.93
438.985	19442.05
439.192	18938.25
439.399	19571.07
439.606	18928.01
439.813	20156.79
440.02	21320.04
440.227	20967.79
440.433	20769.13
440.64	21657.95
440.847	21578.08
441.054	21891.42
441.261	23038.28
441.467	22856.01
441.674	23335.24
441.881	24179
442.088	24279.35
442.294	23951.68
442.501	24670.51
442.708	25063.72
442.914	25831.71
443.121	26763.54
443.328	26126.62
443.534	27918.59
443.741	27269.39
443.948	26982.67
444.154	28958.96
444.361	28528.89
444.568	29104.37
444.774	29079.79
444.981	29135.09
445.187	30087.39
445.394	31590.6
445.6	31033.55
445.807	34230.43
446.013	32557.24
446.22	33151.15
446.426	34586.78
446.633	34547.87
446.839	35504.27
447.046	34146.47
447.252	36380.8
447.459	36145.28
447.665	36298.88
447.871	37908.58
448.078	39174.23
448.284	37722.22
448.491	38598.75
448.697	39907.4
448.903	40931.39
449.11	40529.98
449.316	40097.86
449.522	40659.01
449.728	41740.33
449.935	42428.45
450.141	42493.99
450.347	42848.28
450.553	41797.68
450.76	42442.79
450.966	43517.97
451.172	43069.47
451.378	44251.14
451.584	43071.51
451.791	44281.86
451.997	44146.7
452.203	44900.35
452.409	44900.35
452.615	44697.6
452.821	43139.1
453.027	42317.86
453.233	44697.6
453.44	42827.81
453.646	43008.03
453.852	43587.6
454.058	44838.91
454.264	43200.54
454.47	43925.52
454.676	43118.62
454.882	44294.15
455.088	40779.84
455.294	40980.54
455.5	41984.04
455.705	42063.91
455.911	40695.87
456.117	39981.13
456.323	39690.32
456.529	37529.71
456.735	38764.64
456.941	38070.37
457.147	37382.26
457.352	35866.76
457.558	35598.48
457.764	36044.93
457.97	35295.38
458.176	34146.47
458.381	34162.85
458.587	32692.41
458.793	32508.09
458.999	30777.56
459.204	33005.75
459.41	32157.89
459.616	30032.1
459.821	30009.57
460.027	29954.27
460.233	29419.75
460.438	27920.64
460.644	28416.25
460.85	27111.69
461.055	26247.45
461.261	26521.88
461.466	24197.43
461.672	23800.13
461.878	24942.89
462.083	23982.4
462.289	23273.8
462.494	23026
462.7	21877.08
462.905	21266.79
463.111	21778.78
463.316	22114.65
463.522	21807.45
463.727	21676.38
463.932	21959
464.138	21287.27
464.343	21631.33
464.549	20769.13
464.754	21629.28
464.959	21395.81
465.165	21219.69
465.37	20306.29
465.575	19693.95
465.781	20609.39
465.986	20574.58
466.191	19562.88
466.397	19550.59
466.602	18522.51
466.807	19364.23
