Data from USB4F104151__44__14-29-52-634.txt Node

Date: Thu Mar 13 14:29:52 EDT 2025
User: louis
Spectrometer: USB4F10415
Trigger mode: 4
Integration Time (sec): 2.500000E-2
Scans to average: 1
Electric dark correction enabled: true
Nonlinearity correction enabled: false
Boxcar width: 0
XAxis mode: Wavelengths
Number of Pixels in Spectrum: 3648
>>>>>Begin Spectral Data<<<<<
178.204	-142.5
178.424	-142.5
178.644	-142.5
178.864	-154.79
179.084	-197.8
179.304	21.33
179.524	27.48
179.744	41.81
179.964	11.09
180.184	-21.67
180.404	-1.19
180.624	4.95
180.844	-48.3
181.064	-70.83
181.283	-5.29
181.503	29.52
181.723	11.09
181.943	-68.78
182.163	13.14
182.383	-56.49
182.602	11.09
182.822	-5.29
183.042	7
183.262	37.72
183.482	-19.63
183.701	25.43
183.921	9.05
184.141	-46.25
184.361	-33.96
184.58	-17.58
184.8	-72.87
185.02	-13.48
185.239	43.86
185.459	-74.92
185.679	-5.29
185.898	29.52
186.118	80.72
186.338	-54.44
186.557	-3.24
186.777	-36.01
186.997	-17.58
187.216	-21.67
187.436	52.05
187.655	13.14
187.875	-9.39
188.095	-38.06
188.314	2.9
188.534	43.86
188.753	11.09
188.973	64.34
189.192	-50.35
189.412	-50.35
189.631	35.67
189.851	-5.29
190.07	43.86
190.29	-25.77
190.509	11.09
190.729	19.29
190.948	50
191.168	146.26
191.387	23.38
191.607	76.63
191.826	19.29
192.045	95.06
192.265	13.14
192.484	27.48
192.704	27.48
192.923	-29.87
193.142	86.87
193.362	-19.63
193.581	21.33
193.8	29.52
194.02	-9.39
194.239	29.52
194.458	62.29
194.678	70.48
194.897	-17.58
195.116	45.91
195.335	35.67
195.555	76.63
195.774	27.48
195.993	-99.5
196.212	-1.19
196.432	-25.77
196.651	23.38
196.87	0.85
197.089	125.78
197.308	-44.2
197.528	-5.29
197.747	-29.87
197.966	-21.67
198.185	70.48
198.404	-5.29
198.623	-52.39
198.842	43.86
199.062	80.72
199.281	84.82
199.5	-11.43
199.719	35.67
199.938	70.48
200.157	101.2
200.376	88.92
200.595	-11.43
200.814	60.24
201.033	-56.49
201.252	17.24
201.471	70.48
201.69	43.86
201.909	25.43
202.128	107.35
202.347	9.05
202.566	-29.87
202.785	-42.15
203.004	-27.82
203.223	76.63
203.442	70.48
203.661	-62.63
203.879	-3.24
204.098	62.29
204.317	-21.67
204.536	-11.43
204.755	31.57
204.974	74.58
205.193	39.76
205.411	76.63
205.63	35.67
205.849	43.86
206.068	-25.77
206.287	43.86
206.505	39.76
206.724	39.76
206.943	-66.73
207.162	19.29
207.381	70.48
207.599	-33.96
207.818	13.14
208.037	-19.63
208.255	11.09
208.474	-5.29
208.693	52.05
208.911	-38.06
209.13	62.29
209.349	35.67
209.567	11.09
209.786	23.38
210.005	39.76
210.223	21.33
210.442	-89.26
210.661	93.01
210.879	-60.59
211.098	31.57
211.316	-21.67
211.535	-62.63
211.753	-11.43
211.972	76.63
212.191	-9.39
212.409	19.29
212.628	-9.39
212.846	-66.73
213.065	15.19
213.283	80.72
213.502	-36.01
213.72	7
213.938	93.01
214.157	21.33
214.375	19.29
214.594	-58.54
214.812	47.96
215.031	-29.87
215.249	68.44
215.467	35.67
215.686	-5.29
215.904	113.49
216.122	-21.67
216.341	9.05
216.559	-3.24
216.778	7
216.996	58.2
217.214	-1.19
217.432	-107.69
217.651	-27.82
217.869	11.09
218.087	27.48
218.306	29.52
218.524	-21.67
218.742	-79.02
218.96	15.19
219.179	-25.77
219.397	27.48
219.615	11.09
219.833	7
220.051	-15.53
220.27	17.24
220.488	-11.43
220.706	27.48
220.924	-21.67
221.142	84.82
221.36	-29.87
221.578	31.57
221.796	19.29
222.015	-38.06
222.233	74.58
222.451	27.48
222.669	-38.06
222.887	-5.29
223.105	2.9
223.323	-58.54
223.541	-13.48
223.759	52.05
223.977	-21.67
224.195	72.53
224.413	27.48
224.631	-3.24
224.849	9.05
225.067	58.2
225.285	-31.91
225.503	-5.29
225.721	-7.34
225.939	-3.24
226.157	84.82
226.375	148.31
226.592	-54.44
226.81	-58.54
227.028	31.57
227.246	31.57
227.464	2.9
227.682	19.29
227.9	39.76
228.117	-13.48
228.335	15.19
228.553	-7.34
228.771	39.76
228.989	21.33
229.206	41.81
229.424	-62.63
229.642	-11.43
229.86	-7.34
230.077	13.14
230.295	41.81
230.513	-38.06
230.731	-5.29
230.948	45.91
231.166	39.76
231.384	27.48
231.601	52.05
231.819	-13.48
232.037	-62.63
232.254	7
232.472	-1.19
232.689	-52.39
232.907	117.59
233.125	52.05
233.342	-11.43
233.56	17.24
233.777	-38.06
233.995	-19.63
234.213	7
234.43	27.48
234.648	-44.2
234.865	-36.01
235.083	33.62
235.3	54.1
235.518	-29.87
235.735	84.82
235.953	76.63
236.17	-25.77
236.388	-29.87
236.605	-17.58
236.822	4.95
237.04	9.05
237.257	-54.44
237.475	43.86
237.692	43.86
237.909	35.67
238.127	50
238.344	-25.77
238.562	101.2
238.779	-50.35
238.996	25.43
239.214	23.38
239.431	-25.77
239.648	-21.67
239.865	54.1
240.083	11.09
240.3	37.72
240.517	-38.06
240.735	23.38
240.952	58.2
241.169	7
241.386	39.76
241.603	21.33
241.821	-46.25
242.038	43.86
242.255	60.24
242.472	-85.16
242.689	-33.96
242.907	19.29
243.124	74.58
243.341	-56.49
243.558	29.52
243.775	35.67
243.992	-66.73
244.209	-29.87
244.426	74.58
244.643	-58.54
244.86	13.14
245.078	43.86
245.295	93.01
245.512	13.14
245.729	-9.39
245.946	11.09
246.163	19.29
246.38	43.86
246.597	60.24
246.814	25.43
247.031	-33.96
247.248	68.44
247.464	0.85
247.681	35.67
247.898	-60.59
248.115	84.82
248.332	15.19
248.549	60.24
248.766	76.63
248.983	21.33
249.2	-11.43
249.417	56.15
249.633	-17.58
249.85	-11.43
250.067	-5.29
250.284	-3.24
250.501	52.05
250.717	125.78
250.934	-17.58
251.151	68.44
251.368	7
251.585	35.67
251.801	-27.82
252.018	2.9
252.235	-17.58
252.451	-21.67
252.668	31.57
252.885	103.25
253.102	43.86
253.318	-27.82
253.535	11.09
253.752	13.14
253.968	35.67
254.185	19.29
254.401	-17.58
254.618	78.68
254.835	-5.29
255.051	35.67
255.268	4.95
255.484	60.24
255.701	-9.39
255.917	-5.29
256.134	2.9
256.351	64.34
256.567	15.19
256.784	27.48
257	-13.48
257.217	-46.25
257.433	37.72
257.65	-17.58
257.866	52.05
258.082	7
258.299	-31.91
258.515	-11.43
258.732	35.67
258.948	4.95
259.165	15.19
259.381	84.82
259.597	52.05
259.814	13.14
260.03	-5.29
260.246	19.29
260.463	35.67
260.679	88.92
260.895	64.34
261.112	-19.63
261.328	-5.29
261.544	-5.29
261.761	56.15
261.977	41.81
262.193	27.48
262.409	56.15
262.626	35.67
262.842	35.67
263.058	33.62
263.274	93.01
263.49	43.86
263.707	27.48
263.923	56.15
264.139	-46.25
264.355	-11.43
264.571	52.05
264.787	-21.67
265.004	86.87
265.22	2.9
265.436	-5.29
265.652	7
265.868	43.86
266.084	-27.82
266.3	37.72
266.516	11.09
266.732	37.72
266.948	35.67
267.164	11.09
267.38	-25.77
267.596	-21.67
267.812	68.44
268.028	27.48
268.244	27.48
268.46	11.09
268.676	43.86
268.892	11.09
269.108	-5.29
269.324	-15.53
269.54	4.95
269.756	11.09
269.972	7
270.188	-79.02
270.403	-13.48
270.619	39.76
270.835	25.43
271.051	-7.34
271.267	-68.78
271.483	-3.24
271.698	-1.19
271.914	29.52
272.13	45.91
272.346	-52.39
272.562	60.24
272.777	103.25
272.993	9.05
273.209	-19.63
273.425	-19.63
273.64	-25.77
273.856	-13.48
274.072	9.05
274.287	27.48
274.503	37.72
274.719	-3.24
274.934	2.9
275.15	-54.44
275.366	-38.06
275.581	70.48
275.797	31.57
276.012	54.1
276.228	56.15
276.444	74.58
276.659	27.48
276.875	-54.44
277.09	72.53
277.306	-21.67
277.521	-17.58
277.737	29.52
277.952	4.95
278.168	27.48
278.383	-21.67
278.599	54.1
278.814	-62.63
279.03	-5.29
279.245	19.29
279.461	31.57
279.676	2.9
279.892	-38.06
280.107	-17.58
280.322	-17.58
280.538	-19.63
280.753	76.63
280.969	76.63
281.184	19.29
281.399	133.97
281.615	35.67
281.83	-38.06
282.045	-48.3
282.26	-33.96
282.476	35.67
282.691	54.1
282.906	-21.67
283.122	27.48
283.337	-31.91
283.552	78.68
283.767	-56.49
283.983	27.48
284.198	-17.58
284.413	54.1
284.628	-29.87
284.843	54.1
285.058	19.29
285.274	-5.29
285.489	-54.44
285.704	58.2
285.919	-25.77
286.134	-46.25
286.349	13.14
286.564	2.9
286.779	45.91
286.995	39.76
287.21	-23.72
287.425	60.24
287.64	27.48
287.855	-21.67
288.07	-9.39
288.285	11.09
288.5	7
288.715	37.72
288.93	-11.43
289.145	11.09
289.36	-25.77
289.575	13.14
289.79	23.38
290.004	9.05
290.219	-9.39
290.434	21.33
290.649	-44.2
290.864	-19.63
291.079	-11.43
291.294	54.1
291.509	33.62
291.724	-33.96
291.938	-25.77
292.153	64.34
292.368	15.19
292.583	54.1
292.798	43.86
293.012	-52.39
293.227	11.09
293.442	27.48
293.657	60.24
293.871	39.76
294.086	43.86
294.301	-25.77
294.516	39.76
294.73	-33.96
294.945	-25.77
295.16	-46.25
295.374	7
295.589	19.29
295.804	105.3
296.018	47.96
296.233	43.86
296.447	84.82
296.662	-21.67
296.877	45.91
297.091	56.15
297.306	7
297.52	-1.19
297.735	11.09
297.949	-5.29
298.164	-40.11
298.378	9.05
298.593	-54.44
298.807	41.81
299.022	25.43
299.236	109.4
299.451	11.09
299.665	-29.87
299.88	0.85
300.094	31.57
300.309	2.9
300.523	33.62
300.737	-27.82
300.952	43.86
301.166	11.09
301.381	-11.43
301.595	-9.39
301.809	43.86
302.024	39.76
302.238	27.48
302.452	70.48
302.667	45.91
302.881	125.78
303.095	76.63
303.309	78.68
303.524	-15.53
303.738	-1.19
303.952	7
304.166	-21.67
304.381	-33.96
304.595	19.29
304.809	-38.06
305.023	-3.24
305.237	-13.48
305.452	33.62
305.666	-3.24
305.88	19.29
306.094	-29.87
306.308	-21.67
306.522	7
306.736	21.33
306.95	25.43
307.164	19.29
307.379	-42.15
307.593	37.72
307.807	15.19
308.021	23.38
308.235	2.9
308.449	7
308.663	-29.87
308.877	58.2
309.091	11.09
309.305	37.72
309.519	-21.67
309.733	17.24
309.947	-19.63
310.161	78.68
310.374	82.77
310.588	43.86
310.802	-13.48
311.016	-13.48
311.23	47.96
311.444	-42.15
311.658	31.57
311.872	15.19
312.085	84.82
312.299	27.48
312.513	64.34
312.727	13.14
312.941	-15.53
313.154	-46.25
313.368	-81.07
313.582	19.29
313.796	7
314.009	-36.01
314.223	84.82
314.437	62.29
314.651	-23.72
314.864	43.86
315.078	19.29
315.292	-9.39
315.505	-95.4
315.719	9.05
315.933	13.14
316.146	-9.39
316.36	78.68
316.573	127.83
316.787	47.96
317.001	43.86
317.214	35.67
317.428	52.05
317.641	15.19
317.855	7
318.068	21.33
318.282	95.06
318.495	76.63
318.709	52.05
318.922	-62.63
319.136	109.4
319.349	29.52
319.563	-5.29
319.776	21.33
319.99	52.05
320.203	4.95
320.417	52.05
320.63	2.9
320.843	80.72
321.057	-5.29
321.27	-21.67
321.483	54.1
321.697	19.29
321.91	-13.48
322.124	58.2
322.337	50
322.55	-38.06
322.763	-13.48
322.977	7
323.19	-21.67
323.403	-21.67
323.617	70.48
323.83	-5.29
324.043	64.34
324.256	-29.87
324.469	-60.59
324.683	78.68
324.896	115.54
325.109	19.29
325.322	-5.29
325.535	37.72
325.748	31.57
325.962	-33.96
326.175	-13.48
326.388	2.9
326.601	0.85
326.814	25.43
327.027	72.53
327.24	0.85
327.453	-54.44
327.666	-3.24
327.879	80.72
328.092	45.91
328.305	25.43
328.518	60.24
328.731	23.38
328.944	45.91
329.157	-36.01
329.37	2.9
329.583	-5.29
329.796	52.05
330.009	52.05
330.222	-27.82
330.435	88.92
330.648	80.72
330.861	27.48
331.073	4.95
331.286	35.67
331.499	45.91
331.712	-19.63
331.925	19.29
332.138	-11.43
332.35	23.38
332.563	-42.15
332.776	109.4
332.989	-42.15
333.202	-38.06
333.414	-19.63
333.627	15.19
333.84	-31.91
334.053	29.52
334.265	2.9
334.478	-9.39
334.691	43.86
334.903	4.95
335.116	0.85
335.329	37.72
335.541	33.62
335.754	29.52
335.966	-38.06
336.179	39.76
336.392	-25.77
336.604	7
336.817	64.34
337.029	13.14
337.242	11.09
337.454	35.67
337.667	-21.67
337.88	35.67
338.092	37.72
338.305	41.81
338.517	-72.87
338.729	37.72
338.942	68.44
339.154	21.33
339.367	-1.19
339.579	113.49
339.792	45.91
340.004	-38.06
340.217	13.14
340.429	76.63
340.641	-60.59
340.854	4.95
341.066	56.15
341.278	82.77
341.491	60.24
341.703	-3.24
341.915	-5.29
342.128	11.09
342.34	66.39
342.552	11.09
342.764	62.29
342.977	-11.43
343.189	54.1
343.401	58.2
343.613	-21.67
343.826	19.29
344.038	0.85
344.25	43.86
344.462	17.24
344.674	72.53
344.886	37.72
345.099	-9.39
345.311	27.48
345.523	64.34
345.735	-1.19
345.947	54.1
346.159	52.05
346.371	37.72
346.583	50
346.795	93.01
347.007	0.85
347.219	45.91
347.431	62.29
347.643	27.48
347.855	-21.67
348.067	72.53
348.279	-7.34
348.491	76.63
348.703	70.48
348.915	-5.29
349.127	-38.06
349.339	17.24
349.551	9.05
349.763	47.96
349.975	-11.43
350.187	-29.87
350.399	19.29
350.61	-5.29
350.822	45.91
351.034	43.86
351.246	47.96
351.458	62.29
351.669	11.09
351.881	45.91
352.093	56.15
352.305	11.09
352.517	17.24
352.728	84.82
352.94	-9.39
353.152	-31.91
353.363	19.29
353.575	-3.24
353.787	-11.43
353.999	-21.67
354.21	80.72
354.422	60.24
354.633	86.87
354.845	7
355.057	78.68
355.268	-1.19
355.48	-17.58
355.692	7
355.903	-48.3
356.115	-15.53
356.326	-1.19
356.538	78.68
356.749	74.58
356.961	68.44
357.172	78.68
357.384	-3.24
357.595	74.58
357.807	52.05
358.018	-13.48
358.23	23.38
358.441	109.4
358.653	37.72
358.864	11.09
359.075	52.05
359.287	27.48
359.498	2.9
359.709	56.15
359.921	-17.58
360.132	86.87
360.344	47.96
360.555	9.05
360.766	90.96
360.977	43.86
361.189	43.86
361.4	-25.77
361.611	47.96
361.823	45.91
362.034	-33.96
362.245	25.43
362.456	29.52
362.667	70.48
362.879	-17.58
363.09	27.48
363.301	-19.63
363.512	-13.48
363.723	45.91
363.935	2.9
364.146	105.3
364.357	7
364.568	27.48
364.779	-5.29
364.99	111.44
365.201	-1.19
365.412	58.2
365.623	43.86
365.834	56.15
366.045	-9.39
366.256	62.29
366.467	15.19
366.678	4.95
366.889	11.09
367.1	13.14
367.311	39.76
367.522	-5.29
367.733	-21.67
367.944	45.91
368.155	52.05
368.366	-3.24
368.577	4.95
368.788	52.05
368.999	-76.97
369.209	-25.77
369.42	111.44
369.631	121.68
369.842	86.87
370.053	52.05
370.264	84.82
370.474	60.24
370.685	-25.77
370.896	-19.63
371.107	70.48
371.317	-21.67
371.528	2.9
371.739	101.2
371.95	37.72
372.16	54.1
372.371	23.38
372.582	54.1
372.792	-1.19
373.003	47.96
373.214	52.05
373.424	2.9
373.635	29.52
373.846	47.96
374.056	93.01
374.267	-38.06
374.477	45.91
374.688	19.29
374.898	66.39
375.109	-11.43
375.319	41.81
375.53	35.67
375.74	11.09
375.951	4.95
376.161	-13.48
376.372	76.63
376.582	-42.15
376.793	68.44
377.003	0.85
377.214	45.91
377.424	39.76
377.635	72.53
377.845	-1.19
378.055	105.3
378.266	82.77
378.476	52.05
378.686	80.72
378.897	11.09
379.107	60.24
379.317	68.44
379.528	33.62
379.738	93.01
379.948	23.38
380.158	52.05
380.369	60.24
380.579	0.85
380.789	45.91
380.999	101.2
381.21	29.52
381.42	97.11
381.63	39.76
381.84	56.15
382.05	76.63
382.261	54.1
382.471	90.96
382.681	21.33
382.891	19.29
383.101	2.9
383.311	23.38
383.521	-7.34
383.731	70.48
383.941	52.05
384.151	11.09
384.361	86.87
384.571	15.19
384.781	60.24
384.991	109.4
385.201	103.25
385.411	80.72
385.621	93.01
385.831	64.34
386.041	62.29
386.251	101.2
386.461	60.24
386.671	37.72
386.881	39.76
387.091	58.2
387.301	21.33
387.511	-36.01
387.72	50
387.93	50
388.14	2.9
388.35	13.14
388.56	39.76
388.769	52.05
388.979	47.96
389.189	4.95
389.399	101.2
389.609	21.33
389.818	54.1
390.028	80.72
390.238	56.15
390.447	19.29
390.657	43.86
390.867	37.72
391.076	-5.29
391.286	66.39
391.496	45.91
391.705	2.9
391.915	101.2
392.125	76.63
392.334	43.86
392.544	140.12
392.753	37.72
392.963	-3.24
393.172	133.97
393.382	27.48
393.591	76.63
393.801	97.11
394.01	133.97
394.22	88.92
394.429	107.35
394.639	47.96
394.848	64.34
395.058	78.68
395.267	58.2
395.477	80.72
395.686	86.87
395.895	68.44
396.105	183.12
396.314	70.48
396.524	72.53
396.733	60.24
396.942	84.82
397.152	152.4
397.361	117.59
397.57	43.86
397.78	170.83
397.989	19.29
398.198	76.63
398.407	125.78
398.617	-3.24
398.826	66.39
399.035	129.88
399.244	107.35
399.453	95.06
399.663	88.92
399.872	72.53
400.081	9.05
400.29	109.4
400.499	144.21
400.708	125.78
400.917	68.44
401.127	27.48
401.336	52.05
401.545	150.36
401.754	181.07
401.963	195.41
402.172	76.63
402.381	127.83
402.59	209.75
402.799	84.82
403.008	105.3
403.217	185.17
403.426	156.5
403.635	56.15
403.844	158.55
404.053	111.44
404.262	133.97
404.471	162.64
404.68	109.4
404.888	152.4
405.097	170.83
405.306	93.01
405.515	183.12
405.724	199.51
405.933	109.4
406.142	105.3
406.35	234.32
406.559	146.26
406.768	203.6
406.977	275.28
407.185	164.69
407.394	222.03
407.603	138.07
407.812	252.75
408.02	222.03
408.229	193.36
408.438	244.56
408.646	203.6
408.855	232.27
409.064	256.85
409.272	236.37
409.481	289.62
409.69	224.08
409.898	289.62
410.107	396.11
410.315	324.43
410.524	330.58
410.733	340.82
410.941	314.19
411.15	332.62
411.358	365.39
411.567	461.65
411.775	430.93
411.984	365.39
412.192	439.12
412.401	414.54
412.609	500.56
412.818	486.22
413.026	449.36
413.234	449.36
413.443	502.61
413.651	609.1
413.86	516.94
414.068	605
414.276	707.4
414.485	633.68
414.693	662.35
414.901	725.83
415.11	793.42
415.318	666.44
415.526	744.27
415.734	715.59
415.943	901.96
416.151	844.62
416.359	863.05
416.567	832.33
416.776	963.4
416.984	1004.36
417.192	971.59
417.4	1088.32
417.608	963.4
417.817	1030.98
418.025	1168.2
418.233	1108.8
418.441	1198.92
418.649	1207.11
418.857	1276.74
419.065	1362.75
419.273	1305.41
419.481	1368.9
419.689	1465.15
419.897	1573.69
420.105	1565.5
420.313	1485.63
420.521	1641.28
420.729	1612.6
420.937	1788.73
421.145	1815.35
421.353	1862.46
421.561	1952.57
421.769	1919.8
421.977	2014.01
422.185	2067.25
422.393	2153.27
422.601	2333.49
422.809	2399.02
423.017	2300.72
423.224	2501.42
423.432	2528.05
423.64	2579.25
423.848	2751.28
424.056	2552.62
424.263	2800.43
424.471	2960.17
424.679	3001.13
424.887	3158.82
425.094	3199.78
425.302	3275.56
425.51	3371.81
425.718	3402.53
425.925	3500.83
426.133	3582.75
426.341	3861.27
426.548	3961.62
426.756	3906.33
426.964	3998.49
427.171	4256.53
427.379	4512.53
427.586	4369.17
427.794	4565.78
428.001	4739.85
428.209	4946.7
428.417	4860.68
428.624	5368.58
428.832	5212.93
429.039	5108.49
429.247	5272.32
429.454	5698.3
429.662	5991.16
429.869	5643.01
430.076	6144.76
430.284	5925.63
430.491	6273.78
430.699	6458.1
430.906	6404.85
431.114	6619.89
431.321	6720.24
431.528	7154.41
431.736	7484.13
431.943	7713.5
432.15	7621.35
432.358	7619.3
432.565	8053.47
432.772	8018.65
432.979	8395.48
433.187	8514.26
433.394	8696.53
433.601	9161.42
433.808	9327.3
434.016	9169.61
434.223	9652.93
434.43	10123.96
434.637	9810.62
434.844	10644.15
435.052	10482.36
435.259	10513.08
435.466	10771.12
435.673	10373.82
435.88	11291.31
436.087	11823.78
436.294	11850.4
436.501	11610.79
436.708	11932.32
436.915	12405.4
437.122	12618.39
437.329	12688.02
437.537	13083.28
437.743	13200.01
437.95	12982.93
438.157	13943.42
438.364	14273.15
438.571	14414.46
438.778	14336.63
438.985	15686.25
439.192	15067.76
439.399	15542.89
439.606	15170.16
439.813	16147.04
440.02	16931.41
440.227	16394.84
440.433	16378.46
440.64	16925.27
440.847	17277.52
441.054	17451.6
441.261	18557.5
441.467	18240.06
441.674	18850.36
441.881	19249.71
442.088	19202.61
442.294	19061.3
442.501	19544.62
442.708	19913.25
442.914	20726.3
443.121	21703.18
443.328	21070.36
443.534	22354.43
443.741	21948.93
443.948	21783.05
444.154	23435.76
444.361	22809.08
444.568	23267.83
444.774	23083.51
444.981	23536.11
445.187	24273.38
445.394	25133.53
445.6	24699.36
445.807	27273.65
446.013	26001.86
446.22	26524.1
446.426	27195.83
446.633	27619.76
446.839	28680.61
447.046	27335.09
447.252	29045.15
447.459	28946.84
447.665	28928.41
447.871	30216.58
448.078	31408.5
448.284	29727.12
448.491	30663.04
448.697	31795.57
448.903	32264.55
449.11	32344.42
449.316	31887.73
449.522	32569.7
449.728	33386.84
449.935	33534.29
450.141	33378.65
450.347	34441.54
450.553	33309.02
450.76	33694.04
450.966	34808.13
451.172	34517.32
451.378	35363.13
451.584	34242.89
451.791	35426.62
451.997	34982.21
452.203	35954.99
452.409	35903.79
452.615	35451.19
452.821	34392.39
453.027	33888.59
453.233	35524.92
453.44	34281.8
453.646	34695.49
453.852	34404.68
454.058	35256.64
454.264	34351.43
454.47	35010.88
454.676	33982.8
454.882	35389.75
455.088	31928.69
455.294	32506.21
455.5	33517.91
455.705	33435.99
455.911	32194.92
456.117	31478.13
456.323	30927.23
456.529	29247.9
456.735	30235.02
456.941	29850
457.147	29782.41
457.352	28494.24
457.558	28002.73
457.764	28498.34
457.97	27531.7
458.176	26921.4
458.381	27015.61
458.587	25741.77
458.793	25782.73
458.999	24277.47
459.204	26171.85
459.41	25104.85
459.616	23507.44
459.821	23364.08
460.027	23552.49
460.233	23259.63
460.438	21670.41
460.644	22055.43
460.85	20855.32
461.055	20800.02
461.261	20615.71
461.466	19053.11
461.672	18696.76
461.878	19886.63
462.083	18442.81
462.289	18152
462.494	17809.99
462.7	17064.53
462.905	16562.78
463.111	17404.49
463.316	17478.22
463.522	17132.11
463.727	16935.51
463.932	16892.5
464.138	16769.62
464.343	16761.43
464.549	16128.61
464.754	16683.61
464.959	16673.37
465.165	16347.74
465.37	15633
465.575	15168.11
465.781	15960.67
465.986	16079.46
466.191	15381.1
466.397	15016.56
466.602	14443.13
466.807	15020.66
467.012	14879.35
467.218	14834.29
467.423	14690.93
467.628	14682.74
