Data from USB4F104151__310__14-35-05-470.txt Node

Date: Thu Mar 13 14:35:05 EDT 2025
User: louis
Spectrometer: USB4F10415
Trigger mode: 4
Integration Time (sec): 2.500000E-2
Scans to average: 1
Electric dark correction enabled: true
Nonlinearity correction enabled: false
Boxcar width: 0
XAxis mode: Wavelengths
Number of Pixels in Spectrum: 3648
>>>>>Begin Spectral Data<<<<<
178.204	-207.53
178.424	-207.53
178.644	-207.53
178.864	-187.05
179.084	-127.66
179.304	-0.68
179.524	-0.68
179.744	-66.22
179.964	81.24
180.184	27.99
180.404	19.8
180.624	-23.21
180.844	11.61
181.064	-25.26
181.283	-23.21
181.503	-41.64
181.723	40.28
181.943	1.37
182.163	44.37
182.383	40.28
182.602	89.43
182.822	23.89
183.042	91.48
183.262	11.61
183.482	23.89
183.701	25.94
183.921	-19.11
184.141	1.37
184.361	-25.26
184.58	64.85
184.8	13.65
185.02	7.51
185.239	64.85
185.459	-17.07
185.679	-0.68
185.898	-72.36
186.118	11.61
186.338	42.32
186.557	73.04
186.777	15.7
186.997	23.89
187.216	9.56
187.436	44.37
187.655	38.23
187.875	48.47
188.095	-39.59
188.314	81.24
188.534	34.13
188.753	54.61
188.973	99.67
189.192	148.82
189.412	38.23
189.631	19.8
189.851	40.28
190.07	68.95
190.29	15.7
190.509	9.56
190.729	-21.16
190.948	111.96
191.168	191.83
191.387	89.43
191.607	5.46
191.826	56.66
192.045	40.28
192.265	-33.45
192.484	50.52
192.704	52.56
192.923	-21.16
193.142	81.24
193.362	23.89
193.581	116.05
193.8	-41.64
194.02	99.67
194.239	19.8
194.458	44.37
194.678	93.52
194.897	95.57
195.116	38.23
195.335	81.24
195.555	-23.21
195.774	40.28
195.993	5.46
196.212	32.08
196.432	27.99
196.651	-12.97
196.87	23.89
197.089	75.09
197.308	107.86
197.528	42.32
197.747	-23.21
197.966	-8.87
198.185	23.89
198.404	66.9
198.623	-21.16
198.842	-12.97
199.062	132.44
199.281	52.56
199.5	40.28
199.719	77.14
199.938	83.28
200.157	64.85
200.376	107.86
200.595	77.14
200.814	11.61
201.033	-17.07
201.252	83.28
201.471	19.8
201.69	68.95
201.909	97.62
202.128	50.52
202.347	81.24
202.566	81.24
202.785	-15.02
203.004	9.56
203.223	140.63
203.442	75.09
203.661	11.61
203.879	-17.07
204.098	79.19
204.317	-4.78
204.536	99.67
204.755	27.99
204.974	73.04
205.193	25.94
205.411	138.58
205.63	52.56
205.849	-15.02
206.068	-58.03
206.287	40.28
206.505	68.95
206.724	25.94
206.943	19.8
207.162	89.43
207.381	19.8
207.599	81.24
207.818	19.8
208.037	-25.26
208.255	48.47
208.474	48.47
208.693	122.2
208.911	54.61
209.13	-17.07
209.349	68.95
209.567	97.62
209.786	64.85
210.005	-8.87
210.223	23.89
210.442	-41.64
210.661	81.24
210.879	40.28
211.098	38.23
211.316	13.65
211.535	15.7
211.753	38.23
211.972	66.9
212.191	15.7
212.409	32.08
212.628	81.24
212.846	21.84
213.065	56.66
213.283	89.43
213.502	3.41
213.72	-55.98
213.938	101.72
214.157	-23.21
214.375	-15.02
214.594	-17.07
214.812	99.67
215.031	9.56
215.249	54.61
215.467	32.08
215.686	-41.64
215.904	99.67
216.122	50.52
216.341	114
216.559	-6.83
216.778	138.58
216.996	52.56
217.214	32.08
217.432	-0.68
217.651	-0.68
217.869	32.08
218.087	-17.07
218.306	48.47
218.524	52.56
218.742	17.75
218.96	83.28
219.179	89.43
219.397	-8.87
219.615	99.67
219.833	77.14
220.051	17.75
220.27	56.66
220.488	68.95
220.706	48.47
220.924	40.28
221.142	97.62
221.36	23.89
221.578	60.76
221.796	60.76
222.015	38.23
222.233	15.7
222.451	64.85
222.669	48.47
222.887	19.8
223.105	32.08
223.323	-0.68
223.541	122.2
223.759	52.56
223.977	97.62
224.195	144.72
224.413	89.43
224.631	32.08
224.849	-21.16
225.067	-4.78
225.285	64.85
225.503	-41.64
225.721	-0.68
225.939	40.28
226.157	56.66
226.375	99.67
226.592	50.52
226.81	-8.87
227.028	40.28
227.246	50.52
227.464	-10.92
227.682	-8.87
227.9	83.28
228.117	-0.68
228.335	38.23
228.553	-2.73
228.771	-17.07
228.989	1.37
229.206	9.56
229.424	7.51
229.642	25.94
229.86	15.7
230.077	85.33
230.295	54.61
230.513	140.63
230.731	91.48
230.948	-23.21
231.166	9.56
231.384	91.48
231.601	-84.65
231.819	97.62
232.037	40.28
232.254	85.33
232.472	-37.55
232.689	40.28
232.907	48.47
233.125	1.37
233.342	-4.78
233.56	-41.64
233.777	9.56
233.995	64.85
234.213	89.43
234.43	-15.02
234.648	50.52
234.865	36.18
235.083	34.13
235.3	58.71
235.518	48.47
235.735	85.33
235.953	77.14
236.17	83.28
236.388	17.75
236.605	91.48
236.822	23.89
237.04	146.77
237.257	91.48
237.475	-25.26
237.692	66.9
237.909	42.32
238.127	15.7
238.344	13.65
238.562	75.09
238.779	19.8
238.996	30.04
239.214	54.61
239.431	7.51
239.648	-6.83
239.865	124.24
240.083	77.14
240.3	25.94
240.517	-33.45
240.735	3.41
240.952	5.46
241.169	114
241.386	17.75
241.603	42.32
241.821	-15.02
242.038	118.1
242.255	48.47
242.472	-72.36
242.689	101.72
242.907	-4.78
243.124	83.28
243.341	19.8
243.558	-31.4
243.775	23.89
243.992	-10.92
244.209	-45.74
244.426	83.28
244.643	-4.78
244.86	40.28
245.078	58.71
245.295	23.89
245.512	42.32
245.729	17.75
245.946	40.28
246.163	46.42
246.38	-8.87
246.597	48.47
246.814	11.61
247.031	-0.68
247.248	46.42
247.464	7.51
247.681	48.47
247.898	9.56
248.115	114
248.332	40.28
248.549	66.9
248.766	17.75
248.983	15.7
249.2	48.47
249.417	50.52
249.633	23.89
249.85	107.86
250.067	66.9
250.284	93.52
250.501	109.91
250.717	36.18
250.934	17.75
251.151	-17.07
251.368	30.04
251.585	52.56
251.801	52.56
252.018	-10.92
252.235	48.47
252.451	-10.92
252.668	48.47
252.885	58.71
253.102	105.81
253.318	-17.07
253.535	7.51
253.752	48.47
253.968	-25.26
254.185	19.8
254.401	58.71
254.618	-4.78
254.835	42.32
255.051	19.8
255.268	-21.16
255.484	36.18
255.701	7.51
255.917	23.89
256.134	7.51
256.351	-19.11
256.567	48.47
256.784	114
257	1.37
257.217	34.13
257.433	64.85
257.65	15.7
257.866	89.43
258.082	32.08
258.299	-37.55
258.515	71
258.732	36.18
258.948	-74.41
259.165	7.51
259.381	3.41
259.597	62.8
259.814	42.32
260.03	48.47
260.246	-23.21
260.463	60.76
260.679	101.72
260.895	97.62
261.112	48.47
261.328	38.23
261.544	40.28
261.761	97.62
261.977	5.46
262.193	3.41
262.409	81.24
262.626	25.94
262.842	66.9
263.058	-41.64
263.274	79.19
263.49	101.72
263.707	75.09
263.923	-0.68
264.139	-53.93
264.355	40.28
264.571	66.9
264.787	7.51
265.004	46.42
265.22	1.37
265.436	23.89
265.652	95.57
265.868	85.33
266.084	-21.16
266.3	97.62
266.516	56.66
266.732	91.48
266.948	-10.92
267.164	9.56
267.38	23.89
267.596	7.51
267.812	81.24
268.028	-58.03
268.244	5.46
268.46	15.7
268.676	23.89
268.892	73.04
269.108	1.37
269.324	7.51
269.54	11.61
269.756	52.56
269.972	-4.78
270.188	11.61
270.403	-8.87
270.619	46.42
270.835	40.28
271.051	27.99
271.267	-70.31
271.483	-15.02
271.698	44.37
271.914	-10.92
272.13	23.89
272.346	23.89
272.562	40.28
272.777	75.09
272.993	7.51
273.209	17.75
273.425	-72.36
273.64	15.7
273.856	101.72
274.072	105.81
274.287	-12.97
274.503	75.09
274.719	40.28
274.934	27.99
275.15	1.37
275.366	99.67
275.581	9.56
275.797	44.37
276.012	-17.07
276.228	15.7
276.444	71
276.659	40.28
276.875	-35.5
277.09	54.61
277.306	73.04
277.521	27.99
277.737	-4.78
277.952	42.32
278.168	91.48
278.383	56.66
278.599	-19.11
278.814	40.28
279.03	81.24
279.245	1.37
279.461	-0.68
279.676	56.66
279.892	-4.78
280.107	64.85
280.322	-33.45
280.538	64.85
280.753	32.08
280.969	48.47
281.184	-29.35
281.399	15.7
281.615	40.28
281.83	89.43
282.045	-96.94
282.26	9.56
282.476	89.43
282.691	-47.79
282.906	134.48
283.122	32.08
283.337	-64.17
283.552	25.94
283.767	44.37
283.983	97.62
284.198	-17.07
284.413	97.62
284.628	-2.73
284.843	64.85
285.058	1.37
285.274	-6.83
285.489	40.28
285.704	9.56
285.919	-55.98
286.134	7.51
286.349	7.51
286.564	-23.21
286.779	126.29
286.995	52.56
287.21	23.89
287.425	38.23
287.64	52.56
287.855	23.89
288.07	-2.73
288.285	23.89
288.5	64.85
288.715	114
288.93	32.08
289.145	-8.87
289.36	68.95
289.575	17.75
289.79	23.89
290.004	64.85
290.219	40.28
290.434	-27.31
290.649	3.41
290.864	64.85
291.079	46.42
291.294	36.18
291.509	93.52
291.724	-8.87
291.938	17.75
292.153	103.76
292.368	-12.97
292.583	17.75
292.798	34.13
293.012	122.2
293.227	11.61
293.442	58.71
293.657	25.94
293.871	83.28
294.086	50.52
294.301	165.2
294.516	64.85
294.73	56.66
294.945	3.41
295.16	77.14
295.374	114
295.589	114
295.804	23.89
296.018	64.85
296.233	77.14
296.447	13.65
296.662	-10.92
296.877	40.28
297.091	-41.64
297.306	40.28
297.52	36.18
297.735	11.61
297.949	60.76
298.164	3.41
298.378	17.75
298.593	1.37
298.807	19.8
299.022	-66.22
299.236	1.37
299.451	32.08
299.665	-0.68
299.88	56.66
300.094	7.51
300.309	85.33
300.523	56.66
300.737	77.14
300.952	36.18
301.166	23.89
301.381	7.51
301.595	-58.03
301.809	7.51
302.024	85.33
302.238	19.8
302.452	73.04
302.667	105.81
302.881	81.24
303.095	114
303.309	50.52
303.524	105.81
303.738	-15.02
303.952	-17.07
304.166	25.94
304.381	-23.21
304.595	73.04
304.809	9.56
305.023	60.76
305.237	44.37
305.452	7.51
305.666	-41.64
305.88	101.72
306.094	56.66
306.308	38.23
306.522	85.33
306.736	116.05
306.95	60.76
307.164	23.89
307.379	40.28
307.593	27.99
307.807	75.09
308.021	87.38
308.235	7.51
308.449	11.61
308.663	-8.87
308.877	138.58
309.091	77.14
309.305	27.99
309.519	-29.35
309.733	124.24
309.947	-31.4
310.161	101.72
310.374	75.09
310.588	81.24
310.802	56.66
311.016	36.18
311.23	66.9
311.444	-25.26
311.658	83.28
311.872	15.7
312.085	48.47
312.299	56.66
312.513	81.24
312.727	97.62
312.941	118.1
313.154	40.28
313.368	66.9
313.582	58.71
313.796	-25.26
314.009	73.04
314.223	103.76
314.437	13.65
314.651	-37.55
314.864	34.13
315.078	-37.55
315.292	7.51
315.505	62.8
315.719	27.99
315.933	-21.16
316.146	23.89
316.36	36.18
316.573	21.84
316.787	68.95
317.001	60.76
317.214	48.47
317.428	25.94
317.641	34.13
317.855	-49.83
318.068	-33.45
318.282	81.24
318.495	73.04
318.709	-12.97
318.922	19.8
319.136	132.44
319.349	107.86
319.563	75.09
319.776	32.08
319.99	-37.55
320.203	25.94
320.417	11.61
320.63	64.85
320.843	52.56
321.057	17.75
321.27	23.89
321.483	73.04
321.697	15.7
321.91	71
322.124	-10.92
322.337	99.67
322.55	83.28
322.763	130.39
322.977	85.33
323.19	19.8
323.403	75.09
323.617	3.41
323.83	97.62
324.043	-23.21
324.256	85.33
324.469	-35.5
324.683	114
324.896	13.65
325.109	23.89
325.322	-25.26
325.535	50.52
325.748	73.04
325.962	75.09
326.175	40.28
326.388	58.71
326.601	50.52
326.814	40.28
327.027	40.28
327.24	93.52
327.453	-17.07
327.666	19.8
327.879	85.33
328.092	107.86
328.305	9.56
328.518	5.46
328.731	-6.83
328.944	48.47
329.157	66.9
329.37	42.32
329.583	128.34
329.796	66.9
330.009	7.51
330.222	-8.87
330.435	56.66
330.648	56.66
330.861	44.37
331.073	85.33
331.286	101.72
331.499	87.38
331.712	-41.64
331.925	-25.26
332.138	83.28
332.35	138.58
332.563	36.18
332.776	50.52
332.989	23.89
333.202	34.13
333.414	54.61
333.627	85.33
333.84	77.14
334.053	89.43
334.265	81.24
334.478	46.42
334.691	101.72
334.903	11.61
335.116	64.85
335.329	77.14
335.541	148.82
335.754	124.24
335.966	32.08
336.179	68.95
336.392	-31.4
336.604	-0.68
336.817	23.89
337.029	60.76
337.242	7.51
337.454	99.67
337.667	19.8
337.88	152.91
338.092	97.62
338.305	56.66
338.517	-0.68
338.729	134.48
338.942	32.08
339.154	1.37
339.367	58.71
339.579	56.66
339.792	46.42
340.004	60.76
340.217	42.32
340.429	79.19
340.641	48.47
340.854	54.61
341.066	64.85
341.278	89.43
341.491	75.09
341.703	81.24
341.915	-31.4
342.128	73.04
342.34	75.09
342.552	34.13
342.764	30.04
342.977	56.66
343.189	58.71
343.401	122.2
343.613	15.7
343.826	83.28
344.038	83.28
344.25	50.52
344.462	-29.35
344.674	95.57
344.886	13.65
345.099	23.89
345.311	95.57
345.523	32.08
345.735	-62.12
345.947	71
346.159	38.23
346.371	109.91
346.583	-17.07
346.795	179.54
347.007	25.94
347.219	62.8
347.431	36.18
347.643	99.67
347.855	32.08
348.067	101.72
348.279	-82.6
348.491	66.9
348.703	93.52
348.915	54.61
349.127	15.7
349.339	40.28
349.551	19.8
349.763	42.32
349.975	23.89
350.187	60.76
350.399	81.24
350.61	138.58
350.822	-17.07
351.034	56.66
351.246	42.32
351.458	81.24
351.669	32.08
351.881	83.28
352.093	130.39
352.305	54.61
352.517	42.32
352.728	109.91
352.94	-6.83
353.152	1.37
353.363	32.08
353.575	42.32
353.787	103.76
353.999	66.9
354.21	167.25
354.422	23.89
354.633	-45.74
354.845	32.08
355.057	25.94
355.268	130.39
355.48	136.53
355.692	7.51
355.903	7.51
356.115	19.8
356.326	68.95
356.538	60.76
356.749	48.47
356.961	91.48
357.172	81.24
357.384	-37.55
357.595	126.29
357.807	-15.02
358.018	32.08
358.23	77.14
358.441	-29.35
358.653	34.13
358.864	75.09
359.075	21.84
359.287	75.09
359.498	97.62
359.709	40.28
359.921	91.48
360.132	81.24
360.344	19.8
360.555	-0.68
360.766	66.9
360.977	-0.68
361.189	150.87
361.4	68.95
361.611	154.96
361.823	109.91
362.034	81.24
362.245	-33.45
362.456	73.04
362.667	77.14
362.879	58.71
363.09	7.51
363.301	-0.68
363.512	109.91
363.723	56.66
363.935	42.32
364.146	83.28
364.357	87.38
364.568	66.9
364.779	81.24
364.99	32.08
365.201	52.56
365.412	99.67
365.623	-12.97
365.834	46.42
366.045	91.48
366.256	11.61
366.467	116.05
366.678	83.28
366.889	56.66
367.1	89.43
367.311	38.23
367.522	-15.02
367.733	40.28
367.944	81.24
368.155	66.9
368.366	66.9
368.577	122.2
368.788	91.48
368.999	-2.73
369.209	27.99
369.42	140.63
369.631	97.62
369.842	64.85
370.053	23.89
370.264	114
370.474	32.08
370.685	99.67
370.896	-12.97
371.107	44.37
371.317	64.85
371.528	46.42
371.739	66.9
371.95	30.04
372.16	111.96
372.371	48.47
372.582	17.75
372.792	93.52
373.003	32.08
373.214	120.15
373.424	44.37
373.635	128.34
373.846	101.72
374.056	34.13
374.267	64.85
374.477	103.76
374.688	48.47
374.898	23.89
375.109	15.7
375.319	99.67
375.53	101.72
375.74	111.96
375.951	48.47
376.161	89.43
376.372	89.43
376.582	58.71
376.793	66.9
377.003	66.9
377.214	7.51
377.424	150.87
377.635	32.08
377.845	52.56
378.055	97.62
378.266	25.94
378.476	32.08
378.686	64.85
378.897	105.81
379.107	81.24
379.317	101.72
379.528	89.43
379.738	73.04
379.948	-55.98
380.158	105.81
380.369	-72.36
380.579	68.95
380.789	40.28
380.999	130.39
381.21	30.04
381.42	73.04
381.63	17.75
381.84	75.09
382.05	122.2
382.261	66.9
382.471	40.28
382.681	44.37
382.891	42.32
383.101	128.34
383.311	-4.78
383.521	-0.68
383.731	152.91
383.941	114
384.151	81.24
384.361	75.09
384.571	97.62
384.781	85.33
384.991	146.77
385.201	109.91
385.411	138.58
385.621	25.94
385.831	85.33
386.041	42.32
386.251	48.47
386.461	42.32
386.671	81.24
386.881	89.43
387.091	81.24
387.301	122.2
387.511	56.66
387.72	97.62
387.93	11.61
388.14	83.28
388.35	15.7
388.56	25.94
388.769	17.75
388.979	75.09
389.189	44.37
389.399	46.42
389.609	105.81
389.818	105.81
390.028	85.33
390.238	118.1
390.447	34.13
390.657	136.53
390.867	48.47
391.076	97.62
391.286	118.1
391.496	-23.21
391.705	101.72
391.915	122.2
392.125	224.59
392.334	75.09
392.544	130.39
392.753	107.86
392.963	85.33
393.172	81.24
393.382	40.28
393.591	165.2
393.801	130.39
394.01	114
394.22	109.91
394.429	105.81
394.639	154.96
394.848	99.67
395.058	122.2
395.267	40.28
395.477	122.2
395.686	93.52
395.895	138.58
396.105	157.01
396.314	101.72
396.524	109.91
396.733	62.8
396.942	163.15
397.152	124.24
397.361	150.87
397.57	105.81
397.78	89.43
397.989	120.15
398.198	181.59
398.407	107.86
398.617	152.91
398.826	138.58
399.035	114
399.244	150.87
399.453	73.04
399.663	163.15
399.872	163.15
400.081	32.08
400.29	187.73
400.499	105.81
400.708	124.24
400.917	132.44
401.127	126.29
401.336	171.35
401.545	232.79
401.754	118.1
401.963	154.96
402.172	120.15
402.381	66.9
402.59	97.62
402.799	150.87
403.008	197.97
403.217	148.82
403.426	91.48
403.635	109.91
403.844	134.48
404.053	124.24
404.262	204.11
404.471	214.35
404.68	159.06
404.888	175.44
405.097	148.82
405.306	193.87
405.515	146.77
405.724	146.77
405.933	169.3
406.142	189.78
406.35	290.13
406.559	195.92
406.768	216.4
406.977	187.73
407.185	333.14
407.394	230.74
407.603	220.5
407.812	216.4
408.02	261.46
408.229	298.32
408.438	300.37
408.646	251.22
408.855	351.57
409.064	318.8
409.272	376.14
409.481	312.66
409.69	351.57
409.898	406.86
410.107	372.05
410.315	378.19
410.524	398.67
410.733	435.53
410.941	462.16
411.15	410.96
411.358	462.16
411.567	490.83
411.775	509.26
411.984	582.99
412.192	597.32
412.401	531.79
412.609	613.71
412.818	664.91
413.026	662.86
413.234	669
413.443	654.67
413.651	632.14
413.86	687.43
414.068	763.21
414.276	798.03
414.485	795.98
414.693	861.51
414.901	908.62
415.11	822.6
415.318	949.57
415.526	843.08
415.734	1023.3
415.943	916.81
416.151	1119.56
416.359	1041.73
416.567	1051.97
416.776	1082.69
416.984	1197.38
417.192	1213.76
417.4	1238.34
417.608	1281.35
417.817	1277.25
418.025	1432.9
418.233	1398.08
418.441	1396.03
418.649	1574.21
418.857	1602.88
419.065	1768.76
419.273	1566.01
419.481	1727.8
419.689	1764.67
419.897	1981.75
420.105	2000.18
420.313	1953.08
420.521	2026.81
420.729	2080.05
420.937	2219.32
421.145	2198.84
421.353	2338.1
421.561	2444.59
421.769	2450.74
421.977	2581.81
422.185	2614.57
422.393	2800.94
422.601	2927.91
422.809	2825.51
423.017	3007.78
423.224	3085.61
423.432	3269.92
423.64	3173.67
423.848	3552.54
424.056	3304.74
424.263	3695.9
424.471	3622.17
424.679	3677.47
424.887	3908.89
425.094	3792.16
425.302	3939.61
425.51	4162.84
425.718	4275.48
425.925	4324.63
426.133	4545.81
426.341	4683.02
426.548	4898.06
426.756	4842.76
426.964	4943.11
427.171	5172.49
427.379	5375.24
427.586	5602.56
427.794	5668.09
428.001	6020.35
428.209	6130.94
428.417	6024.44
428.624	6548.72
428.832	6497.52
429.039	6511.86
429.247	6417.65
429.454	7195.88
429.662	7584.99
429.869	7144.68
430.076	7529.7
430.284	7384.29
430.491	7679.2
430.699	8162.52
430.906	8166.62
431.114	8305.88
431.321	8565.97
431.528	8717.52
431.736	9157.83
431.943	9684.16
432.15	9333.96
432.358	9553.09
432.565	10104
432.772	10169.53
432.979	10443.96
433.187	10405.05
433.394	10689.71
433.601	11574.44
433.808	11343.02
434.016	11177.13
434.223	11719.84
434.43	12827.79
434.637	12237.98
434.844	12926.1
435.052	13327.5
435.259	13427.85
435.466	13286.54
435.673	13307.02
435.88	13814.91
436.087	14851.19
436.294	14494.84
436.501	14531.7
436.708	14552.18
436.915	15250.54
437.122	15930.47
437.329	15846.5
437.537	16346.2
437.743	16614.49
437.95	16460.89
438.157	17531.98
438.364	17851.46
438.571	17798.21
438.778	17974.34
438.985	19600.43
439.192	18926.64
439.399	19581.99
439.606	19205.17
439.813	20194.34
440.02	21341.2
440.227	20628.51
440.433	20438.05
440.64	21570.57
440.847	21191.7
441.054	21617.68
441.261	23389.17
441.467	22934.52
441.674	23575.53
441.881	24214.5
442.088	24099.81
442.294	23782.38
442.501	24609.76
442.708	24845.27
442.914	25775.05
443.121	26815.42
443.328	26112.97
443.534	28302.25
443.741	27407.28
443.948	26629.06
444.154	28922.78
444.361	28644.26
444.568	29084.57
444.774	28787.61
444.981	29385.62
445.187	29950.86
445.394	31521.65
445.6	31183.74
445.807	33737.55
446.013	32609.12
446.22	32772.96
446.426	34714.44
446.633	34822.98
446.839	35785.52
447.046	34306.89
447.252	36481.83
447.459	36203.31
447.665	35906.35
447.871	38001.43
448.078	39336.7
448.284	37149.47
448.491	38294.28
448.697	39252.73
448.903	40850.15
449.11	40725.22
449.316	39793.4
449.522	40411.88
449.728	42130.13
449.935	42293.97
450.141	42371.79
450.347	43043.52
450.553	41698.01
450.76	42341.07
450.966	43268.8
451.172	42922.69
451.378	44368.56
451.584	43211.46
451.791	44036.79
451.997	44485.29
452.203	45034.15
452.409	45019.81
452.615	44626.6
452.821	42881.74
453.027	42691.27
453.233	44823.21
453.44	43176.64
453.646	43487.93
453.852	43733.69
454.058	44163.76
454.264	42959.56
454.47	44384.94
454.676	42812.1
454.882	44374.7
455.088	40495.85
455.294	41317.09
455.5	41583.32
455.705	42281.68
455.911	40694.5
456.117	40125.17
456.323	39326.46
456.529	37237.53
456.735	38935.3
456.941	37958.42
457.147	37159.71
457.352	36145.97
457.558	35568.44
457.764	35892.02
457.97	35117.89
458.176	34501.45
458.381	34247.5
458.587	32815.97
458.793	32527.21
458.999	30788.48
459.204	33137.5
459.41	32172.91
459.616	30024.59
459.821	30135.18
460.027	29983.63
460.233	29449.11
460.438	27984.81
460.644	28099.5
460.85	26764.22
461.055	26454.98
461.261	26256.32
461.466	24634.33
461.672	23667.69
461.878	25164.76
462.083	23731.18
462.289	23294.96
462.494	23043.06
462.7	22342.66
462.905	21603.34
463.111	22232.07
463.316	22254.59
463.522	21814.28
463.727	21593.1
463.932	21697.55
464.138	21283.86
464.343	21412.88
464.549	20685.85
464.754	21615.63
464.959	21304.34
465.165	21220.37
465.37	20098.08
465.575	19670.06
465.781	20194.34
465.986	20491.29
466.191	19852.33
466.397	19430.44
466.602	18371.65
466.807	19483.69
467.012	19373.1
