Data from USB4F104151__319__14-35-09-743.txt Node

Date: Thu Mar 13 14:35:09 EDT 2025
User: louis
Spectrometer: USB4F10415
Trigger mode: 4
Integration Time (sec): 2.500000E-2
Scans to average: 1
Electric dark correction enabled: true
Nonlinearity correction enabled: false
Boxcar width: 0
XAxis mode: Wavelengths
Number of Pixels in Spectrum: 3648
>>>>>Begin Spectral Data<<<<<
178.204	-105.81
178.424	-105.81
178.644	-105.81
178.864	-66.9
179.084	-83.28
179.304	-56.66
179.524	23.21
179.744	-23.89
179.964	74.41
180.184	49.83
180.404	25.26
180.624	-42.32
180.844	-32.08
181.064	-66.9
181.283	23.21
181.503	17.07
181.723	8.87
181.943	6.83
182.163	154.28
182.383	25.26
182.602	76.46
182.822	72.36
183.042	66.22
183.262	39.59
183.482	-32.08
183.701	80.55
183.921	64.17
184.141	-17.75
184.361	41.64
184.58	-32.08
184.8	62.12
185.02	0.68
185.239	96.94
185.459	74.41
185.679	76.46
185.898	23.21
186.118	23.21
186.338	41.64
186.557	55.98
186.777	-32.08
186.997	-42.32
187.216	23.21
187.436	113.32
187.655	113.32
187.875	31.4
188.095	70.31
188.314	80.55
188.534	66.22
188.753	-1.37
188.973	62.12
189.192	146.09
189.412	105.13
189.631	66.22
189.851	72.36
190.07	33.45
190.29	-21.85
190.509	82.6
190.729	-48.47
190.948	29.35
191.168	219.82
191.387	55.98
191.607	23.21
191.826	23.21
192.045	74.41
192.265	-1.37
192.484	4.78
192.704	96.94
192.923	-38.23
193.142	41.64
193.362	8.87
193.581	146.09
193.8	-15.7
194.02	58.03
194.239	43.69
194.458	55.98
194.678	15.02
194.897	-9.56
195.116	35.5
195.335	68.27
195.555	51.88
195.774	33.45
195.993	55.98
196.212	33.45
196.432	-30.04
196.651	35.5
196.87	-34.13
197.089	82.6
197.308	72.36
197.528	60.07
197.747	17.07
197.966	62.12
198.185	76.46
198.404	-11.61
198.623	66.22
198.842	47.79
199.062	68.27
199.281	103.08
199.5	2.73
199.719	96.94
199.938	35.5
200.157	88.75
200.376	47.79
200.595	39.59
200.814	60.07
201.033	80.55
201.252	84.65
201.471	47.79
201.69	53.93
201.909	39.59
202.128	111.27
202.347	19.11
202.566	58.03
202.785	-40.28
203.004	0.68
203.223	107.18
203.442	55.98
203.661	39.59
203.879	105.13
204.098	23.21
204.317	6.83
204.536	80.55
204.755	31.4
204.974	96.94
205.193	51.88
205.411	148.14
205.63	39.59
205.849	64.17
206.068	-7.51
206.287	-42.32
206.505	47.79
206.724	19.11
206.943	-23.89
207.162	0.68
207.381	35.5
207.599	58.03
207.818	15.02
208.037	10.92
208.255	86.7
208.474	10.92
208.693	45.74
208.911	55.98
209.13	55.98
209.349	55.98
209.567	33.45
209.786	123.56
210.005	41.64
210.223	6.83
210.442	68.27
210.661	8.87
210.879	23.21
211.098	-25.94
211.316	17.07
211.535	80.55
211.753	31.4
211.972	129.7
212.191	-13.65
212.409	96.94
212.628	51.88
212.846	31.4
213.065	90.79
213.283	96.94
213.502	53.93
213.72	74.41
213.938	43.69
214.157	-95.57
214.375	107.18
214.594	72.36
214.812	15.02
215.031	10.92
215.249	-38.23
215.467	105.13
215.686	43.69
215.904	51.88
216.122	35.5
216.341	131.75
216.559	33.45
216.778	4.78
216.996	74.41
217.214	-56.66
217.432	39.59
217.651	29.35
217.869	10.92
218.087	55.98
218.306	23.21
218.524	90.79
218.742	101.03
218.96	23.21
219.179	23.21
219.397	33.45
219.615	45.74
219.833	74.41
220.051	25.26
220.27	96.94
220.488	66.22
220.706	-21.85
220.924	-7.51
221.142	78.51
221.36	62.12
221.578	64.17
221.796	68.27
222.015	74.41
222.233	33.45
222.451	111.27
222.669	47.79
222.887	49.83
223.105	39.59
223.323	72.36
223.541	74.41
223.759	137.9
223.977	58.03
224.195	117.42
224.413	-1.37
224.631	-13.65
224.849	43.69
225.067	105.13
225.285	39.59
225.503	64.17
225.721	6.83
225.939	31.4
226.157	64.17
226.375	178.86
226.592	88.75
226.81	90.79
227.028	-13.65
227.246	10.92
227.464	23.21
227.682	113.32
227.9	80.55
228.117	6.83
228.335	41.64
228.553	8.87
228.771	15.02
228.989	80.55
229.206	123.56
229.424	-1.37
229.642	86.7
229.86	-13.65
230.077	94.89
230.295	-5.46
230.513	66.22
230.731	80.55
230.948	139.94
231.166	74.41
231.384	21.16
231.601	19.11
231.819	121.51
232.037	39.59
232.254	19.11
232.472	19.11
232.689	27.31
232.907	25.26
233.125	131.75
233.342	31.4
233.56	19.11
233.777	4.78
233.995	-19.8
234.213	80.55
234.43	8.87
234.648	45.74
234.865	23.21
235.083	60.07
235.3	15.02
235.518	80.55
235.735	51.88
235.953	66.22
236.17	88.75
236.388	131.75
236.605	27.31
236.822	66.22
237.04	125.61
237.257	66.22
237.475	-56.66
237.692	90.79
237.909	41.64
238.127	-34.13
238.344	55.98
238.562	96.94
238.779	-5.46
238.996	92.84
239.214	-3.41
239.431	105.13
239.648	-23.89
239.865	47.79
240.083	74.41
240.3	-7.51
240.517	6.83
240.735	58.03
240.952	33.45
241.169	64.17
241.386	58.03
241.603	12.97
241.821	-34.13
242.038	121.51
242.255	115.37
242.472	39.59
242.689	-13.65
242.907	66.22
243.124	31.4
243.341	43.69
243.558	6.83
243.775	80.55
243.992	-21.85
244.209	39.59
244.426	105.13
244.643	74.41
244.86	82.6
245.078	-9.56
245.295	68.27
245.512	76.46
245.729	64.17
245.946	55.98
246.163	88.75
246.38	2.73
246.597	51.88
246.814	19.11
247.031	-13.65
247.248	90.79
247.464	64.17
247.681	-1.37
247.898	64.17
248.115	107.18
248.332	53.93
248.549	47.79
248.766	51.88
248.983	55.98
249.2	23.21
249.417	84.65
249.633	10.92
249.85	31.4
250.067	27.31
250.284	121.51
250.501	0.68
250.717	47.79
250.934	-9.56
251.151	58.03
251.368	21.16
251.585	6.83
251.801	-13.65
252.018	15.02
252.235	98.99
252.451	-3.41
252.668	31.4
252.885	98.99
253.102	45.74
253.318	15.02
253.535	55.98
253.752	25.26
253.968	72.36
254.185	66.22
254.401	96.94
254.618	76.46
254.835	10.92
255.051	84.65
255.268	101.03
255.484	33.45
255.701	-38.23
255.917	60.07
256.134	64.17
256.351	41.64
256.567	21.16
256.784	23.21
257	39.59
257.217	80.55
257.433	82.6
257.65	49.83
257.866	139.94
258.082	47.79
258.299	-3.41
258.515	6.83
258.732	-48.47
258.948	47.79
259.165	72.36
259.381	-32.08
259.597	23.21
259.814	64.17
260.03	-38.23
260.246	107.18
260.463	23.21
260.679	80.55
260.895	31.4
261.112	101.03
261.328	-23.89
261.544	-9.56
261.761	115.37
261.977	31.4
262.193	-38.23
262.409	64.17
262.626	76.46
262.842	33.45
263.058	105.13
263.274	82.6
263.49	-1.37
263.707	70.31
263.923	8.87
264.139	74.41
264.355	43.69
264.571	58.03
264.787	47.79
265.004	123.56
265.22	88.75
265.436	41.64
265.652	76.46
265.868	117.42
266.084	-17.75
266.3	47.79
266.516	-17.75
266.732	33.45
266.948	15.02
267.164	43.69
267.38	129.7
267.596	49.83
267.812	105.13
268.028	72.36
268.244	23.21
268.46	105.13
268.676	47.79
268.892	82.6
269.108	-1.37
269.324	-1.37
269.54	-34.13
269.756	0.68
269.972	-21.85
270.188	90.79
270.403	-25.94
270.619	10.92
270.835	-25.94
271.051	25.26
271.267	-7.51
271.483	29.35
271.698	90.79
271.914	21.16
272.13	19.11
272.346	-9.56
272.562	68.27
272.777	105.13
272.993	-34.13
273.209	0.68
273.425	37.55
273.64	-46.42
273.856	164.52
274.072	72.36
274.287	-30.04
274.503	43.69
274.719	43.69
274.934	53.93
275.15	-54.61
275.366	6.83
275.581	15.02
275.797	53.93
276.012	25.26
276.228	41.64
276.444	55.98
276.659	31.4
276.875	55.98
277.09	19.11
277.306	25.26
277.521	94.89
277.737	23.21
277.952	47.79
278.168	33.45
278.383	39.59
278.599	17.07
278.814	15.02
279.03	-17.75
279.245	127.66
279.461	39.59
279.676	66.22
279.892	-42.32
280.107	66.22
280.322	10.92
280.538	70.31
280.753	19.11
280.969	15.02
281.184	62.12
281.399	96.94
281.615	88.75
281.83	43.69
282.045	23.21
282.26	15.02
282.476	68.27
282.691	2.73
282.906	35.5
283.122	47.79
283.337	0.68
283.552	74.41
283.767	72.36
283.983	90.79
284.198	27.31
284.413	129.7
284.628	0.68
284.843	33.45
285.058	141.99
285.274	-1.37
285.489	29.35
285.704	88.75
285.919	72.36
286.134	68.27
286.349	49.83
286.564	-15.7
286.779	178.86
286.995	88.75
287.21	-44.37
287.425	64.17
287.64	39.59
287.855	60.07
288.07	-9.56
288.285	0.68
288.5	76.46
288.715	58.03
288.93	35.5
289.145	0.68
289.36	139.94
289.575	0.68
289.79	131.75
290.004	39.59
290.219	113.32
290.434	23.21
290.649	58.03
290.864	66.22
291.079	0.68
291.294	64.17
291.509	43.69
291.724	72.36
291.938	15.02
292.153	-1.37
292.368	6.83
292.583	55.98
292.798	58.03
293.012	66.22
293.227	21.16
293.442	10.92
293.657	82.6
293.871	127.66
294.086	41.64
294.301	39.59
294.516	15.02
294.73	51.88
294.945	-7.51
295.16	10.92
295.374	68.27
295.589	51.88
295.804	23.21
296.018	58.03
296.233	78.51
296.447	49.83
296.662	23.21
296.877	39.59
297.091	96.94
297.306	47.79
297.52	80.55
297.735	15.02
297.949	25.26
298.164	45.74
298.378	125.61
298.593	39.59
298.807	33.45
299.022	47.79
299.236	17.07
299.451	17.07
299.665	-34.13
299.88	17.07
300.094	6.83
300.309	88.75
300.523	55.98
300.737	-1.37
300.952	82.6
301.166	96.94
301.381	8.87
301.595	-32.08
301.809	21.16
302.024	121.51
302.238	-13.65
302.452	74.41
302.667	31.4
302.881	90.79
303.095	74.41
303.309	23.21
303.524	-38.23
303.738	66.22
303.952	-34.13
304.166	109.22
304.381	33.45
304.595	166.57
304.809	-1.37
305.023	25.26
305.237	15.02
305.452	6.83
305.666	76.46
305.88	43.69
306.094	19.11
306.308	90.79
306.522	2.73
306.736	88.75
306.95	23.21
307.164	51.88
307.379	-7.51
307.593	84.65
307.807	115.37
308.021	-9.56
308.235	-23.89
308.449	23.21
308.663	31.4
308.877	62.12
309.091	21.16
309.305	-19.8
309.519	-30.04
309.733	113.32
309.947	-99.67
310.161	-52.56
310.374	78.51
310.588	101.03
310.802	6.83
311.016	47.79
311.23	103.08
311.444	-1.37
311.658	76.46
311.872	107.18
312.085	72.36
312.299	84.65
312.513	96.94
312.727	66.22
312.941	15.02
313.154	64.17
313.368	41.64
313.582	43.69
313.796	66.22
314.009	33.45
314.223	113.32
314.437	-7.51
314.651	101.03
314.864	39.59
315.078	41.64
315.292	74.41
315.505	72.36
315.719	51.88
315.933	-21.85
316.146	47.79
316.36	43.69
316.573	121.51
316.787	47.79
317.001	55.98
317.214	96.94
317.428	55.98
317.641	-107.86
317.855	94.89
318.068	49.83
318.282	33.45
318.495	137.9
318.709	2.73
318.922	15.02
319.136	70.31
319.349	62.12
319.563	74.41
319.776	-19.8
319.99	27.31
320.203	8.87
320.417	-13.65
320.63	6.83
320.843	117.42
321.057	86.7
321.27	64.17
321.483	33.45
321.697	68.27
321.91	105.13
322.124	68.27
322.337	33.45
322.55	80.55
322.763	55.98
322.977	-1.37
323.19	47.79
323.403	80.55
323.617	31.4
323.83	125.61
324.043	2.73
324.256	-1.37
324.469	0.68
324.683	74.41
324.896	-23.89
325.109	139.94
325.322	-25.94
325.535	58.03
325.748	168.62
325.962	53.93
326.175	-9.56
326.388	107.18
326.601	35.5
326.814	33.45
327.027	141.99
327.24	125.61
327.453	-42.32
327.666	58.03
327.879	111.27
328.092	-13.65
328.305	-25.94
328.518	-1.37
328.731	0.68
328.944	51.88
329.157	101.03
329.37	72.36
329.583	45.74
329.796	80.55
330.009	82.6
330.222	80.55
330.435	66.22
330.648	96.94
330.861	74.41
331.073	19.11
331.286	47.79
331.499	39.59
331.712	45.74
331.925	47.79
332.138	0.68
332.35	80.55
332.563	-42.32
332.776	88.75
332.989	41.64
333.202	131.75
333.414	-15.7
333.627	41.64
333.84	43.69
334.053	125.61
334.265	39.59
334.478	82.6
334.691	-17.75
334.903	51.88
335.116	-1.37
335.329	74.41
335.541	98.99
335.754	55.98
335.966	72.36
336.179	17.07
336.392	33.45
336.604	84.65
336.817	111.27
337.029	49.83
337.242	58.03
337.454	109.22
337.667	39.59
337.88	109.22
338.092	74.41
338.305	125.61
338.517	72.36
338.729	47.79
338.942	74.41
339.154	58.03
339.367	10.92
339.579	84.65
339.792	35.5
340.004	76.46
340.217	47.79
340.429	31.4
340.641	31.4
340.854	-13.65
341.066	105.13
341.278	94.89
341.491	109.22
341.703	68.27
341.915	31.4
342.128	72.36
342.34	37.55
342.552	-1.37
342.764	33.45
342.977	66.22
343.189	90.79
343.401	27.31
343.613	55.98
343.826	72.36
344.038	58.03
344.25	109.22
344.462	-38.23
344.674	60.07
344.886	19.11
345.099	49.83
345.311	72.36
345.523	31.4
345.735	64.17
345.947	31.4
346.159	8.87
346.371	58.03
346.583	6.83
346.795	148.14
347.007	41.64
347.219	80.55
347.431	62.12
347.643	98.99
347.855	6.83
348.067	156.33
348.279	43.69
348.491	113.32
348.703	109.22
348.915	62.12
349.127	23.21
349.339	66.22
349.551	0.68
349.763	55.98
349.975	51.88
350.187	98.99
350.399	115.37
350.61	55.98
350.822	58.03
351.034	-17.75
351.246	98.99
351.458	74.41
351.669	55.98
351.881	68.27
352.093	148.14
352.305	84.65
352.517	137.9
352.728	66.22
352.94	31.4
353.152	92.84
353.363	45.74
353.575	84.65
353.787	39.59
353.999	43.69
354.21	117.42
354.422	55.98
354.633	15.02
354.845	23.21
355.057	25.26
355.268	25.26
355.48	58.03
355.692	-9.56
355.903	107.18
356.115	-66.9
356.326	-58.71
356.538	33.45
356.749	74.41
356.961	90.79
357.172	37.55
357.384	47.79
357.595	154.28
357.807	72.36
358.018	29.35
358.23	133.8
358.441	141.99
358.653	33.45
358.864	23.21
359.075	80.55
359.287	47.79
359.498	146.09
359.709	39.59
359.921	72.36
360.132	96.94
360.344	70.31
360.555	17.07
360.766	33.45
360.977	76.46
361.189	78.51
361.4	66.22
361.611	105.13
361.823	117.42
362.034	129.7
362.245	58.03
362.456	31.4
362.667	90.79
362.879	58.03
363.09	101.03
363.301	80.55
363.512	80.55
363.723	41.64
363.935	164.52
364.146	29.35
364.357	51.88
364.568	101.03
364.779	19.11
364.99	96.94
365.201	78.51
365.412	31.4
365.623	107.18
365.834	150.18
366.045	21.16
366.256	33.45
366.467	53.93
366.678	55.98
366.889	84.65
367.1	37.55
367.311	148.14
367.522	47.79
367.733	117.42
367.944	111.27
368.155	78.51
368.366	88.75
368.577	70.31
368.788	113.32
368.999	82.6
369.209	88.75
369.42	88.75
369.631	152.23
369.842	121.51
370.053	15.02
370.264	141.99
370.474	70.31
370.685	115.37
370.896	-30.04
371.107	27.31
371.317	60.07
371.528	68.27
371.739	43.69
371.95	84.65
372.16	170.66
372.371	15.02
372.582	74.41
372.792	96.94
373.003	101.03
373.214	121.51
373.424	148.14
373.635	66.22
373.846	84.65
374.056	49.83
374.267	72.36
374.477	94.89
374.688	62.12
374.898	47.79
375.109	64.17
375.319	58.03
375.53	76.46
375.74	0.68
375.951	141.99
376.161	121.51
376.372	90.79
376.582	31.4
376.793	82.6
377.003	-15.7
377.214	-36.18
377.424	74.41
377.635	29.35
377.845	105.13
378.055	39.59
378.266	-9.56
378.476	23.21
378.686	-75.09
378.897	23.21
379.107	82.6
379.317	170.66
379.528	23.21
379.738	148.14
379.948	58.03
380.158	88.75
380.369	45.74
380.579	109.22
380.789	72.36
380.999	84.65
381.21	88.75
381.42	98.99
381.63	74.41
381.84	96.94
382.05	113.32
382.261	2.73
382.471	60.07
382.681	80.55
382.891	131.75
383.101	68.27
383.311	35.5
383.521	33.45
383.731	15.02
383.941	47.79
384.151	76.46
384.361	121.51
384.571	90.79
384.781	-17.75
384.991	174.76
385.201	74.41
385.411	137.9
385.621	115.37
385.831	55.98
386.041	58.03
386.251	72.36
386.461	64.17
386.671	55.98
386.881	29.35
387.091	-1.37
387.301	127.66
387.511	86.7
387.72	88.75
387.93	27.31
388.14	-17.75
388.35	58.03
388.56	62.12
388.769	64.17
388.979	64.17
389.189	45.74
389.399	23.21
389.609	64.17
389.818	47.79
390.028	4.78
390.238	51.88
390.447	-9.56
390.657	113.32
390.867	72.36
391.076	23.21
391.286	55.98
391.496	2.73
391.705	80.55
391.915	125.61
392.125	137.9
392.334	150.18
392.544	137.9
392.753	148.14
392.963	45.74
393.172	123.56
393.382	82.6
393.591	172.71
393.801	41.64
394.01	105.13
394.22	121.51
394.429	96.94
394.639	35.5
394.848	68.27
395.058	72.36
395.267	88.75
395.477	121.51
395.686	70.31
395.895	178.86
396.105	164.52
396.314	137.9
396.524	80.55
396.733	35.5
396.942	127.66
397.152	109.22
397.361	135.85
397.57	129.7
397.78	105.13
397.989	150.18
398.198	135.85
398.407	121.51
398.617	187.05
398.826	144.04
399.035	219.82
399.244	137.9
399.453	58.03
399.663	66.22
399.872	113.32
400.081	88.75
400.29	174.76
400.499	154.28
400.708	174.76
400.917	96.94
401.127	117.42
401.336	121.51
401.545	221.86
401.754	166.57
401.963	129.7
402.172	117.42
402.381	55.98
402.59	187.05
402.799	107.18
403.008	115.37
403.217	170.66
403.426	178.86
403.635	168.62
403.844	76.46
404.053	182.95
404.262	139.94
404.471	174.76
404.68	133.8
404.888	191.14
405.097	129.7
405.306	205.48
405.515	86.7
405.724	166.57
405.933	203.43
406.142	162.47
406.35	232.1
406.559	205.48
406.768	209.58
406.977	172.71
407.185	228.01
407.394	205.48
407.603	164.52
407.812	228.01
408.02	268.97
408.229	260.77
408.438	285.35
408.646	328.36
408.855	197.29
409.064	238.25
409.272	271.01
409.481	318.12
409.69	215.72
409.898	277.16
410.107	387.75
410.315	309.93
410.524	326.31
410.733	350.89
410.941	418.47
411.15	383.65
411.358	383.65
411.567	467.62
411.775	457.38
411.984	428.71
412.192	457.38
412.401	496.29
412.609	481.96
412.818	512.67
413.026	606.88
413.234	539.3
413.443	567.97
413.651	625.31
413.86	653.98
414.068	629.41
414.276	764.57
414.485	735.9
414.693	703.14
414.901	768.67
415.11	817.82
415.318	705.18
415.526	715.42
415.734	871.07
415.943	834.21
416.151	858.78
416.359	920.22
416.567	889.5
416.776	1041.05
416.984	1049.24
417.192	1082.01
417.4	1073.82
417.608	1059.48
417.817	1112.73
418.025	1268.38
418.233	1278.62
418.441	1219.22
418.649	1290.9
418.857	1417.88
419.065	1444.5
419.273	1376.92
419.481	1497.75
419.689	1591.95
419.897	1542.8
420.105	1604.24
420.313	1727.12
420.521	1749.65
420.729	1747.6
420.937	1850
421.145	1901.2
421.353	1972.88
421.561	2022.03
421.769	1970.83
421.977	2241.16
422.185	2120.33
422.393	2337.41
422.601	2517.64
422.809	2458.25
423.017	2462.34
423.224	2597.51
423.432	2761.34
423.64	2677.38
423.848	2923.13
424.056	2927.23
424.263	3148.41
424.471	3197.56
424.679	3132.03
424.887	3185.27
425.094	3459.7
425.302	3357.3
425.51	3547.76
425.718	3787.38
425.925	3629.68
426.133	3703.41
426.341	4059.76
426.548	4201.07
426.756	4156.01
426.964	4291.18
427.171	4522.6
427.379	4651.62
427.586	4776.55
427.794	4786.79
428.001	4995.68
428.209	5171.8
428.417	5061.21
428.624	5640.79
428.832	5536.34
429.039	5503.57
429.247	5593.69
429.454	6027.85
429.662	6281.8
429.869	6025.81
430.076	6371.91
430.284	6124.11
430.491	6675.01
430.699	6900.29
430.906	6814.27
431.114	7111.23
431.321	7424.57
431.528	7455.29
431.736	7977.52
431.943	8196.65
432.15	7891.51
432.358	8157.74
432.565	8403.5
432.772	8469.03
432.979	8753.7
433.187	9194.01
433.394	9058.85
433.601	9730.58
433.808	9693.72
434.016	9697.81
434.223	9953.81
434.43	10633.74
434.637	10430.99
434.844	11106.82
435.052	11260.41
435.259	11450.88
435.466	11422.2
435.673	11375.1
435.88	11883
436.087	12573.16
436.294	12560.88
436.501	12261.87
436.708	12399.09
436.915	12841.45
437.122	13421.02
437.329	13464.03
437.537	13861.34
437.743	14105.04
437.95	13898.2
438.157	14827.98
438.364	15180.23
438.571	15260.1
438.778	15342.02
438.985	16681.39
439.192	16038.33
439.399	16417.2
439.606	16028.09
439.813	17256.87
440.02	18020.76
440.227	17963.42
440.433	17455.52
440.64	18225.56
440.847	18002.33
441.054	18567.57
441.261	19902.84
441.467	19396.99
441.674	19966.33
441.881	20453.75
442.088	20420.98
442.294	20353.4
442.501	20615.54
442.708	21018.99
442.914	21983.58
443.121	23017.8
443.328	22448.47
443.534	24033.6
443.741	23404.87
443.948	22593.87
444.154	24738.1
444.361	24600.88
444.568	24717.62
444.774	24568.12
444.981	24758.58
445.187	25499.94
445.394	26444.06
445.6	26247.45
445.807	28741.88
446.013	27560.2
446.22	28002.56
446.426	29225.2
446.633	29419.75
446.839	30462.17
447.046	29374.7
447.252	30847.19
447.459	30855.38
447.665	30820.56
447.871	32489.66
448.078	33310.89
448.284	31961.28
448.491	32848.05
448.697	33695.91
448.903	34554.01
449.11	34656.41
449.316	34197.66
449.522	35014.8
449.728	35596.43
449.935	36114.56
450.141	35729.55
450.347	36796.54
450.553	35367.05
450.76	35924.1
450.966	37312.63
451.172	36794.49
451.378	37769.32
451.584	37066.87
451.791	37838.95
451.997	37740.65
452.203	38559.84
452.409	38512.73
452.615	38408.29
452.821	37286
453.027	36253.83
453.233	38613.09
453.44	36974.71
453.646	37316.72
453.852	37668.97
454.058	37625.96
454.264	36841.59
454.47	37812.33
454.676	36989.05
454.882	37734.51
455.088	35008.66
455.294	35510.41
455.5	35844.23
455.705	36212.87
455.911	34900.12
456.117	34019.49
456.323	33767.59
456.529	32018.63
456.735	33050.8
456.941	32260.29
457.147	31840.45
457.352	31064.27
457.558	30476.51
457.764	30148.83
457.97	30390.49
458.176	29645.03
458.381	29563.11
458.587	27988.22
458.793	27713.8
458.999	26609.94
459.204	28371.19
459.41	27795.71
459.616	25870.62
459.821	25710.88
460.027	25471.27
460.233	25262.38
460.438	24017.21
460.644	24383.8
460.85	23281.99
461.055	22583.63
461.261	22608.21
461.466	21115.24
461.672	20480.37
461.878	21729.63
462.083	20251
462.289	20101.5
462.494	19716.48
462.7	18940.3
462.905	18194.84
463.111	18842
463.316	18917.77
463.522	18846.09
463.727	18563.47
463.932	18528.66
464.138	18026.9
464.343	18297.24
464.549	17525.15
464.754	18233.75
464.959	18370.96
465.165	18190.74
465.37	17375.65
465.575	16863.66
465.781	17596.83
465.986	17553.82
466.191	16908.71
466.397	16679.34
466.602	15866.3
