Data from USB4F104151__308__14-35-03-045.txt Node

Date: Thu Mar 13 14:35:03 EDT 2025
User: louis
Spectrometer: USB4F10415
Trigger mode: 4
Integration Time (sec): 2.500000E-2
Scans to average: 1
Electric dark correction enabled: true
Nonlinearity correction enabled: false
Boxcar width: 0
XAxis mode: Wavelengths
Number of Pixels in Spectrum: 3648
>>>>>Begin Spectral Data<<<<<
178.204	-112.98
178.424	-112.98
178.644	-112.98
178.864	-145.75
179.084	-137.56
179.304	18.09
179.524	-22.87
179.744	26.28
179.964	18.09
180.184	-55.64
180.404	83.63
180.624	-4.44
180.844	26.28
181.064	-69.97
181.283	34.47
181.503	-80.21
181.723	26.28
181.943	-2.39
182.163	-6.49
182.383	-35.16
182.602	59.05
182.822	69.29
183.042	-31.06
183.262	34.47
183.482	13.99
183.701	-2.39
183.921	13.99
184.141	28.33
184.361	83.63
184.58	26.28
184.8	46.76
185.02	18.09
185.239	18.09
185.459	-14.68
185.679	71.34
185.898	-6.49
186.118	108.2
186.338	52.91
186.557	34.47
186.777	-0.34
186.997	34.47
187.216	9.9
187.436	95.91
187.655	100.01
187.875	26.28
188.095	18.09
188.314	30.38
188.534	112.3
188.753	42.67
188.973	11.95
189.192	67.24
189.412	69.29
189.631	118.44
189.851	75.43
190.07	110.25
190.29	-20.82
190.509	42.67
190.729	159.4
190.948	46.76
191.168	173.74
191.387	20.14
191.607	30.38
191.826	-39.25
192.045	34.47
192.265	11.95
192.484	63.15
192.704	52.91
192.923	-4.44
193.142	165.54
193.362	1.71
193.581	91.82
193.8	36.52
194.02	67.24
194.239	5.8
194.458	50.86
194.678	65.19
194.897	71.34
195.116	36.52
195.335	91.82
195.555	20.14
195.774	75.43
195.993	59.05
196.212	-37.2
196.432	-20.82
196.651	-16.73
196.87	85.67
197.089	100.01
197.308	-35.16
197.528	95.91
197.747	50.86
197.966	-14.68
198.185	83.63
198.404	120.49
198.623	30.38
198.842	40.62
199.062	126.63
199.281	71.34
199.5	-14.68
199.719	100.01
199.938	22.19
200.157	36.52
200.376	50.86
200.595	63.15
200.814	-22.87
201.033	54.95
201.252	57
201.471	54.95
201.69	100.01
201.909	28.33
202.128	59.05
202.347	36.52
202.566	34.47
202.785	61.1
203.004	9.9
203.223	67.24
203.442	-2.39
203.661	9.9
203.879	-4.44
204.098	118.44
204.317	-22.87
204.536	22.19
204.755	44.71
204.974	126.63
205.193	65.19
205.411	38.57
205.63	95.91
205.849	-6.49
206.068	-29.01
206.287	24.23
206.505	91.82
206.724	110.25
206.943	1.71
207.162	-39.25
207.381	26.28
207.599	30.38
207.818	42.67
208.037	42.67
208.255	-18.77
208.474	42.67
208.693	32.43
208.911	38.57
209.13	34.47
209.349	28.33
209.567	52.91
209.786	59.05
210.005	67.24
210.223	36.52
210.442	34.47
210.661	13.99
210.879	-20.82
211.098	87.72
211.316	-6.49
211.535	52.91
211.753	100.01
211.972	-14.68
212.191	46.76
212.409	30.38
212.628	50.86
212.846	77.48
213.065	44.71
213.283	9.9
213.502	59.05
213.72	50.86
213.938	7.85
214.157	104.11
214.375	77.48
214.594	42.67
214.812	67.24
215.031	61.1
215.249	108.2
215.467	108.2
215.686	48.81
215.904	75.43
216.122	116.39
216.341	161.45
216.559	-8.53
216.778	79.53
216.996	48.81
217.214	-4.44
217.432	-43.35
217.651	1.71
217.869	-14.68
218.087	63.15
218.306	20.14
218.524	5.8
218.742	9.9
218.96	85.67
219.179	59.05
219.397	75.43
219.615	171.69
219.833	57
220.051	34.47
220.27	83.63
220.488	-10.58
220.706	91.82
220.924	54.95
221.142	52.91
221.36	134.82
221.578	46.76
221.796	48.81
222.015	50.86
222.233	73.39
222.451	38.57
222.669	11.95
222.887	32.43
223.105	11.95
223.323	34.47
223.541	20.14
223.759	-0.34
223.977	1.71
224.195	85.67
224.413	38.57
224.631	46.76
224.849	40.62
225.067	75.43
225.285	30.38
225.503	59.05
225.721	26.28
225.939	28.33
226.157	-55.64
226.375	116.39
226.592	48.81
226.81	26.28
227.028	108.2
227.246	100.01
227.464	54.95
227.682	50.86
227.9	79.53
228.117	67.24
228.335	30.38
228.553	3.75
228.771	126.63
228.989	63.15
229.206	1.71
229.424	87.72
229.642	32.43
229.86	30.38
230.077	83.63
230.295	130.73
230.513	83.63
230.731	-4.44
230.948	26.28
231.166	59.05
231.384	28.33
231.601	61.1
231.819	120.49
232.037	52.91
232.254	-24.92
232.472	75.43
232.689	46.76
232.907	79.53
233.125	34.47
233.342	1.71
233.56	9.9
233.777	-76.12
233.995	-55.64
234.213	110.25
234.43	30.38
234.648	40.62
234.865	83.63
235.083	85.67
235.3	46.76
235.518	114.34
235.735	73.39
235.953	95.91
236.17	-18.77
236.388	42.67
236.605	-22.87
236.822	50.86
237.04	50.86
237.257	34.47
237.475	-65.88
237.692	104.11
237.909	34.47
238.127	-41.3
238.344	75.43
238.562	3.75
238.779	-59.73
238.996	85.67
239.214	11.95
239.431	95.91
239.648	116.39
239.865	112.3
240.083	40.62
240.3	61.1
240.517	11.95
240.735	83.63
240.952	75.43
241.169	87.72
241.386	32.43
241.603	-10.58
241.821	13.99
242.038	100.01
242.255	120.49
242.472	-96.6
242.689	52.91
242.907	116.39
243.124	52.91
243.341	20.14
243.558	22.19
243.775	18.09
243.992	36.52
244.209	63.15
244.426	173.74
244.643	30.38
244.86	77.48
245.078	75.43
245.295	44.71
245.512	44.71
245.729	42.67
245.946	50.86
246.163	16.04
246.38	59.05
246.597	44.71
246.814	46.76
247.031	26.28
247.248	59.05
247.464	108.2
247.681	1.71
247.898	1.71
248.115	130.73
248.332	36.52
248.549	128.68
248.766	59.05
248.983	106.15
249.2	34.47
249.417	28.33
249.633	67.24
249.85	-22.87
250.067	136.87
250.284	69.29
250.501	-8.53
250.717	50.86
250.934	-26.96
251.151	-31.06
251.368	85.67
251.585	112.3
251.801	50.86
252.018	26.28
252.235	59.05
252.451	42.67
252.668	16.04
252.885	28.33
253.102	20.14
253.318	54.95
253.535	-29.01
253.752	18.09
253.968	-22.87
254.185	57
254.401	16.04
254.618	79.53
254.835	-35.16
255.051	67.24
255.268	30.38
255.484	46.76
255.701	1.71
255.917	83.63
256.134	26.28
256.351	124.58
256.567	9.9
256.784	63.15
257	-39.25
257.217	28.33
257.433	11.95
257.65	52.91
257.866	50.86
258.082	34.47
258.299	22.19
258.515	104.11
258.732	59.05
258.948	13.99
259.165	32.43
259.381	52.91
259.597	128.68
259.814	22.19
260.03	85.67
260.246	44.71
260.463	81.58
260.679	100.01
260.895	18.09
261.112	79.53
261.328	34.47
261.544	24.23
261.761	173.74
261.977	-51.54
262.193	44.71
262.409	132.78
262.626	52.91
262.842	42.67
263.058	26.28
263.274	13.99
263.49	93.87
263.707	114.34
263.923	9.9
264.139	9.9
264.355	75.43
264.571	50.86
264.787	104.11
265.004	161.45
265.22	1.71
265.436	30.38
265.652	-6.49
265.868	50.86
266.084	75.43
266.3	5.8
266.516	-63.83
266.732	67.24
266.948	77.48
267.164	61.1
267.38	44.71
267.596	38.57
267.812	85.67
268.028	112.3
268.244	16.04
268.46	63.15
268.676	-6.49
268.892	42.67
269.108	-26.96
269.324	61.1
269.54	52.91
269.756	48.81
269.972	-29.01
270.188	50.86
270.403	20.14
270.619	-4.44
270.835	-6.49
271.051	44.71
271.267	28.33
271.483	48.81
271.698	18.09
271.914	11.95
272.13	3.75
272.346	71.34
272.562	30.38
272.777	77.48
272.993	91.82
273.209	44.71
273.425	11.95
273.64	7.85
273.856	52.91
274.072	44.71
274.287	-39.25
274.503	67.24
274.719	61.1
274.934	-2.39
275.15	3.75
275.366	54.95
275.581	50.86
275.797	34.47
276.012	42.67
276.228	75.43
276.444	63.15
276.659	50.86
276.875	-2.39
277.09	118.44
277.306	32.43
277.521	44.71
277.737	50.86
277.952	173.74
278.168	50.86
278.383	13.99
278.599	87.72
278.814	61.1
279.03	-29.01
279.245	83.63
279.461	3.75
279.676	100.01
279.892	-61.78
280.107	46.76
280.322	48.81
280.538	69.29
280.753	65.19
280.969	-37.2
281.184	13.99
281.399	100.01
281.615	100.01
281.83	71.34
282.045	69.29
282.26	34.47
282.476	61.1
282.691	83.63
282.906	77.48
283.122	61.1
283.337	9.9
283.552	9.9
283.767	59.05
283.983	140.97
284.198	22.19
284.413	91.82
284.628	9.9
284.843	-2.39
285.058	91.82
285.274	-18.77
285.489	-2.39
285.704	22.19
285.919	26.28
286.134	97.96
286.349	22.19
286.564	59.05
286.779	194.22
286.995	50.86
287.21	-39.25
287.425	-12.63
287.64	85.67
287.855	95.91
288.07	-22.87
288.285	38.57
288.5	104.11
288.715	93.87
288.93	30.38
289.145	-43.35
289.36	-4.44
289.575	36.52
289.79	85.67
290.004	24.23
290.219	48.81
290.434	38.57
290.649	116.39
290.864	67.24
291.079	36.52
291.294	-4.44
291.509	44.71
291.724	67.24
291.938	9.9
292.153	79.53
292.368	11.95
292.583	85.67
292.798	67.24
293.012	42.67
293.227	3.75
293.442	65.19
293.657	71.34
293.871	73.39
294.086	52.91
294.301	153.26
294.516	67.24
294.73	97.96
294.945	63.15
295.16	1.71
295.374	71.34
295.589	57
295.804	63.15
296.018	9.9
296.233	136.87
296.447	79.53
296.662	22.19
296.877	95.91
297.091	83.63
297.306	73.39
297.52	-35.16
297.735	18.09
297.949	50.86
298.164	3.75
298.378	-22.87
298.593	11.95
298.807	-0.34
299.022	124.58
299.236	124.58
299.451	-47.44
299.665	1.71
299.88	-6.49
300.094	50.86
300.309	38.57
300.523	124.58
300.737	28.33
300.952	118.44
301.166	48.81
301.381	52.91
301.595	34.47
301.809	95.91
302.024	50.86
302.238	-12.63
302.452	18.09
302.667	24.23
302.881	118.44
303.095	104.11
303.309	124.58
303.524	50.86
303.738	57
303.952	22.19
304.166	110.25
304.381	-16.73
304.595	42.67
304.809	54.95
305.023	83.63
305.237	87.72
305.452	50.86
305.666	67.24
305.88	30.38
306.094	36.52
306.308	32.43
306.522	136.87
306.736	18.09
306.95	71.34
307.164	18.09
307.379	26.28
307.593	87.72
307.807	132.78
308.021	83.63
308.235	71.34
308.449	-4.44
308.663	16.04
308.877	124.58
309.091	3.75
309.305	132.78
309.519	28.33
309.733	59.05
309.947	-4.44
310.161	108.2
310.374	-0.34
310.588	106.15
310.802	-35.16
311.016	52.91
311.23	91.82
311.444	28.33
311.658	81.58
311.872	-6.49
312.085	95.91
312.299	42.67
312.513	87.72
312.727	54.95
312.941	-22.87
313.154	26.28
313.368	42.67
313.582	81.58
313.796	61.1
314.009	42.67
314.223	85.67
314.437	54.95
314.651	5.8
314.864	9.9
315.078	13.99
315.292	-61.78
315.505	97.96
315.719	61.1
315.933	59.05
316.146	69.29
316.36	93.87
316.573	-6.49
316.787	44.71
317.001	48.81
317.214	28.33
317.428	95.91
317.641	-24.92
317.855	50.86
318.068	22.19
318.282	26.28
318.495	112.3
318.709	44.71
318.922	28.33
319.136	54.95
319.349	3.75
319.563	52.91
319.776	67.24
319.99	50.86
320.203	79.53
320.417	30.38
320.63	36.52
320.843	138.92
321.057	128.68
321.27	9.9
321.483	20.14
321.697	69.29
321.91	54.95
322.124	83.63
322.337	50.86
322.55	44.71
322.763	50.86
322.977	57
323.19	52.91
323.403	59.05
323.617	75.43
323.83	9.9
324.043	34.47
324.256	69.29
324.469	75.43
324.683	44.71
324.896	67.24
325.109	26.28
325.322	-49.49
325.535	54.95
325.748	5.8
325.962	46.76
326.175	50.86
326.388	38.57
326.601	59.05
326.814	52.91
327.027	95.91
327.24	91.82
327.453	3.75
327.666	77.48
327.879	59.05
328.092	67.24
328.305	97.96
328.518	126.63
328.731	36.52
328.944	87.72
329.157	102.06
329.37	52.91
329.583	118.44
329.796	91.82
330.009	18.09
330.222	100.01
330.435	75.43
330.648	116.39
330.861	28.33
331.073	95.91
331.286	108.2
331.499	61.1
331.712	18.09
331.925	36.52
332.138	42.67
332.35	1.71
332.563	-16.73
332.776	38.57
332.989	20.14
333.202	87.72
333.414	1.71
333.627	59.05
333.84	-22.87
334.053	71.34
334.265	32.43
334.478	100.01
334.691	-22.87
334.903	50.86
335.116	30.38
335.329	112.3
335.541	38.57
335.754	42.67
335.966	75.43
336.179	-26.96
336.392	-14.68
336.604	38.57
336.817	165.54
337.029	124.58
337.242	63.15
337.454	30.38
337.667	-24.92
337.88	85.67
338.092	91.82
338.305	36.52
338.517	-61.78
338.729	110.25
338.942	75.43
339.154	-41.3
339.367	5.8
339.579	50.86
339.792	95.91
340.004	69.29
340.217	32.43
340.429	85.67
340.641	11.95
340.854	61.1
341.066	42.67
341.278	108.2
341.491	83.63
341.703	30.38
341.915	-47.44
342.128	46.76
342.34	91.82
342.552	26.28
342.764	40.62
342.977	71.34
343.189	30.38
343.401	-2.39
343.613	38.57
343.826	71.34
344.038	-12.63
344.25	151.21
344.462	5.8
344.674	83.63
344.886	42.67
345.099	59.05
345.311	77.48
345.523	59.05
345.735	9.9
345.947	93.87
346.159	75.43
346.371	61.1
346.583	40.62
346.795	147.11
347.007	61.1
347.219	100.01
347.431	30.38
347.643	93.87
347.855	30.38
348.067	75.43
348.279	-78.16
348.491	46.76
348.703	126.63
348.915	140.97
349.127	5.8
349.339	28.33
349.551	-41.3
349.763	75.43
349.975	34.47
350.187	42.67
350.399	77.48
350.61	20.14
350.822	42.67
351.034	63.15
351.246	26.28
351.458	36.52
351.669	85.67
351.881	110.25
352.093	38.57
352.305	161.45
352.517	-16.73
352.728	116.39
352.94	11.95
353.152	79.53
353.363	3.75
353.575	42.67
353.787	69.29
353.999	108.2
354.21	108.2
354.422	18.09
354.633	38.57
354.845	67.24
355.057	102.06
355.268	108.2
355.48	102.06
355.692	-4.44
355.903	52.91
356.115	26.28
356.326	-31.06
356.538	87.72
356.749	36.52
356.961	79.53
357.172	20.14
357.384	85.67
357.595	132.78
357.807	9.9
358.018	52.91
358.23	69.29
358.441	91.82
358.653	108.2
358.864	59.05
359.075	-2.39
359.287	102.06
359.498	44.71
359.709	108.2
359.921	34.47
360.132	102.06
360.344	91.82
360.555	26.28
360.766	114.34
360.977	18.09
361.189	87.72
361.4	-31.06
361.611	44.71
361.823	120.49
362.034	71.34
362.245	75.43
362.456	20.14
362.667	116.39
362.879	22.19
363.09	20.14
363.301	18.09
363.512	69.29
363.723	54.95
363.935	52.91
364.146	52.91
364.357	77.48
364.568	36.52
364.779	-47.44
364.99	106.15
365.201	112.3
365.412	93.87
365.623	26.28
365.834	126.63
366.045	67.24
366.256	110.25
366.467	83.63
366.678	110.25
366.889	161.45
367.1	157.35
367.311	3.75
367.522	75.43
367.733	67.24
367.944	83.63
368.155	89.77
368.366	132.78
368.577	108.2
368.788	136.87
368.999	85.67
369.209	124.58
369.42	128.68
369.631	206.5
369.842	102.06
370.053	34.47
370.264	5.8
370.474	50.86
370.685	59.05
370.896	85.67
371.107	102.06
371.317	18.09
371.528	34.47
371.739	83.63
371.95	95.91
372.16	75.43
372.371	20.14
372.582	3.75
372.792	42.67
373.003	26.28
373.214	69.29
373.424	67.24
373.635	-4.44
373.846	140.97
374.056	59.05
374.267	106.15
374.477	50.86
374.688	48.81
374.898	61.1
375.109	100.01
375.319	9.9
375.53	16.04
375.74	159.4
375.951	100.01
376.161	9.9
376.372	91.82
376.582	77.48
376.793	91.82
377.003	79.53
377.214	100.01
377.424	83.63
377.635	100.01
377.845	67.24
378.055	155.3
378.266	61.1
378.476	100.01
378.686	112.3
378.897	100.01
379.107	149.16
379.317	59.05
379.528	69.29
379.738	116.39
379.948	-4.44
380.158	97.96
380.369	108.2
380.579	149.16
380.789	75.43
380.999	132.78
381.21	122.54
381.42	89.77
381.63	46.76
381.84	65.19
382.05	126.63
382.261	95.91
382.471	126.63
382.681	79.53
382.891	104.11
383.101	114.34
383.311	9.9
383.521	108.2
383.731	134.82
383.941	38.57
384.151	124.58
384.361	134.82
384.571	20.14
384.781	34.47
384.991	159.4
385.201	108.2
385.411	34.47
385.621	91.82
385.831	134.82
386.041	73.39
386.251	69.29
386.461	192.17
386.671	95.91
386.881	-4.44
387.091	36.52
387.301	95.91
387.511	52.91
387.72	75.43
387.93	134.82
388.14	46.76
388.35	36.52
388.56	122.54
388.769	91.82
388.979	83.63
389.189	65.19
389.399	91.82
389.609	52.91
389.818	83.63
390.028	63.15
390.238	26.28
390.447	34.47
390.657	134.82
390.867	5.8
391.076	134.82
391.286	95.91
391.496	73.39
391.705	75.43
391.915	100.01
392.125	108.2
392.334	106.15
392.544	140.97
392.753	110.25
392.963	48.81
393.172	124.58
393.382	140.97
393.591	112.3
393.801	159.4
394.01	132.78
394.22	83.63
394.429	91.82
394.639	54.95
394.848	79.53
395.058	71.34
395.267	54.95
395.477	128.68
395.686	149.16
395.895	186.02
396.105	132.78
396.314	118.44
396.524	116.39
396.733	87.72
396.942	143.02
397.152	155.3
397.361	93.87
397.57	149.16
397.78	110.25
397.989	26.28
398.198	159.4
398.407	108.2
398.617	112.3
398.826	36.52
399.035	157.35
399.244	186.02
399.453	118.44
399.663	140.97
399.872	198.31
400.081	118.44
400.29	175.78
400.499	147.11
400.708	116.39
400.917	173.74
401.127	231.08
401.336	112.3
401.545	136.87
401.754	134.82
401.963	218.79
402.172	167.59
402.381	222.89
402.59	145.06
402.799	165.54
403.008	167.59
403.217	239.27
403.426	192.17
403.635	143.02
403.844	108.2
404.053	181.93
404.262	93.87
404.471	378.53
404.68	157.35
404.888	259.75
405.097	218.79
405.306	226.98
405.515	192.17
405.724	173.74
405.933	130.73
406.142	169.64
406.35	247.46
406.559	165.54
406.768	229.03
406.977	333.48
407.185	288.42
407.394	317.09
407.603	220.84
407.812	292.52
408.02	272.04
408.229	292.52
408.438	300.71
408.646	292.52
408.855	276.13
409.064	396.96
409.272	347.81
409.481	315.05
409.69	323.24
409.898	313
410.107	427.68
410.315	411.3
410.524	396.96
410.733	448.16
410.941	468.64
411.15	501.41
411.358	468.64
411.567	521.89
411.775	511.65
411.984	425.64
412.192	566.95
412.401	585.38
412.609	595.62
412.818	655.01
413.026	689.82
413.234	577.19
413.443	609.95
413.651	591.52
413.86	612
414.068	700.06
414.276	763.55
414.485	775.84
414.693	853.66
414.901	861.85
415.11	1021.6
415.318	974.49
415.526	956.06
415.734	984.73
415.943	954.01
416.151	1027.74
416.359	997.02
416.567	1054.36
416.776	1205.91
416.984	1210.01
417.192	1214.1
417.4	1296.02
417.608	1189.53
417.817	1265.3
418.025	1412.76
418.233	1494.68
418.441	1427.09
418.649	1490.58
418.857	1595.03
419.065	1722
419.273	1623.7
419.481	1771.15
419.689	1836.69
419.897	1861.26
420.105	1844.88
420.313	1949.32
420.521	2027.15
420.729	2025.1
420.937	2059.92
421.145	2238.09
421.353	2213.51
421.561	2371.21
421.769	2338.44
421.977	2614.91
422.185	2506.37
422.393	2815.62
422.601	2799.23
422.809	2778.75
423.017	2903.68
423.224	2977.41
423.432	3178.11
423.64	3016.32
423.848	3556.98
424.056	3264.12
424.263	3655.28
424.471	3573.36
424.679	3671.67
424.887	3860.08
425.094	3864.18
425.302	3991.15
425.51	4040.3
425.718	4109.93
425.925	4236.91
426.133	4449.89
426.341	4765.28
426.548	4916.83
426.756	4681.32
426.964	4884.06
427.171	5144.16
427.379	5256.79
427.586	5275.23
427.794	5582.42
428.001	5830.23
428.209	6123.09
428.417	5967.44
428.624	6407.75
428.832	6463.05
429.039	6403.66
429.247	6323.79
429.454	6956.61
429.662	7220.8
429.869	7036.48
430.076	7358.01
430.284	7190.08
430.491	7575.1
430.699	7972.4
430.906	7972.4
431.114	8087.09
431.321	8177.2
431.528	8545.83
431.736	8982.05
431.943	9514.52
432.15	9197.09
432.358	9299.48
432.565	9887.25
432.772	9922.07
432.979	10139.15
433.187	10249.74
433.394	10528.27
433.601	11218.43
433.808	11177.47
434.016	11302.4
434.223	11634.17
434.43	12332.53
434.637	12183.02
434.844	12852.71
435.052	13008.36
435.259	12766.7
435.466	13037.03
435.673	13077.99
435.88	13673.95
436.087	14489.04
436.294	14337.49
436.501	14126.55
436.708	14501.33
436.915	14849.48
437.122	15670.72
437.329	15613.37
437.537	15953.34
437.743	16010.68
437.95	15998.39
438.157	17143.21
438.364	17276.32
438.571	17538.46
438.778	17667.49
438.985	18744.72
439.192	18441.62
439.399	19090.82
439.606	18335.12
439.813	19703.17
440.02	20876.65
440.227	20297.08
440.433	20323.7
440.64	20825.45
440.847	20784.49
441.054	21237.09
441.261	22644.05
441.467	22371.67
441.674	22861.13
441.881	23622.98
442.088	23864.64
442.294	23205.19
442.501	23698.75
442.708	24501.56
442.914	25163.05
443.121	26668.31
443.328	25748.77
443.534	27510.02
443.741	26746.13
443.948	26324.25
444.154	28353.79
444.361	28282.11
444.568	28251.39
444.774	28333.31
444.981	29013.23
445.187	29570.28
445.394	30749.91
445.6	30307.55
445.807	32963.76
446.013	31339.72
446.22	31741.13
446.426	33539.24
446.633	33959.08
446.839	35044.5
447.046	33141.94
447.252	35314.83
447.459	35599.5
447.665	35196.05
447.871	37000.31
448.078	38390.88
448.284	36582.52
448.491	37772.39
448.697	38861.91
448.903	39636.05
449.11	39840.84
449.316	38677.6
449.522	39998.54
449.728	40903.74
449.935	41489.46
450.141	40995.9
450.347	41974.83
450.553	40918.07
450.76	41323.57
450.966	42572.83
451.172	42189.86
451.378	43400.21
451.584	42499.11
451.791	43605.01
451.997	43217.94
452.203	44153.86
452.409	44141.58
452.615	43482.13
452.821	42196.01
453.027	41866.28
453.233	44155.91
453.44	42058.79
453.646	42611.74
453.852	42650.66
454.058	43770.89
454.264	41868.33
454.47	43232.28
454.676	41688.11
454.882	43398.16
455.088	40004.68
455.294	40399.94
455.5	40787
455.705	41006.14
455.911	39717.96
456.117	39009.37
456.323	38818.91
456.529	36410.5
456.735	38157.41
456.941	37117.04
457.147	36658.3
457.352	35347.6
457.558	34786.46
457.764	35093.65
457.97	34469.02
458.176	33625.26
458.381	33639.59
458.587	31980.74
458.793	31528.14
458.999	30262.49
459.204	32351.42
459.41	31630.54
459.616	29459.69
459.821	29562.09
460.027	29308.14
460.233	28689.65
460.438	27473.16
460.644	27456.78
460.85	26268.95
461.055	25660.71
461.261	25959.71
461.466	23815.49
461.672	23131.47
461.878	25040.17
462.083	22988.11
462.289	22848.85
462.494	22547.79
462.7	21638.5
462.905	20872.56
463.111	21511.52
463.316	21900.64
463.522	21060.97
463.727	20907.37
463.932	21138.79
464.138	20792.69
464.343	20942.19
464.549	20514.16
464.754	20890.99
464.959	20759.92
465.165	20589.94
465.37	19778.94
465.575	19168.65
465.781	19965.31
465.986	19895.68
466.191	19484.03
466.397	18869.64
