Data from USB4F104151__136__14-31-46-002.txt Node

Date: Thu Mar 13 14:31:46 EDT 2025
User: louis
Spectrometer: USB4F10415
Trigger mode: 4
Integration Time (sec): 2.500000E-2
Scans to average: 1
Electric dark correction enabled: true
Nonlinearity correction enabled: false
Boxcar width: 0
XAxis mode: Wavelengths
Number of Pixels in Spectrum: 3648
>>>>>Begin Spectral Data<<<<<
178.204	-141.65
178.424	-141.65
178.644	-141.65
178.864	-129.36
179.084	-94.55
179.304	50.86
179.524	1.71
179.744	-2.39
179.964	18.09
180.184	42.67
180.404	79.53
180.624	13.99
180.844	-61.78
181.064	-112.98
181.283	-74.07
181.503	-6.49
181.723	50.86
181.943	-51.54
182.163	67.24
182.383	13.99
182.602	42.67
182.822	149.16
183.042	63.15
183.262	-67.92
183.482	97.96
183.701	-10.58
183.921	1.71
184.141	-69.97
184.361	-14.68
184.58	-47.44
184.8	20.14
185.02	18.09
185.239	79.53
185.459	26.28
185.679	-6.49
185.898	1.71
186.118	-6.49
186.338	95.91
186.557	42.67
186.777	30.38
186.997	-39.25
187.216	-18.77
187.436	30.38
187.655	34.47
187.875	50.86
188.095	-12.63
188.314	34.47
188.534	20.14
188.753	11.95
188.973	54.95
189.192	3.75
189.412	34.47
189.631	22.19
189.851	-18.77
190.07	32.43
190.29	3.75
190.509	44.71
190.729	-45.4
190.948	13.99
191.168	63.15
191.387	18.09
191.607	61.1
191.826	-16.73
192.045	5.8
192.265	1.71
192.484	-2.39
192.704	13.99
192.923	-90.45
193.142	104.11
193.362	30.38
193.581	52.91
193.8	-22.87
194.02	32.43
194.239	-14.68
194.458	9.9
194.678	34.47
194.897	-55.64
195.116	-39.25
195.335	-45.4
195.555	18.09
195.774	3.75
195.993	-72.02
196.212	-61.78
196.432	-41.3
196.651	30.38
196.87	-14.68
197.089	79.53
197.308	36.52
197.528	11.95
197.747	-78.16
197.966	1.71
198.185	-2.39
198.404	-31.06
198.623	-22.87
198.842	75.43
199.062	42.67
199.281	75.43
199.5	67.24
199.719	-8.53
199.938	63.15
200.157	52.91
200.376	3.75
200.595	5.8
200.814	38.57
201.033	-47.44
201.252	34.47
201.471	-47.44
201.69	69.29
201.909	13.99
202.128	54.95
202.347	26.28
202.566	-63.83
202.785	-4.44
203.004	18.09
203.223	120.49
203.442	-18.77
203.661	-69.97
203.879	-6.49
204.098	3.75
204.317	-2.39
204.536	1.71
204.755	11.95
204.974	28.33
205.193	28.33
205.411	57
205.63	5.8
205.849	54.95
206.068	1.71
206.287	-2.39
206.505	50.86
206.724	46.76
206.943	20.14
207.162	-2.39
207.381	-47.44
207.599	22.19
207.818	-47.44
208.037	34.47
208.255	13.99
208.474	-8.53
208.693	87.72
208.911	75.43
209.13	52.91
209.349	20.14
209.567	63.15
209.786	52.91
210.005	-12.63
210.223	28.33
210.442	-22.87
210.661	69.29
210.879	-14.68
211.098	32.43
211.316	30.38
211.535	20.14
211.753	50.86
211.972	-22.87
212.191	-35.16
212.409	22.19
212.628	-55.64
212.846	9.9
213.065	9.9
213.283	30.38
213.502	-10.58
213.72	44.71
213.938	18.09
214.157	3.75
214.375	85.67
214.594	3.75
214.812	11.95
215.031	-8.53
215.249	-6.49
215.467	16.04
215.686	26.28
215.904	46.76
216.122	-35.16
216.341	1.71
216.559	5.8
216.778	34.47
216.996	83.63
217.214	-39.25
217.432	1.71
217.651	-49.49
217.869	-55.64
218.087	-22.87
218.306	-31.06
218.524	26.28
218.742	1.71
218.96	67.24
219.179	-16.73
219.397	-12.63
219.615	28.33
219.833	40.62
220.051	42.67
220.27	91.82
220.488	67.24
220.706	5.8
220.924	-20.82
221.142	52.91
221.36	9.9
221.578	-14.68
221.796	-72.02
222.015	-22.87
222.233	71.34
222.451	46.76
222.669	-72.02
222.887	9.9
223.105	13.99
223.323	-22.87
223.541	3.75
223.759	-10.58
223.977	3.75
224.195	120.49
224.413	120.49
224.631	9.9
224.849	-22.87
225.067	52.91
225.285	16.04
225.503	-45.4
225.721	-14.68
225.939	18.09
226.157	18.09
226.375	5.8
226.592	-12.63
226.81	9.9
227.028	-6.49
227.246	79.53
227.464	42.67
227.682	54.95
227.9	46.76
228.117	46.76
228.335	50.86
228.553	61.1
228.771	59.05
228.989	34.47
229.206	-53.59
229.424	81.58
229.642	3.75
229.86	-29.01
230.077	18.09
230.295	22.19
230.513	50.86
230.731	18.09
230.948	-29.01
231.166	20.14
231.384	42.67
231.601	18.09
231.819	13.99
232.037	65.19
232.254	3.75
232.472	22.19
232.689	-18.77
232.907	40.62
233.125	11.95
233.342	-39.25
233.56	-26.96
233.777	57
233.995	20.14
234.213	5.8
234.43	-14.68
234.648	46.76
234.865	-14.68
235.083	9.9
235.3	-20.82
235.518	87.72
235.735	11.95
235.953	-35.16
236.17	-45.4
236.388	-72.02
236.605	-4.44
236.822	1.71
237.04	34.47
237.257	-22.87
237.475	-57.68
237.692	-10.58
237.909	-29.01
238.127	46.76
238.344	-4.44
238.562	91.82
238.779	11.95
238.996	-67.92
239.214	-59.73
239.431	13.99
239.648	3.75
239.865	20.14
240.083	-12.63
240.3	-47.44
240.517	-24.92
240.735	-6.49
240.952	91.82
241.169	-4.44
241.386	38.57
241.603	34.47
241.821	-8.53
242.038	67.24
242.255	18.09
242.472	-14.68
242.689	9.9
242.907	30.38
243.124	46.76
243.341	24.23
243.558	-20.82
243.775	26.28
243.992	-26.96
244.209	-4.44
244.426	20.14
244.643	100.01
244.86	-80.21
245.078	32.43
245.295	18.09
245.512	-22.87
245.729	-24.92
245.946	46.76
246.163	54.95
246.38	-12.63
246.597	-4.44
246.814	11.95
247.031	9.9
247.248	-6.49
247.464	-10.58
247.681	34.47
247.898	18.09
248.115	34.47
248.332	-18.77
248.549	34.47
248.766	59.05
248.983	81.58
249.2	52.91
249.417	-6.49
249.633	34.47
249.85	-4.44
250.067	-53.59
250.284	75.43
250.501	34.47
250.717	42.67
250.934	61.1
251.151	-26.96
251.368	-2.39
251.585	18.09
251.801	20.14
252.018	26.28
252.235	38.57
252.451	-31.06
252.668	11.95
252.885	24.23
253.102	3.75
253.318	-31.06
253.535	-65.88
253.752	-41.3
253.968	13.99
254.185	42.67
254.401	42.67
254.618	9.9
254.835	20.14
255.051	69.29
255.268	-6.49
255.484	34.47
255.701	-26.96
255.917	128.68
256.134	-12.63
256.351	9.9
256.567	-16.73
256.784	85.67
257	-69.97
257.217	77.48
257.433	69.29
257.65	18.09
257.866	-47.44
258.082	-14.68
258.299	-63.83
258.515	65.19
258.732	-67.92
258.948	-14.68
259.165	26.28
259.381	46.76
259.597	42.67
259.814	-14.68
260.03	-2.39
260.246	36.52
260.463	5.8
260.679	59.05
260.895	1.71
261.112	44.71
261.328	-14.68
261.544	-80.21
261.761	11.95
261.977	26.28
262.193	-16.73
262.409	83.63
262.626	-4.44
262.842	67.24
263.058	-10.58
263.274	32.43
263.49	-57.68
263.707	38.57
263.923	30.38
264.139	-22.87
264.355	28.33
264.571	20.14
264.787	-6.49
265.004	108.2
265.22	16.04
265.436	38.57
265.652	7.85
265.868	87.72
266.084	-74.07
266.3	1.71
266.516	-43.35
266.732	1.71
266.948	9.9
267.164	-45.4
267.38	5.8
267.596	38.57
267.812	71.34
268.028	18.09
268.244	22.19
268.46	-12.63
268.676	75.43
268.892	54.95
269.108	-55.64
269.324	18.09
269.54	-74.07
269.756	-18.77
269.972	-78.16
270.188	16.04
270.403	-20.82
270.619	-37.2
270.835	48.81
271.051	110.25
271.267	20.14
271.483	-20.82
271.698	-0.34
271.914	67.24
272.13	36.52
272.346	34.47
272.562	-39.25
272.777	59.05
272.993	89.77
273.209	1.71
273.425	-10.58
273.64	-61.78
273.856	-12.63
274.072	-39.25
274.287	-24.92
274.503	-0.34
274.719	16.04
274.934	-12.63
275.15	18.09
275.366	18.09
275.581	1.71
275.797	-10.58
276.012	18.09
276.228	13.99
276.444	9.9
276.659	122.54
276.875	-61.78
277.09	34.47
277.306	-14.68
277.521	-4.44
277.737	-14.68
277.952	67.24
278.168	-14.68
278.383	38.57
278.599	87.72
278.814	93.87
279.03	36.52
279.245	30.38
279.461	9.9
279.676	-10.58
279.892	-67.92
280.107	83.63
280.322	5.8
280.538	91.82
280.753	34.47
280.969	20.14
281.184	30.38
281.399	-6.49
281.615	18.09
281.83	13.99
282.045	-0.34
282.26	1.71
282.476	-6.49
282.691	83.63
282.906	20.14
283.122	52.91
283.337	-2.39
283.552	-29.01
283.767	-35.16
283.983	-10.58
284.198	-22.87
284.413	-33.11
284.628	-14.68
284.843	26.28
285.058	-26.96
285.274	22.19
285.489	44.71
285.704	67.24
285.919	100.01
286.134	9.9
286.349	-59.73
286.564	67.24
286.779	16.04
286.995	36.52
287.21	-47.44
287.425	48.81
287.64	42.67
287.855	-41.3
288.07	42.67
288.285	-14.68
288.5	91.82
288.715	26.28
288.93	-14.68
289.145	26.28
289.36	42.67
289.575	-29.01
289.79	85.67
290.004	13.99
290.219	71.34
290.434	18.09
290.649	-10.58
290.864	50.86
291.079	57
291.294	18.09
291.509	13.99
291.724	85.67
291.938	-6.49
292.153	67.24
292.368	30.38
292.583	-14.68
292.798	48.81
293.012	48.81
293.227	-14.68
293.442	30.38
293.657	52.91
293.871	-4.44
294.086	-31.06
294.301	116.39
294.516	46.76
294.73	54.95
294.945	-51.54
295.16	44.71
295.374	-24.92
295.589	28.33
295.804	-39.25
296.018	22.19
296.233	26.28
296.447	-6.49
296.662	-14.68
296.877	48.81
297.091	-31.06
297.306	-10.58
297.52	24.23
297.735	65.19
297.949	-6.49
298.164	34.47
298.378	-88.4
298.593	-72.02
298.807	-49.49
299.022	69.29
299.236	48.81
299.451	18.09
299.665	75.43
299.88	-26.96
300.094	-29.01
300.309	-31.06
300.523	36.52
300.737	5.8
300.952	11.95
301.166	20.14
301.381	-59.73
301.595	-6.49
301.809	-39.25
302.024	-10.58
302.238	16.04
302.452	40.62
302.667	-24.92
302.881	67.24
303.095	1.71
303.309	-39.25
303.524	-18.77
303.738	26.28
303.952	20.14
304.166	57
304.381	-67.92
304.595	42.67
304.809	-0.34
305.023	143.02
305.237	28.33
305.452	11.95
305.666	5.8
305.88	100.01
306.094	3.75
306.308	34.47
306.522	75.43
306.736	85.67
306.95	18.09
307.164	-8.53
307.379	-16.73
307.593	59.05
307.807	-10.58
308.021	26.28
308.235	85.67
308.449	-6.49
308.663	1.71
308.877	69.29
309.091	20.14
309.305	26.28
309.519	-18.77
309.733	69.29
309.947	-112.98
310.161	71.34
310.374	-45.4
310.588	-0.34
310.802	-45.4
311.016	18.09
311.23	-6.49
311.444	18.09
311.658	32.43
311.872	50.86
312.085	13.99
312.299	42.67
312.513	3.75
312.727	-4.44
312.941	28.33
313.154	30.38
313.368	-12.63
313.582	30.38
313.796	42.67
314.009	30.38
314.223	83.63
314.437	36.52
314.651	30.38
314.864	54.95
315.078	-61.78
315.292	-20.82
315.505	-14.68
315.719	5.8
315.933	-37.2
316.146	-61.78
316.36	-6.49
316.573	-2.39
316.787	-47.44
317.001	69.29
317.214	-129.36
317.428	46.76
317.641	-22.87
317.855	-18.77
318.068	42.67
318.282	-14.68
318.495	67.24
318.709	18.09
318.922	57
319.136	46.76
319.349	54.95
319.563	59.05
319.776	5.8
319.99	18.09
320.203	28.33
320.417	-29.01
320.63	85.67
320.843	40.62
321.057	30.38
321.27	34.47
321.483	83.63
321.697	104.11
321.91	89.77
322.124	61.1
322.337	50.86
322.55	-59.73
322.763	42.67
322.977	-14.68
323.19	50.86
323.403	61.1
323.617	-22.87
323.83	5.8
324.043	30.38
324.256	-14.68
324.469	-31.06
324.683	-47.44
324.896	44.71
325.109	67.24
325.322	-0.34
325.535	-43.35
325.748	13.99
325.962	63.15
326.175	-35.16
326.388	22.19
326.601	44.71
326.814	20.14
327.027	-35.16
327.24	34.47
327.453	32.43
327.666	65.19
327.879	85.67
328.092	7.85
328.305	-22.87
328.518	91.82
328.731	75.43
328.944	9.9
329.157	114.34
329.37	-10.58
329.583	18.09
329.796	100.01
330.009	-12.63
330.222	9.9
330.435	20.14
330.648	30.38
330.861	-61.78
331.073	-59.73
331.286	128.68
331.499	34.47
331.712	57
331.925	44.71
332.138	42.67
332.35	46.76
332.563	-39.25
332.776	61.1
332.989	-26.96
333.202	61.1
333.414	-59.73
333.627	-61.78
333.84	18.09
334.053	-20.82
334.265	-8.53
334.478	-47.44
334.691	-22.87
334.903	13.99
335.116	28.33
335.329	26.28
335.541	9.9
335.754	83.63
335.966	54.95
336.179	3.75
336.392	63.15
336.604	9.9
336.817	54.95
337.029	13.99
337.242	95.91
337.454	75.43
337.667	24.23
337.88	83.63
338.092	52.91
338.305	38.57
338.517	-45.4
338.729	50.86
338.942	69.29
339.154	71.34
339.367	18.09
339.579	112.3
339.792	36.52
340.004	61.1
340.217	46.76
340.429	36.52
340.641	-26.96
340.854	30.38
341.066	-26.96
341.278	42.67
341.491	54.95
341.703	1.71
341.915	20.14
342.128	9.9
342.34	9.9
342.552	-41.3
342.764	9.9
342.977	-8.53
343.189	3.75
343.401	-35.16
343.613	20.14
343.826	46.76
344.038	1.71
344.25	-6.49
344.462	-4.44
344.674	59.05
344.886	-6.49
345.099	-37.2
345.311	38.57
345.523	-4.44
345.735	-31.06
345.947	-61.78
346.159	46.76
346.371	63.15
346.583	-6.49
346.795	59.05
347.007	1.71
347.219	-0.34
347.431	-10.58
347.643	110.25
347.855	77.48
348.067	42.67
348.279	-69.97
348.491	-18.77
348.703	40.62
348.915	-43.35
349.127	26.28
349.339	16.04
349.551	40.62
349.763	61.1
349.975	-6.49
350.187	71.34
350.399	50.86
350.61	9.9
350.822	13.99
351.034	54.95
351.246	75.43
351.458	67.24
351.669	79.53
351.881	20.14
352.093	132.78
352.305	61.1
352.517	22.19
352.728	26.28
352.94	50.86
353.152	-10.58
353.363	-8.53
353.575	46.76
353.787	7.85
353.999	122.54
354.21	95.91
354.422	36.52
354.633	26.28
354.845	16.04
355.057	20.14
355.268	32.43
355.48	26.28
355.692	32.43
355.903	20.14
356.115	-22.87
356.326	20.14
356.538	-22.87
356.749	97.96
356.961	34.47
357.172	-39.25
357.384	-35.16
357.595	116.39
357.807	-43.35
358.018	-63.83
358.23	26.28
358.441	91.82
358.653	3.75
358.864	75.43
359.075	-16.73
359.287	18.09
359.498	42.67
359.709	9.9
359.921	34.47
360.132	67.24
360.344	79.53
360.555	-29.01
360.766	3.75
360.977	140.97
361.189	54.95
361.4	18.09
361.611	9.9
361.823	18.09
362.034	-61.78
362.245	-55.64
362.456	50.86
362.667	-6.49
362.879	-4.44
363.09	65.19
363.301	50.86
363.512	40.62
363.723	-2.39
363.935	83.63
364.146	91.82
364.357	-72.02
364.568	59.05
364.779	1.71
364.99	54.95
365.201	-41.3
365.412	145.06
365.623	13.99
365.834	1.71
366.045	-35.16
366.256	26.28
366.467	13.99
366.678	42.67
366.889	-20.82
367.1	75.43
367.311	22.19
367.522	71.34
367.733	104.11
367.944	-10.58
368.155	95.91
368.366	36.52
368.577	36.52
368.788	116.39
368.999	-2.39
369.209	85.67
369.42	9.9
369.631	104.11
369.842	5.8
370.053	5.8
370.264	3.75
370.474	-26.96
370.685	-2.39
370.896	-18.77
371.107	30.38
371.317	69.29
371.528	57
371.739	34.47
371.95	48.81
372.16	26.28
372.371	-47.44
372.582	46.76
372.792	54.95
373.003	48.81
373.214	38.57
373.424	69.29
373.635	-6.49
373.846	13.99
374.056	11.95
374.267	57
374.477	48.81
374.688	-37.2
374.898	26.28
375.109	24.23
375.319	-20.82
375.53	63.15
375.74	-37.2
375.951	1.71
376.161	3.75
376.372	59.05
376.582	-12.63
376.793	46.76
377.003	30.38
377.214	-20.82
377.424	36.52
377.635	20.14
377.845	5.8
378.055	18.09
378.266	-33.11
378.476	67.24
378.686	48.81
378.897	18.09
379.107	34.47
379.317	102.06
379.528	9.9
379.738	104.11
379.948	59.05
380.158	26.28
380.369	1.71
380.579	50.86
380.789	59.05
380.999	3.75
381.21	63.15
381.42	67.24
381.63	-20.82
381.84	165.54
382.05	28.33
382.261	1.71
382.471	52.91
382.681	54.95
382.891	126.63
383.101	46.76
383.311	42.67
383.521	-16.73
383.731	16.04
383.941	100.01
384.151	44.71
384.361	36.52
384.571	1.71
384.781	20.14
384.991	63.15
385.201	59.05
385.411	34.47
385.621	36.52
385.831	-51.54
386.041	48.81
386.251	36.52
386.461	63.15
386.671	50.86
386.881	100.01
387.091	61.1
387.301	134.82
387.511	102.06
387.72	97.96
387.93	77.48
388.14	-41.3
388.35	36.52
388.56	46.76
388.769	67.24
388.979	42.67
389.189	20.14
389.399	50.86
389.609	26.28
389.818	67.24
390.028	-16.73
390.238	3.75
390.447	26.28
390.657	38.57
390.867	100.01
391.076	-26.96
391.286	83.63
391.496	65.19
391.705	50.86
391.915	3.75
392.125	102.06
392.334	16.04
392.544	112.3
392.753	132.78
392.963	-26.96
393.172	79.53
393.382	95.91
393.591	134.82
393.801	-2.39
394.01	28.33
394.22	44.71
394.429	22.19
394.639	44.71
394.848	34.47
395.058	81.58
395.267	9.9
395.477	91.82
395.686	46.76
395.895	59.05
396.105	120.49
396.314	59.05
396.524	-6.49
396.733	85.67
396.942	124.58
397.152	65.19
397.361	128.68
397.57	46.76
397.78	67.24
397.989	50.86
398.198	126.63
398.407	110.25
398.617	52.91
398.826	69.29
399.035	71.34
399.244	132.78
399.453	147.11
399.663	100.01
399.872	59.05
400.081	95.91
400.29	175.78
400.499	52.91
400.708	149.16
400.917	42.67
401.127	93.87
401.336	44.71
401.545	128.68
401.754	106.15
401.963	79.53
402.172	124.58
402.381	52.91
402.59	83.63
402.799	214.7
403.008	194.22
403.217	67.24
403.426	93.87
403.635	54.95
403.844	136.87
404.053	106.15
404.262	108.2
404.471	192.17
404.68	143.02
404.888	124.58
405.097	147.11
405.306	126.63
405.515	231.08
405.724	130.73
405.933	179.88
406.142	173.74
406.35	157.35
406.559	243.37
406.768	171.69
406.977	231.08
407.185	233.13
407.394	239.27
407.603	159.4
407.812	251.56
408.02	263.85
408.229	165.54
408.438	171.69
408.646	208.55
408.855	206.5
409.064	296.61
409.272	304.81
409.481	308.9
409.69	298.66
409.898	302.76
410.107	339.62
410.315	276.13
410.524	313
410.733	341.67
410.941	315.05
411.15	370.34
411.358	378.53
411.567	464.55
411.775	411.3
411.984	485.03
412.192	493.22
412.401	454.31
412.609	540.32
412.818	599.71
413.026	577.19
413.234	609.95
413.443	616.1
413.651	528.03
413.86	632.48
414.068	714.4
414.276	691.87
414.485	710.3
414.693	755.36
414.901	755.36
415.11	640.67
415.318	771.74
415.526	851.61
415.734	843.42
415.943	845.47
416.151	874.14
416.359	886.43
416.567	931.48
416.776	937.63
416.984	1085.08
417.192	1011.36
417.4	1033.88
417.608	1197.72
417.817	1146.52
418.025	1222.3
418.233	1420.95
418.441	1308.31
418.649	1320.6
418.857	1461.91
419.065	1367.7
419.273	1453.72
419.481	1595.03
419.689	1582.74
419.897	1674.9
420.105	1683.09
420.313	1754.77
420.521	1810.06
420.729	1863.31
420.937	1971.85
421.145	1918.61
421.353	2133.64
421.561	2141.83
421.769	2328.2
421.977	2328.2
422.185	2309.77
422.393	2479.75
422.601	2471.56
422.809	2582.15
423.017	2555.52
423.224	2625.15
423.432	2848.38
423.64	2774.66
423.848	3069.56
424.056	3022.46
424.263	3114.62
424.471	3262.07
424.679	3253.88
424.887	3552.88
425.094	3624.56
425.302	3704.43
425.51	3759.73
425.718	3778.16
425.925	3864.18
426.133	3991.15
426.341	4154.99
426.548	4394.6
426.756	4400.74
426.964	4615.78
427.171	4730.47
427.379	4836.96
427.586	4910.69
427.794	5115.48
428.001	5172.83
428.209	5582.42
428.417	5377.62
428.624	5822.03
428.832	5783.12
429.039	5776.98
429.247	5611.09
429.454	6194.76
429.662	6735.43
429.869	6215.24
430.076	6811.2
430.284	6481.48
430.491	6852.16
430.699	7243.32
430.906	7386.68
431.114	7171.65
431.321	7491.13
431.528	7775.8
431.736	8134.19
431.943	8771.11
432.15	8468.01
432.358	8556.07
432.565	8828.45
432.772	8807.97
432.979	9373.21
433.187	9356.83
433.394	9487.9
433.601	10137.1
433.808	10219.02
434.016	10034.71
434.223	10647.05
434.43	11222.53
434.637	10825.22
434.844	11576.83
435.052	11658.74
435.259	11787.77
435.466	11996.66
435.673	11683.32
435.88	12494.32
436.087	13006.31
436.294	13059.56
436.501	12981.73
436.708	13172.19
436.915	13594.08
437.122	14144.98
437.329	14140.88
437.537	14376.4
437.743	14937.54
437.95	14714.31
438.157	15486.4
438.364	15818.17
438.571	16088.5
438.778	15914.42
438.985	17122.73
439.192	16731.56
439.399	17429.92
439.606	16840.11
439.813	17679.77
440.02	18802.06
440.227	18468.24
440.433	18056.6
440.64	19025.29
440.847	18673.04
441.054	19223.94
441.261	20465.01
441.467	20194.68
441.674	20780.4
441.881	21409.12
442.088	21431.65
442.294	21099.88
442.501	21595.49
442.708	22269.27
442.914	22900.05
443.121	23811.39
443.328	23250.25
443.534	24956.21
443.741	24378.68
443.948	24008
444.154	25386.28
444.361	25736.48
444.568	26015.01
444.774	25543.97
444.981	25928.99
445.187	26529.05
445.394	28050.69
445.6	27507.97
445.807	30254.3
446.013	28730.61
446.22	29197.55
446.426	30518.49
446.633	30502.11
446.839	31651.02
447.046	30409.95
447.252	32253.12
447.459	32163.01
447.665	31878.34
447.871	33174.7
448.078	34616.47
448.284	32984.24
448.491	33795.24
448.697	35372.17
448.903	35662.99
449.11	36101.25
449.316	35468.43
449.522	36297.86
449.728	37022.84
449.935	37049.46
450.141	37330.03
450.347	37919.85
450.553	36949.11
450.76	37528.69
450.966	38589.53
451.172	38163.56
451.378	39562.32
451.584	38476.9
451.791	39386.19
451.997	39281.75
452.203	39431.25
452.409	39674.96
452.615	39402.58
452.821	38020.2
453.027	37706.86
453.233	39400.53
453.44	38487.14
453.646	38341.73
453.852	38595.68
454.058	39056.47
454.264	37530.73
454.47	38980.7
454.676	37756.01
454.882	39058.52
455.088	35902.6
455.294	36093.06
455.5	36551.8
455.705	37057.65
455.911	35908.74
456.117	34704.54
456.323	34663.58
456.529	32898.23
456.735	33770.66
456.941	33033.39
457.147	32574.65
457.352	31419.6
457.558	31083.73
457.764	31255.76
457.97	30913.75
458.176	30033.12
458.381	29906.15
458.587	28480.76
458.793	28423.42
458.999	26989.84
459.204	28886.26
459.41	28189.95
459.616	26019.1
459.821	26227.99
460.027	25984.29
460.233	25449.77
460.438	24649.01
460.644	24450.36
460.85	23526.72
461.055	22871.37
461.261	23119.18
461.466	21288.29
461.672	20710.77
461.878	21818.72
462.083	20589.94
462.289	20104.57
462.494	20106.62
462.7	18888.07
462.905	18644.37
463.111	19158.41
463.316	19051.91
463.522	18771.34
463.727	18724.24
463.932	19043.72
464.138	18539.92
464.343	18765.2
464.549	18230.68
464.754	18535.82
464.959	18566.54
465.165	18357.65
465.37	17425.82
465.575	17327.52
465.781	17743.26
465.986	17923.48
466.191	17292.71
466.397	16747.95
466.602	16184.76
466.807	16786.86
