Data from USB4F104151__48__14-29-57-808.txt Node

Date: Thu Mar 13 14:29:57 EDT 2025
User: louis
Spectrometer: USB4F10415
Trigger mode: 4
Integration Time (sec): 2.500000E-2
Scans to average: 1
Electric dark correction enabled: true
Nonlinearity correction enabled: false
Boxcar width: 0
XAxis mode: Wavelengths
Number of Pixels in Spectrum: 3648
>>>>>Begin Spectral Data<<<<<
178.204	-150.87
178.424	-150.87
178.644	-150.87
178.864	-175.44
179.084	-105.81
179.304	-77.14
179.524	-5.46
179.744	-17.75
179.964	25.26
180.184	8.87
180.404	33.45
180.624	27.31
180.844	-15.7
181.064	-15.7
181.283	-25.94
181.503	-23.89
181.723	86.7
181.943	27.31
182.163	53.93
182.383	-36.18
182.602	53.93
182.822	58.03
183.042	76.46
183.262	-27.99
183.482	-1.37
183.701	41.64
183.921	0.68
184.141	8.87
184.361	-36.18
184.58	53.93
184.8	17.07
185.02	25.26
185.239	33.45
185.459	96.94
185.679	90.79
185.898	-71
186.118	29.35
186.338	-64.85
186.557	58.03
186.777	-23.89
186.997	-9.56
187.216	45.74
187.436	107.18
187.655	12.97
187.875	8.87
188.095	-71
188.314	76.46
188.534	82.6
188.753	45.74
188.973	25.26
189.192	58.03
189.412	96.94
189.631	51.88
189.851	82.6
190.07	33.45
190.29	25.26
190.509	41.64
190.729	43.69
190.948	53.93
191.168	180.9
191.387	103.08
191.607	-9.56
191.826	84.65
192.045	78.51
192.265	10.92
192.484	2.73
192.704	-62.8
192.923	0.68
193.142	49.83
193.362	66.22
193.581	33.45
193.8	49.83
194.02	0.68
194.239	-7.51
194.458	25.26
194.678	58.03
194.897	64.17
195.116	33.45
195.335	43.69
195.555	33.45
195.774	-23.89
195.993	21.16
196.212	60.07
196.432	33.45
196.651	-30.04
196.87	29.35
197.089	49.83
197.308	53.93
197.528	53.93
197.747	25.26
197.966	33.45
198.185	101.03
198.404	25.26
198.623	21.16
198.842	25.26
199.062	131.75
199.281	84.65
199.5	68.27
199.719	94.89
199.938	51.88
200.157	21.16
200.376	139.94
200.595	35.5
200.814	139.94
201.033	60.07
201.252	105.13
201.471	23.21
201.69	72.36
201.909	58.03
202.128	111.27
202.347	-7.51
202.566	33.45
202.785	-21.84
203.004	84.65
203.223	51.88
203.442	-17.75
203.661	37.55
203.879	66.22
204.098	123.56
204.317	-11.61
204.536	148.14
204.755	62.12
204.974	84.65
205.193	33.45
205.411	129.7
205.63	-38.23
205.849	10.92
206.068	21.16
206.287	15.02
206.505	62.12
206.724	19.11
206.943	-25.94
207.162	35.5
207.381	41.64
207.599	82.6
207.818	49.83
208.037	58.03
208.255	-25.94
208.474	10.92
208.693	-21.84
208.911	8.87
209.13	66.22
209.349	8.87
209.567	66.22
209.786	45.74
210.005	66.22
210.223	-25.94
210.442	25.26
210.661	74.41
210.879	49.83
211.098	25.26
211.316	25.26
211.535	74.41
211.753	37.55
211.972	45.74
212.191	-15.7
212.409	53.93
212.628	60.07
212.846	80.55
213.065	33.45
213.283	78.51
213.502	23.21
213.72	29.35
213.938	101.03
214.157	51.88
214.375	33.45
214.594	8.87
214.812	94.89
215.031	29.35
215.249	-7.51
215.467	49.83
215.686	88.75
215.904	41.64
216.122	8.87
216.341	35.5
216.559	66.22
216.778	53.93
216.996	17.07
217.214	12.97
217.432	84.65
217.651	29.35
217.869	62.12
218.087	43.69
218.306	35.5
218.524	49.83
218.742	41.64
218.96	62.12
219.179	-48.47
219.397	92.84
219.615	139.94
219.833	4.78
220.051	-7.51
220.27	53.93
220.488	107.18
220.706	0.68
220.924	-30.04
221.142	41.64
221.36	60.07
221.578	60.07
221.796	37.55
222.015	41.64
222.233	68.27
222.451	107.18
222.669	4.78
222.887	45.74
223.105	29.35
223.323	58.03
223.541	45.74
223.759	-5.46
223.977	29.35
224.195	72.36
224.413	90.79
224.631	53.93
224.849	0.68
225.067	187.05
225.285	-7.51
225.503	43.69
225.721	12.97
225.939	88.75
226.157	96.94
226.375	107.18
226.592	49.83
226.81	33.45
227.028	74.41
227.246	98.99
227.464	39.59
227.682	41.64
227.9	21.16
228.117	76.46
228.335	25.26
228.553	62.12
228.771	66.22
228.989	49.83
229.206	37.55
229.424	41.64
229.642	76.46
229.86	-30.04
230.077	78.51
230.295	80.55
230.513	58.03
230.731	43.69
230.948	58.03
231.166	74.41
231.384	29.35
231.601	60.07
231.819	66.22
232.037	-48.47
232.254	-38.23
232.472	29.35
232.689	68.27
232.907	17.07
233.125	117.42
233.342	27.31
233.56	31.4
233.777	21.16
233.995	21.16
234.213	158.38
234.43	49.83
234.648	55.98
234.865	62.12
235.083	-15.7
235.3	78.51
235.518	2.73
235.735	84.65
235.953	92.84
236.17	66.22
236.388	45.74
236.605	66.22
236.822	101.03
237.04	53.93
237.257	82.6
237.475	-64.85
237.692	101.03
237.909	8.87
238.127	10.92
238.344	-32.08
238.562	10.92
238.779	27.31
238.996	64.17
239.214	49.83
239.431	76.46
239.648	31.4
239.865	58.03
240.083	43.69
240.3	-46.42
240.517	17.07
240.735	2.73
240.952	70.31
241.169	82.6
241.386	37.55
241.603	-15.7
241.821	23.21
242.038	66.22
242.255	45.74
242.472	-46.42
242.689	58.03
242.907	74.41
243.124	-9.56
243.341	74.41
243.558	21.16
243.775	8.87
243.992	-3.41
244.209	49.83
244.426	53.93
244.643	64.17
244.86	-27.99
245.078	43.69
245.295	76.46
245.512	76.46
245.729	53.93
245.946	31.4
246.163	82.6
246.38	58.03
246.597	74.41
246.814	33.45
247.031	27.31
247.248	8.87
247.464	12.97
247.681	-36.18
247.898	53.93
248.115	-23.89
248.332	12.97
248.549	-11.61
248.766	68.27
248.983	90.79
249.2	-11.61
249.417	39.59
249.633	29.35
249.85	-7.51
250.067	0.68
250.284	49.83
250.501	76.46
250.717	51.88
250.934	-32.08
251.151	49.83
251.368	-15.7
251.585	62.12
251.801	37.55
252.018	19.11
252.235	82.6
252.451	23.21
252.668	33.45
252.885	21.16
253.102	23.21
253.318	17.07
253.535	41.64
253.752	33.45
253.968	62.12
254.185	-23.89
254.401	76.46
254.618	33.45
254.835	-11.61
255.051	127.66
255.268	51.88
255.484	6.83
255.701	27.31
255.917	33.45
256.134	60.07
256.351	103.08
256.567	21.16
256.784	62.12
257	8.87
257.217	78.51
257.433	68.27
257.65	19.11
257.866	35.5
258.082	-19.8
258.299	49.83
258.515	43.69
258.732	60.07
258.948	0.68
259.165	12.97
259.381	-5.46
259.597	25.26
259.814	92.84
260.03	45.74
260.246	25.26
260.463	107.18
260.679	74.41
260.895	90.79
261.112	51.88
261.328	-5.46
261.544	49.83
261.761	80.55
261.977	35.5
262.193	17.07
262.409	21.16
262.626	78.51
262.842	62.12
263.058	-11.61
263.274	66.22
263.49	53.93
263.707	98.99
263.923	2.73
264.139	4.78
264.355	10.92
264.571	66.22
264.787	76.46
265.004	90.79
265.22	8.87
265.436	109.23
265.652	74.41
265.868	29.35
266.084	-48.47
266.3	19.11
266.516	29.35
266.732	74.41
266.948	-7.51
267.164	115.37
267.38	90.79
267.596	19.11
267.812	107.18
268.028	92.84
268.244	49.83
268.46	68.27
268.676	8.87
268.892	29.35
269.108	23.21
269.324	25.26
269.54	23.21
269.756	53.93
269.972	49.83
270.188	27.31
270.403	-48.47
270.619	0.68
270.835	21.16
271.051	-23.89
271.267	15.02
271.483	51.88
271.698	139.94
271.914	31.4
272.13	66.22
272.346	66.22
272.562	-46.42
272.777	21.16
272.993	60.07
273.209	17.07
273.425	121.51
273.64	23.21
273.856	-3.41
274.072	25.26
274.287	33.45
274.503	8.87
274.719	58.03
274.934	21.16
275.15	17.07
275.366	58.03
275.581	74.41
275.797	-60.76
276.012	33.45
276.228	-7.51
276.444	49.83
276.659	98.99
276.875	27.31
277.09	19.11
277.306	35.5
277.521	29.35
277.737	-1.37
277.952	37.55
278.168	62.12
278.383	0.68
278.599	41.64
278.814	60.07
279.03	41.64
279.245	92.84
279.461	49.83
279.676	49.83
279.892	-48.47
280.107	27.31
280.322	23.21
280.538	37.55
280.753	45.74
280.969	119.46
281.184	70.31
281.399	133.8
281.615	107.18
281.83	101.03
282.045	33.45
282.26	0.68
282.476	8.87
282.691	74.41
282.906	41.64
283.122	115.37
283.337	70.31
283.552	72.36
283.767	-7.51
283.983	25.26
284.198	31.4
284.413	74.41
284.628	8.87
284.843	113.32
285.058	74.41
285.274	74.41
285.489	51.88
285.704	68.27
285.919	-21.84
286.134	103.08
286.349	47.79
286.564	58.03
286.779	53.93
286.995	45.74
287.21	-11.61
287.425	33.45
287.64	127.66
287.855	21.16
288.07	19.11
288.285	-9.56
288.5	29.35
288.715	23.21
288.93	27.31
289.145	6.83
289.36	60.07
289.575	-1.37
289.79	4.78
290.004	4.78
290.219	72.36
290.434	33.45
290.649	2.73
290.864	25.26
291.079	6.83
291.294	35.5
291.509	12.97
291.724	21.16
291.938	-7.51
292.153	113.32
292.368	41.64
292.583	107.18
292.798	25.26
293.012	133.8
293.227	4.78
293.442	0.68
293.657	-62.8
293.871	76.46
294.086	8.87
294.301	113.32
294.516	58.03
294.73	-17.75
294.945	66.22
295.16	17.07
295.374	76.46
295.589	70.31
295.804	41.64
296.018	27.31
296.233	66.22
296.447	-36.18
296.662	-13.65
296.877	74.41
297.091	66.22
297.306	43.69
297.52	107.18
297.735	98.99
297.949	2.73
298.164	82.6
298.378	25.26
298.593	35.5
298.807	-56.66
299.022	29.35
299.236	2.73
299.451	8.87
299.665	47.79
299.88	21.16
300.094	103.08
300.309	76.46
300.523	107.18
300.737	-1.37
300.952	33.45
301.166	74.41
301.381	35.5
301.595	68.27
301.809	25.26
302.024	58.03
302.238	45.74
302.452	115.37
302.667	10.92
302.881	51.88
303.095	41.64
303.309	25.26
303.524	58.03
303.738	17.07
303.952	21.16
304.166	74.41
304.381	-48.47
304.595	53.93
304.809	6.83
305.023	84.65
305.237	49.83
305.452	58.03
305.666	41.64
305.88	117.42
306.094	80.55
306.308	0.68
306.522	101.03
306.736	51.88
306.95	92.84
307.164	49.83
307.379	-15.7
307.593	103.08
307.807	60.07
308.021	80.55
308.235	15.02
308.449	-32.08
308.663	53.93
308.877	101.03
309.091	35.5
309.305	58.03
309.519	-46.42
309.733	117.42
309.947	12.97
310.161	90.79
310.374	10.92
310.588	74.41
310.802	-27.99
311.016	19.11
311.23	111.27
311.444	53.93
311.658	35.5
311.872	49.83
312.085	37.55
312.299	2.73
312.513	37.55
312.727	72.36
312.941	25.26
313.154	94.89
313.368	8.87
313.582	55.98
313.796	15.02
314.009	17.07
314.223	82.6
314.437	4.78
314.651	49.83
314.864	17.07
315.078	-36.18
315.292	-56.66
315.505	0.68
315.719	74.41
315.933	111.27
316.146	72.36
316.36	8.87
316.573	45.74
316.787	29.35
317.001	127.66
317.214	-56.66
317.428	127.66
317.641	-25.94
317.855	12.97
318.068	66.22
318.282	12.97
318.495	45.74
318.709	31.4
318.922	33.45
319.136	107.18
319.349	47.79
319.563	33.45
319.776	37.55
319.99	-40.28
320.203	62.12
320.417	35.5
320.63	-5.46
320.843	94.89
321.057	78.51
321.27	27.31
321.483	27.31
321.697	37.55
321.91	-19.8
322.124	66.22
322.337	8.87
322.55	-11.61
322.763	-19.8
322.977	37.55
323.19	17.07
323.403	66.22
323.617	-64.85
323.83	88.75
324.043	12.97
324.256	68.27
324.469	-32.08
324.683	47.79
324.896	19.11
325.109	49.83
325.322	-15.7
325.535	25.26
325.748	90.79
325.962	41.64
326.175	19.11
326.388	45.74
326.601	23.21
326.814	-50.52
327.027	49.83
327.24	-7.51
327.453	2.73
327.666	55.98
327.879	33.45
328.092	43.69
328.305	43.69
328.518	-32.08
328.731	12.97
328.944	103.08
329.157	45.74
329.37	43.69
329.583	74.41
329.796	131.75
330.009	0.68
330.222	19.11
330.435	74.41
330.648	66.22
330.861	-44.37
331.073	66.22
331.286	88.75
331.499	2.73
331.712	-15.7
331.925	47.79
332.138	66.22
332.35	0.68
332.563	35.5
332.776	66.22
332.989	17.07
333.202	123.56
333.414	84.65
333.627	72.36
333.84	0.68
334.053	58.03
334.265	21.16
334.478	33.45
334.691	-15.7
334.903	125.61
335.116	25.26
335.329	62.12
335.541	70.31
335.754	37.55
335.966	4.78
336.179	2.73
336.392	90.79
336.604	17.07
336.817	101.03
337.029	55.98
337.242	41.64
337.454	27.31
337.667	74.41
337.88	74.41
338.092	17.07
338.305	70.31
338.517	35.5
338.729	35.5
338.942	170.66
339.154	-9.56
339.367	8.87
339.579	70.31
339.792	2.73
340.004	33.45
340.217	33.45
340.429	-23.89
340.641	21.16
340.854	37.55
341.066	41.64
341.278	176.81
341.491	119.46
341.703	51.88
341.915	51.88
342.128	72.36
342.34	17.07
342.552	62.12
342.764	76.46
342.977	-56.66
343.189	25.26
343.401	15.02
343.613	-21.84
343.826	66.22
344.038	41.64
344.25	64.17
344.462	60.07
344.674	-21.84
344.886	0.68
345.099	-1.37
345.311	51.88
345.523	88.75
345.735	66.22
345.947	117.42
346.159	35.5
346.371	86.7
346.583	10.92
346.795	144.04
347.007	29.35
347.219	123.56
347.431	17.07
347.643	53.93
347.855	35.5
348.067	80.55
348.279	51.88
348.491	8.87
348.703	164.52
348.915	49.83
349.127	8.87
349.339	82.6
349.551	49.83
349.763	12.97
349.975	53.93
350.187	82.6
350.399	29.35
350.61	98.99
350.822	60.07
351.034	84.65
351.246	62.12
351.458	25.26
351.669	-27.99
351.881	135.85
352.093	70.31
352.305	90.79
352.517	80.55
352.728	123.56
352.94	41.64
353.152	19.11
353.363	15.02
353.575	78.51
353.787	33.45
353.999	60.07
354.21	182.95
354.422	25.26
354.633	31.4
354.845	21.16
355.057	43.69
355.268	107.18
355.48	125.61
355.692	4.78
355.903	19.11
356.115	0.68
356.326	49.83
356.538	-11.61
356.749	33.45
356.961	70.31
357.172	78.51
357.384	119.46
357.595	127.66
357.807	31.4
358.018	12.97
358.23	35.5
358.441	94.89
358.653	72.36
358.864	60.07
359.075	2.73
359.287	17.07
359.498	15.02
359.709	105.13
359.921	25.26
360.132	135.85
360.344	74.41
360.555	49.83
360.766	72.36
360.977	33.45
361.189	86.7
361.4	90.79
361.611	49.83
361.823	33.45
362.034	10.92
362.245	-48.47
362.456	60.07
362.667	43.69
362.879	74.41
363.09	10.92
363.301	4.78
363.512	0.68
363.723	58.03
363.935	17.07
364.146	123.56
364.357	23.21
364.568	139.94
364.779	66.22
364.99	78.51
365.201	-44.37
365.412	84.65
365.623	2.73
365.834	25.26
366.045	0.68
366.256	37.55
366.467	43.69
366.678	82.6
366.889	33.45
367.1	70.31
367.311	94.89
367.522	74.41
367.733	98.99
367.944	107.18
368.155	43.69
368.366	76.46
368.577	8.87
368.788	41.64
368.999	-32.08
369.209	-7.51
369.42	74.41
369.631	41.64
369.842	62.12
370.053	109.23
370.264	66.22
370.474	-23.89
370.685	60.07
370.896	27.31
371.107	146.09
371.317	0.68
371.528	74.41
371.739	68.27
371.95	35.5
372.16	51.88
372.371	0.68
372.582	60.07
372.792	-7.51
373.003	27.31
373.214	43.69
373.424	76.46
373.635	29.35
373.846	180.9
374.056	53.93
374.267	90.79
374.477	37.55
374.688	-40.28
374.898	27.31
375.109	25.26
375.319	107.18
375.53	123.56
375.74	158.38
375.951	8.87
376.161	45.74
376.372	113.32
376.582	-7.51
376.793	47.79
377.003	101.03
377.214	58.03
377.424	21.16
377.635	-7.51
377.845	80.55
378.055	111.27
378.266	-40.28
378.476	98.99
378.686	49.83
378.897	43.69
379.107	76.46
379.317	103.08
379.528	68.27
379.738	76.46
379.948	4.78
380.158	78.51
380.369	-15.7
380.579	60.07
380.789	76.46
380.999	84.65
381.21	66.22
381.42	101.03
381.63	58.03
381.84	107.18
382.05	70.31
382.261	127.66
382.471	76.46
382.681	74.41
382.891	90.79
383.101	43.69
383.311	66.22
383.521	74.41
383.731	58.03
383.941	33.45
384.151	53.93
384.361	98.99
384.571	49.83
384.781	125.61
384.991	53.93
385.201	176.81
385.411	90.79
385.621	129.7
385.831	19.11
386.041	-40.28
386.251	35.5
386.461	94.89
386.671	82.6
386.881	123.56
387.091	35.5
387.301	58.03
387.511	72.36
387.72	43.69
387.93	66.22
388.14	-19.8
388.35	74.41
388.56	98.99
388.769	86.7
388.979	123.56
389.189	41.64
389.399	19.11
389.609	94.89
389.818	37.55
390.028	27.31
390.238	144.04
390.447	25.26
390.657	92.84
390.867	98.99
391.076	76.46
391.286	41.64
391.496	92.84
391.705	139.94
391.915	117.42
392.125	94.89
392.334	62.12
392.544	107.18
392.753	-17.75
392.963	43.69
393.172	72.36
393.382	62.12
393.591	133.8
393.801	103.08
394.01	88.75
394.22	55.98
394.429	51.88
394.639	74.41
394.848	111.27
395.058	98.99
395.267	49.83
395.477	113.32
395.686	64.17
395.895	139.94
396.105	160.42
396.314	123.56
396.524	148.14
396.733	98.99
396.942	131.75
397.152	113.32
397.361	141.99
397.57	64.17
397.78	148.14
397.989	180.9
398.198	156.33
398.407	98.99
398.617	51.88
398.826	115.37
399.035	141.99
399.244	90.79
399.453	92.84
399.663	127.66
399.872	131.75
400.081	62.12
400.29	139.94
400.499	66.22
400.708	148.14
400.917	86.7
401.127	123.56
401.336	92.84
401.545	197.29
401.754	131.75
401.963	123.56
402.172	86.7
402.381	129.7
402.59	178.86
402.799	115.37
403.008	131.75
403.217	164.52
403.426	170.66
403.635	82.6
403.844	150.18
404.053	119.46
404.262	117.42
404.471	197.29
404.68	146.09
404.888	135.85
405.097	123.56
405.306	125.61
405.515	260.77
405.724	213.67
405.933	240.3
406.142	205.48
406.35	195.24
406.559	248.49
406.768	164.52
406.977	180.9
407.185	221.86
407.394	185
407.603	156.33
407.812	205.48
408.02	264.87
408.229	324.26
408.438	283.3
408.646	205.48
408.855	256.68
409.064	262.82
409.272	287.4
409.481	344.74
409.69	373.41
409.898	338.6
410.107	273.06
410.315	361.13
410.524	352.93
410.733	262.82
410.941	311.97
411.15	428.71
411.358	443.04
411.567	418.47
411.775	395.94
411.984	467.62
412.192	500.39
412.401	533.15
412.609	500.39
412.818	567.97
413.026	436.9
413.234	516.77
413.443	567.97
413.651	594.59
413.86	563.87
414.068	643.74
414.276	717.47
414.485	631.46
414.693	762.53
414.901	756.38
415.11	772.77
415.318	660.13
415.526	840.35
415.734	879.26
415.943	869.02
416.151	909.98
416.359	877.21
416.567	979.61
416.776	1067.67
416.984	1049.24
417.192	1049.24
417.4	1112.73
417.608	1108.63
417.817	1133.21
418.025	1143.45
418.233	1245.85
418.441	1196.7
418.649	1305.24
418.857	1317.53
419.065	1436.31
419.273	1428.12
419.481	1385.11
419.689	1608.34
419.897	1606.29
420.105	1749.65
420.313	1680.02
420.521	1776.27
420.729	1761.94
420.937	1776.27
421.145	1946.25
421.353	2046.6
421.561	2130.57
421.769	2065.04
421.977	2239.11
422.185	2169.48
422.393	2310.79
422.601	2429.57
422.809	2433.67
423.017	2521.73
423.224	2509.44
423.432	2732.67
423.64	2767.49
423.848	2935.42
424.056	2900.61
424.263	3123.84
424.471	3129.98
424.679	3349.11
424.887	3332.73
425.094	3531.38
425.302	3437.17
425.51	3598.96
425.718	3715.7
425.925	3633.78
426.133	3928.69
426.341	4010.61
426.548	4121.2
426.756	4129.39
426.964	4295.27
427.171	4444.77
427.379	4729.44
427.586	4747.87
427.794	4921.95
428.001	5108.32
428.209	5319.26
428.417	5220.95
428.624	5579.35
428.832	5562.97
429.039	5409.37
429.247	5565.01
429.454	6021.71
429.662	6494.79
429.869	6148.68
430.076	6410.82
430.284	6201.93
430.491	6654.53
430.699	7070.27
430.906	7021.12
431.114	7094.85
431.321	7297.6
431.528	7475.77
431.736	7866.93
431.943	8184.37
432.15	8106.54
432.358	8008.24
432.565	8503.85
432.772	8567.34
432.979	8833.57
433.187	9009.7
433.394	9208.35
433.601	9669.14
433.808	9818.64
434.016	9628.18
434.223	10045.97
434.43	10633.74
434.637	10340.88
434.844	11096.58
435.052	11481.6
435.259	11190.78
435.466	11493.88
435.673	11178.5
435.88	12020.21
436.087	12495.34
436.294	12601.83
436.501	12231.15
436.708	12542.44
436.915	12767.72
437.122	13472.22
437.329	13359.58
437.537	13943.25
437.743	14279.12
437.95	14051.8
438.157	14805.45
438.364	14979.53
438.571	15098.31
438.778	15325.63
438.985	16593.33
439.192	16335.28
439.399	16716.2
439.606	16300.47
439.813	17187.24
440.02	18135.45
440.227	17463.71
440.433	17826.2
440.64	18053.53
440.847	17680.8
441.054	18575.76
441.261	19790.2
441.467	19562.88
441.674	19982.71
441.881	20451.7
442.088	20314.48
442.294	20068.73
442.501	20906.35
442.708	21182.82
442.914	21799.26
443.121	22954.32
443.328	22163.8
443.534	24023.36
443.741	23167.31
443.948	22964.56
444.154	24623.41
444.361	24564.02
444.568	24449.33
444.774	24525.11
444.981	24967.47
445.187	25743.65
445.394	26796.31
445.6	26239.26
445.807	28930.29
446.013	27406.6
446.22	28061.95
446.426	29016.3
446.633	29429.99
446.839	30372.06
447.046	29128.94
447.252	30767.32
447.459	30539.99
447.665	30419.16
447.871	32243.9
448.078	33499.31
448.284	31699.14
448.491	32538.81
448.697	33933.48
448.903	34152.61
449.11	34685.08
449.316	34097.31
449.522	34650.27
449.728	35690.63
449.935	35727.5
450.141	35682.44
450.347	36485.25
450.553	35125.39
450.76	35678.35
450.966	37007.48
451.172	36552.83
451.378	37513.33
451.584	37054.58
451.791	37693.55
451.997	37757.03
452.203	38340.71
452.409	38123.62
452.615	37726.31
452.821	36667.52
453.027	36014.21
453.233	38305.89
453.44	36556.92
453.646	36827.26
453.852	36868.22
454.058	37697.64
454.264	36247.68
454.47	37216.37
454.676	36030.6
454.882	38039.65
455.088	33996.96
455.294	35000.47
455.5	35023
455.705	36014.21
455.911	33853.61
456.117	33626.28
456.323	33374.38
456.529	31105.23
456.735	32536.76
456.941	31725.77
457.147	31500.49
457.352	30351.58
457.558	30163.17
457.764	30443.74
457.97	29681.89
458.176	29004.02
458.381	28586.23
458.587	27465.99
458.793	27382.02
458.999	25938.21
459.204	27920.64
459.41	27171.08
459.616	25076.01
459.821	25456.93
460.027	25170.22
460.233	24437.05
460.438	23486.79
460.644	23761.22
460.85	22509.91
461.055	22067.55
461.261	22120.79
461.466	20322.68
461.672	19829.12
461.878	21008.75
462.083	19857.79
462.289	19437.95
462.494	19321.22
462.7	18555.28
462.905	17981.85
463.111	18606.48
463.316	18608.53
463.522	18151.83
463.727	18188.69
463.932	18235.8
464.138	17920.41
464.343	18037.14
464.549	17502.62
464.754	18098.58
464.959	17977.75
465.165	17850.78
465.37	16908.71
465.575	16269.75
465.781	17338.79
465.986	16994.73
466.191	16656.81
466.397	16075.19
466.602	15364.54
466.807	15919.54
467.012	16015.8
467.218	16026.04
