Data from USB4F104151__139__14-31-47-177.txt Node

Date: Thu Mar 13 14:31:47 EDT 2025
User: louis
Spectrometer: USB4F10415
Trigger mode: 4
Integration Time (sec): 2.500000E-2
Scans to average: 1
Electric dark correction enabled: true
Nonlinearity correction enabled: false
Boxcar width: 0
XAxis mode: Wavelengths
Number of Pixels in Spectrum: 3648
>>>>>Begin Spectral Data<<<<<
178.204	-141.31
178.424	-141.31
178.644	-141.31
178.864	-129.02
179.084	-79.87
179.304	-40.96
179.524	-24.58
179.744	12.29
179.964	55.3
180.184	-24.58
180.404	47.1
180.624	-18.43
180.844	51.2
181.064	-51.2
181.283	16.38
181.503	-79.87
181.723	57.34
181.943	55.3
182.163	73.73
182.383	2.05
182.602	14.34
182.822	63.49
183.042	65.54
183.262	16.38
183.482	-10.24
183.701	8.19
183.921	22.53
184.141	40.96
184.361	73.73
184.58	30.72
184.8	-2.05
185.02	-43.01
185.239	22.53
185.459	75.77
185.679	88.06
185.898	-8.19
186.118	129.02
186.338	100.35
186.557	92.16
186.777	-45.06
186.997	47.1
187.216	6.14
187.436	32.77
187.655	26.62
187.875	61.44
188.095	81.92
188.314	22.53
188.534	77.82
188.753	38.91
188.973	12.29
189.192	67.58
189.412	79.87
189.631	57.34
189.851	65.54
190.07	38.91
190.29	-8.19
190.509	81.92
190.729	112.64
190.948	96.25
191.168	129.02
191.387	67.58
191.607	0
191.826	77.82
192.045	-8.19
192.265	40.96
192.484	38.91
192.704	81.92
192.923	71.68
193.142	63.49
193.362	55.3
193.581	51.2
193.8	34.82
194.02	-2.05
194.239	45.06
194.458	90.11
194.678	-10.24
194.897	-10.24
195.116	67.58
195.335	-2.05
195.555	55.3
195.774	71.68
195.993	26.62
196.212	79.87
196.432	24.58
196.651	38.91
196.87	49.15
197.089	43.01
197.308	96.25
197.528	57.34
197.747	14.34
197.966	63.49
198.185	116.73
198.404	98.3
198.623	-34.82
198.842	47.1
199.062	14.34
199.281	49.15
199.5	36.86
199.719	63.49
199.938	126.97
200.157	49.15
200.376	104.45
200.595	100.35
200.814	57.34
201.033	53.25
201.252	104.45
201.471	67.58
201.69	-10.24
201.909	59.39
202.128	34.82
202.347	96.25
202.566	22.53
202.785	34.82
203.004	53.25
203.223	94.21
203.442	141.31
203.661	6.14
203.879	55.3
204.098	90.11
204.317	51.2
204.536	73.73
204.755	51.2
204.974	71.68
205.193	55.3
205.411	145.41
205.63	-2.05
205.849	-16.38
206.068	18.43
206.287	34.82
206.505	59.39
206.724	22.53
206.943	38.91
207.162	30.72
207.381	-10.24
207.599	-6.14
207.818	65.54
208.037	-28.67
208.255	28.67
208.474	83.97
208.693	90.11
208.911	38.91
209.13	49.15
209.349	22.53
209.567	110.59
209.786	81.92
210.005	75.77
210.223	63.49
210.442	0
210.661	90.11
210.879	65.54
211.098	49.15
211.316	34.82
211.535	139.26
211.753	24.58
211.972	71.68
212.191	30.72
212.409	40.96
212.628	16.38
212.846	45.06
213.065	73.73
213.283	53.25
213.502	-22.53
213.72	55.3
213.938	26.62
214.157	98.3
214.375	57.34
214.594	-18.43
214.812	-14.34
215.031	118.78
215.249	71.68
215.467	79.87
215.686	57.34
215.904	147.45
216.122	55.3
216.341	92.16
216.559	63.49
216.778	114.69
216.996	67.58
217.214	20.48
217.432	88.06
217.651	-12.29
217.869	18.43
218.087	112.64
218.306	67.58
218.524	106.49
218.742	22.53
218.96	47.1
219.179	63.49
219.397	45.06
219.615	51.2
219.833	-4.1
220.051	22.53
220.27	2.05
220.488	-16.38
220.706	6.14
220.924	-10.24
221.142	14.34
221.36	57.34
221.578	73.73
221.796	96.25
222.015	71.68
222.233	30.72
222.451	81.92
222.669	38.91
222.887	67.58
223.105	-2.05
223.323	16.38
223.541	30.72
223.759	55.3
223.977	63.49
224.195	63.49
224.413	49.15
224.631	49.15
224.849	69.63
225.067	112.64
225.285	71.68
225.503	-8.19
225.721	-53.25
225.939	-22.53
226.157	51.2
226.375	182.27
226.592	59.39
226.81	18.43
227.028	51.2
227.246	94.21
227.464	53.25
227.682	28.67
227.9	122.88
228.117	2.05
228.335	92.16
228.553	104.45
228.771	0
228.989	49.15
229.206	-10.24
229.424	57.34
229.642	63.49
229.86	14.34
230.077	79.87
230.295	67.58
230.513	2.05
230.731	108.54
230.948	120.83
231.166	63.49
231.384	-12.29
231.601	47.1
231.819	131.07
232.037	71.68
232.254	47.1
232.472	53.25
232.689	67.58
232.907	108.54
233.125	20.48
233.342	32.77
233.56	10.24
233.777	53.25
233.995	28.67
234.213	83.97
234.43	34.82
234.648	-36.86
234.865	2.05
235.083	81.92
235.3	-8.19
235.518	90.11
235.735	67.58
235.953	114.69
236.17	45.06
236.388	51.2
236.605	43.01
236.822	88.06
237.04	63.49
237.257	14.34
237.475	49.15
237.692	30.72
237.909	6.14
238.127	55.3
238.344	104.45
238.562	69.63
238.779	-2.05
238.996	10.24
239.214	38.91
239.431	-2.05
239.648	-18.43
239.865	79.87
240.083	47.1
240.3	86.01
240.517	12.29
240.735	59.39
240.952	67.58
241.169	83.97
241.386	79.87
241.603	28.67
241.821	71.68
242.038	61.44
242.255	47.1
242.472	0
242.689	30.72
242.907	112.64
243.124	79.87
243.341	43.01
243.558	34.82
243.775	-16.38
243.992	-2.05
244.209	53.25
244.426	83.97
244.643	32.77
244.86	14.34
245.078	65.54
245.295	96.25
245.512	16.38
245.729	24.58
245.946	129.02
246.163	126.97
246.38	-18.43
246.597	63.49
246.814	63.49
247.031	47.1
247.248	28.67
247.464	104.45
247.681	30.72
247.898	2.05
248.115	63.49
248.332	-51.2
248.549	137.21
248.766	67.58
248.983	116.73
249.2	79.87
249.417	55.3
249.633	-18.43
249.85	65.54
250.067	43.01
250.284	16.38
250.501	30.72
250.717	38.91
250.934	86.01
251.151	67.58
251.368	88.06
251.585	-2.05
251.801	45.06
252.018	32.77
252.235	92.16
252.451	69.63
252.668	79.87
252.885	47.1
253.102	6.14
253.318	32.77
253.535	34.82
253.752	-43.01
253.968	51.2
254.185	65.54
254.401	55.3
254.618	57.34
254.835	88.06
255.051	149.5
255.268	141.31
255.484	6.14
255.701	59.39
255.917	57.34
256.134	-57.34
256.351	18.43
256.567	-26.62
256.784	57.34
257	16.38
257.217	65.54
257.433	108.54
257.65	51.2
257.866	63.49
258.082	71.68
258.299	-55.3
258.515	57.34
258.732	-2.05
258.948	-24.58
259.165	88.06
259.381	55.3
259.597	100.35
259.814	24.58
260.03	22.53
260.246	40.96
260.463	63.49
260.679	98.3
260.895	14.34
261.112	124.93
261.328	43.01
261.544	47.1
261.761	131.07
261.977	92.16
262.193	-57.34
262.409	96.25
262.626	98.3
262.842	38.91
263.058	38.91
263.274	165.89
263.49	81.92
263.707	71.68
263.923	104.45
264.139	43.01
264.355	96.25
264.571	55.3
264.787	32.77
265.004	47.1
265.22	63.49
265.436	47.1
265.652	8.19
265.868	-2.05
266.084	16.38
266.3	106.49
266.516	6.14
266.732	69.63
266.948	100.35
267.164	55.3
267.38	106.49
267.596	63.49
267.812	106.49
268.028	116.73
268.244	24.58
268.46	57.34
268.676	-28.67
268.892	88.06
269.108	51.2
269.324	-6.14
269.54	-40.96
269.756	106.49
269.972	-69.63
270.188	34.82
270.403	32.77
270.619	51.2
270.835	124.93
271.051	83.97
271.267	34.82
271.483	8.19
271.698	36.86
271.914	131.07
272.13	71.68
272.346	112.64
272.562	22.53
272.777	90.11
272.993	6.14
273.209	-2.05
273.425	43.01
273.64	47.1
273.856	57.34
274.072	63.49
274.287	59.39
274.503	22.53
274.719	90.11
274.934	57.34
275.15	-2.05
275.366	16.38
275.581	10.24
275.797	55.3
276.012	55.3
276.228	55.3
276.444	92.16
276.659	139.26
276.875	100.35
277.09	18.43
277.306	55.3
277.521	118.78
277.737	30.72
277.952	116.73
278.168	6.14
278.383	-2.05
278.599	112.64
278.814	32.77
279.03	57.34
279.245	104.45
279.461	34.82
279.676	63.49
279.892	-38.91
280.107	24.58
280.322	40.96
280.538	92.16
280.753	30.72
280.969	-6.14
281.184	61.44
281.399	55.3
281.615	67.58
281.83	129.02
282.045	-20.48
282.26	65.54
282.476	75.77
282.691	75.77
282.906	63.49
283.122	22.53
283.337	57.34
283.552	106.49
283.767	40.96
283.983	131.07
284.198	-20.48
284.413	-6.14
284.628	-34.82
284.843	-2.05
285.058	38.91
285.274	104.45
285.489	55.3
285.704	129.02
285.919	53.25
286.134	65.54
286.349	34.82
286.564	32.77
286.779	47.1
286.995	2.05
287.21	-53.25
287.425	104.45
287.64	38.91
287.855	26.62
288.07	55.3
288.285	83.97
288.5	14.34
288.715	96.25
288.93	-10.24
289.145	34.82
289.36	88.06
289.575	63.49
289.79	81.92
290.004	79.87
290.219	79.87
290.434	55.3
290.649	30.72
290.864	22.53
291.079	75.77
291.294	10.24
291.509	-2.05
291.724	26.62
291.938	22.53
292.153	71.68
292.368	26.62
292.583	71.68
292.798	63.49
293.012	45.06
293.227	18.43
293.442	86.01
293.657	110.59
293.871	51.2
294.086	47.1
294.301	96.25
294.516	94.21
294.73	30.72
294.945	0
295.16	47.1
295.374	18.43
295.589	143.36
295.804	16.38
296.018	32.77
296.233	100.35
296.447	22.53
296.662	45.06
296.877	88.06
297.091	49.15
297.306	32.77
297.52	65.54
297.735	96.25
297.949	-26.62
298.164	79.87
298.378	14.34
298.593	16.38
298.807	75.77
299.022	61.44
299.236	133.12
299.451	30.72
299.665	98.3
299.88	71.68
300.094	59.39
300.309	79.87
300.523	69.63
300.737	71.68
300.952	135.17
301.166	126.97
301.381	-10.24
301.595	22.53
301.809	65.54
302.024	43.01
302.238	18.43
302.452	75.77
302.667	47.1
302.881	118.78
303.095	98.3
303.309	67.58
303.524	98.3
303.738	32.77
303.952	26.62
304.166	63.49
304.381	-8.19
304.595	104.45
304.809	63.49
305.023	79.87
305.237	32.77
305.452	38.91
305.666	-2.05
305.88	120.83
306.094	92.16
306.308	22.53
306.522	45.06
306.736	-2.05
306.95	139.26
307.164	32.77
307.379	32.77
307.593	98.3
307.807	112.64
308.021	43.01
308.235	75.77
308.449	40.96
308.663	43.01
308.877	55.3
309.091	8.19
309.305	131.07
309.519	-2.05
309.733	104.45
309.947	-34.82
310.161	32.77
310.374	55.3
310.588	157.69
310.802	104.45
311.016	43.01
311.23	22.53
311.444	53.25
311.658	120.83
311.872	14.34
312.085	59.39
312.299	106.49
312.513	112.64
312.727	51.2
312.941	43.01
313.154	4.1
313.368	26.62
313.582	51.2
313.796	43.01
314.009	10.24
314.223	16.38
314.437	86.01
314.651	81.92
314.864	14.34
315.078	40.96
315.292	16.38
315.505	30.72
315.719	98.3
315.933	38.91
316.146	30.72
316.36	55.3
316.573	63.49
316.787	79.87
317.001	96.25
317.214	-28.67
317.428	83.97
317.641	-10.24
317.855	51.2
318.068	-34.82
318.282	73.73
318.495	8.19
318.709	18.43
318.922	55.3
319.136	96.25
319.349	49.15
319.563	26.62
319.776	73.73
319.99	16.38
320.203	55.3
320.417	98.3
320.63	22.53
320.843	61.44
321.057	104.45
321.27	22.53
321.483	18.43
321.697	137.21
321.91	32.77
322.124	96.25
322.337	38.91
322.55	26.62
322.763	92.16
322.977	75.77
323.19	90.11
323.403	77.82
323.617	100.35
323.83	88.06
324.043	10.24
324.256	108.54
324.469	-12.29
324.683	18.43
324.896	141.31
325.109	38.91
325.322	-30.72
325.535	51.2
325.748	100.35
325.962	6.14
326.175	55.3
326.388	38.91
326.601	114.69
326.814	-10.24
327.027	112.64
327.24	88.06
327.453	6.14
327.666	124.93
327.879	116.73
328.092	118.78
328.305	81.92
328.518	104.45
328.731	34.82
328.944	106.49
329.157	90.11
329.37	22.53
329.583	86.01
329.796	108.54
330.009	-51.2
330.222	47.1
330.435	65.54
330.648	79.87
330.861	38.91
331.073	100.35
331.286	120.83
331.499	40.96
331.712	47.1
331.925	86.01
332.138	155.65
332.35	81.92
332.563	22.53
332.776	73.73
332.989	38.91
333.202	133.12
333.414	45.06
333.627	51.2
333.84	-18.43
334.053	59.39
334.265	-10.24
334.478	71.68
334.691	57.34
334.903	106.49
335.116	10.24
335.329	34.82
335.541	47.1
335.754	92.16
335.966	90.11
336.179	114.69
336.392	92.16
336.604	38.91
336.817	139.26
337.029	18.43
337.242	65.54
337.454	88.06
337.667	16.38
337.88	135.17
338.092	124.93
338.305	34.82
338.517	83.97
338.729	194.56
338.942	51.2
339.154	88.06
339.367	-2.05
339.579	114.69
339.792	-6.14
340.004	43.01
340.217	20.48
340.429	106.49
340.641	36.86
340.854	-24.58
341.066	145.41
341.278	122.88
341.491	102.4
341.703	-6.14
341.915	10.24
342.128	47.1
342.34	36.86
342.552	55.3
342.764	36.86
342.977	57.34
343.189	110.59
343.401	63.49
343.613	47.1
343.826	75.77
344.038	67.58
344.25	63.49
344.462	90.11
344.674	79.87
344.886	79.87
345.099	38.91
345.311	83.97
345.523	75.77
345.735	-6.14
345.947	73.73
346.159	57.34
346.371	133.12
346.583	83.97
346.795	96.25
347.007	63.49
347.219	57.34
347.431	106.49
347.643	86.01
347.855	24.58
348.067	24.58
348.279	81.92
348.491	55.3
348.703	83.97
348.915	77.82
349.127	67.58
349.339	112.64
349.551	67.58
349.763	124.93
349.975	32.77
350.187	71.68
350.399	137.21
350.61	65.54
350.822	47.1
351.034	71.68
351.246	108.54
351.458	96.25
351.669	122.88
351.881	114.69
352.093	67.58
352.305	79.87
352.517	63.49
352.728	153.6
352.94	88.06
353.152	120.83
353.363	102.4
353.575	32.77
353.787	120.83
353.999	24.58
354.21	104.45
354.422	81.92
354.633	49.15
354.845	79.87
355.057	57.34
355.268	73.73
355.48	47.1
355.692	8.19
355.903	92.16
356.115	71.68
356.326	-63.49
356.538	28.67
356.749	51.2
356.961	110.59
357.172	38.91
357.384	6.14
357.595	131.07
357.807	43.01
358.018	-28.67
358.23	16.38
358.441	169.98
358.653	129.02
358.864	36.86
359.075	49.15
359.287	12.29
359.498	75.77
359.709	73.73
359.921	-34.82
360.132	77.82
360.344	71.68
360.555	12.29
360.766	106.49
360.977	47.1
361.189	120.83
361.4	6.14
361.611	47.1
361.823	96.25
362.034	100.35
362.245	22.53
362.456	161.79
362.667	92.16
362.879	16.38
363.09	79.87
363.301	59.39
363.512	88.06
363.723	0
363.935	88.06
364.146	47.1
364.357	47.1
364.568	149.5
364.779	79.87
364.99	153.6
365.201	55.3
365.412	92.16
365.623	6.14
365.834	112.64
366.045	67.58
366.256	131.07
366.467	63.49
366.678	106.49
366.889	30.72
367.1	98.3
367.311	73.73
367.522	-14.34
367.733	73.73
367.944	106.49
368.155	92.16
368.366	45.06
368.577	77.82
368.788	124.93
368.999	20.48
369.209	26.62
369.42	137.21
369.631	112.64
369.842	86.01
370.053	32.77
370.264	86.01
370.474	26.62
370.685	98.3
370.896	30.72
371.107	55.3
371.317	139.26
371.528	40.96
371.739	77.82
371.95	26.62
372.16	90.11
372.371	14.34
372.582	30.72
372.792	77.82
373.003	106.49
373.214	18.43
373.424	22.53
373.635	94.21
373.846	88.06
374.056	55.3
374.267	69.63
374.477	104.45
374.688	47.1
374.898	40.96
375.109	40.96
375.319	-2.05
375.53	100.35
375.74	92.16
375.951	96.25
376.161	14.34
376.372	75.77
376.582	34.82
376.793	116.73
377.003	79.87
377.214	57.34
377.424	96.25
377.635	10.24
377.845	71.68
378.055	106.49
378.266	24.58
378.476	34.82
378.686	98.3
378.897	100.35
379.107	38.91
379.317	83.97
379.528	30.72
379.738	88.06
379.948	98.3
380.158	88.06
380.369	106.49
380.579	45.06
380.789	71.68
380.999	106.49
381.21	59.39
381.42	71.68
381.63	43.01
381.84	104.45
382.05	75.77
382.261	18.43
382.471	47.1
382.681	38.91
382.891	200.7
383.101	38.91
383.311	-6.14
383.521	40.96
383.731	96.25
383.941	90.11
384.151	112.64
384.361	81.92
384.571	18.43
384.781	155.65
384.991	92.16
385.201	98.3
385.411	165.89
385.621	55.3
385.831	53.25
386.041	135.17
386.251	83.97
386.461	55.3
386.671	67.58
386.881	34.82
387.091	59.39
387.301	133.12
387.511	106.49
387.72	88.06
387.93	67.58
388.14	-10.24
388.35	120.83
388.56	16.38
388.769	90.11
388.979	190.46
389.189	83.97
389.399	38.91
389.609	71.68
389.818	167.93
390.028	112.64
390.238	120.83
390.447	55.3
390.657	16.38
390.867	151.55
391.076	47.1
391.286	100.35
391.496	139.26
391.705	75.77
391.915	116.73
392.125	79.87
392.334	8.19
392.544	108.54
392.753	137.21
392.963	8.19
393.172	133.12
393.382	30.72
393.591	149.5
393.801	14.34
394.01	96.25
394.22	122.88
394.429	59.39
394.639	163.84
394.848	110.59
395.058	102.4
395.267	36.86
395.477	96.25
395.686	81.92
395.895	133.12
396.105	208.89
396.314	55.3
396.524	116.73
396.733	137.21
396.942	194.56
397.152	112.64
397.361	83.97
397.57	90.11
397.78	110.59
397.989	145.41
398.198	182.27
398.407	94.21
398.617	139.26
398.826	114.69
399.035	83.97
399.244	133.12
399.453	172.03
399.663	122.88
399.872	176.13
400.081	198.65
400.29	135.17
400.499	212.99
400.708	153.6
400.917	92.16
401.127	174.08
401.336	147.45
401.545	204.8
401.754	131.07
401.963	147.45
402.172	161.79
402.381	79.87
402.59	217.08
402.799	106.49
403.008	133.12
403.217	155.65
403.426	137.21
403.635	151.55
403.844	153.6
404.053	169.98
404.262	153.6
404.471	219.13
404.68	215.04
404.888	155.65
405.097	141.31
405.306	210.94
405.515	221.18
405.724	145.41
405.933	251.9
406.142	237.56
406.35	178.17
406.559	227.32
406.768	249.85
406.977	221.18
407.185	204.8
407.394	278.52
407.603	182.27
407.812	219.13
408.02	327.68
408.229	317.44
408.438	346.11
408.646	303.1
408.855	180.22
409.064	366.59
409.272	374.78
409.481	317.44
409.69	382.97
409.898	313.34
410.107	358.39
410.315	403.45
410.524	376.83
410.733	294.91
410.941	374.78
411.15	475.13
411.358	387.07
411.567	514.04
411.775	473.08
411.984	444.41
412.192	614.39
412.401	548.86
412.609	600.05
412.818	546.81
413.026	645.11
413.234	573.43
413.443	571.38
413.651	647.16
413.86	579.58
414.068	690.17
414.276	772.08
414.485	679.93
414.693	735.22
414.901	858.1
415.11	827.38
415.318	817.14
415.526	817.14
415.734	892.91
415.943	864.24
416.151	876.53
416.359	864.24
416.567	964.59
416.776	1021.94
416.984	1054.7
417.192	1163.25
417.4	1144.81
417.608	1021.94
417.817	1116.14
418.025	1316.84
418.233	1302.51
418.441	1277.93
418.649	1341.42
418.857	1462.25
419.065	1501.16
419.273	1382.38
419.481	1462.25
419.689	1546.22
419.897	1679.33
420.105	1687.53
420.313	1640.42
420.521	1695.72
420.729	1751.01
420.937	1955.81
421.145	1961.95
421.353	2066.4
421.561	2164.7
421.769	2146.27
421.977	2359.26
422.185	2291.68
422.393	2301.92
422.601	2580.44
422.809	2541.53
423.017	2588.63
423.224	2570.2
423.432	2688.98
423.64	2744.28
423.848	3090.38
424.056	3020.75
424.263	3250.13
424.471	3237.84
424.679	3317.71
424.887	3416.01
425.094	3612.62
425.302	3528.65
425.51	3637.19
425.718	3807.17
425.925	3792.84
426.133	3899.33
426.341	3995.59
426.548	4298.69
426.756	4423.61
426.964	4390.85
427.171	4700.09
427.379	4806.58
427.586	4962.23
427.794	5005.24
428.001	5142.45
428.209	5603.24
428.417	5371.82
428.624	5762.98
428.832	5550
429.039	5619.63
429.247	5578.67
429.454	6152.1
429.662	6492.06
429.869	6004.64
430.076	6571.93
430.284	6346.66
430.491	6739.87
430.699	7157.65
430.906	7026.58
431.114	7278.48
431.321	7514
431.528	7665.55
431.736	8077.19
431.943	8175.49
432.15	8142.72
432.358	8200.07
432.565	8683.39
432.772	8664.96
432.979	9043.83
433.187	9336.69
433.394	9365.36
433.601	9836.39
433.808	9897.83
434.016	9772.91
434.223	10168.16
434.43	10944.34
434.637	10723.16
434.844	11263.83
435.052	11405.14
435.259	11411.28
435.466	11587.41
435.673	11417.43
435.88	12158.79
436.087	12851
436.294	12621.63
436.501	12412.74
436.708	12728.13
436.915	13051.7
437.122	13535.03
437.329	13776.69
437.537	14055.21
437.743	14313.25
437.95	14118.7
438.157	14937.88
438.364	15509.27
438.571	15378.2
438.778	15208.22
438.985	16709.38
439.192	16291.59
439.399	16400.13
439.606	16322.31
439.813	17540.85
440.02	18380.52
440.227	17774.32
440.433	17997.55
440.64	18489.06
440.847	18153.19
441.054	18775.78
441.261	20033.23
441.467	19533.53
441.674	19920.59
441.881	20973.25
442.088	20850.37
442.294	20362.95
442.501	21157.57
442.708	21655.22
442.914	22189.74
443.121	23084.7
443.328	22654.63
443.534	24258.19
443.741	23445.15
443.948	22863.52
444.154	25157.25
444.361	24866.44
444.568	24755.85
444.774	25169.54
444.981	25208.45
445.187	26136.18
445.394	26910.31
445.6	26476.14
445.807	29179.46
446.013	27864.66
446.22	28692.04
446.426	29634.11
446.633	29642.3
446.839	30895.66
447.046	29472.32
447.252	31301.15
447.459	31176.23
447.665	30600.75
447.871	32517.65
448.078	33285.64
448.284	32067.09
448.491	32968.2
448.697	34174.45
448.903	34872.81
449.11	35040.75
449.316	34749.93
449.522	35087.85
449.728	35995.1
449.935	36541.91
450.141	36394.45
450.347	37084.62
450.553	35536.35
450.76	36419.03
450.966	37309.89
451.172	37211.59
451.378	37561.79
451.584	37168.58
451.791	38045.12
451.997	38174.14
452.203	38491.57
452.409	38497.72
452.615	38413.75
452.821	36931.02
453.027	36404.69
453.233	38227.38
453.44	37125.58
453.646	37305.8
453.852	37029.32
454.058	38163.9
454.264	36783.57
454.47	37158.34
454.676	36808.14
454.882	37653.95
455.088	34565.62
455.294	34885.1
455.5	35577.31
455.705	35673.57
455.911	34229.75
456.117	33500.67
456.323	33381.89
456.529	31616.54
456.735	32951.82
456.941	32333.33
457.147	31774.24
457.352	30522.93
457.558	30090.8
457.764	30465.58
457.97	29859.38
458.176	29277.76
458.381	29109.83
458.587	27659.87
458.793	27864.66
458.999	25955.96
459.204	28055.12
459.41	27141.73
459.616	25425.53
459.821	25542.27
460.027	25632.38
460.233	24946.31
460.438	23502.49
460.644	23721.62
460.85	22640.29
461.055	22316.72
461.261	22376.11
461.466	20547.27
461.672	19844.82
461.878	21280.44
462.083	19885.78
462.289	19478.23
462.494	19334.87
462.7	18333.42
462.905	17991.41
463.111	18644.71
463.316	18605.8
463.522	17954.54
463.727	18145
463.932	18378.47
464.138	17671.92
464.343	18063.08
464.549	17604.34
464.754	18134.76
464.959	18018.03
465.165	17848.05
465.37	16895.74
465.575	16549.64
465.781	17139.45
465.986	17200.89
466.191	16971.52
466.397	16445.19
466.602	15609.62
466.807	16094.99
