Data from USB4F104151__209__14-33-23-024.txt Node

Date: Thu Mar 13 14:33:23 EDT 2025
User: louis
Spectrometer: USB4F10415
Trigger mode: 4
Integration Time (sec): 2.500000E-2
Scans to average: 1
Electric dark correction enabled: true
Nonlinearity correction enabled: false
Boxcar width: 0
XAxis mode: Wavelengths
Number of Pixels in Spectrum: 3648
>>>>>Begin Spectral Data<<<<<
178.204	-190.29
178.424	-190.29
178.644	-190.29
178.864	-151.38
179.084	-159.57
179.304	0.17
179.524	45.23
179.744	-75.6
179.964	94.38
180.184	4.27
180.404	8.36
180.624	-30.55
180.844	8.36
181.064	-20.31
181.283	-42.84
181.503	-8.02
181.723	16.55
181.943	-26.45
182.163	73.9
182.383	-20.31
182.602	-3.93
182.822	24.75
183.042	6.31
183.262	-42.84
183.482	37.03
183.701	45.23
183.921	53.42
184.141	-3.93
184.361	0.17
184.58	47.27
184.8	12.46
185.02	6.31
185.239	61.61
185.459	-8.02
185.679	14.51
185.898	-75.6
186.118	41.13
186.338	47.27
186.557	45.23
186.777	-8.02
186.997	0.17
187.216	14.51
187.436	69.8
187.655	26.79
187.875	47.27
188.095	-3.93
188.314	-26.45
188.534	51.37
188.753	20.65
188.973	-1.88
189.192	53.42
189.412	-1.88
189.631	20.65
189.851	-12.12
190.07	69.8
190.29	22.7
190.509	-69.46
190.729	37.03
190.948	86.19
191.168	129.19
191.387	108.71
191.607	61.61
191.826	28.84
192.045	-10.07
192.265	-12.12
192.484	28.84
192.704	131.24
192.923	22.7
193.142	110.76
193.362	59.56
193.581	-20.31
193.8	37.03
194.02	37.03
194.239	32.94
194.458	131.24
194.678	-75.6
194.897	4.27
195.116	20.65
195.335	53.42
195.555	8.36
195.774	6.31
195.993	20.65
196.212	53.42
196.432	-24.4
196.651	63.66
196.87	-18.26
197.089	106.67
197.308	-20.31
197.528	80.04
197.747	-20.31
197.966	-3.93
198.185	106.67
198.404	45.23
198.623	53.42
198.842	39.08
199.062	-24.4
199.281	92.33
199.5	-26.45
199.719	53.42
199.938	28.84
200.157	-32.6
200.376	-22.36
200.595	53.42
200.814	53.42
201.033	-14.17
201.252	28.84
201.471	16.55
201.69	32.94
201.909	-22.36
202.128	-18.26
202.347	4.27
202.566	16.55
202.785	-1.88
203.004	-10.07
203.223	110.76
203.442	39.08
203.661	47.27
203.879	-18.26
204.098	-14.17
204.317	55.47
204.536	65.71
204.755	71.85
204.974	-3.93
205.193	-8.02
205.411	73.9
205.63	4.27
205.849	12.46
206.068	6.31
206.287	37.03
206.505	6.31
206.724	53.42
206.943	-67.41
207.162	-61.27
207.381	45.23
207.599	55.47
207.818	77.99
208.037	4.27
208.255	12.46
208.474	55.47
208.693	57.51
208.911	37.03
209.13	14.51
209.349	98.47
209.567	92.33
209.786	86.19
210.005	41.13
210.223	37.03
210.442	28.84
210.661	61.61
210.879	-3.93
211.098	-42.84
211.316	-12.12
211.535	55.47
211.753	84.14
211.972	53.42
212.191	28.84
212.409	-8.02
212.628	26.79
212.846	-34.64
213.065	77.99
213.283	16.55
213.502	102.57
213.72	37.03
213.938	106.67
214.157	39.08
214.375	-83.8
214.594	-1.88
214.812	82.09
215.031	22.7
215.249	22.7
215.467	12.46
215.686	37.03
215.904	12.46
216.122	4.27
216.341	4.27
216.559	47.27
216.778	-10.07
216.996	55.47
217.214	12.46
217.432	75.95
217.651	34.99
217.869	73.9
218.087	32.94
218.306	-32.6
218.524	88.23
218.742	-22.36
218.96	6.31
219.179	45.23
219.397	26.79
219.615	86.19
219.833	84.14
220.051	-8.02
220.27	80.04
220.488	0.17
220.706	0.17
220.924	61.61
221.142	55.47
221.36	45.23
221.578	55.47
221.796	104.62
222.015	-53.08
222.233	32.94
222.451	80.04
222.669	61.61
222.887	37.03
223.105	82.09
223.323	10.41
223.541	53.42
223.759	4.27
223.977	-63.32
224.195	22.7
224.413	26.79
224.631	77.99
224.849	4.27
225.067	88.23
225.285	-14.17
225.503	30.89
225.721	-102.23
225.939	6.31
226.157	4.27
226.375	49.32
226.592	-65.36
226.81	8.36
227.028	67.75
227.246	49.32
227.464	30.89
227.682	4.27
227.9	82.09
228.117	57.51
228.335	-40.79
228.553	-44.88
228.771	8.36
228.989	6.31
229.206	16.55
229.424	-59.22
229.642	47.27
229.86	28.84
230.077	16.55
230.295	14.51
230.513	80.04
230.731	24.75
230.948	49.32
231.166	123.05
231.384	-26.45
231.601	-3.93
231.819	-10.07
232.037	4.27
232.254	92.33
232.472	-34.64
232.689	-24.4
232.907	55.47
233.125	65.71
233.342	49.32
233.56	8.36
233.777	6.31
233.995	12.46
234.213	28.84
234.43	-1.88
234.648	4.27
234.865	-22.36
235.083	16.55
235.3	55.47
235.518	86.19
235.735	88.23
235.953	32.94
236.17	4.27
236.388	4.27
236.605	43.18
236.822	90.28
237.04	94.38
237.257	28.84
237.475	-5.97
237.692	32.94
237.909	34.99
238.127	32.94
238.344	45.23
238.562	118.95
238.779	-32.6
238.996	57.51
239.214	-42.84
239.431	20.65
239.648	-59.22
239.865	118.95
240.083	37.03
240.3	22.7
240.517	-3.93
240.735	-8.02
240.952	77.99
241.169	98.47
241.386	0.17
241.603	8.36
241.821	4.27
242.038	37.03
242.255	43.18
242.472	20.65
242.689	37.03
242.907	37.03
243.124	20.65
243.341	12.46
243.558	-20.31
243.775	-28.5
243.992	18.6
244.209	12.46
244.426	131.24
244.643	6.31
244.86	4.27
245.078	-34.64
245.295	22.7
245.512	63.66
245.729	12.46
245.946	-65.36
246.163	77.99
246.38	53.42
246.597	14.51
246.814	-34.64
247.031	65.71
247.248	59.56
247.464	24.75
247.681	47.27
247.898	-3.93
248.115	73.9
248.332	-28.5
248.549	53.42
248.766	69.8
248.983	43.18
249.2	61.61
249.417	86.19
249.633	20.65
249.85	63.66
250.067	28.84
250.284	104.62
250.501	53.42
250.717	12.46
250.934	-22.36
251.151	-1.88
251.368	112.81
251.585	71.85
251.801	71.85
252.018	-12.12
252.235	20.65
252.451	32.94
252.668	-24.4
252.885	24.75
253.102	-1.88
253.318	14.51
253.535	14.51
253.752	53.42
253.968	32.94
254.185	-67.41
254.401	26.79
254.618	77.99
254.835	18.6
255.051	112.81
255.268	37.03
255.484	55.47
255.701	20.65
255.917	69.8
256.134	-3.93
256.351	80.04
256.567	-3.93
256.784	22.7
257	2.22
257.217	45.23
257.433	53.42
257.65	69.8
257.866	18.6
258.082	12.46
258.299	34.99
258.515	-3.93
258.732	53.42
258.948	30.89
259.165	24.75
259.381	-44.88
259.597	12.46
259.814	63.66
260.03	-32.6
260.246	53.42
260.463	0.17
260.679	-12.12
260.895	-20.31
261.112	94.38
261.328	20.65
261.544	63.66
261.761	-8.02
261.977	2.22
262.193	26.79
262.409	77.99
262.626	12.46
262.842	32.94
263.058	-36.69
263.274	108.71
263.49	61.61
263.707	45.23
263.923	-10.07
264.139	28.84
264.355	82.09
264.571	112.81
264.787	-18.26
265.004	39.08
265.22	24.75
265.436	-22.36
265.652	-36.69
265.868	92.33
266.084	22.7
266.3	2.22
266.516	-22.36
266.732	49.32
266.948	-48.98
267.164	6.31
267.38	32.94
267.596	80.04
267.812	94.38
268.028	84.14
268.244	20.65
268.46	4.27
268.676	-16.21
268.892	18.6
269.108	-30.55
269.324	-14.17
269.54	-5.97
269.756	69.8
269.972	-20.31
270.188	61.61
270.403	-40.79
270.619	75.95
270.835	-12.12
271.051	20.65
271.267	12.46
271.483	30.89
271.698	80.04
271.914	20.65
272.13	20.65
272.346	16.55
272.562	49.32
272.777	39.08
272.993	0.17
273.209	-28.5
273.425	12.46
273.64	-40.79
273.856	63.66
274.072	51.37
274.287	61.61
274.503	65.71
274.719	43.18
274.934	61.61
275.15	-16.21
275.366	-44.88
275.581	39.08
275.797	63.66
276.012	-22.36
276.228	0.17
276.444	32.94
276.659	57.51
276.875	47.27
277.09	16.55
277.306	86.19
277.521	77.99
277.737	41.13
277.952	94.38
278.168	114.86
278.383	-16.21
278.599	67.75
278.814	53.42
279.03	55.47
279.245	104.62
279.461	20.65
279.676	39.08
279.892	22.7
280.107	-20.31
280.322	20.65
280.538	102.57
280.753	-32.6
280.969	86.19
281.184	-65.36
281.399	49.32
281.615	37.03
281.83	24.75
282.045	-12.12
282.26	37.03
282.476	39.08
282.691	88.23
282.906	55.47
283.122	88.23
283.337	-12.12
283.552	77.99
283.767	-3.93
283.983	37.03
284.198	20.65
284.413	0.17
284.628	-3.93
284.843	4.27
285.058	112.81
285.274	37.03
285.489	-32.6
285.704	90.28
285.919	-30.55
286.134	94.38
286.349	8.36
286.564	69.8
286.779	61.61
286.995	-1.88
287.21	-59.22
287.425	-28.5
287.64	-10.07
287.855	37.03
288.07	30.89
288.285	71.85
288.5	20.65
288.715	39.08
288.93	-42.84
289.145	-20.31
289.36	90.28
289.575	-18.26
289.79	77.99
290.004	-3.93
290.219	67.75
290.434	28.84
290.649	-20.31
290.864	63.66
291.079	24.75
291.294	49.32
291.509	53.42
291.724	-26.45
291.938	61.61
292.153	12.46
292.368	24.75
292.583	39.08
292.798	69.8
293.012	53.42
293.227	-8.02
293.442	4.27
293.657	-1.88
293.871	88.23
294.086	47.27
294.301	14.51
294.516	37.03
294.73	24.75
294.945	-59.22
295.16	37.03
295.374	110.76
295.589	57.51
295.804	69.8
296.018	69.8
296.233	32.94
296.447	28.84
296.662	37.03
296.877	53.42
297.091	37.03
297.306	-12.12
297.52	-12.12
297.735	51.37
297.949	-3.93
298.164	69.8
298.378	102.57
298.593	-44.88
298.807	-20.31
299.022	80.04
299.236	110.76
299.451	53.42
299.665	4.27
299.88	24.75
300.094	45.23
300.309	37.03
300.523	34.99
300.737	-14.17
300.952	61.61
301.166	14.51
301.381	4.27
301.595	0.17
301.809	28.84
302.024	86.19
302.238	-16.21
302.452	135.34
302.667	28.84
302.881	88.23
303.095	94.38
303.309	57.51
303.524	-63.32
303.738	16.55
303.952	-28.5
304.166	24.75
304.381	-20.31
304.595	43.18
304.809	20.65
305.023	45.23
305.237	-36.69
305.452	59.56
305.666	-10.07
305.88	-18.26
306.094	45.23
306.308	118.95
306.522	28.84
306.736	110.76
306.95	104.62
307.164	-20.31
307.379	28.84
307.593	10.41
307.807	28.84
308.021	-14.17
308.235	53.42
308.449	12.46
308.663	-65.36
308.877	28.84
309.091	47.27
309.305	45.23
309.519	10.41
309.733	18.6
309.947	37.03
310.161	49.32
310.374	47.27
310.588	73.9
310.802	24.75
311.016	37.03
311.23	14.51
311.444	-20.31
311.658	26.79
311.872	32.94
312.085	37.03
312.299	100.52
312.513	65.71
312.727	45.23
312.941	20.65
313.154	45.23
313.368	6.31
313.582	77.99
313.796	53.42
314.009	96.43
314.223	47.27
314.437	69.8
314.651	45.23
314.864	53.42
315.078	65.71
315.292	-18.26
315.505	34.99
315.719	59.56
315.933	51.37
316.146	-12.12
316.36	34.99
316.573	69.8
316.787	37.03
317.001	0.17
317.214	20.65
317.428	-12.12
317.641	-10.07
317.855	-1.88
318.068	32.94
318.282	8.36
318.495	90.28
318.709	34.99
318.922	96.43
319.136	0.17
319.349	30.89
319.563	32.94
319.776	96.43
319.99	2.22
320.203	14.51
320.417	28.84
320.63	86.19
320.843	98.47
321.057	47.27
321.27	-16.21
321.483	45.23
321.697	71.85
321.91	133.29
322.124	2.22
322.337	28.84
322.55	20.65
322.763	102.57
322.977	57.51
323.19	8.36
323.403	69.8
323.617	116.9
323.83	-10.07
324.043	39.08
324.256	106.67
324.469	-3.93
324.683	118.95
324.896	0.17
325.109	12.46
325.322	8.36
325.535	39.08
325.748	2.22
325.962	69.8
326.175	26.79
326.388	65.71
326.601	-5.97
326.814	12.46
327.027	43.18
327.24	86.19
327.453	-20.31
327.666	37.03
327.879	73.9
328.092	16.55
328.305	34.99
328.518	65.71
328.731	14.51
328.944	49.32
329.157	32.94
329.37	61.61
329.583	94.38
329.796	47.27
330.009	-18.26
330.222	88.23
330.435	75.95
330.648	41.13
330.861	-24.4
331.073	37.03
331.286	77.99
331.499	55.47
331.712	26.79
331.925	-10.07
332.138	0.17
332.35	49.32
332.563	-53.08
332.776	135.34
332.989	14.51
333.202	77.99
333.414	28.84
333.627	28.84
333.84	-3.93
334.053	22.7
334.265	88.23
334.478	-36.69
334.691	65.71
334.903	77.99
335.116	28.84
335.329	45.23
335.541	45.23
335.754	127.14
335.966	14.51
336.179	39.08
336.392	71.85
336.604	28.84
336.817	77.99
337.029	47.27
337.242	59.56
337.454	37.03
337.667	-44.88
337.88	75.95
338.092	45.23
338.305	98.47
338.517	75.95
338.729	22.7
338.942	55.47
339.154	41.13
339.367	6.31
339.579	20.65
339.792	41.13
340.004	71.85
340.217	14.51
340.429	114.86
340.641	-53.08
340.854	-8.02
341.066	63.66
341.278	129.19
341.491	51.37
341.703	-12.12
341.915	-20.31
342.128	71.85
342.34	61.61
342.552	102.57
342.764	86.19
342.977	88.23
343.189	69.8
343.401	53.42
343.613	-24.4
343.826	69.8
344.038	61.61
344.25	112.81
344.462	45.23
344.674	0.17
344.886	-3.93
345.099	45.23
345.311	22.7
345.523	94.38
345.735	16.55
345.947	88.23
346.159	12.46
346.371	16.55
346.583	86.19
346.795	77.99
347.007	4.27
347.219	22.7
347.431	-1.88
347.643	110.76
347.855	30.89
348.067	118.95
348.279	-77.65
348.491	-46.93
348.703	28.84
348.915	112.81
349.127	24.75
349.339	98.47
349.551	12.46
349.763	118.95
349.975	6.31
350.187	51.37
350.399	37.03
350.61	63.66
350.822	24.75
351.034	24.75
351.246	39.08
351.458	116.9
351.669	57.51
351.881	135.34
352.093	45.23
352.305	180.39
352.517	41.13
352.728	28.84
352.94	61.61
353.152	77.99
353.363	6.31
353.575	20.65
353.787	151.72
353.999	49.32
354.21	71.85
354.422	-16.21
354.633	65.71
354.845	18.6
355.057	104.62
355.268	102.57
355.48	104.62
355.692	-48.98
355.903	77.99
356.115	26.79
356.326	-24.4
356.538	49.32
356.749	32.94
356.961	92.33
357.172	-20.31
357.384	20.65
357.595	110.76
357.807	57.51
358.018	-51.03
358.23	45.23
358.441	118.95
358.653	43.18
358.864	90.28
359.075	26.79
359.287	71.85
359.498	123.05
359.709	47.27
359.921	24.75
360.132	45.23
360.344	-1.88
360.555	28.84
360.766	-12.12
360.977	28.84
361.189	49.32
361.4	-42.84
361.611	121
361.823	127.14
362.034	2.22
362.245	-10.07
362.456	49.32
362.667	88.23
362.879	-1.88
363.09	30.89
363.301	26.79
363.512	0.17
363.723	53.42
363.935	28.84
364.146	82.09
364.357	45.23
364.568	80.04
364.779	32.94
364.99	69.8
365.201	69.8
365.412	90.28
365.623	-1.88
365.834	55.47
366.045	65.71
366.256	94.38
366.467	69.8
366.678	16.55
366.889	-1.88
367.1	-12.12
367.311	22.7
367.522	28.84
367.733	41.13
367.944	43.18
368.155	12.46
368.366	-16.21
368.577	59.56
368.788	98.47
368.999	77.99
369.209	-28.5
369.42	69.8
369.631	69.8
369.842	49.32
370.053	63.66
370.264	43.18
370.474	37.03
370.685	71.85
370.896	34.99
371.107	69.8
371.317	55.47
371.528	-22.36
371.739	55.47
371.95	20.65
372.16	49.32
372.371	49.32
372.582	69.8
372.792	77.99
373.003	65.71
373.214	82.09
373.424	65.71
373.635	2.22
373.846	86.19
374.056	53.42
374.267	65.71
374.477	20.65
374.688	45.23
374.898	102.57
375.109	131.24
375.319	43.18
375.53	86.19
375.74	71.85
375.951	86.19
376.161	127.14
376.372	57.51
376.582	57.51
376.793	77.99
377.003	65.71
377.214	-20.31
377.424	37.03
377.635	110.76
377.845	65.71
378.055	94.38
378.266	30.89
378.476	45.23
378.686	82.09
378.897	82.09
379.107	16.55
379.317	65.71
379.528	77.99
379.738	69.8
379.948	14.51
380.158	88.23
380.369	75.95
380.579	63.66
380.789	20.65
380.999	28.84
381.21	77.99
381.42	82.09
381.63	80.04
381.84	12.46
382.05	118.95
382.261	55.47
382.471	61.61
382.681	4.27
382.891	96.43
383.101	86.19
383.311	12.46
383.521	65.71
383.731	45.23
383.941	69.8
384.151	45.23
384.361	151.72
384.571	-3.93
384.781	28.84
384.991	153.77
385.201	139.43
385.411	22.7
385.621	102.57
385.831	82.09
386.041	10.41
386.251	84.14
386.461	55.47
386.671	41.13
386.881	28.84
387.091	77.99
387.301	53.42
387.511	-12.12
387.72	69.8
387.93	77.99
388.14	-10.07
388.35	32.94
388.56	86.19
388.769	51.37
388.979	20.65
389.189	-14.17
389.399	39.08
389.609	121
389.818	69.8
390.028	127.14
390.238	77.99
390.447	8.36
390.657	86.19
390.867	30.89
391.076	39.08
391.286	98.47
391.496	61.61
391.705	55.47
391.915	75.95
392.125	110.76
392.334	61.61
392.544	69.8
392.753	73.9
392.963	61.61
393.172	53.42
393.382	82.09
393.591	139.43
393.801	45.23
394.01	135.34
394.22	112.81
394.429	4.27
394.639	65.71
394.848	145.58
395.058	80.04
395.267	90.28
395.477	82.09
395.686	102.57
395.895	192.68
396.105	188.58
396.314	51.37
396.524	184.49
396.733	102.57
396.942	200.87
397.152	49.32
397.361	192.68
397.57	61.61
397.78	45.23
397.989	135.34
398.198	180.39
398.407	102.57
398.617	129.19
398.826	145.58
399.035	139.43
399.244	151.72
399.453	135.34
399.663	110.76
399.872	143.53
400.081	131.24
400.29	106.67
400.499	98.47
400.708	186.54
400.917	96.43
401.127	184.49
401.336	-5.97
401.545	176.3
401.754	233.64
401.963	147.62
402.172	127.14
402.381	82.09
402.59	104.62
402.799	127.14
403.008	143.53
403.217	256.17
403.426	170.15
403.635	112.81
403.844	94.38
404.053	159.91
404.262	168.1
404.471	215.21
404.68	157.86
404.888	188.58
405.097	161.96
405.306	178.34
405.515	290.98
405.724	303.27
405.933	323.75
406.142	258.21
406.35	229.54
406.559	217.26
406.768	188.58
406.977	305.32
407.185	340.13
407.394	307.37
407.603	233.64
407.812	260.26
408.02	333.99
408.229	366.76
408.438	352.42
408.646	319.65
408.855	290.98
409.064	448.68
409.272	274.6
409.481	370.85
409.69	331.94
409.898	366.76
410.107	417.96
410.315	415.91
410.524	360.61
410.733	463.01
410.941	444.58
411.15	520.35
411.358	495.78
411.567	602.27
411.775	487.59
411.984	495.78
412.192	653.47
412.401	630.95
412.609	665.76
412.818	694.43
413.026	663.71
413.234	721.06
413.443	684.19
413.651	694.43
413.86	823.45
414.068	891.04
414.276	860.32
414.485	848.03
414.693	841.89
414.901	876.7
415.11	934.04
415.318	923.8
415.526	1022.11
415.734	972.96
415.943	1015.96
416.151	1187.99
416.359	1069.21
416.567	1183.9
416.776	1224.86
416.984	1347.73
417.192	1220.76
417.4	1300.63
417.608	1382.55
417.817	1355.93
418.025	1542.29
418.233	1540.24
418.441	1515.67
418.649	1585.3
418.857	1681.55
419.065	1783.95
419.273	1718.42
419.481	1933.45
419.689	2013.32
419.897	1998.99
420.105	1970.32
420.313	2216.07
420.521	2265.22
420.729	2326.66
420.937	2314.38
421.145	2390.15
421.353	2533.51
421.561	2607.23
421.769	2617.47
421.977	2807.94
422.185	2687.11
422.393	2883.71
422.601	3057.79
422.809	3180.67
423.017	3059.84
423.224	3248.25
423.432	3395.7
423.64	3477.62
423.848	3682.42
424.056	3567.73
424.263	3874.93
424.471	3915.89
424.679	3991.66
424.887	4059.24
425.094	4378.73
425.302	4321.38
425.51	4366.44
425.718	4720.74
425.925	4747.36
426.133	4722.79
426.341	5017.69
426.548	5275.74
426.756	5355.61
426.964	5390.42
427.171	5705.81
427.379	5931.09
427.586	6041.68
427.794	6060.11
428.001	6305.87
428.209	6578.25
428.417	6467.66
428.624	6967.36
428.832	7036.99
429.039	6963.26
429.247	6975.55
429.454	7770.16
429.662	8224.81
429.869	7870.51
430.076	8331.31
430.284	7925.81
430.491	8253.48
430.699	8736.81
430.906	8869.92
431.114	8755.24
431.321	9250.85
431.528	9414.68
431.736	9971.73
431.943	10440.72
432.15	10082.32
432.358	10227.73
432.565	10795.01
432.772	10559.5
432.979	11087.87
433.187	11347.97
433.394	11579.39
433.601	12001.27
433.808	12281.84
434.016	12158.96
434.223	12808.17
434.43	13621.21
434.637	13221.86
434.844	13946.84
435.052	14176.21
435.259	14362.58
435.466	14409.68
435.673	14323.66
435.88	15085.51
436.087	15695.8
436.294	15757.24
436.501	15601.6
436.708	15738.81
436.915	16299.95
437.122	17010.6
437.329	17192.87
437.537	17436.58
437.743	17772.44
437.95	17584.03
438.157	18749.32
438.364	19072.9
438.571	19320.71
438.778	19206.02
438.985	20914.03
439.192	20111.22
439.399	20815.73
439.606	20383.6
439.813	21600.1
440.02	22849.36
440.227	22273.88
440.433	21981.02
440.64	22732.62
440.847	22646.61
441.054	23170.89
441.261	25057.07
441.467	24522.55
441.674	24958.77
441.881	25882.4
442.088	25597.73
442.294	25792.29
442.501	26169.12
442.708	26810.13
442.914	27756.29
443.121	28716.79
443.328	28176.12
443.534	29834.98
443.741	29509.35
443.948	28829.43
444.154	31049.42
444.361	30850.77
444.568	30822.1
444.774	30478.04
444.981	31342.28
445.187	32093.89
445.394	33679.02
445.6	33191.6
445.807	36173.44
446.013	34670.23
446.22	34881.17
446.426	36603.52
446.633	37105.27
446.839	38299.23
447.046	36544.13
447.252	38467.17
447.459	38577.76
447.665	38209.12
447.871	39798.35
448.078	41639.47
448.284	39798.35
448.491	40656.45
448.697	42210.85
448.903	43146.78
449.11	43097.63
449.316	42649.12
449.522	43261.46
449.728	44326.41
449.935	45161.98
450.141	44963.32
450.347	45342.2
450.553	44652.03
450.76	44717.57
450.966	46530.02
451.172	45723.12
451.378	47363.54
451.584	45661.68
451.791	47105.5
451.997	46949.85
452.203	47646.16
452.409	47748.56
452.615	47007.2
452.821	45809.14
453.027	45331.96
453.233	47580.63
453.44	45684.21
453.646	45860.33
453.852	46200.3
454.058	46800.35
454.264	45753.84
454.47	46972.38
454.676	45800.94
454.882	47175.13
455.088	42929.69
455.294	43462.16
455.5	44312.07
455.705	45008.38
455.911	43462.16
456.117	42257.96
456.323	41913.9
456.529	39757.39
456.735	41131.58
456.941	40181.32
457.147	39546.45
457.352	38280.8
457.558	38104.68
457.764	38180.45
457.97	37187.19
458.176	36058.76
458.381	36503.17
458.587	34811.54
458.793	34592.41
458.999	32964.28
459.204	35178.13
459.41	34377.37
459.616	32179.9
459.821	32077.51
460.027	32153.28
460.233	30932.69
460.438	29708.01
460.644	30254.81
460.85	28665.59
461.055	28096.25
461.261	27985.66
461.466	25689.89
461.672	25106.22
461.878	26922.77
462.083	25440.04
462.289	24923.95
462.494	24287.03
462.7	23269.19
462.905	22607.7
463.111	23232.33
463.316	23709.5
463.522	22771.54
463.727	23136.07
463.932	22908.75
464.138	22671.18
464.343	22734.67
464.549	22273.88
464.754	22888.27
464.959	22763.34
465.165	22540.11
465.37	21325.67
465.575	20557.68
465.781	21423.97
465.986	21641.06
466.191	20940.65
466.397	20584.3
466.602	19599.23
