Data from USB4F104151__169__14-32-23-066.txt Node

Date: Thu Mar 13 14:32:23 EDT 2025
User: louis
Spectrometer: USB4F10415
Trigger mode: 4
Integration Time (sec): 2.500000E-2
Scans to average: 1
Electric dark correction enabled: true
Nonlinearity correction enabled: false
Boxcar width: 0
XAxis mode: Wavelengths
Number of Pixels in Spectrum: 3648
>>>>>Begin Spectral Data<<<<<
178.204	-133.97
178.424	-133.97
178.644	-133.97
178.864	-162.64
179.084	-119.64
179.304	21.67
179.524	-31.57
179.744	46.25
179.964	79.02
180.184	-50
180.404	1.19
180.624	-56.15
180.844	5.29
181.064	9.39
181.283	-35.67
181.503	-4.95
181.723	15.53
181.943	-62.29
182.163	156.84
182.383	-2.9
182.602	23.72
182.822	95.4
183.042	81.07
183.262	56.49
183.482	38.06
183.701	40.11
183.921	-76.63
184.141	-11.09
184.361	68.78
184.58	21.67
184.8	72.87
185.02	-62.29
185.239	66.73
185.459	25.77
185.679	-13.14
185.898	-66.39
186.118	52.39
186.338	64.68
186.557	19.63
186.777	25.77
186.997	72.87
187.216	81.07
187.436	130.22
187.655	87.21
187.875	38.06
188.095	13.48
188.314	97.45
188.534	54.44
188.753	87.21
188.973	29.87
189.192	85.16
189.412	72.87
189.631	93.35
189.851	33.96
190.07	74.92
190.29	87.21
190.509	33.96
190.729	1.19
190.948	48.3
191.168	169.13
191.387	111.78
191.607	79.02
191.826	70.83
192.045	3.24
192.265	9.39
192.484	-27.48
192.704	23.72
192.923	-2.9
193.142	87.21
193.362	79.02
193.581	107.69
193.8	29.87
194.02	79.02
194.239	64.68
194.458	62.63
194.678	54.44
194.897	56.49
195.116	40.11
195.335	13.48
195.555	111.78
195.774	38.06
195.993	46.25
196.212	42.15
196.432	31.91
196.651	42.15
196.87	-0.85
197.089	23.72
197.308	23.72
197.528	50.35
197.747	27.82
197.966	83.11
198.185	-9.05
198.404	-9.05
198.623	33.96
198.842	54.44
199.062	-2.9
199.281	64.68
199.5	-11.09
199.719	46.25
199.938	64.68
200.157	91.31
200.376	79.02
200.595	1.19
200.814	72.87
201.033	-35.67
201.252	111.78
201.471	56.49
201.69	17.58
201.909	40.11
202.128	42.15
202.347	83.11
202.566	48.3
202.785	42.15
203.004	60.59
203.223	171.18
203.442	38.06
203.661	62.63
203.879	-23.38
204.098	54.44
204.317	-39.76
204.536	68.78
204.755	46.25
204.974	-27.48
205.193	70.83
205.411	70.83
205.63	56.49
205.849	5.29
206.068	31.91
206.287	-21.33
206.505	46.25
206.724	-0.85
206.943	111.78
207.162	42.15
207.381	91.31
207.599	38.06
207.818	66.73
208.037	46.25
208.255	70.83
208.474	95.4
208.693	40.11
208.911	29.87
209.13	23.72
209.349	54.44
209.567	-9.05
209.786	27.82
210.005	113.83
210.223	5.29
210.442	52.39
210.661	40.11
210.879	29.87
211.098	19.63
211.316	36.01
211.535	91.31
211.753	70.83
211.972	46.25
212.191	27.82
212.409	31.91
212.628	54.44
212.846	54.44
213.065	46.25
213.283	36.01
213.502	-27.48
213.72	29.87
213.938	-17.24
214.157	46.25
214.375	17.58
214.594	70.83
214.812	93.35
215.031	-7
215.249	-35.67
215.467	70.83
215.686	25.77
215.904	62.63
216.122	-13.14
216.341	130.22
216.559	124.07
216.778	60.59
216.996	70.83
217.214	7.34
217.432	31.91
217.651	44.2
217.869	-11.09
218.087	56.49
218.306	-7
218.524	25.77
218.742	50.35
218.96	29.87
219.179	13.48
219.397	-2.9
219.615	124.07
219.833	62.63
220.051	13.48
220.27	76.97
220.488	-7
220.706	95.4
220.924	48.3
221.142	36.01
221.36	97.45
221.578	87.21
221.796	-35.67
222.015	46.25
222.233	95.4
222.451	117.93
222.669	44.2
222.887	-2.9
223.105	21.67
223.323	21.67
223.541	15.53
223.759	54.44
223.977	-93.01
224.195	62.63
224.413	7.34
224.631	46.25
224.849	70.83
225.067	97.45
225.285	-17.24
225.503	23.72
225.721	-2.9
225.939	23.72
226.157	-0.85
226.375	111.78
226.592	29.87
226.81	5.29
227.028	124.07
227.246	79.02
227.464	169.13
227.682	87.21
227.9	62.63
228.117	79.02
228.335	-31.57
228.553	42.15
228.771	13.48
228.989	83.11
229.206	56.49
229.424	5.29
229.642	33.96
229.86	-11.09
230.077	27.82
230.295	-9.05
230.513	113.83
230.731	79.02
230.948	162.98
231.166	15.53
231.384	-0.85
231.601	46.25
231.819	130.22
232.037	48.3
232.254	38.06
232.472	42.15
232.689	-39.76
232.907	29.87
233.125	70.83
233.342	9.39
233.56	38.06
233.777	21.67
233.995	48.3
234.213	105.64
234.43	19.63
234.648	76.97
234.865	56.49
235.083	111.78
235.3	-0.85
235.518	58.54
235.735	111.78
235.953	158.89
236.17	13.48
236.388	113.83
236.605	29.87
236.822	87.21
237.04	72.87
237.257	13.48
237.475	-11.09
237.692	-2.9
237.909	33.96
238.127	15.53
238.344	91.31
238.562	-9.05
238.779	11.43
238.996	-4.95
239.214	-35.67
239.431	95.4
239.648	76.97
239.865	70.83
240.083	13.48
240.3	-9.05
240.517	50.35
240.735	13.48
240.952	48.3
241.169	64.68
241.386	23.72
241.603	40.11
241.821	25.77
242.038	50.35
242.255	31.91
242.472	48.3
242.689	58.54
242.907	19.63
243.124	38.06
243.341	79.02
243.558	99.5
243.775	-11.09
243.992	-13.14
244.209	-19.29
244.426	70.83
244.643	113.83
244.86	79.02
245.078	81.07
245.295	68.78
245.512	64.68
245.729	50.35
245.946	91.31
246.163	48.3
246.38	72.87
246.597	79.02
246.814	62.63
247.031	33.96
247.248	79.02
247.464	48.3
247.681	7.34
247.898	97.45
248.115	19.63
248.332	29.87
248.549	83.11
248.766	115.88
248.983	3.24
249.2	42.15
249.417	-19.29
249.633	36.01
249.85	42.15
250.067	-17.24
250.284	64.68
250.501	21.67
250.717	101.55
250.934	17.58
251.151	66.73
251.368	-37.72
251.585	113.83
251.801	66.73
252.018	1.19
252.235	29.87
252.451	11.43
252.668	-31.57
252.885	46.25
253.102	50.35
253.318	-21.33
253.535	72.87
253.752	54.44
253.968	54.44
254.185	-2.9
254.401	58.54
254.618	46.25
254.835	1.19
255.051	103.59
255.268	38.06
255.484	76.97
255.701	23.72
255.917	25.77
256.134	7.34
256.351	21.67
256.567	40.11
256.784	21.67
257	68.78
257.217	46.25
257.433	25.77
257.65	74.92
257.866	23.72
258.082	-9.05
258.299	-9.05
258.515	58.54
258.732	13.48
258.948	-25.43
259.165	105.64
259.381	-33.62
259.597	-15.19
259.814	79.02
260.03	42.15
260.246	40.11
260.463	21.67
260.679	122.02
260.895	7.34
261.112	70.83
261.328	9.39
261.544	17.58
261.761	111.78
261.977	56.49
262.193	29.87
262.409	-2.9
262.626	48.3
262.842	91.31
263.058	13.48
263.274	60.59
263.49	46.25
263.707	42.15
263.923	11.43
264.139	-68.44
264.355	44.2
264.571	160.94
264.787	54.44
265.004	19.63
265.22	38.06
265.436	36.01
265.652	-7
265.868	83.11
266.084	29.87
266.3	79.02
266.516	13.48
266.732	87.21
266.948	40.11
267.164	-58.2
267.38	33.96
267.596	40.11
267.812	99.5
268.028	25.77
268.244	-9.05
268.46	58.54
268.676	81.07
268.892	130.22
269.108	21.67
269.324	13.48
269.54	-13.14
269.756	146.6
269.972	31.91
270.188	46.25
270.403	70.83
270.619	5.29
270.835	68.78
271.051	-0.85
271.267	1.19
271.483	29.87
271.698	62.63
271.914	79.02
272.13	58.54
272.346	-35.67
272.562	38.06
272.777	54.44
272.993	-0.85
273.209	-52.05
273.425	33.96
273.64	-7
273.856	70.83
274.072	42.15
274.287	13.48
274.503	31.91
274.719	38.06
274.934	17.58
275.15	46.25
275.366	1.19
275.581	54.44
275.797	95.4
276.012	40.11
276.228	70.83
276.444	54.44
276.659	58.54
276.875	74.92
277.09	38.06
277.306	31.91
277.521	17.58
277.737	58.54
277.952	81.07
278.168	74.92
278.383	46.25
278.599	87.21
278.814	54.44
279.03	97.45
279.245	95.4
279.461	56.49
279.676	76.97
279.892	38.06
280.107	15.53
280.322	-15.19
280.538	31.91
280.753	42.15
280.969	74.92
281.184	-25.43
281.399	74.92
281.615	70.83
281.83	79.02
282.045	-58.2
282.26	13.48
282.476	60.59
282.691	85.16
282.906	54.44
283.122	74.92
283.337	-4.95
283.552	87.21
283.767	72.87
283.983	119.98
284.198	-50
284.413	64.68
284.628	9.39
284.843	62.63
285.058	70.83
285.274	46.25
285.489	50.35
285.704	64.68
285.919	40.11
286.134	76.97
286.349	31.91
286.564	13.48
286.779	113.83
286.995	54.44
287.21	13.48
287.425	113.83
287.64	23.72
287.855	7.34
288.07	-23.38
288.285	33.96
288.5	58.54
288.715	31.91
288.93	81.07
289.145	105.64
289.36	95.4
289.575	105.64
289.79	40.11
290.004	105.64
290.219	83.11
290.434	70.83
290.649	-27.48
290.864	9.39
291.079	-76.63
291.294	5.29
291.509	46.25
291.724	58.54
291.938	19.63
292.153	23.72
292.368	62.63
292.583	83.11
292.798	107.69
293.012	79.02
293.227	23.72
293.442	23.72
293.657	85.16
293.871	23.72
294.086	23.72
294.301	60.59
294.516	-17.24
294.73	40.11
294.945	-41.81
295.16	29.87
295.374	89.26
295.589	81.07
295.804	70.83
296.018	83.11
296.233	31.91
296.447	40.11
296.662	-2.9
296.877	89.26
297.091	101.55
297.306	40.11
297.52	91.31
297.735	-2.9
297.949	15.53
298.164	95.4
298.378	107.69
298.593	50.35
298.807	-7
299.022	13.48
299.236	62.63
299.451	-7
299.665	21.67
299.88	74.92
300.094	40.11
300.309	50.35
300.523	40.11
300.737	25.77
300.952	72.87
301.166	11.43
301.381	-39.76
301.595	21.67
301.809	72.87
302.024	29.87
302.238	25.77
302.452	48.3
302.667	42.15
302.881	70.83
303.095	111.78
303.309	68.78
303.524	21.67
303.738	-0.85
303.952	21.67
304.166	64.68
304.381	38.06
304.595	113.83
304.809	89.26
305.023	54.44
305.237	46.25
305.452	-11.09
305.666	23.72
305.88	48.3
306.094	11.43
306.308	146.6
306.522	29.87
306.736	54.44
306.95	54.44
307.164	101.55
307.379	33.96
307.593	74.92
307.807	62.63
308.021	21.67
308.235	44.2
308.449	-17.24
308.663	-0.85
308.877	111.78
309.091	111.78
309.305	-11.09
309.519	5.29
309.733	46.25
309.947	-52.05
310.161	107.69
310.374	38.06
310.588	122.02
310.802	-7
311.016	42.15
311.23	29.87
311.444	5.29
311.658	21.67
311.872	46.25
312.085	62.63
312.299	119.98
312.513	89.26
312.727	48.3
312.941	27.82
313.154	9.39
313.368	23.72
313.582	31.91
313.796	11.43
314.009	105.64
314.223	46.25
314.437	38.06
314.651	93.35
314.864	33.96
315.078	38.06
315.292	87.21
315.505	-33.62
315.719	83.11
315.933	15.53
316.146	33.96
316.36	23.72
316.573	97.45
316.787	-2.9
317.001	95.4
317.214	-27.48
317.428	79.02
317.641	13.48
317.855	-52.05
318.068	42.15
318.282	15.53
318.495	91.31
318.709	46.25
318.922	48.3
319.136	74.92
319.349	38.06
319.563	29.87
319.776	62.63
319.99	-15.19
320.203	85.16
320.417	70.83
320.63	25.77
320.843	54.44
321.057	128.17
321.27	21.67
321.483	29.87
321.697	95.4
321.91	48.3
322.124	83.11
322.337	1.19
322.55	9.39
322.763	1.19
322.977	31.91
323.19	-19.29
323.403	70.83
323.617	74.92
323.83	76.97
324.043	111.78
324.256	-35.67
324.469	-9.05
324.683	70.83
324.896	-2.9
325.109	46.25
325.322	58.54
325.535	62.63
325.748	1.19
325.962	42.15
326.175	33.96
326.388	89.26
326.601	44.2
326.814	-17.24
327.027	27.82
327.24	113.83
327.453	-11.09
327.666	70.83
327.879	95.4
328.092	62.63
328.305	48.3
328.518	-7
328.731	13.48
328.944	72.87
329.157	5.29
329.37	48.3
329.583	167.08
329.796	62.63
330.009	-35.67
330.222	38.06
330.435	81.07
330.648	5.29
330.861	1.19
331.073	1.19
331.286	91.31
331.499	54.44
331.712	-17.24
331.925	29.87
332.138	109.74
332.35	56.49
332.563	13.48
332.776	50.35
332.989	23.72
333.202	72.87
333.414	38.06
333.627	36.01
333.84	46.25
334.053	64.68
334.265	-31.57
334.478	33.96
334.691	87.21
334.903	-17.24
335.116	64.68
335.329	25.77
335.541	29.87
335.754	21.67
335.966	21.67
336.179	66.73
336.392	7.34
336.604	13.48
336.817	13.48
337.029	64.68
337.242	60.59
337.454	132.26
337.667	97.45
337.88	64.68
338.092	62.63
338.305	87.21
338.517	74.92
338.729	17.58
338.942	3.24
339.154	23.72
339.367	-56.15
339.579	-25.43
339.792	-7
340.004	21.67
340.217	66.73
340.429	19.63
340.641	7.34
340.854	13.48
341.066	21.67
341.278	83.11
341.491	103.59
341.703	15.53
341.915	7.34
342.128	72.87
342.34	33.96
342.552	21.67
342.764	29.87
342.977	97.45
343.189	9.39
343.401	29.87
343.613	31.91
343.826	54.44
344.038	31.91
344.25	56.49
344.462	-19.29
344.674	70.83
344.886	-2.9
345.099	54.44
345.311	126.12
345.523	46.25
345.735	62.63
345.947	79.02
346.159	1.19
346.371	105.64
346.583	62.63
346.795	95.4
347.007	31.91
347.219	79.02
347.431	54.44
347.643	70.83
347.855	76.97
348.067	87.21
348.279	38.06
348.491	33.96
348.703	74.92
348.915	21.67
349.127	64.68
349.339	7.34
349.551	33.96
349.763	38.06
349.975	140.46
350.187	42.15
350.399	187.56
350.61	62.63
350.822	40.11
351.034	62.63
351.246	42.15
351.458	-45.91
351.669	87.21
351.881	144.55
352.093	64.68
352.305	33.96
352.517	130.22
352.728	107.69
352.94	91.31
353.152	62.63
353.363	70.83
353.575	85.16
353.787	9.39
353.999	46.25
354.21	66.73
354.422	46.25
354.633	79.02
354.845	48.3
355.057	36.01
355.268	29.87
355.48	91.31
355.692	115.88
355.903	25.77
356.115	109.74
356.326	-25.43
356.538	126.12
356.749	29.87
356.961	171.18
357.172	38.06
357.384	38.06
357.595	97.45
357.807	7.34
358.018	23.72
358.23	38.06
358.441	107.69
358.653	31.91
358.864	44.2
359.075	50.35
359.287	58.54
359.498	50.35
359.709	72.87
359.921	21.67
360.132	25.77
360.344	7.34
360.555	42.15
360.766	119.98
360.977	56.49
361.189	48.3
361.4	122.02
361.611	136.36
361.823	144.55
362.034	33.96
362.245	-21.33
362.456	38.06
362.667	128.17
362.879	72.87
363.09	103.59
363.301	74.92
363.512	15.53
363.723	70.83
363.935	50.35
364.146	89.26
364.357	60.59
364.568	62.63
364.779	13.48
364.99	79.02
365.201	-25.43
365.412	89.26
365.623	33.96
365.834	111.78
366.045	99.5
366.256	111.78
366.467	25.77
366.678	95.4
366.889	33.96
367.1	15.53
367.311	95.4
367.522	-27.48
367.733	5.29
367.944	87.21
368.155	-4.95
368.366	54.44
368.577	111.78
368.788	48.3
368.999	70.83
369.209	13.48
369.42	126.12
369.631	103.59
369.842	17.58
370.053	62.63
370.264	66.73
370.474	-35.67
370.685	62.63
370.896	58.54
371.107	58.54
371.317	33.96
371.528	29.87
371.739	95.4
371.95	-27.48
372.16	95.4
372.371	3.24
372.582	93.35
372.792	119.98
373.003	93.35
373.214	46.25
373.424	79.02
373.635	89.26
373.846	99.5
374.056	-9.05
374.267	68.78
374.477	62.63
374.688	62.63
374.898	87.21
375.109	40.11
375.319	95.4
375.53	130.22
375.74	83.11
375.951	15.53
376.161	56.49
376.372	103.59
376.582	5.29
376.793	19.63
377.003	95.4
377.214	60.59
377.424	62.63
377.635	36.01
377.845	70.83
378.055	128.17
378.266	68.78
378.476	66.73
378.686	56.49
378.897	72.87
379.107	146.6
379.317	83.11
379.528	52.39
379.738	66.73
379.948	119.98
380.158	124.07
380.369	91.31
380.579	87.21
380.789	48.3
380.999	93.35
381.21	111.78
381.42	54.44
381.63	-11.09
381.84	122.02
382.05	44.2
382.261	46.25
382.471	81.07
382.681	29.87
382.891	60.59
383.101	70.83
383.311	11.43
383.521	103.59
383.731	33.96
383.941	7.34
384.151	31.91
384.361	52.39
384.571	44.2
384.781	13.48
384.991	64.68
385.201	144.55
385.411	152.74
385.621	76.97
385.831	101.55
386.041	81.07
386.251	60.59
386.461	107.69
386.671	50.35
386.881	38.06
387.091	38.06
387.301	70.83
387.511	76.97
387.72	91.31
387.93	134.31
388.14	33.96
388.35	113.83
388.56	79.02
388.769	111.78
388.979	25.77
389.189	38.06
389.399	124.07
389.609	107.69
389.818	81.07
390.028	97.45
390.238	9.39
390.447	29.87
390.657	117.93
390.867	79.02
391.076	64.68
391.286	50.35
391.496	89.26
391.705	79.02
391.915	160.94
392.125	38.06
392.334	87.21
392.544	119.98
392.753	111.78
392.963	97.45
393.172	9.39
393.382	23.72
393.591	64.68
393.801	103.59
394.01	83.11
394.22	54.44
394.429	66.73
394.639	1.19
394.848	40.11
395.058	81.07
395.267	95.4
395.477	107.69
395.686	81.07
395.895	97.45
396.105	156.84
396.314	103.59
396.524	103.59
396.733	72.87
396.942	124.07
397.152	87.21
397.361	136.36
397.57	93.35
397.78	99.5
397.989	130.22
398.198	97.45
398.407	81.07
398.617	95.4
398.826	97.45
399.035	87.21
399.244	124.07
399.453	87.21
399.663	140.46
399.872	70.83
400.081	81.07
400.29	70.83
400.499	103.59
400.708	140.46
400.917	70.83
401.127	83.11
401.336	103.59
401.545	197.8
401.754	119.98
401.963	152.74
402.172	132.26
402.381	50.35
402.59	103.59
402.799	136.36
403.008	122.02
403.217	236.71
403.426	68.78
403.635	95.4
403.844	144.55
404.053	171.18
404.262	160.94
404.471	156.84
404.68	107.69
404.888	128.17
405.097	146.6
405.306	246.95
405.515	179.37
405.724	189.61
405.933	214.18
406.142	306.34
406.35	226.47
406.559	128.17
406.768	177.32
406.977	214.18
407.185	183.46
407.394	177.32
407.603	220.33
407.812	193.7
408.02	179.37
408.229	210.09
408.438	249
408.646	185.51
408.855	218.28
409.064	335.01
409.272	224.42
409.481	234.66
409.69	238.76
409.898	201.9
410.107	269.48
410.315	300.2
410.524	242.85
410.733	353.45
410.941	373.92
411.15	380.07
411.358	400.55
411.567	423.08
411.775	390.31
411.984	443.56
412.192	464.04
412.401	328.87
412.609	545.95
412.818	513.19
413.026	529.57
413.234	519.33
413.443	537.76
413.651	386.21
413.86	476.32
414.068	605.35
414.276	615.59
414.485	599.2
414.693	603.3
414.901	795.81
415.11	646.3
415.318	701.6
415.526	668.83
415.734	693.41
415.943	709.79
416.151	767.13
416.359	746.66
416.567	763.04
416.776	863.39
416.984	916.64
417.192	840.86
417.4	857.25
417.608	857.25
417.817	996.51
418.025	953.5
418.233	1111.19
418.441	1074.33
418.649	1078.43
418.857	1133.72
419.065	1311.89
419.273	1135.77
419.481	1217.69
419.689	1303.7
419.897	1356.95
420.105	1350.81
420.313	1451.16
420.521	1524.88
420.729	1512.6
420.937	1471.64
421.145	1627.28
421.353	1766.54
421.561	1840.27
421.769	1815.69
421.977	1922.19
422.185	1938.57
422.393	1905.81
422.601	1916.05
422.809	2049.16
423.017	2073.74
423.224	2372.74
423.432	2335.88
423.64	2282.63
423.848	2546.82
424.056	2397.32
424.263	2634.88
424.471	2620.55
424.679	2835.58
424.887	2849.92
425.094	2847.87
425.302	2884.73
425.51	2978.94
425.718	3064.96
425.925	3038.33
426.133	3193.98
426.341	3406.97
426.548	3579
426.756	3486.84
426.964	3603.57
427.171	3824.75
427.379	3986.54
427.586	4105.32
427.794	4125.8
428.001	4220.01
428.209	4351.08
428.417	4451.43
428.624	4609.12
428.832	4609.12
429.039	4682.85
429.247	4625.51
429.454	5110.88
429.662	5520.47
429.869	5088.35
430.076	5532.76
430.284	5250.14
430.491	5663.83
430.699	5973.07
430.906	5690.45
431.114	6034.51
431.321	6136.91
431.528	6212.68
431.736	6542.41
431.943	6964.29
432.15	6767.68
432.358	6788.16
432.565	7156.8
432.772	7148.61
432.979	7459.9
433.187	7574.58
433.394	7590.97
433.601	8137.77
433.808	8213.55
434.016	8125.49
434.223	8541.22
434.43	8967.2
434.637	8653.86
434.844	9339.93
435.052	9563.16
435.259	9452.57
435.466	9589.78
435.673	9565.21
435.88	10146.83
436.087	10564.62
436.294	10613.77
436.501	10511.37
436.708	10609.67
436.915	10718.22
437.122	11330.56
437.329	11295.74
437.537	11553.79
437.743	11981.81
437.95	11783.16
438.157	12401.65
438.364	12729.32
438.571	12870.63
438.778	12938.21
438.985	14021.59
439.192	13333.47
439.399	13892.57
439.606	13448.16
439.813	14474.19
440.02	15420.35
440.227	14797.77
440.433	14805.96
440.64	15463.36
440.847	15211.46
441.054	15750.07
441.261	16407.47
441.467	16266.16
441.674	16720.81
441.881	17265.57
442.088	17169.32
442.294	17249.19
442.501	17619.87
442.708	17666.97
442.914	18654.09
443.121	19307.4
443.328	18756.49
443.534	20206.45
443.741	19604.35
443.948	19293.06
444.154	20689.77
444.361	20378.48
444.568	20411.25
444.774	20775.79
444.981	21236.58
445.187	21404.52
445.394	22307.67
445.6	22295.38
445.807	24118.07
446.013	23106.38
446.22	23452.48
446.426	24726.32
446.633	24568.63
446.839	25582.37
447.046	24486.71
447.252	26139.42
447.459	25928.48
447.665	25719.59
447.871	26667.8
448.078	28021.5
448.284	26669.84
448.491	27396.87
448.697	28619.51
448.903	28893.94
449.11	29166.32
449.316	28646.13
449.522	28986.1
449.728	29764.32
449.935	30431.96
450.141	30173.92
450.347	30644.95
450.553	29575.91
450.76	30198.49
450.966	31034.07
451.172	30593.75
451.378	31695.56
451.584	30882.52
451.791	31746.76
451.997	31582.92
452.203	31802.05
452.409	32320.19
452.615	32056
452.821	30733.01
453.027	30198.49
453.233	31810.25
453.44	30581.46
453.646	30952.15
453.852	31361.74
454.058	31709.89
454.264	30366.43
454.47	31204.05
454.676	30270.17
454.882	31730.37
455.088	28881.65
455.294	29182.7
455.5	29518.57
455.705	29758.18
455.911	28705.52
456.117	28238.59
456.323	27521.8
456.529	26766.1
456.735	27751.17
456.941	26581.78
457.147	26211.1
457.352	25574.18
457.558	25301.8
457.764	25275.18
457.97	24814.38
458.176	24347.45
458.381	23894.85
458.587	23120.71
458.793	22852.43
458.999	21660.51
459.204	23386.95
459.41	22987.6
459.616	21441.38
459.821	21136.23
460.027	21179.24
460.233	20747.12
460.438	19518.34
460.644	19784.57
460.85	18811.79
461.055	18684.81
461.261	18813.84
461.466	17349.54
461.672	16710.57
461.878	17759.13
462.083	16767.91
462.289	16413.62
462.494	16329.65
462.7	15518.65
462.905	15369.15
463.111	15510.46
463.316	15637.44
463.522	15348.67
463.727	15285.19
463.932	15393.73
464.138	14949.32
464.343	15119.3
464.549	14932.93
464.754	15530.94
464.959	15021
465.165	15033.29
465.37	14367.7
465.575	14062.55
465.781	14580.68
465.986	14459.85
466.191	14117.84
466.397	13855.7
466.602	12981.22
466.807	13439.97
467.012	13452.25
467.218	13482.97
467.423	13448.16
467.628	13384.67
