Data from USB4F104151__2__14-28-21-110.txt Node

Date: Thu Mar 13 14:28:21 EDT 2025
User: louis
Spectrometer: USB4F10415
Trigger mode: 4
Integration Time (sec): 2.500000E-2
Scans to average: 1
Electric dark correction enabled: true
Nonlinearity correction enabled: false
Boxcar width: 0
XAxis mode: Wavelengths
Number of Pixels in Spectrum: 3648
>>>>>Begin Spectral Data<<<<<
178.204	-147.97
178.424	-147.97
178.644	-147.97
178.864	-57.86
179.084	-125.44
179.304	97.79
179.524	-20.99
179.744	22.02
179.964	48.64
180.184	-20.99
180.404	-43.52
180.624	-35.33
180.844	5.63
181.064	13.82
181.283	-70.14
181.503	-10.75
181.723	13.82
181.943	-20.99
182.163	52.74
182.383	15.87
182.602	54.78
182.822	32.26
183.042	103.93
183.262	26.11
183.482	30.21
183.701	30.21
183.921	58.88
184.141	38.4
184.361	11.78
184.58	52.74
184.8	62.98
185.02	3.58
185.239	56.83
185.459	3.58
185.679	81.41
185.898	36.35
186.118	-8.7
186.338	-25.09
186.557	60.93
186.777	-14.85
186.997	36.35
187.216	48.64
187.436	73.21
187.655	73.21
187.875	132.61
188.095	46.59
188.314	122.37
188.534	87.55
188.753	-29.18
188.973	40.45
189.192	77.31
189.412	112.13
189.631	60.93
189.851	46.59
190.07	69.12
190.29	-41.47
190.509	101.89
190.729	54.78
190.948	48.64
191.168	132.61
191.387	71.17
191.607	71.17
191.826	114.17
192.045	17.92
192.265	151.04
192.484	5.63
192.704	5.63
192.923	11.78
193.142	108.03
193.362	95.74
193.581	-6.66
193.8	122.37
194.02	32.26
194.239	54.78
194.458	87.55
194.678	30.21
194.897	81.41
195.116	46.59
195.335	60.93
195.555	120.32
195.774	26.11
195.993	30.21
196.212	48.64
196.432	-16.9
196.651	95.74
196.87	85.5
197.089	167.42
197.308	128.51
197.528	-31.23
197.747	-0.51
197.966	69.12
198.185	122.37
198.404	-27.14
198.623	77.31
198.842	36.35
199.062	40.45
199.281	87.55
199.5	44.54
199.719	46.59
199.938	79.36
200.157	126.46
200.376	65.02
200.595	24.06
200.814	9.73
201.033	-55.81
201.252	56.83
201.471	93.69
201.69	65.02
201.909	46.59
202.128	13.82
202.347	-45.57
202.566	95.74
202.785	77.31
203.004	-53.76
203.223	159.23
203.442	77.31
203.661	77.31
203.879	101.89
204.098	95.74
204.317	28.16
204.536	58.88
204.755	42.5
204.974	93.69
205.193	-8.7
205.411	73.21
205.63	93.69
205.849	71.17
206.068	17.92
206.287	22.02
206.505	48.64
206.724	46.59
206.943	19.97
207.162	38.4
207.381	13.82
207.599	71.17
207.818	19.97
208.037	9.73
208.255	30.21
208.474	-12.8
208.693	48.64
208.911	28.16
209.13	-31.23
209.349	30.21
209.567	75.26
209.786	114.17
210.005	34.3
210.223	62.98
210.442	-12.8
210.661	7.68
210.879	105.98
211.098	60.93
211.316	15.87
211.535	19.97
211.753	17.92
211.972	79.36
212.191	-4.61
212.409	38.4
212.628	24.06
212.846	-29.18
213.065	42.5
213.283	36.35
213.502	-25.09
213.72	71.17
213.938	54.78
214.157	52.74
214.375	9.73
214.594	13.82
214.812	36.35
215.031	60.93
215.249	-4.61
215.467	85.5
215.686	120.32
215.904	126.46
216.122	44.54
216.341	5.63
216.559	13.82
216.778	134.65
216.996	28.16
217.214	77.31
217.432	52.74
217.651	-4.61
217.869	52.74
218.087	69.12
218.306	-33.28
218.524	126.46
218.742	32.26
218.96	62.98
219.179	3.58
219.397	65.02
219.615	108.03
219.833	56.83
220.051	-4.61
220.27	138.75
220.488	54.78
220.706	54.78
220.924	-2.56
221.142	42.5
221.36	-20.99
221.578	22.02
221.796	3.58
222.015	30.21
222.233	60.93
222.451	95.74
222.669	15.87
222.887	60.93
223.105	11.78
223.323	-29.18
223.541	-33.28
223.759	19.97
223.977	-27.14
224.195	124.41
224.413	11.78
224.631	85.5
224.849	36.35
225.067	97.79
225.285	-10.75
225.503	60.93
225.721	15.87
225.939	85.5
226.157	11.78
226.375	114.17
226.592	5.63
226.81	32.26
227.028	101.89
227.246	101.89
227.464	95.74
227.682	-2.56
227.9	44.54
228.117	30.21
228.335	65.02
228.553	-25.09
228.771	-14.85
228.989	118.27
229.206	54.78
229.424	36.35
229.642	7.68
229.86	19.97
230.077	62.98
230.295	60.93
230.513	118.27
230.731	73.21
230.948	38.4
231.166	62.98
231.384	77.31
231.601	52.74
231.819	24.06
232.037	11.78
232.254	-10.75
232.472	-18.94
232.689	46.59
232.907	40.45
233.125	-4.61
233.342	46.59
233.56	32.26
233.777	-4.61
233.995	40.45
234.213	32.26
234.43	38.4
234.648	13.82
234.865	69.12
235.083	28.16
235.3	-10.75
235.518	13.82
235.735	36.35
235.953	5.63
236.17	73.21
236.388	60.93
236.605	-4.61
236.822	126.46
237.04	118.27
237.257	48.64
237.475	91.65
237.692	71.17
237.909	58.88
238.127	60.93
238.344	60.93
238.562	44.54
238.779	89.6
238.996	38.4
239.214	65.02
239.431	62.98
239.648	38.4
239.865	-4.61
240.083	151.04
240.3	28.16
240.517	-18.94
240.735	24.06
240.952	81.41
241.169	-20.99
241.386	36.35
241.603	85.5
241.821	54.78
242.038	42.5
242.255	50.69
242.472	-6.66
242.689	73.21
242.907	40.45
243.124	-2.56
243.341	56.83
243.558	22.02
243.775	11.78
243.992	7.68
244.209	69.12
244.426	97.79
244.643	60.93
244.86	40.45
245.078	105.98
245.295	30.21
245.512	52.74
245.729	44.54
245.946	58.88
246.163	73.21
246.38	62.98
246.597	73.21
246.814	38.4
247.031	101.89
247.248	32.26
247.464	48.64
247.681	38.4
247.898	26.11
248.115	42.5
248.332	-49.66
248.549	126.46
248.766	65.02
248.983	110.08
249.2	69.12
249.417	54.78
249.633	-20.99
249.85	40.45
250.067	30.21
250.284	71.17
250.501	11.78
250.717	42.5
250.934	19.97
251.151	5.63
251.368	73.21
251.585	93.69
251.801	118.27
252.018	-12.8
252.235	110.08
252.451	7.68
252.668	60.93
252.885	110.08
253.102	40.45
253.318	-14.85
253.535	40.45
253.752	56.83
253.968	19.97
254.185	15.87
254.401	44.54
254.618	44.54
254.835	-27.14
255.051	73.21
255.268	110.08
255.484	52.74
255.701	67.07
255.917	32.26
256.134	22.02
256.351	28.16
256.567	69.12
256.784	101.89
257	46.59
257.217	75.26
257.433	130.56
257.65	110.08
257.866	44.54
258.082	-14.85
258.299	60.93
258.515	95.74
258.732	-0.51
258.948	5.63
259.165	85.5
259.381	19.97
259.597	36.35
259.814	36.35
260.03	-51.71
260.246	38.4
260.463	19.97
260.679	101.89
260.895	116.22
261.112	77.31
261.328	32.26
261.544	52.74
261.761	85.5
261.977	44.54
262.193	-29.18
262.409	85.5
262.626	36.35
262.842	97.79
263.058	17.92
263.274	46.59
263.49	69.12
263.707	-0.51
263.923	67.07
264.139	28.16
264.355	5.63
264.571	26.11
264.787	69.12
265.004	77.31
265.22	142.85
265.436	58.88
265.652	5.63
265.868	60.93
266.084	3.58
266.3	79.36
266.516	71.17
266.732	-12.8
266.948	44.54
267.164	-25.09
267.38	112.13
267.596	91.65
267.812	99.84
268.028	36.35
268.244	95.74
268.46	40.45
268.676	-16.9
268.892	42.5
269.108	91.65
269.324	3.58
269.54	5.63
269.756	11.78
269.972	44.54
270.188	40.45
270.403	-55.81
270.619	89.6
270.835	65.02
271.051	112.13
271.267	11.78
271.483	15.87
271.698	97.79
271.914	89.6
272.13	32.26
272.346	11.78
272.562	-6.66
272.777	132.61
272.993	81.41
273.209	42.5
273.425	83.45
273.64	93.69
273.856	85.5
274.072	46.59
274.287	38.4
274.503	-4.61
274.719	-25.09
274.934	28.16
275.15	54.78
275.366	32.26
275.581	24.06
275.797	7.68
276.012	69.12
276.228	54.78
276.444	-16.9
276.659	60.93
276.875	34.3
277.09	52.74
277.306	44.54
277.521	58.88
277.737	30.21
277.952	60.93
278.168	1.54
278.383	110.08
278.599	67.07
278.814	144.89
279.03	46.59
279.245	130.56
279.461	-14.85
279.676	105.98
279.892	42.5
280.107	77.31
280.322	-8.7
280.538	65.02
280.753	48.64
280.969	-10.75
281.184	28.16
281.399	146.94
281.615	19.97
281.83	46.59
282.045	-2.56
282.26	7.68
282.476	19.97
282.691	62.98
282.906	54.78
283.122	-20.99
283.337	24.06
283.552	11.78
283.767	28.16
283.983	73.21
284.198	15.87
284.413	67.07
284.628	-76.29
284.843	67.07
285.058	28.16
285.274	28.16
285.489	5.63
285.704	36.35
285.919	56.83
286.134	50.69
286.349	93.69
286.564	44.54
286.779	97.79
286.995	22.02
287.21	48.64
287.425	42.5
287.64	-51.71
287.855	54.78
288.07	40.45
288.285	73.21
288.5	116.22
288.715	15.87
288.93	-2.56
289.145	19.97
289.36	-51.71
289.575	-25.09
289.79	32.26
290.004	42.5
290.219	48.64
290.434	36.35
290.649	58.88
290.864	95.74
291.079	48.64
291.294	40.45
291.509	69.12
291.724	11.78
291.938	-12.8
292.153	89.6
292.368	28.16
292.583	32.26
292.798	101.89
293.012	105.98
293.227	32.26
293.442	30.21
293.657	52.74
293.871	146.94
294.086	50.69
294.301	91.65
294.516	77.31
294.73	79.36
294.945	-20.99
295.16	3.58
295.374	89.6
295.589	101.89
295.804	36.35
296.018	30.21
296.233	124.41
296.447	62.98
296.662	36.35
296.877	36.35
297.091	112.13
297.306	40.45
297.52	67.07
297.735	110.08
297.949	-35.33
298.164	3.58
298.378	11.78
298.593	93.69
298.807	-35.33
299.022	116.22
299.236	83.45
299.451	60.93
299.665	48.64
299.88	71.17
300.094	73.21
300.309	-12.8
300.523	40.45
300.737	-0.51
300.952	48.64
301.166	46.59
301.381	7.68
301.595	40.45
301.809	97.79
302.024	69.12
302.238	-14.85
302.452	81.41
302.667	1.54
302.881	79.36
303.095	26.11
303.309	142.85
303.524	48.64
303.738	-0.51
303.952	60.93
304.166	60.93
304.381	48.64
304.595	65.02
304.809	32.26
305.023	69.12
305.237	44.54
305.452	40.45
305.666	56.83
305.88	108.03
306.094	77.31
306.308	83.45
306.522	38.4
306.736	65.02
306.95	26.11
307.164	56.83
307.379	44.54
307.593	32.26
307.807	81.41
308.021	67.07
308.235	24.06
308.449	13.82
308.663	28.16
308.877	52.74
309.091	50.69
309.305	28.16
309.519	19.97
309.733	52.74
309.947	-53.76
310.161	28.16
310.374	60.93
310.588	136.7
310.802	97.79
311.016	44.54
311.23	3.58
311.444	-29.18
311.658	42.5
311.872	108.03
312.085	118.27
312.299	161.28
312.513	69.12
312.727	38.4
312.941	5.63
313.154	126.46
313.368	56.83
313.582	105.98
313.796	52.74
314.009	30.21
314.223	17.92
314.437	-2.56
314.651	5.63
314.864	52.74
315.078	42.5
315.292	44.54
315.505	28.16
315.719	79.36
315.933	24.06
316.146	69.12
316.36	-31.23
316.573	112.13
316.787	-4.61
317.001	79.36
317.214	-14.85
317.428	87.55
317.641	40.45
317.855	60.93
318.068	44.54
318.282	58.88
318.495	103.93
318.709	58.88
318.922	22.02
319.136	38.4
319.349	28.16
319.563	79.36
319.776	93.69
319.99	17.92
320.203	48.64
320.417	93.69
320.63	97.79
320.843	101.89
321.057	48.64
321.27	93.69
321.483	85.5
321.697	52.74
321.91	17.92
322.124	60.93
322.337	-0.51
322.55	28.16
322.763	5.63
322.977	36.35
323.19	30.21
323.403	81.41
323.617	-33.28
323.83	132.61
324.043	19.97
324.256	40.45
324.469	-39.42
324.683	101.89
324.896	81.41
325.109	13.82
325.322	-23.04
325.535	116.22
325.748	103.93
325.962	52.74
326.175	73.21
326.388	48.64
326.601	36.35
326.814	7.68
327.027	69.12
327.24	87.55
327.453	-53.76
327.666	101.89
327.879	67.07
328.092	85.5
328.305	9.73
328.518	44.54
328.731	7.68
328.944	36.35
329.157	65.02
329.37	130.56
329.583	69.12
329.796	103.93
330.009	-35.33
330.222	142.85
330.435	75.26
330.648	38.4
330.861	89.6
331.073	11.78
331.286	95.74
331.499	3.58
331.712	71.17
331.925	30.21
332.138	46.59
332.35	79.36
332.563	58.88
332.776	120.32
332.989	-43.52
333.202	40.45
333.414	56.83
333.627	130.56
333.84	-29.18
334.053	132.61
334.265	19.97
334.478	75.26
334.691	120.32
334.903	79.36
335.116	54.78
335.329	67.07
335.541	81.41
335.754	120.32
335.966	73.21
336.179	17.92
336.392	11.78
336.604	85.5
336.817	28.16
337.029	110.08
337.242	-4.61
337.454	60.93
337.667	95.74
337.88	36.35
338.092	87.55
338.305	161.28
338.517	-4.61
338.729	110.08
338.942	32.26
339.154	71.17
339.367	3.58
339.579	46.59
339.792	44.54
340.004	114.17
340.217	-49.66
340.429	128.51
340.641	1.54
340.854	42.5
341.066	17.92
341.278	32.26
341.491	118.27
341.703	32.26
341.915	11.78
342.128	48.64
342.34	56.83
342.552	120.32
342.764	81.41
342.977	65.02
343.189	130.56
343.401	17.92
343.613	62.98
343.826	87.55
344.038	56.83
344.25	19.97
344.462	40.45
344.674	34.3
344.886	32.26
345.099	38.4
345.311	81.41
345.523	126.46
345.735	-33.28
345.947	85.5
346.159	48.64
346.371	11.78
346.583	120.32
346.795	112.13
347.007	-2.56
347.219	71.17
347.431	11.78
347.643	99.84
347.855	44.54
348.067	24.06
348.279	91.65
348.491	134.65
348.703	-4.61
348.915	44.54
349.127	11.78
349.339	34.3
349.551	75.26
349.763	134.65
349.975	36.35
350.187	46.59
350.399	95.74
350.61	79.36
350.822	32.26
351.034	91.65
351.246	11.78
351.458	32.26
351.669	69.12
351.881	54.78
352.093	36.35
352.305	81.41
352.517	110.08
352.728	81.41
352.94	50.69
353.152	52.74
353.363	-25.09
353.575	93.69
353.787	138.75
353.999	28.16
354.21	122.37
354.422	28.16
354.633	69.12
354.845	101.89
355.057	85.5
355.268	69.12
355.48	101.89
355.692	36.35
355.903	144.89
356.115	85.5
356.326	60.93
356.538	71.17
356.749	81.41
356.961	130.56
357.172	15.87
357.384	-10.75
357.595	56.83
357.807	83.45
358.018	56.83
358.23	36.35
358.441	95.74
358.653	46.59
358.864	62.98
359.075	-2.56
359.287	167.42
359.498	95.74
359.709	105.98
359.921	157.18
360.132	118.27
360.344	44.54
360.555	22.02
360.766	130.56
360.977	85.5
361.189	60.93
361.4	87.55
361.611	69.12
361.823	71.17
362.034	95.74
362.245	32.26
362.456	7.68
362.667	87.55
362.879	85.5
363.09	52.74
363.301	151.04
363.512	-16.9
363.723	83.45
363.935	93.69
364.146	103.93
364.357	99.84
364.568	62.98
364.779	7.68
364.99	118.27
365.201	62.98
365.412	161.28
365.623	-29.18
365.834	48.64
366.045	-4.61
366.256	60.93
366.467	95.74
366.678	62.98
366.889	93.69
367.1	65.02
367.311	62.98
367.522	7.68
367.733	44.54
367.944	103.93
368.155	3.58
368.366	110.08
368.577	75.26
368.788	60.93
368.999	7.68
369.209	11.78
369.42	108.03
369.631	171.52
369.842	103.93
370.053	67.07
370.264	93.69
370.474	110.08
370.685	28.16
370.896	65.02
371.107	151.04
371.317	28.16
371.528	71.17
371.739	101.89
371.95	130.56
372.16	52.74
372.371	65.02
372.582	93.69
372.792	52.74
373.003	73.21
373.214	28.16
373.424	69.12
373.635	9.73
373.846	120.32
374.056	15.87
374.267	69.12
374.477	30.21
374.688	13.82
374.898	60.93
375.109	56.83
375.319	65.02
375.53	159.23
375.74	87.55
375.951	44.54
376.161	134.65
376.372	81.41
376.582	93.69
376.793	79.36
377.003	91.65
377.214	54.78
377.424	58.88
377.635	89.6
377.845	30.21
378.055	216.57
378.266	77.31
378.476	79.36
378.686	50.69
378.897	87.55
379.107	58.88
379.317	24.06
379.528	36.35
379.738	151.04
379.948	15.87
380.158	54.78
380.369	89.6
380.579	65.02
380.789	24.06
380.999	95.74
381.21	60.93
381.42	159.23
381.63	103.93
381.84	105.98
382.05	62.98
382.261	157.18
382.471	69.12
382.681	85.5
382.891	110.08
383.101	99.84
383.311	65.02
383.521	13.82
383.731	118.27
383.941	87.55
384.151	28.16
384.361	38.4
384.571	77.31
384.781	93.69
384.991	163.33
385.201	151.04
385.411	40.45
385.621	73.21
385.831	-8.7
386.041	38.4
386.251	69.12
386.461	136.7
386.671	17.92
386.881	75.26
387.091	62.98
387.301	95.74
387.511	28.16
387.72	99.84
387.93	60.93
388.14	11.78
388.35	44.54
388.56	95.74
388.769	124.41
388.979	52.74
389.189	77.31
389.399	69.12
389.609	69.12
389.818	44.54
390.028	77.31
390.238	110.08
390.447	69.12
390.657	110.08
390.867	60.93
391.076	42.5
391.286	77.31
391.496	128.51
391.705	48.64
391.915	173.57
392.125	105.98
392.334	138.75
392.544	101.89
392.753	62.98
392.963	93.69
393.172	118.27
393.382	73.21
393.591	118.27
393.801	58.88
394.01	120.32
394.22	56.83
394.429	60.93
394.639	69.12
394.848	79.36
395.058	79.36
395.267	136.7
395.477	112.13
395.686	118.27
395.895	200.19
396.105	167.42
396.314	40.45
396.524	142.85
396.733	118.27
396.942	142.85
397.152	169.47
397.361	151.04
397.57	89.6
397.78	103.93
397.989	185.85
398.198	200.19
398.407	151.04
398.617	151.04
398.826	161.28
399.035	126.46
399.244	134.65
399.453	95.74
399.663	101.89
399.872	183.81
400.081	97.79
400.29	146.94
400.499	151.04
400.708	116.22
400.917	165.37
401.127	181.76
401.336	192
401.545	235
401.754	194.05
401.963	153.09
402.172	101.89
402.381	134.65
402.59	151.04
402.799	142.85
403.008	232.96
403.217	118.27
403.426	159.23
403.635	101.89
403.844	171.52
404.053	134.65
404.262	185.85
404.471	235
404.68	220.67
404.888	155.13
405.097	251.39
405.306	175.61
405.515	232.96
405.724	194.05
405.933	226.81
406.142	241.15
406.35	302.59
406.559	288.25
406.768	298.49
406.977	239.1
407.185	241.15
407.394	214.52
407.603	232.96
407.812	327.16
408.02	314.88
408.229	241.15
408.438	327.16
408.646	284.16
408.855	216.57
409.064	241.15
409.272	325.12
409.481	404.99
409.69	402.94
409.898	366.07
410.107	364.03
410.315	382.46
410.524	364.03
410.733	429.56
410.941	402.94
411.15	519.67
411.358	464.38
411.567	503.29
411.775	562.68
411.984	495.1
412.192	546.3
412.401	572.92
412.609	595.45
412.818	628.21
413.026	609.78
413.234	579.06
413.443	636.41
413.651	710.13
413.86	603.64
414.068	812.53
414.276	790
414.485	830.96
414.693	888.31
414.901	896.5
415.11	896.5
415.318	900.59
415.526	972.27
415.734	970.23
415.943	978.42
416.151	988.66
416.359	1076.72
416.567	1113.58
416.776	1080.82
416.984	1166.83
417.192	1189.36
417.4	1191.41
417.608	1215.98
417.817	1248.75
418.025	1406.44
418.233	1445.35
418.441	1373.68
418.649	1355.24
418.857	1527.27
419.065	1664.49
419.273	1625.58
419.481	1668.58
419.689	1646.05
419.897	1777.12
420.105	1965.54
420.313	1824.23
420.521	1963.49
420.729	1969.63
420.937	2084.32
421.145	2076.13
421.353	2246.11
421.561	2371.04
421.769	2366.94
421.977	2620.89
422.185	2495.96
422.393	2715.09
422.601	2842.07
422.809	2768.34
423.017	2725.33
423.224	2940.37
423.432	3059.15
423.64	3108.3
423.848	3487.18
424.056	3214.8
424.263	3583.43
424.471	3470.8
424.679	3583.43
424.887	3874.24
425.094	3966.4
425.302	3878.34
425.51	4013.51
425.718	4216.26
425.925	4271.55
426.133	4429.24
426.341	4552.12
426.548	4771.26
426.756	4771.26
426.964	4787.64
427.171	5045.68
427.379	5164.47
427.586	5404.08
427.794	5526.96
428.001	5799.34
428.209	6047.14
428.417	5797.29
428.624	6296.99
428.832	6276.51
429.039	6368.67
429.247	6380.96
429.454	6847.9
429.662	7441.81
429.869	6905.24
430.076	7353.74
430.284	6968.73
430.491	7515.53
430.699	7859.59
430.906	7812.49
431.114	8023.43
431.321	8252.8
431.528	8437.12
431.736	9002.36
431.943	9307.51
432.15	9063.8
432.358	9323.89
432.565	9579.89
432.772	9661.8
432.979	10106.21
433.187	10337.63
433.394	10181.99
433.601	11062.62
433.808	11392.34
434.016	10909.02
434.223	11529.55
434.43	12229.96
434.637	11959.63
434.844	12797.24
435.052	13073.72
435.259	13022.52
435.466	12840.25
435.673	12905.79
435.88	13571.38
436.087	14282.02
436.294	14138.66
436.501	13980.97
436.708	14331.17
436.915	14699.81
437.122	15439.12
437.329	15023.39
437.537	15861.01
437.743	16129.29
437.95	15965.45
438.157	16702.72
438.364	17454.33
438.571	17276.15
438.778	17507.57
438.985	19152.09
439.192	18320.62
439.399	18930.91
439.606	18500.84
439.813	19449.05
440.02	20495.56
440.227	20227.28
440.433	20272.33
440.64	20491.46
440.847	20827.33
441.054	21134.53
441.261	22471.85
441.467	22033.58
441.674	22510.76
441.881	23295.13
442.088	23475.35
442.294	23174.3
442.501	23813.27
442.708	24145.04
442.914	25019.52
443.121	26303.6
443.328	25322.62
443.534	27145.31
443.741	26475.63
443.948	25853.05
444.154	27776.09
444.361	27780.18
444.568	27792.47
444.774	28253.26
444.981	28378.19
445.187	29045.83
445.394	30538.8
445.6	30118.96
445.807	32701.45
446.013	31396.9
446.22	32023.58
446.426	33170.44
446.633	33195.01
446.839	34649.07
447.046	33276.93
447.252	35142.63
447.459	35275.75
447.665	34806.76
447.871	36408.28
448.078	38065.08
448.284	36391.89
448.491	36897.74
448.697	38482.87
448.903	39635.88
449.11	39351.21
449.316	38687.67
449.522	39437.22
449.728	40762.26
449.935	40917.9
450.141	40651.67
450.347	41632.64
450.553	40172.44
450.76	41083.79
450.966	42466.17
451.172	41755.52
451.378	42681.2
451.584	41685.89
451.791	43142
451.997	42777.46
452.203	43481.96
452.409	43727.72
452.615	43533.16
452.821	41622.4
453.027	41474.95
453.233	43709.29
453.44	41616.26
453.646	42167.16
453.852	42515.32
454.058	43027.31
454.264	41907.07
454.47	43025.26
454.676	41499.53
454.882	43137.9
455.088	38839.22
455.294	39564.2
455.5	40321.94
455.705	41089.93
455.911	39455.65
456.117	38550.45
456.323	37680.07
456.529	36142.04
456.735	37708.74
456.941	36615.12
457.147	36053.98
457.352	34917.36
457.558	34587.63
457.764	34649.07
457.97	33948.67
458.176	33375.23
458.381	33633.28
458.587	31519.78
458.793	31718.43
458.999	30401.58
459.204	32631.82
459.41	31470.62
459.616	29482.05
459.821	29488.19
460.027	29158.47
460.233	28427.34
460.438	27331.68
460.644	27415.65
460.85	26066.03
461.055	25486.46
461.261	25740.41
461.466	23743.64
461.672	23215.26
461.878	24810.63
462.083	23176.35
462.289	22338.73
462.494	22412.46
462.7	21675.19
462.905	20696.26
463.111	21648.57
463.316	21626.04
463.522	20942.02
463.727	21306.55
463.932	21300.41
464.138	20853.95
464.343	20917.44
464.549	20376.78
464.754	20915.39
464.959	20763.84
465.165	20434.12
465.37	19555.54
465.575	19567.83
465.781	20051.15
465.986	20059.34
466.191	19051.74
