Data from USB4F104151__140__14-31-49-276.txt Node

Date: Thu Mar 13 14:31:49 EDT 2025
User: louis
Spectrometer: USB4F10415
Trigger mode: 4
Integration Time (sec): 2.500000E-2
Scans to average: 1
Electric dark correction enabled: true
Nonlinearity correction enabled: false
Boxcar width: 0
XAxis mode: Wavelengths
Number of Pixels in Spectrum: 3648
>>>>>Begin Spectral Data<<<<<
178.204	-56.32
178.424	-56.32
178.644	-56.32
178.864	-144.38
179.084	-142.33
179.304	-56.32
179.524	-35.84
179.744	-66.56
179.964	95.23
180.184	-25.6
180.404	72.7
180.624	-66.56
180.844	17.41
181.064	31.74
181.283	56.32
181.503	-56.32
181.723	33.79
181.943	-19.46
182.163	78.85
182.383	-27.65
182.602	87.04
182.822	74.75
183.042	99.33
183.262	21.5
183.482	84.99
183.701	-7.17
183.921	44.03
184.141	25.6
184.361	105.47
184.58	9.22
184.8	39.94
185.02	29.7
185.239	48.13
185.459	50.18
185.679	27.65
185.898	37.89
186.118	74.75
186.338	78.85
186.557	-44.03
186.777	35.84
186.997	29.7
187.216	25.6
187.436	87.04
187.655	-7.17
187.875	103.42
188.095	-3.07
188.314	46.08
188.534	128
188.753	-19.46
188.973	60.42
189.192	54.27
189.412	103.42
189.631	46.08
189.851	-3.07
190.07	64.51
190.29	-17.41
190.509	23.55
190.729	41.98
190.948	78.85
191.168	209.92
191.387	78.85
191.607	5.12
191.826	23.55
192.045	25.6
192.265	37.89
192.484	5.12
192.704	46.08
192.923	-17.41
193.142	115.71
193.362	50.18
193.581	78.85
193.8	70.65
194.02	9.22
194.239	52.22
194.458	78.85
194.678	1.02
194.897	48.13
195.116	72.7
195.335	25.6
195.555	-52.22
195.774	70.65
195.993	-27.65
196.212	25.6
196.432	-25.6
196.651	44.03
196.87	62.46
197.089	78.85
197.308	44.03
197.528	13.31
197.747	1.02
197.966	-27.65
198.185	103.42
198.404	-11.26
198.623	48.13
198.842	-3.07
199.062	117.76
199.281	58.37
199.5	62.46
199.719	121.85
199.938	11.26
200.157	39.94
200.376	87.04
200.595	62.46
200.814	13.31
201.033	15.36
201.252	78.85
201.471	54.27
201.69	33.79
201.909	5.12
202.128	62.46
202.347	87.04
202.566	74.75
202.785	54.27
203.004	-23.55
203.223	138.24
203.442	21.5
203.661	-3.07
203.879	25.6
204.098	64.51
204.317	58.37
204.536	37.89
204.755	-27.65
204.974	72.7
205.193	17.41
205.411	89.09
205.63	62.46
205.849	23.55
206.068	89.09
206.287	-1.02
206.505	107.52
206.724	54.27
206.943	13.31
207.162	13.31
207.381	91.13
207.599	50.18
207.818	-3.07
208.037	111.61
208.255	5.12
208.474	33.79
208.693	99.33
208.911	-7.17
209.13	70.65
209.349	89.09
209.567	78.85
209.786	39.94
210.005	5.12
210.223	62.46
210.442	27.65
210.661	54.27
210.879	35.84
211.098	19.46
211.316	74.75
211.535	115.71
211.753	50.18
211.972	52.22
212.191	62.46
212.409	80.89
212.628	64.51
212.846	64.51
213.065	58.37
213.283	93.18
213.502	41.98
213.72	82.94
213.938	95.23
214.157	80.89
214.375	70.65
214.594	46.08
214.812	82.94
215.031	25.6
215.249	41.98
215.467	70.65
215.686	46.08
215.904	41.98
216.122	119.81
216.341	29.7
216.559	62.46
216.778	23.55
216.996	99.33
217.214	68.61
217.432	54.27
217.651	5.12
217.869	-9.22
218.087	23.55
218.306	-35.84
218.524	-17.41
218.742	15.36
218.96	80.89
219.179	31.74
219.397	31.74
219.615	125.95
219.833	62.46
220.051	56.32
220.27	7.17
220.488	56.32
220.706	1.02
220.924	95.23
221.142	95.23
221.36	-13.31
221.578	68.61
221.796	39.94
222.015	50.18
222.233	56.32
222.451	89.09
222.669	-7.17
222.887	99.33
223.105	-29.7
223.323	-11.26
223.541	41.98
223.759	119.81
223.977	37.89
224.195	82.94
224.413	56.32
224.631	154.62
224.849	62.46
225.067	99.33
225.285	56.32
225.503	13.31
225.721	-72.7
225.939	148.48
226.157	95.23
226.375	111.61
226.592	21.5
226.81	23.55
227.028	78.85
227.246	113.66
227.464	78.85
227.682	48.13
227.9	56.32
228.117	80.89
228.335	52.22
228.553	-7.17
228.771	64.51
228.989	103.42
229.206	70.65
229.424	5.12
229.642	1.02
229.86	50.18
230.077	27.65
230.295	37.89
230.513	144.38
230.731	64.51
230.948	7.17
231.166	134.14
231.384	-19.46
231.601	-3.07
231.819	3.07
232.037	5.12
232.254	48.13
232.472	54.27
232.689	13.31
232.907	171.01
233.125	37.89
233.342	5.12
233.56	-41.98
233.777	9.22
233.995	89.09
234.213	68.61
234.43	48.13
234.648	128
234.865	-1.02
235.083	46.08
235.3	29.7
235.518	107.52
235.735	103.42
235.953	103.42
236.17	54.27
236.388	-3.07
236.605	9.22
236.822	95.23
237.04	89.09
237.257	37.89
237.475	-17.41
237.692	33.79
237.909	37.89
238.127	21.5
238.344	31.74
238.562	62.46
238.779	1.02
238.996	48.13
239.214	64.51
239.431	62.46
239.648	31.74
239.865	-19.46
240.083	39.94
240.3	39.94
240.517	-7.17
240.735	23.55
240.952	179.2
241.169	132.09
241.386	72.7
241.603	41.98
241.821	5.12
242.038	95.23
242.255	29.7
242.472	21.5
242.689	121.85
242.907	56.32
243.124	41.98
243.341	25.6
243.558	9.22
243.775	15.36
243.992	-5.12
244.209	37.89
244.426	111.61
244.643	25.6
244.86	-19.46
245.078	39.94
245.295	54.27
245.512	52.22
245.729	5.12
245.946	58.37
246.163	54.27
246.38	60.42
246.597	17.41
246.814	-39.94
247.031	62.46
247.248	-9.22
247.464	87.04
247.681	58.37
247.898	97.28
248.115	21.5
248.332	-25.6
248.549	74.75
248.766	46.08
248.983	111.61
249.2	44.03
249.417	87.04
249.633	-3.07
249.85	72.7
250.067	29.7
250.284	46.08
250.501	103.42
250.717	105.47
250.934	-23.55
251.151	54.27
251.368	31.74
251.585	37.89
251.801	37.89
252.018	70.65
252.235	80.89
252.451	50.18
252.668	39.94
252.885	21.5
253.102	70.65
253.318	111.61
253.535	-25.6
253.752	13.31
253.968	31.74
254.185	-25.6
254.401	17.41
254.618	-27.65
254.835	56.32
255.051	62.46
255.268	41.98
255.484	-7.17
255.701	31.74
255.917	5.12
256.134	-1.02
256.351	21.5
256.567	-89.09
256.784	58.37
257	-5.12
257.217	17.41
257.433	-41.98
257.65	103.42
257.866	54.27
258.082	-11.26
258.299	46.08
258.515	46.08
258.732	-5.12
258.948	46.08
259.165	48.13
259.381	-15.36
259.597	33.79
259.814	39.94
260.03	91.13
260.246	29.7
260.463	5.12
260.679	64.51
260.895	64.51
261.112	21.5
261.328	29.7
261.544	13.31
261.761	95.23
261.977	31.74
262.193	-21.5
262.409	-19.46
262.626	7.17
262.842	74.75
263.058	13.31
263.274	74.75
263.49	-5.12
263.707	72.7
263.923	-52.22
264.139	-66.56
264.355	103.42
264.571	99.33
264.787	115.71
265.004	70.65
265.22	99.33
265.436	35.84
265.652	-35.84
265.868	50.18
266.084	33.79
266.3	109.57
266.516	76.8
266.732	64.51
266.948	37.89
267.164	5.12
267.38	103.42
267.596	66.56
267.812	128
268.028	78.85
268.244	46.08
268.46	105.47
268.676	23.55
268.892	15.36
269.108	17.41
269.324	37.89
269.54	-19.46
269.756	29.7
269.972	46.08
270.188	76.8
270.403	1.02
270.619	54.27
270.835	29.7
271.051	115.71
271.267	3.07
271.483	56.32
271.698	72.7
271.914	111.61
272.13	39.94
272.346	1.02
272.562	91.13
272.777	54.27
272.993	87.04
273.209	19.46
273.425	1.02
273.64	37.89
273.856	80.89
274.072	56.32
274.287	-25.6
274.503	78.85
274.719	5.12
274.934	113.66
275.15	46.08
275.366	80.89
275.581	21.5
275.797	50.18
276.012	62.46
276.228	-1.02
276.444	54.27
276.659	185.34
276.875	7.17
277.09	29.7
277.306	-76.8
277.521	78.85
277.737	5.12
277.952	41.98
278.168	23.55
278.383	15.36
278.599	56.32
278.814	87.04
279.03	87.04
279.245	56.32
279.461	80.89
279.676	58.37
279.892	-25.6
280.107	-33.79
280.322	105.47
280.538	37.89
280.753	64.51
280.969	-33.79
281.184	5.12
281.399	82.94
281.615	48.13
281.83	54.27
282.045	-29.7
282.26	60.42
282.476	13.31
282.691	84.99
282.906	123.9
283.122	7.17
283.337	-11.26
283.552	62.46
283.767	27.65
283.983	128
284.198	50.18
284.413	78.85
284.628	-23.55
284.843	31.74
285.058	119.81
285.274	80.89
285.489	13.31
285.704	54.27
285.919	7.17
286.134	58.37
286.349	62.46
286.564	99.33
286.779	44.03
286.995	70.65
287.21	5.12
287.425	21.5
287.64	-27.65
287.855	74.75
288.07	37.89
288.285	78.85
288.5	107.52
288.715	15.36
288.93	54.27
289.145	33.79
289.36	82.94
289.575	58.37
289.79	37.89
290.004	46.08
290.219	37.89
290.434	13.31
290.649	41.98
290.864	-3.07
291.079	3.07
291.294	37.89
291.509	13.31
291.724	56.32
291.938	58.37
292.153	60.42
292.368	-60.42
292.583	111.61
292.798	78.85
293.012	187.39
293.227	70.65
293.442	80.89
293.657	-3.07
293.871	78.85
294.086	46.08
294.301	103.42
294.516	95.23
294.73	1.02
294.945	-11.26
295.16	46.08
295.374	76.8
295.589	70.65
295.804	29.7
296.018	66.56
296.233	152.57
296.447	39.94
296.662	-3.07
296.877	54.27
297.091	41.98
297.306	62.46
297.52	-1.02
297.735	70.65
297.949	-11.26
298.164	25.6
298.378	54.27
298.593	-39.94
298.807	-11.26
299.022	29.7
299.236	80.89
299.451	25.6
299.665	-17.41
299.88	99.33
300.094	82.94
300.309	37.89
300.523	70.65
300.737	70.65
300.952	156.67
301.166	21.5
301.381	-23.55
301.595	29.7
301.809	78.85
302.024	60.42
302.238	1.02
302.452	173.05
302.667	123.9
302.881	128
303.095	37.89
303.309	95.23
303.524	48.13
303.738	52.22
303.952	7.17
304.166	25.6
304.381	-31.74
304.595	48.13
304.809	46.08
305.023	95.23
305.237	33.79
305.452	48.13
305.666	68.61
305.88	123.9
306.094	152.57
306.308	50.18
306.522	87.04
306.736	74.75
306.95	89.09
307.164	39.94
307.379	-11.26
307.593	82.94
307.807	37.89
308.021	95.23
308.235	109.57
308.449	21.5
308.663	5.12
308.877	70.65
309.091	111.61
309.305	27.65
309.519	39.94
309.733	87.04
309.947	-9.22
310.161	89.09
310.374	93.18
310.588	64.51
310.802	46.08
311.016	-27.65
311.23	23.55
311.444	54.27
311.658	37.89
311.872	105.47
312.085	111.61
312.299	82.94
312.513	13.31
312.727	74.75
312.941	-3.07
313.154	58.37
313.368	82.94
313.582	5.12
313.796	107.52
314.009	103.42
314.223	-3.07
314.437	54.27
314.651	74.75
314.864	19.46
315.078	39.94
315.292	54.27
315.505	5.12
315.719	66.56
315.933	78.85
316.146	21.5
316.36	-13.31
316.573	87.04
316.787	17.41
317.001	5.12
317.214	31.74
317.428	46.08
317.641	-3.07
317.855	54.27
318.068	84.99
318.282	62.46
318.495	70.65
318.709	95.23
318.922	44.03
319.136	70.65
319.349	5.12
319.563	78.85
319.776	164.86
319.99	11.26
320.203	68.61
320.417	29.7
320.63	50.18
320.843	95.23
321.057	60.42
321.27	103.42
321.483	37.89
321.697	95.23
321.91	70.65
322.124	95.23
322.337	62.46
322.55	21.5
322.763	46.08
322.977	111.61
323.19	97.28
323.403	37.89
323.617	103.42
323.83	13.31
324.043	56.32
324.256	39.94
324.469	3.07
324.683	58.37
324.896	44.03
325.109	80.89
325.322	11.26
325.535	-11.26
325.748	78.85
325.962	87.04
326.175	70.65
326.388	5.12
326.601	37.89
326.814	78.85
327.027	109.57
327.24	78.85
327.453	-1.02
327.666	78.85
327.879	58.37
328.092	121.85
328.305	50.18
328.518	31.74
328.731	54.27
328.944	64.51
329.157	27.65
329.37	46.08
329.583	95.23
329.796	31.74
330.009	50.18
330.222	56.32
330.435	-19.46
330.648	87.04
330.861	66.56
331.073	87.04
331.286	54.27
331.499	99.33
331.712	-35.84
331.925	37.89
332.138	99.33
332.35	84.99
332.563	64.51
332.776	31.74
332.989	3.07
333.202	78.85
333.414	13.31
333.627	54.27
333.84	39.94
334.053	70.65
334.265	130.05
334.478	54.27
334.691	74.75
334.903	76.8
335.116	-3.07
335.329	78.85
335.541	17.41
335.754	140.29
335.966	21.5
336.179	-15.36
336.392	25.6
336.604	58.37
336.817	72.7
337.029	111.61
337.242	58.37
337.454	117.76
337.667	66.56
337.88	58.37
338.092	58.37
338.305	132.09
338.517	103.42
338.729	17.41
338.942	95.23
339.154	-11.26
339.367	9.22
339.579	13.31
339.792	25.6
340.004	-7.17
340.217	87.04
340.429	62.46
340.641	-39.94
340.854	17.41
341.066	37.89
341.278	17.41
341.491	74.75
341.703	48.13
341.915	37.89
342.128	97.28
342.34	68.61
342.552	68.61
342.764	68.61
342.977	44.03
343.189	35.84
343.401	58.37
343.613	-11.26
343.826	70.65
344.038	54.27
344.25	46.08
344.462	5.12
344.674	62.46
344.886	78.85
345.099	115.71
345.311	101.37
345.523	46.08
345.735	11.26
345.947	95.23
346.159	78.85
346.371	74.75
346.583	-5.12
346.795	70.65
347.007	97.28
347.219	80.89
347.431	31.74
347.643	95.23
347.855	17.41
348.067	134.14
348.279	-27.65
348.491	111.61
348.703	113.66
348.915	50.18
349.127	68.61
349.339	52.22
349.551	76.8
349.763	70.65
349.975	91.13
350.187	173.05
350.399	62.46
350.61	-3.07
350.822	29.7
351.034	29.7
351.246	99.33
351.458	128
351.669	46.08
351.881	128
352.093	70.65
352.305	107.52
352.517	39.94
352.728	76.8
352.94	87.04
353.152	130.05
353.363	76.8
353.575	29.7
353.787	95.23
353.999	74.75
354.21	50.18
354.422	-27.65
354.633	50.18
354.845	37.89
355.057	-1.02
355.268	72.7
355.48	95.23
355.692	-27.65
355.903	-19.46
356.115	60.42
356.326	39.94
356.538	64.51
356.749	97.28
356.961	89.09
357.172	66.56
357.384	78.85
357.595	136.19
357.807	78.85
358.018	-27.65
358.23	132.09
358.441	99.33
358.653	50.18
358.864	17.41
359.075	9.22
359.287	58.37
359.498	78.85
359.709	44.03
359.921	21.5
360.132	41.98
360.344	97.28
360.555	31.74
360.766	-19.46
360.977	78.85
361.189	91.13
361.4	7.17
361.611	72.7
361.823	113.66
362.034	33.79
362.245	-33.79
362.456	93.18
362.667	66.56
362.879	15.36
363.09	25.6
363.301	46.08
363.512	58.37
363.723	25.6
363.935	62.46
364.146	158.72
364.357	5.12
364.568	54.27
364.779	-7.17
364.99	62.46
365.201	44.03
365.412	33.79
365.623	74.75
365.834	123.9
366.045	5.12
366.256	23.55
366.467	50.18
366.678	37.89
366.889	25.6
367.1	21.5
367.311	78.85
367.522	62.46
367.733	80.89
367.944	44.03
368.155	41.98
368.366	95.23
368.577	46.08
368.788	113.66
368.999	21.5
369.209	21.5
369.42	103.42
369.631	117.76
369.842	21.5
370.053	132.09
370.264	105.47
370.474	119.81
370.685	54.27
370.896	-58.37
371.107	93.18
371.317	68.61
371.528	-29.7
371.739	111.61
371.95	89.09
372.16	78.85
372.371	-3.07
372.582	93.18
372.792	54.27
373.003	37.89
373.214	9.22
373.424	74.75
373.635	37.89
373.846	140.29
374.056	52.22
374.267	56.32
374.477	91.13
374.688	46.08
374.898	35.84
375.109	62.46
375.319	62.46
375.53	70.65
375.74	156.67
375.951	62.46
376.161	46.08
376.372	58.37
376.582	91.13
376.793	25.6
377.003	11.26
377.214	1.02
377.424	70.65
377.635	62.46
377.845	-7.17
378.055	89.09
378.266	19.46
378.476	39.94
378.686	41.98
378.897	23.55
379.107	7.17
379.317	113.66
379.528	17.41
379.738	119.81
379.948	87.04
380.158	82.94
380.369	46.08
380.579	136.19
380.789	37.89
380.999	95.23
381.21	103.42
381.42	87.04
381.63	46.08
381.84	64.51
382.05	84.99
382.261	48.13
382.471	-7.17
382.681	48.13
382.891	136.19
383.101	74.75
383.311	5.12
383.521	80.89
383.731	91.13
383.941	162.81
384.151	111.61
384.361	-17.41
384.571	89.09
384.781	50.18
384.991	130.05
385.201	119.81
385.411	103.42
385.621	101.37
385.831	46.08
386.041	80.89
386.251	41.98
386.461	160.77
386.671	58.37
386.881	140.29
387.091	87.04
387.301	111.61
387.511	91.13
387.72	87.04
387.93	117.76
388.14	17.41
388.35	74.75
388.56	195.58
388.769	95.23
388.979	70.65
389.189	31.74
389.399	64.51
389.609	48.13
389.818	138.24
390.028	121.85
390.238	97.28
390.447	64.51
390.657	74.75
390.867	64.51
391.076	33.79
391.286	68.61
391.496	29.7
391.705	62.46
391.915	89.09
392.125	68.61
392.334	9.22
392.544	109.57
392.753	93.18
392.963	54.27
393.172	44.03
393.382	89.09
393.591	87.04
393.801	13.31
394.01	95.23
394.22	64.51
394.429	48.13
394.639	144.38
394.848	99.33
395.058	56.32
395.267	62.46
395.477	66.56
395.686	119.81
395.895	148.48
396.105	191.49
396.314	119.81
396.524	84.99
396.733	123.9
396.942	140.29
397.152	91.13
397.361	80.89
397.57	152.57
397.78	80.89
397.989	175.1
398.198	152.57
398.407	66.56
398.617	119.81
398.826	113.66
399.035	103.42
399.244	164.86
399.453	56.32
399.663	70.65
399.872	121.85
400.081	95.23
400.29	189.44
400.499	132.09
400.708	134.14
400.917	152.57
401.127	152.57
401.336	211.96
401.545	107.52
401.754	209.92
401.963	130.05
402.172	177.15
402.381	130.05
402.59	78.85
402.799	185.34
403.008	128
403.217	179.2
403.426	205.82
403.635	111.61
403.844	160.77
404.053	119.81
404.262	193.53
404.471	222.2
404.68	171.01
404.888	144.38
405.097	168.96
405.306	195.58
405.515	152.57
405.724	199.68
405.933	263.16
406.142	271.36
406.35	187.39
406.559	189.44
406.768	214.01
406.977	295.93
407.185	218.11
407.394	277.5
407.603	152.57
407.812	287.74
408.02	291.84
408.229	244.73
408.438	234.49
408.646	201.72
408.855	271.36
409.064	269.31
409.272	316.41
409.481	295.93
409.69	316.41
409.898	277.5
410.107	332.79
410.315	386.04
410.524	375.8
410.733	375.8
410.941	381.95
411.15	402.43
411.358	422.91
411.567	504.82
411.775	437.24
411.984	496.63
412.192	564.22
412.401	480.25
412.609	547.83
412.818	599.03
413.026	592.89
413.234	648.18
413.443	662.52
413.651	629.75
413.86	609.27
414.068	680.95
414.276	756.72
414.485	654.33
414.693	781.3
414.901	869.36
415.11	771.06
415.318	760.82
415.526	922.61
415.734	938.99
415.943	963.57
416.151	979.95
416.359	971.76
416.567	1025.01
416.776	1176.56
416.984	1078.26
417.192	1102.83
417.4	1238
417.608	1106.93
417.817	1160.17
418.025	1238
418.233	1389.55
418.441	1301.48
418.649	1358.83
418.857	1594.34
419.065	1555.43
419.273	1496.04
419.481	1547.24
419.689	1670.12
419.897	1790.95
420.105	1692.65
420.313	1770.47
420.521	1840.1
420.729	1946.59
420.937	1952.74
421.145	1905.63
421.353	2005.99
421.561	2311.13
421.769	2274.27
421.977	2331.61
422.185	2315.23
422.393	2517.98
422.601	2733.01
422.809	2456.54
423.017	2554.84
423.224	2823.12
423.432	2835.41
423.64	2939.86
423.848	3218.38
424.056	3107.79
424.263	3257.29
424.471	3306.45
424.679	3169.23
424.887	3517.39
425.094	3496.91
425.302	3529.67
425.51	3713.99
425.718	3871.68
425.925	3978.18
426.133	4092.87
426.341	4297.66
426.548	4490.17
426.756	4479.93
426.964	4617.15
427.171	4721.59
427.379	5006.26
427.586	5084.08
427.794	5235.63
428.001	5342.13
428.209	5555.12
428.417	5612.46
428.624	5962.66
428.832	5952.42
429.039	5874.6
429.247	5940.13
429.454	6501.28
429.662	6957.97
429.869	6394.78
430.076	6962.07
430.284	6732.7
430.491	6878.1
430.699	7435.15
430.906	7324.56
431.114	7541.64
431.321	7902.09
431.528	8004.49
431.736	8319.87
431.943	8797.05
432.15	8287.11
432.358	8680.32
432.565	9114.48
432.772	9036.66
432.979	9556.85
433.187	9599.85
433.394	9712.49
433.601	10392.42
433.808	10296.16
434.016	10328.93
434.223	10664.8
434.43	11283.28
434.637	11264.85
434.844	11844.43
435.052	11971.4
435.259	11924.3
435.466	12131.14
435.673	11920.2
435.88	12849.98
436.087	13484.85
436.294	13478.71
436.501	13085.5
436.708	13120.31
436.915	13730.61
437.122	14416.68
437.329	14547.75
437.537	14883.61
437.743	15252.25
437.95	14908.19
438.157	15653.65
438.364	16030.48
438.571	16038.67
438.778	16438.02
438.985	17713.91
439.192	17140.47
439.399	17576.69
439.606	17134.33
439.813	18545.38
440.02	19505.88
440.227	18776.8
440.433	18834.14
440.64	19458.78
440.847	19129.05
441.054	19774.16
441.261	20859.59
441.467	20720.32
441.674	21232.32
441.881	21793.46
442.088	21689.01
442.294	21519.03
442.501	22291.12
442.708	22733.48
442.914	23360.16
443.121	24330.89
443.328	23763.61
443.534	25743.99
443.741	24926.85
443.948	24169.1
444.154	25997.94
444.361	26272.37
444.568	26542.7
444.774	26358.38
444.981	26624.62
445.187	27398.75
445.394	28623.44
445.6	28349.01
445.807	30652.97
446.013	29289.03
446.22	29956.66
446.426	31349.28
446.633	31388.19
446.839	32397.84
447.046	31156.77
447.252	32971.27
447.459	32801.29
447.665	32647.69
447.871	34429.43
448.078	35682.78
448.284	33905.15
448.491	34734.57
448.697	36270.55
448.903	36872.65
449.11	36731.34
449.316	36538.83
449.522	37472.71
449.728	38003.13
449.935	38504.88
450.141	38320.57
450.347	39213.48
450.553	37714.37
450.76	38162.87
450.966	39580.07
451.172	39061.93
451.378	40122.78
451.584	39006.64
451.791	40257.95
451.997	39969.18
452.203	40808.85
452.409	40561.05
452.615	40157.6
452.821	38652.34
453.027	38912.43
453.233	40622.48
453.44	38998.44
453.646	39164.33
453.852	39285.16
454.058	39911.84
454.264	38873.52
454.47	39489.96
454.676	38838.7
454.882	39741.86
455.088	36434.39
455.294	37128.65
455.5	37587.39
455.705	37921.21
455.911	36401.62
456.117	35615.2
456.323	35469.79
456.529	33438.21
456.735	34873.84
456.941	33921.53
457.147	33401.35
457.352	32055.83
457.558	31826.46
457.764	32299.54
457.97	31543.84
458.176	30757.42
458.381	30769.71
458.587	29313.6
458.793	29063.75
458.999	27652.7
459.204	29534.78
459.41	28664.39
459.616	27013.73
459.821	26888.81
460.027	26790.5
460.233	26280.56
460.438	25100.93
460.644	25172.61
460.85	24314.51
461.055	23458.46
461.261	23708.31
461.466	21891.76
461.672	21308.09
461.878	22778.53
462.083	21340.86
462.289	20898.5
462.494	20607.69
462.7	19532.5
462.905	19124.96
463.111	19686.1
463.316	19923.66
463.522	19477.21
463.727	19747.54
463.932	19675.86
464.138	19184.35
464.343	19157.72
464.549	18873.06
464.754	19309.27
464.959	19249.88
465.165	18983.65
465.37	18232.04
465.575	18004.72
465.781	18543.33
465.986	18477.8
466.191	18002.67
466.397	17701.62
466.602	16487.17
466.807	17527.54
467.012	17337.08
467.218	17341.18
