Data from USB4F104151__273__14-34-39-503.txt Node

Date: Thu Mar 13 14:34:39 EDT 2025
User: louis
Spectrometer: USB4F10415
Trigger mode: 4
Integration Time (sec): 2.500000E-2
Scans to average: 1
Electric dark correction enabled: true
Nonlinearity correction enabled: false
Boxcar width: 0
XAxis mode: Wavelengths
Number of Pixels in Spectrum: 3648
>>>>>Begin Spectral Data<<<<<
178.204	-126.97
178.424	-126.97
178.644	-126.97
178.864	-190.46
179.084	-133.12
179.304	2.05
179.524	-12.29
179.744	28.67
179.964	20.48
180.184	0
180.404	14.34
180.624	-28.67
180.844	-20.48
181.064	-69.63
181.283	2.05
181.503	30.72
181.723	32.77
181.943	-53.25
182.163	20.48
182.383	-45.06
182.602	-8.19
182.822	106.49
183.042	-36.86
183.262	-30.72
183.482	-12.29
183.701	-20.48
183.921	36.86
184.141	-20.48
184.361	61.44
184.58	55.3
184.8	-43.01
185.02	18.43
185.239	57.34
185.459	14.34
185.679	30.72
185.898	-69.63
186.118	30.72
186.338	-10.24
186.557	12.29
186.777	71.68
186.997	-73.73
187.216	-6.14
187.436	53.25
187.655	106.49
187.875	94.21
188.095	28.67
188.314	61.44
188.534	139.26
188.753	40.96
188.973	14.34
189.192	45.06
189.412	45.06
189.631	55.3
189.851	45.06
190.07	69.63
190.29	73.73
190.509	8.19
190.729	-20.48
190.948	79.87
191.168	180.22
191.387	38.91
191.607	77.82
191.826	-2.05
192.045	4.1
192.265	45.06
192.484	61.44
192.704	79.87
192.923	-57.34
193.142	122.88
193.362	53.25
193.581	-12.29
193.8	38.91
194.02	79.87
194.239	28.67
194.458	-10.24
194.678	40.96
194.897	94.21
195.116	-14.34
195.335	12.29
195.555	96.25
195.774	-8.19
195.993	51.2
196.212	-36.86
196.432	-10.24
196.651	86.01
196.87	-28.67
197.089	118.78
197.308	32.77
197.528	26.62
197.747	53.25
197.966	-16.38
198.185	69.63
198.404	20.48
198.623	34.82
198.842	22.53
199.062	131.07
199.281	69.63
199.5	-24.58
199.719	24.58
199.938	36.86
200.157	40.96
200.376	-10.24
200.595	30.72
200.814	86.01
201.033	-45.06
201.252	57.34
201.471	55.3
201.69	49.15
201.909	51.2
202.128	43.01
202.347	45.06
202.566	-28.67
202.785	-26.62
203.004	63.49
203.223	145.41
203.442	49.15
203.661	36.86
203.879	36.86
204.098	63.49
204.317	-2.05
204.536	98.3
204.755	28.67
204.974	28.67
205.193	-2.05
205.411	90.11
205.63	71.68
205.849	69.63
206.068	-4.1
206.287	0
206.505	14.34
206.724	65.54
206.943	6.14
207.162	61.44
207.381	22.53
207.599	2.05
207.818	-16.38
208.037	-14.34
208.255	-40.96
208.474	22.53
208.693	73.73
208.911	24.58
209.13	28.67
209.349	-34.82
209.567	86.01
209.786	79.87
210.005	-2.05
210.223	55.3
210.442	6.14
210.661	20.48
210.879	45.06
211.098	108.54
211.316	32.77
211.535	69.63
211.753	34.82
211.972	6.14
212.191	63.49
212.409	36.86
212.628	45.06
212.846	38.91
213.065	53.25
213.283	81.92
213.502	51.2
213.72	71.68
213.938	-4.1
214.157	43.01
214.375	45.06
214.594	14.34
214.812	69.63
215.031	65.54
215.249	-53.25
215.467	40.96
215.686	-28.67
215.904	73.73
216.122	86.01
216.341	118.78
216.559	-2.05
216.778	86.01
216.996	6.14
217.214	24.58
217.432	-24.58
217.651	57.34
217.869	22.53
218.087	32.77
218.306	2.05
218.524	94.21
218.742	40.96
218.96	38.91
219.179	-28.67
219.397	-8.19
219.615	43.01
219.833	57.34
220.051	30.72
220.27	32.77
220.488	61.44
220.706	69.63
220.924	8.19
221.142	14.34
221.36	61.44
221.578	30.72
221.796	-24.58
222.015	55.3
222.233	-10.24
222.451	47.1
222.669	61.44
222.887	30.72
223.105	8.19
223.323	51.2
223.541	43.01
223.759	28.67
223.977	-45.06
224.195	61.44
224.413	49.15
224.631	67.58
224.849	-2.05
225.067	159.74
225.285	18.43
225.503	120.83
225.721	-36.86
225.939	30.72
226.157	36.86
226.375	118.78
226.592	28.67
226.81	-6.14
227.028	73.73
227.246	114.69
227.464	30.72
227.682	55.3
227.9	14.34
228.117	6.14
228.335	73.73
228.553	12.29
228.771	6.14
228.989	22.53
229.206	20.48
229.424	24.58
229.642	71.68
229.86	30.72
230.077	53.25
230.295	-4.1
230.513	49.15
230.731	12.29
230.948	26.62
231.166	77.82
231.384	47.1
231.601	26.62
231.819	104.45
232.037	-2.05
232.254	32.77
232.472	133.12
232.689	45.06
232.907	-20.48
233.125	40.96
233.342	-8.19
233.56	61.44
233.777	77.82
233.995	28.67
234.213	63.49
234.43	63.49
234.648	-4.1
234.865	12.29
235.083	61.44
235.3	18.43
235.518	16.38
235.735	110.59
235.953	51.2
236.17	57.34
236.388	-12.29
236.605	-18.43
236.822	114.69
237.04	77.82
237.257	16.38
237.475	-43.01
237.692	45.06
237.909	55.3
238.127	22.53
238.344	-4.1
238.562	69.63
238.779	-32.77
238.996	8.19
239.214	2.05
239.431	36.86
239.648	6.14
239.865	-28.67
240.083	81.92
240.3	16.38
240.517	36.86
240.735	8.19
240.952	120.83
241.169	83.97
241.386	71.68
241.603	79.87
241.821	47.1
242.038	49.15
242.255	6.14
242.472	-2.05
242.689	20.48
242.907	20.48
243.124	12.29
243.341	24.58
243.558	20.48
243.775	-51.2
243.992	16.38
244.209	-8.19
244.426	110.59
244.643	-28.67
244.86	6.14
245.078	55.3
245.295	-36.86
245.512	71.68
245.729	8.19
245.946	-4.1
246.163	69.63
246.38	28.67
246.597	8.19
246.814	4.1
247.031	36.86
247.248	45.06
247.464	69.63
247.681	14.34
247.898	45.06
248.115	59.39
248.332	75.77
248.549	90.11
248.766	104.45
248.983	145.41
249.2	36.86
249.417	61.44
249.633	73.73
249.85	65.54
250.067	-32.77
250.284	71.68
250.501	8.19
250.717	59.39
250.934	-100.35
251.151	57.34
251.368	71.68
251.585	69.63
251.801	36.86
252.018	34.82
252.235	65.54
252.451	-57.34
252.668	51.2
252.885	90.11
253.102	22.53
253.318	53.25
253.535	45.06
253.752	16.38
253.968	-40.96
254.185	22.53
254.401	28.67
254.618	79.87
254.835	16.38
255.051	65.54
255.268	96.25
255.484	106.49
255.701	32.77
255.917	-8.19
256.134	-36.86
256.351	-28.67
256.567	-12.29
256.784	51.2
257	14.34
257.217	126.97
257.433	104.45
257.65	63.49
257.866	94.21
258.082	-28.67
258.299	-28.67
258.515	57.34
258.732	36.86
258.948	49.15
259.165	45.06
259.381	38.91
259.597	53.25
259.814	45.06
260.03	32.77
260.246	49.15
260.463	6.14
260.679	69.63
260.895	81.92
261.112	30.72
261.328	8.19
261.544	53.25
261.761	126.97
261.977	20.48
262.193	-6.14
262.409	77.82
262.626	71.68
262.842	79.87
263.058	-16.38
263.274	126.97
263.49	77.82
263.707	16.38
263.923	8.19
264.139	14.34
264.355	20.48
264.571	36.86
264.787	47.1
265.004	-16.38
265.22	12.29
265.436	28.67
265.652	0
265.868	40.96
266.084	-22.53
266.3	45.06
266.516	-65.53
266.732	-12.29
266.948	55.3
267.164	6.14
267.38	129.02
267.596	63.49
267.812	112.64
268.028	10.24
268.244	53.25
268.46	45.06
268.676	32.77
268.892	126.97
269.108	20.48
269.324	20.48
269.54	8.19
269.756	40.96
269.972	24.58
270.188	-36.86
270.403	-8.19
270.619	69.63
270.835	-36.86
271.051	28.67
271.267	-12.29
271.483	22.53
271.698	73.73
271.914	40.96
272.13	14.34
272.346	14.34
272.562	-2.05
272.777	24.58
272.993	55.3
273.209	20.48
273.425	45.06
273.64	30.72
273.856	4.1
274.072	-16.38
274.287	6.14
274.503	71.68
274.719	75.77
274.934	98.3
275.15	14.34
275.366	-12.29
275.581	22.53
275.797	71.68
276.012	20.48
276.228	-55.3
276.444	34.82
276.659	118.78
276.875	38.91
277.09	22.53
277.306	-43.01
277.521	73.73
277.737	40.96
277.952	86.01
278.168	-30.72
278.383	30.72
278.599	14.34
278.814	-2.05
279.03	-32.77
279.245	67.58
279.461	30.72
279.676	12.29
279.892	-10.24
280.107	45.06
280.322	4.1
280.538	49.15
280.753	137.21
280.969	14.34
281.184	-4.1
281.399	90.11
281.615	-45.06
281.83	14.34
282.045	-57.34
282.26	-24.58
282.476	-2.05
282.691	114.69
282.906	40.96
283.122	61.44
283.337	14.34
283.552	94.21
283.767	-4.1
283.983	49.15
284.198	63.49
284.413	61.44
284.628	8.19
284.843	-12.29
285.058	63.49
285.274	24.58
285.489	8.19
285.704	28.67
285.919	32.77
286.134	28.67
286.349	69.63
286.564	102.4
286.779	94.21
286.995	-12.29
287.21	32.77
287.425	65.54
287.64	53.25
287.855	69.63
288.07	-18.43
288.285	55.3
288.5	104.45
288.715	36.86
288.93	61.44
289.145	63.49
289.36	81.92
289.575	12.29
289.79	30.72
290.004	-14.34
290.219	79.87
290.434	28.67
290.649	-10.24
290.864	32.77
291.079	45.06
291.294	88.06
291.509	24.58
291.724	12.29
291.938	-22.53
292.153	12.29
292.368	4.1
292.583	45.06
292.798	120.83
293.012	16.38
293.227	49.15
293.442	53.25
293.657	4.1
293.871	36.86
294.086	-8.19
294.301	157.69
294.516	34.82
294.73	36.86
294.945	0
295.16	67.58
295.374	6.14
295.589	63.49
295.804	36.86
296.018	8.19
296.233	43.01
296.447	20.48
296.662	90.11
296.877	90.11
297.091	71.68
297.306	57.34
297.52	20.48
297.735	81.92
297.949	-20.48
298.164	69.63
298.378	-10.24
298.593	-28.67
298.807	24.58
299.022	14.34
299.236	81.92
299.451	61.44
299.665	102.4
299.88	-4.1
300.094	-16.38
300.309	67.58
300.523	71.68
300.737	24.58
300.952	-8.19
301.166	32.77
301.381	47.1
301.595	26.62
301.809	81.92
302.024	110.59
302.238	0
302.452	49.15
302.667	28.67
302.881	126.97
303.095	65.54
303.309	22.53
303.524	40.96
303.738	14.34
303.952	22.53
304.166	30.72
304.381	-49.15
304.595	71.68
304.809	2.05
305.023	-16.38
305.237	22.53
305.452	12.29
305.666	22.53
305.88	112.64
306.094	90.11
306.308	51.2
306.522	40.96
306.736	88.06
306.95	26.62
307.164	69.63
307.379	20.48
307.593	83.97
307.807	55.3
308.021	32.77
308.235	47.1
308.449	61.44
308.663	-12.29
308.877	145.41
309.091	20.48
309.305	38.91
309.519	-86.01
309.733	96.25
309.947	6.14
310.161	-26.62
310.374	45.06
310.588	102.4
310.802	2.05
311.016	-4.1
311.23	53.25
311.444	14.34
311.658	40.96
311.872	118.78
312.085	77.82
312.299	61.44
312.513	49.15
312.727	-4.1
312.941	4.1
313.154	36.86
313.368	45.06
313.582	6.14
313.796	14.34
314.009	53.25
314.223	45.06
314.437	51.2
314.651	75.77
314.864	71.68
315.078	-53.25
315.292	-83.97
315.505	22.53
315.719	28.67
315.933	34.82
316.146	139.26
316.36	14.34
316.573	77.82
316.787	90.11
317.001	36.86
317.214	63.49
317.428	65.54
317.641	63.49
317.855	-10.24
318.068	16.38
318.282	69.63
318.495	28.67
318.709	40.96
318.922	-40.96
319.136	126.97
319.349	172.03
319.563	40.96
319.776	32.77
319.99	-57.34
320.203	38.91
320.417	20.48
320.63	77.82
320.843	65.54
321.057	98.3
321.27	47.1
321.483	20.48
321.697	36.86
321.91	65.54
322.124	71.68
322.337	-24.58
322.55	28.67
322.763	45.06
322.977	20.48
323.19	-4.1
323.403	86.01
323.617	81.92
323.83	-4.1
324.043	-36.86
324.256	12.29
324.469	-8.19
324.683	108.54
324.896	18.43
325.109	12.29
325.322	24.58
325.535	28.67
325.748	126.97
325.962	40.96
326.175	-20.48
326.388	75.77
326.601	36.86
326.814	-4.1
327.027	20.48
327.24	61.44
327.453	-32.77
327.666	43.01
327.879	57.34
328.092	12.29
328.305	96.25
328.518	71.68
328.731	4.1
328.944	12.29
329.157	20.48
329.37	28.67
329.583	86.01
329.796	40.96
330.009	12.29
330.222	-16.38
330.435	77.82
330.648	43.01
330.861	38.91
331.073	32.77
331.286	51.2
331.499	57.34
331.712	12.29
331.925	28.67
332.138	4.1
332.35	22.53
332.563	-36.86
332.776	112.64
332.989	-4.1
333.202	12.29
333.414	22.53
333.627	28.67
333.84	40.96
334.053	94.21
334.265	-22.53
334.478	53.25
334.691	2.05
334.903	24.58
335.116	-8.19
335.329	32.77
335.541	57.34
335.754	106.49
335.966	12.29
336.179	-10.24
336.392	71.68
336.604	28.67
336.817	16.38
337.029	36.86
337.242	63.49
337.454	57.34
337.667	47.1
337.88	36.86
338.092	2.05
338.305	49.15
338.517	-51.2
338.729	28.67
338.942	45.06
339.154	-8.19
339.367	28.67
339.579	45.06
339.792	-26.62
340.004	75.77
340.217	4.1
340.429	4.1
340.641	63.49
340.854	-38.91
341.066	45.06
341.278	83.97
341.491	69.63
341.703	51.2
341.915	86.01
342.128	69.63
342.34	77.82
342.552	22.53
342.764	24.58
342.977	16.38
343.189	40.96
343.401	6.14
343.613	-53.25
343.826	36.86
344.038	-36.86
344.25	30.72
344.462	61.44
344.674	92.16
344.886	135.17
345.099	53.25
345.311	-8.19
345.523	65.54
345.735	-18.43
345.947	59.39
346.159	45.06
346.371	4.1
346.583	53.25
346.795	120.83
347.007	28.67
347.219	106.49
347.431	59.39
347.643	96.25
347.855	57.34
348.067	73.73
348.279	-12.29
348.491	49.15
348.703	-40.96
348.915	96.25
349.127	-10.24
349.339	69.63
349.551	-26.62
349.763	47.1
349.975	38.91
350.187	47.1
350.399	118.78
350.61	86.01
350.822	-8.19
351.034	61.44
351.246	6.14
351.458	57.34
351.669	30.72
351.881	71.68
352.093	61.44
352.305	94.21
352.517	4.1
352.728	69.63
352.94	61.44
353.152	90.11
353.363	36.86
353.575	-12.29
353.787	110.59
353.999	73.73
354.21	100.35
354.422	96.25
354.633	30.72
354.845	45.06
355.057	47.1
355.268	20.48
355.48	24.58
355.692	0
355.903	98.3
356.115	100.35
356.326	-20.48
356.538	77.82
356.749	122.88
356.961	159.74
357.172	53.25
357.384	-8.19
357.595	169.98
357.807	77.82
358.018	-12.29
358.23	20.48
358.441	182.27
358.653	47.1
358.864	26.62
359.075	28.67
359.287	20.48
359.498	86.01
359.709	53.25
359.921	61.44
360.132	4.1
360.344	32.77
360.555	-20.48
360.766	-12.29
360.977	16.38
361.189	53.25
361.4	24.58
361.611	98.3
361.823	49.15
362.034	16.38
362.245	51.2
362.456	36.86
362.667	47.1
362.879	-4.1
363.09	26.62
363.301	36.86
363.512	22.53
363.723	36.86
363.935	0
364.146	-12.29
364.357	77.82
364.568	49.15
364.779	-8.19
364.99	96.25
365.201	-8.19
365.412	88.06
365.623	0
365.834	26.62
366.045	81.92
366.256	20.48
366.467	30.72
366.678	47.1
366.889	79.87
367.1	-20.48
367.311	69.63
367.522	61.44
367.733	20.48
367.944	55.3
368.155	32.77
368.366	45.06
368.577	98.3
368.788	45.06
368.999	-2.05
369.209	124.93
369.42	120.83
369.631	43.01
369.842	38.91
370.053	4.1
370.264	-4.1
370.474	20.48
370.685	63.49
370.896	63.49
371.107	47.1
371.317	18.43
371.528	45.06
371.739	110.59
371.95	77.82
372.16	2.05
372.371	28.67
372.582	36.86
372.792	65.54
373.003	20.48
373.214	22.53
373.424	-38.91
373.635	20.48
373.846	61.44
374.056	73.73
374.267	88.06
374.477	61.44
374.688	57.34
374.898	96.25
375.109	69.63
375.319	45.06
375.53	61.44
375.74	61.44
375.951	-10.24
376.161	16.38
376.372	77.82
376.582	69.63
376.793	110.59
377.003	-10.24
377.214	102.4
377.424	53.25
377.635	81.92
377.845	47.1
378.055	40.96
378.266	-57.34
378.476	59.39
378.686	90.11
378.897	77.82
379.107	53.25
379.317	71.68
379.528	53.25
379.738	18.43
379.948	53.25
380.158	20.48
380.369	32.77
380.579	104.45
380.789	49.15
380.999	81.92
381.21	28.67
381.42	59.39
381.63	100.35
381.84	75.77
382.05	22.53
382.261	49.15
382.471	69.63
382.681	-4.1
382.891	49.15
383.101	51.2
383.311	36.86
383.521	20.48
383.731	102.4
383.941	86.01
384.151	-4.1
384.361	61.44
384.571	26.62
384.781	55.3
384.991	108.54
385.201	96.25
385.411	63.49
385.621	108.54
385.831	69.63
386.041	106.49
386.251	55.3
386.461	118.78
386.671	69.63
386.881	124.93
387.091	71.68
387.301	139.26
387.511	63.49
387.72	73.73
387.93	34.82
388.14	30.72
388.35	28.67
388.56	90.11
388.769	86.01
388.979	36.86
389.189	49.15
389.399	53.25
389.609	36.86
389.818	53.25
390.028	86.01
390.238	20.48
390.447	-20.48
390.657	20.48
390.867	65.54
391.076	-45.06
391.286	69.63
391.496	106.49
391.705	32.77
391.915	159.74
392.125	55.3
392.334	-10.24
392.544	126.97
392.753	79.87
392.963	22.53
393.172	92.16
393.382	8.19
393.591	81.92
393.801	81.92
394.01	151.55
394.22	69.63
394.429	55.3
394.639	73.73
394.848	102.4
395.058	36.86
395.267	36.86
395.477	94.21
395.686	73.73
395.895	153.6
396.105	104.45
396.314	86.01
396.524	92.16
396.733	69.63
396.942	176.13
397.152	24.58
397.361	118.78
397.57	94.21
397.78	120.83
397.989	86.01
398.198	126.97
398.407	36.86
398.617	88.06
398.826	71.68
399.035	49.15
399.244	151.55
399.453	124.93
399.663	69.63
399.872	124.93
400.081	90.11
400.29	94.21
400.499	94.21
400.708	131.07
400.917	61.44
401.127	83.97
401.336	53.25
401.545	221.18
401.754	94.21
401.963	96.25
402.172	104.45
402.381	104.45
402.59	8.19
402.799	90.11
403.008	124.93
403.217	126.97
403.426	131.07
403.635	94.21
403.844	137.21
404.053	133.12
404.262	116.73
404.471	172.03
404.68	94.21
404.888	165.89
405.097	98.3
405.306	167.93
405.515	163.84
405.724	167.93
405.933	149.5
406.142	194.56
406.35	129.02
406.559	208.89
406.768	225.28
406.977	174.08
407.185	237.56
407.394	196.61
407.603	208.89
407.812	139.26
408.02	202.75
408.229	194.56
408.438	190.46
408.646	159.74
408.855	245.76
409.064	249.85
409.272	198.65
409.481	258.04
409.69	243.71
409.898	258.04
410.107	276.48
410.315	299
410.524	339.96
410.733	299
410.941	360.44
411.15	301.05
411.358	378.87
411.567	460.79
411.775	372.73
411.984	372.73
412.192	395.26
412.401	456.7
412.609	464.89
412.818	479.22
413.026	489.46
413.234	489.46
413.443	475.13
413.651	415.74
413.86	466.94
414.068	544.76
414.276	620.53
414.485	591.86
414.693	557.05
414.901	667.64
415.11	741.36
415.318	598.01
415.526	612.34
415.734	737.27
415.943	700.41
416.151	767.99
416.359	864.24
416.567	772.08
416.776	894.96
416.984	917.49
417.192	901.11
417.4	948.21
417.608	925.68
417.817	927.73
418.025	1009.65
418.233	1089.52
418.441	1069.04
418.649	1073.14
418.857	1134.57
419.065	1251.31
419.273	1175.53
419.481	1208.3
419.689	1423.34
419.897	1355.76
420.105	1374.19
420.313	1611.75
420.521	1439.72
420.729	1605.61
420.937	1628.14
421.145	1617.9
421.353	1576.94
421.561	1728.49
421.769	1832.93
421.977	1937.38
422.185	1761.25
422.393	1990.63
422.601	2121.7
422.809	2150.37
423.017	2150.37
423.224	2232.29
423.432	2351.07
423.64	2359.26
423.848	2570.2
424.056	2412.51
424.263	2643.93
424.471	2731.99
424.679	2758.61
424.887	2772.95
425.094	2850.77
425.302	2914.26
425.51	3174.35
425.718	3223.5
425.925	3166.16
426.133	3307.47
426.341	3465.16
426.548	3530.7
426.756	3690.44
426.964	3573.71
427.171	3719.11
427.379	3913.67
427.586	3977.16
427.794	3971.01
428.001	4278.21
428.209	4362.17
428.417	4435.9
428.624	4771.77
428.832	4763.58
429.039	4585.4
429.247	4665.27
429.454	5250.99
429.662	5416.88
429.869	5222.32
430.076	5599.15
430.284	5345.2
430.491	5638.06
430.699	5855.14
430.906	5904.29
431.114	6025.12
431.321	6227.87
431.528	6356.89
431.736	6627.23
431.943	6930.33
432.15	6829.98
432.358	7042.96
432.565	7346.06
432.772	7120.79
432.979	7470.99
433.187	7683.98
433.394	7737.23
433.601	8355.71
433.808	8355.71
434.016	8249.22
434.223	8593.28
434.43	8949.62
434.637	8851.32
434.844	9498.48
435.052	9549.68
435.259	9658.22
435.466	9613.17
435.673	9611.12
435.88	10284.9
436.087	10588
436.294	10817.37
436.501	10395.49
436.708	10712.92
436.915	10954.58
437.122	11419.47
437.329	11683.66
437.537	11843.4
437.743	11829.07
437.95	12009.29
438.157	12762.94
438.364	12916.54
438.571	13023.03
438.778	12855.1
438.985	14055.21
439.192	13606.7
439.399	14073.64
439.606	13713.2
439.813	14626.59
440.02	15306.52
440.227	14833.44
440.433	14774.05
440.64	15470.36
440.847	15116.06
441.054	15718.16
441.261	16768.77
441.467	16396.04
441.674	16539.4
441.881	17303.29
442.088	17280.76
442.294	16996.09
442.501	17391.35
442.708	18210.54
442.914	18685.67
443.121	19437.27
443.328	18912.99
443.534	20305.61
443.741	19705.56
443.948	19377.88
444.154	20885.19
444.361	20901.57
444.568	20833.99
444.774	20969.15
444.981	20985.54
445.187	21667.51
445.394	22486.7
445.6	22079.15
445.807	24290.96
446.013	23461.53
446.22	23600.79
446.426	24891.01
446.633	25054.85
446.839	25634.42
447.046	24792.71
447.252	26080.88
447.459	26115.7
447.665	26244.72
447.871	27293.28
448.078	28235.35
448.284	26951.27
448.491	27758.17
448.697	28874.31
448.903	29451.84
449.11	29161.03
449.316	28954.18
449.522	29691.45
449.728	30125.62
449.935	30545.45
450.141	30367.28
450.347	31057.45
450.553	30328.37
450.76	30744.11
450.966	31673.88
451.172	31077.93
451.378	31968.79
451.584	31393.31
451.791	31925.78
451.997	32052.76
452.203	32572.94
452.409	32812.56
452.615	32400.91
452.821	31323.68
453.027	30805.55
453.233	32419.35
453.44	31057.45
453.646	31501.86
453.852	31467.04
454.058	31972.89
454.264	30752.3
454.47	31612.45
454.676	31008.29
454.882	31925.78
455.088	29107.78
455.294	29904.44
455.5	30012.98
455.705	30412.34
455.911	29382.21
456.117	28831.3
456.323	28094.04
456.529	26723.94
456.735	27844.18
456.941	26762.86
457.147	26977.89
457.352	25708.15
457.558	25503.35
457.764	25880.18
457.97	25108.1
458.176	24610.44
458.381	24444.56
458.587	23328.41
458.793	23084.7
458.999	22048.43
459.204	23596.7
459.41	22896.29
459.616	21720.76
459.821	21423.8
460.027	21491.38
460.233	20977.34
460.438	19908.3
460.644	20270.79
460.85	19119.84
461.055	18714.34
461.261	18814.69
461.466	17329.91
461.672	16496.39
461.878	17948.4
462.083	16684.8
462.289	16568.07
462.494	16283.4
462.7	15527.7
462.905	15210.26
463.111	15765.26
463.316	15865.61
463.522	15292.18
463.727	15587.09
463.932	15275.8
464.138	15015.71
464.343	15111.96
464.549	14907.16
464.754	15271.7
464.959	15001.37
465.165	14667.55
465.37	14446.37
465.575	13936.43
465.781	14524.19
465.986	14516
466.191	13772.59
466.397	13682.48
466.602	12760.89
466.807	13604.66
467.012	13653.81
467.218	13487.92
467.423	13254.45
467.628	13176.63
467.833	13782.83
