Data from USB4F104151__86__14-30-37-996.txt Node

Date: Thu Mar 13 14:30:37 EDT 2025
User: louis
Spectrometer: USB4F10415
Trigger mode: 4
Integration Time (sec): 2.500000E-2
Scans to average: 1
Electric dark correction enabled: true
Nonlinearity correction enabled: false
Boxcar width: 0
XAxis mode: Wavelengths
Number of Pixels in Spectrum: 3648
>>>>>Begin Spectral Data<<<<<
178.204	-86.87
178.424	-86.87
178.644	-86.87
178.864	-170.83
179.084	-133.97
179.304	-54.1
179.524	29.87
179.744	-17.24
179.964	-15.19
180.184	21.67
180.404	29.87
180.624	-2.9
180.844	5.29
181.064	-76.63
181.283	13.48
181.503	-33.62
181.723	99.5
181.943	-33.62
182.163	179.37
182.383	66.73
182.602	13.48
182.822	76.97
183.042	1.19
183.262	-31.57
183.482	62.63
183.701	79.02
183.921	54.44
184.141	15.53
184.361	52.39
184.58	-35.67
184.8	3.24
185.02	13.48
185.239	87.21
185.459	-17.24
185.679	-33.62
185.898	70.83
186.118	9.39
186.338	-15.19
186.557	38.06
186.777	9.39
186.997	46.25
187.216	-7
187.436	5.29
187.655	42.15
187.875	60.59
188.095	-88.92
188.314	44.2
188.534	87.21
188.753	-23.38
188.973	33.96
189.192	83.11
189.412	54.44
189.631	-2.9
189.851	128.17
190.07	38.06
190.29	-43.86
190.509	17.58
190.729	7.34
190.948	60.59
191.168	148.65
191.387	-31.57
191.607	38.06
191.826	36.01
192.045	46.25
192.265	-9.05
192.484	70.83
192.704	70.83
192.923	-23.38
193.142	89.26
193.362	15.53
193.581	-17.24
193.8	9.39
194.02	21.67
194.239	-0.85
194.458	79.02
194.678	17.58
194.897	81.07
195.116	29.87
195.335	-7
195.555	31.91
195.774	-9.05
195.993	91.31
196.212	72.87
196.432	13.48
196.651	7.34
196.87	-11.09
197.089	128.17
197.308	-7
197.528	54.44
197.747	-2.9
197.966	29.87
198.185	132.26
198.404	62.63
198.623	79.02
198.842	21.67
199.062	-0.85
199.281	15.53
199.5	83.11
199.719	25.77
199.938	21.67
200.157	140.46
200.376	48.3
200.595	50.35
200.814	5.29
201.033	21.67
201.252	79.02
201.471	83.11
201.69	42.15
201.909	50.35
202.128	58.54
202.347	81.07
202.566	-2.9
202.785	56.49
203.004	21.67
203.223	187.56
203.442	89.26
203.661	5.29
203.879	-80.72
204.098	91.31
204.317	40.11
204.536	3.24
204.755	68.78
204.974	46.25
205.193	76.97
205.411	70.83
205.63	38.06
205.849	-7
206.068	48.3
206.287	21.67
206.505	46.25
206.724	68.78
206.943	-2.9
207.162	5.29
207.381	99.5
207.599	-27.48
207.818	19.63
208.037	-58.2
208.255	54.44
208.474	3.24
208.693	9.39
208.911	-15.19
209.13	93.35
209.349	103.59
209.567	23.72
209.786	115.88
210.005	105.64
210.223	48.3
210.442	-35.67
210.661	124.07
210.879	44.2
211.098	29.87
211.316	46.25
211.535	29.87
211.753	23.72
211.972	40.11
212.191	40.11
212.409	70.83
212.628	-33.62
212.846	-19.29
213.065	46.25
213.283	33.96
213.502	31.91
213.72	13.48
213.938	25.77
214.157	95.4
214.375	29.87
214.594	72.87
214.812	27.82
215.031	-0.85
215.249	17.58
215.467	3.24
215.686	40.11
215.904	70.83
216.122	5.29
216.341	70.83
216.559	-0.85
216.778	29.87
216.996	83.11
217.214	48.3
217.432	-17.24
217.651	-35.67
217.869	-2.9
218.087	17.58
218.306	17.58
218.524	103.59
218.742	-21.33
218.96	79.02
219.179	70.83
219.397	17.58
219.615	76.97
219.833	62.63
220.051	-60.24
220.27	89.26
220.488	79.02
220.706	42.15
220.924	17.58
221.142	40.11
221.36	87.21
221.578	48.3
221.796	74.92
222.015	-23.38
222.233	62.63
222.451	70.83
222.669	-66.39
222.887	29.87
223.105	-33.62
223.323	-7
223.541	5.29
223.759	62.63
223.977	-9.05
224.195	74.92
224.413	62.63
224.631	89.26
224.849	25.77
225.067	64.68
225.285	-23.38
225.503	-7
225.721	3.24
225.939	-21.33
226.157	15.53
226.375	91.31
226.592	-25.43
226.81	29.87
227.028	109.74
227.246	130.22
227.464	9.39
227.682	60.59
227.9	-9.05
228.117	72.87
228.335	3.24
228.553	29.87
228.771	66.73
228.989	38.06
229.206	72.87
229.424	31.91
229.642	52.39
229.86	-2.9
230.077	89.26
230.295	25.77
230.513	74.92
230.731	89.26
230.948	81.07
231.166	83.11
231.384	33.96
231.601	-58.2
231.819	21.67
232.037	15.53
232.254	-23.38
232.472	-9.05
232.689	50.35
232.907	-13.14
233.125	17.58
233.342	62.63
233.56	-25.43
233.777	70.83
233.995	-23.38
234.213	46.25
234.43	40.11
234.648	95.4
234.865	-37.72
235.083	-11.09
235.3	-17.24
235.518	76.97
235.735	93.35
235.953	21.67
236.17	40.11
236.388	38.06
236.605	29.87
236.822	99.5
237.04	13.48
237.257	-43.86
237.475	83.11
237.692	-11.09
237.909	42.15
238.127	-4.95
238.344	31.91
238.562	103.59
238.779	29.87
238.996	-31.57
239.214	3.24
239.431	5.29
239.648	-39.76
239.865	87.21
240.083	46.25
240.3	21.67
240.517	13.48
240.735	17.58
240.952	54.44
241.169	83.11
241.386	38.06
241.603	70.83
241.821	48.3
242.038	103.59
242.255	44.2
242.472	-58.2
242.689	44.2
242.907	-0.85
243.124	38.06
243.341	-0.85
243.558	21.67
243.775	33.96
243.992	-15.19
244.209	48.3
244.426	103.59
244.643	21.67
244.86	-27.48
245.078	70.83
245.295	72.87
245.512	128.17
245.729	9.39
245.946	87.21
246.163	-35.67
246.38	54.44
246.597	23.72
246.814	56.49
247.031	31.91
247.248	1.19
247.464	38.06
247.681	1.19
247.898	5.29
248.115	113.83
248.332	87.21
248.549	46.25
248.766	105.64
248.983	-2.9
249.2	48.3
249.417	-19.29
249.633	21.67
249.85	70.83
250.067	29.87
250.284	-19.29
250.501	38.06
250.717	38.06
250.934	64.68
251.151	7.34
251.368	23.72
251.585	38.06
251.801	-9.05
252.018	7.34
252.235	54.44
252.451	-27.48
252.668	11.43
252.885	62.63
253.102	31.91
253.318	46.25
253.535	-7
253.752	21.67
253.968	-15.19
254.185	-23.38
254.401	3.24
254.618	-17.24
254.835	-9.05
255.051	81.07
255.268	7.34
255.484	11.43
255.701	52.39
255.917	72.87
256.134	-43.86
256.351	29.87
256.567	-25.43
256.784	13.48
257	-41.81
257.217	-27.48
257.433	38.06
257.65	-41.81
257.866	56.49
258.082	21.67
258.299	23.72
258.515	-2.9
258.732	50.35
258.948	25.77
259.165	74.92
259.381	29.87
259.597	124.07
259.814	-4.95
260.03	31.91
260.246	72.87
260.463	40.11
260.679	140.46
260.895	48.3
261.112	128.17
261.328	70.83
261.544	-93.01
261.761	191.66
261.977	46.25
262.193	-11.09
262.409	-11.09
262.626	27.82
262.842	-7
263.058	-4.95
263.274	29.87
263.49	101.55
263.707	38.06
263.923	19.63
264.139	-21.33
264.355	87.21
264.571	46.25
264.787	62.63
265.004	79.02
265.22	27.82
265.436	21.67
265.652	-19.29
265.868	-9.05
266.084	-4.95
266.3	42.15
266.516	13.48
266.732	21.67
266.948	23.72
267.164	46.25
267.38	62.63
267.596	97.45
267.812	87.21
268.028	111.78
268.244	21.67
268.46	50.35
268.676	38.06
268.892	40.11
269.108	17.58
269.324	-0.85
269.54	-52.05
269.756	87.21
269.972	-33.62
270.188	29.87
270.403	-19.29
270.619	-27.48
270.835	-11.09
271.051	70.83
271.267	-9.05
271.483	-2.9
271.698	89.26
271.914	21.67
272.13	50.35
272.346	87.21
272.562	9.39
272.777	21.67
272.993	9.39
273.209	-31.57
273.425	29.87
273.64	31.91
273.856	79.02
274.072	7.34
274.287	5.29
274.503	50.35
274.719	13.48
274.934	60.59
275.15	-82.77
275.366	17.58
275.581	-2.9
275.797	50.35
276.012	87.21
276.228	46.25
276.444	56.49
276.659	42.15
276.875	74.92
277.09	38.06
277.306	46.25
277.521	48.3
277.737	62.63
277.952	50.35
278.168	46.25
278.383	60.59
278.599	38.06
278.814	54.44
279.03	15.53
279.245	21.67
279.461	79.02
279.676	56.49
279.892	-68.44
280.107	91.31
280.322	23.72
280.538	33.96
280.753	1.19
280.969	11.43
281.184	33.96
281.399	9.39
281.615	21.67
281.83	62.63
282.045	-43.86
282.26	7.34
282.476	-56.15
282.691	46.25
282.906	42.15
283.122	72.87
283.337	-41.81
283.552	38.06
283.767	31.91
283.983	42.15
284.198	-11.09
284.413	42.15
284.628	-17.24
284.843	103.59
285.058	87.21
285.274	21.67
285.489	17.58
285.704	101.55
285.919	15.53
286.134	-17.24
286.349	-47.96
286.564	-19.29
286.779	64.68
286.995	56.49
287.21	42.15
287.425	54.44
287.64	44.2
287.855	-0.85
288.07	-27.48
288.285	87.21
288.5	50.35
288.715	31.91
288.93	27.82
289.145	-9.05
289.36	101.55
289.575	13.48
289.79	62.63
290.004	5.29
290.219	93.35
290.434	54.44
290.649	-15.19
290.864	13.48
291.079	56.49
291.294	48.3
291.509	52.39
291.724	-19.29
291.938	58.54
292.153	64.68
292.368	-7
292.583	66.73
292.798	81.07
293.012	-9.05
293.227	7.34
293.442	64.68
293.657	7.34
293.871	113.83
294.086	-2.9
294.301	79.02
294.516	64.68
294.73	46.25
294.945	-43.86
295.16	23.72
295.374	87.21
295.589	74.92
295.804	-2.9
296.018	-9.05
296.233	93.35
296.447	81.07
296.662	-17.24
296.877	87.21
297.091	56.49
297.306	-9.05
297.52	13.48
297.735	66.73
297.949	13.48
298.164	87.21
298.378	-11.09
298.593	5.29
298.807	-33.62
299.022	54.44
299.236	11.43
299.451	72.87
299.665	21.67
299.88	66.73
300.094	95.4
300.309	17.58
300.523	23.72
300.737	72.87
300.952	54.44
301.166	38.06
301.381	27.82
301.595	54.44
301.809	29.87
302.024	-19.29
302.238	38.06
302.452	42.15
302.667	7.34
302.881	115.88
303.095	81.07
303.309	130.22
303.524	21.67
303.738	103.59
303.952	46.25
304.166	38.06
304.381	-66.39
304.595	79.02
304.809	-2.9
305.023	3.24
305.237	17.58
305.452	54.44
305.666	58.54
305.88	83.11
306.094	97.45
306.308	89.26
306.522	81.07
306.736	87.21
306.95	31.91
307.164	95.4
307.379	21.67
307.593	111.78
307.807	68.78
308.021	72.87
308.235	103.59
308.449	46.25
308.663	52.39
308.877	111.78
309.091	50.35
309.305	21.67
309.519	-19.29
309.733	38.06
309.947	25.77
310.161	62.63
310.374	-21.33
310.588	87.21
310.802	7.34
311.016	5.29
311.23	64.68
311.444	40.11
311.658	50.35
311.872	29.87
312.085	42.15
312.299	27.82
312.513	31.91
312.727	103.59
312.941	-50
313.154	11.43
313.368	46.25
313.582	33.96
313.796	33.96
314.009	13.48
314.223	40.11
314.437	-15.19
314.651	62.63
314.864	-2.9
315.078	29.87
315.292	-33.62
315.505	19.63
315.719	95.4
315.933	72.87
316.146	19.63
316.36	9.39
316.573	138.41
316.787	15.53
317.001	40.11
317.214	-19.29
317.428	40.11
317.641	-0.85
317.855	87.21
318.068	31.91
318.282	79.02
318.495	13.48
318.709	21.67
318.922	38.06
319.136	181.42
319.349	83.11
319.563	54.44
319.776	-11.09
319.99	-27.48
320.203	21.67
320.417	68.78
320.63	70.83
320.843	138.41
321.057	79.02
321.27	93.35
321.483	48.3
321.697	42.15
321.91	107.69
322.124	138.41
322.337	5.29
322.55	9.39
322.763	48.3
322.977	107.69
323.19	19.63
323.403	74.92
323.617	48.3
323.83	38.06
324.043	-13.14
324.256	56.49
324.469	38.06
324.683	128.17
324.896	1.19
325.109	3.24
325.322	-31.57
325.535	31.91
325.748	111.78
325.962	11.43
326.175	36.01
326.388	103.59
326.601	23.72
326.814	42.15
327.027	70.83
327.24	109.74
327.453	-0.85
327.666	15.53
327.879	74.92
328.092	13.48
328.305	17.58
328.518	105.64
328.731	70.83
328.944	56.49
329.157	21.67
329.37	91.31
329.583	99.5
329.796	162.98
330.009	-17.24
330.222	25.77
330.435	62.63
330.648	15.53
330.861	105.64
331.073	58.54
331.286	81.07
331.499	-2.9
331.712	5.29
331.925	62.63
332.138	-19.29
332.35	117.93
332.563	-17.24
332.776	21.67
332.989	-9.05
333.202	62.63
333.414	-11.09
333.627	79.02
333.84	50.35
334.053	62.63
334.265	13.48
334.478	15.53
334.691	54.44
334.903	38.06
335.116	68.78
335.329	83.11
335.541	31.91
335.754	62.63
335.966	-33.62
336.179	-2.9
336.392	29.87
336.604	5.29
336.817	50.35
337.029	99.5
337.242	64.68
337.454	13.48
337.667	136.36
337.88	46.25
338.092	87.21
338.305	136.36
338.517	-11.09
338.729	97.45
338.942	58.54
339.154	54.44
339.367	36.01
339.579	50.35
339.792	-47.96
340.004	-15.19
340.217	70.83
340.429	-27.48
340.641	81.07
340.854	79.02
341.066	56.49
341.278	79.02
341.491	132.26
341.703	132.26
341.915	83.11
342.128	42.15
342.34	46.25
342.552	40.11
342.764	9.39
342.977	109.74
343.189	72.87
343.401	83.11
343.613	36.01
343.826	54.44
344.038	33.96
344.25	101.55
344.462	5.29
344.674	91.31
344.886	40.11
345.099	83.11
345.311	56.49
345.523	87.21
345.735	-9.05
345.947	7.34
346.159	62.63
346.371	29.87
346.583	27.82
346.795	93.35
347.007	70.83
347.219	97.45
347.431	72.87
347.643	56.49
347.855	56.49
348.067	111.78
348.279	21.67
348.491	-2.9
348.703	7.34
348.915	62.63
349.127	81.07
349.339	40.11
349.551	-27.48
349.763	97.45
349.975	91.31
350.187	95.4
350.399	111.78
350.61	40.11
350.822	-9.05
351.034	111.78
351.246	103.59
351.458	56.49
351.669	46.25
351.881	56.49
352.093	36.01
352.305	91.31
352.517	50.35
352.728	62.63
352.94	99.5
353.152	103.59
353.363	44.2
353.575	70.83
353.787	103.59
353.999	97.45
354.21	136.36
354.422	64.68
354.633	58.54
354.845	103.59
355.057	42.15
355.268	99.5
355.48	105.64
355.692	-17.24
355.903	21.67
356.115	38.06
356.326	62.63
356.538	56.49
356.749	91.31
356.961	138.41
357.172	54.44
357.384	11.43
357.595	105.64
357.807	66.73
358.018	-4.95
358.23	-15.19
358.441	128.17
358.653	25.77
358.864	-2.9
359.075	81.07
359.287	46.25
359.498	107.69
359.709	101.55
359.921	13.48
360.132	74.92
360.344	54.44
360.555	29.87
360.766	76.97
360.977	11.43
361.189	48.3
361.4	29.87
361.611	79.02
361.823	144.55
362.034	95.4
362.245	29.87
362.456	13.48
362.667	17.58
362.879	-43.86
363.09	74.92
363.301	68.78
363.512	89.26
363.723	21.67
363.935	79.02
364.146	89.26
364.357	83.11
364.568	81.07
364.779	70.83
364.99	99.5
365.201	50.35
365.412	83.11
365.623	13.48
365.834	111.78
366.045	11.43
366.256	36.01
366.467	99.5
366.678	76.97
366.889	21.67
367.1	46.25
367.311	144.55
367.522	74.92
367.733	46.25
367.944	62.63
368.155	68.78
368.366	62.63
368.577	105.64
368.788	160.94
368.999	111.78
369.209	64.68
369.42	128.17
369.631	130.22
369.842	36.01
370.053	38.06
370.264	89.26
370.474	-15.19
370.685	54.44
370.896	23.72
371.107	103.59
371.317	101.55
371.528	-15.19
371.739	17.58
371.95	103.59
372.16	97.45
372.371	-17.24
372.582	7.34
372.792	38.06
373.003	89.26
373.214	48.3
373.424	103.59
373.635	-50
373.846	62.63
374.056	111.78
374.267	81.07
374.477	146.6
374.688	21.67
374.898	109.74
375.109	29.87
375.319	56.49
375.53	101.55
375.74	38.06
375.951	54.44
376.161	46.25
376.372	54.44
376.582	58.54
376.793	46.25
377.003	40.11
377.214	44.2
377.424	138.41
377.635	79.02
377.845	81.07
378.055	134.31
378.266	29.87
378.476	83.11
378.686	97.45
378.897	105.64
379.107	42.15
379.317	29.87
379.528	9.39
379.738	87.21
379.948	54.44
380.158	103.59
380.369	33.96
380.579	136.36
380.789	46.25
380.999	136.36
381.21	25.77
381.42	181.42
381.63	62.63
381.84	105.64
382.05	140.46
382.261	105.64
382.471	70.83
382.681	95.4
382.891	154.79
383.101	103.59
383.311	40.11
383.521	5.29
383.731	21.67
383.941	103.59
384.151	132.26
384.361	54.44
384.571	99.5
384.781	33.96
384.991	87.21
385.201	111.78
385.411	152.74
385.621	81.07
385.831	40.11
386.041	93.35
386.251	62.63
386.461	97.45
386.671	64.68
386.881	56.49
387.091	19.63
387.301	113.83
387.511	33.96
387.72	89.26
387.93	128.17
388.14	13.48
388.35	128.17
388.56	79.02
388.769	105.64
388.979	138.41
389.189	48.3
389.399	62.63
389.609	64.68
389.818	66.73
390.028	89.26
390.238	46.25
390.447	95.4
390.657	68.78
390.867	54.44
391.076	-43.86
391.286	130.22
391.496	58.54
391.705	68.78
391.915	72.87
392.125	99.5
392.334	144.55
392.544	74.92
392.753	119.98
392.963	103.59
393.172	91.31
393.382	54.44
393.591	171.18
393.801	128.17
394.01	144.55
394.22	138.41
394.429	70.83
394.639	115.88
394.848	138.41
395.058	74.92
395.267	132.26
395.477	185.51
395.686	138.41
395.895	165.03
396.105	169.13
396.314	83.11
396.524	169.13
396.733	189.61
396.942	138.41
397.152	126.12
397.361	128.17
397.57	122.02
397.78	169.13
397.989	117.93
398.198	177.32
398.407	150.7
398.617	105.64
398.826	152.74
399.035	64.68
399.244	128.17
399.453	111.78
399.663	91.31
399.872	113.83
400.081	244.9
400.29	171.18
400.499	119.98
400.708	197.8
400.917	91.31
401.127	140.46
401.336	105.64
401.545	124.07
401.754	218.28
401.963	187.56
402.172	144.55
402.381	109.74
402.59	160.94
402.799	132.26
403.008	228.52
403.217	169.13
403.426	165.03
403.635	167.08
403.844	91.31
404.053	212.14
404.262	242.85
404.471	283.81
404.68	169.13
404.888	193.7
405.097	171.18
405.306	283.81
405.515	218.28
405.724	205.99
405.933	283.81
406.142	181.42
406.35	341.16
406.559	267.43
406.768	337.06
406.977	218.28
407.185	357.54
407.394	341.16
407.603	269.48
407.812	375.97
408.02	292.01
408.229	398.5
408.438	371.88
408.646	337.06
408.855	351.4
409.064	294.05
409.272	373.92
409.481	396.45
409.69	359.59
409.898	373.92
410.107	437.41
410.315	478.37
410.524	455.84
410.733	509.09
410.941	455.84
411.15	545.95
411.358	580.77
411.567	623.78
411.775	644.26
411.984	597.15
412.192	701.6
412.401	648.35
412.609	730.27
412.818	808.09
413.026	806.05
413.234	734.37
413.443	711.84
413.651	752.8
413.86	791.71
414.068	840.86
414.276	955.55
414.485	980.12
414.693	890.01
414.901	963.74
415.11	1103
415.318	1037.47
415.526	1039.51
415.734	1125.53
415.943	1090.71
416.151	1203.35
416.359	1225.88
416.567	1242.26
416.776	1338.52
416.984	1285.27
417.192	1467.54
417.4	1459.35
417.608	1418.39
417.817	1551.51
418.025	1635.47
418.233	1717.39
418.441	1594.51
418.649	1791.12
418.857	1948.81
419.065	1858.7
419.273	1860.75
419.481	1950.86
419.689	2251.91
419.897	2270.34
420.105	2262.15
420.313	2243.72
420.521	2454.66
420.729	2473.09
420.937	2587.78
421.145	2659.46
421.353	2751.62
421.561	2843.78
421.769	2876.54
421.977	3118.2
422.185	2847.87
422.393	3112.06
422.601	3425.4
422.809	3314.81
423.017	3353.72
423.224	3327.1
423.432	3843.18
423.64	3814.51
423.848	4152.43
424.056	3959.92
424.263	4166.76
424.471	4228.2
424.679	4371.56
424.887	4695.14
425.094	4777.06
425.302	4768.87
425.51	4781.15
425.718	4953.18
425.925	5141.6
426.133	5268.57
426.341	5608.53
426.548	5739.6
426.756	5825.62
426.964	6079.57
427.171	6091.85
427.379	6253.64
427.586	6571.08
427.794	6593.61
428.001	7003.2
428.209	7431.23
428.417	7119.93
428.624	7697.46
428.832	7777.33
429.039	7599.16
429.247	7550.01
429.454	8373.29
429.662	8887.33
429.869	8193.07
430.076	8907.81
430.284	8713.25
430.491	9006.11
430.699	9487.39
430.906	9485.34
431.114	9663.51
431.321	10052.63
431.528	10318.86
431.736	10945.54
431.943	11383.8
432.15	11146.24
432.358	11109.38
432.565	11899.89
432.772	11521.02
432.979	12420.08
433.187	12727.27
433.394	12585.96
433.601	13505.5
433.808	13523.93
434.016	13251.55
434.223	14101.46
434.43	14705.61
434.637	14549.96
434.844	15487.93
435.052	15565.76
435.259	15539.13
435.466	15739.83
435.673	15559.61
435.88	16454.58
436.087	17441.7
436.294	17544.09
436.501	16851.88
436.708	17279.91
436.915	17884.06
437.122	18652.05
437.329	18766.73
437.537	19385.22
437.743	19792.76
437.95	19590.02
438.157	20312.95
438.364	21191.53
438.571	20917.1
438.778	21287.78
438.985	23389
439.192	22516.56
439.399	22934.35
439.606	22172.5
439.813	23520.07
440.02	24730.42
440.227	24652.59
440.433	24187.71
440.64	25482.02
440.847	25117.48
441.054	25838.37
441.261	27374.34
441.467	26958.61
441.674	27286.28
441.881	28582.65
442.088	28381.95
442.294	28125.95
442.501	28908.27
442.708	29315.82
442.914	30761.69
443.121	31883.97
443.328	30851.8
443.534	32996.02
443.741	32346.81
443.948	31996.61
444.154	34022.05
444.361	34032.29
444.568	33835.69
444.774	34239.14
444.981	34405.02
445.187	35822.22
445.394	37126.77
445.6	36729.47
445.807	40014.41
446.013	38142.56
446.22	39103.06
446.426	40448.58
446.633	40454.72
446.839	42031.66
447.046	40286.79
447.252	42500.64
447.459	42426.92
447.665	42418.72
447.871	44288.52
448.078	46629.35
448.284	43923.98
448.491	45005.31
448.697	46533.09
448.903	47383
449.11	47628.76
449.316	46787.04
449.522	48058.83
449.728	49275.32
449.935	49646.01
450.141	49211.84
450.347	50354.6
450.553	48669.12
450.76	49449.4
450.966	51204.51
451.172	50145.71
451.378	51390.87
451.584	50600.36
451.791	51962.26
451.997	51616.15
452.203	52392.33
452.409	52623.75
452.615	52253.07
452.821	50579.88
453.027	49772.98
453.233	52500.87
453.44	50381.23
453.646	51169.69
453.852	51071.39
454.058	52064.66
454.264	50289.07
454.47	51411.35
454.676	50100.65
454.882	51784.08
455.088	47245.79
455.294	48482.76
455.5	49002.94
455.705	49463.74
455.911	46914.01
456.117	46615.01
456.323	45949.42
456.529	43616.79
456.735	45441.53
456.941	44489.22
457.147	43207.19
457.352	42048.04
457.558	41843.24
457.764	42013.23
457.97	40827.45
458.176	40090.18
458.381	39944.78
458.587	38216.29
458.793	38341.22
458.999	36039.3
459.204	38842.97
459.41	37687.92
459.616	35089.04
459.821	35302.03
460.027	35181.2
460.233	34024.1
460.438	32572.09
460.644	32795.32
460.85	31331.02
461.055	31005.39
461.261	31048.4
461.466	29141.74
461.672	27628.29
461.878	29879.01
462.083	28041.98
462.289	27126.54
462.494	27181.84
462.7	25850.66
462.905	25422.63
463.111	26286.87
463.316	26063.64
463.522	25365.29
463.727	25420.58
463.932	25539.36
464.138	25187.11
464.343	25776.93
464.549	24562.48
464.754	25545.51
464.959	25363.24
465.165	25203.5
465.37	24027.96
465.575	23370.57
465.781	24220.47
465.986	24400.69
466.191	23657.28
466.397	23350.09
