Data from USB4F104151__70__14-30-23-600.txt Node

Date: Thu Mar 13 14:30:23 EDT 2025
User: louis
Spectrometer: USB4F10415
Trigger mode: 4
Integration Time (sec): 2.500000E-2
Scans to average: 1
Electric dark correction enabled: true
Nonlinearity correction enabled: false
Boxcar width: 0
XAxis mode: Wavelengths
Number of Pixels in Spectrum: 3648
>>>>>Begin Spectral Data<<<<<
178.204	-136.7
178.424	-136.7
178.644	-136.7
178.864	-148.99
179.084	-173.57
179.304	-50.69
179.524	-22.02
179.744	2.56
179.964	68.09
180.184	-69.12
180.404	29.18
180.624	49.66
180.844	-50.69
181.064	0.51
181.283	29.18
181.503	-15.87
181.723	29.18
181.943	4.61
182.163	80.38
182.383	31.23
182.602	64
182.822	107.01
183.042	53.76
183.262	74.24
183.482	78.33
183.701	-15.87
183.921	-17.92
184.141	45.57
184.361	72.19
184.58	29.18
184.8	61.95
185.02	41.47
185.239	31.23
185.459	4.61
185.679	123.39
185.898	27.14
186.118	8.7
186.338	37.38
186.557	92.67
186.777	8.7
186.997	29.18
187.216	92.67
187.436	98.81
187.655	39.42
187.875	-19.97
188.095	33.28
188.314	94.72
188.534	111.1
188.753	94.72
188.973	137.73
189.192	29.18
189.412	41.47
189.631	70.14
189.851	68.09
190.07	119.29
190.29	-22.02
190.509	4.61
190.729	41.47
190.948	117.25
191.168	190.97
191.387	88.57
191.607	16.9
191.826	113.15
192.045	96.77
192.265	37.38
192.484	74.24
192.704	55.81
192.923	4.61
193.142	88.57
193.362	74.24
193.581	61.95
193.8	98.81
194.02	16.9
194.239	53.76
194.458	25.09
194.678	-11.78
194.897	47.62
195.116	135.68
195.335	-11.78
195.555	98.81
195.774	20.99
195.993	64
196.212	29.18
196.432	-3.58
196.651	12.8
196.87	80.38
197.089	102.91
197.308	45.57
197.528	45.57
197.747	49.66
197.966	94.72
198.185	70.14
198.404	4.61
198.623	96.77
198.842	45.57
199.062	23.04
199.281	86.53
199.5	86.53
199.719	96.77
199.938	-3.58
200.157	45.57
200.376	59.9
200.595	16.9
200.814	29.18
201.033	-26.11
201.252	64
201.471	55.81
201.69	119.29
201.909	86.53
202.128	43.52
202.347	127.49
202.566	45.57
202.785	4.61
203.004	74.24
203.223	96.77
203.442	33.28
203.661	43.52
203.879	37.38
204.098	74.24
204.317	82.43
204.536	76.29
204.755	31.23
204.974	43.52
205.193	31.23
205.411	115.2
205.63	29.18
205.849	29.18
206.068	16.9
206.287	113.15
206.505	82.43
206.724	25.09
206.943	39.42
207.162	61.95
207.381	45.57
207.599	-17.92
207.818	100.86
208.037	-17.92
208.255	0.51
208.474	12.8
208.693	61.95
208.911	80.38
209.13	119.29
209.349	111.1
209.567	25.09
209.786	25.09
210.005	61.95
210.223	0.51
210.442	4.61
210.661	53.76
210.879	41.47
211.098	16.9
211.316	94.72
211.535	102.91
211.753	12.8
211.972	94.72
212.191	6.66
212.409	37.38
212.628	94.72
212.846	14.85
213.065	133.63
213.283	45.57
213.502	29.18
213.72	25.09
213.938	4.61
214.157	35.33
214.375	55.81
214.594	12.8
214.812	29.18
215.031	41.47
215.249	102.91
215.467	47.62
215.686	4.61
215.904	68.09
216.122	-36.35
216.341	55.81
216.559	-17.92
216.778	55.81
216.996	78.33
217.214	66.05
217.432	27.14
217.651	27.14
217.869	37.38
218.087	45.57
218.306	-36.35
218.524	45.57
218.742	-3.58
218.96	-17.92
219.179	49.66
219.397	8.7
219.615	127.49
219.833	53.76
220.051	31.23
220.27	2.56
220.488	39.42
220.706	41.47
220.924	-7.68
221.142	4.61
221.36	18.94
221.578	94.72
221.796	18.94
222.015	27.14
222.233	70.14
222.451	123.39
222.669	31.23
222.887	137.73
223.105	-1.54
223.323	20.99
223.541	53.76
223.759	33.28
223.977	61.95
224.195	137.73
224.413	119.29
224.631	31.23
224.849	61.95
225.067	55.81
225.285	72.19
225.503	53.76
225.721	-54.78
225.939	0.51
226.157	29.18
226.375	96.77
226.592	-15.87
226.81	37.38
227.028	113.15
227.246	78.33
227.464	31.23
227.682	41.47
227.9	80.38
228.117	66.05
228.335	55.81
228.553	49.66
228.771	37.38
228.989	86.53
229.206	61.95
229.424	37.38
229.642	14.85
229.86	102.91
230.077	90.62
230.295	86.53
230.513	-1.54
230.731	74.24
230.948	176.64
231.166	70.14
231.384	70.14
231.601	27.14
231.819	76.29
232.037	57.86
232.254	37.38
232.472	35.33
232.689	37.38
232.907	20.99
233.125	78.33
233.342	94.72
233.56	20.99
233.777	-3.58
233.995	-3.58
234.213	68.09
234.43	4.61
234.648	76.29
234.865	-7.68
235.083	37.38
235.3	-42.5
235.518	45.57
235.735	76.29
235.953	94.72
236.17	88.57
236.388	64
236.605	115.2
236.822	156.16
237.04	55.81
237.257	100.86
237.475	-9.73
237.692	137.73
237.909	45.57
238.127	-11.78
238.344	90.62
238.562	-34.3
238.779	-15.87
238.996	47.62
239.214	-1.54
239.431	23.04
239.648	-3.58
239.865	86.53
240.083	6.66
240.3	-28.16
240.517	-19.97
240.735	49.66
240.952	94.72
241.169	113.15
241.386	72.19
241.603	20.99
241.821	74.24
242.038	102.91
242.255	88.57
242.472	0.51
242.689	37.38
242.907	113.15
243.124	23.04
243.341	59.9
243.558	45.57
243.775	31.23
243.992	39.42
244.209	49.66
244.426	102.91
244.643	98.81
244.86	-9.73
245.078	45.57
245.295	37.38
245.512	8.7
245.729	16.9
245.946	29.18
246.163	47.62
246.38	14.85
246.597	70.14
246.814	78.33
247.031	41.47
247.248	107.01
247.464	14.85
247.681	96.77
247.898	123.39
248.115	4.61
248.332	25.09
248.549	80.38
248.766	27.14
248.983	92.67
249.2	70.14
249.417	20.99
249.633	31.23
249.85	64
250.067	64
250.284	107.01
250.501	66.05
250.717	61.95
250.934	59.9
251.151	119.29
251.368	39.42
251.585	6.66
251.801	68.09
252.018	-34.3
252.235	31.23
252.451	33.28
252.668	104.96
252.885	129.53
253.102	23.04
253.318	-28.16
253.535	-44.54
253.752	70.14
253.968	25.09
254.185	-28.16
254.401	53.76
254.618	45.57
254.835	29.18
255.051	121.34
255.268	88.57
255.484	12.8
255.701	102.91
255.917	66.05
256.134	-24.06
256.351	33.28
256.567	96.77
256.784	20.99
257	53.76
257.217	111.1
257.433	55.81
257.65	111.1
257.866	107.01
258.082	27.14
258.299	20.99
258.515	57.86
258.732	111.1
258.948	61.95
259.165	10.75
259.381	29.18
259.597	20.99
259.814	20.99
260.03	20.99
260.246	20.99
260.463	94.72
260.679	43.52
260.895	20.99
261.112	64
261.328	20.99
261.544	-22.02
261.761	147.97
261.977	47.62
262.193	41.47
262.409	33.28
262.626	-1.54
262.842	96.77
263.058	78.33
263.274	88.57
263.49	74.24
263.707	45.57
263.923	37.38
264.139	-32.26
264.355	109.05
264.571	94.72
264.787	98.81
265.004	119.29
265.22	45.57
265.436	4.61
265.652	57.86
265.868	113.15
266.084	43.52
266.3	49.66
266.516	37.38
266.732	102.91
266.948	74.24
267.164	39.42
267.38	41.47
267.596	16.9
267.812	90.62
268.028	70.14
268.244	-28.16
268.46	51.71
268.676	-48.64
268.892	86.53
269.108	20.99
269.324	10.75
269.54	86.53
269.756	45.57
269.972	137.73
270.188	41.47
270.403	39.42
270.619	31.23
270.835	31.23
271.051	14.85
271.267	-11.78
271.483	86.53
271.698	76.29
271.914	33.28
272.13	29.18
272.346	74.24
272.562	37.38
272.777	57.86
272.993	64
273.209	45.57
273.425	72.19
273.64	45.57
273.856	37.38
274.072	-15.87
274.287	-11.78
274.503	107.01
274.719	4.61
274.934	45.57
275.15	8.7
275.366	-19.97
275.581	-9.73
275.797	16.9
276.012	14.85
276.228	23.04
276.444	29.18
276.659	86.53
276.875	4.61
277.09	6.66
277.306	-17.92
277.521	137.73
277.737	16.9
277.952	66.05
278.168	27.14
278.383	78.33
278.599	47.62
278.814	70.14
279.03	94.72
279.245	78.33
279.461	64
279.676	100.86
279.892	-11.78
280.107	61.95
280.322	-1.54
280.538	64
280.753	53.76
280.969	49.66
281.184	51.71
281.399	49.66
281.615	64
281.83	61.95
282.045	41.47
282.26	45.57
282.476	70.14
282.691	119.29
282.906	31.23
283.122	94.72
283.337	53.76
283.552	6.66
283.767	107.01
283.983	117.25
284.198	16.9
284.413	94.72
284.628	43.52
284.843	111.1
285.058	43.52
285.274	39.42
285.489	29.18
285.704	33.28
285.919	59.9
286.134	78.33
286.349	123.39
286.564	-22.02
286.779	41.47
286.995	31.23
287.21	-19.97
287.425	135.68
287.64	70.14
287.855	45.57
288.07	-28.16
288.285	61.95
288.5	121.34
288.715	45.57
288.93	-5.63
289.145	-48.64
289.36	47.62
289.575	-30.21
289.79	55.81
290.004	20.99
290.219	84.48
290.434	-15.87
290.649	4.61
290.864	102.91
291.079	29.18
291.294	57.86
291.509	135.68
291.724	23.04
291.938	111.1
292.153	88.57
292.368	4.61
292.583	59.9
292.798	107.01
293.012	68.09
293.227	0.51
293.442	2.56
293.657	31.23
293.871	100.86
294.086	78.33
294.301	121.34
294.516	72.19
294.73	57.86
294.945	66.05
295.16	53.76
295.374	78.33
295.589	20.99
295.804	37.38
296.018	53.76
296.233	113.15
296.447	55.81
296.662	8.7
296.877	70.14
297.091	45.57
297.306	80.38
297.52	25.09
297.735	25.09
297.949	100.86
298.164	70.14
298.378	29.18
298.593	37.38
298.807	47.62
299.022	57.86
299.236	76.29
299.451	64
299.665	4.61
299.88	88.57
300.094	45.57
300.309	29.18
300.523	53.76
300.737	64
300.952	98.81
301.166	135.68
301.381	23.04
301.595	-48.64
301.809	61.95
302.024	25.09
302.238	-1.54
302.452	43.52
302.667	90.62
302.881	74.24
303.095	49.66
303.309	94.72
303.524	61.95
303.738	29.18
303.952	33.28
304.166	29.18
304.381	14.85
304.595	82.43
304.809	0.51
305.023	-17.92
305.237	70.14
305.452	70.14
305.666	0.51
305.88	107.01
306.094	70.14
306.308	98.81
306.522	88.57
306.736	98.81
306.95	16.9
307.164	82.43
307.379	37.38
307.593	123.39
307.807	64
308.021	61.95
308.235	53.76
308.449	-60.93
308.663	23.04
308.877	90.62
309.091	86.53
309.305	102.91
309.519	18.94
309.733	78.33
309.947	33.28
310.161	72.19
310.374	39.42
310.588	37.38
310.802	37.38
311.016	-3.58
311.23	53.76
311.444	29.18
311.658	78.33
311.872	20.99
312.085	70.14
312.299	131.58
312.513	37.38
312.727	147.97
312.941	-1.54
313.154	59.9
313.368	8.7
313.582	55.81
313.796	66.05
314.009	20.99
314.223	49.66
314.437	86.53
314.651	45.57
314.864	27.14
315.078	53.76
315.292	25.09
315.505	70.14
315.719	45.57
315.933	98.81
316.146	37.38
316.36	0.51
316.573	84.48
316.787	29.18
317.001	70.14
317.214	-1.54
317.428	-7.68
317.641	31.23
317.855	33.28
318.068	33.28
318.282	33.28
318.495	78.33
318.709	90.62
318.922	0.51
319.136	82.43
319.349	61.95
319.563	8.7
319.776	45.57
319.99	-3.58
320.203	111.1
320.417	-15.87
320.63	72.19
320.843	135.68
321.057	-1.54
321.27	78.33
321.483	139.77
321.697	119.29
321.91	27.14
322.124	137.73
322.337	70.14
322.55	-3.58
322.763	59.9
322.977	23.04
323.19	-73.21
323.403	31.23
323.617	-3.58
323.83	86.53
324.043	49.66
324.256	162.3
324.469	0.51
324.683	152.06
324.896	90.62
325.109	102.91
325.322	29.18
325.535	127.49
325.748	72.19
325.962	14.85
326.175	18.94
326.388	102.91
326.601	94.72
326.814	57.86
327.027	47.62
327.24	96.77
327.453	0.51
327.666	111.1
327.879	45.57
328.092	53.76
328.305	74.24
328.518	55.81
328.731	23.04
328.944	66.05
329.157	61.95
329.37	86.53
329.583	107.01
329.796	88.57
330.009	51.71
330.222	123.39
330.435	61.95
330.648	-34.3
330.861	37.38
331.073	98.81
331.286	72.19
331.499	96.77
331.712	47.62
331.925	94.72
332.138	119.29
332.35	74.24
332.563	57.86
332.776	113.15
332.989	20.99
333.202	123.39
333.414	94.72
333.627	41.47
333.84	94.72
334.053	90.62
334.265	-28.16
334.478	-3.58
334.691	25.09
334.903	70.14
335.116	-24.06
335.329	39.42
335.541	61.95
335.754	127.49
335.966	-34.3
336.179	45.57
336.392	45.57
336.604	39.42
336.817	70.14
337.029	135.68
337.242	49.66
337.454	135.68
337.667	61.95
337.88	119.29
338.092	121.34
338.305	137.73
338.517	70.14
338.729	16.9
338.942	31.23
339.154	-1.54
339.367	29.18
339.579	78.33
339.792	78.33
340.004	119.29
340.217	14.85
340.429	129.53
340.641	-24.06
340.854	31.23
341.066	2.56
341.278	156.16
341.491	80.38
341.703	102.91
341.915	4.61
342.128	45.57
342.34	64
342.552	12.8
342.764	8.7
342.977	61.95
343.189	57.86
343.401	90.62
343.613	-1.54
343.826	31.23
344.038	37.38
344.25	45.57
344.462	37.38
344.674	78.33
344.886	74.24
345.099	53.76
345.311	29.18
345.523	113.15
345.735	72.19
345.947	102.91
346.159	35.33
346.371	49.66
346.583	45.57
346.795	143.87
347.007	45.57
347.219	72.19
347.431	98.81
347.643	70.14
347.855	111.1
348.067	162.3
348.279	86.53
348.491	113.15
348.703	16.9
348.915	25.09
349.127	47.62
349.339	92.67
349.551	145.92
349.763	78.33
349.975	59.9
350.187	115.2
350.399	61.95
350.61	109.05
350.822	-36.35
351.034	78.33
351.246	41.47
351.458	96.77
351.669	57.86
351.881	111.1
352.093	70.14
352.305	66.05
352.517	61.95
352.728	72.19
352.94	100.86
353.152	25.09
353.363	84.48
353.575	88.57
353.787	100.86
353.999	86.53
354.21	139.77
354.422	25.09
354.633	139.77
354.845	12.8
355.057	29.18
355.268	33.28
355.48	51.71
355.692	45.57
355.903	61.95
356.115	59.9
356.326	4.61
356.538	64
356.749	80.38
356.961	127.49
357.172	139.77
357.384	-1.54
357.595	129.53
357.807	14.85
358.018	-28.16
358.23	92.67
358.441	166.4
358.653	111.1
358.864	102.91
359.075	70.14
359.287	76.29
359.498	135.68
359.709	64
359.921	61.95
360.132	57.86
360.344	86.53
360.555	43.52
360.766	72.19
360.977	49.66
361.189	82.43
361.4	64
361.611	135.68
361.823	70.14
362.034	113.15
362.245	53.76
362.456	76.29
362.667	78.33
362.879	88.57
363.09	74.24
363.301	14.85
363.512	57.86
363.723	-5.63
363.935	96.77
364.146	61.95
364.357	-50.69
364.568	78.33
364.779	16.9
364.99	96.77
365.201	4.61
365.412	74.24
365.623	23.04
365.834	41.47
366.045	119.29
366.256	47.62
366.467	31.23
366.678	53.76
366.889	102.91
367.1	133.63
367.311	125.44
367.522	107.01
367.733	88.57
367.944	80.38
368.155	66.05
368.366	119.29
368.577	119.29
368.788	53.76
368.999	45.57
369.209	31.23
369.42	94.72
369.631	127.49
369.842	45.57
370.053	47.62
370.264	64
370.474	2.56
370.685	64
370.896	113.15
371.107	121.34
371.317	49.66
371.528	102.91
371.739	55.81
371.95	104.96
372.16	14.85
372.371	107.01
372.582	6.66
372.792	121.34
373.003	70.14
373.214	4.61
373.424	55.81
373.635	61.95
373.846	129.53
374.056	55.81
374.267	45.57
374.477	41.47
374.688	6.66
374.898	31.23
375.109	47.62
375.319	55.81
375.53	90.62
375.74	80.38
375.951	47.62
376.161	129.53
376.372	53.76
376.582	35.33
376.793	127.49
377.003	66.05
377.214	119.29
377.424	137.73
377.635	37.38
377.845	-5.63
378.055	131.58
378.266	-32.26
378.476	121.34
378.686	41.47
378.897	121.34
379.107	115.2
379.317	76.29
379.528	23.04
379.738	74.24
379.948	2.56
380.158	111.1
380.369	111.1
380.579	70.14
380.789	37.38
380.999	102.91
381.21	64
381.42	72.19
381.63	64
381.84	96.77
382.05	113.15
382.261	88.57
382.471	70.14
382.681	12.8
382.891	72.19
383.101	104.96
383.311	45.57
383.521	49.66
383.731	78.33
383.941	82.43
384.151	98.81
384.361	115.2
384.571	92.67
384.781	61.95
384.991	143.87
385.201	166.4
385.411	96.77
385.621	70.14
385.831	98.81
386.041	119.29
386.251	66.05
386.461	102.91
386.671	39.42
386.881	107.01
387.091	104.96
387.301	86.53
387.511	53.76
387.72	96.77
387.93	121.34
388.14	94.72
388.35	68.09
388.56	104.96
388.769	113.15
388.979	31.23
389.189	80.38
389.399	84.48
389.609	49.66
389.818	45.57
390.028	72.19
390.238	102.91
390.447	76.29
390.657	121.34
390.867	70.14
391.076	107.01
391.286	12.8
391.496	113.15
391.705	119.29
391.915	117.25
392.125	156.16
392.334	88.57
392.544	154.11
392.753	61.95
392.963	74.24
393.172	145.92
393.382	29.18
393.591	117.25
393.801	55.81
394.01	135.68
394.22	152.06
394.429	41.47
394.639	78.33
394.848	129.53
395.058	102.91
395.267	72.19
395.477	55.81
395.686	102.91
395.895	162.3
396.105	201.21
396.314	84.48
396.524	211.45
396.733	166.4
396.942	139.77
397.152	127.49
397.361	160.25
397.57	152.06
397.78	100.86
397.989	145.92
398.198	176.64
398.407	98.81
398.617	53.76
398.826	184.83
399.035	72.19
399.244	184.83
399.453	135.68
399.663	129.53
399.872	168.45
400.081	143.87
400.29	211.45
400.499	111.1
400.708	145.92
400.917	127.49
401.127	78.33
401.336	61.95
401.545	217.6
401.754	98.81
401.963	170.49
402.172	86.53
402.381	137.73
402.59	164.35
402.799	119.29
403.008	152.06
403.217	137.73
403.426	154.11
403.635	145.92
403.844	158.21
404.053	154.11
404.262	156.16
404.471	201.21
404.68	152.06
404.888	164.35
405.097	152.06
405.306	168.45
405.515	211.45
405.724	201.21
405.933	244.22
406.142	225.79
406.35	315.9
406.559	172.54
406.768	211.45
406.977	305.66
407.185	258.56
407.394	193.02
407.603	266.75
407.812	258.56
408.02	356.86
408.229	201.21
408.438	303.61
408.646	242.17
408.855	332.28
409.064	276.99
409.272	291.32
409.481	328.19
409.69	313.85
409.898	330.23
410.107	320
410.315	373.24
410.524	401.91
410.733	467.45
410.941	381.43
411.15	369.15
411.358	481.78
411.567	578.04
411.775	442.87
411.984	500.22
412.192	520.7
412.401	520.7
412.609	674.29
412.818	631.29
413.026	561.66
413.234	588.28
413.443	530.94
413.651	561.66
413.86	596.47
414.068	756.21
414.276	784.88
414.485	725.49
414.693	739.83
414.901	797.17
415.11	887.28
415.318	836.08
415.526	774.64
415.734	899.57
415.943	836.08
416.151	938.48
416.359	926.19
416.567	1077.74
416.776	1022.45
416.984	1102.32
417.192	1141.23
417.4	1059.31
417.608	1145.33
417.817	1276.4
418.025	1380.84
418.233	1389.03
418.441	1286.64
418.649	1393.13
418.857	1399.27
419.065	1473
419.273	1520.1
419.481	1438.19
419.689	1718.76
419.897	1712.61
420.105	1757.67
420.313	1800.68
420.521	1954.27
420.729	1896.93
420.937	1917.41
421.145	2052.58
421.353	2105.82
421.561	2236.89
421.769	2257.37
421.977	2458.07
422.185	2308.57
422.393	2511.32
422.601	2742.74
422.809	2486.75
423.017	2552.28
423.224	2750.93
423.432	2957.78
423.64	2818.52
423.848	3146.19
424.056	3054.03
424.263	3387.85
424.471	3117.52
424.679	3369.42
424.887	3396.04
425.094	3576.27
425.302	3602.89
425.51	3862.98
425.718	3764.68
425.925	3879.36
426.133	4086.21
426.341	4291.01
426.548	4481.47
426.756	4477.37
426.964	4454.84
427.171	4821.43
427.379	4829.62
427.586	4964.79
427.794	5194.16
428.001	5407.15
428.209	5677.48
428.417	5511.6
428.624	5888.42
428.832	5876.13
429.039	5906.85
429.247	5853.61
429.454	6431.13
429.662	6973.85
429.869	6398.37
430.076	6683.03
430.284	6601.12
430.491	6947.22
430.699	7453.07
430.906	7248.27
431.114	7496.08
431.321	7534.99
431.528	7745.93
431.736	8065.41
431.943	8757.63
432.15	8278.4
432.358	8450.43
432.565	9148.79
432.772	8964.47
432.979	9429.36
433.187	9705.84
433.394	9648.49
433.601	10154.34
433.808	10428.77
434.016	10373.47
434.223	10654.05
434.43	11305.3
434.637	10979.67
434.844	11741.52
435.052	11919.69
435.259	11911.5
435.466	11764.04
435.673	12015.94
435.88	12583.23
436.087	13146.42
436.294	13310.26
436.501	12947.77
436.708	13500.72
436.915	13664.56
437.122	14197.03
437.329	14186.79
437.537	14825.76
437.743	15165.72
437.95	14752.03
438.157	15417.62
438.364	16103.69
438.571	15778.06
438.778	15974.67
438.985	17729.78
439.192	16974.08
439.399	17518.84
439.606	16857.34
439.813	18161.9
440.02	19079.39
440.227	18675.94
440.433	18503.91
440.64	19144.92
440.847	18952.41
441.054	19304.67
441.261	20814.02
441.467	20164.81
441.674	20947.14
441.881	21809.33
442.088	21639.35
442.294	21270.72
442.501	21946.55
442.708	22370.47
442.914	23105.7
443.121	24150.16
443.328	23697.56
443.534	25186.43
443.741	24463.5
443.948	23951.51
444.154	26042.48
444.361	25690.23
444.568	25866.36
444.774	26040.43
444.981	26282.09
445.187	27070.56
445.394	27986
445.6	27981.91
445.807	30543.92
446.013	29321.28
446.22	29552.7
446.426	30484.53
446.633	31045.67
446.839	32344.08
447.046	30957.61
447.252	32460.82
447.459	32538.64
447.665	32585.74
447.871	33910.78
448.078	35241.96
448.284	33318.92
448.491	34574.32
448.697	36020.19
448.903	36274.13
449.11	36523.99
449.316	35932.12
449.522	36544.47
449.728	37621.7
449.935	37513.16
450.141	37603.27
450.347	38549.43
450.553	37398.47
450.76	37887.93
450.966	38758.32
451.172	38891.44
451.378	39405.48
451.584	38774.7
451.791	39870.37
451.997	39554.98
452.203	40447.89
452.409	40292.25
452.615	40042.4
452.821	38723.51
453.027	37756.86
453.233	40331.16
453.44	38649.78
453.646	38522.8
453.852	39067.56
454.058	39770.02
454.264	38467.51
454.47	39286.7
454.676	38162.36
454.882	39534.5
455.088	36485.08
455.294	36896.72
455.5	37267.4
455.705	37410.76
455.911	35954.65
456.117	35436.52
456.323	34791.41
456.529	32925.71
456.735	34625.52
456.941	33835
457.147	33058.82
457.352	32014.36
457.558	31615.01
457.764	31850.52
457.97	31483.94
458.176	30083.12
458.381	30124.08
458.587	28678.22
458.793	28878.92
458.999	27525.21
459.204	29546.56
459.41	28524.62
459.616	26843.24
459.821	26484.84
460.027	26433.64
460.233	26081.39
460.438	25051.27
460.644	24891.52
460.85	23693.46
461.055	23584.92
461.261	23197.85
461.466	21618.87
461.672	20754.63
461.878	22331.56
462.083	20883.65
462.289	20416.71
462.494	20191.44
462.7	19632.34
462.905	18921.7
463.111	19630.29
463.316	19640.53
463.522	19423.45
463.727	19296.47
463.932	19257.56
464.138	18798.82
464.343	18876.64
464.549	18448.61
464.754	18790.63
464.959	18878.69
465.165	18692.32
465.37	18153.71
465.575	17443.06
465.781	18030.83
465.986	18086.12
466.191	17522.93
466.397	17033.47
466.602	16388.36
466.807	16822.53
467.012	17037.56
