Data from USB4F104151__287__14-34-49-749.txt Node

Date: Thu Mar 13 14:34:49 EDT 2025
User: louis
Spectrometer: USB4F10415
Trigger mode: 4
Integration Time (sec): 2.500000E-2
Scans to average: 1
Electric dark correction enabled: true
Nonlinearity correction enabled: false
Boxcar width: 0
XAxis mode: Wavelengths
Number of Pixels in Spectrum: 3648
>>>>>Begin Spectral Data<<<<<
178.204	-131.41
178.424	-131.41
178.644	-131.41
178.864	-153.94
179.084	-147.8
179.304	-2.39
179.524	32.43
179.744	7.85
179.964	93.87
180.184	-35.16
180.404	-6.49
180.624	-2.39
180.844	-0.34
181.064	-29.01
181.283	-39.25
181.503	16.04
181.723	-35.16
181.943	-55.64
182.163	57
182.383	79.53
182.602	61.1
182.822	42.67
183.042	67.24
183.262	-43.35
183.482	30.38
183.701	71.34
183.921	71.34
184.141	-26.96
184.361	54.95
184.58	54.95
184.8	104.11
185.02	9.9
185.239	46.76
185.459	24.23
185.679	46.76
185.898	13.99
186.118	22.19
186.338	-12.63
186.557	48.81
186.777	46.76
186.997	32.43
187.216	22.19
187.436	63.15
187.655	-57.68
187.875	81.58
188.095	54.95
188.314	30.38
188.534	9.9
188.753	46.76
188.973	102.06
189.192	-6.49
189.412	38.57
189.631	50.86
189.851	44.71
190.07	73.39
190.29	-16.73
190.509	3.75
190.729	7.85
190.948	63.15
191.168	251.56
191.387	32.43
191.607	-2.39
191.826	79.53
192.045	22.19
192.265	48.81
192.484	22.19
192.704	65.19
192.923	46.76
193.142	122.54
193.362	85.67
193.581	132.78
193.8	-35.16
194.02	63.15
194.239	48.81
194.458	50.86
194.678	-0.34
194.897	30.38
195.116	20.14
195.335	57
195.555	24.23
195.774	18.09
195.993	7.85
196.212	9.9
196.432	73.39
196.651	46.76
196.87	48.81
197.089	104.11
197.308	114.34
197.528	73.39
197.747	-20.82
197.966	40.62
198.185	130.73
198.404	40.62
198.623	87.72
198.842	-18.77
199.062	71.34
199.281	22.19
199.5	-24.92
199.719	54.95
199.938	63.15
200.157	79.53
200.376	110.25
200.595	112.3
200.814	32.43
201.033	9.9
201.252	106.15
201.471	42.67
201.69	48.81
201.909	83.63
202.128	73.39
202.347	13.99
202.566	18.09
202.785	-14.68
203.004	-22.87
203.223	112.3
203.442	54.95
203.661	-10.58
203.879	22.19
204.098	32.43
204.317	40.62
204.536	59.05
204.755	32.43
204.974	38.57
205.193	18.09
205.411	177.83
205.63	5.8
205.849	71.34
206.068	97.96
206.287	-10.58
206.505	97.96
206.724	-22.87
206.943	95.91
207.162	18.09
207.381	63.15
207.599	24.23
207.818	79.53
208.037	13.99
208.255	134.82
208.474	-12.63
208.693	63.15
208.911	24.23
209.13	13.99
209.349	48.81
209.567	40.62
209.786	38.57
210.005	-39.25
210.223	128.68
210.442	32.43
210.661	132.78
210.879	1.71
211.098	50.86
211.316	11.95
211.535	46.76
211.753	13.99
211.972	-6.49
212.191	13.99
212.409	1.71
212.628	42.67
212.846	26.28
213.065	81.58
213.283	79.53
213.502	-0.34
213.72	38.57
213.938	42.67
214.157	-16.73
214.375	57
214.594	46.76
214.812	-26.96
215.031	95.91
215.249	-8.53
215.467	-22.87
215.686	120.49
215.904	-8.53
216.122	5.8
216.341	52.91
216.559	-41.3
216.778	122.54
216.996	30.38
217.214	30.38
217.432	38.57
217.651	40.62
217.869	9.9
218.087	79.53
218.306	59.05
218.524	120.49
218.742	-2.39
218.96	-4.44
219.179	22.19
219.397	-2.39
219.615	104.11
219.833	73.39
220.051	87.72
220.27	65.19
220.488	5.8
220.706	97.96
220.924	30.38
221.142	79.53
221.36	130.73
221.578	48.81
221.796	79.53
222.015	-8.53
222.233	71.34
222.451	136.87
222.669	24.23
222.887	24.23
223.105	32.43
223.323	40.62
223.541	-39.25
223.759	97.96
223.977	36.52
224.195	40.62
224.413	52.91
224.631	83.63
224.849	73.39
225.067	136.87
225.285	-24.92
225.503	42.67
225.721	-31.06
225.939	54.95
226.157	65.19
226.375	186.02
226.592	83.63
226.81	79.53
227.028	3.75
227.246	153.26
227.464	79.53
227.682	95.91
227.9	104.11
228.117	73.39
228.335	136.87
228.553	32.43
228.771	73.39
228.989	83.63
229.206	32.43
229.424	-26.96
229.642	24.23
229.86	30.38
230.077	63.15
230.295	13.99
230.513	-0.34
230.731	77.48
230.948	97.96
231.166	63.15
231.384	-26.96
231.601	81.58
231.819	18.09
232.037	-10.58
232.254	-2.39
232.472	50.86
232.689	46.76
232.907	79.53
233.125	30.38
233.342	-16.73
233.56	73.39
233.777	5.8
233.995	93.87
234.213	16.04
234.43	50.86
234.648	42.67
234.865	75.43
235.083	63.15
235.3	50.86
235.518	63.15
235.735	57
235.953	59.05
236.17	-10.58
236.388	-35.16
236.605	38.57
236.822	5.8
237.04	26.28
237.257	81.58
237.475	18.09
237.692	-8.53
237.909	32.43
238.127	63.15
238.344	59.05
238.562	104.11
238.779	22.19
238.996	24.23
239.214	34.47
239.431	48.81
239.648	18.09
239.865	44.71
240.083	63.15
240.3	102.06
240.517	-10.58
240.735	104.11
240.952	79.53
241.169	73.39
241.386	44.71
241.603	26.28
241.821	-18.77
242.038	30.38
242.255	-33.11
242.472	71.34
242.689	38.57
242.907	46.76
243.124	-2.39
243.341	42.67
243.558	-49.49
243.775	71.34
243.992	-29.01
244.209	71.34
244.426	124.58
244.643	26.28
244.86	32.43
245.078	34.47
245.295	9.9
245.512	71.34
245.729	3.75
245.946	48.81
246.163	32.43
246.38	30.38
246.597	73.39
246.814	1.71
247.031	32.43
247.248	-8.53
247.464	-29.01
247.681	83.63
247.898	38.57
248.115	79.53
248.332	20.14
248.549	81.58
248.766	79.53
248.983	52.91
249.2	50.86
249.417	106.15
249.633	38.57
249.85	48.81
250.067	16.04
250.284	100.01
250.501	104.11
250.717	57
250.934	-59.73
251.151	5.8
251.368	34.47
251.585	30.38
251.801	32.43
252.018	20.14
252.235	79.53
252.451	-57.68
252.668	38.57
252.885	32.43
253.102	83.63
253.318	40.62
253.535	40.62
253.752	-59.73
253.968	67.24
254.185	30.38
254.401	-24.92
254.618	71.34
254.835	48.81
255.051	46.76
255.268	24.23
255.484	42.67
255.701	16.04
255.917	145.06
256.134	46.76
256.351	22.19
256.567	22.19
256.784	91.82
257	28.33
257.217	91.82
257.433	114.34
257.65	-26.96
257.866	48.81
258.082	-18.77
258.299	-16.73
258.515	95.91
258.732	-2.39
258.948	-6.49
259.165	48.81
259.381	18.09
259.597	65.19
259.814	-10.58
260.03	5.8
260.246	18.09
260.463	79.53
260.679	48.81
260.895	89.77
261.112	36.52
261.328	30.38
261.544	-22.87
261.761	104.11
261.977	22.19
262.193	-8.53
262.409	71.34
262.626	11.95
262.842	104.11
263.058	108.2
263.274	87.72
263.49	106.15
263.707	89.77
263.923	63.15
264.139	69.29
264.355	34.47
264.571	48.81
264.787	-24.92
265.004	67.24
265.22	32.43
265.436	79.53
265.652	13.99
265.868	59.05
266.084	26.28
266.3	38.57
266.516	71.34
266.732	1.71
266.948	-51.54
267.164	63.15
267.38	75.43
267.596	57
267.812	67.24
268.028	97.96
268.244	24.23
268.46	13.99
268.676	-2.39
268.892	5.8
269.108	46.76
269.324	22.19
269.54	-6.49
269.756	122.54
269.972	112.3
270.188	46.76
270.403	-8.53
270.619	71.34
270.835	87.72
271.051	87.72
271.267	89.77
271.483	-65.88
271.698	73.39
271.914	18.09
272.13	59.05
272.346	75.43
272.562	50.86
272.777	87.72
272.993	59.05
273.209	5.8
273.425	5.8
273.64	-57.68
273.856	20.14
274.072	79.53
274.287	5.8
274.503	81.58
274.719	63.15
274.934	16.04
275.15	-31.06
275.366	-2.39
275.581	46.76
275.797	104.11
276.012	38.57
276.228	46.76
276.444	9.9
276.659	26.28
276.875	-29.01
277.09	71.34
277.306	46.76
277.521	97.96
277.737	-8.53
277.952	73.39
278.168	22.19
278.383	79.53
278.599	9.9
278.814	65.19
279.03	42.67
279.245	81.58
279.461	46.76
279.676	114.34
279.892	30.38
280.107	-14.68
280.322	-14.68
280.538	67.24
280.753	-8.53
280.969	16.04
281.184	-10.58
281.399	136.87
281.615	24.23
281.83	36.52
282.045	50.86
282.26	7.85
282.476	-24.92
282.691	104.11
282.906	-16.73
283.122	42.67
283.337	-31.06
283.552	95.91
283.767	20.14
283.983	5.8
284.198	40.62
284.413	71.34
284.628	26.28
284.843	54.95
285.058	52.91
285.274	34.47
285.489	16.04
285.704	61.1
285.919	44.71
286.134	91.82
286.349	-26.96
286.564	7.85
286.779	75.43
286.995	89.77
287.21	34.47
287.425	69.29
287.64	65.19
287.855	63.15
288.07	13.99
288.285	126.63
288.5	5.8
288.715	52.91
288.93	40.62
289.145	85.67
289.36	46.76
289.575	79.53
289.79	71.34
290.004	81.58
290.219	54.95
290.434	116.39
290.649	73.39
290.864	46.76
291.079	71.34
291.294	67.24
291.509	83.63
291.724	13.99
291.938	75.43
292.153	91.82
292.368	59.05
292.583	13.99
292.798	50.86
293.012	59.05
293.227	20.14
293.442	46.76
293.657	50.86
293.871	140.97
294.086	7.85
294.301	50.86
294.516	75.43
294.73	104.11
294.945	-8.53
295.16	83.63
295.374	-8.53
295.589	65.19
295.804	-18.77
296.018	32.43
296.233	93.87
296.447	9.9
296.662	75.43
296.877	7.85
297.091	36.52
297.306	57
297.52	116.39
297.735	85.67
297.949	69.29
298.164	59.05
298.378	16.04
298.593	36.52
298.807	26.28
299.022	-0.34
299.236	79.53
299.451	71.34
299.665	-2.39
299.88	-0.34
300.094	42.67
300.309	13.99
300.523	57
300.737	-10.58
300.952	87.72
301.166	32.43
301.381	-10.58
301.595	65.19
301.809	95.91
302.024	42.67
302.238	30.38
302.452	100.01
302.667	79.53
302.881	100.01
303.095	30.38
303.309	140.97
303.524	95.91
303.738	38.57
303.952	71.34
304.166	44.71
304.381	-92.5
304.595	81.58
304.809	-26.96
305.023	73.39
305.237	85.67
305.452	-2.39
305.666	89.77
305.88	63.15
306.094	114.34
306.308	18.09
306.522	36.52
306.736	93.87
306.95	28.33
307.164	42.67
307.379	32.43
307.593	34.47
307.807	124.58
308.021	54.95
308.235	87.72
308.449	3.75
308.663	104.11
308.877	171.69
309.091	5.8
309.305	110.25
309.519	-31.06
309.733	97.96
309.947	-35.16
310.161	104.11
310.374	40.62
310.588	46.76
310.802	-63.83
311.016	-10.58
311.23	87.72
311.444	-2.39
311.658	120.49
311.872	114.34
312.085	71.34
312.299	69.29
312.513	87.72
312.727	30.38
312.941	34.47
313.154	-18.77
313.368	54.95
313.582	71.34
313.796	104.11
314.009	-16.73
314.223	57
314.437	-24.92
314.651	30.38
314.864	38.57
315.078	36.52
315.292	32.43
315.505	71.34
315.719	46.76
315.933	30.38
316.146	104.11
316.36	9.9
316.573	95.91
316.787	91.82
317.001	22.19
317.214	-20.82
317.428	-0.34
317.641	-0.34
317.855	-8.53
318.068	83.63
318.282	93.87
318.495	97.96
318.709	63.15
318.922	108.2
319.136	163.5
319.349	81.58
319.563	-2.39
319.776	87.72
319.99	16.04
320.203	97.96
320.417	124.58
320.63	102.06
320.843	100.01
321.057	42.67
321.27	73.39
321.483	73.39
321.697	54.95
321.91	3.75
322.124	100.01
322.337	71.34
322.55	9.9
322.763	-29.01
322.977	46.76
323.19	59.05
323.403	114.34
323.617	73.39
323.83	40.62
324.043	38.57
324.256	136.87
324.469	22.19
324.683	50.86
324.896	18.09
325.109	16.04
325.322	54.95
325.535	-2.39
325.748	81.58
325.962	22.19
326.175	22.19
326.388	26.28
326.601	95.91
326.814	34.47
327.027	-12.63
327.24	161.45
327.453	-20.82
327.666	75.43
327.879	67.24
328.092	34.47
328.305	18.09
328.518	38.57
328.731	13.99
328.944	48.81
329.157	-2.39
329.37	38.57
329.583	40.62
329.796	75.43
330.009	30.38
330.222	83.63
330.435	75.43
330.648	24.23
330.861	-47.44
331.073	128.68
331.286	100.01
331.499	128.68
331.712	24.23
331.925	91.82
332.138	13.99
332.35	40.62
332.563	38.57
332.776	161.45
332.989	34.47
333.202	57
333.414	-8.53
333.627	28.33
333.84	75.43
334.053	67.24
334.265	-2.39
334.478	-29.01
334.691	136.87
334.903	24.23
335.116	91.82
335.329	48.81
335.541	-16.73
335.754	97.96
335.966	95.91
336.179	18.09
336.392	30.38
336.604	42.67
336.817	106.15
337.029	50.86
337.242	95.91
337.454	91.82
337.667	65.19
337.88	73.39
338.092	32.43
338.305	124.58
338.517	59.05
338.729	79.53
338.942	112.3
339.154	-0.34
339.367	-0.34
339.579	87.72
339.792	-18.77
340.004	63.15
340.217	-24.92
340.429	1.71
340.641	-45.4
340.854	-10.58
341.066	-0.34
341.278	54.95
341.491	120.49
341.703	122.54
341.915	-92.5
342.128	46.76
342.34	30.38
342.552	1.71
342.764	46.76
342.977	85.67
343.189	32.43
343.401	59.05
343.613	22.19
343.826	-2.39
344.038	-6.49
344.25	97.96
344.462	28.33
344.674	9.9
344.886	91.82
345.099	145.06
345.311	59.05
345.523	40.62
345.735	-10.58
345.947	87.72
346.159	106.15
346.371	-57.68
346.583	48.81
346.795	159.4
347.007	-31.06
347.219	26.28
347.431	73.39
347.643	149.16
347.855	26.28
348.067	134.82
348.279	50.86
348.491	95.91
348.703	52.91
348.915	5.8
349.127	38.57
349.339	71.34
349.551	32.43
349.763	16.04
349.975	87.72
350.187	120.49
350.399	112.3
350.61	112.3
350.822	104.11
351.034	57
351.246	65.19
351.458	-2.39
351.669	5.8
351.881	71.34
352.093	87.72
352.305	34.47
352.517	50.86
352.728	30.38
352.94	136.87
353.152	63.15
353.363	13.99
353.575	-2.39
353.787	106.15
353.999	46.76
354.21	46.76
354.422	54.95
354.633	16.04
354.845	81.58
355.057	42.67
355.268	-24.92
355.48	59.05
355.692	24.23
355.903	46.76
356.115	95.91
356.326	9.9
356.538	161.45
356.749	16.04
356.961	153.26
357.172	71.34
357.384	38.57
357.595	128.68
357.807	54.95
358.018	54.95
358.23	108.2
358.441	97.96
358.653	22.19
358.864	36.52
359.075	30.38
359.287	95.91
359.498	63.15
359.709	75.43
359.921	42.67
360.132	16.04
360.344	85.67
360.555	79.53
360.766	40.62
360.977	18.09
361.189	112.3
361.4	-35.16
361.611	75.43
361.823	89.77
362.034	50.86
362.245	22.19
362.456	79.53
362.667	130.73
362.879	16.04
363.09	11.95
363.301	46.76
363.512	83.63
363.723	93.87
363.935	34.47
364.146	128.68
364.357	38.57
364.568	34.47
364.779	13.99
364.99	59.05
365.201	81.58
365.412	67.24
365.623	13.99
365.834	40.62
366.045	46.76
366.256	110.25
366.467	83.63
366.678	-0.34
366.889	-2.39
367.1	128.68
367.311	71.34
367.522	28.33
367.733	93.87
367.944	85.67
368.155	30.38
368.366	106.15
368.577	95.91
368.788	38.57
368.999	157.35
369.209	13.99
369.42	136.87
369.631	95.91
369.842	97.96
370.053	65.19
370.264	130.73
370.474	7.85
370.685	54.95
370.896	24.23
371.107	186.02
371.317	59.05
371.528	181.93
371.739	71.34
371.95	114.34
372.16	81.58
372.371	46.76
372.582	40.62
372.792	32.43
373.003	71.34
373.214	73.39
373.424	95.91
373.635	22.19
373.846	155.3
374.056	116.39
374.267	57
374.477	136.87
374.688	30.38
374.898	1.71
375.109	136.87
375.319	106.15
375.53	169.64
375.74	38.57
375.951	-10.58
376.161	50.86
376.372	104.11
376.582	52.91
376.793	48.81
377.003	11.95
377.214	-26.96
377.424	130.73
377.635	52.91
377.845	30.38
378.055	106.15
378.266	54.95
378.476	67.24
378.686	118.44
378.897	32.43
379.107	153.26
379.317	83.63
379.528	85.67
379.738	30.38
379.948	57
380.158	32.43
380.369	54.95
380.579	73.39
380.789	97.96
380.999	48.81
381.21	132.78
381.42	159.4
381.63	16.04
381.84	18.09
382.05	73.39
382.261	79.53
382.471	122.54
382.681	104.11
382.891	77.48
383.101	149.16
383.311	38.57
383.521	122.54
383.731	118.44
383.941	95.91
384.151	57
384.361	106.15
384.571	-16.73
384.781	136.87
384.991	54.95
385.201	97.96
385.411	24.23
385.621	54.95
385.831	63.15
386.041	95.91
386.251	132.78
386.461	38.57
386.671	34.47
386.881	130.73
387.091	24.23
387.301	30.38
387.511	87.72
387.72	95.91
387.93	38.57
388.14	63.15
388.35	87.72
388.56	5.8
388.769	120.49
388.979	130.73
389.189	20.14
389.399	63.15
389.609	32.43
389.818	91.82
390.028	83.63
390.238	136.87
390.447	104.11
390.657	81.58
390.867	61.1
391.076	89.77
391.286	9.9
391.496	87.72
391.705	77.48
391.915	75.43
392.125	188.07
392.334	59.05
392.544	145.06
392.753	54.95
392.963	26.28
393.172	83.63
393.382	77.48
393.591	128.68
393.801	59.05
394.01	173.74
394.22	48.81
394.429	143.02
394.639	159.4
394.848	71.34
395.058	18.09
395.267	83.63
395.477	145.06
395.686	145.06
395.895	157.35
396.105	87.72
396.314	100.01
396.524	77.48
396.733	75.43
396.942	202.41
397.152	89.77
397.361	42.67
397.57	138.92
397.78	89.77
397.989	161.45
398.198	173.74
398.407	114.34
398.617	116.39
398.826	136.87
399.035	87.72
399.244	220.84
399.453	140.97
399.663	73.39
399.872	208.55
400.081	122.54
400.29	226.98
400.499	46.76
400.708	163.5
400.917	169.64
401.127	147.11
401.336	30.38
401.545	183.98
401.754	136.87
401.963	237.22
402.172	161.45
402.381	153.26
402.59	114.34
402.799	218.79
403.008	112.3
403.217	136.87
403.426	128.68
403.635	118.44
403.844	210.6
404.053	153.26
404.262	179.88
404.471	253.61
404.68	134.82
404.888	171.69
405.097	194.22
405.306	177.83
405.515	208.55
405.724	181.93
405.933	220.84
406.142	226.98
406.35	251.56
406.559	210.6
406.768	265.89
406.977	261.8
407.185	251.56
407.394	245.41
407.603	269.99
407.812	278.18
408.02	315.05
408.229	263.85
408.438	272.04
408.646	251.56
408.855	317.09
409.064	278.18
409.272	386.72
409.481	341.67
409.69	356.01
409.898	349.86
410.107	370.34
410.315	374.44
410.524	325.29
410.733	415.4
410.941	409.25
411.15	523.94
411.358	472.74
411.567	407.2
411.775	448.16
411.984	448.16
412.192	546.47
412.401	493.22
412.609	603.81
412.818	644.77
413.026	630.43
413.234	663.2
413.443	646.82
413.651	652.96
413.86	751.26
414.068	722.59
414.276	855.71
414.485	816.8
414.693	808.61
414.901	837.28
415.11	843.42
415.318	824.99
415.526	849.57
415.734	824.99
415.943	945.82
416.151	1087.13
416.359	988.83
416.567	990.88
416.776	1095.32
416.984	1244.82
417.192	1244.82
417.4	1267.35
417.608	1099.42
417.817	1291.93
418.025	1414.81
418.233	1416.85
418.441	1416.85
418.649	1439.38
418.857	1611.41
419.065	1564.31
419.273	1678.99
419.481	1627.79
419.689	1859.21
419.897	1810.06
420.105	1848.97
420.313	1918.61
420.521	2082.44
420.729	2078.35
420.937	2072.2
421.145	2119.31
421.353	2119.31
421.561	2463.37
421.769	2420.36
421.977	2537.09
422.185	2625.15
422.393	2567.81
422.601	2762.37
422.809	2780.8
423.017	2774.66
423.224	2901.63
423.432	2864.77
423.64	3112.57
423.848	3419.77
424.056	3161.72
424.263	3507.83
424.471	3376.76
424.679	3450.49
424.887	3602.04
425.094	3921.52
425.302	3915.37
425.51	3839.6
425.718	4187.75
425.925	4214.38
426.133	4404.84
426.341	4712.03
426.548	4664.93
426.756	4755.04
426.964	4816.48
427.171	5166.68
427.379	5240.41
427.586	5359.19
427.794	5488.21
428.001	5682.77
428.209	5987.92
428.417	5930.58
428.624	6331.98
428.832	6291.02
429.039	6078.03
429.247	6231.63
429.454	6688.32
429.662	7261.76
429.869	6809.15
430.076	7329.34
430.284	7138.88
430.491	7339.58
430.699	7833.14
430.906	7853.62
431.114	7837.24
431.321	8189.49
431.528	8406.57
431.736	8773.16
431.943	9297.44
432.15	8926.75
432.358	9141.79
432.565	9780.76
432.772	9612.82
432.979	10116.62
433.187	10235.41
433.394	10214.93
433.601	10987.01
433.808	11044.35
434.016	11073.03
434.223	11251.2
434.43	11990.52
434.637	11787.77
434.844	12477.93
435.052	12580.33
435.259	12674.54
435.466	12807.66
435.673	12754.41
435.88	13387.23
436.087	14382.54
436.294	14005.72
436.501	13637.08
436.708	14104.02
436.915	14413.26
437.122	15085
437.329	15185.35
437.537	15476.16
437.743	16037.3
437.95	15855.03
438.157	16885.16
438.364	17194.4
438.571	17231.27
438.778	17110.44
438.985	18748.81
439.192	17872.28
439.399	18634.13
439.606	18036.12
439.813	19322.24
440.02	20323.7
440.227	19721.6
440.433	19809.66
440.64	20512.11
440.847	20346.23
441.054	20757.87
441.261	22189.4
441.467	21812.57
441.674	22347.09
441.881	23065.93
442.088	23022.92
442.294	22768.98
442.501	23371.08
442.708	23672.13
442.914	25017.64
443.121	25705.76
443.328	25204.01
443.534	27178.25
443.741	26197.27
443.948	25885.98
444.154	27610.37
444.361	27667.72
444.568	27886.85
444.774	27534.6
444.981	28185.85
445.187	28425.46
445.394	30160.09
445.6	29504.74
445.807	32265.41
446.013	30844.12
446.22	31671.5
446.426	32883.89
446.633	33143.98
446.839	34116.77
447.046	32644.28
447.252	34903.19
447.459	34632.86
447.665	34471.07
447.871	36228.23
448.078	37637.23
448.284	35662.99
448.491	36701.31
448.697	38138.98
448.903	38575.2
449.11	38472.8
449.316	37956.71
449.522	39185.49
449.728	39857.23
449.935	40186.95
450.141	40524.86
450.347	41151.54
450.553	39883.85
450.76	40379.46
450.966	41462.83
451.172	41206.84
451.378	42427.43
451.584	41409.59
451.791	42474.53
451.997	42384.42
452.203	43222.04
452.409	43119.64
452.615	42593.31
452.821	41385.01
453.027	40725.57
453.233	42763.29
453.44	41299
453.646	41524.27
453.852	41985.07
454.058	42486.82
454.264	41077.82
454.47	41815.08
454.676	40840.25
454.882	42185.77
455.088	38667.36
455.294	39152.73
455.5	39955.53
455.705	40002.63
455.911	38558.81
456.117	37733.48
456.323	37710.96
456.529	35247.25
456.735	37293.17
456.941	36064.39
457.147	35292.3
457.352	34751.64
457.558	34008.23
457.764	34022.56
457.97	33373.36
458.176	32718.01
458.381	32914.61
458.587	31331.53
458.793	30629.08
458.999	29492.46
459.204	32001.22
459.41	30837.97
459.616	28810.48
459.821	28749.04
460.027	28722.42
460.233	28044.54
460.438	26563.86
460.644	26971.41
460.85	25709.86
461.055	25255.21
461.261	25593.12
461.466	23342.41
461.672	22400.34
461.878	24249.66
462.083	22682.96
462.289	22203.74
462.494	22248.79
462.7	21146.98
462.905	20555.12
463.111	21089.64
463.316	21099.88
463.522	20571.5
463.727	20690.29
463.932	20467.06
464.138	20417.91
464.343	20387.19
464.549	20071.8
464.754	20573.55
464.959	20434.29
465.165	20209.01
465.37	19117.45
465.575	18865.55
465.781	19369.35
465.986	19449.22
466.191	19211.65
466.397	18658.7
