Data from USB4F104151__63__14-30-11-104.txt Node

Date: Thu Mar 13 14:30:11 EDT 2025
User: louis
Spectrometer: USB4F10415
Trigger mode: 4
Integration Time (sec): 2.500000E-2
Scans to average: 1
Electric dark correction enabled: true
Nonlinearity correction enabled: false
Boxcar width: 0
XAxis mode: Wavelengths
Number of Pixels in Spectrum: 3648
>>>>>Begin Spectral Data<<<<<
178.204	-113.83
178.424	-113.83
178.644	-113.83
178.864	-109.74
179.084	-109.74
179.304	-11.43
179.524	-11.43
179.744	-40.11
179.964	66.39
180.184	4.95
180.404	-3.24
180.624	39.76
180.844	23.38
181.064	-19.63
181.283	-11.43
181.503	-50.35
181.723	13.14
181.943	-76.97
182.163	47.96
182.383	13.14
182.602	-7.34
182.822	84.82
183.042	4.95
183.262	54.1
183.482	-15.53
183.701	-42.15
183.921	-58.54
184.141	7
184.361	-1.19
184.58	74.58
184.8	45.91
185.02	-52.39
185.239	29.52
185.459	52.05
185.679	29.52
185.898	-1.19
186.118	86.87
186.338	4.95
186.557	29.52
186.777	-3.24
186.997	21.33
187.216	82.77
187.436	86.87
187.655	66.39
187.875	45.91
188.095	21.33
188.314	23.38
188.534	103.25
188.753	56.15
188.973	19.29
189.192	123.73
189.412	45.91
189.631	62.29
189.851	21.33
190.07	-21.67
190.29	-1.19
190.509	37.72
190.729	21.33
190.948	78.68
191.168	162.64
191.387	-3.24
191.607	7
191.826	62.29
192.045	-29.87
192.265	25.43
192.484	45.91
192.704	76.63
192.923	21.33
193.142	95.06
193.362	-38.06
193.581	13.14
193.8	45.91
194.02	21.33
194.239	78.68
194.458	-19.63
194.678	68.44
194.897	70.48
195.116	56.15
195.335	66.39
195.555	-11.43
195.774	-3.24
195.993	109.4
196.212	101.2
196.432	25.43
196.651	47.96
196.87	21.33
197.089	111.44
197.308	29.52
197.528	47.96
197.747	15.19
197.966	-13.48
198.185	58.2
198.404	101.2
198.623	21.33
198.842	25.43
199.062	72.53
199.281	97.11
199.5	9.05
199.719	56.15
199.938	33.62
200.157	11.09
200.376	68.44
200.595	21.33
200.814	-5.29
201.033	39.76
201.252	-5.29
201.471	13.14
201.69	56.15
201.909	25.43
202.128	29.52
202.347	4.95
202.566	80.72
202.785	-19.63
203.004	29.52
203.223	121.68
203.442	31.57
203.661	4.95
203.879	95.06
204.098	62.29
204.317	21.33
204.536	86.87
204.755	60.24
204.974	62.29
205.193	4.95
205.411	76.63
205.63	70.48
205.849	-9.39
206.068	27.48
206.287	-27.82
206.505	127.83
206.724	21.33
206.943	43.86
207.162	47.96
207.381	-38.06
207.599	29.52
207.818	-1.19
208.037	-38.06
208.255	0.85
208.474	54.1
208.693	66.39
208.911	43.86
209.13	37.72
209.349	86.87
209.567	11.09
209.786	107.35
210.005	82.77
210.223	54.1
210.442	17.24
210.661	-11.43
210.879	64.34
211.098	47.96
211.316	-19.63
211.535	72.53
211.753	90.96
211.972	37.72
212.191	25.43
212.409	21.33
212.628	25.43
212.846	-1.19
213.065	86.87
213.283	37.72
213.502	9.05
213.72	-19.63
213.938	-33.96
214.157	25.43
214.375	23.38
214.594	19.29
214.812	-11.43
215.031	78.68
215.249	-23.72
215.467	39.76
215.686	-21.67
215.904	-17.58
216.122	25.43
216.341	66.39
216.559	68.44
216.778	142.16
216.996	17.24
217.214	-19.63
217.432	127.83
217.651	-44.2
217.869	33.62
218.087	62.29
218.306	-19.63
218.524	103.25
218.742	-3.24
218.96	7
219.179	-36.01
219.397	60.24
219.615	60.24
219.833	93.01
220.051	58.2
220.27	39.76
220.488	72.53
220.706	37.72
220.924	37.72
221.142	99.16
221.36	37.72
221.578	37.72
221.796	4.95
222.015	68.44
222.233	56.15
222.451	56.15
222.669	-7.34
222.887	15.19
223.105	54.1
223.323	86.87
223.541	-29.87
223.759	99.16
223.977	50
224.195	29.52
224.413	152.4
224.631	41.81
224.849	56.15
225.067	76.63
225.285	80.72
225.503	47.96
225.721	-3.24
225.939	86.87
226.157	113.49
226.375	138.07
226.592	23.38
226.81	113.49
227.028	78.68
227.246	95.06
227.464	-19.63
227.682	37.72
227.9	56.15
228.117	78.68
228.335	37.72
228.553	74.58
228.771	21.33
228.989	74.58
229.206	80.72
229.424	76.63
229.642	-1.19
229.86	-19.63
230.077	15.19
230.295	-1.19
230.513	2.9
230.731	37.72
230.948	103.25
231.166	64.34
231.384	-42.15
231.601	50
231.819	168.79
232.037	70.48
232.254	13.14
232.472	-7.34
232.689	-9.39
232.907	54.1
233.125	4.95
233.342	0.85
233.56	127.83
233.777	-23.72
233.995	62.29
234.213	64.34
234.43	33.62
234.648	72.53
234.865	-23.72
235.083	39.76
235.3	17.24
235.518	-42.15
235.735	82.77
235.953	54.1
236.17	50
236.388	17.24
236.605	0.85
236.822	84.82
237.04	131.92
237.257	29.52
237.475	13.14
237.692	41.81
237.909	45.91
238.127	-31.91
238.344	-64.68
238.562	62.29
238.779	-9.39
238.996	4.95
239.214	129.88
239.431	15.19
239.648	56.15
239.865	43.86
240.083	7
240.3	29.52
240.517	80.72
240.735	72.53
240.952	21.33
241.169	107.35
241.386	31.57
241.603	29.52
241.821	0.85
242.038	99.16
242.255	138.07
242.472	9.05
242.689	33.62
242.907	13.14
243.124	74.58
243.341	21.33
243.558	2.9
243.775	-27.82
243.992	-66.73
244.209	37.72
244.426	156.5
244.643	56.15
244.86	-36.01
245.078	54.1
245.295	47.96
245.512	101.2
245.729	-15.53
245.946	47.96
246.163	-17.58
246.38	-11.43
246.597	25.43
246.814	29.52
247.031	54.1
247.248	78.68
247.464	-58.54
247.681	11.09
247.898	107.35
248.115	119.64
248.332	-19.63
248.549	74.58
248.766	121.68
248.983	121.68
249.2	-9.39
249.417	105.3
249.633	19.29
249.85	0.85
250.067	-50.35
250.284	62.29
250.501	-15.53
250.717	50
250.934	-3.24
251.151	-72.87
251.368	-3.24
251.585	-9.39
251.801	29.52
252.018	4.95
252.235	-21.67
252.451	45.91
252.668	-1.19
252.885	25.43
253.102	54.1
253.318	37.72
253.535	68.44
253.752	62.29
253.968	39.76
254.185	-44.2
254.401	54.1
254.618	62.29
254.835	-50.35
255.051	45.91
255.268	31.57
255.484	33.62
255.701	0.85
255.917	113.49
256.134	-52.39
256.351	2.9
256.567	-11.43
256.784	-19.63
257	4.95
257.217	58.2
257.433	39.76
257.65	74.58
257.866	35.67
258.082	47.96
258.299	70.48
258.515	-31.91
258.732	21.33
258.948	15.19
259.165	41.81
259.381	11.09
259.597	56.15
259.814	29.52
260.03	41.81
260.246	29.52
260.463	64.34
260.679	29.52
260.895	76.63
261.112	90.96
261.328	15.19
261.544	29.52
261.761	43.86
261.977	-11.43
262.193	31.57
262.409	115.54
262.626	58.2
262.842	-31.91
263.058	54.1
263.274	45.91
263.49	-21.67
263.707	41.81
263.923	37.72
264.139	15.19
264.355	82.77
264.571	80.72
264.787	119.64
265.004	29.52
265.22	-17.58
265.436	54.1
265.652	25.43
265.868	60.24
266.084	9.05
266.3	54.1
266.516	-42.15
266.732	54.1
266.948	-56.49
267.164	64.34
267.38	58.2
267.596	80.72
267.812	52.05
268.028	-23.72
268.244	7
268.46	86.87
268.676	25.43
268.892	27.48
269.108	0.85
269.324	17.24
269.54	41.81
269.756	0.85
269.972	-7.34
270.188	25.43
270.403	4.95
270.619	70.48
270.835	37.72
271.051	-68.78
271.267	50
271.483	29.52
271.698	33.62
271.914	70.48
272.13	35.67
272.346	-11.43
272.562	37.72
272.777	101.2
272.993	-3.24
273.209	-60.59
273.425	78.68
273.64	13.14
273.856	125.78
274.072	-3.24
274.287	-27.82
274.503	90.96
274.719	82.77
274.934	78.68
275.15	-3.24
275.366	43.86
275.581	-23.72
275.797	84.82
276.012	15.19
276.228	41.81
276.444	62.29
276.659	43.86
276.875	-11.43
277.09	-7.34
277.306	-11.43
277.521	144.21
277.737	17.24
277.952	39.76
278.168	-17.58
278.383	80.72
278.599	50
278.814	29.52
279.03	70.48
279.245	78.68
279.461	47.96
279.676	11.09
279.892	21.33
280.107	-17.58
280.322	62.29
280.538	47.96
280.753	86.87
280.969	62.29
281.184	52.05
281.399	9.05
281.615	35.67
281.83	95.06
282.045	0.85
282.26	82.77
282.476	62.29
282.691	66.39
282.906	115.54
283.122	21.33
283.337	25.43
283.552	4.95
283.767	58.2
283.983	70.48
284.198	27.48
284.413	86.87
284.628	-17.58
284.843	62.29
285.058	103.25
285.274	82.77
285.489	72.53
285.704	62.29
285.919	19.29
286.134	64.34
286.349	29.52
286.564	-48.3
286.779	90.96
286.995	62.29
287.21	-19.63
287.425	25.43
287.64	66.39
287.855	54.1
288.07	39.76
288.285	80.72
288.5	21.33
288.715	41.81
288.93	7
289.145	45.91
289.36	86.87
289.575	13.14
289.79	66.39
290.004	0.85
290.219	84.82
290.434	62.29
290.649	13.14
290.864	-25.77
291.079	31.57
291.294	21.33
291.509	111.44
291.724	25.43
291.938	-3.24
292.153	37.72
292.368	9.05
292.583	64.34
292.798	56.15
293.012	76.63
293.227	103.25
293.442	54.1
293.657	105.3
293.871	13.14
294.086	13.14
294.301	58.2
294.516	97.11
294.73	82.77
294.945	64.34
295.16	31.57
295.374	50
295.589	56.15
295.804	17.24
296.018	25.43
296.233	54.1
296.447	25.43
296.662	29.52
296.877	60.24
297.091	82.77
297.306	93.01
297.52	-27.82
297.735	66.39
297.949	50
298.164	31.57
298.378	37.72
298.593	50
298.807	-52.39
299.022	56.15
299.236	70.48
299.451	45.91
299.665	70.48
299.88	23.38
300.094	7
300.309	64.34
300.523	68.44
300.737	-15.53
300.952	19.29
301.166	45.91
301.381	4.95
301.595	9.05
301.809	41.81
302.024	54.1
302.238	25.43
302.452	109.4
302.667	123.73
302.881	95.06
303.095	97.11
303.309	82.77
303.524	15.19
303.738	-3.24
303.952	4.95
304.166	56.15
304.381	-19.63
304.595	68.44
304.809	9.05
305.023	78.68
305.237	82.77
305.452	39.76
305.666	-17.58
305.88	97.11
306.094	66.39
306.308	86.87
306.522	88.92
306.736	15.19
306.95	45.91
307.164	-17.58
307.379	31.57
307.593	58.2
307.807	78.68
308.021	56.15
308.235	107.35
308.449	2.9
308.663	9.05
308.877	107.35
309.091	80.72
309.305	111.44
309.519	-36.01
309.733	11.09
309.947	-66.73
310.161	-15.53
310.374	45.91
310.588	80.72
310.802	19.29
311.016	-17.58
311.23	37.72
311.444	-44.2
311.658	62.29
311.872	78.68
312.085	56.15
312.299	78.68
312.513	54.1
312.727	52.05
312.941	25.43
313.154	19.29
313.368	27.48
313.582	4.95
313.796	23.38
314.009	82.77
314.223	90.96
314.437	41.81
314.651	86.87
314.864	23.38
315.078	33.62
315.292	23.38
315.505	-9.39
315.719	60.24
315.933	76.63
316.146	15.19
316.36	21.33
316.573	37.72
316.787	43.86
317.001	21.33
317.214	50
317.428	37.72
317.641	-64.68
317.855	-1.19
318.068	-27.82
318.282	-7.34
318.495	105.3
318.709	62.29
318.922	-60.59
319.136	45.91
319.349	74.58
319.563	29.52
319.776	7
319.99	21.33
320.203	13.14
320.417	-19.63
320.63	54.1
320.843	45.91
321.057	27.48
321.27	-15.53
321.483	23.38
321.697	45.91
321.91	-3.24
322.124	78.68
322.337	66.39
322.55	50
322.763	37.72
322.977	-11.43
323.19	-7.34
323.403	29.52
323.617	66.39
323.83	90.96
324.043	4.95
324.256	39.76
324.469	-9.39
324.683	2.9
324.896	-11.43
325.109	58.2
325.322	64.34
325.535	152.4
325.748	21.33
325.962	64.34
326.175	35.67
326.388	41.81
326.601	109.4
326.814	-23.72
327.027	-64.68
327.24	52.05
327.453	-17.58
327.666	47.96
327.879	47.96
328.092	11.09
328.305	103.25
328.518	15.19
328.731	70.48
328.944	56.15
329.157	127.83
329.37	-38.06
329.583	84.82
329.796	144.21
330.009	29.52
330.222	54.1
330.435	86.87
330.648	-19.63
330.861	80.72
331.073	72.53
331.286	74.58
331.499	97.11
331.712	25.43
331.925	15.19
332.138	109.4
332.35	146.26
332.563	21.33
332.776	64.34
332.989	62.29
333.202	-1.19
333.414	29.52
333.627	62.29
333.84	-25.77
334.053	76.63
334.265	19.29
334.478	4.95
334.691	-19.63
334.903	90.96
335.116	-52.39
335.329	54.1
335.541	37.72
335.754	66.39
335.966	45.91
336.179	13.14
336.392	-68.78
336.604	39.76
336.817	21.33
337.029	7
337.242	86.87
337.454	107.35
337.667	99.16
337.88	74.58
338.092	72.53
338.305	127.83
338.517	121.68
338.729	37.72
338.942	119.64
339.154	29.52
339.367	2.9
339.579	72.53
339.792	23.38
340.004	80.72
340.217	-11.43
340.429	80.72
340.641	103.25
340.854	37.72
341.066	4.95
341.278	123.73
341.491	125.78
341.703	72.53
341.915	13.14
342.128	138.07
342.34	4.95
342.552	25.43
342.764	4.95
342.977	86.87
343.189	37.72
343.401	64.34
343.613	17.24
343.826	115.54
344.038	-58.54
344.25	25.43
344.462	-17.58
344.674	37.72
344.886	70.48
345.099	86.87
345.311	31.57
345.523	111.44
345.735	-7.34
345.947	101.2
346.159	54.1
346.371	84.82
346.583	23.38
346.795	70.48
347.007	17.24
347.219	21.33
347.431	21.33
347.643	47.96
347.855	17.24
348.067	78.68
348.279	0.85
348.491	90.96
348.703	37.72
348.915	97.11
349.127	29.52
349.339	93.01
349.551	58.2
349.763	56.15
349.975	72.53
350.187	99.16
350.399	29.52
350.61	74.58
350.822	29.52
351.034	117.59
351.246	-11.43
351.458	93.01
351.669	54.1
351.881	88.92
352.093	76.63
352.305	113.49
352.517	2.9
352.728	58.2
352.94	45.91
353.152	45.91
353.363	47.96
353.575	84.82
353.787	39.76
353.999	80.72
354.21	129.88
354.422	-9.39
354.633	9.05
354.845	-7.34
355.057	37.72
355.268	86.87
355.48	115.54
355.692	-17.58
355.903	103.25
356.115	37.72
356.326	45.91
356.538	113.49
356.749	144.21
356.961	9.05
357.172	7
357.384	66.39
357.595	56.15
357.807	15.19
358.018	13.14
358.23	72.53
358.441	58.2
358.653	111.44
358.864	80.72
359.075	29.52
359.287	58.2
359.498	162.64
359.709	-27.82
359.921	68.44
360.132	70.48
360.344	50
360.555	103.25
360.766	11.09
360.977	9.05
361.189	58.2
361.4	54.1
361.611	33.62
361.823	78.68
362.034	0.85
362.245	-3.24
362.456	95.06
362.667	82.77
362.879	45.91
363.09	54.1
363.301	111.44
363.512	64.34
363.723	23.38
363.935	39.76
364.146	154.45
364.357	35.67
364.568	127.83
364.779	99.16
364.99	115.54
365.201	70.48
365.412	56.15
365.623	39.76
365.834	111.44
366.045	86.87
366.256	-7.34
366.467	-11.43
366.678	47.96
366.889	168.79
367.1	64.34
367.311	88.92
367.522	-36.01
367.733	80.72
367.944	2.9
368.155	64.34
368.366	82.77
368.577	68.44
368.788	111.44
368.999	31.57
369.209	-11.43
369.42	107.35
369.631	29.52
369.842	-1.19
370.053	-3.24
370.264	33.62
370.474	109.4
370.685	66.39
370.896	33.62
371.107	111.44
371.317	111.44
371.528	47.96
371.739	23.38
371.95	70.48
372.16	50
372.371	-17.58
372.582	19.29
372.792	-17.58
373.003	88.92
373.214	2.9
373.424	47.96
373.635	-23.72
373.846	111.44
374.056	138.07
374.267	62.29
374.477	50
374.688	-15.53
374.898	54.1
375.109	9.05
375.319	103.25
375.53	111.44
375.74	-7.34
375.951	64.34
376.161	95.06
376.372	88.92
376.582	2.9
376.793	160.59
377.003	15.19
377.214	-85.16
377.424	80.72
377.635	54.1
377.845	80.72
378.055	15.19
378.266	33.62
378.476	-11.43
378.686	68.44
378.897	74.58
379.107	70.48
379.317	72.53
379.528	62.29
379.738	45.91
379.948	90.96
380.158	68.44
380.369	99.16
380.579	103.25
380.789	47.96
380.999	90.96
381.21	131.92
381.42	105.3
381.63	58.2
381.84	123.73
382.05	33.62
382.261	123.73
382.471	29.52
382.681	66.39
382.891	97.11
383.101	84.82
383.311	58.2
383.521	58.2
383.731	47.96
383.941	127.83
384.151	-13.48
384.361	78.68
384.571	31.57
384.781	99.16
384.991	131.92
385.201	31.57
385.411	121.68
385.621	21.33
385.831	45.91
386.041	111.44
386.251	64.34
386.461	29.52
386.671	86.87
386.881	86.87
387.091	74.58
387.301	111.44
387.511	43.86
387.72	138.07
387.93	86.87
388.14	50
388.35	62.29
388.56	127.83
388.769	103.25
388.979	127.83
389.189	56.15
389.399	23.38
389.609	103.25
389.818	160.59
390.028	103.25
390.238	70.48
390.447	2.9
390.657	121.68
390.867	47.96
391.076	-7.34
391.286	54.1
391.496	90.96
391.705	-3.24
391.915	70.48
392.125	148.31
392.334	90.96
392.544	142.16
392.753	56.15
392.963	-11.43
393.172	84.82
393.382	68.44
393.591	166.74
393.801	25.43
394.01	179.03
394.22	129.88
394.429	56.15
394.639	127.83
394.848	64.34
395.058	29.52
395.267	160.59
395.477	41.81
395.686	121.68
395.895	142.16
396.105	119.64
396.314	70.48
396.524	152.4
396.733	172.88
396.942	164.69
397.152	99.16
397.361	152.4
397.57	115.54
397.78	127.83
397.989	103.25
398.198	238.42
398.407	176.98
398.617	187.22
398.826	88.92
399.035	148.31
399.244	103.25
399.453	39.76
399.663	201.55
399.872	76.63
400.081	95.06
400.29	121.68
400.499	121.68
400.708	152.4
400.917	66.39
401.127	121.68
401.336	99.16
401.545	195.41
401.754	156.5
401.963	88.92
402.172	119.64
402.381	156.5
402.59	119.64
402.799	201.55
403.008	195.41
403.217	179.03
403.426	203.6
403.635	166.74
403.844	54.1
404.053	219.99
404.262	187.22
404.471	250.71
404.68	181.07
404.888	156.5
405.097	125.78
405.306	144.21
405.515	201.55
405.724	179.03
405.933	250.71
406.142	185.17
406.35	228.18
406.559	197.46
406.768	267.09
406.977	234.32
407.185	258.9
407.394	193.36
407.603	185.17
407.812	283.47
408.02	205.65
408.229	244.56
408.438	277.33
408.646	185.17
408.855	250.71
409.064	328.53
409.272	267.09
409.481	320.34
409.69	375.63
409.898	361.3
410.107	301.9
410.315	342.86
410.524	398.16
410.733	451.41
410.941	439.12
411.15	367.44
411.358	504.65
411.567	514.89
411.775	531.28
411.984	521.04
412.192	357.2
412.401	504.65
412.609	639.82
412.818	643.92
413.026	590.67
413.234	611.15
413.443	660.3
413.651	684.87
413.86	721.74
414.068	713.55
414.276	676.68
414.485	695.11
414.693	805.71
414.901	875.34
415.11	828.23
415.318	799.56
415.526	834.38
415.734	865.1
415.943	922.44
416.151	1028.93
416.359	998.21
416.567	983.88
416.776	1102.66
416.984	1141.57
417.192	1229.63
417.4	1221.44
417.608	1151.81
417.817	1225.54
418.025	1323.84
418.233	1381.18
418.441	1424.19
418.649	1438.53
418.857	1549.12
419.065	1667.9
419.273	1618.75
419.481	1753.91
419.689	1733.43
419.897	1786.68
420.105	1852.22
420.313	1983.29
420.521	1917.75
420.729	1956.66
420.937	2102.07
421.145	2083.64
421.353	2331.44
421.561	2415.41
421.769	2347.83
421.977	2491.18
422.185	2448.18
422.393	2577.2
422.601	2732.84
422.809	2786.09
423.017	2738.99
423.224	2816.81
423.432	3068.71
423.64	3076.9
423.848	3287.84
424.056	3271.46
424.263	3533.6
424.471	3363.62
424.679	3556.13
424.887	3853.08
425.094	3816.22
425.302	3857.18
425.51	3957.53
425.718	4088.6
425.925	4076.31
426.133	4137.75
426.341	4510.48
426.548	4651.79
426.756	4707.09
426.964	4846.35
427.171	4979.47
427.379	5161.73
427.586	5292.8
427.794	5399.3
428.001	5755.65
428.209	5978.87
428.417	5841.66
428.624	6181.62
428.832	6159.1
429.039	6099.7
429.247	6062.84
429.454	6710
429.662	7131.88
429.869	6939.37
430.076	7369.44
430.284	6961.9
430.491	7394.02
430.699	7748.32
430.906	7785.18
431.114	8067.8
431.321	8131.29
431.528	8254.17
431.736	8979.15
431.943	9099.98
432.15	9077.45
432.358	9095.88
432.565	9437.89
432.772	9648.83
432.979	10134.2
433.187	10091.2
433.394	10060.48
433.601	10853.04
433.808	10805.94
434.016	10879.66
434.223	11246.25
434.43	11932.32
434.637	11758.24
434.844	12448.41
435.052	12505.75
435.259	12468.89
435.466	12876.43
435.673	12755.6
435.88	13234.83
436.087	13888.13
436.294	14189.18
436.501	13890.18
436.708	14029.44
436.915	14553.72
437.122	15196.78
437.329	15139.44
437.537	15465.07
437.743	15768.16
437.95	15639.14
438.157	16290.4
438.364	16886.36
438.571	16931.41
438.778	16980.56
438.985	19108.4
439.192	18029.12
439.399	18471.48
439.606	17889.86
439.813	19024.44
440.02	20128.29
440.227	19628.59
440.433	19778.09
440.64	20273.7
440.847	19972.64
441.054	20488.73
441.261	22002.18
441.467	21783.05
441.674	22499.84
441.881	22905.34
442.088	23126.52
442.294	22782.46
442.501	23103.99
442.708	23474.67
442.914	24842.71
443.121	25528.78
443.328	24902.11
443.534	26483.14
443.741	26034.63
443.948	25565.65
444.154	27511.22
444.361	27077.05
444.568	27550.13
444.774	27726.25
444.981	27619.76
445.187	28606.88
445.394	29659.54
445.6	29206.94
445.807	32110.96
446.013	31009.15
446.22	31437.17
446.426	32532.84
446.633	32749.92
446.839	33978.7
447.046	32717.15
447.252	34472.26
447.459	34384.2
447.665	34208.08
447.871	35678.52
448.078	37073.18
448.284	35248.44
448.491	36419.88
448.697	37798.16
448.903	38349.07
449.11	38480.14
449.316	37835.03
449.522	38717.7
449.728	39788.79
449.935	40077.55
450.141	39897.33
450.347	40773.86
450.553	39561.47
450.76	39977.2
450.966	41177.31
451.172	40737
451.378	41631.96
451.584	41060.58
451.791	42305.74
451.997	42125.52
452.203	42754.25
452.409	42428.62
452.615	42426.57
452.821	41044.2
453.027	40245.49
453.233	42883.27
453.44	40904.93
453.646	41894.1
453.852	41369.82
454.058	42045.65
454.264	40429.8
454.47	41492.7
454.676	40548.59
454.882	42184.91
455.088	38570.25
455.294	39059.71
455.5	39520.51
455.705	39782.65
455.911	38125.84
456.117	37562.65
456.323	37157.15
456.529	35072.32
456.735	36856.1
456.941	35719.48
457.147	35334.46
457.352	34287.95
457.558	34009.42
457.764	33618.26
457.97	32995.68
458.176	32446.82
458.381	32412.01
458.587	30859.65
458.793	30935.42
458.999	29073.82
459.204	31213.95
459.41	30628.23
459.616	28387.75
459.821	28529.06
460.027	28264.87
460.233	28221.86
460.438	26565.06
460.644	26616.26
460.85	25446.87
461.055	25201.11
461.261	24922.59
461.466	22927.86
461.672	22344.19
461.878	24025.57
462.083	22469.12
462.289	22045.19
462.494	21707.27
462.7	20931.09
462.905	19997.22
463.111	20556.32
463.316	20656.67
463.522	20185.63
463.727	20439.58
463.932	20427.29
464.138	20404.77
464.343	20111.91
464.549	19808.81
464.754	20306.46
464.959	20060.71
465.165	19821.09
465.37	19155.51
465.575	18762.3
465.781	19601.96
465.986	19386.93
466.191	18541.11
466.397	18281.02
466.602	17418.83
466.807	18051.65
467.012	17941.06
467.218	17945.16
467.423	17738.31
