Data from USB4F104151__117__14-31-13-761.txt Node

Date: Thu Mar 13 14:31:13 EDT 2025
User: louis
Spectrometer: USB4F10415
Trigger mode: 4
Integration Time (sec): 2.500000E-2
Scans to average: 1
Electric dark correction enabled: true
Nonlinearity correction enabled: false
Boxcar width: 0
XAxis mode: Wavelengths
Number of Pixels in Spectrum: 3648
>>>>>Begin Spectral Data<<<<<
178.204	-122.02
178.424	-122.02
178.644	-122.02
178.864	-187.56
179.084	-119.98
179.304	-1.19
179.524	19.29
179.744	9.05
179.964	-5.29
180.184	-62.63
180.404	25.43
180.624	43.86
180.844	25.43
181.064	-42.15
181.283	7
181.503	-68.78
181.723	50
181.943	-42.15
182.163	80.72
182.383	23.38
182.602	76.63
182.822	29.52
183.042	-50.35
183.262	-17.58
183.482	50
183.701	-19.63
183.921	39.76
184.141	-33.96
184.361	72.53
184.58	23.38
184.8	11.09
185.02	-64.68
185.239	109.4
185.459	31.57
185.679	70.48
185.898	-15.53
186.118	80.72
186.338	58.2
186.557	113.49
186.777	47.96
186.997	45.91
187.216	68.44
187.436	93.01
187.655	113.49
187.875	82.77
188.095	19.29
188.314	93.01
188.534	109.4
188.753	-48.3
188.973	39.76
189.192	68.44
189.412	9.05
189.631	-1.19
189.851	39.76
190.07	31.57
190.29	-42.15
190.509	15.19
190.729	-17.58
190.948	111.44
191.168	164.69
191.387	-7.34
191.607	-1.19
191.826	-50.35
192.045	41.81
192.265	64.34
192.484	11.09
192.704	64.34
192.923	19.29
193.142	127.83
193.362	90.96
193.581	66.39
193.8	99.16
194.02	47.96
194.239	-50.35
194.458	90.96
194.678	97.11
194.897	23.38
195.116	80.72
195.335	2.9
195.555	64.34
195.774	-1.19
195.993	101.2
196.212	72.53
196.432	-38.06
196.651	31.57
196.87	2.9
197.089	121.68
197.308	39.76
197.528	93.01
197.747	-15.53
197.966	33.62
198.185	72.53
198.404	-15.53
198.623	7
198.842	56.15
199.062	93.01
199.281	131.92
199.5	0.85
199.719	64.34
199.938	56.15
200.157	101.2
200.376	17.24
200.595	129.88
200.814	72.53
201.033	37.72
201.252	80.72
201.471	60.24
201.69	37.72
201.909	29.52
202.128	47.96
202.347	99.16
202.566	-17.58
202.785	-31.91
203.004	35.67
203.223	174.93
203.442	31.57
203.661	-38.06
203.879	86.87
204.098	47.96
204.317	72.53
204.536	21.33
204.755	23.38
204.974	66.39
205.193	105.3
205.411	84.82
205.63	80.72
205.849	-23.72
206.068	31.57
206.287	37.72
206.505	64.34
206.724	39.76
206.943	27.48
207.162	95.06
207.381	25.43
207.599	-46.25
207.818	19.29
208.037	7
208.255	-36.01
208.474	15.19
208.693	107.35
208.911	-9.39
209.13	72.53
209.349	-9.39
209.567	0.85
209.786	80.72
210.005	-56.49
210.223	125.78
210.442	21.33
210.661	-5.29
210.879	35.67
211.098	17.24
211.316	88.92
211.535	2.9
211.753	-9.39
211.972	43.86
212.191	86.87
212.409	-5.29
212.628	88.92
212.846	88.92
213.065	-11.43
213.283	80.72
213.502	90.96
213.72	-1.19
213.938	50
214.157	23.38
214.375	45.91
214.594	-25.77
214.812	86.87
215.031	33.62
215.249	39.76
215.467	72.53
215.686	31.57
215.904	125.78
216.122	93.01
216.341	80.72
216.559	27.48
216.778	105.3
216.996	41.81
217.214	56.15
217.432	31.57
217.651	-1.19
217.869	-46.25
218.087	39.76
218.306	74.58
218.524	54.1
218.742	35.67
218.96	162.64
219.179	-7.34
219.397	-9.39
219.615	64.34
219.833	68.44
220.051	25.43
220.27	99.16
220.488	117.59
220.706	39.76
220.924	17.24
221.142	-15.53
221.36	-3.24
221.578	21.33
221.796	-5.29
222.015	70.48
222.233	72.53
222.451	64.34
222.669	64.34
222.887	-36.01
223.105	-11.43
223.323	-33.96
223.541	23.38
223.759	52.05
223.977	41.81
224.195	72.53
224.413	11.09
224.631	39.76
224.849	-3.24
225.067	119.64
225.285	2.9
225.503	52.05
225.721	-21.67
225.939	33.62
226.157	-44.2
226.375	162.64
226.592	29.52
226.81	62.29
227.028	58.2
227.246	39.76
227.464	76.63
227.682	23.38
227.9	15.19
228.117	84.82
228.335	41.81
228.553	76.63
228.771	56.15
228.989	0.85
229.206	23.38
229.424	56.15
229.642	43.86
229.86	-9.39
230.077	56.15
230.295	107.35
230.513	74.58
230.731	90.96
230.948	99.16
231.166	60.24
231.384	52.05
231.601	33.62
231.819	129.88
232.037	-9.39
232.254	-9.39
232.472	88.92
232.689	60.24
232.907	88.92
233.125	72.53
233.342	97.11
233.56	-109.74
233.777	33.62
233.995	11.09
234.213	31.57
234.43	64.34
234.648	76.63
234.865	9.05
235.083	64.34
235.3	15.19
235.518	27.48
235.735	68.44
235.953	7
236.17	-31.91
236.388	99.16
236.605	60.24
236.822	43.86
237.04	109.4
237.257	64.34
237.475	7
237.692	84.82
237.909	58.2
238.127	86.87
238.344	62.29
238.562	11.09
238.779	-13.48
238.996	-17.58
239.214	27.48
239.431	39.76
239.648	84.82
239.865	121.68
240.083	-5.29
240.3	7
240.517	82.77
240.735	43.86
240.952	0.85
241.169	-13.48
241.386	17.24
241.603	-21.67
241.821	47.96
242.038	56.15
242.255	7
242.472	43.86
242.689	56.15
242.907	64.34
243.124	-23.72
243.341	62.29
243.558	-5.29
243.775	-99.5
243.992	-54.44
244.209	97.11
244.426	84.82
244.643	15.19
244.86	-17.58
245.078	52.05
245.295	29.52
245.512	90.96
245.729	-74.92
245.946	72.53
246.163	41.81
246.38	58.2
246.597	78.68
246.814	54.1
247.031	88.92
247.248	58.2
247.464	115.54
247.681	31.57
247.898	15.19
248.115	54.1
248.332	9.05
248.549	86.87
248.766	101.2
248.983	17.24
249.2	80.72
249.417	68.44
249.633	82.77
249.85	37.72
250.067	64.34
250.284	-7.34
250.501	15.19
250.717	90.96
250.934	17.24
251.151	-7.34
251.368	31.57
251.585	21.33
251.801	58.2
252.018	-25.77
252.235	56.15
252.451	-19.63
252.668	-17.58
252.885	64.34
253.102	23.38
253.318	41.81
253.535	-13.48
253.752	7
253.968	15.19
254.185	37.72
254.401	0.85
254.618	93.01
254.835	23.38
255.051	43.86
255.268	56.15
255.484	68.44
255.701	37.72
255.917	31.57
256.134	-13.48
256.351	7
256.567	-1.19
256.784	7
257	64.34
257.217	-9.39
257.433	54.1
257.65	47.96
257.866	66.39
258.082	23.38
258.299	62.29
258.515	-9.39
258.732	2.9
258.948	50
259.165	2.9
259.381	-21.67
259.597	121.68
259.814	19.29
260.03	50
260.246	23.38
260.463	115.54
260.679	68.44
260.895	25.43
261.112	47.96
261.328	27.48
261.544	9.05
261.761	195.41
261.977	105.3
262.193	27.48
262.409	37.72
262.626	60.24
262.842	68.44
263.058	31.57
263.274	64.34
263.49	25.43
263.707	90.96
263.923	76.63
264.139	-1.19
264.355	31.57
264.571	113.49
264.787	66.39
265.004	54.1
265.22	64.34
265.436	-9.39
265.652	72.53
265.868	64.34
266.084	-31.91
266.3	15.19
266.516	-79.02
266.732	27.48
266.948	-38.06
267.164	39.76
267.38	23.38
267.596	43.86
267.812	82.77
268.028	52.05
268.244	41.81
268.46	129.88
268.676	21.33
268.892	138.07
269.108	-29.87
269.324	19.29
269.54	43.86
269.756	33.62
269.972	39.76
270.188	125.78
270.403	27.48
270.619	117.59
270.835	56.15
271.051	-13.48
271.267	-11.43
271.483	-21.67
271.698	17.24
271.914	-83.11
272.13	80.72
272.346	97.11
272.562	-1.19
272.777	90.96
272.993	-7.34
273.209	88.92
273.425	160.59
273.64	-29.87
273.856	66.39
274.072	47.96
274.287	84.82
274.503	54.1
274.719	74.58
274.934	-17.58
275.15	-9.39
275.366	31.57
275.581	25.43
275.797	39.76
276.012	76.63
276.228	64.34
276.444	56.15
276.659	68.44
276.875	-46.25
277.09	90.96
277.306	47.96
277.521	82.77
277.737	47.96
277.952	0.85
278.168	52.05
278.383	101.2
278.599	31.57
278.814	154.45
279.03	9.05
279.245	41.81
279.461	15.19
279.676	31.57
279.892	-42.15
280.107	31.57
280.322	23.38
280.538	9.05
280.753	7
280.969	31.57
281.184	27.48
281.399	7
281.615	19.29
281.83	60.24
282.045	23.38
282.26	56.15
282.476	66.39
282.691	76.63
282.906	80.72
283.122	78.68
283.337	-1.19
283.552	154.45
283.767	7
283.983	39.76
284.198	88.92
284.413	23.38
284.628	17.24
284.843	93.01
285.058	0.85
285.274	31.57
285.489	-56.49
285.704	72.53
285.919	-38.06
286.134	-1.19
286.349	97.11
286.564	52.05
286.779	152.4
286.995	-50.35
287.21	9.05
287.425	105.3
287.64	-1.19
287.855	45.91
288.07	-15.53
288.285	35.67
288.5	9.05
288.715	19.29
288.93	93.01
289.145	88.92
289.36	107.35
289.575	31.57
289.79	64.34
290.004	105.3
290.219	-7.34
290.434	-7.34
290.649	76.63
290.864	9.05
291.079	54.1
291.294	72.53
291.509	66.39
291.724	82.77
291.938	52.05
292.153	117.59
292.368	58.2
292.583	47.96
292.798	121.68
293.012	113.49
293.227	103.25
293.442	-15.53
293.657	76.63
293.871	60.24
294.086	33.62
294.301	97.11
294.516	27.48
294.73	115.54
294.945	-38.06
295.16	29.52
295.374	37.72
295.589	66.39
295.804	43.86
296.018	31.57
296.233	29.52
296.447	138.07
296.662	2.9
296.877	70.48
297.091	93.01
297.306	121.68
297.52	11.09
297.735	31.57
297.949	27.48
298.164	45.91
298.378	68.44
298.593	31.57
298.807	39.76
299.022	64.34
299.236	54.1
299.451	25.43
299.665	15.19
299.88	-9.39
300.094	23.38
300.309	80.72
300.523	72.53
300.737	35.67
300.952	68.44
301.166	25.43
301.381	11.09
301.595	-15.53
301.809	-33.96
302.024	15.19
302.238	27.48
302.452	121.68
302.667	15.19
302.881	64.34
303.095	64.34
303.309	52.05
303.524	45.91
303.738	27.48
303.952	-9.39
304.166	21.33
304.381	64.34
304.595	117.59
304.809	-23.72
305.023	105.3
305.237	39.76
305.452	64.34
305.666	72.53
305.88	123.73
306.094	19.29
306.308	52.05
306.522	45.91
306.736	-46.25
306.95	84.82
307.164	23.38
307.379	70.48
307.593	97.11
307.807	90.96
308.021	101.2
308.235	74.58
308.449	-83.11
308.663	-7.34
308.877	70.48
309.091	37.72
309.305	-13.48
309.519	-40.11
309.733	64.34
309.947	9.05
310.161	68.44
310.374	25.43
310.588	109.4
310.802	58.2
311.016	50
311.23	21.33
311.444	56.15
311.658	39.76
311.872	123.73
312.085	80.72
312.299	93.01
312.513	35.67
312.727	97.11
312.941	23.38
313.154	50
313.368	-7.34
313.582	103.25
313.796	-29.87
314.009	17.24
314.223	111.44
314.437	105.3
314.651	80.72
314.864	35.67
315.078	74.58
315.292	35.67
315.505	88.92
315.719	41.81
315.933	64.34
316.146	68.44
316.36	47.96
316.573	15.19
316.787	43.86
317.001	-25.77
317.214	35.67
317.428	27.48
317.641	9.05
317.855	52.05
318.068	66.39
318.282	72.53
318.495	109.4
318.709	125.78
318.922	90.96
319.136	88.92
319.349	27.48
319.563	84.82
319.776	39.76
319.99	-1.19
320.203	88.92
320.417	-3.24
320.63	43.86
320.843	97.11
321.057	0.85
321.27	82.77
321.483	72.53
321.697	68.44
321.91	39.76
322.124	97.11
322.337	58.2
322.55	66.39
322.763	7
322.977	27.48
323.19	31.57
323.403	47.96
323.617	52.05
323.83	88.92
324.043	13.14
324.256	19.29
324.469	15.19
324.683	115.54
324.896	107.35
325.109	131.92
325.322	19.29
325.535	23.38
325.748	129.88
325.962	47.96
326.175	17.24
326.388	23.38
326.601	60.24
326.814	35.67
327.027	62.29
327.24	74.58
327.453	-1.19
327.666	80.72
327.879	43.86
328.092	13.14
328.305	33.62
328.518	54.1
328.731	56.15
328.944	39.76
329.157	25.43
329.37	35.67
329.583	90.96
329.796	68.44
330.009	72.53
330.222	84.82
330.435	115.54
330.648	80.72
330.861	29.52
331.073	88.92
331.286	23.38
331.499	-13.48
331.712	0.85
331.925	111.44
332.138	88.92
332.35	47.96
332.563	-29.87
332.776	115.54
332.989	33.62
333.202	113.49
333.414	58.2
333.627	72.53
333.84	131.92
334.053	88.92
334.265	33.62
334.478	39.76
334.691	64.34
334.903	33.62
335.116	-29.87
335.329	17.24
335.541	60.24
335.754	107.35
335.966	-9.39
336.179	90.96
336.392	9.05
336.604	82.77
336.817	72.53
337.029	66.39
337.242	90.96
337.454	74.58
337.667	82.77
337.88	101.2
338.092	4.95
338.305	54.1
338.517	15.19
338.729	162.64
338.942	97.11
339.154	-9.39
339.367	-1.19
339.579	68.44
339.792	-25.77
340.004	138.07
340.217	23.38
340.429	138.07
340.641	-1.19
340.854	39.76
341.066	15.19
341.278	58.2
341.491	121.68
341.703	131.92
341.915	68.44
342.128	76.63
342.34	54.1
342.552	82.77
342.764	43.86
342.977	93.01
343.189	17.24
343.401	47.96
343.613	0.85
343.826	80.72
344.038	25.43
344.25	107.35
344.462	31.57
344.674	19.29
344.886	-19.63
345.099	64.34
345.311	76.63
345.523	60.24
345.735	-46.25
345.947	97.11
346.159	115.54
346.371	-25.77
346.583	-25.77
346.795	158.55
347.007	60.24
347.219	72.53
347.431	33.62
347.643	47.96
347.855	2.9
348.067	156.5
348.279	52.05
348.491	97.11
348.703	19.29
348.915	-36.01
349.127	88.92
349.339	72.53
349.551	27.48
349.763	33.62
349.975	97.11
350.187	39.76
350.399	56.15
350.61	72.53
350.822	93.01
351.034	70.48
351.246	72.53
351.458	72.53
351.669	43.86
351.881	113.49
352.093	99.16
352.305	80.72
352.517	127.83
352.728	131.92
352.94	105.3
353.152	56.15
353.363	13.14
353.575	74.58
353.787	150.36
353.999	80.72
354.21	101.2
354.422	66.39
354.633	64.34
354.845	105.3
355.057	109.4
355.268	25.43
355.48	72.53
355.692	-48.3
355.903	88.92
356.115	27.48
356.326	47.96
356.538	97.11
356.749	52.05
356.961	82.77
357.172	80.72
357.384	47.96
357.595	172.88
357.807	17.24
358.018	-50.35
358.23	47.96
358.441	93.01
358.653	64.34
358.864	47.96
359.075	80.72
359.287	56.15
359.498	183.12
359.709	11.09
359.921	41.81
360.132	66.39
360.344	78.68
360.555	56.15
360.766	64.34
360.977	-21.67
361.189	146.26
361.4	72.53
361.611	121.68
361.823	101.2
362.034	56.15
362.245	39.76
362.456	31.57
362.667	17.24
362.879	43.86
363.09	47.96
363.301	109.4
363.512	127.83
363.723	97.11
363.935	43.86
364.146	82.77
364.357	-7.34
364.568	84.82
364.779	68.44
364.99	113.49
365.201	101.2
365.412	72.53
365.623	50
365.834	99.16
366.045	60.24
366.256	111.44
366.467	43.86
366.678	72.53
366.889	17.24
367.1	56.15
367.311	138.07
367.522	-9.39
367.733	56.15
367.944	101.2
368.155	52.05
368.366	56.15
368.577	123.73
368.788	66.39
368.999	-19.63
369.209	56.15
369.42	72.53
369.631	166.74
369.842	35.67
370.053	17.24
370.264	95.06
370.474	80.72
370.685	99.16
370.896	-33.96
371.107	131.92
371.317	-9.39
371.528	95.06
371.739	64.34
371.95	52.05
372.16	150.36
372.371	31.57
372.582	154.45
372.792	115.54
373.003	25.43
373.214	90.96
373.424	131.92
373.635	-1.19
373.846	66.39
374.056	62.29
374.267	35.67
374.477	66.39
374.688	-3.24
374.898	0.85
375.109	80.72
375.319	17.24
375.53	72.53
375.74	97.11
375.951	84.82
376.161	35.67
376.372	86.87
376.582	64.34
376.793	66.39
377.003	19.29
377.214	39.76
377.424	64.34
377.635	15.19
377.845	23.38
378.055	146.26
378.266	2.9
378.476	107.35
378.686	66.39
378.897	50
379.107	142.16
379.317	109.4
379.528	39.76
379.738	86.87
379.948	15.19
380.158	64.34
380.369	88.92
380.579	-9.39
380.789	74.58
380.999	-33.96
381.21	117.59
381.42	195.41
381.63	-3.24
381.84	19.29
382.05	43.86
382.261	62.29
382.471	105.3
382.681	45.91
382.891	107.35
383.101	101.2
383.311	-42.15
383.521	74.58
383.731	90.96
383.941	97.11
384.151	52.05
384.361	105.3
384.571	162.64
384.781	144.21
384.991	97.11
385.201	88.92
385.411	174.93
385.621	47.96
385.831	50
386.041	146.26
386.251	82.77
386.461	133.97
386.671	56.15
386.881	105.3
387.091	68.44
387.301	97.11
387.511	109.4
387.72	105.3
387.93	154.45
388.14	66.39
388.35	97.11
388.56	115.54
388.769	72.53
388.979	111.44
389.189	58.2
389.399	80.72
389.609	152.4
389.818	84.82
390.028	82.77
390.238	127.83
390.447	64.34
390.657	146.26
390.867	47.96
391.076	82.77
391.286	52.05
391.496	97.11
391.705	88.92
391.915	123.73
392.125	121.68
392.334	31.57
392.544	142.16
392.753	33.62
392.963	41.81
393.172	148.31
393.382	33.62
393.591	78.68
393.801	58.2
394.01	170.83
394.22	146.26
394.429	56.15
394.639	170.83
394.848	86.87
395.058	68.44
395.267	105.3
395.477	168.79
395.686	113.49
395.895	195.41
396.105	240.47
396.314	129.88
396.524	195.41
396.733	64.34
396.942	152.4
397.152	113.49
397.361	84.82
397.57	138.07
397.78	56.15
397.989	166.74
398.198	172.88
398.407	101.2
398.617	113.49
398.826	187.22
399.035	152.4
399.244	172.88
399.453	123.73
399.663	88.92
399.872	82.77
400.081	199.51
400.29	236.37
400.499	68.44
400.708	170.83
400.917	127.83
401.127	146.26
401.336	183.12
401.545	195.41
401.754	234.32
401.963	179.03
402.172	228.18
402.381	164.69
402.59	199.51
402.799	138.07
403.008	191.31
403.217	246.61
403.426	209.75
403.635	113.49
403.844	179.03
404.053	150.36
404.262	146.26
404.471	164.69
404.68	191.31
404.888	181.07
405.097	179.03
405.306	277.33
405.515	213.84
405.724	205.65
405.933	260.95
406.142	228.18
406.35	267.09
406.559	230.23
406.768	260.95
406.977	289.62
407.185	316.24
407.394	256.85
407.603	252.75
407.812	267.09
408.02	285.52
408.229	355.15
408.438	271.19
408.646	281.43
408.855	318.29
409.064	277.33
409.272	367.44
409.481	408.4
409.69	400.21
409.898	410.45
410.107	246.61
410.315	465.74
410.524	447.31
410.733	424.78
410.941	453.45
411.15	490.32
411.358	549.71
411.567	539.47
411.775	531.28
411.984	607.05
412.192	611.15
412.401	658.25
412.609	650.06
412.818	621.39
413.026	811.85
413.234	736.07
413.443	736.07
413.651	709.45
413.86	682.83
414.068	877.38
414.276	846.66
414.485	744.27
414.693	981.83
414.901	969.54
415.11	940.87
415.318	957.25
415.526	1041.22
415.734	1088.32
415.943	1008.45
416.151	1073.99
416.359	1176.39
416.567	1235.78
416.776	1248.07
416.984	1280.83
417.192	1309.51
417.4	1332.03
417.608	1383.23
417.817	1456.96
418.025	1508.16
418.233	1637.18
418.441	1575.74
418.649	1682.24
418.857	1794.87
419.065	1792.83
419.273	1792.83
419.481	1917.75
419.689	1952.57
419.897	2134.84
420.105	2194.23
420.313	2229.04
420.521	2302.77
420.729	2251.57
420.937	2333.49
421.145	2450.22
421.353	2403.12
421.561	2601.77
421.769	2796.33
421.977	2908.97
422.185	2767.66
422.393	2865.96
422.601	3183.4
422.809	3031.85
423.017	3140.39
423.224	3310.37
423.432	3472.16
423.64	3447.58
423.848	3668.77
424.056	3709.72
424.263	4080.41
424.471	3889.95
424.679	4090.65
424.887	4240.15
425.094	4360.98
425.302	4393.75
425.51	4524.82
425.718	4637.45
425.925	4705.04
426.133	5049.1
426.341	5145.35
426.548	5503.75
426.756	5505.79
426.964	5522.18
427.171	5993.21
427.379	5989.11
427.586	6142.71
427.794	6306.55
428.001	6578.93
428.209	6789.87
428.417	6691.57
428.624	7183.08
428.832	7070.44
429.039	7097.07
429.247	6851.31
429.454	7809.76
429.662	8241.88
429.869	7781.09
430.076	8260.31
430.284	8227.54
430.491	8415.96
430.699	9059.02
430.906	8979.15
431.114	8989.39
431.321	9229
431.528	9435.85
431.736	10052.28
431.943	10633.91
432.15	10197.69
432.358	10377.91
432.565	10975.92
432.772	10736.31
432.979	11541.16
433.187	11770.53
433.394	11666.08
433.601	12460.7
433.808	12491.41
434.016	12335.77
434.223	13011.6
434.43	13542.02
434.637	13607.56
434.844	14408.31
435.052	14596.73
435.259	14330.49
435.466	14625.4
435.673	14416.51
435.88	15145.58
436.087	16566.87
436.294	16544.34
436.501	15915.62
436.708	16079.46
436.915	16669.27
437.122	17578.57
437.329	17418.83
437.537	18111.04
437.743	18393.66
437.95	18074.18
438.157	19069.49
438.364	20040.23
438.571	19503.66
438.778	20058.66
438.985	21701.13
439.192	20746.78
439.399	21340.69
439.606	20744.73
439.813	22008.33
440.02	23452.14
440.227	23048.69
440.433	22747.64
440.64	23472.62
440.847	23245.3
441.054	23886.31
441.261	25577.94
441.467	25076.18
441.674	25997.77
441.881	26732.99
442.088	26558.91
442.294	26423.75
442.501	27001.27
442.708	27369.91
442.914	28658.08
443.121	29452.69
443.328	28871.07
443.534	30855.55
443.741	30044.55
443.948	29530.51
444.154	31885.68
444.361	31713.65
444.568	31715.7
444.774	31811.95
444.981	32143.72
445.187	33044.83
445.394	34285.9
445.6	34029.9
445.807	36974.88
446.013	35494.2
446.22	36184.37
446.426	37564.7
446.633	37859.6
446.839	38932.74
447.046	37423.39
447.252	39538.94
447.459	39364.86
447.665	39534.84
447.871	41095.39
448.078	42905.8
448.284	40900.84
448.491	41769.18
448.697	43606.2
448.903	44269.75
449.11	44421.3
449.316	44005.56
449.522	44726.44
449.728	45949.08
449.935	46149.78
450.141	45979.8
450.347	47081.61
450.553	45729.95
450.76	46184.6
450.966	47417.47
451.172	46817.42
451.378	48461.94
451.584	47237.25
451.791	48820.33
451.997	48537.71
452.203	49182.82
452.409	49098.86
452.615	49156.2
452.821	47026.31
453.027	46649.49
453.233	48988.27
453.44	47200.39
453.646	47335.56
453.852	47468.67
454.058	48719.98
454.264	47057.03
454.47	48046.2
454.676	46911.63
454.882	48380.02
455.088	44904.62
455.294	45035.69
455.5	46043.29
455.705	45922.46
455.911	44558.51
456.117	43757.75
456.323	43126.98
456.529	40665.32
456.735	42602.7
456.941	41406.69
457.147	40702.18
457.352	39799.03
457.558	39325.95
457.764	39252.22
457.97	38510.86
458.176	37775.64
458.381	37304.6
458.587	35670.33
458.793	35547.45
458.999	34095.44
459.204	36391.21
459.41	35311.93
459.616	33126.75
459.821	33155.42
460.027	33081.69
460.233	32020.84
460.438	30720.38
460.644	30937.47
460.85	29471.12
461.055	28789.15
461.261	29186.46
461.466	26870.2
461.672	26098.12
461.878	27931.05
462.083	26063.3
462.289	25463.25
462.494	25197.01
462.7	24345.06
462.905	23773.67
463.111	24134.12
463.316	24621.53
463.522	24033.77
463.727	23966.18
463.932	24119.78
464.138	23462.38
464.343	23886.31
464.549	23263.73
464.754	23658.99
464.959	23658.99
465.165	23548.4
465.37	22026.76
465.575	21754.38
465.781	22559.23
465.986	22522.37
466.191	21930.5
466.397	21463.57
466.602	20625.95
466.807	21299.73
