Data from USB4F104151__293__14-34-53-573.txt Node

Date: Thu Mar 13 14:34:53 EDT 2025
User: louis
Spectrometer: USB4F10415
Trigger mode: 4
Integration Time (sec): 2.500000E-2
Scans to average: 1
Electric dark correction enabled: true
Nonlinearity correction enabled: false
Boxcar width: 0
XAxis mode: Wavelengths
Number of Pixels in Spectrum: 3648
>>>>>Begin Spectral Data<<<<<
178.204	-121.17
178.424	-121.17
178.644	-121.17
178.864	-178.51
179.084	-84.31
179.304	-26.96
179.524	-69.97
179.744	18.09
179.964	26.28
180.184	-16.73
180.404	32.43
180.624	-6.49
180.844	7.85
181.064	16.04
181.283	40.62
181.503	16.04
181.723	-37.2
181.943	-16.73
182.163	138.92
182.383	-16.73
182.602	89.77
182.822	67.24
183.042	16.04
183.262	22.19
183.482	26.28
183.701	9.9
183.921	-29.01
184.141	-14.68
184.361	108.2
184.58	24.23
184.8	32.43
185.02	50.86
185.239	91.82
185.459	83.63
185.679	91.82
185.898	5.8
186.118	1.71
186.338	89.77
186.557	89.77
186.777	48.81
186.997	-8.53
187.216	79.53
187.436	151.21
187.655	67.24
187.875	116.39
188.095	-16.73
188.314	28.33
188.534	3.75
188.753	9.9
188.973	1.71
189.192	77.48
189.412	38.57
189.631	100.01
189.851	-41.3
190.07	130.73
190.29	65.19
190.509	32.43
190.729	-12.63
190.948	3.75
191.168	233.13
191.387	155.3
191.607	46.76
191.826	89.77
192.045	65.19
192.265	24.23
192.484	44.71
192.704	-45.4
192.923	28.33
193.142	81.58
193.362	69.29
193.581	65.19
193.8	36.52
194.02	69.29
194.239	24.23
194.458	57
194.678	69.29
194.897	108.2
195.116	77.48
195.335	42.67
195.555	81.58
195.774	-0.34
195.993	57
196.212	16.04
196.432	77.48
196.651	24.23
196.87	42.67
197.089	138.92
197.308	73.39
197.528	106.15
197.747	-20.82
197.966	34.47
198.185	75.43
198.404	24.23
198.623	69.29
198.842	108.2
199.062	77.48
199.281	18.09
199.5	52.91
199.719	61.1
199.938	91.82
200.157	52.91
200.376	46.76
200.595	1.71
200.814	52.91
201.033	38.57
201.252	52.91
201.471	42.67
201.69	75.43
201.909	48.81
202.128	67.24
202.347	32.43
202.566	97.96
202.785	44.71
203.004	48.81
203.223	97.96
203.442	67.24
203.661	32.43
203.879	120.49
204.098	118.44
204.317	16.04
204.536	112.3
204.755	71.34
204.974	18.09
205.193	24.23
205.411	108.2
205.63	69.29
205.849	40.62
206.068	81.58
206.287	16.04
206.505	18.09
206.724	16.04
206.943	42.67
207.162	-33.11
207.381	-18.77
207.599	69.29
207.818	46.76
208.037	40.62
208.255	118.44
208.474	54.95
208.693	67.24
208.911	59.05
209.13	67.24
209.349	16.04
209.567	89.77
209.786	104.11
210.005	106.15
210.223	85.67
210.442	-80.21
210.661	69.29
210.879	24.23
211.098	24.23
211.316	40.62
211.535	57
211.753	-41.3
211.972	89.77
212.191	32.43
212.409	50.86
212.628	-20.82
212.846	11.95
213.065	81.58
213.283	57
213.502	40.62
213.72	32.43
213.938	65.19
214.157	20.14
214.375	73.39
214.594	93.87
214.812	44.71
215.031	5.8
215.249	48.81
215.467	-8.53
215.686	91.82
215.904	75.43
216.122	-47.44
216.341	83.63
216.559	11.95
216.778	28.33
216.996	65.19
217.214	32.43
217.432	50.86
217.651	9.9
217.869	65.19
218.087	93.87
218.306	24.23
218.524	52.91
218.742	75.43
218.96	42.67
219.179	13.99
219.397	83.63
219.615	157.35
219.833	48.81
220.051	-12.63
220.27	40.62
220.488	22.19
220.706	77.48
220.924	24.23
221.142	9.9
221.36	73.39
221.578	-16.73
221.796	18.09
222.015	50.86
222.233	48.81
222.451	118.44
222.669	81.58
222.887	52.91
223.105	73.39
223.323	52.91
223.541	30.38
223.759	104.11
223.977	57
224.195	95.91
224.413	57
224.631	81.58
224.849	83.63
225.067	65.19
225.285	32.43
225.503	73.39
225.721	-94.55
225.939	26.28
226.157	28.33
226.375	114.34
226.592	-20.82
226.81	48.81
227.028	57
227.246	24.23
227.464	130.73
227.682	-4.44
227.9	48.81
228.117	147.11
228.335	73.39
228.553	40.62
228.771	95.91
228.989	38.57
229.206	-18.77
229.424	-20.82
229.642	11.95
229.86	-12.63
230.077	26.28
230.295	1.71
230.513	18.09
230.731	52.91
230.948	57
231.166	81.58
231.384	-22.87
231.601	-33.11
231.819	28.33
232.037	42.67
232.254	-43.35
232.472	50.86
232.689	-61.78
232.907	155.3
233.125	-33.11
233.342	36.52
233.56	-16.73
233.777	-37.2
233.995	93.87
234.213	124.58
234.43	50.86
234.648	26.28
234.865	106.15
235.083	42.67
235.3	20.14
235.518	-22.87
235.735	75.43
235.953	81.58
236.17	63.15
236.388	59.05
236.605	-78.16
236.822	9.9
237.04	9.9
237.257	50.86
237.475	-24.92
237.692	16.04
237.909	73.39
238.127	151.21
238.344	59.05
238.562	22.19
238.779	48.81
238.996	7.85
239.214	73.39
239.431	81.58
239.648	-16.73
239.865	65.19
240.083	118.44
240.3	18.09
240.517	-31.06
240.735	26.28
240.952	3.75
241.169	89.77
241.386	54.95
241.603	75.43
241.821	20.14
242.038	161.45
242.255	-8.53
242.472	16.04
242.689	95.91
242.907	20.14
243.124	-14.68
243.341	91.82
243.558	-33.11
243.775	-8.53
243.992	24.23
244.209	114.34
244.426	138.92
244.643	42.67
244.86	34.47
245.078	97.96
245.295	57
245.512	-14.68
245.729	-0.34
245.946	118.44
246.163	1.71
246.38	57
246.597	54.95
246.814	9.9
247.031	65.19
247.248	91.82
247.464	26.28
247.681	48.81
247.898	48.81
248.115	24.23
248.332	22.19
248.549	89.77
248.766	89.77
248.983	11.95
249.2	38.57
249.417	81.58
249.633	36.52
249.85	32.43
250.067	40.62
250.284	26.28
250.501	59.05
250.717	16.04
250.934	1.71
251.151	110.25
251.368	30.38
251.585	16.04
251.801	34.47
252.018	7.85
252.235	9.9
252.451	-53.59
252.668	-33.11
252.885	57
253.102	57
253.318	59.05
253.535	32.43
253.752	3.75
253.968	116.39
254.185	-20.82
254.401	42.67
254.618	100.01
254.835	22.19
255.051	73.39
255.268	-2.39
255.484	26.28
255.701	32.43
255.917	24.23
256.134	24.23
256.351	52.91
256.567	32.43
256.784	65.19
257	-37.2
257.217	24.23
257.433	67.24
257.65	38.57
257.866	16.04
258.082	-41.3
258.299	34.47
258.515	85.67
258.732	48.81
258.948	-8.53
259.165	1.71
259.381	-20.82
259.597	136.87
259.814	40.62
260.03	24.23
260.246	16.04
260.463	69.29
260.679	100.01
260.895	48.81
261.112	46.76
261.328	-12.63
261.544	24.23
261.761	75.43
261.977	52.91
262.193	-6.49
262.409	134.82
262.626	67.24
262.842	52.91
263.058	32.43
263.274	93.87
263.49	73.39
263.707	114.34
263.923	59.05
264.139	11.95
264.355	79.53
264.571	100.01
264.787	32.43
265.004	61.1
265.22	83.63
265.436	-8.53
265.652	26.28
265.868	65.19
266.084	34.47
266.3	61.1
266.516	-6.49
266.732	89.77
266.948	69.29
267.164	73.39
267.38	91.82
267.596	7.85
267.812	167.59
268.028	61.1
268.244	3.75
268.46	42.67
268.676	81.58
268.892	26.28
269.108	-16.73
269.324	-14.68
269.54	91.82
269.756	40.62
269.972	-8.53
270.188	18.09
270.403	-29.01
270.619	-20.82
270.835	44.71
271.051	-24.92
271.267	-65.88
271.483	20.14
271.698	89.77
271.914	30.38
272.13	57
272.346	73.39
272.562	-0.34
272.777	-8.53
272.993	69.29
273.209	73.39
273.425	26.28
273.64	11.95
273.856	110.25
274.072	42.67
274.287	28.33
274.503	91.82
274.719	77.48
274.934	63.15
275.15	-8.53
275.366	1.71
275.581	-4.44
275.797	-0.34
276.012	44.71
276.228	-8.53
276.444	57
276.659	-2.39
276.875	89.77
277.09	40.62
277.306	24.23
277.521	57
277.737	28.33
277.952	59.05
278.168	61.1
278.383	18.09
278.599	9.9
278.814	65.19
279.03	-31.06
279.245	110.25
279.461	48.81
279.676	91.82
279.892	-57.68
280.107	63.15
280.322	40.62
280.538	50.86
280.753	34.47
280.969	81.58
281.184	91.82
281.399	77.48
281.615	-39.25
281.83	73.39
282.045	-2.39
282.26	95.91
282.476	-8.53
282.691	48.81
282.906	22.19
283.122	65.19
283.337	-8.53
283.552	48.81
283.767	69.29
283.983	124.58
284.198	57
284.413	57
284.628	40.62
284.843	40.62
285.058	67.24
285.274	52.91
285.489	5.8
285.704	7.85
285.919	52.91
286.134	73.39
286.349	11.95
286.564	-35.16
286.779	52.91
286.995	20.14
287.21	32.43
287.425	73.39
287.64	108.2
287.855	83.63
288.07	3.75
288.285	79.53
288.5	77.48
288.715	73.39
288.93	32.43
289.145	20.14
289.36	138.92
289.575	11.95
289.79	34.47
290.004	16.04
290.219	57
290.434	97.96
290.649	32.43
290.864	32.43
291.079	44.71
291.294	36.52
291.509	65.19
291.724	32.43
291.938	44.71
292.153	57
292.368	46.76
292.583	-31.06
292.798	171.69
293.012	100.01
293.227	67.24
293.442	7.85
293.657	69.29
293.871	63.15
294.086	93.87
294.301	67.24
294.516	100.01
294.73	32.43
294.945	16.04
295.16	83.63
295.374	67.24
295.589	85.67
295.804	130.73
296.018	48.81
296.233	11.95
296.447	44.71
296.662	52.91
296.877	54.95
297.091	38.57
297.306	97.96
297.52	13.99
297.735	57
297.949	38.57
298.164	61.1
298.378	89.77
298.593	-8.53
298.807	77.48
299.022	151.21
299.236	122.54
299.451	40.62
299.665	93.87
299.88	89.77
300.094	57
300.309	-0.34
300.523	114.34
300.737	28.33
300.952	73.39
301.166	73.39
301.381	22.19
301.595	1.71
301.809	61.1
302.024	1.71
302.238	24.23
302.452	112.3
302.667	114.34
302.881	89.77
303.095	32.43
303.309	44.71
303.524	-0.34
303.738	26.28
303.952	-24.92
304.166	16.04
304.381	-16.73
304.595	81.58
304.809	11.95
305.023	73.39
305.237	-16.73
305.452	95.91
305.666	16.04
305.88	-0.34
306.094	110.25
306.308	42.67
306.522	104.11
306.736	40.62
306.95	77.48
307.164	22.19
307.379	59.05
307.593	83.63
307.807	-12.63
308.021	97.96
308.235	89.77
308.449	40.62
308.663	40.62
308.877	112.3
309.091	48.81
309.305	89.77
309.519	9.9
309.733	79.53
309.947	-4.44
310.161	57
310.374	79.53
310.588	67.24
310.802	61.1
311.016	18.09
311.23	106.15
311.444	18.09
311.658	106.15
311.872	130.73
312.085	18.09
312.299	122.54
312.513	110.25
312.727	34.47
312.941	24.23
313.154	-0.34
313.368	24.23
313.582	77.48
313.796	-8.53
314.009	-16.73
314.223	100.01
314.437	83.63
314.651	-0.34
314.864	73.39
315.078	-8.53
315.292	57
315.505	-8.53
315.719	71.34
315.933	118.44
316.146	73.39
316.36	50.86
316.573	54.95
316.787	65.19
317.001	77.48
317.214	-14.68
317.428	50.86
317.641	40.62
317.855	50.86
318.068	143.02
318.282	-4.44
318.495	97.96
318.709	102.06
318.922	69.29
319.136	163.5
319.349	102.06
319.563	-12.63
319.776	-8.53
319.99	38.57
320.203	24.23
320.417	11.95
320.63	83.63
320.843	106.15
321.057	81.58
321.27	67.24
321.483	18.09
321.697	100.01
321.91	91.82
322.124	28.33
322.337	57
322.55	-41.3
322.763	57
322.977	61.1
323.19	28.33
323.403	34.47
323.617	20.14
323.83	65.19
324.043	24.23
324.256	155.3
324.469	9.9
324.683	95.91
324.896	16.04
325.109	22.19
325.322	26.28
325.535	97.96
325.748	67.24
325.962	77.48
326.175	165.54
326.388	22.19
326.601	122.54
326.814	44.71
327.027	130.73
327.24	114.34
327.453	-0.34
327.666	100.01
327.879	100.01
328.092	75.43
328.305	42.67
328.518	-14.68
328.731	-0.34
328.944	-41.3
329.157	110.25
329.37	7.85
329.583	159.4
329.796	5.8
330.009	-2.39
330.222	13.99
330.435	106.15
330.648	130.73
330.861	20.14
331.073	93.87
331.286	36.52
331.499	65.19
331.712	28.33
331.925	75.43
332.138	36.52
332.35	155.3
332.563	16.04
332.776	20.14
332.989	34.47
333.202	93.87
333.414	81.58
333.627	40.62
333.84	65.19
334.053	24.23
334.265	-29.01
334.478	34.47
334.691	40.62
334.903	73.39
335.116	-47.44
335.329	38.57
335.541	69.29
335.754	149.16
335.966	16.04
336.179	116.39
336.392	61.1
336.604	57
336.817	97.96
337.029	5.8
337.242	85.67
337.454	89.77
337.667	48.81
337.88	75.43
338.092	89.77
338.305	57
338.517	24.23
338.729	85.67
338.942	128.68
339.154	32.43
339.367	-14.68
339.579	97.96
339.792	30.38
340.004	81.58
340.217	42.67
340.429	40.62
340.641	24.23
340.854	-4.44
341.066	1.71
341.278	-24.92
341.491	188.07
341.703	67.24
341.915	-20.82
342.128	67.24
342.34	26.28
342.552	7.85
342.764	-45.4
342.977	157.35
343.189	143.02
343.401	32.43
343.613	61.1
343.826	42.67
344.038	87.72
344.25	114.34
344.462	32.43
344.674	61.1
344.886	1.71
345.099	59.05
345.311	40.62
345.523	46.76
345.735	36.52
345.947	57
346.159	75.43
346.371	61.1
346.583	-14.68
346.795	100.01
347.007	7.85
347.219	89.77
347.431	83.63
347.643	112.3
347.855	-45.4
348.067	73.39
348.279	-41.3
348.491	104.11
348.703	59.05
348.915	44.71
349.127	36.52
349.339	42.67
349.551	46.76
349.763	97.96
349.975	91.82
350.187	102.06
350.399	108.2
350.61	165.54
350.822	32.43
351.034	81.58
351.246	65.19
351.458	143.02
351.669	52.91
351.881	46.76
352.093	69.29
352.305	40.62
352.517	73.39
352.728	73.39
352.94	46.76
353.152	97.96
353.363	32.43
353.575	69.29
353.787	145.06
353.999	100.01
354.21	138.92
354.422	48.81
354.633	67.24
354.845	28.33
355.057	100.01
355.268	65.19
355.48	85.67
355.692	9.9
355.903	130.73
356.115	67.24
356.326	7.85
356.538	69.29
356.749	81.58
356.961	67.24
357.172	69.29
357.384	1.71
357.595	48.81
357.807	42.67
358.018	42.67
358.23	114.34
358.441	130.73
358.653	42.67
358.864	7.85
359.075	52.91
359.287	130.73
359.498	73.39
359.709	114.34
359.921	81.58
360.132	50.86
360.344	61.1
360.555	50.86
360.766	24.23
360.977	-0.34
361.189	155.3
361.4	46.76
361.611	73.39
361.823	73.39
362.034	40.62
362.245	7.85
362.456	42.67
362.667	85.67
362.879	16.04
363.09	57
363.301	73.39
363.512	67.24
363.723	57
363.935	65.19
364.146	114.34
364.357	36.52
364.568	18.09
364.779	34.47
364.99	97.96
365.201	48.81
365.412	89.77
365.623	-35.16
365.834	81.58
366.045	114.34
366.256	89.77
366.467	24.23
366.678	89.77
366.889	108.2
367.1	54.95
367.311	48.81
367.522	77.48
367.733	42.67
367.944	110.25
368.155	65.19
368.366	75.43
368.577	116.39
368.788	155.3
368.999	44.71
369.209	65.19
369.42	190.12
369.631	52.91
369.842	63.15
370.053	18.09
370.264	32.43
370.474	85.67
370.685	97.96
370.896	69.29
371.107	83.63
371.317	143.02
371.528	9.9
371.739	83.63
371.95	11.95
372.16	16.04
372.371	-45.4
372.582	32.43
372.792	87.72
373.003	-8.53
373.214	48.81
373.424	50.86
373.635	40.62
373.846	134.82
374.056	18.09
374.267	100.01
374.477	67.24
374.688	16.04
374.898	67.24
375.109	65.19
375.319	75.43
375.53	97.96
375.74	40.62
375.951	-26.96
376.161	16.04
376.372	26.28
376.582	145.06
376.793	77.48
377.003	32.43
377.214	11.95
377.424	63.15
377.635	52.91
377.845	102.06
378.055	83.63
378.266	1.71
378.476	57
378.686	132.78
378.897	61.1
379.107	71.34
379.317	71.34
379.528	28.33
379.738	110.25
379.948	-63.83
380.158	118.44
380.369	95.91
380.579	130.73
380.789	140.97
380.999	143.02
381.21	57
381.42	140.97
381.63	104.11
381.84	81.58
382.05	198.31
382.261	81.58
382.471	77.48
382.681	30.38
382.891	40.62
383.101	112.3
383.311	91.82
383.521	116.39
383.731	61.1
383.941	40.62
384.151	118.44
384.361	9.9
384.571	138.92
384.781	132.78
384.991	114.34
385.201	89.77
385.411	81.58
385.621	114.34
385.831	65.19
386.041	81.58
386.251	32.43
386.461	147.11
386.671	136.87
386.881	81.58
387.091	3.75
387.301	130.73
387.511	57
387.72	130.73
387.93	50.86
388.14	-2.39
388.35	63.15
388.56	114.34
388.769	63.15
388.979	102.06
389.189	32.43
389.399	163.5
389.609	97.96
389.818	108.2
390.028	-0.34
390.238	143.02
390.447	61.1
390.657	143.02
390.867	16.04
391.076	48.81
391.286	75.43
391.496	89.77
391.705	40.62
391.915	124.58
392.125	40.62
392.334	89.77
392.544	93.87
392.753	145.06
392.963	65.19
393.172	118.44
393.382	71.34
393.591	132.78
393.801	54.95
394.01	122.54
394.22	128.68
394.429	124.58
394.639	57
394.848	155.3
395.058	26.28
395.267	116.39
395.477	161.45
395.686	124.58
395.895	171.69
396.105	116.39
396.314	85.67
396.524	188.07
396.733	48.81
396.942	220.84
397.152	77.48
397.361	132.78
397.57	163.5
397.78	102.06
397.989	57
398.198	181.93
398.407	67.24
398.617	155.3
398.826	106.15
399.035	42.67
399.244	204.46
399.453	59.05
399.663	97.96
399.872	57
400.081	50.86
400.29	155.3
400.499	83.63
400.708	130.73
400.917	177.83
401.127	122.54
401.336	91.82
401.545	165.54
401.754	188.07
401.963	163.5
402.172	220.84
402.381	97.96
402.59	122.54
402.799	179.88
403.008	204.46
403.217	151.21
403.426	165.54
403.635	147.11
403.844	233.13
404.053	216.74
404.262	200.36
404.471	259.75
404.68	286.37
404.888	151.21
405.097	173.74
405.306	233.13
405.515	188.07
405.724	224.94
405.933	192.17
406.142	194.22
406.35	231.08
406.559	220.84
406.768	259.75
406.977	222.89
407.185	237.22
407.394	263.85
407.603	233.13
407.812	351.91
408.02	392.87
408.229	288.42
408.438	263.85
408.646	313
408.855	265.89
409.064	306.85
409.272	376.48
409.481	329.38
409.69	378.53
409.898	284.33
410.107	382.63
410.315	425.64
410.524	356.01
410.733	437.92
410.941	487.08
411.15	433.83
411.358	532.13
411.567	507.55
411.775	532.13
411.984	509.6
412.192	548.51
412.401	558.75
412.609	597.67
412.818	632.48
413.026	679.58
413.234	659.1
413.443	648.86
413.651	622.24
413.86	679.58
414.068	667.3
414.276	798.37
414.485	786.08
414.693	868
414.901	908.96
415.11	818.85
415.318	947.87
415.526	966.3
415.734	958.11
415.943	982.68
416.151	1033.88
416.359	1070.75
416.567	1128.09
416.776	1111.71
416.984	1046.17
417.192	1296.02
417.4	1195.67
417.608	1205.91
417.817	1328.79
418.025	1363.61
418.233	1476.24
418.441	1425.04
418.649	1453.72
418.857	1568.4
419.065	1523.35
419.273	1515.16
419.481	1693.33
419.689	1814.16
419.897	1871.5
420.105	1904.27
420.313	1867.41
420.521	2010.76
420.729	1953.42
420.937	2113.16
421.145	2188.94
421.353	2186.89
421.561	2483.84
421.769	2449.03
421.977	2563.72
422.185	2467.46
422.393	2782.85
422.601	2942.59
422.809	2702.98
423.017	2866.81
423.224	2926.21
423.432	3145.34
423.64	3194.49
423.848	3409.53
424.056	3423.86
424.263	3712.63
424.471	3532.4
424.679	3722.87
424.887	3780.21
425.094	3939.95
425.302	3999.34
425.51	4148.84
425.718	4269.67
425.925	4431.46
426.133	4316.78
426.341	4611.68
426.548	4900.45
426.756	4736.61
426.964	4914.78
427.171	5187.16
427.379	5250.65
427.586	5572.18
427.794	5506.65
428.001	5830.23
428.209	6162
428.417	6069.84
428.624	6325.83
428.832	6389.32
429.039	6389.32
429.247	6438.47
429.454	6854.21
429.662	7532.09
429.869	6991.42
430.076	7431.74
430.284	7257.66
430.491	7650.87
430.699	7783.99
430.906	8072.75
431.114	8164.91
431.321	8554.02
431.528	8568.36
431.736	9076.26
431.943	9688.6
432.15	9084.45
432.358	9207.33
432.565	9682.45
432.772	9471.51
432.979	10178.06
433.187	10288.65
433.394	10550.79
433.601	11118.08
433.808	11197.95
434.016	11105.79
434.223	11378.17
434.43	12269.04
434.637	12000.76
434.844	12877.29
435.052	13059.56
435.259	12787.18
435.466	13219.3
435.673	13090.27
435.88	13733.34
436.087	14491.09
436.294	14378.45
436.501	14212.56
436.708	14433.74
436.915	14882.25
437.122	15293.89
437.329	15601.08
437.537	16033.21
437.743	16203.19
437.95	16305.59
438.157	17046.95
438.364	17702.3
438.571	17407.39
438.778	17663.39
438.985	19156.36
439.192	18619.79
439.399	19191.17
439.606	18541.97
439.813	19973.5
440.02	20880.75
440.227	20465.01
440.433	20426.1
440.64	20991.34
440.847	20585.84
441.054	21468.52
441.261	22642
441.467	22351.19
441.674	22891.85
441.881	23792.96
442.088	23305.54
442.294	23477.57
442.501	23911.74
442.708	24544.56
442.914	25531.69
443.121	26543.38
443.328	25724.19
443.534	27630.85
443.741	26764.56
443.948	26215.71
444.154	28531.96
444.361	28421.37
444.568	28153.09
444.774	28251.39
444.981	28374.27
445.187	29494.5
445.394	30405.85
445.6	30641.37
445.807	33160.37
446.013	31386.83
446.22	32093.38
446.426	33615.02
446.633	34000.04
446.839	35183.76
447.046	33768.62
447.252	35390.61
447.459	35470.48
447.665	35550.35
447.871	37069.94
448.078	38548.57
448.284	36582.52
448.491	37504.11
448.697	38859.87
448.903	39693.39
449.11	39558.22
449.316	39304.27
449.522	40086.6
449.728	40709.18
449.935	40983.61
450.141	41415.73
450.347	42105.9
450.553	40889.4
450.76	41239.61
450.966	42406.95
451.172	42556.45
451.378	43551.76
451.584	42423.33
451.791	43496.47
451.997	43201.56
452.203	43981.84
452.409	44164.1
452.615	44254.22
452.821	42329.12
453.027	41735.21
453.233	43971.6
453.44	41995.31
453.646	42388.52
453.852	42746.91
454.058	43822.09
454.264	41980.97
454.47	43129.88
454.676	41995.31
454.882	43318.29
455.088	39732.3
455.294	40518.72
455.5	40692.8
455.705	41301.04
455.911	40109.13
456.117	39193.68
456.323	38743.13
456.529	36240.51
456.735	38204.52
456.941	36791.42
457.147	36471.93
457.352	35284.11
457.558	34755.74
457.764	35402.89
457.97	34593.95
458.176	33719.46
458.381	33348.78
458.587	32373.95
458.793	31673.54
458.999	30391.51
459.204	32480.44
459.41	31544.52
459.616	29351.15
459.821	29533.42
460.027	29357.29
460.233	28644.6
460.438	27110.67
460.644	27589.89
460.85	26819.86
461.055	25969.95
461.261	25890.08
461.466	23940.41
461.672	23444.8
461.878	24665.39
462.083	23174.47
462.289	23092.55
462.494	22615.38
462.7	21437.8
462.905	21013.87
463.111	21919.07
463.316	21734.75
463.522	21484.9
463.727	21239.14
463.932	21292.39
464.138	20864.36
464.343	21054.83
464.549	20393.33
464.754	21020.01
464.959	21058.92
465.165	20434.29
465.37	19838.33
465.575	19219.85
465.781	20008.31
465.986	20215.16
466.191	19336.58
466.397	19041.67
466.602	18285.97
466.807	18738.57
467.012	18832.78
467.218	18832.78
467.423	18214.29
467.628	18515.34
