Data from USB4F104151__314__14-35-06-619.txt Node

Date: Thu Mar 13 14:35:06 EDT 2025
User: louis
Spectrometer: USB4F10415
Trigger mode: 4
Integration Time (sec): 2.500000E-2
Scans to average: 1
Electric dark correction enabled: true
Nonlinearity correction enabled: false
Boxcar width: 0
XAxis mode: Wavelengths
Number of Pixels in Spectrum: 3648
>>>>>Begin Spectral Data<<<<<
178.204	-131.75
178.424	-131.75
178.644	-131.75
178.864	-88.75
179.084	-74.41
179.304	-39.59
179.524	-55.98
179.744	9.56
179.964	-15.02
180.184	-45.74
180.404	21.85
180.624	34.13
180.844	27.99
181.064	56.66
181.283	17.75
181.503	-10.92
181.723	-0.68
181.943	-111.27
182.163	118.1
182.383	60.76
182.602	50.52
182.822	58.71
183.042	36.18
183.262	-27.31
183.482	19.8
183.701	66.9
183.921	54.61
184.141	17.75
184.361	32.08
184.58	62.8
184.8	9.56
185.02	34.13
185.239	58.71
185.459	32.08
185.679	25.94
185.898	40.28
186.118	36.18
186.338	107.86
186.557	73.04
186.777	19.8
186.997	79.19
187.216	103.76
187.436	60.76
187.655	40.28
187.875	120.15
188.095	17.75
188.314	91.48
188.534	81.24
188.753	85.33
188.973	52.56
189.192	30.04
189.412	30.04
189.631	148.82
189.851	77.14
190.07	95.57
190.29	62.8
190.509	34.13
190.729	15.7
190.948	52.56
191.168	222.55
191.387	30.04
191.607	21.85
191.826	36.18
192.045	27.99
192.265	48.47
192.484	9.56
192.704	9.56
192.923	27.99
193.142	157.01
193.362	99.67
193.581	140.63
193.8	-31.4
194.02	132.44
194.239	13.65
194.458	54.61
194.678	68.95
194.897	13.65
195.116	50.52
195.335	77.14
195.555	50.52
195.774	-4.78
195.993	66.9
196.212	30.04
196.432	1.37
196.651	30.04
196.87	77.14
197.089	111.96
197.308	75.09
197.528	77.14
197.747	-12.97
197.966	54.61
198.185	99.67
198.404	-17.07
198.623	-21.16
198.842	25.94
199.062	34.13
199.281	21.85
199.5	32.08
199.719	50.52
199.938	42.32
200.157	52.56
200.376	58.71
200.595	54.61
200.814	50.52
201.033	56.66
201.252	157.01
201.471	17.75
201.69	93.52
201.909	13.65
202.128	97.62
202.347	46.42
202.566	36.18
202.785	3.41
203.004	13.65
203.223	91.48
203.442	1.37
203.661	66.9
203.879	-15.02
204.098	83.28
204.317	9.56
204.536	66.9
204.755	60.76
204.974	52.56
205.193	44.37
205.411	75.09
205.63	34.13
205.849	46.42
206.068	58.71
206.287	9.56
206.505	54.61
206.724	124.24
206.943	56.66
207.162	87.38
207.381	68.95
207.599	-2.73
207.818	-19.11
208.037	62.8
208.255	36.18
208.474	17.75
208.693	87.38
208.911	25.94
209.13	91.48
209.349	46.42
209.567	25.94
209.786	157.01
210.005	68.95
210.223	68.95
210.442	-10.92
210.661	60.76
210.879	77.14
211.098	19.8
211.316	120.15
211.535	44.37
211.753	30.04
211.972	58.71
212.191	68.95
212.409	68.95
212.628	142.68
212.846	13.65
213.065	48.47
213.283	50.52
213.502	93.52
213.72	75.09
213.938	38.23
214.157	21.85
214.375	50.52
214.594	-55.98
214.812	19.8
215.031	66.9
215.249	46.42
215.467	42.32
215.686	107.86
215.904	27.99
216.122	-17.07
216.341	109.91
216.559	62.8
216.778	3.41
216.996	42.32
217.214	15.7
217.432	42.32
217.651	85.33
217.869	48.47
218.087	54.61
218.306	7.51
218.524	19.8
218.742	38.23
218.96	85.33
219.179	44.37
219.397	71
219.615	103.76
219.833	36.18
220.051	11.61
220.27	42.32
220.488	9.56
220.706	58.71
220.924	134.48
221.142	-21.16
221.36	97.62
221.578	64.85
221.796	44.37
222.015	83.28
222.233	-47.79
222.451	60.76
222.669	1.37
222.887	1.37
223.105	15.7
223.323	-55.98
223.541	19.8
223.759	105.81
223.977	50.52
224.195	48.47
224.413	-10.92
224.631	30.04
224.849	46.42
225.067	89.43
225.285	60.76
225.503	48.47
225.721	-35.5
225.939	7.51
226.157	-10.92
226.375	83.28
226.592	50.52
226.81	116.05
227.028	75.09
227.246	62.8
227.464	25.94
227.682	71
227.9	95.57
228.117	-29.35
228.335	66.9
228.553	9.56
228.771	91.48
228.989	64.85
229.206	89.43
229.424	-10.92
229.642	34.13
229.86	-23.21
230.077	30.04
230.295	58.71
230.513	87.38
230.731	77.14
230.948	134.48
231.166	128.34
231.384	30.04
231.601	103.76
231.819	126.29
232.037	-31.4
232.254	42.32
232.472	134.48
232.689	-45.74
232.907	46.42
233.125	9.56
233.342	36.18
233.56	-4.78
233.777	17.75
233.995	1.37
234.213	91.48
234.43	87.38
234.648	1.37
234.865	68.95
235.083	93.52
235.3	58.71
235.518	40.28
235.735	116.05
235.953	99.67
236.17	120.15
236.388	85.33
236.605	15.7
236.822	107.86
237.04	52.56
237.257	36.18
237.475	30.04
237.692	38.23
237.909	52.56
238.127	17.75
238.344	132.44
238.562	75.09
238.779	11.61
238.996	62.8
239.214	95.57
239.431	17.75
239.648	40.28
239.865	58.71
240.083	52.56
240.3	34.13
240.517	44.37
240.735	13.65
240.952	93.52
241.169	111.96
241.386	52.56
241.603	9.56
241.821	13.65
242.038	91.48
242.255	44.37
242.472	-43.69
242.689	-19.11
242.907	25.94
243.124	87.38
243.341	25.94
243.558	-23.21
243.775	36.18
243.992	-96.94
244.209	17.75
244.426	75.09
244.643	30.04
244.86	79.19
245.078	-15.02
245.295	13.65
245.512	140.63
245.729	79.19
245.946	103.76
246.163	62.8
246.38	83.28
246.597	101.72
246.814	46.42
247.031	46.42
247.248	60.76
247.464	21.85
247.681	34.13
247.898	-6.83
248.115	13.65
248.332	-35.5
248.549	116.05
248.766	34.13
248.983	105.81
249.2	3.41
249.417	75.09
249.633	-64.17
249.85	140.63
250.067	-31.4
250.284	25.94
250.501	95.57
250.717	95.57
250.934	17.75
251.151	17.75
251.368	-2.73
251.585	52.56
251.801	75.09
252.018	-6.83
252.235	79.19
252.451	1.37
252.668	-6.83
252.885	-6.83
253.102	85.33
253.318	9.56
253.535	23.89
253.752	30.04
253.968	36.18
254.185	1.37
254.401	-10.92
254.618	34.13
254.835	17.75
255.051	85.33
255.268	95.57
255.484	87.38
255.701	34.13
255.917	91.48
256.134	-23.21
256.351	25.94
256.567	-21.16
256.784	19.8
257	32.08
257.217	75.09
257.433	-29.35
257.65	-4.78
257.866	122.2
258.082	-45.74
258.299	-19.11
258.515	25.94
258.732	25.94
258.948	-21.16
259.165	34.13
259.381	-0.68
259.597	7.51
259.814	25.94
260.03	30.04
260.246	79.19
260.463	54.61
260.679	9.56
260.895	44.37
261.112	175.44
261.328	52.56
261.544	17.75
261.761	132.44
261.977	75.09
262.193	-12.97
262.409	52.56
262.626	17.75
262.842	27.99
263.058	34.13
263.274	25.94
263.49	73.04
263.707	54.61
263.923	30.04
264.139	-15.02
264.355	58.71
264.571	83.28
264.787	99.67
265.004	122.2
265.22	-4.78
265.436	-12.97
265.652	42.32
265.868	-15.02
266.084	34.13
266.3	48.47
266.516	52.56
266.732	91.48
266.948	62.8
267.164	34.13
267.38	83.28
267.596	107.86
267.812	97.62
268.028	91.48
268.244	36.18
268.46	101.72
268.676	73.04
268.892	105.81
269.108	21.85
269.324	103.76
269.54	-19.11
269.756	36.18
269.972	-27.31
270.188	91.48
270.403	87.38
270.619	38.23
270.835	83.28
271.051	3.41
271.267	66.9
271.483	-4.78
271.698	34.13
271.914	75.09
272.13	30.04
272.346	83.28
272.562	101.72
272.777	52.56
272.993	107.86
273.209	38.23
273.425	66.9
273.64	36.18
273.856	130.39
274.072	52.56
274.287	48.47
274.503	36.18
274.719	95.57
274.934	32.08
275.15	-51.88
275.366	54.61
275.581	36.18
275.797	128.34
276.012	30.04
276.228	27.99
276.444	25.94
276.659	99.67
276.875	60.76
277.09	54.61
277.306	30.04
277.521	36.18
277.737	17.75
277.952	116.05
278.168	34.13
278.383	-10.92
278.599	-15.02
278.814	34.13
279.03	97.62
279.245	42.32
279.461	64.85
279.676	79.19
279.892	11.61
280.107	71
280.322	79.19
280.538	66.9
280.753	11.61
280.969	44.37
281.184	54.61
281.399	111.96
281.615	83.28
281.83	83.28
282.045	58.71
282.26	25.94
282.476	17.75
282.691	85.33
282.906	99.67
283.122	50.52
283.337	-19.11
283.552	25.94
283.767	60.76
283.983	66.9
284.198	58.71
284.413	116.05
284.628	-12.97
284.843	87.38
285.058	71
285.274	83.28
285.489	50.52
285.704	1.37
285.919	58.71
286.134	19.8
286.349	66.9
286.564	93.52
286.779	87.38
286.995	83.28
287.21	15.7
287.425	77.14
287.64	9.56
287.855	44.37
288.07	-47.79
288.285	124.24
288.5	56.66
288.715	36.18
288.93	62.8
289.145	81.24
289.36	83.28
289.575	68.95
289.79	75.09
290.004	21.85
290.219	30.04
290.434	91.48
290.649	36.18
290.864	66.9
291.079	-10.92
291.294	152.92
291.509	58.71
291.724	42.32
291.938	60.76
292.153	85.33
292.368	89.43
292.583	85.33
292.798	34.13
293.012	-27.31
293.227	52.56
293.442	66.9
293.657	62.8
293.871	36.18
294.086	93.52
294.301	75.09
294.516	73.04
294.73	-10.92
294.945	58.71
295.16	58.71
295.374	17.75
295.589	130.39
295.804	60.76
296.018	36.18
296.233	46.42
296.447	11.61
296.662	32.08
296.877	124.24
297.091	75.09
297.306	58.71
297.52	27.99
297.735	27.99
297.949	54.61
298.164	25.94
298.378	58.71
298.593	-15.02
298.807	66.9
299.022	36.18
299.236	138.58
299.451	83.28
299.665	32.08
299.88	11.61
300.094	58.71
300.309	95.57
300.523	87.38
300.737	103.76
300.952	-60.07
301.166	83.28
301.381	-23.21
301.595	17.75
301.809	1.37
302.024	30.04
302.238	30.04
302.452	62.8
302.667	19.8
302.881	132.44
303.095	105.81
303.309	58.71
303.524	89.43
303.738	-23.21
303.952	-92.84
304.166	83.28
304.381	-12.97
304.595	75.09
304.809	-12.97
305.023	58.71
305.237	79.19
305.452	-4.78
305.666	25.94
305.88	107.86
306.094	64.85
306.308	148.82
306.522	71
306.736	71
306.95	-15.02
307.164	56.66
307.379	50.52
307.593	95.57
307.807	25.94
308.021	109.91
308.235	71
308.449	19.8
308.663	17.75
308.877	99.67
309.091	23.89
309.305	95.57
309.519	-27.31
309.733	85.33
309.947	-4.78
310.161	42.32
310.374	30.04
310.588	-31.4
310.802	44.37
311.016	30.04
311.23	101.72
311.444	-31.4
311.658	50.52
311.872	136.53
312.085	75.09
312.299	103.76
312.513	68.95
312.727	60.76
312.941	-76.46
313.154	54.61
313.368	83.28
313.582	91.48
313.796	114
314.009	9.56
314.223	85.33
314.437	34.13
314.651	85.33
314.864	3.41
315.078	50.52
315.292	1.37
315.505	27.99
315.719	62.8
315.933	1.37
316.146	34.13
316.36	91.48
316.573	103.76
316.787	1.37
317.001	103.76
317.214	36.18
317.428	77.14
317.641	15.7
317.855	58.71
318.068	1.37
318.282	124.24
318.495	75.09
318.709	116.05
318.922	-53.93
319.136	140.63
319.349	58.71
319.563	75.09
319.776	75.09
319.99	-31.4
320.203	38.23
320.417	27.99
320.63	128.34
320.843	116.05
321.057	40.28
321.27	79.19
321.483	83.28
321.697	-8.87
321.91	85.33
322.124	11.61
322.337	42.32
322.55	-45.74
322.763	56.66
322.977	87.38
323.19	9.56
323.403	101.72
323.617	148.82
323.83	50.52
324.043	19.8
324.256	34.13
324.469	83.28
324.683	103.76
324.896	3.41
325.109	21.85
325.322	25.94
325.535	120.15
325.748	91.48
325.962	89.43
326.175	34.13
326.388	-45.74
326.601	75.09
326.814	44.37
327.027	71
327.24	152.92
327.453	-29.35
327.666	34.13
327.879	107.86
328.092	46.42
328.305	36.18
328.518	40.28
328.731	107.86
328.944	30.04
329.157	36.18
329.37	38.23
329.583	93.52
329.796	83.28
330.009	-0.68
330.222	167.25
330.435	75.09
330.648	66.9
330.861	52.56
331.073	50.52
331.286	93.52
331.499	52.56
331.712	25.94
331.925	-4.78
332.138	77.14
332.35	58.71
332.563	66.9
332.776	50.52
332.989	34.13
333.202	44.37
333.414	17.75
333.627	44.37
333.84	-2.73
334.053	140.63
334.265	83.28
334.478	1.37
334.691	114
334.903	54.61
335.116	46.42
335.329	50.52
335.541	79.19
335.754	161.11
335.966	91.48
336.179	7.51
336.392	50.52
336.604	-21.16
336.817	13.65
337.029	85.33
337.242	34.13
337.454	89.43
337.667	68.95
337.88	73.04
338.092	75.09
338.305	54.61
338.517	1.37
338.729	107.86
338.942	68.95
339.154	23.89
339.367	-15.02
339.579	85.33
339.792	-19.11
340.004	134.48
340.217	77.14
340.429	34.13
340.641	38.23
340.854	-21.16
341.066	118.1
341.278	116.05
341.491	-2.73
341.703	-4.78
341.915	42.32
342.128	42.32
342.34	25.94
342.552	48.47
342.764	58.71
342.977	58.71
343.189	38.23
343.401	73.04
343.613	66.9
343.826	75.09
344.038	17.75
344.25	99.67
344.462	-6.83
344.674	83.28
344.886	27.99
345.099	95.57
345.311	97.62
345.523	66.9
345.735	17.75
345.947	50.52
346.159	85.33
346.371	97.62
346.583	87.38
346.795	140.63
347.007	120.15
347.219	101.72
347.431	116.05
347.643	71
347.855	52.56
348.067	36.18
348.279	-29.35
348.491	81.24
348.703	144.72
348.915	79.19
349.127	25.94
349.339	95.57
349.551	9.56
349.763	99.67
349.975	36.18
350.187	118.1
350.399	87.38
350.61	17.75
350.822	101.72
351.034	42.32
351.246	56.66
351.458	50.52
351.669	66.9
351.881	103.76
352.093	109.91
352.305	23.89
352.517	38.23
352.728	157.01
352.94	42.32
353.152	103.76
353.363	130.39
353.575	116.05
353.787	11.61
353.999	1.37
354.21	116.05
354.422	68.95
354.633	19.8
354.845	140.63
355.057	54.61
355.268	75.09
355.48	89.43
355.692	13.65
355.903	60.76
356.115	52.56
356.326	54.61
356.538	75.09
356.749	118.1
356.961	62.8
357.172	50.52
357.384	34.13
357.595	177.49
357.807	87.38
358.018	17.75
358.23	97.62
358.441	124.24
358.653	101.72
358.864	48.47
359.075	71
359.287	17.75
359.498	132.44
359.709	50.52
359.921	114
360.132	75.09
360.344	132.44
360.555	11.61
360.766	130.39
360.977	79.19
361.189	30.04
361.4	15.7
361.611	85.33
361.823	107.86
362.034	34.13
362.245	-0.68
362.456	46.42
362.667	58.71
362.879	75.09
363.09	83.28
363.301	58.71
363.512	83.28
363.723	62.8
363.935	30.04
364.146	30.04
364.357	58.71
364.568	83.28
364.779	40.28
364.99	87.38
365.201	91.48
365.412	44.37
365.623	-31.4
365.834	91.48
366.045	75.09
366.256	99.67
366.467	58.71
366.678	132.44
366.889	58.71
367.1	71
367.311	111.96
367.522	34.13
367.733	68.95
367.944	79.19
368.155	99.67
368.366	204.11
368.577	17.75
368.788	60.76
368.999	30.04
369.209	19.8
369.42	107.86
369.631	116.05
369.842	66.9
370.053	56.66
370.264	148.82
370.474	32.08
370.685	66.9
370.896	42.32
371.107	91.48
371.317	142.68
371.528	19.8
371.739	64.85
371.95	140.63
372.16	91.48
372.371	25.94
372.582	-29.35
372.792	103.76
373.003	103.76
373.214	138.58
373.424	107.86
373.635	13.65
373.846	17.75
374.056	177.49
374.267	75.09
374.477	114
374.688	27.99
374.898	75.09
375.109	27.99
375.319	107.86
375.53	95.57
375.74	77.14
375.951	89.43
376.161	126.29
376.372	101.72
376.582	44.37
376.793	81.24
377.003	128.34
377.214	60.76
377.424	134.48
377.635	79.19
377.845	42.32
378.055	95.57
378.266	87.38
378.476	11.61
378.686	50.52
378.897	71
379.107	42.32
379.317	71
379.528	66.9
379.738	58.71
379.948	58.71
380.158	75.09
380.369	126.29
380.579	85.33
380.789	42.32
380.999	157.01
381.21	169.3
381.42	62.8
381.63	5.46
381.84	79.19
382.05	83.28
382.261	50.52
382.471	118.1
382.681	89.43
382.891	148.82
383.101	66.9
383.311	101.72
383.521	105.81
383.731	107.86
383.941	68.95
384.151	93.52
384.361	165.2
384.571	99.67
384.781	73.04
384.991	109.91
385.201	134.48
385.411	52.56
385.621	58.71
385.831	85.33
386.041	140.63
386.251	109.91
386.461	75.09
386.671	52.56
386.881	25.94
387.091	165.2
387.301	91.48
387.511	46.42
387.72	107.86
387.93	17.75
388.14	17.75
388.35	120.15
388.56	95.57
388.769	163.15
388.979	107.86
389.189	7.51
389.399	17.75
389.609	161.11
389.818	66.9
390.028	118.1
390.238	95.57
390.447	48.47
390.657	42.32
390.867	50.52
391.076	38.23
391.286	111.96
391.496	142.68
391.705	77.14
391.915	132.44
392.125	134.48
392.334	56.66
392.544	42.32
392.753	103.76
392.963	163.15
393.172	68.95
393.382	25.94
393.591	173.39
393.801	85.33
394.01	118.1
394.22	50.52
394.429	68.95
394.639	163.15
394.848	116.05
395.058	116.05
395.267	130.39
395.477	91.48
395.686	152.92
395.895	222.55
396.105	193.87
396.314	105.81
396.524	87.38
396.733	52.56
396.942	214.35
397.152	132.44
397.361	85.33
397.57	148.82
397.78	146.77
397.989	105.81
398.198	175.44
398.407	101.72
398.617	83.28
398.826	130.39
399.035	120.15
399.244	214.35
399.453	54.61
399.663	107.86
399.872	163.15
400.081	46.42
400.29	183.63
400.499	97.62
400.708	175.44
400.917	140.63
401.127	93.52
401.336	175.44
401.545	206.16
401.754	165.2
401.963	222.55
402.172	109.91
402.381	99.67
402.59	157.01
402.799	116.05
403.008	189.78
403.217	216.4
403.426	191.83
403.635	144.72
403.844	116.05
404.053	167.25
404.262	189.78
404.471	247.12
404.68	263.51
404.888	195.92
405.097	197.97
405.306	179.54
405.515	152.92
405.724	163.15
405.933	204.11
406.142	257.36
406.35	189.78
406.559	175.44
406.768	116.05
406.977	337.23
407.185	259.41
407.394	197.97
407.603	193.87
407.812	177.49
408.02	316.75
408.229	316.75
408.438	300.37
408.646	304.46
408.855	347.47
409.064	359.76
409.272	255.31
409.481	476.49
409.69	208.21
409.898	423.25
410.107	439.63
410.315	365.9
410.524	464.21
410.733	437.58
410.941	396.62
411.15	554.32
411.358	501.07
411.567	533.84
411.775	443.73
411.984	591.18
412.192	636.24
412.401	582.99
412.609	593.23
412.818	628.04
413.026	648.52
413.234	599.37
413.443	615.76
413.651	738.63
413.86	697.67
414.068	808.27
414.276	834.89
414.485	748.87
414.693	812.36
414.901	929.1
415.11	896.33
415.318	902.47
415.526	931.14
415.734	978.25
415.943	1074.5
416.151	1099.08
416.359	1035.59
416.567	1115.46
416.776	1264.96
416.984	1232.19
417.192	1164.61
417.4	1326.4
417.608	1307.97
417.817	1242.43
418.025	1371.46
418.233	1582.4
418.441	1475.9
418.649	1606.97
418.857	1606.97
419.065	1652.03
419.273	1672.51
419.481	1824.06
419.689	1817.91
419.897	1903.93
420.105	1920.31
420.313	2016.57
420.521	2051.38
420.729	2192.69
420.937	2180.4
421.145	2252.08
421.353	2307.38
421.561	2452.78
421.769	2577.71
421.977	2622.77
422.185	2573.61
422.393	2772.27
422.601	2936.1
422.809	2962.73
423.017	2936.1
423.224	3091.75
423.432	3171.62
423.64	3233.06
423.848	3466.53
424.056	3525.92
424.263	3591.45
424.471	3697.95
424.679	3712.28
424.887	3966.23
425.094	3990.81
425.302	4033.82
425.51	4173.08
425.718	4261.14
425.925	4250.9
426.133	4482.32
426.341	4646.16
426.548	4865.29
426.756	4867.34
426.964	5135.62
427.171	5305.6
427.379	5500.16
427.586	5483.78
427.794	5758.21
428.001	5954.81
428.209	6229.24
428.417	6235.38
428.624	6493.43
428.832	6538.48
429.039	6436.08
429.247	6288.63
429.454	7167.21
429.662	7568.61
429.869	7138.54
430.076	7689.44
430.284	7333.09
430.491	7873.76
430.699	8295.64
430.906	8223.96
431.114	8309.97
431.321	8479.96
431.528	8611.03
431.736	9401.54
431.943	9626.82
432.15	9333.96
432.358	9635.01
432.565	10132.67
432.772	10003.64
432.979	10519.73
433.187	10626.23
433.394	10749.11
433.601	11338.92
433.808	11578.53
434.016	11273.39
434.223	11783.33
434.43	12643.48
434.637	12489.88
434.844	13020.3
435.052	13280.39
435.259	13057.17
435.466	13454.47
435.673	13276.3
435.88	13948.03
436.087	14877.81
436.294	14826.61
436.501	14554.23
436.708	14664.82
436.915	15416.43
437.122	15987.81
437.329	15889.51
437.537	16475.23
437.743	16475.23
437.95	16364.64
438.157	17648.71
438.364	17990.72
438.571	18015.3
438.778	18183.23
438.985	19663.91
439.192	18873.4
439.399	19317.81
439.606	19285.04
439.813	20227.1
440.02	21347.34
440.227	20919.32
440.433	20696.09
440.64	21595.15
440.847	21179.41
441.054	21988.36
441.261	23510
441.467	22873.08
441.674	23598.06
441.881	24318.95
442.088	23974.89
442.294	23899.11
442.501	24429.54
442.708	25121.75
442.914	25912.27
443.121	27165.62
443.328	26467.27
443.534	27943.85
443.741	27622.32
443.948	26860.48
444.154	29051.8
444.361	28752.8
444.568	29014.94
444.774	28728.22
444.981	29332.37
445.187	29930.38
445.394	31323
445.6	30907.26
445.807	33956.69
446.013	32820.06
446.22	33278.81
446.426	34530.12
446.633	34558.79
446.839	35998.51
447.046	34151.24
447.252	36330.28
447.459	36229.93
447.665	36227.88
447.871	37663.51
448.078	39056.13
448.284	37395.23
448.491	38587.14
448.697	39637.75
448.903	40575.72
449.11	40596.2
449.316	40086.26
449.522	40530.67
449.728	41708.25
449.935	42488.53
450.141	42431.18
450.347	43135.68
450.553	41945.81
450.76	42230.48
450.966	43688.63
451.172	43322.05
451.378	44094.13
451.584	43244.23
451.791	44640.94
451.997	44421.81
452.203	45083.3
452.409	45134.5
452.615	44886.7
452.821	42857.16
453.027	42988.23
453.233	44901.03
453.44	43053.76
453.646	43403.97
453.852	43762.36
454.058	44690.09
454.264	43371.2
454.47	44073.65
454.676	42857.16
454.882	44341.94
455.088	40825.57
455.294	40985.32
455.5	41902.81
455.705	42261.2
455.911	40753.9
456.117	39801.59
456.323	39174.91
456.529	37317.4
456.735	39142.14
456.941	37716.76
457.147	37462.81
457.352	36059.95
457.558	35676.98
457.764	35949.36
457.97	35197.76
458.176	34698.05
458.381	34349.9
458.587	32631.65
458.793	32691.04
458.999	31075.2
459.204	33299.29
459.41	32263.02
459.616	30448.52
459.821	29901.71
460.027	30188.42
460.233	29432.72
460.438	28195.75
460.644	28267.43
460.85	26817.47
461.055	26676.16
461.261	26653.63
461.466	24392.67
461.672	23462.9
461.878	25353.17
462.083	23753.71
462.289	23012.34
462.494	22887.42
462.7	22033.41
462.905	21492.75
463.111	21830.66
463.316	22275.07
463.522	21881.86
463.727	21748.75
463.932	21474.32
464.138	21388.3
464.343	21595.15
464.549	20794.39
464.754	21566.48
464.959	21623.82
465.165	20937.75
465.37	20171.81
465.575	19811.37
465.781	20532.25
465.986	20685.85
466.191	19831.85
466.397	19645.48
466.602	18500.67
466.807	19082.29
