Data from USB4F104151__200__14-33-15-551.txt Node

Date: Thu Mar 13 14:33:15 EDT 2025
User: louis
Spectrometer: USB4F10415
Trigger mode: 4
Integration Time (sec): 2.500000E-2
Scans to average: 1
Electric dark correction enabled: true
Nonlinearity correction enabled: false
Boxcar width: 0
XAxis mode: Wavelengths
Number of Pixels in Spectrum: 3648
>>>>>Begin Spectral Data<<<<<
178.204	-154.28
178.424	-154.28
178.644	-154.28
178.864	-101.03
179.084	-127.66
179.304	15.7
179.524	19.8
179.744	-0.68
179.964	-0.68
180.184	5.46
180.404	68.95
180.624	-39.59
180.844	3.41
181.064	-35.5
181.283	-0.68
181.503	-17.07
181.723	-19.11
181.943	-43.69
182.163	30.04
182.383	56.66
182.602	77.14
182.822	44.37
183.042	32.08
183.262	-33.45
183.482	97.62
183.701	13.65
183.921	109.91
184.141	52.56
184.361	118.1
184.58	-29.35
184.8	44.37
185.02	77.14
185.239	126.29
185.459	52.56
185.679	128.34
185.898	-27.31
186.118	175.44
186.338	56.66
186.557	27.99
186.777	-2.73
186.997	68.95
187.216	109.91
187.436	134.48
187.655	36.18
187.875	60.76
188.095	40.28
188.314	71
188.534	116.05
188.753	87.38
188.973	7.51
189.192	-10.92
189.412	122.2
189.631	44.37
189.851	23.89
190.07	152.92
190.29	7.51
190.509	44.37
190.729	52.56
190.948	77.14
191.168	91.48
191.387	71
191.607	60.76
191.826	15.7
192.045	111.96
192.265	103.76
192.484	52.56
192.704	30.04
192.923	-55.98
193.142	197.97
193.362	52.56
193.581	56.66
193.8	11.61
194.02	19.8
194.239	-0.68
194.458	93.52
194.678	50.52
194.897	44.37
195.116	15.7
195.335	171.35
195.555	46.42
195.774	48.47
195.993	56.66
196.212	38.23
196.432	58.71
196.651	62.8
196.87	54.61
197.089	126.29
197.308	85.33
197.528	56.66
197.747	-43.69
197.966	3.41
198.185	97.62
198.404	27.99
198.623	68.95
198.842	134.48
199.062	81.24
199.281	101.72
199.5	60.76
199.719	11.61
199.938	85.33
200.157	95.57
200.376	91.48
200.595	50.52
200.814	89.43
201.033	1.37
201.252	75.09
201.471	54.61
201.69	48.47
201.909	17.75
202.128	79.19
202.347	128.34
202.566	48.47
202.785	-2.73
203.004	25.94
203.223	101.72
203.442	36.18
203.661	44.37
203.879	85.33
204.098	89.43
204.317	93.52
204.536	48.47
204.755	93.52
204.974	124.24
205.193	122.2
205.411	191.83
205.63	79.19
205.849	68.95
206.068	60.76
206.287	68.95
206.505	71
206.724	32.08
206.943	23.89
207.162	56.66
207.381	93.52
207.599	75.09
207.818	87.38
208.037	27.99
208.255	54.61
208.474	38.23
208.693	52.56
208.911	40.28
209.13	79.19
209.349	66.9
209.567	93.52
209.786	60.76
210.005	157.01
210.223	68.95
210.442	-4.78
210.661	11.61
210.879	27.99
211.098	1.37
211.316	32.08
211.535	93.52
211.753	-4.78
211.972	9.56
212.191	11.61
212.409	30.04
212.628	101.72
212.846	114
213.065	101.72
213.283	111.96
213.502	40.28
213.72	40.28
213.938	32.08
214.157	71
214.375	68.95
214.594	79.19
214.812	60.76
215.031	15.7
215.249	52.56
215.467	77.14
215.686	38.23
215.904	120.15
216.122	44.37
216.341	89.43
216.559	105.81
216.778	81.24
216.996	118.1
217.214	79.19
217.432	52.56
217.651	3.41
217.869	13.65
218.087	48.47
218.306	83.28
218.524	81.24
218.742	19.8
218.96	77.14
219.179	40.28
219.397	71
219.615	93.52
219.833	36.18
220.051	56.66
220.27	58.71
220.488	91.48
220.706	152.92
220.924	54.61
221.142	-62.12
221.36	5.46
221.578	46.42
221.796	50.52
222.015	23.89
222.233	19.8
222.451	109.91
222.669	-37.55
222.887	79.19
223.105	-4.78
223.323	101.72
223.541	-8.87
223.759	97.62
223.977	38.23
224.195	107.86
224.413	109.91
224.631	54.61
224.849	60.76
225.067	118.1
225.285	68.95
225.503	27.99
225.721	-27.31
225.939	60.76
226.157	68.95
226.375	165.2
226.592	60.76
226.81	38.23
227.028	19.8
227.246	95.57
227.464	27.99
227.682	163.15
227.9	85.33
228.117	118.1
228.335	154.96
228.553	36.18
228.771	85.33
228.989	30.04
229.206	36.18
229.424	27.99
229.642	48.47
229.86	5.46
230.077	89.43
230.295	19.8
230.513	150.87
230.731	134.48
230.948	103.76
231.166	62.8
231.384	23.89
231.601	-12.97
231.819	11.61
232.037	23.89
232.254	36.18
232.472	5.46
232.689	-27.31
232.907	77.14
233.125	36.18
233.342	114
233.56	-4.78
233.777	30.04
233.995	48.47
234.213	109.91
234.43	-29.35
234.648	97.62
234.865	68.95
235.083	32.08
235.3	60.76
235.518	126.29
235.735	142.68
235.953	38.23
236.17	40.28
236.388	44.37
236.605	42.32
236.822	60.76
237.04	36.18
237.257	79.19
237.475	25.94
237.692	-35.5
237.909	-4.78
238.127	83.28
238.344	130.39
238.562	66.9
238.779	23.89
238.996	30.04
239.214	60.76
239.431	118.1
239.648	27.99
239.865	54.61
240.083	118.1
240.3	114
240.517	68.95
240.735	50.52
240.952	122.2
241.169	68.95
241.386	132.44
241.603	19.8
241.821	13.65
242.038	101.72
242.255	44.37
242.472	-29.35
242.689	95.57
242.907	81.24
243.124	44.37
243.341	13.65
243.558	5.46
243.775	93.52
243.992	34.13
244.209	118.1
244.426	134.48
244.643	114
244.86	27.99
245.078	71
245.295	103.76
245.512	73.04
245.729	85.33
245.946	114
246.163	36.18
246.38	11.61
246.597	-12.97
246.814	109.91
247.031	-8.87
247.248	93.52
247.464	93.52
247.681	95.57
247.898	64.85
248.115	132.44
248.332	48.47
248.549	140.63
248.766	56.66
248.983	71
249.2	32.08
249.417	103.76
249.633	9.56
249.85	99.67
250.067	52.56
250.284	68.95
250.501	62.8
250.717	87.38
250.934	34.13
251.151	48.47
251.368	99.67
251.585	60.76
251.801	91.48
252.018	64.85
252.235	-4.78
252.451	93.52
252.668	38.23
252.885	73.04
253.102	130.39
253.318	116.05
253.535	52.56
253.752	48.47
253.968	114
254.185	56.66
254.401	71
254.618	68.95
254.835	111.96
255.051	32.08
255.268	52.56
255.484	101.72
255.701	60.76
255.917	103.76
256.134	71
256.351	3.41
256.567	19.8
256.784	3.41
257	-8.87
257.217	58.71
257.433	114
257.65	64.85
257.866	46.42
258.082	13.65
258.299	3.41
258.515	15.7
258.732	-62.12
258.948	36.18
259.165	97.62
259.381	77.14
259.597	89.43
259.814	52.56
260.03	25.94
260.246	44.37
260.463	93.52
260.679	103.76
260.895	79.19
261.112	64.85
261.328	87.38
261.544	40.28
261.761	165.2
261.977	46.42
262.193	32.08
262.409	95.57
262.626	-2.73
262.842	44.37
263.058	-0.68
263.274	114
263.49	77.14
263.707	77.14
263.923	120.15
264.139	25.94
264.355	83.28
264.571	204.11
264.787	5.46
265.004	142.68
265.22	32.08
265.436	44.37
265.652	42.32
265.868	3.41
266.084	-23.21
266.3	77.14
266.516	54.61
266.732	64.85
266.948	62.8
267.164	38.23
267.38	60.76
267.596	-4.78
267.812	148.82
268.028	75.09
268.244	52.56
268.46	140.63
268.676	60.76
268.892	73.04
269.108	48.47
269.324	40.28
269.54	62.8
269.756	85.33
269.972	13.65
270.188	7.51
270.403	23.89
270.619	68.95
270.835	-0.68
271.051	48.47
271.267	48.47
271.483	11.61
271.698	79.19
271.914	66.9
272.13	-10.92
272.346	48.47
272.562	5.46
272.777	79.19
272.993	85.33
273.209	44.37
273.425	60.76
273.64	52.56
273.856	32.08
274.072	85.33
274.287	60.76
274.503	46.42
274.719	62.8
274.934	32.08
275.15	-17.07
275.366	101.72
275.581	40.28
275.797	46.42
276.012	75.09
276.228	97.62
276.444	83.28
276.659	101.72
276.875	42.32
277.09	95.57
277.306	73.04
277.521	87.38
277.737	165.2
277.952	142.68
278.168	46.42
278.383	144.72
278.599	46.42
278.814	11.61
279.03	34.13
279.245	122.2
279.461	79.19
279.676	46.42
279.892	-47.79
280.107	62.8
280.322	54.61
280.538	60.76
280.753	23.89
280.969	66.9
281.184	54.61
281.399	85.33
281.615	85.33
281.83	27.99
282.045	73.04
282.26	21.85
282.476	48.47
282.691	32.08
282.906	150.87
283.122	83.28
283.337	15.7
283.552	83.28
283.767	46.42
283.983	36.18
284.198	44.37
284.413	27.99
284.628	-21.16
284.843	89.43
285.058	36.18
285.274	36.18
285.489	19.8
285.704	71
285.919	60.76
286.134	56.66
286.349	-8.87
286.564	64.85
286.779	120.15
286.995	66.9
287.21	64.85
287.425	64.85
287.64	27.99
287.855	62.8
288.07	44.37
288.285	60.76
288.5	130.39
288.715	89.43
288.93	19.8
289.145	25.94
289.36	150.87
289.575	38.23
289.79	-2.73
290.004	3.41
290.219	77.14
290.434	68.95
290.649	75.09
290.864	40.28
291.079	27.99
291.294	89.43
291.509	46.42
291.724	62.8
291.938	56.66
292.153	103.76
292.368	3.41
292.583	109.91
292.798	23.89
293.012	81.24
293.227	89.43
293.442	21.85
293.657	118.1
293.871	111.96
294.086	11.61
294.301	85.33
294.516	103.76
294.73	103.76
294.945	36.18
295.16	109.91
295.374	132.44
295.589	177.49
295.804	44.37
296.018	48.47
296.233	154.96
296.447	52.56
296.662	-6.83
296.877	114
297.091	97.62
297.306	89.43
297.52	54.61
297.735	68.95
297.949	73.04
298.164	66.9
298.378	23.89
298.593	52.56
298.807	13.65
299.022	75.09
299.236	64.85
299.451	128.34
299.665	44.37
299.88	68.95
300.094	120.15
300.309	122.2
300.523	73.04
300.737	46.42
300.952	64.85
301.166	81.24
301.381	32.08
301.595	23.89
301.809	77.14
302.024	-27.31
302.238	44.37
302.452	77.14
302.667	101.72
302.881	68.95
303.095	71
303.309	71
303.524	21.85
303.738	134.48
303.952	73.04
304.166	23.89
304.381	11.61
304.595	83.28
304.809	48.47
305.023	77.14
305.237	91.48
305.452	50.52
305.666	73.04
305.88	50.52
306.094	89.43
306.308	77.14
306.522	175.44
306.736	126.29
306.95	27.99
307.164	60.76
307.379	44.37
307.593	126.29
307.807	85.33
308.021	177.49
308.235	71
308.449	-2.73
308.663	-0.68
308.877	130.39
309.091	73.04
309.305	77.14
309.519	48.47
309.733	189.78
309.947	11.61
310.161	23.89
310.374	136.53
310.588	38.23
310.802	38.23
311.016	93.52
311.23	68.95
311.444	54.61
311.658	23.89
311.872	101.72
312.085	134.48
312.299	120.15
312.513	44.37
312.727	38.23
312.941	73.04
313.154	95.57
313.368	38.23
313.582	64.85
313.796	66.9
314.009	5.46
314.223	32.08
314.437	44.37
314.651	50.52
314.864	89.43
315.078	-8.87
315.292	32.08
315.505	-8.87
315.719	64.85
315.933	101.72
316.146	64.85
316.36	101.72
316.573	97.62
316.787	114
317.001	134.48
317.214	-17.07
317.428	77.14
317.641	73.04
317.855	79.19
318.068	13.65
318.282	109.91
318.495	103.76
318.709	27.99
318.922	21.85
319.136	111.96
319.349	109.91
319.563	-39.59
319.776	32.08
319.99	44.37
320.203	95.57
320.417	132.44
320.63	19.8
320.843	87.38
321.057	46.42
321.27	89.43
321.483	64.85
321.697	128.34
321.91	97.62
322.124	60.76
322.337	64.85
322.55	23.89
322.763	40.28
322.977	126.29
323.19	32.08
323.403	44.37
323.617	109.91
323.83	122.2
324.043	3.41
324.256	81.24
324.469	32.08
324.683	44.37
324.896	32.08
325.109	27.99
325.322	30.04
325.535	83.28
325.748	7.51
325.962	56.66
326.175	62.8
326.388	85.33
326.601	68.95
326.814	109.91
327.027	66.9
327.24	138.58
327.453	-8.87
327.666	101.72
327.879	105.81
328.092	105.81
328.305	89.43
328.518	62.8
328.731	58.71
328.944	103.76
329.157	85.33
329.37	-27.31
329.583	101.72
329.796	118.1
330.009	36.18
330.222	103.76
330.435	71
330.648	44.37
330.861	68.95
331.073	118.1
331.286	89.43
331.499	73.04
331.712	85.33
331.925	114
332.138	101.72
332.35	62.8
332.563	81.24
332.776	109.91
332.989	56.66
333.202	30.04
333.414	66.9
333.627	48.47
333.84	19.8
334.053	130.39
334.265	109.91
334.478	52.56
334.691	77.14
334.903	60.76
335.116	-8.87
335.329	81.24
335.541	85.33
335.754	48.47
335.966	44.37
336.179	50.52
336.392	52.56
336.604	46.42
336.817	167.25
337.029	95.57
337.242	38.23
337.454	101.72
337.667	105.81
337.88	73.04
338.092	25.94
338.305	27.99
338.517	27.99
338.729	109.91
338.942	111.96
339.154	62.8
339.367	40.28
339.579	40.28
339.792	109.91
340.004	169.3
340.217	11.61
340.429	120.15
340.641	17.75
340.854	68.95
341.066	81.24
341.278	71
341.491	193.87
341.703	85.33
341.915	66.9
342.128	60.76
342.34	101.72
342.552	56.66
342.764	13.65
342.977	68.95
343.189	77.14
343.401	87.38
343.613	19.8
343.826	52.56
344.038	-27.31
344.25	52.56
344.462	15.7
344.674	48.47
344.886	38.23
345.099	138.58
345.311	138.58
345.523	60.76
345.735	77.14
345.947	95.57
346.159	103.76
346.371	101.72
346.583	21.85
346.795	159.06
347.007	38.23
347.219	71
347.431	64.85
347.643	87.38
347.855	32.08
348.067	134.48
348.279	64.85
348.491	91.48
348.703	124.24
348.915	81.24
349.127	64.85
349.339	81.24
349.551	56.66
349.763	93.52
349.975	68.95
350.187	109.91
350.399	66.9
350.61	19.8
350.822	120.15
351.034	52.56
351.246	64.85
351.458	126.29
351.669	95.57
351.881	132.44
352.093	79.19
352.305	136.53
352.517	27.99
352.728	87.38
352.94	42.32
353.152	87.38
353.363	52.56
353.575	40.28
353.787	64.85
353.999	120.15
354.21	193.87
354.422	109.91
354.633	19.8
354.845	19.8
355.057	40.28
355.268	93.52
355.48	111.96
355.692	56.66
355.903	19.8
356.115	107.86
356.326	52.56
356.538	128.34
356.749	56.66
356.961	187.73
357.172	-21.16
357.384	54.61
357.595	208.21
357.807	48.47
358.018	89.43
358.23	40.28
358.441	114
358.653	103.76
358.864	44.37
359.075	19.8
359.287	97.62
359.498	40.28
359.709	60.76
359.921	97.62
360.132	109.91
360.344	62.8
360.555	36.18
360.766	54.61
360.977	42.32
361.189	83.28
361.4	46.42
361.611	118.1
361.823	91.48
362.034	79.19
362.245	11.61
362.456	52.56
362.667	152.92
362.879	79.19
363.09	73.04
363.301	68.95
363.512	109.91
363.723	13.65
363.935	15.7
364.146	103.76
364.357	73.04
364.568	152.92
364.779	-31.4
364.99	103.76
365.201	64.85
365.412	105.81
365.623	17.75
365.834	132.44
366.045	5.46
366.256	128.34
366.467	62.8
366.678	95.57
366.889	48.47
367.1	56.66
367.311	126.29
367.522	111.96
367.733	118.1
367.944	89.43
368.155	71
368.366	5.46
368.577	114
368.788	152.92
368.999	87.38
369.209	27.99
369.42	116.05
369.631	85.33
369.842	103.76
370.053	130.39
370.264	154.96
370.474	71
370.685	95.57
370.896	87.38
371.107	68.95
371.317	159.06
371.528	81.24
371.739	167.25
371.95	46.42
372.16	101.72
372.371	34.13
372.582	163.15
372.792	89.43
373.003	105.81
373.214	91.48
373.424	195.92
373.635	89.43
373.846	97.62
374.056	68.95
374.267	101.72
374.477	136.53
374.688	103.76
374.898	159.06
375.109	130.39
375.319	159.06
375.53	99.67
375.74	132.44
375.951	122.2
376.161	120.15
376.372	40.28
376.582	11.61
376.793	38.23
377.003	85.33
377.214	60.76
377.424	66.9
377.635	52.56
377.845	58.71
378.055	161.11
378.266	23.89
378.476	21.85
378.686	5.46
378.897	189.78
379.107	185.68
379.317	97.62
379.528	111.96
379.738	56.66
379.948	64.85
380.158	150.87
380.369	109.91
380.579	120.15
380.789	48.47
380.999	105.81
381.21	52.56
381.42	154.96
381.63	136.53
381.84	71
382.05	181.59
382.261	99.67
382.471	87.38
382.681	85.33
382.891	130.39
383.101	75.09
383.311	77.14
383.521	34.13
383.731	109.91
383.941	138.58
384.151	71
384.361	40.28
384.571	165.2
384.781	85.33
384.991	226.64
385.201	101.72
385.411	87.38
385.621	120.15
385.831	73.04
386.041	130.39
386.251	87.38
386.461	95.57
386.671	32.08
386.881	58.71
387.091	79.19
387.301	77.14
387.511	118.1
387.72	134.48
387.93	46.42
388.14	48.47
388.35	140.63
388.56	109.91
388.769	138.58
388.979	93.52
389.189	62.8
389.399	171.35
389.609	73.04
389.818	97.62
390.028	64.85
390.238	161.11
390.447	52.56
390.657	71
390.867	87.38
391.076	40.28
391.286	54.61
391.496	38.23
391.705	105.81
391.915	183.63
392.125	154.96
392.334	107.86
392.544	216.4
392.753	118.1
392.963	85.33
393.172	93.52
393.382	73.04
393.591	232.79
393.801	83.28
394.01	175.44
394.22	177.49
394.429	114
394.639	79.19
394.848	150.87
395.058	157.01
395.267	85.33
395.477	150.87
395.686	202.07
395.895	167.25
396.105	177.49
396.314	136.53
396.524	126.29
396.733	183.63
396.942	150.87
397.152	111.96
397.361	181.59
397.57	105.81
397.78	120.15
397.989	169.3
398.198	152.92
398.407	161.11
398.617	159.06
398.826	152.92
399.035	202.07
399.244	240.98
399.453	150.87
399.663	195.92
399.872	126.29
400.081	136.53
400.29	290.13
400.499	167.25
400.708	228.69
400.917	195.92
401.127	152.92
401.336	101.72
401.545	200.02
401.754	257.36
401.963	132.44
402.172	206.16
402.381	126.29
402.59	175.44
402.799	175.44
403.008	249.17
403.217	154.96
403.426	265.55
403.635	183.63
403.844	212.31
404.053	175.44
404.262	179.54
404.471	267.6
404.68	286.03
404.888	214.35
405.097	130.39
405.306	218.45
405.515	191.83
405.724	187.73
405.933	200.02
406.142	193.87
406.35	388.43
406.559	228.69
406.768	193.87
406.977	288.08
407.185	288.08
407.394	333.14
407.603	292.18
407.812	273.75
408.02	363.86
408.229	326.99
408.438	300.37
408.646	341.33
408.855	400.72
409.064	386.38
409.272	419.15
409.481	451.92
409.69	388.43
409.898	468.3
410.107	435.53
410.315	406.86
410.524	507.21
410.733	535.89
410.941	466.25
411.15	503.12
411.358	634.19
411.567	560.46
411.775	537.93
411.984	531.79
412.192	664.91
412.401	578.89
412.609	646.48
412.818	720.2
413.026	707.91
413.234	699.72
413.443	716.11
413.651	752.97
413.86	881.99
414.068	879.94
414.276	929.1
414.485	701.77
414.693	937.29
414.901	1076.55
415.11	1011.01
415.318	949.57
415.526	961.86
415.734	1006.92
415.943	1029.45
416.151	1105.22
416.359	1174.85
416.567	1094.98
416.776	1232.19
416.984	1355.07
417.192	1379.65
417.4	1316.16
417.608	1275.2
417.817	1391.94
418.025	1525.05
418.233	1609.02
418.441	1428.8
418.649	1619.26
418.857	1731.9
419.065	1781.05
419.273	1768.76
419.481	1850.68
419.689	2016.57
419.897	2010.42
420.105	2127.16
420.313	2157.88
420.521	2178.36
420.729	2137.4
420.937	2334
421.145	2491.7
421.353	2538.8
421.561	2680.11
421.769	2655.53
421.977	2815.27
422.185	2751.79
422.393	2845.99
422.601	3214.63
422.809	3112.23
423.017	3231.01
423.224	3280.16
423.432	3405.09
423.64	3362.08
423.848	3706.14
424.056	3652.89
424.263	3880.22
424.471	3806.49
424.679	3949.85
424.887	4132.12
425.094	4226.32
425.302	4271.38
425.51	4517.14
425.718	4637.97
425.925	4697.36
426.133	4754.7
426.341	5303.56
426.548	5348.61
426.756	5336.32
426.964	5240.07
427.171	5602.56
427.379	5655.81
427.586	6038.78
427.794	6106.36
428.001	6341.88
428.209	6626.54
428.417	6452.47
428.624	6995.18
428.832	6954.22
429.039	7109.86
429.247	7023.85
429.454	7673.06
429.662	8139.99
429.869	7498.98
430.076	8010.97
430.284	7781.6
430.491	8312.02
430.699	8649.94
430.906	8608.98
431.114	8684.75
431.321	9202.89
431.528	9227.46
431.736	9766.08
431.943	9927.87
432.15	10015.93
432.358	10169.53
432.565	10695.86
432.772	10613.94
432.979	10996.91
433.187	11433.13
433.394	11371.69
433.601	12041.37
433.808	12188.83
434.016	12094.62
434.223	12508.31
434.43	13214.86
434.637	13114.51
434.844	13784.19
435.052	14316.67
435.259	14105.73
435.466	14439.55
435.673	14140.54
435.88	14808.18
436.087	15672.42
436.294	15783.01
436.501	15436.91
436.708	15742.05
436.915	16219.23
437.122	16954.45
437.329	16946.26
437.537	17290.32
437.743	17722.44
437.95	17413.2
438.157	18629.69
438.364	19098.67
438.571	19147.83
438.778	19133.49
438.985	20868.12
439.192	20132.9
439.399	20556.83
439.606	20388.89
439.813	21531.66
440.02	22752.25
440.227	22356.99
440.433	22002.69
440.64	22629.37
440.847	22662.14
441.054	23274.48
441.261	24974.3
441.467	24314.85
441.674	24687.58
441.881	25965.51
442.088	25594.83
442.294	25627.6
442.501	25916.36
442.708	26543.04
442.914	27751.34
443.121	28634.02
443.328	27825.07
443.534	30036.88
443.741	29315.99
443.948	28793.76
444.154	30931.84
444.361	30817.15
444.568	30669.7
444.774	30751.62
444.981	31114.11
445.187	32213.87
445.394	33243.99
445.6	32768.87
445.807	35937.07
446.013	34640.71
446.22	35251
446.426	36621.09
446.633	36727.59
446.839	37851.92
447.046	36295.47
447.252	38365.96
447.459	38576.9
447.665	37927.7
447.871	40071.92
448.078	41614.04
448.284	39631.61
448.491	40907.49
448.697	42275.54
448.903	42590.92
449.11	42681.03
449.316	42177.23
449.522	43565.76
449.728	44618.41
449.935	44853.93
450.141	44489.39
450.347	45316.77
450.553	44196.53
450.76	44561.07
450.966	46164.63
451.172	45636.25
451.378	47192.71
451.584	46027.42
451.791	46953.1
451.997	46910.09
452.203	47628.93
452.409	47723.13
452.615	47270.53
452.821	45845.15
453.027	45042.34
453.233	47686.27
453.44	45462.18
453.646	46252.69
453.852	46275.22
454.058	47004.3
454.264	45613.73
454.47	46328.47
454.676	45406.88
454.882	46498.45
455.088	42955.46
455.294	43651.77
455.5	44262.07
455.705	44309.17
455.911	42844.87
456.117	42058.45
456.323	41300.7
456.529	39271.17
456.735	40936.16
456.941	39772.92
457.147	39822.07
457.352	37847.83
457.558	37581.59
457.764	37454.62
457.97	37090.08
458.176	36266.8
458.381	36068.14
458.587	34646.85
458.793	34468.68
458.999	32815.97
459.204	34931.52
459.41	33866.58
459.616	31882.09
459.821	31744.88
460.027	31765.36
460.233	30595.97
460.438	29580.18
460.644	29660.05
460.85	28554.15
461.055	27769.77
461.261	28068.78
461.466	25838.54
461.672	25119.7
461.878	26588.1
462.083	25064.41
462.289	24460.26
462.494	24284.13
462.7	23274.48
462.905	22539.26
463.111	23342.07
463.316	23323.63
463.522	23020.53
463.727	22893.56
463.932	22707.19
464.138	22658.04
464.343	22928.38
464.549	22154.24
464.754	22752.25
464.959	22543.36
465.165	22207.49
465.37	21277.71
465.575	21029.91
465.781	21666.83
465.986	21769.23
466.191	20950.04
466.397	20755.48
466.602	19625
