Data from USB4F104151__35__14-29-41-962.txt Node

Date: Thu Mar 13 14:29:41 EDT 2025
User: louis
Spectrometer: USB4F10415
Trigger mode: 4
Integration Time (sec): 2.500000E-2
Scans to average: 1
Electric dark correction enabled: true
Nonlinearity correction enabled: false
Boxcar width: 0
XAxis mode: Wavelengths
Number of Pixels in Spectrum: 3648
>>>>>Begin Spectral Data<<<<<
178.204	-112.98
178.424	-112.98
178.644	-112.98
178.864	-121.17
179.084	-137.56
179.304	-72.02
179.524	-22.87
179.744	20.14
179.964	44.71
180.184	-29.01
180.404	-37.2
180.624	22.19
180.844	-41.3
181.064	-39.25
181.283	-6.49
181.503	79.53
181.723	81.58
181.943	-47.44
182.163	69.29
182.383	-53.59
182.602	91.82
182.822	67.24
183.042	91.82
183.262	-4.44
183.482	3.75
183.701	-20.82
183.921	16.04
184.141	-18.77
184.361	112.3
184.58	75.43
184.8	-20.82
185.02	-59.73
185.239	30.38
185.459	85.67
185.679	83.63
185.898	16.04
186.118	30.38
186.338	-43.35
186.557	75.43
186.777	1.71
186.997	36.52
187.216	83.63
187.436	34.47
187.655	132.78
187.875	79.53
188.095	7.85
188.314	118.44
188.534	13.99
188.753	28.33
188.973	22.19
189.192	106.15
189.412	128.68
189.631	102.06
189.851	85.67
190.07	143.02
190.29	-78.16
190.509	16.04
190.729	38.57
190.948	59.05
191.168	118.44
191.387	50.86
191.607	30.38
191.826	30.38
192.045	67.24
192.265	30.38
192.484	48.81
192.704	28.33
192.923	-10.58
193.142	175.78
193.362	-2.39
193.581	100.01
193.8	-20.82
194.02	52.91
194.239	7.85
194.458	48.81
194.678	79.53
194.897	3.75
195.116	65.19
195.335	-49.49
195.555	9.9
195.774	34.47
195.993	59.05
196.212	-22.87
196.432	-35.16
196.651	61.1
196.87	9.9
197.089	118.44
197.308	38.57
197.528	9.9
197.747	1.71
197.966	-55.64
198.185	50.86
198.404	-53.59
198.623	5.8
198.842	108.2
199.062	38.57
199.281	75.43
199.5	28.33
199.719	57
199.938	34.47
200.157	108.2
200.376	7.85
200.595	11.95
200.814	59.05
201.033	34.47
201.252	77.48
201.471	85.67
201.69	50.86
201.909	20.14
202.128	75.43
202.347	7.85
202.566	73.39
202.785	34.47
203.004	-35.16
203.223	50.86
203.442	28.33
203.661	100.01
203.879	124.58
204.098	87.72
204.317	34.47
204.536	34.47
204.755	46.76
204.974	143.02
205.193	61.1
205.411	59.05
205.63	5.8
205.849	24.23
206.068	-4.44
206.287	36.52
206.505	116.39
206.724	18.09
206.943	-2.39
207.162	42.67
207.381	102.06
207.599	30.38
207.818	54.95
208.037	54.95
208.255	65.19
208.474	134.82
208.693	44.71
208.911	59.05
209.13	11.95
209.349	40.62
209.567	30.38
209.786	16.04
210.005	50.86
210.223	61.1
210.442	-6.49
210.661	81.58
210.879	102.06
211.098	18.09
211.316	42.67
211.535	102.06
211.753	-0.34
211.972	61.1
212.191	-14.68
212.409	11.95
212.628	46.76
212.846	9.9
213.065	36.52
213.283	157.35
213.502	-10.58
213.72	61.1
213.938	85.67
214.157	42.67
214.375	11.95
214.594	50.86
214.812	87.72
215.031	11.95
215.249	75.43
215.467	32.43
215.686	120.49
215.904	50.86
216.122	-8.53
216.341	67.24
216.559	-2.39
216.778	24.23
216.996	5.8
217.214	36.52
217.432	3.75
217.651	11.95
217.869	61.1
218.087	67.24
218.306	63.15
218.524	57
218.742	20.14
218.96	77.48
219.179	-37.2
219.397	40.62
219.615	75.43
219.833	69.29
220.051	93.87
220.27	147.11
220.488	75.43
220.706	89.77
220.924	46.76
221.142	34.47
221.36	106.15
221.578	93.87
221.796	95.91
222.015	91.82
222.233	30.38
222.451	124.58
222.669	-43.35
222.887	89.77
223.105	-45.4
223.323	36.52
223.541	-6.49
223.759	11.95
223.977	-39.25
224.195	54.95
224.413	3.75
224.631	18.09
224.849	38.57
225.067	108.2
225.285	5.8
225.503	-10.58
225.721	18.09
225.939	75.43
226.157	61.1
226.375	130.73
226.592	-22.87
226.81	20.14
227.028	69.29
227.246	128.68
227.464	42.67
227.682	46.76
227.9	130.73
228.117	100.01
228.335	32.43
228.553	30.38
228.771	100.01
228.989	50.86
229.206	-10.58
229.424	-14.68
229.642	75.43
229.86	-20.82
230.077	48.81
230.295	44.71
230.513	59.05
230.731	59.05
230.948	1.71
231.166	3.75
231.384	-29.01
231.601	-29.01
231.819	69.29
232.037	3.75
232.254	-22.87
232.472	46.76
232.689	34.47
232.907	97.96
233.125	-4.44
233.342	26.28
233.56	-4.44
233.777	-69.97
233.995	44.71
234.213	85.67
234.43	81.58
234.648	-22.87
234.865	50.86
235.083	46.76
235.3	9.9
235.518	79.53
235.735	48.81
235.953	79.53
236.17	42.67
236.388	9.9
236.605	48.81
236.822	52.91
237.04	91.82
237.257	-33.11
237.475	52.91
237.692	50.86
237.909	-0.34
238.127	1.71
238.344	50.86
238.562	69.29
238.779	-55.64
238.996	52.91
239.214	36.52
239.431	63.15
239.648	50.86
239.865	83.63
240.083	75.43
240.3	30.38
240.517	26.28
240.735	44.71
240.952	75.43
241.169	20.14
241.386	22.19
241.603	-45.4
241.821	36.52
242.038	73.39
242.255	50.86
242.472	9.9
242.689	42.67
242.907	85.67
243.124	40.62
243.341	73.39
243.558	54.95
243.775	-18.77
243.992	30.38
244.209	50.86
244.426	83.63
244.643	130.73
244.86	110.25
245.078	75.43
245.295	-31.06
245.512	54.95
245.729	9.9
245.946	-47.44
246.163	30.38
246.38	18.09
246.597	-45.4
246.814	59.05
247.031	50.86
247.248	-14.68
247.464	61.1
247.681	3.75
247.898	13.99
248.115	73.39
248.332	50.86
248.549	97.96
248.766	77.48
248.983	13.99
249.2	16.04
249.417	42.67
249.633	38.57
249.85	-12.63
250.067	-51.54
250.284	52.91
250.501	-14.68
250.717	46.76
250.934	24.23
251.151	-6.49
251.368	-18.77
251.585	83.63
251.801	63.15
252.018	-4.44
252.235	34.47
252.451	75.43
252.668	63.15
252.885	77.48
253.102	34.47
253.318	9.9
253.535	50.86
253.752	-20.82
253.968	69.29
254.185	59.05
254.401	108.2
254.618	79.53
254.835	42.67
255.051	69.29
255.268	18.09
255.484	42.67
255.701	5.8
255.917	77.48
256.134	85.67
256.351	-4.44
256.567	9.9
256.784	65.19
257	20.14
257.217	136.87
257.433	34.47
257.65	77.48
257.866	-12.63
258.082	24.23
258.299	52.91
258.515	169.64
258.732	-8.53
258.948	50.86
259.165	54.95
259.381	26.28
259.597	50.86
259.814	-6.49
260.03	-49.49
260.246	69.29
260.463	116.39
260.679	42.67
260.895	69.29
261.112	75.43
261.328	42.67
261.544	-8.53
261.761	91.82
261.977	108.2
262.193	-47.44
262.409	32.43
262.626	42.67
262.842	73.39
263.058	91.82
263.274	61.1
263.49	59.05
263.707	50.86
263.923	30.38
264.139	-12.63
264.355	9.9
264.571	104.11
264.787	-18.77
265.004	20.14
265.22	108.2
265.436	-8.53
265.652	-0.34
265.868	57
266.084	-6.49
266.3	44.71
266.516	9.9
266.732	100.01
266.948	26.28
267.164	38.57
267.38	18.09
267.596	63.15
267.812	100.01
268.028	83.63
268.244	61.1
268.46	71.34
268.676	13.99
268.892	-4.44
269.108	-43.35
269.324	79.53
269.54	-4.44
269.756	9.9
269.972	1.71
270.188	52.91
270.403	-35.16
270.619	42.67
270.835	-4.44
271.051	34.47
271.267	18.09
271.483	61.1
271.698	57
271.914	-6.49
272.13	24.23
272.346	83.63
272.562	22.19
272.777	-14.68
272.993	71.34
273.209	104.11
273.425	9.9
273.64	-26.96
273.856	102.06
274.072	28.33
274.287	-41.3
274.503	69.29
274.719	42.67
274.934	52.91
275.15	-18.77
275.366	67.24
275.581	-18.77
275.797	13.99
276.012	83.63
276.228	1.71
276.444	5.8
276.659	73.39
276.875	30.38
277.09	36.52
277.306	44.71
277.521	-6.49
277.737	26.28
277.952	110.25
278.168	34.47
278.383	-14.68
278.599	36.52
278.814	116.39
279.03	100.01
279.245	118.44
279.461	26.28
279.676	77.48
279.892	26.28
280.107	-39.25
280.322	11.95
280.538	22.19
280.753	3.75
280.969	59.05
281.184	3.75
281.399	126.63
281.615	57
281.83	100.01
282.045	18.09
282.26	16.04
282.476	22.19
282.691	81.58
282.906	83.63
283.122	34.47
283.337	-14.68
283.552	140.97
283.767	18.09
283.983	118.44
284.198	13.99
284.413	77.48
284.628	-26.96
284.843	81.58
285.058	100.01
285.274	36.52
285.489	28.33
285.704	67.24
285.919	36.52
286.134	59.05
286.349	52.91
286.564	52.91
286.779	77.48
286.995	100.01
287.21	-0.34
287.425	69.29
287.64	34.47
287.855	28.33
288.07	26.28
288.285	67.24
288.5	83.63
288.715	65.19
288.93	-39.25
289.145	81.58
289.36	48.81
289.575	-12.63
289.79	36.52
290.004	75.43
290.219	59.05
290.434	83.63
290.649	59.05
290.864	1.71
291.079	91.82
291.294	-16.73
291.509	50.86
291.724	106.15
291.938	42.67
292.153	81.58
292.368	32.43
292.583	46.76
292.798	77.48
293.012	18.09
293.227	42.67
293.442	3.75
293.657	16.04
293.871	124.58
294.086	36.52
294.301	102.06
294.516	59.05
294.73	116.39
294.945	-88.4
295.16	54.95
295.374	93.87
295.589	59.05
295.804	73.39
296.018	67.24
296.233	100.01
296.447	22.19
296.662	-8.53
296.877	50.86
297.091	-6.49
297.306	11.95
297.52	75.43
297.735	32.43
297.949	-61.78
298.164	87.72
298.378	22.19
298.593	-2.39
298.807	44.71
299.022	67.24
299.236	93.87
299.451	22.19
299.665	83.63
299.88	18.09
300.094	77.48
300.309	11.95
300.523	118.44
300.737	87.72
300.952	46.76
301.166	124.58
301.381	-8.53
301.595	9.9
301.809	-22.87
302.024	-10.58
302.238	1.71
302.452	73.39
302.667	16.04
302.881	95.91
303.095	46.76
303.309	69.29
303.524	50.86
303.738	59.05
303.952	-2.39
304.166	59.05
304.381	36.52
304.595	73.39
304.809	24.23
305.023	67.24
305.237	-47.44
305.452	91.82
305.666	-14.68
305.88	36.52
306.094	87.72
306.308	116.39
306.522	38.57
306.736	34.47
306.95	122.54
307.164	28.33
307.379	34.47
307.593	73.39
307.807	67.24
308.021	52.91
308.235	89.77
308.449	38.57
308.663	40.62
308.877	28.33
309.091	132.78
309.305	108.2
309.519	16.04
309.733	75.43
309.947	-20.82
310.161	71.34
310.374	13.99
310.588	104.11
310.802	20.14
311.016	69.29
311.23	71.34
311.444	-6.49
311.658	34.47
311.872	67.24
312.085	102.06
312.299	75.43
312.513	34.47
312.727	-0.34
312.941	18.09
313.154	34.47
313.368	40.62
313.582	75.43
313.796	61.1
314.009	104.11
314.223	52.91
314.437	-10.58
314.651	63.15
314.864	28.33
315.078	9.9
315.292	-14.68
315.505	16.04
315.719	54.95
315.933	-0.34
316.146	67.24
316.36	32.43
316.573	112.3
316.787	95.91
317.001	34.47
317.214	30.38
317.428	-2.39
317.641	54.95
317.855	59.05
318.068	75.43
318.282	38.57
318.495	108.2
318.709	110.25
318.922	34.47
319.136	32.43
319.349	59.05
319.563	1.71
319.776	34.47
319.99	59.05
320.203	95.91
320.417	57
320.63	22.19
320.843	59.05
321.057	50.86
321.27	102.06
321.483	7.85
321.697	65.19
321.91	22.19
322.124	22.19
322.337	71.34
322.55	36.52
322.763	61.1
322.977	126.63
323.19	61.1
323.403	71.34
323.617	5.8
323.83	16.04
324.043	34.47
324.256	75.43
324.469	-18.77
324.683	44.71
324.896	9.9
325.109	34.47
325.322	-22.87
325.535	34.47
325.748	75.43
325.962	42.67
326.175	71.34
326.388	59.05
326.601	91.82
326.814	50.86
327.027	59.05
327.24	77.48
327.453	5.8
327.666	46.76
327.879	91.82
328.092	190.12
328.305	42.67
328.518	42.67
328.731	34.47
328.944	61.1
329.157	77.48
329.37	102.06
329.583	157.35
329.796	87.72
330.009	44.71
330.222	77.48
330.435	42.67
330.648	26.28
330.861	100.01
331.073	79.53
331.286	120.49
331.499	44.71
331.712	22.19
331.925	32.43
332.138	48.81
332.35	38.57
332.563	50.86
332.776	83.63
332.989	-4.44
333.202	1.71
333.414	-10.58
333.627	36.52
333.84	13.99
334.053	34.47
334.265	13.99
334.478	83.63
334.691	63.15
334.903	87.72
335.116	-14.68
335.329	36.52
335.541	83.63
335.754	91.82
335.966	40.62
336.179	59.05
336.392	13.99
336.604	91.82
336.817	42.67
337.029	42.67
337.242	77.48
337.454	132.78
337.667	100.01
337.88	110.25
338.092	67.24
338.305	-22.87
338.517	13.99
338.729	59.05
338.942	91.82
339.154	40.62
339.367	34.47
339.579	91.82
339.792	50.86
340.004	-2.39
340.217	-2.39
340.429	59.05
340.641	-72.02
340.854	93.87
341.066	26.28
341.278	63.15
341.491	97.96
341.703	26.28
341.915	9.9
342.128	89.77
342.34	18.09
342.552	28.33
342.764	28.33
342.977	112.3
343.189	-22.87
343.401	93.87
343.613	40.62
343.826	83.63
344.038	-10.58
344.25	16.04
344.462	-22.87
344.674	81.58
344.886	-4.44
345.099	-6.49
345.311	69.29
345.523	61.1
345.735	18.09
345.947	83.63
346.159	52.91
346.371	13.99
346.583	108.2
346.795	116.39
347.007	61.1
347.219	26.28
347.431	77.48
347.643	118.44
347.855	-31.06
348.067	77.48
348.279	69.29
348.491	112.3
348.703	95.91
348.915	22.19
349.127	54.95
349.339	59.05
349.551	50.86
349.763	67.24
349.975	30.38
350.187	87.72
350.399	93.87
350.61	102.06
350.822	67.24
351.034	42.67
351.246	20.14
351.458	36.52
351.669	122.54
351.881	79.53
352.093	7.85
352.305	116.39
352.517	46.76
352.728	28.33
352.94	-31.06
353.152	34.47
353.363	-65.88
353.575	30.38
353.787	85.67
353.999	9.9
354.21	67.24
354.422	36.52
354.633	26.28
354.845	34.47
355.057	112.3
355.268	20.14
355.48	77.48
355.692	67.24
355.903	59.05
356.115	102.06
356.326	-22.87
356.538	102.06
356.749	126.63
356.961	126.63
357.172	36.52
357.384	93.87
357.595	190.12
357.807	42.67
358.018	44.71
358.23	26.28
358.441	112.3
358.653	83.63
358.864	65.19
359.075	36.52
359.287	-18.77
359.498	102.06
359.709	79.53
359.921	69.29
360.132	75.43
360.344	132.78
360.555	-59.73
360.766	-6.49
360.977	42.67
361.189	122.54
361.4	59.05
361.611	34.47
361.823	100.01
362.034	-65.88
362.245	-22.87
362.456	95.91
362.667	77.48
362.879	-20.82
363.09	28.33
363.301	104.11
363.512	75.43
363.723	11.95
363.935	50.86
364.146	91.82
364.357	26.28
364.568	-26.96
364.779	-14.68
364.99	110.25
365.201	-12.63
365.412	54.95
365.623	-10.58
365.834	28.33
366.045	28.33
366.256	157.35
366.467	97.96
366.678	1.71
366.889	79.53
367.1	-22.87
367.311	75.43
367.522	-53.59
367.733	87.72
367.944	44.71
368.155	-12.63
368.366	104.11
368.577	85.67
368.788	34.47
368.999	18.09
369.209	16.04
369.42	69.29
369.631	169.64
369.842	34.47
370.053	-4.44
370.264	54.95
370.474	59.05
370.685	38.57
370.896	11.95
371.107	118.44
371.317	122.54
371.528	65.19
371.739	28.33
371.95	28.33
372.16	24.23
372.371	59.05
372.582	79.53
372.792	100.01
373.003	-6.49
373.214	71.34
373.424	85.67
373.635	95.91
373.846	126.63
374.056	104.11
374.267	77.48
374.477	89.77
374.688	36.52
374.898	91.82
375.109	46.76
375.319	18.09
375.53	100.01
375.74	9.9
375.951	118.44
376.161	63.15
376.372	95.91
376.582	-4.44
376.793	69.29
377.003	38.57
377.214	128.68
377.424	52.91
377.635	91.82
377.845	-2.39
378.055	134.82
378.266	-39.25
378.476	69.29
378.686	30.38
378.897	42.67
379.107	140.97
379.317	59.05
379.528	104.11
379.738	91.82
379.948	11.95
380.158	34.47
380.369	128.68
380.579	-2.39
380.789	100.01
380.999	44.71
381.21	30.38
381.42	134.82
381.63	38.57
381.84	93.87
382.05	85.67
382.261	118.44
382.471	100.01
382.681	59.05
382.891	93.87
383.101	50.86
383.311	34.47
383.521	-6.49
383.731	-31.06
383.941	149.16
384.151	91.82
384.361	32.43
384.571	77.48
384.781	42.67
384.991	69.29
385.201	100.01
385.411	81.58
385.621	95.91
385.831	-4.44
386.041	42.67
386.251	52.91
386.461	34.47
386.671	11.95
386.881	183.98
387.091	42.67
387.301	100.01
387.511	-6.49
387.72	13.99
387.93	112.3
388.14	36.52
388.35	46.76
388.56	91.82
388.769	124.58
388.979	59.05
389.189	-4.44
389.399	100.01
389.609	18.09
389.818	95.91
390.028	149.16
390.238	-61.78
390.447	81.58
390.657	63.15
390.867	42.67
391.076	34.47
391.286	91.82
391.496	85.67
391.705	95.91
391.915	110.25
392.125	147.11
392.334	71.34
392.544	100.01
392.753	100.01
392.963	1.71
393.172	67.24
393.382	50.86
393.591	87.72
393.801	46.76
394.01	87.72
394.22	22.19
394.429	100.01
394.639	100.01
394.848	110.25
395.058	52.91
395.267	-14.68
395.477	136.87
395.686	18.09
395.895	140.97
396.105	124.58
396.314	95.91
396.524	136.87
396.733	95.91
396.942	89.77
397.152	93.87
397.361	93.87
397.57	104.11
397.78	132.78
397.989	108.2
398.198	206.5
398.407	112.3
398.617	36.52
398.826	104.11
399.035	235.18
399.244	140.97
399.453	110.25
399.663	100.01
399.872	118.44
400.081	26.28
400.29	120.49
400.499	59.05
400.708	108.2
400.917	120.49
401.127	102.06
401.336	100.01
401.545	206.5
401.754	179.88
401.963	171.69
402.172	136.87
402.381	108.2
402.59	114.34
402.799	145.06
403.008	190.12
403.217	181.93
403.426	157.35
403.635	104.11
403.844	192.17
404.053	143.02
404.262	122.54
404.471	255.65
404.68	202.41
404.888	173.74
405.097	59.05
405.306	100.01
405.515	161.45
405.724	100.01
405.933	91.82
406.142	192.17
406.35	222.89
406.559	190.12
406.768	226.98
406.977	196.26
407.185	181.93
407.394	183.98
407.603	239.27
407.812	220.84
408.02	321.19
408.229	265.89
408.438	329.38
408.646	265.89
408.855	233.13
409.064	255.65
409.272	249.51
409.481	370.34
409.69	274.09
409.898	263.85
410.107	388.77
410.315	323.24
410.524	290.47
410.733	431.78
410.941	427.68
411.15	460.45
411.358	396.96
411.567	444.07
411.775	431.78
411.984	435.88
412.192	501.41
412.401	425.64
412.609	495.27
412.818	558.75
413.026	542.37
413.234	626.34
413.443	542.37
413.651	509.6
413.86	601.76
414.068	667.3
414.276	685.73
414.485	693.92
414.693	620.19
414.901	800.41
415.11	812.7
415.318	792.22
415.526	898.72
415.734	913.05
415.943	822.94
416.151	913.05
416.359	886.43
416.567	943.77
416.776	1132.19
416.984	1076.89
417.192	1148.57
417.4	1072.79
417.608	1148.57
417.817	1160.86
418.025	1181.34
418.233	1277.59
418.441	1126.04
418.649	1332.89
418.857	1408.66
419.065	1412.76
419.273	1328.79
419.481	1474.2
419.689	1713.81
419.897	1562.26
420.105	1691.28
420.313	1746.58
420.521	1699.47
420.729	1808.02
420.937	1861.26
421.145	1943.18
421.353	1943.18
421.561	2100.87
421.769	2197.13
421.977	2209.42
422.185	2254.47
422.393	2287.24
422.601	2424.45
422.809	2537.09
423.017	2418.31
423.224	2623.11
423.432	2725.51
423.64	2721.41
423.848	2872.96
424.056	2877.05
424.263	3008.12
424.471	3106.43
424.679	3139.19
424.887	3167.87
425.094	3389.05
425.302	3468.92
425.51	3393.14
425.718	3632.76
425.925	3634.8
426.133	3866.22
426.341	4048.49
426.548	4197.99
426.756	4083.31
426.964	4189.8
427.171	4554.34
427.379	4607.59
427.586	4832.86
427.794	4888.16
428.001	5019.23
428.209	5195.36
428.417	5224.03
428.624	5502.55
428.832	5523.03
429.039	5645.91
429.247	5514.84
429.454	6288.97
429.662	6501.96
429.869	6104.65
430.076	6442.57
430.284	6372.94
430.491	6665.8
430.699	6737.48
430.906	6760
431.114	7065.15
431.321	7169.6
431.528	7474.74
431.736	7833.14
431.943	8095.28
432.15	8050.22
432.358	8062.51
432.565	8461.87
432.772	8402.47
432.979	8887.84
433.187	8957.47
433.394	9133.6
433.601	9569.82
433.808	9676.31
434.016	9643.54
434.223	10012.18
434.43	10685.96
434.637	10614.28
434.844	11148.8
435.052	11230.72
435.259	11007.49
435.466	11240.96
435.673	11290.11
435.88	12006.9
436.087	12609
436.294	12498.41
436.501	12172.78
436.708	12250.61
436.915	12832.23
437.122	13600.22
437.329	13387.23
437.537	13811.16
437.743	13952.47
437.95	14153.17
438.157	14634.44
438.364	15373.76
438.571	14931.4
438.778	15220.16
438.985	16481.71
439.192	16061.88
439.399	16483.76
439.606	16092.6
439.813	16842.15
440.02	17784.22
440.227	17675.68
440.433	17450.4
440.64	18228.63
440.847	17773.98
441.054	18566.54
441.261	19357.06
441.467	19457.41
441.674	19580.29
441.881	20634.99
442.088	20149.62
442.294	20229.49
442.501	20669.81
442.708	21069.16
442.914	22142.3
443.121	22752.59
443.328	22199.64
443.534	23987.52
443.741	23366.98
443.948	22783.31
444.154	24669.49
444.361	24499.51
444.568	24380.73
444.774	24438.07
444.981	24622.39
445.187	25511.21
445.394	26787.09
445.6	26225.95
445.807	28878.07
446.013	27327.75
446.22	28155.13
446.426	28923.12
446.633	29132.01
446.839	30082.27
447.046	28968.18
447.252	30577.88
447.459	30823.64
447.665	30596.31
447.871	31947.97
448.078	33215.66
448.284	31710.41
448.491	32480.44
448.697	33674.41
448.903	34190.5
449.11	34327.71
449.316	34041
449.522	34374.81
449.728	35212.43
449.935	35556.49
450.141	35918.98
450.347	36443.26
450.553	35241.1
450.76	35685.51
450.966	36719.74
451.172	36336.77
451.378	37547.12
451.584	36605.05
451.791	37647.47
451.997	37153.91
452.203	37792.87
452.409	37706.86
452.615	37487.73
452.821	36265.09
453.027	36189.31
453.233	37747.82
453.44	36533.37
453.646	36922.49
453.852	37282.93
454.058	37303.41
454.264	36197.51
454.47	36873.34
454.676	36000.9
454.882	37442.67
455.088	34098.34
455.294	34464.92
455.5	35095.7
455.705	35370.13
455.911	33944.74
456.117	33135.79
456.323	32560.31
456.529	31225.04
456.735	32437.44
456.941	31669.45
457.147	31120.59
457.352	30229.73
457.558	29840.61
457.764	30024.93
457.97	29275.37
458.176	28343.55
458.381	28601.59
458.587	27227.4
458.793	27436.3
458.999	25484.58
459.204	27436.3
459.41	26887.44
459.616	25060.65
459.821	24743.22
460.027	24868.14
460.233	24466.74
460.438	23135.56
460.644	23319.88
460.85	22572.37
461.055	22123.87
461.261	21769.57
461.466	20471.15
461.672	19576.19
461.878	20950.38
462.083	19983.74
462.289	19484.03
462.494	19146.12
462.7	18101.65
462.905	17771.93
463.111	18568.59
463.316	18374.03
463.522	18103.7
463.727	17829.27
463.932	18040.22
464.138	17712.54
464.343	17939.86
464.549	17196.45
464.754	17855.9
464.959	17444.26
465.165	17511.84
465.37	16801.19
465.575	16178.61
465.781	17145.25
465.986	17124.77
466.191	16491.95
466.397	16238
466.602	15271.36
