Data from USB4F104151__212__14-33-31-871.txt Node

Date: Thu Mar 13 14:33:31 EDT 2025
User: louis
Spectrometer: USB4F10415
Trigger mode: 4
Integration Time (sec): 2.500000E-2
Scans to average: 1
Electric dark correction enabled: true
Nonlinearity correction enabled: false
Boxcar width: 0
XAxis mode: Wavelengths
Number of Pixels in Spectrum: 3648
>>>>>Begin Spectral Data<<<<<
178.204	-113.83
178.424	-113.83
178.644	-113.83
178.864	-162.98
179.084	-122.02
179.304	-31.91
179.524	84.82
179.744	-54.44
179.964	43.86
180.184	11.09
180.404	-21.67
180.624	-11.43
180.844	-42.15
181.064	-44.2
181.283	9.05
181.503	25.43
181.723	31.57
181.943	2.9
182.163	123.73
182.383	58.2
182.602	33.62
182.822	-1.19
183.042	117.59
183.262	0.85
183.482	33.62
183.701	54.1
183.921	80.72
184.141	-5.29
184.361	62.29
184.58	35.67
184.8	58.2
185.02	66.39
185.239	35.67
185.459	4.95
185.679	9.05
185.898	21.33
186.118	74.58
186.338	66.39
186.557	50
186.777	19.29
186.997	58.2
187.216	-21.67
187.436	125.78
187.655	70.48
187.875	17.24
188.095	50
188.314	97.11
188.534	86.87
188.753	45.91
188.973	17.24
189.192	74.58
189.412	117.59
189.631	58.2
189.851	43.86
190.07	76.63
190.29	-13.48
190.509	2.9
190.729	56.15
190.948	66.39
191.168	217.94
191.387	-25.77
191.607	-13.48
191.826	15.19
192.045	50
192.265	58.2
192.484	52.05
192.704	66.39
192.923	41.81
193.142	183.12
193.362	84.82
193.581	136.02
193.8	21.33
194.02	168.79
194.239	109.4
194.458	13.14
194.678	60.24
194.897	43.86
195.116	50
195.335	-7.34
195.555	52.05
195.774	95.06
195.993	74.58
196.212	52.05
196.432	-13.48
196.651	54.1
196.87	-54.44
197.089	150.36
197.308	-3.24
197.528	66.39
197.747	-101.55
197.966	86.87
198.185	183.12
198.404	99.16
198.623	4.95
198.842	176.98
199.062	74.58
199.281	78.68
199.5	-9.39
199.719	84.82
199.938	62.29
200.157	54.1
200.376	78.68
200.595	129.88
200.814	39.76
201.033	33.62
201.252	119.64
201.471	33.62
201.69	52.05
201.909	84.82
202.128	99.16
202.347	117.59
202.566	82.77
202.785	52.05
203.004	19.29
203.223	131.92
203.442	35.67
203.661	-31.91
203.879	45.91
204.098	123.73
204.317	84.82
204.536	27.48
204.755	-11.43
204.974	45.91
205.193	127.83
205.411	127.83
205.63	25.43
205.849	54.1
206.068	2.9
206.287	121.68
206.505	13.14
206.724	56.15
206.943	13.14
207.162	4.95
207.381	56.15
207.599	115.54
207.818	41.81
208.037	31.57
208.255	41.81
208.474	11.09
208.693	50
208.911	66.39
209.13	27.48
209.349	99.16
209.567	-11.43
209.786	90.96
210.005	27.48
210.223	66.39
210.442	58.2
210.661	52.05
210.879	80.72
211.098	15.19
211.316	113.49
211.535	41.81
211.753	29.52
211.972	58.2
212.191	-3.24
212.409	-21.67
212.628	72.53
212.846	74.58
213.065	41.81
213.283	90.96
213.502	0.85
213.72	80.72
213.938	150.36
214.157	74.58
214.375	41.81
214.594	19.29
214.812	74.58
215.031	33.62
215.249	-3.24
215.467	50
215.686	15.19
215.904	35.67
216.122	27.48
216.341	-13.48
216.559	62.29
216.778	74.58
216.996	50
217.214	23.38
217.432	62.29
217.651	21.33
217.869	95.06
218.087	-7.34
218.306	9.05
218.524	13.14
218.742	-15.53
218.96	90.96
219.179	76.63
219.397	82.77
219.615	103.25
219.833	52.05
220.051	41.81
220.27	90.96
220.488	21.33
220.706	123.73
220.924	-3.24
221.142	-19.63
221.36	27.48
221.578	66.39
221.796	54.1
222.015	-1.19
222.233	99.16
222.451	131.92
222.669	33.62
222.887	99.16
223.105	66.39
223.323	84.82
223.541	21.33
223.759	127.83
223.977	35.67
224.195	74.58
224.413	58.2
224.631	70.48
224.849	17.24
225.067	82.77
225.285	-5.29
225.503	2.9
225.721	-3.24
225.939	39.76
226.157	74.58
226.375	144.21
226.592	23.38
226.81	68.44
227.028	76.63
227.246	117.59
227.464	56.15
227.682	56.15
227.9	86.87
228.117	11.09
228.335	50
228.553	9.05
228.771	-23.72
228.989	35.67
229.206	86.87
229.424	70.48
229.642	-85.16
229.86	-23.72
230.077	70.48
230.295	21.33
230.513	107.35
230.731	156.5
230.948	80.72
231.166	68.44
231.384	35.67
231.601	25.43
231.819	117.59
232.037	54.1
232.254	-11.43
232.472	70.48
232.689	140.12
232.907	82.77
233.125	33.62
233.342	25.43
233.56	21.33
233.777	68.44
233.995	107.35
234.213	76.63
234.43	93.01
234.648	2.9
234.865	27.48
235.083	68.44
235.3	17.24
235.518	68.44
235.735	68.44
235.953	74.58
236.17	58.2
236.388	35.67
236.605	37.72
236.822	115.54
237.04	54.1
237.257	66.39
237.475	-36.01
237.692	93.01
237.909	70.48
238.127	41.81
238.344	103.25
238.562	74.58
238.779	52.05
238.996	54.1
239.214	29.52
239.431	23.38
239.648	90.96
239.865	103.25
240.083	60.24
240.3	107.35
240.517	41.81
240.735	62.29
240.952	119.64
241.169	50
241.386	25.43
241.603	72.53
241.821	35.67
242.038	27.48
242.255	74.58
242.472	47.96
242.689	86.87
242.907	39.76
243.124	17.24
243.341	-13.48
243.558	140.12
243.775	25.43
243.992	-19.63
244.209	56.15
244.426	90.96
244.643	78.68
244.86	-7.34
245.078	127.83
245.295	58.2
245.512	111.44
245.729	-27.82
245.946	84.82
246.163	99.16
246.38	-19.63
246.597	64.34
246.814	90.96
247.031	150.36
247.248	90.96
247.464	78.68
247.681	9.05
247.898	93.01
248.115	62.29
248.332	4.95
248.549	115.54
248.766	119.64
248.983	101.2
249.2	115.54
249.417	50
249.633	2.9
249.85	54.1
250.067	29.52
250.284	19.29
250.501	119.64
250.717	125.78
250.934	0.85
251.151	-15.53
251.368	121.68
251.585	68.44
251.801	80.72
252.018	-70.83
252.235	50
252.451	41.81
252.668	76.63
252.885	90.96
253.102	70.48
253.318	-5.29
253.535	-7.34
253.752	82.77
253.968	54.1
254.185	-23.72
254.401	58.2
254.618	15.19
254.835	33.62
255.051	148.31
255.268	62.29
255.484	45.91
255.701	-40.11
255.917	82.77
256.134	17.24
256.351	62.29
256.567	13.14
256.784	50
257	-19.63
257.217	99.16
257.433	146.26
257.65	78.68
257.866	84.82
258.082	4.95
258.299	0.85
258.515	54.1
258.732	2.9
258.948	33.62
259.165	54.1
259.381	21.33
259.597	54.1
259.814	64.34
260.03	123.73
260.246	109.4
260.463	19.29
260.679	-7.34
260.895	95.06
261.112	29.52
261.328	54.1
261.544	11.09
261.761	90.96
261.977	121.68
262.193	19.29
262.409	21.33
262.626	66.39
262.842	82.77
263.058	17.24
263.274	66.39
263.49	68.44
263.707	76.63
263.923	172.88
264.139	13.14
264.355	31.57
264.571	99.16
264.787	0.85
265.004	117.59
265.22	37.72
265.436	29.52
265.652	90.96
265.868	43.86
266.084	21.33
266.3	115.54
266.516	70.48
266.732	33.62
266.948	54.1
267.164	64.34
267.38	99.16
267.596	27.48
267.812	72.53
268.028	101.2
268.244	41.81
268.46	68.44
268.676	-79.02
268.892	39.76
269.108	-11.43
269.324	17.24
269.54	-40.11
269.756	-13.48
269.972	29.52
270.188	58.2
270.403	2.9
270.619	60.24
270.835	45.91
271.051	84.82
271.267	68.44
271.483	27.48
271.698	156.5
271.914	68.44
272.13	70.48
272.346	43.86
272.562	25.43
272.777	133.97
272.993	35.67
273.209	21.33
273.425	-3.24
273.64	76.63
273.856	152.4
274.072	66.39
274.287	31.57
274.503	82.77
274.719	93.01
274.934	60.24
275.15	29.52
275.366	33.62
275.581	70.48
275.797	70.48
276.012	82.77
276.228	133.97
276.444	11.09
276.659	74.58
276.875	35.67
277.09	41.81
277.306	84.82
277.521	115.54
277.737	31.57
277.952	88.92
278.168	64.34
278.383	95.06
278.599	17.24
278.814	62.29
279.03	80.72
279.245	103.25
279.461	17.24
279.676	74.58
279.892	-27.82
280.107	9.05
280.322	-1.19
280.538	78.68
280.753	4.95
280.969	39.76
281.184	101.2
281.399	123.73
281.615	82.77
281.83	50
282.045	15.19
282.26	41.81
282.476	29.52
282.691	50
282.906	99.16
283.122	25.43
283.337	35.67
283.552	41.81
283.767	72.53
283.983	41.81
284.198	86.87
284.413	58.2
284.628	17.24
284.843	103.25
285.058	123.73
285.274	45.91
285.489	47.96
285.704	140.12
285.919	41.81
286.134	27.48
286.349	58.2
286.564	25.43
286.779	45.91
286.995	52.05
287.21	17.24
287.425	82.77
287.64	76.63
287.855	50
288.07	-48.3
288.285	156.5
288.5	52.05
288.715	58.2
288.93	76.63
289.145	68.44
289.36	78.68
289.575	19.29
289.79	11.09
290.004	86.87
290.219	131.92
290.434	99.16
290.649	54.1
290.864	41.81
291.079	54.1
291.294	29.52
291.509	54.1
291.724	4.95
291.938	25.43
292.153	80.72
292.368	45.91
292.583	58.2
292.798	148.31
293.012	-7.34
293.227	21.33
293.442	82.77
293.657	95.06
293.871	242.51
294.086	17.24
294.301	127.83
294.516	78.68
294.73	62.29
294.945	54.1
295.16	70.48
295.374	58.2
295.589	66.39
295.804	90.96
296.018	64.34
296.233	148.31
296.447	107.35
296.662	62.29
296.877	72.53
297.091	37.72
297.306	115.54
297.52	123.73
297.735	115.54
297.949	4.95
298.164	103.25
298.378	103.25
298.593	90.96
298.807	-46.25
299.022	99.16
299.236	107.35
299.451	43.86
299.665	29.52
299.88	131.92
300.094	52.05
300.309	35.67
300.523	-5.29
300.737	47.96
300.952	19.29
301.166	127.83
301.381	27.48
301.595	43.86
301.809	82.77
302.024	19.29
302.238	43.86
302.452	68.44
302.667	82.77
302.881	136.02
303.095	82.77
303.309	-46.25
303.524	45.91
303.738	101.2
303.952	119.64
304.166	74.58
304.381	-56.49
304.595	123.73
304.809	19.29
305.023	90.96
305.237	0.85
305.452	35.67
305.666	133.97
305.88	129.88
306.094	90.96
306.308	133.97
306.522	93.01
306.736	109.4
306.95	35.67
307.164	33.62
307.379	0.85
307.593	76.63
307.807	41.81
308.021	93.01
308.235	70.48
308.449	136.02
308.663	131.92
308.877	99.16
309.091	64.34
309.305	123.73
309.519	-7.34
309.733	52.05
309.947	9.05
310.161	35.67
310.374	60.24
310.588	131.92
310.802	-5.29
311.016	152.4
311.23	50
311.444	4.95
311.658	125.78
311.872	115.54
312.085	84.82
312.299	50
312.513	115.54
312.727	29.52
312.941	37.72
313.154	60.24
313.368	45.91
313.582	82.77
313.796	0.85
314.009	60.24
314.223	181.07
314.437	115.54
314.651	62.29
314.864	90.96
315.078	58.2
315.292	25.43
315.505	50
315.719	-1.19
315.933	74.58
316.146	58.2
316.36	2.9
316.573	19.29
316.787	109.4
317.001	66.39
317.214	9.05
317.428	50
317.641	25.43
317.855	90.96
318.068	99.16
318.282	58.2
318.495	74.58
318.709	54.1
318.922	-5.29
319.136	72.53
319.349	90.96
319.563	41.81
319.776	111.44
319.99	109.4
320.203	133.97
320.417	62.29
320.63	4.95
320.843	105.3
321.057	58.2
321.27	66.39
321.483	50
321.697	127.83
321.91	50
322.124	41.81
322.337	84.82
322.55	9.05
322.763	43.86
322.977	107.35
323.19	9.05
323.403	33.62
323.617	60.24
323.83	156.5
324.043	125.78
324.256	25.43
324.469	7
324.683	58.2
324.896	103.25
325.109	90.96
325.322	-7.34
325.535	127.83
325.748	-27.82
325.962	136.02
326.175	76.63
326.388	43.86
326.601	76.63
326.814	90.96
327.027	66.39
327.24	189.27
327.453	-21.67
327.666	84.82
327.879	37.72
328.092	123.73
328.305	25.43
328.518	-5.29
328.731	99.16
328.944	54.1
329.157	4.95
329.37	17.24
329.583	111.44
329.796	115.54
330.009	-23.72
330.222	84.82
330.435	50
330.648	140.12
330.861	50
331.073	90.96
331.286	93.01
331.499	131.92
331.712	-21.67
331.925	66.39
332.138	17.24
332.35	115.54
332.563	115.54
332.776	74.58
332.989	66.39
333.202	125.78
333.414	17.24
333.627	54.1
333.84	19.29
334.053	58.2
334.265	19.29
334.478	66.39
334.691	70.48
334.903	62.29
335.116	37.72
335.329	97.11
335.541	103.25
335.754	109.4
335.966	41.81
336.179	76.63
336.392	35.67
336.604	27.48
336.817	127.83
337.029	80.72
337.242	-44.2
337.454	54.1
337.667	99.16
337.88	103.25
338.092	78.68
338.305	39.76
338.517	84.82
338.729	21.33
338.942	127.83
339.154	97.11
339.367	68.44
339.579	119.64
339.792	66.39
340.004	66.39
340.217	25.43
340.429	107.35
340.641	86.87
340.854	41.81
341.066	21.33
341.278	101.2
341.491	35.67
341.703	82.77
341.915	58.2
342.128	107.35
342.34	-27.82
342.552	-7.34
342.764	76.63
342.977	74.58
343.189	84.82
343.401	29.52
343.613	-13.48
343.826	84.82
344.038	66.39
344.25	90.96
344.462	99.16
344.674	90.96
344.886	50
345.099	80.72
345.311	84.82
345.523	86.87
345.735	2.9
345.947	72.53
346.159	125.78
346.371	66.39
346.583	43.86
346.795	144.21
347.007	45.91
347.219	68.44
347.431	93.01
347.643	66.39
347.855	13.14
348.067	127.83
348.279	25.43
348.491	101.2
348.703	31.57
348.915	84.82
349.127	129.88
349.339	66.39
349.551	-21.67
349.763	105.3
349.975	4.95
350.187	88.92
350.399	99.16
350.61	142.16
350.822	156.5
351.034	125.78
351.246	72.53
351.458	66.39
351.669	113.49
351.881	113.49
352.093	146.26
352.305	201.55
352.517	66.39
352.728	64.34
352.94	35.67
353.152	181.07
353.363	80.72
353.575	103.25
353.787	115.54
353.999	43.86
354.21	199.51
354.422	78.68
354.633	166.74
354.845	111.44
355.057	115.54
355.268	103.25
355.48	136.02
355.692	25.43
355.903	29.52
356.115	101.2
356.326	86.87
356.538	109.4
356.749	58.2
356.961	111.44
357.172	121.68
357.384	43.86
357.595	86.87
357.807	93.01
358.018	84.82
358.23	84.82
358.441	152.4
358.653	107.35
358.864	50
359.075	74.58
359.287	76.63
359.498	60.24
359.709	-19.63
359.921	82.77
360.132	52.05
360.344	29.52
360.555	97.11
360.766	82.77
360.977	101.2
361.189	176.98
361.4	78.68
361.611	107.35
361.823	86.87
362.034	142.16
362.245	56.15
362.456	117.59
362.667	101.2
362.879	37.72
363.09	27.48
363.301	45.91
363.512	86.87
363.723	156.5
363.935	88.92
364.146	52.05
364.357	107.35
364.568	82.77
364.779	35.67
364.99	74.58
365.201	41.81
365.412	111.44
365.623	7
365.834	109.4
366.045	148.31
366.256	123.73
366.467	101.2
366.678	101.2
366.889	43.86
367.1	86.87
367.311	99.16
367.522	0.85
367.733	105.3
367.944	156.5
368.155	58.2
368.366	99.16
368.577	62.29
368.788	193.36
368.999	68.44
369.209	60.24
369.42	125.78
369.631	246.61
369.842	99.16
370.053	66.39
370.264	15.19
370.474	29.52
370.685	115.54
370.896	111.44
371.107	158.55
371.317	131.92
371.528	54.1
371.739	123.73
371.95	84.82
372.16	144.21
372.371	41.81
372.582	144.21
372.792	97.11
373.003	107.35
373.214	111.44
373.424	74.58
373.635	33.62
373.846	113.49
374.056	131.92
374.267	103.25
374.477	93.01
374.688	29.52
374.898	64.34
375.109	56.15
375.319	142.16
375.53	21.33
375.74	68.44
375.951	19.29
376.161	156.5
376.372	115.54
376.582	17.24
376.793	43.86
377.003	52.05
377.214	68.44
377.424	140.12
377.635	50
377.845	41.81
378.055	31.57
378.266	54.1
378.476	50
378.686	86.87
378.897	136.02
379.107	-7.34
379.317	35.67
379.528	50
379.738	166.74
379.948	2.9
380.158	93.01
380.369	82.77
380.579	199.51
380.789	52.05
380.999	119.64
381.21	170.83
381.42	101.2
381.63	95.06
381.84	136.02
382.05	66.39
382.261	95.06
382.471	82.77
382.681	125.78
382.891	109.4
383.101	99.16
383.311	95.06
383.521	33.62
383.731	66.39
383.941	76.63
384.151	52.05
384.361	27.48
384.571	101.2
384.781	144.21
384.991	166.74
385.201	119.64
385.411	166.74
385.621	119.64
385.831	0.85
386.041	45.91
386.251	74.58
386.461	111.44
386.671	176.98
386.881	127.83
387.091	41.81
387.301	115.54
387.511	29.52
387.72	125.78
387.93	52.05
388.14	109.4
388.35	62.29
388.56	72.53
388.769	99.16
388.979	115.54
389.189	33.62
389.399	25.43
389.609	107.35
389.818	101.2
390.028	60.24
390.238	115.54
390.447	50
390.657	156.5
390.867	109.4
391.076	93.01
391.286	119.64
391.496	58.2
391.705	82.77
391.915	86.87
392.125	148.31
392.334	84.82
392.544	136.02
392.753	115.54
392.963	84.82
393.172	62.29
393.382	54.1
393.591	179.03
393.801	56.15
394.01	93.01
394.22	119.64
394.429	107.35
394.639	142.16
394.848	107.35
395.058	66.39
395.267	172.88
395.477	164.69
395.686	150.36
395.895	197.46
396.105	82.77
396.314	74.58
396.524	39.76
396.733	174.93
396.942	258.9
397.152	131.92
397.361	158.55
397.57	164.69
397.78	166.74
397.989	191.31
398.198	332.62
398.407	105.3
398.617	189.27
398.826	156.5
399.035	125.78
399.244	207.7
399.453	205.65
399.663	131.92
399.872	136.02
400.081	142.16
400.29	174.93
400.499	150.36
400.708	234.32
400.917	142.16
401.127	148.31
401.336	160.59
401.545	162.64
401.754	133.97
401.963	240.47
402.172	172.88
402.381	226.13
402.59	47.96
402.799	193.36
403.008	142.16
403.217	133.97
403.426	179.03
403.635	176.98
403.844	131.92
404.053	209.75
404.262	199.51
404.471	265.04
404.68	232.27
404.888	189.27
405.097	256.85
405.306	168.79
405.515	222.03
405.724	250.71
405.933	232.27
406.142	213.84
406.35	262.99
406.559	346.96
406.768	265.04
406.977	287.57
407.185	306
407.394	363.34
407.603	222.03
407.812	322.38
408.02	301.9
408.229	287.57
408.438	308.05
408.646	342.86
408.855	389.97
409.064	394.06
409.272	426.83
409.481	281.43
409.69	312.14
409.898	318.29
410.107	365.39
410.315	467.79
410.524	473.93
410.733	475.98
410.941	445.26
411.15	363.34
411.358	500.56
411.567	549.71
411.775	570.19
411.984	510.8
412.192	506.7
412.401	588.62
412.609	684.87
412.818	656.2
413.026	650.06
413.234	711.5
413.443	691.02
413.651	680.78
413.86	758.6
414.068	764.75
414.276	813.9
414.485	781.13
414.693	848.71
414.901	928.58
415.11	901.96
415.318	949.06
415.526	1098.56
415.734	994.12
415.943	992.07
416.151	1069.89
416.359	1090.37
416.567	1123.14
416.776	1207.11
416.984	1280.83
417.192	1379.14
417.4	1344.32
417.608	1254.21
417.817	1270.59
418.025	1420.1
418.233	1569.6
418.441	1442.62
418.649	1686.33
418.857	1688.38
419.065	1901.37
419.273	1639.23
419.481	1794.87
419.689	1866.55
419.897	1878.84
420.105	2014.01
420.313	2059.06
420.521	1995.57
420.729	2100.02
420.937	2163.51
421.145	2157.36
421.353	2263.86
421.561	2476.85
421.769	2566.96
421.977	2695.98
422.185	2640.69
422.393	2710.32
422.601	2966.31
422.809	2929.45
423.017	2994.98
423.224	3117.86
423.432	3156.77
423.64	3296.04
423.848	3640.09
424.056	3384.1
424.263	3689.25
424.471	3752.73
424.679	3685.15
424.887	3924.76
425.094	4115.22
425.302	4277.01
425.51	4287.25
425.718	4336.4
425.925	4561.68
426.133	4635.41
426.341	4770.57
426.548	4997.9
426.756	5171.97
426.964	5305.09
427.171	5438.21
427.379	5573.38
427.586	5645.06
427.794	5636.86
428.001	6038.27
428.209	6234.87
428.417	6251.25
428.624	6507.25
428.832	6652.66
429.039	6564.59
429.247	6546.16
429.454	7183.08
429.662	7594.72
429.869	7224.04
430.076	7799.52
430.284	7539.43
430.491	7791.33
430.699	8106.71
430.906	8297.17
431.114	8266.46
431.321	8630.99
431.528	8864.46
431.736	9235.14
431.943	9972.41
432.15	9446.09
432.358	9552.58
432.565	10207.93
432.772	9921.21
432.979	10701.49
433.187	10863.28
433.394	10801.84
433.601	11629.22
433.808	11631.27
434.016	11492.01
434.223	11864.74
434.43	12804.75
434.637	12593.81
434.844	13167.24
435.052	13392.52
435.259	13658.76
435.466	13367.95
435.673	13460.1
435.88	14336.63
436.087	15174.25
436.294	15186.54
436.501	14555.77
436.708	14811.76
436.915	15491.69
437.122	16097.89
437.329	16353.88
437.537	16513.63
437.743	16994.9
437.95	16691.8
438.157	17750.6
438.364	18006.59
438.571	18084.42
438.778	18219.58
438.985	19782.18
439.192	19130.93
439.399	19845.67
439.606	19255.86
439.813	20374.05
440.02	21598.73
440.227	21088.79
440.433	20990.49
440.64	21975.56
440.847	21572.11
441.054	21983.75
441.261	23798.25
441.467	23120.37
441.674	23458.29
441.881	24340.96
442.088	24338.91
442.294	24306.15
442.501	24592.86
442.708	25180.63
442.914	26241.48
443.121	27404.72
443.328	26452.42
443.534	28111.27
443.741	27609.52
443.948	26878.4
444.154	29276.57
444.361	29092.25
444.568	29251.99
444.774	29254.04
444.981	29440.4
445.187	30327.17
445.394	31637.87
445.6	31392.12
445.807	34171.21
446.013	32606.56
446.22	33208.67
446.426	34904.38
446.633	34963.78
446.839	35682.61
447.046	34623.81
447.252	36167.98
447.459	36219.18
447.665	36274.48
447.871	37847.32
448.078	39563.51
448.284	37900.56
448.491	38623.5
448.697	40143.09
448.903	40915.17
449.11	41136.35
449.316	40382.7
449.522	41105.63
449.728	42162.39
449.935	42592.46
450.141	42709.19
450.347	43186.37
450.553	42389.71
450.76	42641.61
450.966	43925.69
451.172	43180.23
451.378	44685.48
451.584	43628.73
451.791	44798.12
451.997	44640.43
452.203	45729.95
452.409	45430.94
452.615	45375.65
452.821	43374.78
453.027	43247.81
453.233	45539.49
453.44	43360.45
453.646	43792.57
453.852	43913.4
454.058	44986.53
454.264	43434.17
454.47	44890.28
454.676	43466.94
454.882	45029.54
455.088	41277.66
455.294	41679.07
455.5	42344.66
455.705	42635.47
455.911	40970.47
456.117	40507.63
456.323	39672.06
456.529	38271.25
456.735	39432.44
456.941	38603.02
457.147	37978.39
457.352	36702.5
457.558	36153.65
457.764	36104.49
457.97	35676.47
458.176	35010.88
458.381	34961.73
458.587	33313.11
458.793	32819.55
458.999	31336.82
459.204	33929.55
459.41	32663.91
459.616	30865.79
459.821	30642.56
460.027	30505.35
460.233	29602.19
460.438	28258.73
460.644	28619.17
460.85	27212.21
461.055	26716.61
461.261	26679.74
461.466	24875.48
461.672	24277.47
461.878	26159.56
462.083	24146.4
462.289	23740.91
462.494	23116.28
462.7	22174.21
462.905	21809.67
463.111	22305.28
463.316	22501.89
463.522	21930.5
463.727	21969.41
463.932	21856.78
464.138	21565.96
464.343	21678.6
464.549	21006.87
464.754	21684.75
464.959	21375.5
465.165	21236.24
465.37	20353.57
465.575	19722.79
465.781	20623.9
465.986	20668.95
466.191	19833.38
466.397	19739.18
466.602	18436.67
466.807	19278.38
467.012	19337.77
