Data from USB4F104151__193__14-33-06-154.txt Node

Date: Thu Mar 13 14:33:06 EDT 2025
User: louis
Spectrometer: USB4F10415
Trigger mode: 4
Integration Time (sec): 2.500000E-2
Scans to average: 1
Electric dark correction enabled: true
Nonlinearity correction enabled: false
Boxcar width: 0
XAxis mode: Wavelengths
Number of Pixels in Spectrum: 3648
>>>>>Begin Spectral Data<<<<<
178.204	-95.74
178.424	-95.74
178.644	-95.74
178.864	-101.89
179.084	-103.93
179.304	-13.82
179.524	-38.4
179.744	0.51
179.964	37.38
180.184	-22.02
180.404	49.66
180.624	-7.68
180.844	41.47
181.064	-120.32
181.283	14.85
181.503	59.9
181.723	-1.54
181.943	-19.97
182.163	147.97
182.383	0.51
182.602	16.9
182.822	92.67
183.042	92.67
183.262	-48.64
183.482	107.01
183.701	82.43
183.921	27.14
184.141	8.7
184.361	35.33
184.58	61.95
184.8	57.86
185.02	4.61
185.239	111.1
185.459	16.9
185.679	96.77
185.898	-54.78
186.118	66.05
186.338	51.71
186.557	145.92
186.777	2.56
186.997	80.38
187.216	74.24
187.436	117.25
187.655	43.52
187.875	147.97
188.095	-36.35
188.314	39.42
188.534	123.39
188.753	33.28
188.973	61.95
189.192	104.96
189.412	72.19
189.631	94.72
189.851	29.18
190.07	152.06
190.29	-5.63
190.509	-48.64
190.729	33.28
190.948	41.47
191.168	201.21
191.387	131.58
191.607	41.47
191.826	78.33
192.045	18.94
192.265	8.7
192.484	53.76
192.704	45.57
192.923	41.47
193.142	68.09
193.362	100.86
193.581	61.95
193.8	86.53
194.02	61.95
194.239	23.04
194.458	94.72
194.678	27.14
194.897	-22.02
195.116	27.14
195.335	123.39
195.555	66.05
195.774	41.47
195.993	98.81
196.212	18.94
196.432	37.38
196.651	90.62
196.87	107.01
197.089	156.16
197.308	29.18
197.528	98.81
197.747	-5.63
197.966	57.86
198.185	113.15
198.404	27.14
198.623	41.47
198.842	123.39
199.062	55.81
199.281	156.16
199.5	12.8
199.719	125.44
199.938	10.75
200.157	86.53
200.376	51.71
200.595	37.38
200.814	61.95
201.033	16.9
201.252	49.66
201.471	-15.87
201.69	70.14
201.909	84.48
202.128	90.62
202.347	14.85
202.566	33.28
202.785	35.33
203.004	0.51
203.223	139.77
203.442	88.57
203.661	68.09
203.879	90.62
204.098	133.63
204.317	27.14
204.536	78.33
204.755	41.47
204.974	37.38
205.193	41.47
205.411	100.86
205.63	51.71
205.849	49.66
206.068	49.66
206.287	74.24
206.505	109.05
206.724	84.48
206.943	18.94
207.162	90.62
207.381	-9.73
207.599	61.95
207.818	57.86
208.037	66.05
208.255	25.09
208.474	143.87
208.693	80.38
208.911	0.51
209.13	76.29
209.349	84.48
209.567	76.29
209.786	70.14
210.005	74.24
210.223	51.71
210.442	-26.11
210.661	109.05
210.879	35.33
211.098	90.62
211.316	59.9
211.535	66.05
211.753	2.56
211.972	102.91
212.191	31.23
212.409	82.43
212.628	53.76
212.846	80.38
213.065	70.14
213.283	78.33
213.502	129.53
213.72	37.38
213.938	49.66
214.157	16.9
214.375	45.57
214.594	45.57
214.812	113.15
215.031	-24.06
215.249	-15.87
215.467	53.76
215.686	51.71
215.904	117.25
216.122	47.62
216.341	96.77
216.559	49.66
216.778	33.28
216.996	51.71
217.214	37.38
217.432	10.75
217.651	25.09
217.869	0.51
218.087	33.28
218.306	37.38
218.524	59.9
218.742	33.28
218.96	55.81
219.179	109.05
219.397	37.38
219.615	18.94
219.833	25.09
220.051	33.28
220.27	82.43
220.488	66.05
220.706	27.14
220.924	41.47
221.142	12.8
221.36	37.38
221.578	-15.87
221.796	-5.63
222.015	59.9
222.233	-13.82
222.451	68.09
222.669	66.05
222.887	113.15
223.105	-5.63
223.323	51.71
223.541	47.62
223.759	98.81
223.977	6.66
224.195	107.01
224.413	29.18
224.631	78.33
224.849	84.48
225.067	49.66
225.285	-5.63
225.503	72.19
225.721	66.05
225.939	117.25
226.157	82.43
226.375	184.83
226.592	49.66
226.81	70.14
227.028	100.86
227.246	84.48
227.464	16.9
227.682	-22.02
227.9	66.05
228.117	119.29
228.335	-19.97
228.553	78.33
228.771	55.81
228.989	82.43
229.206	47.62
229.424	72.19
229.642	57.86
229.86	25.09
230.077	82.43
230.295	41.47
230.513	51.71
230.731	74.24
230.948	109.05
231.166	90.62
231.384	8.7
231.601	45.57
231.819	80.38
232.037	-24.06
232.254	4.61
232.472	37.38
232.689	84.48
232.907	82.43
233.125	49.66
233.342	66.05
233.56	20.99
233.777	121.34
233.995	68.09
234.213	141.82
234.43	90.62
234.648	6.66
234.865	-38.4
235.083	43.52
235.3	25.09
235.518	59.9
235.735	84.48
235.953	98.81
236.17	135.68
236.388	53.76
236.605	33.28
236.822	80.38
237.04	12.8
237.257	18.94
237.475	-13.82
237.692	98.81
237.909	49.66
238.127	18.94
238.344	-22.02
238.562	57.86
238.779	27.14
238.996	2.56
239.214	8.7
239.431	111.1
239.648	41.47
239.865	131.58
240.083	41.47
240.3	88.57
240.517	37.38
240.735	18.94
240.952	74.24
241.169	0.51
241.386	66.05
241.603	43.52
241.821	4.61
242.038	47.62
242.255	115.2
242.472	78.33
242.689	68.09
242.907	70.14
243.124	10.75
243.341	57.86
243.558	90.62
243.775	16.9
243.992	8.7
244.209	25.09
244.426	68.09
244.643	74.24
244.86	51.71
245.078	29.18
245.295	70.14
245.512	-13.82
245.729	109.05
245.946	90.62
246.163	51.71
246.38	41.47
246.597	70.14
246.814	16.9
247.031	68.09
247.248	107.01
247.464	45.57
247.681	66.05
247.898	27.14
248.115	90.62
248.332	57.86
248.549	94.72
248.766	37.38
248.983	104.96
249.2	-28.16
249.417	82.43
249.633	29.18
249.85	70.14
250.067	29.18
250.284	90.62
250.501	33.28
250.717	70.14
250.934	-7.68
251.151	70.14
251.368	90.62
251.585	90.62
251.801	27.14
252.018	53.76
252.235	-5.63
252.451	86.53
252.668	74.24
252.885	74.24
253.102	119.29
253.318	92.67
253.535	90.62
253.752	100.86
253.968	8.7
254.185	84.48
254.401	37.38
254.618	59.9
254.835	37.38
255.051	123.39
255.268	82.43
255.484	111.1
255.701	8.7
255.917	-19.97
256.134	29.18
256.351	45.57
256.567	-48.64
256.784	92.67
257	25.09
257.217	57.86
257.433	35.33
257.65	94.72
257.866	98.81
258.082	-7.68
258.299	51.71
258.515	111.1
258.732	14.85
258.948	33.28
259.165	4.61
259.381	59.9
259.597	90.62
259.814	25.09
260.03	-1.54
260.246	45.57
260.463	74.24
260.679	102.91
260.895	43.52
261.112	59.9
261.328	102.91
261.544	35.33
261.761	94.72
261.977	43.52
262.193	-28.16
262.409	57.86
262.626	27.14
262.842	74.24
263.058	8.7
263.274	66.05
263.49	31.23
263.707	84.48
263.923	82.43
264.139	-3.58
264.355	47.62
264.571	33.28
264.787	135.68
265.004	74.24
265.22	51.71
265.436	0.51
265.652	-22.02
265.868	68.09
266.084	64
266.3	66.05
266.516	-13.82
266.732	152.06
266.948	127.49
267.164	98.81
267.38	16.9
267.596	8.7
267.812	90.62
268.028	68.09
268.244	23.04
268.46	-5.63
268.676	27.14
268.892	98.81
269.108	41.47
269.324	8.7
269.54	33.28
269.756	90.62
269.972	53.76
270.188	74.24
270.403	23.04
270.619	39.42
270.835	41.47
271.051	57.86
271.267	-11.78
271.483	35.33
271.698	100.86
271.914	80.38
272.13	-5.63
272.346	8.7
272.562	49.66
272.777	45.57
272.993	59.9
273.209	-48.64
273.425	45.57
273.64	66.05
273.856	98.81
274.072	68.09
274.287	0.51
274.503	57.86
274.719	78.33
274.934	98.81
275.15	10.75
275.366	37.38
275.581	-28.16
275.797	23.04
276.012	29.18
276.228	51.71
276.444	27.14
276.659	131.58
276.875	-22.02
277.09	12.8
277.306	16.9
277.521	61.95
277.737	-7.68
277.952	78.33
278.168	82.43
278.383	27.14
278.599	92.67
278.814	123.39
279.03	72.19
279.245	109.05
279.461	98.81
279.676	109.05
279.892	45.57
280.107	41.47
280.322	25.09
280.538	115.2
280.753	-46.59
280.969	8.7
281.184	98.81
281.399	150.01
281.615	59.9
281.83	51.71
282.045	43.52
282.26	74.24
282.476	18.94
282.691	82.43
282.906	20.99
283.122	29.18
283.337	10.75
283.552	78.33
283.767	-3.58
283.983	51.71
284.198	53.76
284.413	53.76
284.628	-13.82
284.843	25.09
285.058	82.43
285.274	57.86
285.489	16.9
285.704	98.81
285.919	51.71
286.134	45.57
286.349	82.43
286.564	2.56
286.779	68.09
286.995	35.33
287.21	-26.11
287.425	45.57
287.64	-26.11
287.855	41.47
288.07	-30.21
288.285	53.76
288.5	2.56
288.715	61.95
288.93	49.66
289.145	16.9
289.36	-7.68
289.575	96.77
289.79	86.53
290.004	76.29
290.219	66.05
290.434	66.05
290.649	49.66
290.864	20.99
291.079	49.66
291.294	80.38
291.509	27.14
291.724	2.56
291.938	131.58
292.153	100.86
292.368	82.43
292.583	23.04
292.798	107.01
293.012	33.28
293.227	35.33
293.442	35.33
293.657	82.43
293.871	131.58
294.086	2.56
294.301	51.71
294.516	55.81
294.73	88.57
294.945	57.86
295.16	25.09
295.374	57.86
295.589	90.62
295.804	33.28
296.018	16.9
296.233	23.04
296.447	57.86
296.662	53.76
296.877	59.9
297.091	2.56
297.306	94.72
297.52	92.67
297.735	-7.68
297.949	25.09
298.164	98.81
298.378	57.86
298.593	-17.92
298.807	43.52
299.022	86.53
299.236	16.9
299.451	74.24
299.665	43.52
299.88	57.86
300.094	2.56
300.309	135.68
300.523	-3.58
300.737	70.14
300.952	29.18
301.166	0.51
301.381	8.7
301.595	31.23
301.809	41.47
302.024	27.14
302.238	86.53
302.452	104.96
302.667	-17.92
302.881	123.39
303.095	111.1
303.309	51.71
303.524	-7.68
303.738	-36.35
303.952	10.75
304.166	180.73
304.381	-11.78
304.595	84.48
304.809	57.86
305.023	53.76
305.237	51.71
305.452	68.09
305.666	92.67
305.88	12.8
306.094	76.29
306.308	18.94
306.522	78.33
306.736	25.09
306.95	45.57
307.164	107.01
307.379	-7.68
307.593	96.77
307.807	113.15
308.021	70.14
308.235	96.77
308.449	57.86
308.663	33.28
308.877	57.86
309.091	76.29
309.305	84.48
309.519	-24.06
309.733	45.57
309.947	92.67
310.161	90.62
310.374	41.47
310.588	129.53
310.802	18.94
311.016	27.14
311.23	41.47
311.444	51.71
311.658	70.14
311.872	102.91
312.085	-7.68
312.299	98.81
312.513	109.05
312.727	115.2
312.941	-7.68
313.154	84.48
313.368	27.14
313.582	80.38
313.796	0.51
314.009	57.86
314.223	29.18
314.437	20.99
314.651	70.14
314.864	12.8
315.078	49.66
315.292	43.52
315.505	107.01
315.719	82.43
315.933	107.01
316.146	94.72
316.36	23.04
316.573	57.86
316.787	43.52
317.001	8.7
317.214	76.29
317.428	25.09
317.641	70.14
317.855	68.09
318.068	104.96
318.282	29.18
318.495	90.62
318.709	92.67
318.922	37.38
319.136	117.25
319.349	152.06
319.563	74.24
319.776	78.33
319.99	27.14
320.203	78.33
320.417	76.29
320.63	76.29
320.843	133.63
321.057	90.62
321.27	59.9
321.483	66.05
321.697	143.87
321.91	53.76
322.124	23.04
322.337	-11.78
322.55	-32.26
322.763	41.47
322.977	90.62
323.19	70.14
323.403	-28.16
323.617	49.66
323.83	76.29
324.043	41.47
324.256	49.66
324.469	74.24
324.683	57.86
324.896	37.38
325.109	70.14
325.322	27.14
325.535	107.01
325.748	57.86
325.962	0.51
326.175	98.81
326.388	117.25
326.601	100.86
326.814	35.33
327.027	10.75
327.24	35.33
327.453	-15.87
327.666	74.24
327.879	94.72
328.092	68.09
328.305	68.09
328.518	41.47
328.731	20.99
328.944	49.66
329.157	125.44
329.37	25.09
329.583	92.67
329.796	100.86
330.009	8.7
330.222	123.39
330.435	141.82
330.648	90.62
330.861	92.67
331.073	92.67
331.286	49.66
331.499	45.57
331.712	92.67
331.925	10.75
332.138	68.09
332.35	74.24
332.563	8.7
332.776	70.14
332.989	76.29
333.202	49.66
333.414	78.33
333.627	6.66
333.84	135.68
334.053	53.76
334.265	88.57
334.478	43.52
334.691	59.9
334.903	49.66
335.116	-26.11
335.329	27.14
335.541	107.01
335.754	94.72
335.966	-36.35
336.179	109.05
336.392	53.76
336.604	66.05
336.817	123.39
337.029	43.52
337.242	109.05
337.454	125.44
337.667	102.91
337.88	74.24
338.092	29.18
338.305	25.09
338.517	31.23
338.729	135.68
338.942	49.66
339.154	41.47
339.367	35.33
339.579	66.05
339.792	84.48
340.004	127.49
340.217	43.52
340.429	57.86
340.641	41.47
340.854	74.24
341.066	68.09
341.278	82.43
341.491	117.25
341.703	107.01
341.915	66.05
342.128	53.76
342.34	57.86
342.552	78.33
342.764	45.57
342.977	82.43
343.189	119.29
343.401	156.16
343.613	12.8
343.826	102.91
344.038	49.66
344.25	61.95
344.462	53.76
344.674	53.76
344.886	92.67
345.099	158.21
345.311	88.57
345.523	-36.35
345.735	25.09
345.947	-24.06
346.159	53.76
346.371	70.14
346.583	49.66
346.795	98.81
347.007	33.28
347.219	51.71
347.431	61.95
347.643	109.05
347.855	18.94
348.067	131.58
348.279	33.28
348.491	29.18
348.703	121.34
348.915	20.99
349.127	53.76
349.339	84.48
349.551	82.43
349.763	107.01
349.975	37.38
350.187	16.9
350.399	166.4
350.61	92.67
350.822	74.24
351.034	49.66
351.246	57.86
351.458	70.14
351.669	82.43
351.881	57.86
352.093	68.09
352.305	96.77
352.517	25.09
352.728	57.86
352.94	90.62
353.152	119.29
353.363	16.9
353.575	143.87
353.787	156.16
353.999	82.43
354.21	117.25
354.422	6.66
354.633	-15.87
354.845	129.53
355.057	55.81
355.268	119.29
355.48	18.94
355.692	33.28
355.903	41.47
356.115	45.57
356.326	82.43
356.538	53.76
356.749	100.86
356.961	160.25
357.172	102.91
357.384	74.24
357.595	143.87
357.807	25.09
358.018	43.52
358.23	74.24
358.441	107.01
358.653	125.44
358.864	68.09
359.075	47.62
359.287	111.1
359.498	78.33
359.709	125.44
359.921	66.05
360.132	74.24
360.344	82.43
360.555	41.47
360.766	61.95
360.977	18.94
361.189	94.72
361.4	33.28
361.611	147.97
361.823	37.38
362.034	37.38
362.245	41.47
362.456	115.2
362.667	107.01
362.879	25.09
363.09	147.97
363.301	66.05
363.512	45.57
363.723	8.7
363.935	127.49
364.146	133.63
364.357	45.57
364.568	76.29
364.779	-3.58
364.99	96.77
365.201	16.9
365.412	98.81
365.623	64
365.834	82.43
366.045	98.81
366.256	127.49
366.467	57.86
366.678	109.05
366.889	29.18
367.1	57.86
367.311	113.15
367.522	66.05
367.733	59.9
367.944	166.4
368.155	10.75
368.366	164.35
368.577	109.05
368.788	82.43
368.999	35.33
369.209	86.53
369.42	152.06
369.631	137.73
369.842	35.33
370.053	119.29
370.264	43.52
370.474	18.94
370.685	94.72
370.896	43.52
371.107	164.35
371.317	78.33
371.528	47.62
371.739	115.2
371.95	59.9
372.16	143.87
372.371	68.09
372.582	16.9
372.792	107.01
373.003	86.53
373.214	35.33
373.424	109.05
373.635	53.76
373.846	168.45
374.056	41.47
374.267	139.77
374.477	35.33
374.688	107.01
374.898	72.19
375.109	86.53
375.319	43.52
375.53	123.39
375.74	41.47
375.951	18.94
376.161	29.18
376.372	150.01
376.582	25.09
376.793	131.58
377.003	49.66
377.214	18.94
377.424	100.86
377.635	49.66
377.845	27.14
378.055	66.05
378.266	33.28
378.476	147.97
378.686	82.43
378.897	131.58
379.107	123.39
379.317	100.86
379.528	49.66
379.738	119.29
379.948	78.33
380.158	113.15
380.369	12.8
380.579	51.71
380.789	29.18
380.999	133.63
381.21	94.72
381.42	104.96
381.63	74.24
381.84	111.1
382.05	57.86
382.261	123.39
382.471	59.9
382.681	16.9
382.891	150.01
383.101	117.25
383.311	131.58
383.521	90.62
383.731	70.14
383.941	131.58
384.151	53.76
384.361	37.38
384.571	150.01
384.781	82.43
384.991	115.2
385.201	109.05
385.411	86.53
385.621	123.39
385.831	45.57
386.041	129.53
386.251	68.09
386.461	61.95
386.671	49.66
386.881	82.43
387.091	107.01
387.301	74.24
387.511	70.14
387.72	127.49
387.93	109.05
388.14	49.66
388.35	96.77
388.56	135.68
388.769	143.87
388.979	141.82
389.189	74.24
389.399	88.57
389.609	61.95
389.818	135.68
390.028	57.86
390.238	113.15
390.447	61.95
390.657	86.53
390.867	74.24
391.076	111.1
391.286	66.05
391.496	152.06
391.705	51.71
391.915	129.53
392.125	57.86
392.334	125.44
392.544	131.58
392.753	147.97
392.963	107.01
393.172	59.9
393.382	107.01
393.591	135.68
393.801	70.14
394.01	135.68
394.22	49.66
394.429	160.25
394.639	115.2
394.848	223.74
395.058	133.63
395.267	80.38
395.477	166.4
395.686	223.74
395.895	131.58
396.105	272.89
396.314	156.16
396.524	131.58
396.733	158.21
396.942	180.73
397.152	119.29
397.361	133.63
397.57	129.53
397.78	182.78
397.989	107.01
398.198	258.56
398.407	147.97
398.617	152.06
398.826	184.83
399.035	147.97
399.244	129.53
399.453	150.01
399.663	147.97
399.872	123.39
400.081	141.82
400.29	197.12
400.499	70.14
400.708	242.17
400.917	125.44
401.127	182.78
401.336	166.4
401.545	240.12
401.754	201.21
401.963	246.27
402.172	123.39
402.381	102.91
402.59	125.44
402.799	102.91
403.008	188.93
403.217	174.59
403.426	211.45
403.635	84.48
403.844	219.64
404.053	221.69
404.262	221.69
404.471	209.4
404.68	190.97
404.888	164.35
405.097	184.83
405.306	188.93
405.515	270.84
405.724	215.55
405.933	233.98
406.142	193.02
406.35	338.43
406.559	221.69
406.768	197.12
406.977	297.47
407.185	238.08
407.394	356.86
407.603	180.73
407.812	262.65
408.02	270.84
408.229	266.75
408.438	307.71
408.646	330.23
408.855	289.28
409.064	346.62
409.272	381.43
409.481	434.68
409.69	338.43
409.898	387.58
410.107	438.78
410.315	297.47
410.524	438.78
410.733	408.06
410.941	385.53
411.15	426.49
411.358	461.3
411.567	475.64
411.775	449.02
411.984	565.75
412.192	524.79
412.401	565.75
412.609	619
412.818	608.76
413.026	633.33
413.234	651.77
413.443	698.87
413.651	715.25
413.86	649.72
414.068	731.64
414.276	760.31
414.485	786.93
414.693	852.47
414.901	922.1
415.11	774.64
415.318	926.19
415.526	897.52
415.734	901.62
415.943	985.58
416.151	1044.98
416.359	1001.97
416.567	973.3
416.776	1145.33
416.984	1106.42
417.192	1309.16
417.4	1139.18
417.608	1231.34
417.817	1237.49
418.025	1501.67
418.233	1384.94
418.441	1370.6
418.649	1534.44
418.857	1585.64
419.065	1677.8
419.273	1475.05
419.481	1735.14
419.689	1769.96
419.897	1823.2
420.105	1866.21
420.313	2001.38
420.521	1993.19
420.729	2056.67
420.937	2009.57
421.145	2230.75
421.353	2236.89
421.561	2370.01
421.769	2445.79
421.977	2515.42
422.185	2507.23
422.393	2531.8
422.601	2927.06
422.809	2712.02
423.017	2845.14
423.224	2908.63
423.432	3051.99
423.64	3019.22
423.848	3385.8
424.056	3215.82
424.263	3482.06
424.471	3506.63
424.679	3609.03
424.887	3598.79
425.094	3897.8
425.302	3908.04
425.51	3918.28
425.718	4092.35
425.925	4180.42
426.133	4264.38
426.341	4534.71
426.548	4809.14
426.756	4719.03
426.964	4688.31
427.171	5093.81
427.379	5280.18
427.586	5325.23
427.794	5360.05
428.001	5923.24
428.209	5906.85
428.417	5759.4
428.624	6320.54
428.832	6195.62
429.039	6212
429.247	6230.43
429.454	6896.02
429.662	7334.29
429.869	6836.63
430.076	7397.78
430.284	7008.66
430.491	7348.62
430.699	7778.7
430.906	7735.69
431.114	7760.27
431.321	8159.62
431.528	8376.7
431.736	8780.15
431.943	9109.88
432.15	8774.01
432.358	9077.11
432.565	9505.13
432.772	9421.17
432.979	9865.58
433.187	10191.2
433.394	10232.16
433.601	10803.55
433.808	10832.22
434.016	10758.49
434.223	11317.59
434.43	11960.65
434.637	11733.32
434.844	12439.87
435.052	12566.85
435.259	12644.67
435.466	12781.88
435.673	12362.05
435.88	13347.12
436.087	14174.5
436.294	14115.11
436.501	13715.76
436.708	14033.19
436.915	14387.49
437.122	15122.71
437.329	15122.71
437.537	15333.65
437.743	15673.62
437.95	15581.46
438.157	16630.02
438.364	17195.26
438.571	17262.84
438.778	17428.73
438.985	18653.41
439.192	18090.22
439.399	18563.3
439.606	18184.43
439.813	19314.91
440.02	20400.33
440.227	19558.61
440.433	19882.19
440.64	20449.48
440.847	20342.99
441.054	20613.32
441.261	21989.55
441.467	21778.61
441.674	22270.12
441.881	23005.34
442.088	22984.87
442.294	22872.23
442.501	23310.49
442.708	23826.58
442.914	24662.15
443.121	25573.5
443.328	24875.14
443.534	26783.85
443.741	26366.06
443.948	25821.3
444.154	27760.73
444.361	27455.58
444.568	27715.67
444.774	27504.73
444.981	27869.27
445.187	28981.32
445.394	29931.58
445.6	29564.99
445.807	32251.92
446.013	30844.97
446.22	31367.2
446.426	32655.37
446.633	32952.33
446.839	34111.48
447.046	33099.78
447.252	34398.2
447.459	34527.22
447.665	34240.5
447.871	35721.18
448.078	37451.72
448.284	35633.12
448.491	36487.12
448.697	37863.36
448.903	38660.02
449.11	38600.63
449.316	38219.7
449.522	38700.98
449.728	40005.53
449.935	40167.32
450.141	39864.22
450.347	41170.83
450.553	39788.45
450.76	40415.13
450.966	41201.55
451.172	41062.29
451.378	42227.58
451.584	41146.25
451.791	42069.89
451.997	41801.6
452.203	42530.68
452.409	42596.21
452.615	42104.7
452.821	40939.41
453.027	40300.44
453.233	42219.39
453.44	40585.11
453.646	41258.89
453.852	41310.09
454.058	41658.24
454.264	40468.37
454.47	41537.41
454.676	40495
454.882	42106.75
455.088	38229.94
455.294	38733.74
455.5	39593.89
455.705	39337.9
455.911	38139.83
456.117	37341.13
456.323	36792.27
456.529	34779.12
456.735	36558.8
456.941	35633.12
457.147	34863.08
457.352	33894.39
457.558	33400.83
457.764	33579.01
457.97	32569.36
458.176	32108.57
458.381	32034.84
458.587	30722.09
458.793	30634.03
458.999	28776.52
459.204	30816.3
459.41	30160.95
459.616	28104.79
459.821	28508.24
460.027	27838.55
460.233	27471.96
460.438	26124.4
460.644	26636.39
460.85	25168
461.055	24733.83
461.261	24809.61
461.466	22880.42
461.672	22349.99
461.878	24025.23
462.083	22284.46
462.289	21686.45
462.494	21627.06
462.7	20910.27
462.905	19974.35
463.111	20592.84
463.316	20867.27
463.522	20367.56
463.727	20558.02
463.932	20318.41
464.138	19849.43
464.343	20168.91
464.549	19523.8
464.754	20277.45
464.959	20213.96
465.165	19849.43
465.37	18743.52
465.575	18788.58
465.781	19423.45
465.986	19497.17
466.191	18876.64
