Data from USB4F104151__138__14-31-46-851.txt Node

Date: Thu Mar 13 14:31:46 EDT 2025
User: louis
Spectrometer: USB4F10415
Trigger mode: 4
Integration Time (sec): 2.500000E-2
Scans to average: 1
Electric dark correction enabled: true
Nonlinearity correction enabled: false
Boxcar width: 0
XAxis mode: Wavelengths
Number of Pixels in Spectrum: 3648
>>>>>Begin Spectral Data<<<<<
178.204	-102.91
178.424	-102.91
178.644	-102.91
178.864	-125.44
179.084	-107.01
179.304	17.92
179.524	-35.33
179.744	-76.29
179.964	54.78
180.184	-18.94
180.404	101.89
180.624	3.58
180.844	-29.18
181.064	-61.95
181.283	11.78
181.503	52.74
181.723	-20.99
181.943	-35.33
182.163	103.93
182.383	11.78
182.602	118.27
182.822	52.74
183.042	-12.8
183.262	9.73
183.482	5.63
183.701	19.97
183.921	30.21
184.141	30.21
184.361	17.92
184.58	5.63
184.8	69.12
185.02	-16.9
185.239	89.6
185.459	48.64
185.679	79.36
185.898	-12.8
186.118	120.32
186.338	-23.04
186.557	19.97
186.777	-51.71
186.997	28.16
187.216	38.4
187.436	192
187.655	11.78
187.875	110.08
188.095	95.74
188.314	69.12
188.534	36.35
188.753	-18.94
188.973	28.16
189.192	167.42
189.412	71.17
189.631	26.11
189.851	11.78
190.07	81.41
190.29	22.02
190.509	32.26
190.729	22.02
190.948	26.11
191.168	146.94
191.387	93.69
191.607	28.16
191.826	7.68
192.045	50.69
192.265	60.93
192.484	-2.56
192.704	-4.61
192.923	48.64
193.142	97.79
193.362	52.74
193.581	38.4
193.8	19.97
194.02	44.54
194.239	36.35
194.458	-10.75
194.678	19.97
194.897	28.16
195.116	60.93
195.335	36.35
195.555	54.78
195.774	112.13
195.993	60.93
196.212	19.97
196.432	30.21
196.651	24.06
196.87	52.74
197.089	3.58
197.308	30.21
197.528	77.31
197.747	17.92
197.966	69.12
198.185	-23.04
198.404	48.64
198.623	62.98
198.842	60.93
199.062	-12.8
199.281	89.6
199.5	28.16
199.719	62.98
199.938	159.23
200.157	77.31
200.376	87.55
200.595	28.16
200.814	75.26
201.033	52.74
201.252	52.74
201.471	-8.7
201.69	-0.51
201.909	13.82
202.128	-29.18
202.347	22.02
202.566	77.31
202.785	3.58
203.004	19.97
203.223	101.89
203.442	-8.7
203.661	-0.51
203.879	69.12
204.098	93.69
204.317	69.12
204.536	-4.61
204.755	32.26
204.974	-33.28
205.193	89.6
205.411	177.66
205.63	81.41
205.849	62.98
206.068	99.84
206.287	46.59
206.505	-20.99
206.724	5.63
206.943	-37.38
207.162	11.78
207.381	62.98
207.599	-2.56
207.818	28.16
208.037	28.16
208.255	19.97
208.474	32.26
208.693	79.36
208.911	-33.28
209.13	93.69
209.349	34.3
209.567	-35.33
209.786	56.83
210.005	87.55
210.223	69.12
210.442	-4.61
210.661	38.4
210.879	26.11
211.098	3.58
211.316	40.45
211.535	110.08
211.753	19.97
211.972	85.5
212.191	24.06
212.409	-10.75
212.628	30.21
212.846	9.73
213.065	28.16
213.283	60.93
213.502	22.02
213.72	56.83
213.938	56.83
214.157	58.88
214.375	79.36
214.594	44.54
214.812	5.63
215.031	54.78
215.249	87.55
215.467	69.12
215.686	38.4
215.904	101.89
216.122	28.16
216.341	30.21
216.559	93.69
216.778	116.22
216.996	85.5
217.214	19.97
217.432	-2.56
217.651	-20.99
217.869	38.4
218.087	69.12
218.306	19.97
218.524	46.59
218.742	67.07
218.96	48.64
219.179	28.16
219.397	22.02
219.615	120.32
219.833	-27.14
220.051	-0.51
220.27	101.89
220.488	91.65
220.706	44.54
220.924	-4.61
221.142	69.12
221.36	-41.47
221.578	93.69
221.796	28.16
222.015	32.26
222.233	54.78
222.451	128.51
222.669	15.87
222.887	89.6
223.105	28.16
223.323	46.59
223.541	-16.9
223.759	81.41
223.977	28.16
224.195	62.98
224.413	52.74
224.631	95.74
224.849	-4.61
225.067	101.89
225.285	-4.61
225.503	62.98
225.721	-47.62
225.939	79.36
226.157	-47.62
226.375	126.46
226.592	7.68
226.81	56.83
227.028	73.21
227.246	120.32
227.464	79.36
227.682	44.54
227.9	40.45
228.117	44.54
228.335	50.69
228.553	69.12
228.771	7.68
228.989	69.12
229.206	36.35
229.424	52.74
229.642	87.55
229.86	36.35
230.077	52.74
230.295	85.5
230.513	83.45
230.731	81.41
230.948	87.55
231.166	126.46
231.384	-16.9
231.601	73.21
231.819	187.9
232.037	95.74
232.254	52.74
232.472	48.64
232.689	-12.8
232.907	89.6
233.125	42.5
233.342	22.02
233.56	24.06
233.777	13.82
233.995	5.63
234.213	71.17
234.43	73.21
234.648	60.93
234.865	38.4
235.083	110.08
235.3	-8.7
235.518	-61.95
235.735	95.74
235.953	-37.38
236.17	13.82
236.388	11.78
236.605	-4.61
236.822	87.55
237.04	19.97
237.257	85.5
237.475	52.74
237.692	120.32
237.909	69.12
238.127	-2.56
238.344	-6.66
238.562	89.6
238.779	-12.8
238.996	28.16
239.214	28.16
239.431	48.64
239.648	3.58
239.865	71.17
240.083	36.35
240.3	17.92
240.517	30.21
240.735	46.59
240.952	65.02
241.169	54.78
241.386	52.74
241.603	-20.99
241.821	-68.09
242.038	44.54
242.255	19.97
242.472	36.35
242.689	77.31
242.907	44.54
243.124	89.6
243.341	52.74
243.558	-12.8
243.775	-41.47
243.992	-10.75
244.209	62.98
244.426	71.17
244.643	71.17
244.86	30.21
245.078	44.54
245.295	112.13
245.512	42.5
245.729	34.3
245.946	7.68
246.163	3.58
246.38	85.5
246.597	56.83
246.814	142.85
247.031	-2.56
247.248	22.02
247.464	36.35
247.681	36.35
247.898	67.07
248.115	42.5
248.332	71.17
248.549	91.65
248.766	89.6
248.983	118.27
249.2	13.82
249.417	60.93
249.633	5.63
249.85	44.54
250.067	60.93
250.284	85.5
250.501	60.93
250.717	28.16
250.934	28.16
251.151	40.45
251.368	48.64
251.585	46.59
251.801	71.17
252.018	85.5
252.235	91.65
252.451	69.12
252.668	3.58
252.885	44.54
253.102	62.98
253.318	-8.7
253.535	11.78
253.752	19.97
253.968	69.12
254.185	67.07
254.401	-37.38
254.618	69.12
254.835	1.54
255.051	110.08
255.268	77.31
255.484	89.6
255.701	50.69
255.917	22.02
256.134	-53.76
256.351	3.58
256.567	22.02
256.784	11.78
257	52.74
257.217	46.59
257.433	36.35
257.65	11.78
257.866	116.22
258.082	28.16
258.299	-2.56
258.515	79.36
258.732	42.5
258.948	-41.47
259.165	11.78
259.381	40.45
259.597	69.12
259.814	19.97
260.03	79.36
260.246	24.06
260.463	75.26
260.679	-10.75
260.895	3.58
261.112	-45.57
261.328	69.12
261.544	40.45
261.761	87.55
261.977	9.73
262.193	-2.56
262.409	95.74
262.626	22.02
262.842	30.21
263.058	3.58
263.274	44.54
263.49	52.74
263.707	48.64
263.923	60.93
264.139	15.87
264.355	-23.04
264.571	110.08
264.787	93.69
265.004	138.75
265.22	5.63
265.436	-16.9
265.652	-6.66
265.868	38.4
266.084	81.41
266.3	1.54
266.516	1.54
266.732	79.36
266.948	-12.8
267.164	73.21
267.38	-16.9
267.596	85.5
267.812	38.4
268.028	-4.61
268.244	-0.51
268.46	30.21
268.676	5.63
268.892	19.97
269.108	-66.05
269.324	17.92
269.54	-4.61
269.756	93.69
269.972	-4.61
270.188	36.35
270.403	-12.8
270.619	40.45
270.835	-18.94
271.051	105.98
271.267	28.16
271.483	42.5
271.698	44.54
271.914	48.64
272.13	-4.61
272.346	50.69
272.562	9.73
272.777	157.18
272.993	22.02
273.209	-35.33
273.425	30.21
273.64	32.26
273.856	101.89
274.072	52.74
274.287	7.68
274.503	-2.56
274.719	91.65
274.934	83.45
275.15	-18.94
275.366	-20.99
275.581	46.59
275.797	-4.61
276.012	19.97
276.228	15.87
276.444	19.97
276.659	110.08
276.875	-4.61
277.09	69.12
277.306	-29.18
277.521	85.5
277.737	-8.7
277.952	38.4
278.168	19.97
278.383	5.63
278.599	13.82
278.814	67.07
279.03	54.78
279.245	83.45
279.461	38.4
279.676	128.51
279.892	58.88
280.107	38.4
280.322	79.36
280.538	69.12
280.753	-45.57
280.969	101.89
281.184	69.12
281.399	-4.61
281.615	36.35
281.83	44.54
282.045	-12.8
282.26	87.55
282.476	28.16
282.691	97.79
282.906	54.78
283.122	69.12
283.337	-6.66
283.552	44.54
283.767	-61.95
283.983	140.8
284.198	28.16
284.413	54.78
284.628	-10.75
284.843	36.35
285.058	85.5
285.274	65.02
285.489	30.21
285.704	73.21
285.919	-31.23
286.134	38.4
286.349	71.17
286.564	7.68
286.779	60.93
286.995	54.78
287.21	11.78
287.425	-2.56
287.64	28.16
287.855	69.12
288.07	22.02
288.285	101.89
288.5	48.64
288.715	132.61
288.93	-47.62
289.145	52.74
289.36	24.06
289.575	62.98
289.79	69.12
290.004	28.16
290.219	77.31
290.434	69.12
290.649	38.4
290.864	77.31
291.079	38.4
291.294	128.51
291.509	54.78
291.724	30.21
291.938	9.73
292.153	87.55
292.368	-2.56
292.583	79.36
292.798	77.31
293.012	42.5
293.227	-43.52
293.442	69.12
293.657	67.07
293.871	19.97
294.086	69.12
294.301	69.12
294.516	112.13
294.73	56.83
294.945	36.35
295.16	91.65
295.374	62.98
295.589	-20.99
295.804	48.64
296.018	60.93
296.233	-2.56
296.447	71.17
296.662	-4.61
296.877	60.93
297.091	52.74
297.306	-29.18
297.52	-14.85
297.735	83.45
297.949	36.35
298.164	24.06
298.378	85.5
298.593	11.78
298.807	-33.28
299.022	7.68
299.236	97.79
299.451	15.87
299.665	19.97
299.88	22.02
300.094	-4.61
300.309	83.45
300.523	79.36
300.737	32.26
300.952	60.93
301.166	69.12
301.381	7.68
301.595	32.26
301.809	30.21
302.024	71.17
302.238	24.06
302.452	79.36
302.667	60.93
302.881	52.74
303.095	77.31
303.309	-2.56
303.524	19.97
303.738	77.31
303.952	19.97
304.166	128.51
304.381	-88.57
304.595	110.08
304.809	44.54
305.023	73.21
305.237	91.65
305.452	11.78
305.666	151.04
305.88	126.46
306.094	114.17
306.308	52.74
306.522	126.46
306.736	-6.66
306.95	54.78
307.164	62.98
307.379	5.63
307.593	122.37
307.807	118.27
308.021	120.32
308.235	36.35
308.449	3.58
308.663	38.4
308.877	134.65
309.091	-14.85
309.305	69.12
309.519	-0.51
309.733	110.08
309.947	-37.38
310.161	130.56
310.374	52.74
310.588	103.93
310.802	19.97
311.016	77.31
311.23	89.6
311.444	19.97
311.658	60.93
311.872	77.31
312.085	67.07
312.299	52.74
312.513	89.6
312.727	130.56
312.941	46.59
313.154	52.74
313.368	-0.51
313.582	-4.61
313.796	103.93
314.009	-4.61
314.223	95.74
314.437	65.02
314.651	60.93
314.864	11.78
315.078	-12.8
315.292	36.35
315.505	19.97
315.719	44.54
315.933	11.78
316.146	19.97
316.36	13.82
316.573	52.74
316.787	11.78
317.001	-16.9
317.214	52.74
317.428	52.74
317.641	-6.66
317.855	30.21
318.068	-14.85
318.282	15.87
318.495	28.16
318.709	48.64
318.922	62.98
319.136	132.61
319.349	54.78
319.563	30.21
319.776	79.36
319.99	24.06
320.203	30.21
320.417	11.78
320.63	56.83
320.843	157.18
321.057	19.97
321.27	85.5
321.483	-8.7
321.697	112.13
321.91	89.6
322.124	15.87
322.337	13.82
322.55	36.35
322.763	105.98
322.977	81.41
323.19	48.64
323.403	46.59
323.617	-4.61
323.83	62.98
324.043	40.45
324.256	69.12
324.469	-51.71
324.683	134.65
324.896	32.26
325.109	26.11
325.322	-10.75
325.535	126.46
325.748	62.98
325.962	93.69
326.175	62.98
326.388	40.45
326.601	116.22
326.814	40.45
327.027	65.02
327.24	130.56
327.453	22.02
327.666	69.12
327.879	110.08
328.092	95.74
328.305	62.98
328.518	36.35
328.731	44.54
328.944	-23.04
329.157	36.35
329.37	11.78
329.583	105.98
329.796	171.52
330.009	19.97
330.222	52.74
330.435	38.4
330.648	89.6
330.861	-37.38
331.073	11.78
331.286	79.36
331.499	48.64
331.712	13.82
331.925	101.89
332.138	7.68
332.35	60.93
332.563	-51.71
332.776	3.58
332.989	30.21
333.202	77.31
333.414	42.5
333.627	3.58
333.84	114.17
334.053	62.98
334.265	1.54
334.478	85.5
334.691	112.13
334.903	73.21
335.116	-10.75
335.329	15.87
335.541	77.31
335.754	71.17
335.966	44.54
336.179	38.4
336.392	77.31
336.604	118.27
336.817	89.6
337.029	30.21
337.242	71.17
337.454	-0.51
337.667	38.4
337.88	110.08
338.092	138.75
338.305	75.26
338.517	-2.56
338.729	128.51
338.942	69.12
339.154	-29.18
339.367	-10.75
339.579	52.74
339.792	36.35
340.004	81.41
340.217	34.3
340.429	11.78
340.641	15.87
340.854	13.82
341.066	56.83
341.278	52.74
341.491	103.93
341.703	85.5
341.915	69.12
342.128	38.4
342.34	97.79
342.552	-29.18
342.764	62.98
342.977	65.02
343.189	42.5
343.401	54.78
343.613	46.59
343.826	60.93
344.038	7.68
344.25	28.16
344.462	-43.52
344.674	136.7
344.886	-25.09
345.099	60.93
345.311	87.55
345.523	28.16
345.735	-27.14
345.947	138.75
346.159	17.92
346.371	93.69
346.583	30.21
346.795	171.52
347.007	32.26
347.219	22.02
347.431	38.4
347.643	93.69
347.855	32.26
348.067	101.89
348.279	85.5
348.491	15.87
348.703	32.26
348.915	93.69
349.127	28.16
349.339	38.4
349.551	-45.57
349.763	28.16
349.975	101.89
350.187	56.83
350.399	87.55
350.61	-4.61
350.822	-8.7
351.034	17.92
351.246	48.64
351.458	99.84
351.669	11.78
351.881	97.79
352.093	79.36
352.305	83.45
352.517	62.98
352.728	69.12
352.94	75.26
353.152	7.68
353.363	108.03
353.575	85.5
353.787	44.54
353.999	30.21
354.21	112.13
354.422	44.54
354.633	1.54
354.845	24.06
355.057	13.82
355.268	44.54
355.48	38.4
355.692	38.4
355.903	28.16
356.115	40.45
356.326	54.78
356.538	110.08
356.749	110.08
356.961	73.21
357.172	71.17
357.384	-0.51
357.595	110.08
357.807	13.82
358.018	32.26
358.23	105.98
358.441	130.56
358.653	97.79
358.864	54.78
359.075	60.93
359.287	24.06
359.498	155.13
359.709	79.36
359.921	36.35
360.132	46.59
360.344	52.74
360.555	15.87
360.766	112.13
360.977	46.59
361.189	126.46
361.4	36.35
361.611	69.12
361.823	28.16
362.034	28.16
362.245	7.68
362.456	60.93
362.667	38.4
362.879	73.21
363.09	13.82
363.301	144.89
363.512	30.21
363.723	40.45
363.935	3.58
364.146	79.36
364.357	36.35
364.568	126.46
364.779	52.74
364.99	103.93
365.201	48.64
365.412	126.46
365.623	42.5
365.834	36.35
366.045	79.36
366.256	30.21
366.467	15.87
366.678	9.73
366.889	85.5
367.1	75.26
367.311	11.78
367.522	54.78
367.733	124.41
367.944	118.27
368.155	28.16
368.366	118.27
368.577	65.02
368.788	77.31
368.999	-10.75
369.209	11.78
369.42	185.85
369.631	130.56
369.842	93.69
370.053	3.58
370.264	79.36
370.474	81.41
370.685	73.21
370.896	93.69
371.107	128.51
371.317	38.4
371.528	69.12
371.739	85.5
371.95	52.74
372.16	69.12
372.371	30.21
372.582	126.46
372.792	126.46
373.003	60.93
373.214	36.35
373.424	87.55
373.635	116.22
373.846	56.83
374.056	7.68
374.267	99.84
374.477	118.27
374.688	54.78
374.898	48.64
375.109	105.98
375.319	67.07
375.53	62.98
375.74	48.64
375.951	-2.56
376.161	67.07
376.372	65.02
376.582	30.21
376.793	69.12
377.003	44.54
377.214	85.5
377.424	46.59
377.635	71.17
377.845	-29.18
378.055	71.17
378.266	44.54
378.476	36.35
378.686	65.02
378.897	114.17
379.107	79.36
379.317	85.5
379.528	60.93
379.738	77.31
379.948	19.97
380.158	13.82
380.369	30.21
380.579	118.27
380.789	36.35
380.999	87.55
381.21	-12.8
381.42	99.84
381.63	13.82
381.84	97.79
382.05	11.78
382.261	79.36
382.471	67.07
382.681	120.32
382.891	11.78
383.101	40.45
383.311	32.26
383.521	122.37
383.731	69.12
383.941	87.55
384.151	144.89
384.361	101.89
384.571	9.73
384.781	79.36
384.991	183.81
385.201	116.22
385.411	65.02
385.621	108.03
385.831	71.17
386.041	118.27
386.251	48.64
386.461	208.38
386.671	36.35
386.881	48.64
387.091	62.98
387.301	52.74
387.511	69.12
387.72	81.41
387.93	30.21
388.14	-4.61
388.35	89.6
388.56	153.09
388.769	159.23
388.979	44.54
389.189	93.69
389.399	19.97
389.609	120.32
389.818	144.89
390.028	105.98
390.238	85.5
390.447	91.65
390.657	56.83
390.867	71.17
391.076	44.54
391.286	87.55
391.496	32.26
391.705	65.02
391.915	62.98
392.125	52.74
392.334	69.12
392.544	77.31
392.753	110.08
392.963	50.69
393.172	69.12
393.382	44.54
393.591	112.13
393.801	79.36
394.01	151.04
394.22	81.41
394.429	101.89
394.639	11.78
394.848	71.17
395.058	79.36
395.267	144.89
395.477	130.56
395.686	87.55
395.895	151.04
396.105	120.32
396.314	120.32
396.524	85.5
396.733	77.31
396.942	134.65
397.152	38.4
397.361	124.41
397.57	89.6
397.78	97.79
397.989	192
398.198	116.22
398.407	161.28
398.617	65.02
398.826	136.7
399.035	173.57
399.244	132.61
399.453	93.69
399.663	146.94
399.872	103.93
400.081	67.07
400.29	128.51
400.499	46.59
400.708	151.04
400.917	58.88
401.127	112.13
401.336	151.04
401.545	196.09
401.754	151.04
401.963	167.42
402.172	140.8
402.381	126.46
402.59	159.23
402.799	153.09
403.008	148.99
403.217	136.7
403.426	204.28
403.635	118.27
403.844	165.37
404.053	192
404.262	161.28
404.471	245.24
404.68	130.56
404.888	192
405.097	130.56
405.306	163.33
405.515	112.13
405.724	136.7
405.933	282.11
406.142	239.1
406.35	253.44
406.559	169.47
406.768	253.44
406.977	183.81
407.185	206.33
407.394	286.2
407.603	273.92
407.812	153.09
408.02	259.58
408.229	259.58
408.438	282.11
408.646	255.48
408.855	310.78
409.064	384.51
409.272	341.5
409.481	361.98
409.69	327.16
409.898	341.5
410.107	419.32
410.315	400.89
410.524	316.92
410.733	390.65
410.941	392.7
411.15	380.41
411.358	431.61
411.567	513.53
411.775	437.75
411.984	458.23
412.192	437.75
412.401	507.38
412.609	507.38
412.818	585.21
413.026	527.86
413.234	534.01
413.443	609.78
413.651	568.82
413.86	658.93
414.068	628.21
414.276	792.05
414.485	718.33
414.693	716.28
414.901	841.2
415.11	925.17
415.318	773.62
415.526	861.68
415.734	912.88
415.943	912.88
416.151	970.23
416.359	919.03
416.567	914.93
416.776	1009.14
416.984	1150.45
417.192	1015.28
417.4	1080.82
417.608	1181.17
417.817	1146.35
418.025	1220.08
418.233	1365.48
418.441	1363.44
418.649	1379.82
418.857	1431.02
419.065	1570.28
419.273	1488.36
419.481	1586.66
419.689	1617.38
419.897	1715.69
420.105	1668.58
420.313	1791.46
420.521	1883.62
420.729	1752.55
420.937	1824.23
421.145	1983.97
421.353	2209.25
421.561	2096.61
421.769	2141.66
421.977	2381.28
422.185	2225.63
422.393	2346.46
422.601	2596.31
422.809	2596.31
423.017	2663.9
423.224	2672.09
423.432	2727.38
423.64	2694.61
423.848	3165.65
424.056	3075.54
424.263	3337.68
424.471	3239.37
424.679	3304.91
424.887	3632.58
425.094	3632.58
425.302	3440.08
425.51	3806.66
425.718	3939.78
425.925	3806.66
426.133	4124.1
426.341	4132.29
426.548	4396.48
426.756	4388.29
426.964	4591.03
427.171	4648.38
427.379	4906.42
427.586	5041.59
427.794	5113.27
428.001	5221.81
428.209	5586.35
428.417	5494.19
428.624	5803.43
428.832	5903.78
429.039	5715.37
429.247	5721.51
429.454	6366.62
429.662	6772.12
429.869	6264.22
430.076	6772.12
430.284	6720.92
430.491	6892.95
430.699	7124.37
430.906	7249.3
431.114	7263.63
431.321	7613.84
431.528	7898.5
431.736	8349.06
431.943	8623.48
432.15	8226.18
432.358	8426.88
432.565	8899.96
432.772	8893.82
432.979	9440.62
433.187	9416.05
433.394	9590.13
433.601	10220.9
433.808	10270.05
434.016	10239.33
434.223	10427.74
434.43	11060.57
434.637	10925.4
434.844	11613.52
435.052	11875.66
435.259	11750.73
435.466	11824.46
435.673	11742.54
435.88	12315.97
436.087	13108.54
436.294	13092.15
436.501	12870.97
436.708	13051.19
436.915	13544.75
437.122	13993.26
437.329	13927.72
437.537	14619.94
437.743	14621.98
437.95	14701.86
438.157	15193.37
438.364	15887.63
438.571	15811.85
438.778	15850.77
438.985	17136.89
439.192	16749.82
439.399	17233.15
439.606	16938.24
439.813	17894.64
440.02	18662.63
440.227	18435.3
440.433	18199.79
440.64	18822.37
440.847	18638.05
441.054	19252.44
441.261	20645.06
441.467	19952.85
441.674	20686.02
441.881	21451.96
442.088	21445.82
442.294	21327.03
442.501	21615.8
442.708	22103.21
442.914	23004.32
443.121	24200.33
443.328	23022.75
443.534	24870.02
443.741	24233.1
443.948	24085.65
444.154	25668.73
444.361	25343.1
444.568	25875.57
444.774	25767.03
444.981	25943.16
445.187	26881.13
445.394	27927.64
445.6	27497.56
445.807	30096.44
446.013	28775.5
446.22	29226.05
446.426	30438.45
446.633	30463.02
446.839	31722.52
447.046	30491.69
447.252	32273.43
447.459	32197.65
447.665	32107.54
447.871	33348.61
448.078	34663.41
448.284	32998.41
448.491	34413.55
448.697	35140.58
448.903	35662.82
449.11	35941.34
449.316	35761.12
449.522	35986.39
449.728	37063.63
449.935	37407.69
450.141	37612.48
450.347	38192.06
450.553	36942.8
450.76	37331.91
450.966	38413.24
451.172	37931.97
451.378	39197.61
451.584	38052.8
451.791	39437.22
451.997	38898.61
452.203	39625.64
452.409	40018.85
452.615	39304.1
452.821	38017.98
453.027	37802.94
453.233	39775.14
453.44	37872.57
453.646	38288.31
453.852	38505.4
454.058	39236.52
454.264	37807.04
454.47	38740.91
454.676	37893.05
454.882	38974.38
455.088	35533.79
455.294	36076.51
455.5	36946.89
455.705	36834.25
455.911	35945.44
456.117	35179.5
456.323	34477.04
456.529	32764.94
456.735	34165.75
456.941	33244.16
457.147	33061.9
457.352	31607.84
457.558	31032.36
457.764	31177.76
457.97	30475.31
458.176	29955.13
458.381	30399.54
458.587	28470.35
458.793	28609.61
458.999	27346.01
459.204	28886.09
459.41	28339.28
459.616	26205.3
459.821	26193.01
460.027	26205.3
460.233	25773.17
460.438	24411.28
460.644	24546.44
460.85	23526.55
461.055	23043.23
461.261	23106.72
461.466	21306.55
461.672	20679.88
461.878	22287.53
462.083	20630.73
462.289	19915.98
462.494	20022.48
462.7	19176.67
462.905	18539.75
463.111	18906.34
463.316	19500.25
463.522	18937.06
463.727	19088.6
463.932	18816.22
464.138	18275.56
464.343	18724.07
464.549	17865.97
464.754	18650.34
464.959	18474.21
465.165	18250.99
465.37	17560.82
465.575	17304.82
465.781	17595.64
465.986	17825.01
466.191	17411.32
466.397	16706.82
466.602	15963.4
466.807	16536.84
467.012	16618.75
