Data from USB4F104151__133__14-31-42-802.txt Node

Date: Thu Mar 13 14:31:42 EDT 2025
User: louis
Spectrometer: USB4F10415
Trigger mode: 4
Integration Time (sec): 2.500000E-2
Scans to average: 1
Electric dark correction enabled: true
Nonlinearity correction enabled: false
Boxcar width: 0
XAxis mode: Wavelengths
Number of Pixels in Spectrum: 3648
>>>>>Begin Spectral Data<<<<<
178.204	-152.91
178.424	-152.91
178.644	-152.91
178.864	-154.96
179.084	-157.01
179.304	4.78
179.524	-7.51
179.744	-54.61
179.964	43.69
180.184	-19.8
180.404	23.21
180.624	35.5
180.844	37.55
181.064	-44.37
181.283	15.02
181.503	-81.24
181.723	47.79
181.943	-25.94
182.163	51.88
182.383	-23.89
182.602	115.37
182.822	76.46
183.042	8.87
183.262	-1.37
183.482	17.07
183.701	-42.32
183.921	-25.94
184.141	-7.51
184.361	115.37
184.58	15.02
184.8	2.73
185.02	15.02
185.239	17.07
185.459	23.21
185.679	15.02
185.898	-17.75
186.118	80.55
186.338	-5.46
186.557	90.79
186.777	60.07
186.997	-38.23
187.216	-34.13
187.436	72.36
187.655	6.83
187.875	47.79
188.095	-30.04
188.314	31.4
188.534	88.75
188.753	-23.89
188.973	23.21
189.192	64.17
189.412	96.94
189.631	-48.47
189.851	49.83
190.07	25.26
190.29	8.87
190.509	-7.51
190.729	-1.37
190.948	117.42
191.168	121.51
191.387	27.31
191.607	6.83
191.826	23.21
192.045	33.45
192.265	-38.23
192.484	25.26
192.704	51.88
192.923	-5.46
193.142	96.94
193.362	23.21
193.581	76.46
193.8	49.83
194.02	31.4
194.239	70.31
194.458	23.21
194.678	47.79
194.897	-9.56
195.116	-1.37
195.335	6.83
195.555	-15.7
195.774	-23.89
195.993	82.6
196.212	39.59
196.432	15.02
196.651	19.11
196.87	23.21
197.089	121.51
197.308	107.18
197.528	49.83
197.747	-48.47
197.966	51.88
198.185	115.37
198.404	8.87
198.623	19.11
198.842	6.83
199.062	88.75
199.281	96.94
199.5	15.02
199.719	103.08
199.938	0.68
200.157	25.26
200.376	43.69
200.595	76.46
200.814	43.69
201.033	-9.56
201.252	51.88
201.471	-7.51
201.69	25.26
201.909	31.4
202.128	88.75
202.347	109.23
202.566	31.4
202.785	-11.61
203.004	0.68
203.223	47.79
203.442	90.79
203.661	-21.85
203.879	74.41
204.098	101.03
204.317	-58.71
204.536	31.4
204.755	41.64
204.974	0.68
205.193	96.94
205.411	37.55
205.63	55.98
205.849	15.02
206.068	15.02
206.287	31.4
206.505	51.88
206.724	8.87
206.943	-7.51
207.162	8.87
207.381	-9.56
207.599	-30.04
207.818	39.59
208.037	21.16
208.255	15.02
208.474	121.51
208.693	129.7
208.911	-23.89
209.13	23.21
209.349	23.21
209.567	17.07
209.786	68.27
210.005	-42.32
210.223	92.84
210.442	0.68
210.661	29.35
210.879	-9.56
211.098	76.46
211.316	12.97
211.535	64.17
211.753	-21.85
211.972	60.07
212.191	49.83
212.409	-3.41
212.628	15.02
212.846	0.68
213.065	49.83
213.283	92.84
213.502	4.78
213.72	23.21
213.938	17.07
214.157	39.59
214.375	10.92
214.594	8.87
214.812	72.36
215.031	-13.65
215.249	47.79
215.467	-13.65
215.686	53.93
215.904	43.69
216.122	17.07
216.341	8.87
216.559	78.51
216.778	15.02
216.996	109.23
217.214	4.78
217.432	-62.8
217.651	-23.89
217.869	19.11
218.087	64.17
218.306	-42.32
218.524	58.03
218.742	-58.71
218.96	80.55
219.179	-11.61
219.397	-15.7
219.615	82.6
219.833	90.79
220.051	-13.65
220.27	-1.37
220.488	23.21
220.706	39.59
220.924	-32.08
221.142	25.26
221.36	33.45
221.578	82.6
221.796	76.46
222.015	27.31
222.233	-23.89
222.451	60.07
222.669	-64.85
222.887	-9.56
223.105	64.17
223.323	-17.75
223.541	21.16
223.759	49.83
223.977	-15.7
224.195	113.32
224.413	64.17
224.631	35.5
224.849	10.92
225.067	121.51
225.285	27.31
225.503	55.98
225.721	-34.13
225.939	105.13
226.157	0.68
226.375	146.09
226.592	27.31
226.81	6.83
227.028	70.31
227.246	47.79
227.464	31.4
227.682	121.51
227.9	2.73
228.117	8.87
228.335	88.75
228.553	39.59
228.771	37.55
228.989	47.79
229.206	-21.85
229.424	15.02
229.642	66.22
229.86	19.11
230.077	64.17
230.295	72.36
230.513	60.07
230.731	31.4
230.948	47.79
231.166	47.79
231.384	33.45
231.601	96.94
231.819	103.08
232.037	25.26
232.254	25.26
232.472	-42.32
232.689	15.02
232.907	162.47
233.125	41.64
233.342	-11.61
233.56	33.45
233.777	-15.7
233.995	43.69
234.213	94.89
234.43	-7.51
234.648	-17.75
234.865	17.07
235.083	148.14
235.3	-3.41
235.518	92.84
235.735	80.55
235.953	64.17
236.17	23.21
236.388	39.59
236.605	76.46
236.822	39.59
237.04	2.73
237.257	31.4
237.475	-46.42
237.692	-48.47
237.909	-42.32
238.127	105.13
238.344	92.84
238.562	-34.13
238.779	-30.04
238.996	-42.32
239.214	0.68
239.431	15.02
239.648	-25.94
239.865	39.59
240.083	0.68
240.3	117.42
240.517	6.83
240.735	23.21
240.952	115.37
241.169	82.6
241.386	55.98
241.603	-32.08
241.821	-1.37
242.038	43.69
242.255	-79.19
242.472	4.78
242.689	156.33
242.907	33.45
243.124	31.4
243.341	68.27
243.558	-58.71
243.775	25.26
243.992	-1.37
244.209	55.98
244.426	49.83
244.643	47.79
244.86	43.69
245.078	49.83
245.295	15.02
245.512	-1.37
245.729	-19.8
245.946	15.02
246.163	84.65
246.38	-48.47
246.597	25.26
246.814	2.73
247.031	0.68
247.248	141.99
247.464	-5.46
247.681	31.4
247.898	62.12
248.115	74.41
248.332	15.02
248.549	60.07
248.766	47.79
248.983	2.73
249.2	6.83
249.417	25.26
249.633	8.87
249.85	45.74
250.067	47.79
250.284	0.68
250.501	-30.04
250.717	41.64
250.934	23.21
251.151	43.69
251.368	43.69
251.585	2.73
251.801	-9.56
252.018	35.5
252.235	103.08
252.451	55.98
252.668	-1.37
252.885	55.98
253.102	76.46
253.318	60.07
253.535	45.74
253.752	43.69
253.968	43.69
254.185	-48.47
254.401	-1.37
254.618	105.13
254.835	-66.9
255.051	76.46
255.268	-60.76
255.484	8.87
255.701	4.78
255.917	82.6
256.134	-103.76
256.351	43.69
256.567	-3.41
256.784	45.74
257	47.79
257.217	84.65
257.433	66.22
257.65	53.93
257.866	82.6
258.082	-56.66
258.299	55.98
258.515	90.79
258.732	-3.41
258.948	27.31
259.165	121.51
259.381	-40.28
259.597	80.55
259.814	49.83
260.03	-3.41
260.246	72.36
260.463	115.37
260.679	-7.51
260.895	-1.37
261.112	88.75
261.328	17.07
261.544	-81.24
261.761	72.36
261.977	15.02
262.193	17.07
262.409	41.64
262.626	21.16
262.842	17.07
263.058	37.55
263.274	35.5
263.49	76.46
263.707	23.21
263.923	60.07
264.139	0.68
264.355	51.88
264.571	23.21
264.787	117.42
265.004	39.59
265.22	-44.37
265.436	88.75
265.652	107.18
265.868	-34.13
266.084	15.02
266.3	25.26
266.516	33.45
266.732	23.21
266.948	58.03
267.164	27.31
267.38	10.92
267.596	39.59
267.812	107.18
268.028	64.17
268.244	-9.56
268.46	121.51
268.676	-81.24
268.892	80.55
269.108	62.12
269.324	-32.08
269.54	17.07
269.756	88.75
269.972	-9.56
270.188	60.07
270.403	72.36
270.619	43.69
270.835	-17.75
271.051	25.26
271.267	-34.13
271.483	23.21
271.698	55.98
271.914	10.92
272.13	-38.23
272.346	10.92
272.562	23.21
272.777	15.02
272.993	-30.04
273.209	58.03
273.425	53.93
273.64	-9.56
273.856	45.74
274.072	19.11
274.287	-5.46
274.503	27.31
274.719	96.94
274.934	80.55
275.15	39.59
275.366	55.98
275.581	41.64
275.797	0.68
276.012	8.87
276.228	-5.46
276.444	10.92
276.659	12.97
276.875	33.45
277.09	21.16
277.306	39.59
277.521	-1.37
277.737	31.4
277.952	27.31
278.168	23.21
278.383	64.17
278.599	-32.08
278.814	15.02
279.03	19.11
279.245	82.6
279.461	-9.56
279.676	47.79
279.892	-42.32
280.107	-15.7
280.322	-9.56
280.538	31.4
280.753	-13.65
280.969	33.45
281.184	43.69
281.399	84.65
281.615	10.92
281.83	-3.41
282.045	17.07
282.26	23.21
282.476	49.83
282.691	78.51
282.906	31.4
283.122	121.51
283.337	-9.56
283.552	-17.75
283.767	74.41
283.983	68.27
284.198	31.4
284.413	33.45
284.628	6.83
284.843	0.68
285.058	84.65
285.274	37.55
285.489	-11.61
285.704	-5.46
285.919	43.69
286.134	39.59
286.349	17.07
286.564	6.83
286.779	144.04
286.995	27.31
287.21	47.79
287.425	39.59
287.64	43.69
287.855	-7.51
288.07	15.02
288.285	119.46
288.5	39.59
288.715	10.92
288.93	31.4
289.145	45.74
289.36	-1.37
289.575	125.61
289.79	47.79
290.004	-7.51
290.219	29.35
290.434	-23.89
290.649	-7.51
290.864	-7.51
291.079	8.87
291.294	45.74
291.509	82.6
291.724	58.03
291.938	-17.75
292.153	58.03
292.368	19.11
292.583	8.87
292.798	39.59
293.012	96.94
293.227	12.97
293.442	15.02
293.657	19.11
293.871	98.99
294.086	-5.46
294.301	90.79
294.516	74.41
294.73	31.4
294.945	19.11
295.16	25.26
295.374	43.69
295.589	74.41
295.804	-27.99
296.018	49.83
296.233	31.4
296.447	-5.46
296.662	-83.28
296.877	41.64
297.091	39.59
297.306	64.17
297.52	55.98
297.735	58.03
297.949	17.07
298.164	-1.37
298.378	76.46
298.593	-9.56
298.807	60.07
299.022	6.83
299.236	39.59
299.451	17.07
299.665	43.69
299.88	23.21
300.094	-17.75
300.309	15.02
300.523	43.69
300.737	76.46
300.952	-1.37
301.166	25.26
301.381	15.02
301.595	0.68
301.809	15.02
302.024	76.46
302.238	55.98
302.452	55.98
302.667	39.59
302.881	84.65
303.095	51.88
303.309	-9.56
303.524	12.97
303.738	80.55
303.952	-25.94
304.166	43.69
304.381	-15.7
304.595	33.45
304.809	-30.04
305.023	60.07
305.237	0.68
305.452	27.31
305.666	96.94
305.88	76.46
306.094	43.69
306.308	6.83
306.522	96.94
306.736	33.45
306.95	139.94
307.164	51.88
307.379	6.83
307.593	45.74
307.807	45.74
308.021	-23.89
308.235	51.88
308.449	25.26
308.663	-5.46
308.877	74.41
309.091	-17.75
309.305	82.6
309.519	-3.41
309.733	72.36
309.947	-9.56
310.161	45.74
310.374	12.97
310.588	41.64
310.802	31.4
311.016	23.21
311.23	31.4
311.444	-11.61
311.658	39.59
311.872	55.98
312.085	64.17
312.299	96.94
312.513	58.03
312.727	80.55
312.941	-25.94
313.154	-42.32
313.368	72.36
313.582	47.79
313.796	35.5
314.009	21.16
314.223	90.79
314.437	19.11
314.651	80.55
314.864	-34.13
315.078	23.21
315.292	6.83
315.505	31.4
315.719	21.16
315.933	41.64
316.146	25.26
316.36	47.79
316.573	55.98
316.787	92.84
317.001	31.4
317.214	-15.7
317.428	2.73
317.641	35.5
317.855	47.79
318.068	58.03
318.282	27.31
318.495	72.36
318.709	41.64
318.922	39.59
319.136	25.26
319.349	64.17
319.563	72.36
319.776	113.32
319.99	-25.94
320.203	72.36
320.417	-30.04
320.63	6.83
320.843	62.12
321.057	60.07
321.27	41.64
321.483	-7.51
321.697	92.84
321.91	64.17
322.124	37.55
322.337	41.64
322.55	12.97
322.763	6.83
322.977	82.6
323.19	-38.23
323.403	55.98
323.617	0.68
323.83	15.02
324.043	-23.89
324.256	-3.41
324.469	-75.09
324.683	47.79
324.896	82.6
325.109	80.55
325.322	25.26
325.535	76.46
325.748	37.55
325.962	-17.75
326.175	-25.94
326.388	-66.9
326.601	88.75
326.814	15.02
327.027	49.83
327.24	84.65
327.453	-34.13
327.666	31.4
327.879	96.94
328.092	64.17
328.305	25.26
328.518	2.73
328.731	41.64
328.944	47.79
329.157	35.5
329.37	6.83
329.583	111.27
329.796	21.16
330.009	-15.7
330.222	64.17
330.435	80.55
330.648	33.45
330.861	31.4
331.073	88.75
331.286	23.21
331.499	90.79
331.712	-75.09
331.925	39.59
332.138	10.92
332.35	49.83
332.563	31.4
332.776	80.55
332.989	-34.13
333.202	25.26
333.414	-3.41
333.627	94.89
333.84	-5.46
334.053	72.36
334.265	64.17
334.478	-7.51
334.691	41.64
334.903	88.75
335.116	-15.7
335.329	4.78
335.541	-27.99
335.754	43.69
335.966	-1.37
336.179	31.4
336.392	6.83
336.604	55.98
336.817	15.02
337.029	84.65
337.242	58.03
337.454	6.83
337.667	-3.41
337.88	-9.56
338.092	45.74
338.305	33.45
338.517	17.07
338.729	92.84
338.942	47.79
339.154	-34.13
339.367	23.21
339.579	31.4
339.792	15.02
340.004	60.07
340.217	6.83
340.429	23.21
340.641	39.59
340.854	0.68
341.066	17.07
341.278	113.32
341.491	90.79
341.703	47.79
341.915	21.16
342.128	-54.61
342.34	-19.8
342.552	-38.23
342.764	35.5
342.977	39.59
343.189	64.17
343.401	68.27
343.613	17.07
343.826	96.94
344.038	55.98
344.25	47.79
344.462	2.73
344.674	35.5
344.886	27.31
345.099	-40.28
345.311	66.22
345.523	-1.37
345.735	55.98
345.947	10.92
346.159	55.98
346.371	-32.08
346.583	-7.51
346.795	47.79
347.007	68.27
347.219	80.55
347.431	51.88
347.643	27.31
347.855	-46.42
348.067	90.79
348.279	23.21
348.491	-27.99
348.703	51.88
348.915	17.07
349.127	2.73
349.339	25.26
349.551	6.83
349.763	68.27
349.975	-23.89
350.187	-25.94
350.399	74.41
350.61	129.7
350.822	43.69
351.034	76.46
351.246	-9.56
351.458	12.97
351.669	76.46
351.881	92.84
352.093	35.5
352.305	41.64
352.517	4.78
352.728	76.46
352.94	19.11
353.152	60.07
353.363	-3.41
353.575	47.79
353.787	135.85
353.999	60.07
354.21	82.6
354.422	29.35
354.633	66.22
354.845	33.45
355.057	17.07
355.268	8.87
355.48	92.84
355.692	-52.56
355.903	-13.65
356.115	41.64
356.326	-1.37
356.538	21.16
356.749	19.11
356.961	55.98
357.172	0.68
357.384	-17.75
357.595	123.56
357.807	17.07
358.018	47.79
358.23	10.92
358.441	25.26
358.653	101.03
358.864	53.93
359.075	107.18
359.287	55.98
359.498	49.83
359.709	25.26
359.921	33.45
360.132	-25.94
360.344	23.21
360.555	15.02
360.766	43.69
360.977	39.59
361.189	55.98
361.4	68.27
361.611	64.17
361.823	84.65
362.034	49.83
362.245	-40.28
362.456	6.83
362.667	47.79
362.879	-23.89
363.09	25.26
363.301	23.21
363.512	113.32
363.723	90.79
363.935	90.79
364.146	60.07
364.357	23.21
364.568	27.31
364.779	15.02
364.99	-1.37
365.201	49.83
365.412	78.51
365.623	-5.46
365.834	66.22
366.045	78.51
366.256	0.68
366.467	33.45
366.678	66.22
366.889	80.55
367.1	19.11
367.311	25.26
367.522	19.11
367.733	70.31
367.944	23.21
368.155	58.03
368.366	80.55
368.577	103.08
368.788	-13.65
368.999	15.02
369.209	55.98
369.42	58.03
369.631	92.84
369.842	47.79
370.053	96.94
370.264	47.79
370.474	6.83
370.685	43.69
370.896	-7.51
371.107	113.32
371.317	47.79
371.528	125.61
371.739	33.45
371.95	141.99
372.16	64.17
372.371	-48.47
372.582	31.4
372.792	62.12
373.003	64.17
373.214	115.37
373.424	23.21
373.635	10.92
373.846	101.03
374.056	58.03
374.267	23.21
374.477	111.27
374.688	37.55
374.898	90.79
375.109	51.88
375.319	68.27
375.53	129.7
375.74	39.59
375.951	80.55
376.161	55.98
376.372	27.31
376.582	6.83
376.793	101.03
377.003	25.26
377.214	39.59
377.424	45.74
377.635	105.13
377.845	55.98
378.055	51.88
378.266	-13.65
378.476	72.36
378.686	10.92
378.897	64.17
379.107	23.21
379.317	88.75
379.528	58.03
379.738	113.32
379.948	15.02
380.158	39.59
380.369	72.36
380.579	92.84
380.789	-81.24
380.999	55.98
381.21	-30.04
381.42	60.07
381.63	39.59
381.84	72.36
382.05	-36.18
382.261	8.87
382.471	66.22
382.681	113.32
382.891	43.69
383.101	17.07
383.311	-11.61
383.521	33.45
383.731	72.36
383.941	80.55
384.151	47.79
384.361	66.22
384.571	-5.46
384.781	66.22
384.991	139.94
385.201	154.28
385.411	103.08
385.621	58.03
385.831	68.27
386.041	2.73
386.251	76.46
386.461	60.07
386.671	105.13
386.881	33.45
387.091	49.83
387.301	123.56
387.511	74.41
387.72	121.51
387.93	29.35
388.14	15.02
388.35	25.26
388.56	121.51
388.769	27.31
388.979	68.27
389.189	17.07
389.399	37.55
389.609	43.69
389.818	80.55
390.028	35.5
390.238	76.46
390.447	47.79
390.657	74.41
390.867	90.79
391.076	15.02
391.286	58.03
391.496	88.75
391.705	53.93
391.915	49.83
392.125	43.69
392.334	88.75
392.544	31.4
392.753	8.87
392.963	96.94
393.172	19.11
393.382	66.22
393.591	101.03
393.801	88.75
394.01	148.14
394.22	127.66
394.429	39.59
394.639	82.6
394.848	55.98
395.058	-23.89
395.267	80.55
395.477	80.55
395.686	156.33
395.895	66.22
396.105	197.29
396.314	41.64
396.524	55.98
396.733	31.4
396.942	80.55
397.152	94.89
397.361	105.13
397.57	131.75
397.78	117.42
397.989	80.55
398.198	195.24
398.407	55.98
398.617	0.68
398.826	68.27
399.035	74.41
399.244	129.7
399.453	23.21
399.663	82.6
399.872	96.94
400.081	58.03
400.29	166.57
400.499	60.07
400.708	109.23
400.917	80.55
401.127	88.75
401.336	55.98
401.545	166.57
401.754	111.27
401.963	64.17
402.172	55.98
402.381	150.18
402.59	82.6
402.799	170.66
403.008	49.83
403.217	191.14
403.426	60.07
403.635	84.65
403.844	156.33
404.053	121.51
404.262	162.47
404.471	176.81
404.68	90.79
404.888	137.9
405.097	109.23
405.306	82.6
405.515	205.48
405.724	152.23
405.933	178.86
406.142	223.91
406.35	154.28
406.559	178.86
406.768	213.67
406.977	268.97
407.185	162.47
407.394	162.47
407.603	158.38
407.812	254.63
408.02	283.3
408.229	215.72
408.438	221.86
408.646	223.91
408.855	217.77
409.064	279.21
409.272	279.21
409.481	363.17
409.69	228.01
409.898	221.86
410.107	359.08
410.315	342.69
410.524	352.93
410.733	336.55
410.941	377.51
411.15	385.7
411.358	365.22
411.567	393.89
411.775	350.89
411.984	490.15
412.192	418.47
412.401	463.52
412.609	465.57
412.818	508.58
413.026	553.63
413.234	524.96
413.443	576.16
413.651	584.35
413.86	586.4
414.068	746.14
414.276	711.33
414.485	615.07
414.693	666.27
414.901	653.98
415.11	778.91
415.318	717.47
415.526	789.15
415.734	768.67
415.943	846.49
416.151	932.51
416.359	850.59
416.567	940.7
416.776	957.08
416.984	1047.19
417.192	1010.33
417.4	1063.58
417.608	1096.35
417.817	1084.06
418.025	1131.16
418.233	1204.89
418.441	1182.36
418.649	1342.1
418.857	1424.02
419.065	1415.83
419.273	1419.92
419.481	1368.73
419.689	1571.47
419.897	1587.86
420.105	1606.29
420.313	1747.6
420.521	1798.8
420.729	1718.93
420.937	1847.95
421.145	1907.34
421.353	2050.7
421.561	2040.46
421.769	2085.51
421.977	2253.45
422.185	2235.02
422.393	2290.31
422.601	2468.49
422.809	2513.54
423.017	2355.85
423.224	2554.5
423.432	2593.41
423.64	2663.04
423.848	2976.38
424.056	2808.45
424.263	3029.63
424.471	3013.24
424.679	3056.25
424.887	3330.68
425.094	3369.59
425.302	3324.54
425.51	3539.57
425.718	3652.21
425.925	3670.64
426.133	3768.95
426.341	4045.42
426.548	4147.82
426.756	4063.85
426.964	4258.41
427.171	4346.47
427.379	4549.22
427.586	4627.04
427.794	4799.07
428.001	4842.08
428.209	5210.72
428.417	5132.89
428.624	5524.05
428.832	5376.6
429.039	5401.18
429.247	5403.22
429.454	5904.98
429.662	6369.87
429.869	5855.83
430.076	6412.87
430.284	6269.52
430.491	6357.58
430.699	6634.05
430.906	6767.17
431.114	6963.78
431.321	7133.76
431.528	7279.16
431.736	7735.86
431.943	7930.42
432.15	7977.52
432.358	7719.48
432.565	8477.23
432.772	8432.17
432.979	8763.94
433.187	8747.56
433.394	8845.86
433.601	9665.05
433.808	9511.45
434.016	9529.88
434.223	9841.17
434.43	10418.7
434.637	10185.23
434.844	10715.66
435.052	10816.01
435.259	10820.1
435.466	11176.45
435.673	11037.19
435.88	11504.12
436.087	12196.34
436.294	12347.89
436.501	12091.89
436.708	12270.06
436.915	12704.23
437.122	13031.91
437.329	13154.79
437.537	13511.13
437.743	13740.5
437.95	13763.03
438.157	14639.56
438.364	14924.23
438.571	14741.96
438.778	14838.22
438.985	16359.86
439.192	15616.44
439.399	16073.14
439.606	15661.5
439.813	16718.25
440.02	17801.63
440.227	17422.75
440.433	17310.11
440.64	17668.51
440.847	17392.03
441.054	18069.91
441.261	18999.69
441.467	18778.51
441.674	19607.94
441.881	20109.69
442.088	19945.85
442.294	19966.33
442.501	20287.86
442.708	20873.58
442.914	21711.2
443.121	22468.95
443.328	22022.49
443.534	23191.88
443.741	22552.91
443.948	22524.24
444.154	23650.63
444.361	23914.81
444.568	23839.04
444.774	23908.67
444.981	24230.2
445.187	24631.6
445.394	25848.1
445.6	25649.44
445.807	28217.6
446.013	27146.51
446.22	27453.7
446.426	28629.24
446.633	28698.87
446.839	29829.35
447.046	28358.91
447.252	30310.62
447.459	30009.57
447.665	29946.08
447.871	31205.58
448.078	32469.18
448.284	30804.18
448.491	31721.67
448.697	32909.49
448.903	33644.71
449.11	33538.22
449.316	33011.89
449.522	33779.88
449.728	34859.16
449.935	34635.93
450.141	34676.89
450.347	35702.92
450.553	34502.81
450.76	35070.1
450.966	36036.74
451.172	35514.51
451.378	36937.85
451.584	35735.69
451.791	36702.33
451.997	36847.74
452.203	37122.16
452.409	36974.71
452.615	37128.31
452.821	35467.41
453.027	35324.05
453.233	36790.39
453.44	35403.92
453.646	35938.44
453.852	35991.69
454.058	36687.99
454.264	35539.08
454.47	36169.86
454.676	35164.31
454.882	36425.85
455.088	33226.93
455.294	33970.34
455.5	34097.31
455.705	34842.77
455.911	33208.5
456.117	32889.01
456.323	32426.17
456.529	30642.39
456.735	31699.14
456.941	30826.71
457.147	30501.08
457.352	29417.71
457.558	29282.54
457.764	29346.03
457.97	28467.45
458.176	28006.66
458.381	27916.54
458.587	26984.72
458.793	26499.35
458.999	25202.99
459.204	26806.55
459.41	26001.69
459.616	24621.36
459.821	24688.95
460.027	24351.03
460.233	23632.19
460.438	22813.01
460.644	23023.95
460.85	21907.8
461.055	21225.83
461.261	21608.8
461.466	19822.97
461.672	19014.02
461.878	20420.98
462.083	18997.64
462.289	18565.52
462.494	18592.14
462.7	17762.72
462.905	17351.07
463.111	17387.94
463.316	17871.26
463.522	17672.6
463.727	17488.29
463.932	17631.65
464.138	17267.11
464.343	17566.11
464.549	16964.01
464.754	17414.56
464.959	17260.96
465.165	17090.98
465.37	16462.26
465.575	16052.66
465.781	16771.5
465.986	16679.34
466.191	16128.44
466.397	15841.72
466.602	14662.09
466.807	15448.51
467.012	15716.79
467.218	15440.32
