Data from USB4F104151__79__14-30-30-648.txt Node

Date: Thu Mar 13 14:30:30 EDT 2025
User: louis
Spectrometer: USB4F10415
Trigger mode: 4
Integration Time (sec): 2.500000E-2
Scans to average: 1
Electric dark correction enabled: true
Nonlinearity correction enabled: false
Boxcar width: 0
XAxis mode: Wavelengths
Number of Pixels in Spectrum: 3648
>>>>>Begin Spectral Data<<<<<
178.204	-215.89
178.424	-215.89
178.644	-215.89
178.864	-156.5
179.084	-119.64
179.304	-9.05
179.524	44.2
179.744	46.25
179.964	-9.05
180.184	-2.9
180.404	5.29
180.624	-25.43
180.844	-33.62
181.064	-72.53
181.283	-15.19
181.503	-31.57
181.723	103.59
181.943	46.25
182.163	3.24
182.383	46.25
182.602	15.53
182.822	64.68
183.042	97.45
183.262	-0.85
183.482	31.91
183.701	31.91
183.921	46.25
184.141	-31.57
184.361	72.87
184.58	33.96
184.8	56.49
185.02	-9.05
185.239	7.34
185.459	-15.19
185.679	91.31
185.898	21.67
186.118	56.49
186.338	62.63
186.557	54.44
186.777	-7
186.997	48.3
187.216	79.02
187.436	70.83
187.655	83.11
187.875	42.15
188.095	-19.29
188.314	122.02
188.534	66.73
188.753	83.11
188.973	25.77
189.192	79.02
189.412	52.39
189.631	-35.67
189.851	66.73
190.07	29.87
190.29	-7
190.509	15.53
190.729	62.63
190.948	128.17
191.168	99.5
191.387	62.63
191.607	91.31
191.826	74.92
192.045	23.72
192.265	17.58
192.484	40.11
192.704	66.73
192.923	-17.24
193.142	195.75
193.362	17.58
193.581	58.54
193.8	68.78
194.02	54.44
194.239	87.21
194.458	-27.48
194.678	50.35
194.897	103.59
195.116	13.48
195.335	-35.67
195.555	79.02
195.774	7.34
195.993	89.26
196.212	-15.19
196.432	91.31
196.651	40.11
196.87	7.34
197.089	46.25
197.308	91.31
197.528	48.3
197.747	13.48
197.966	91.31
198.185	87.21
198.404	7.34
198.623	-2.9
198.842	62.63
199.062	17.58
199.281	111.78
199.5	42.15
199.719	79.02
199.938	56.49
200.157	62.63
200.376	-0.85
200.595	70.83
200.814	62.63
201.033	25.77
201.252	29.87
201.471	40.11
201.69	105.64
201.909	56.49
202.128	21.67
202.347	46.25
202.566	103.59
202.785	40.11
203.004	66.73
203.223	109.74
203.442	115.88
203.661	54.44
203.879	31.91
204.098	74.92
204.317	13.48
204.536	175.27
204.755	89.26
204.974	56.49
205.193	21.67
205.411	89.26
205.63	38.06
205.849	38.06
206.068	72.87
206.287	40.11
206.505	38.06
206.724	42.15
206.943	46.25
207.162	13.48
207.381	68.78
207.599	54.44
207.818	15.53
208.037	-2.9
208.255	36.01
208.474	-11.09
208.693	27.82
208.911	27.82
209.13	52.39
209.349	68.78
209.567	23.72
209.786	132.26
210.005	3.24
210.223	72.87
210.442	25.77
210.661	70.83
210.879	27.82
211.098	15.53
211.316	21.67
211.535	76.97
211.753	50.35
211.972	-11.09
212.191	27.82
212.409	17.58
212.628	74.92
212.846	95.4
213.065	46.25
213.283	169.13
213.502	-23.38
213.72	58.54
213.938	13.48
214.157	42.15
214.375	54.44
214.594	56.49
214.812	62.63
215.031	36.01
215.249	93.35
215.467	54.44
215.686	40.11
215.904	62.63
216.122	13.48
216.341	148.65
216.559	122.02
216.778	103.59
216.996	107.69
217.214	111.78
217.432	1.19
217.651	-25.43
217.869	74.92
218.087	-7
218.306	13.48
218.524	-0.85
218.742	36.01
218.96	70.83
219.179	-50
219.397	13.48
219.615	70.83
219.833	72.87
220.051	46.25
220.27	97.45
220.488	79.02
220.706	-27.48
220.924	46.25
221.142	-0.85
221.36	70.83
221.578	31.91
221.796	70.83
222.015	48.3
222.233	95.4
222.451	87.21
222.669	19.63
222.887	99.5
223.105	-80.72
223.323	42.15
223.541	38.06
223.759	31.91
223.977	62.63
224.195	25.77
224.413	124.07
224.631	66.73
224.849	31.91
225.067	72.87
225.285	-19.29
225.503	-11.09
225.721	-39.76
225.939	46.25
226.157	1.19
226.375	162.98
226.592	19.63
226.81	-31.57
227.028	-2.9
227.246	124.07
227.464	25.77
227.682	87.21
227.9	5.29
228.117	17.58
228.335	128.17
228.553	15.53
228.771	62.63
228.989	-33.62
229.206	140.46
229.424	15.53
229.642	21.67
229.86	-39.76
230.077	-17.24
230.295	5.29
230.513	38.06
230.731	87.21
230.948	23.72
231.166	21.67
231.384	25.77
231.601	38.06
231.819	58.54
232.037	46.25
232.254	-25.43
232.472	46.25
232.689	17.58
232.907	5.29
233.125	-7
233.342	31.91
233.56	74.92
233.777	38.06
233.995	25.77
234.213	27.82
234.43	17.58
234.648	44.2
234.865	-62.29
235.083	-2.9
235.3	62.63
235.518	46.25
235.735	23.72
235.953	111.78
236.17	-9.05
236.388	29.87
236.605	64.68
236.822	-2.9
237.04	3.24
237.257	7.34
237.475	11.43
237.692	-0.85
237.909	-19.29
238.127	13.48
238.344	79.02
238.562	38.06
238.779	48.3
238.996	52.39
239.214	56.49
239.431	-7
239.648	-7
239.865	74.92
240.083	64.68
240.3	7.34
240.517	1.19
240.735	-7
240.952	19.63
241.169	97.45
241.386	-2.9
241.603	-2.9
241.821	21.67
242.038	23.72
242.255	62.63
242.472	-76.63
242.689	85.16
242.907	70.83
243.124	-17.24
243.341	7.34
243.558	74.92
243.775	-72.53
243.992	52.39
244.209	38.06
244.426	91.31
244.643	46.25
244.86	58.54
245.078	70.83
245.295	107.69
245.512	113.83
245.729	29.87
245.946	33.96
246.163	38.06
246.38	29.87
246.597	70.83
246.814	54.44
247.031	58.54
247.248	70.83
247.464	-27.48
247.681	56.49
247.898	-11.09
248.115	29.87
248.332	-33.62
248.549	91.31
248.766	136.36
248.983	89.26
249.2	72.87
249.417	23.72
249.633	9.39
249.85	17.58
250.067	40.11
250.284	5.29
250.501	33.96
250.717	64.68
250.934	64.68
251.151	33.96
251.368	-17.24
251.585	33.96
251.801	31.91
252.018	27.82
252.235	111.78
252.451	21.67
252.668	54.44
252.885	72.87
253.102	40.11
253.318	72.87
253.535	-23.38
253.752	87.21
253.968	33.96
254.185	-35.67
254.401	25.77
254.618	19.63
254.835	44.2
255.051	122.02
255.268	52.39
255.484	46.25
255.701	70.83
255.917	117.93
256.134	42.15
256.351	46.25
256.567	13.48
256.784	31.91
257	-19.29
257.217	-9.05
257.433	46.25
257.65	101.55
257.866	56.49
258.082	13.48
258.299	5.29
258.515	25.77
258.732	9.39
258.948	31.91
259.165	91.31
259.381	107.69
259.597	5.29
259.814	107.69
260.03	31.91
260.246	117.93
260.463	103.59
260.679	40.11
260.895	99.5
261.112	46.25
261.328	23.72
261.544	79.02
261.761	103.59
261.977	40.11
262.193	31.91
262.409	119.98
262.626	115.88
262.842	-35.67
263.058	13.48
263.274	62.63
263.49	-11.09
263.707	79.02
263.923	21.67
264.139	5.29
264.355	13.48
264.571	64.68
264.787	76.97
265.004	173.22
265.22	-9.05
265.436	7.34
265.652	5.29
265.868	134.31
266.084	-72.53
266.3	72.87
266.516	-78.68
266.732	48.3
266.948	70.83
267.164	21.67
267.38	83.11
267.596	-35.67
267.812	27.82
268.028	31.91
268.244	7.34
268.46	93.35
268.676	-2.9
268.892	23.72
269.108	128.17
269.324	46.25
269.54	21.67
269.756	152.74
269.972	-11.09
270.188	105.64
270.403	70.83
270.619	15.53
270.835	42.15
271.051	23.72
271.267	54.44
271.483	46.25
271.698	25.77
271.914	46.25
272.13	66.73
272.346	21.67
272.562	1.19
272.777	105.64
272.993	115.88
273.209	33.96
273.425	70.83
273.64	42.15
273.856	74.92
274.072	58.54
274.287	-9.05
274.503	15.53
274.719	21.67
274.934	3.24
275.15	5.29
275.366	-11.09
275.581	79.02
275.797	17.58
276.012	29.87
276.228	7.34
276.444	48.3
276.659	48.3
276.875	-11.09
277.09	87.21
277.306	33.96
277.521	115.88
277.737	-17.24
277.952	76.97
278.168	-0.85
278.383	52.39
278.599	40.11
278.814	74.92
279.03	46.25
279.245	146.6
279.461	27.82
279.676	62.63
279.892	44.2
280.107	48.3
280.322	46.25
280.538	68.78
280.753	29.87
280.969	105.64
281.184	83.11
281.399	81.07
281.615	58.54
281.83	-0.85
282.045	27.82
282.26	21.67
282.476	56.49
282.691	70.83
282.906	29.87
283.122	74.92
283.337	5.29
283.552	56.49
283.767	-74.58
283.983	111.78
284.198	-4.95
284.413	21.67
284.628	83.11
284.843	38.06
285.058	154.79
285.274	48.3
285.489	-2.9
285.704	95.4
285.919	62.63
286.134	38.06
286.349	27.82
286.564	15.53
286.779	66.73
286.995	89.26
287.21	31.91
287.425	29.87
287.64	13.48
287.855	132.26
288.07	-17.24
288.285	119.98
288.5	97.45
288.715	56.49
288.93	-17.24
289.145	83.11
289.36	31.91
289.575	54.44
289.79	52.39
290.004	-4.95
290.219	87.21
290.434	46.25
290.649	-15.19
290.864	91.31
291.079	25.77
291.294	42.15
291.509	46.25
291.724	-0.85
291.938	54.44
292.153	46.25
292.368	1.19
292.583	95.4
292.798	38.06
293.012	50.35
293.227	62.63
293.442	56.49
293.657	5.29
293.871	81.07
294.086	38.06
294.301	38.06
294.516	44.2
294.73	79.02
294.945	5.29
295.16	13.48
295.374	54.44
295.589	70.83
295.804	46.25
296.018	3.24
296.233	79.02
296.447	46.25
296.662	-2.9
296.877	89.26
297.091	99.5
297.306	95.4
297.52	40.11
297.735	48.3
297.949	70.83
298.164	46.25
298.378	83.11
298.593	17.58
298.807	54.44
299.022	38.06
299.236	152.74
299.451	107.69
299.665	50.35
299.88	36.01
300.094	-2.9
300.309	91.31
300.523	36.01
300.737	54.44
300.952	5.29
301.166	-7
301.381	-0.85
301.595	-68.44
301.809	74.92
302.024	48.3
302.238	62.63
302.452	136.36
302.667	70.83
302.881	38.06
303.095	79.02
303.309	56.49
303.524	54.44
303.738	-2.9
303.952	-25.43
304.166	62.63
304.381	-15.19
304.595	68.78
304.809	81.07
305.023	5.29
305.237	68.78
305.452	103.59
305.666	-13.14
305.88	81.07
306.094	33.96
306.308	89.26
306.522	29.87
306.736	66.73
306.95	144.55
307.164	33.96
307.379	103.59
307.593	107.69
307.807	48.3
308.021	38.06
308.235	93.35
308.449	-43.86
308.663	21.67
308.877	38.06
309.091	42.15
309.305	48.3
309.519	13.48
309.733	81.07
309.947	56.49
310.161	70.83
310.374	46.25
310.588	70.83
310.802	-2.9
311.016	38.06
311.23	33.96
311.444	95.4
311.658	62.63
311.872	46.25
312.085	107.69
312.299	130.22
312.513	38.06
312.727	54.44
312.941	7.34
313.154	79.02
313.368	5.29
313.582	64.68
313.796	91.31
314.009	56.49
314.223	140.46
314.437	31.91
314.651	50.35
314.864	58.54
315.078	50.35
315.292	-27.48
315.505	15.53
315.719	38.06
315.933	-9.05
316.146	54.44
316.36	54.44
316.573	103.59
316.787	13.48
317.001	105.64
317.214	3.24
317.428	-0.85
317.641	17.58
317.855	44.2
318.068	107.69
318.282	81.07
318.495	99.5
318.709	128.17
318.922	60.59
319.136	70.83
319.349	48.3
319.563	56.49
319.776	117.93
319.99	-31.57
320.203	-13.14
320.417	105.64
320.63	33.96
320.843	103.59
321.057	119.98
321.27	54.44
321.483	7.34
321.697	54.44
321.91	99.5
322.124	21.67
322.337	68.78
322.55	46.25
322.763	15.53
322.977	89.26
323.19	-2.9
323.403	87.21
323.617	72.87
323.83	85.16
324.043	29.87
324.256	56.49
324.469	81.07
324.683	101.55
324.896	40.11
325.109	79.02
325.322	-17.24
325.535	101.55
325.748	66.73
325.962	21.67
326.175	54.44
326.388	42.15
326.601	97.45
326.814	40.11
327.027	56.49
327.24	169.13
327.453	-68.44
327.666	46.25
327.879	62.63
328.092	107.69
328.305	1.19
328.518	46.25
328.731	-0.85
328.944	5.29
329.157	101.55
329.37	58.54
329.583	89.26
329.796	68.78
330.009	11.43
330.222	87.21
330.435	105.64
330.648	25.77
330.861	5.29
331.073	48.3
331.286	33.96
331.499	132.26
331.712	15.53
331.925	99.5
332.138	1.19
332.35	148.65
332.563	48.3
332.776	72.87
332.989	5.29
333.202	56.49
333.414	33.96
333.627	66.73
333.84	33.96
334.053	66.73
334.265	-62.29
334.478	-7
334.691	38.06
334.903	70.83
335.116	13.48
335.329	117.93
335.541	58.54
335.754	91.31
335.966	33.96
336.179	97.45
336.392	70.83
336.604	38.06
336.817	91.31
337.029	68.78
337.242	72.87
337.454	40.11
337.667	-2.9
337.88	160.94
338.092	50.35
338.305	62.63
338.517	38.06
338.729	62.63
338.942	89.26
339.154	23.72
339.367	15.53
339.579	79.02
339.792	-35.67
340.004	74.92
340.217	79.02
340.429	54.44
340.641	62.63
340.854	-17.24
341.066	23.72
341.278	111.78
341.491	152.74
341.703	97.45
341.915	44.2
342.128	17.58
342.34	79.02
342.552	-35.67
342.764	13.48
342.977	50.35
343.189	48.3
343.401	124.07
343.613	54.44
343.826	46.25
344.038	93.35
344.25	9.39
344.462	38.06
344.674	109.74
344.886	50.35
345.099	87.21
345.311	62.63
345.523	21.67
345.735	-41.81
345.947	81.07
346.159	13.48
346.371	107.69
346.583	79.02
346.795	95.4
347.007	15.53
347.219	66.73
347.431	17.58
347.643	64.68
347.855	46.25
348.067	156.84
348.279	122.02
348.491	66.73
348.703	111.78
348.915	60.59
349.127	-11.09
349.339	7.34
349.551	25.77
349.763	58.54
349.975	29.87
350.187	97.45
350.399	11.43
350.61	113.83
350.822	31.91
351.034	29.87
351.246	25.77
351.458	27.82
351.669	56.49
351.881	48.3
352.093	23.72
352.305	79.02
352.517	-13.14
352.728	70.83
352.94	56.49
353.152	111.78
353.363	83.11
353.575	115.88
353.787	40.11
353.999	23.72
354.21	105.64
354.422	38.06
354.633	-0.85
354.845	70.83
355.057	21.67
355.268	85.16
355.48	76.97
355.692	48.3
355.903	48.3
356.115	38.06
356.326	17.58
356.538	115.88
356.749	48.3
356.961	103.59
357.172	50.35
357.384	38.06
357.595	136.36
357.807	42.15
358.018	33.96
358.23	64.68
358.441	72.87
358.653	29.87
358.864	99.5
359.075	31.91
359.287	74.92
359.498	52.39
359.709	70.83
359.921	72.87
360.132	128.17
360.344	40.11
360.555	60.59
360.766	111.78
360.977	25.77
361.189	89.26
361.4	79.02
361.611	74.92
361.823	95.4
362.034	99.5
362.245	21.67
362.456	21.67
362.667	76.97
362.879	-19.29
363.09	5.29
363.301	89.26
363.512	89.26
363.723	42.15
363.935	50.35
364.146	54.44
364.357	13.48
364.568	103.59
364.779	62.63
364.99	113.83
365.201	105.64
365.412	105.64
365.623	33.96
365.834	25.77
366.045	62.63
366.256	64.68
366.467	97.45
366.678	40.11
366.889	1.19
367.1	66.73
367.311	62.63
367.522	62.63
367.733	87.21
367.944	83.11
368.155	-2.9
368.366	91.31
368.577	136.36
368.788	62.63
368.999	48.3
369.209	93.35
369.42	150.7
369.631	111.78
369.842	42.15
370.053	-25.43
370.264	33.96
370.474	62.63
370.685	62.63
370.896	97.45
371.107	50.35
371.317	5.29
371.528	46.25
371.739	54.44
371.95	54.44
372.16	83.11
372.371	97.45
372.582	17.58
372.792	93.35
373.003	105.64
373.214	38.06
373.424	70.83
373.635	79.02
373.846	54.44
374.056	68.78
374.267	115.88
374.477	74.92
374.688	48.3
374.898	83.11
375.109	25.77
375.319	38.06
375.53	189.61
375.74	103.59
375.951	60.59
376.161	136.36
376.372	97.45
376.582	-17.24
376.793	119.98
377.003	-27.48
377.214	17.58
377.424	70.83
377.635	50.35
377.845	5.29
378.055	95.4
378.266	7.34
378.476	87.21
378.686	76.97
378.897	66.73
379.107	48.3
379.317	68.78
379.528	107.69
379.738	128.17
379.948	44.2
380.158	81.07
380.369	93.35
380.579	95.4
380.789	54.44
380.999	115.88
381.21	97.45
381.42	95.4
381.63	38.06
381.84	99.5
382.05	38.06
382.261	48.3
382.471	50.35
382.681	40.11
382.891	87.21
383.101	81.07
383.311	95.4
383.521	95.4
383.731	79.02
383.941	134.31
384.151	79.02
384.361	-2.9
384.571	95.4
384.781	99.5
384.991	144.55
385.201	165.03
385.411	50.35
385.621	117.93
385.831	42.15
386.041	42.15
386.251	79.02
386.461	160.94
386.671	126.12
386.881	56.49
387.091	29.87
387.301	138.41
387.511	40.11
387.72	107.69
387.93	21.67
388.14	15.53
388.35	83.11
388.56	56.49
388.769	31.91
388.979	91.31
389.189	-7
389.399	95.4
389.609	103.59
389.818	79.02
390.028	109.74
390.238	162.98
390.447	23.72
390.657	7.34
390.867	36.01
391.076	21.67
391.286	21.67
391.496	5.29
391.705	105.64
391.915	103.59
392.125	148.65
392.334	97.45
392.544	40.11
392.753	70.83
392.963	21.67
393.172	79.02
393.382	48.3
393.591	140.46
393.801	38.06
394.01	42.15
394.22	134.31
394.429	62.63
394.639	74.92
394.848	138.41
395.058	54.44
395.267	89.26
395.477	115.88
395.686	148.65
395.895	197.8
396.105	138.41
396.314	169.13
396.524	158.89
396.733	165.03
396.942	162.98
397.152	111.78
397.361	105.64
397.57	152.74
397.78	111.78
397.989	113.83
398.198	226.47
398.407	119.98
398.617	107.69
398.826	40.11
399.035	31.91
399.244	119.98
399.453	160.94
399.663	87.21
399.872	48.3
400.081	142.5
400.29	111.78
400.499	87.21
400.708	201.9
400.917	148.65
401.127	130.22
401.336	128.17
401.545	101.55
401.754	113.83
401.963	169.13
402.172	115.88
402.381	95.4
402.59	136.36
402.799	152.74
403.008	152.74
403.217	97.45
403.426	201.9
403.635	132.26
403.844	79.02
404.053	138.41
404.262	154.79
404.471	220.33
404.68	128.17
404.888	150.7
405.097	136.36
405.306	187.56
405.515	152.74
405.724	210.09
405.933	242.85
406.142	150.7
406.35	218.28
406.559	158.89
406.768	158.89
406.977	218.28
407.185	197.8
407.394	210.09
407.603	224.42
407.812	226.47
408.02	242.85
408.229	201.9
408.438	220.33
408.646	189.61
408.855	292.01
409.064	335.01
409.272	249
409.481	400.55
409.69	269.48
409.898	238.76
410.107	365.73
410.315	320.68
410.524	332.97
410.733	404.64
410.941	263.33
411.15	504.99
411.358	416.93
411.567	500.9
411.775	394.4
411.984	488.61
412.192	437.41
412.401	509.09
412.609	529.57
412.818	554.15
413.026	533.67
413.234	603.3
413.443	554.15
413.651	613.54
413.86	603.3
414.068	636.06
414.276	660.64
414.485	603.3
414.693	668.83
414.901	752.8
415.11	648.35
415.318	767.13
415.526	840.86
415.734	783.52
415.943	867.49
416.151	898.2
416.359	912.54
416.567	914.59
416.776	984.22
416.984	1055.9
417.192	1049.75
417.4	1092.76
417.608	1076.38
417.817	1148.06
418.025	1096.86
418.233	1236.12
418.441	1209.5
418.649	1295.51
418.857	1322.13
419.065	1442.96
419.273	1289.37
419.481	1502.36
419.689	1563.79
419.897	1614.99
420.105	1713.3
420.313	1672.34
420.521	1672.34
420.729	1787.02
420.937	1797.26
421.145	1787.02
421.353	1905.81
421.561	2065.55
421.769	2036.88
421.977	2178.19
422.185	2165.9
422.393	2348.17
422.601	2399.37
422.809	2385.03
423.017	2464.9
423.224	2509.96
423.432	2614.4
423.64	2638.98
423.848	2899.07
424.056	2741.38
424.263	3048.57
424.471	2931.84
424.679	3069.05
424.887	3177.59
425.094	3447.93
425.302	3269.75
425.51	3499.13
425.718	3681.39
425.925	3593.33
426.133	3716.21
426.341	4011.12
426.548	4142.19
426.756	4109.42
426.964	4215.91
427.171	4314.22
427.379	4381.8
427.586	4553.83
427.794	4764.77
428.001	4828.26
428.209	5168.22
428.417	5055.58
428.624	5504.09
428.832	5356.63
429.039	5387.35
429.247	5487.7
429.454	5805.14
429.662	6157.39
429.869	5960.78
430.076	6227.02
430.284	5968.98
430.491	6313.03
430.699	6595.65
430.906	6591.56
431.114	6904.9
431.321	7013.44
431.528	7197.76
431.736	7427.13
431.943	7894.07
432.15	7824.44
432.358	7771.19
432.565	8260.65
432.772	8260.65
432.979	8459.31
433.187	8698.92
433.394	8782.88
433.601	9534.49
433.808	9460.76
434.016	9405.47
434.223	9831.44
434.43	10546.19
434.637	10230.8
434.844	11017.22
435.052	10859.52
435.259	10937.35
435.466	10947.59
435.673	10738.69
435.88	11645.94
436.087	11930.61
436.294	11977.72
436.501	11998.2
436.708	12045.3
436.915	12497.9
437.122	13179.87
437.329	12940.26
437.537	13571.04
437.743	13556.7
437.95	13300.7
438.157	14509.01
438.364	14697.42
438.571	14642.12
438.778	14771.15
438.985	15942.58
439.192	15508.41
439.399	16094.13
439.606	15406.02
439.813	16688.04
440.02	17687.45
440.227	17103.78
440.433	16964.52
440.64	17527.71
440.847	17404.83
441.054	17871.77
441.261	18963.34
441.467	18791.31
441.674	19084.17
441.881	19985.27
442.088	20181.88
442.294	19583.87
442.501	20149.11
442.708	20663.15
442.914	21316.45
443.121	22322.01
443.328	21668.7
443.534	23110.47
443.741	22344.53
443.948	22031.19
444.154	23876.41
444.361	23915.33
444.568	23819.07
444.774	23755.58
444.981	24136.51
445.187	24937.26
445.394	25864.99
445.6	25492.26
445.807	27955.97
446.013	26755.86
446.22	27312.91
446.426	27833.09
446.633	28361.47
446.839	29532.9
447.046	28158.72
447.252	29928.16
447.459	29934.31
447.665	29547.24
447.871	30946
448.078	32318.14
448.284	31224.53
448.491	31849.16
448.697	32905.91
448.903	33227.44
449.11	33856.17
449.316	32899.76
449.522	33434.28
449.728	34493.08
449.935	34886.29
450.141	35011.22
450.347	35521.16
450.553	34474.65
450.76	34831
450.966	35801.74
451.172	35537.55
451.378	36596.35
451.584	35719.82
451.791	36571.77
451.997	36725.37
452.203	37053.05
452.409	37218.93
452.615	36878.97
452.821	35584.65
453.027	35089.04
453.233	37399.15
453.44	35590.8
453.646	35881.61
453.852	36573.82
454.058	36496
454.264	35478.16
454.47	36442.75
454.676	35431.05
454.882	36475.52
455.088	33495.72
455.294	33968.8
455.5	34429.6
455.705	34669.21
455.911	33274.54
456.117	32580.28
456.323	32465.6
456.529	30640.86
456.735	32123.58
456.941	31148.75
457.147	30599.9
457.352	29747.94
457.558	29055.73
457.764	29467.37
457.97	28908.27
458.176	27765.51
458.381	27867.91
458.587	26823.44
458.793	26577.69
458.999	25369.38
459.204	27151.12
459.41	26114.84
459.616	24357.69
459.821	24537.91
460.027	24673.07
460.233	24060.73
460.438	22928.2
460.644	22999.88
460.85	22049.63
461.055	21713.76
461.261	21437.28
461.466	19899.26
461.672	19321.73
461.878	20757.36
462.083	19227.53
462.289	18766.73
462.494	18703.25
462.7	18107.29
462.905	17540
463.111	17931.16
463.316	18289.56
463.522	17626.01
463.727	17873.82
463.932	17558.43
464.138	17558.43
464.343	17474.46
464.549	16876.46
464.754	17583.01
464.959	17146.79
465.165	17212.32
465.37	16524.21
465.575	16067.51
465.781	16559.02
465.986	16876.46
466.191	16217.01
466.397	15963.06
466.602	14867.4
466.807	15672.25
467.012	15733.69
467.218	15256.51
467.423	15076.29
