Data from USB4F104151__91__14-30-42-620.txt Node

Date: Thu Mar 13 14:30:42 EDT 2025
User: louis
Spectrometer: USB4F10415
Trigger mode: 4
Integration Time (sec): 2.500000E-2
Scans to average: 1
Electric dark correction enabled: true
Nonlinearity correction enabled: false
Boxcar width: 0
XAxis mode: Wavelengths
Number of Pixels in Spectrum: 3648
>>>>>Begin Spectral Data<<<<<
178.204	-171.86
178.424	-171.86
178.644	-171.86
178.864	-196.43
179.084	-132.95
179.304	69.8
179.524	-5.97
179.744	-57.17
179.964	8.36
180.184	28.84
180.404	-83.8
180.624	0.17
180.844	14.51
181.064	22.7
181.283	-18.26
181.503	30.89
181.723	-10.07
181.943	-137.04
182.163	55.47
182.383	47.27
182.602	75.95
182.822	63.66
183.042	34.99
183.262	16.55
183.482	80.04
183.701	34.99
183.921	8.36
184.141	8.36
184.361	59.56
184.58	34.99
184.8	26.79
185.02	-30.55
185.239	57.51
185.459	22.7
185.679	47.27
185.898	-5.97
186.118	55.47
186.338	-8.02
186.557	41.13
186.777	26.79
186.997	2.22
187.216	30.89
187.436	90.28
187.655	43.18
187.875	-30.55
188.095	-18.26
188.314	-1.88
188.534	116.9
188.753	8.36
188.973	43.18
189.192	75.95
189.412	24.75
189.631	80.04
189.851	-18.26
190.07	8.36
190.29	6.31
190.509	75.95
190.729	75.95
190.948	96.43
191.168	161.96
191.387	71.85
191.607	92.33
191.826	-10.07
192.045	-67.41
192.265	65.71
192.484	75.95
192.704	65.71
192.923	45.23
193.142	145.58
193.362	65.71
193.581	53.42
193.8	104.62
194.02	-34.64
194.239	6.31
194.458	41.13
194.678	2.22
194.897	-8.02
195.116	30.89
195.335	22.7
195.555	28.84
195.774	67.75
195.993	41.13
196.212	6.31
196.432	-18.26
196.651	0.17
196.87	6.31
197.089	51.37
197.308	75.95
197.528	104.62
197.747	0.17
197.966	-57.17
198.185	55.47
198.404	75.95
198.623	51.37
198.842	6.31
199.062	43.18
199.281	98.47
199.5	47.27
199.719	63.66
199.938	57.51
200.157	-8.02
200.376	26.79
200.595	0.17
200.814	71.85
201.033	14.51
201.252	63.66
201.471	0.17
201.69	16.55
201.909	82.09
202.128	-24.4
202.347	98.47
202.566	-65.36
202.785	-10.07
203.004	6.31
203.223	100.52
203.442	88.23
203.661	-59.22
203.879	-10.07
204.098	92.33
204.317	6.31
204.536	30.89
204.755	57.51
204.974	18.6
205.193	26.79
205.411	116.9
205.63	39.08
205.849	-18.26
206.068	32.94
206.287	-40.79
206.505	61.61
206.724	90.28
206.943	22.7
207.162	14.51
207.381	28.84
207.599	-1.88
207.818	18.6
208.037	-28.5
208.255	-5.97
208.474	28.84
208.693	2.22
208.911	24.75
209.13	4.27
209.349	59.56
209.567	141.48
209.786	39.08
210.005	-8.02
210.223	82.09
210.442	-22.36
210.661	-16.21
210.879	-63.32
211.098	18.6
211.316	86.19
211.535	-1.88
211.753	8.36
211.972	88.23
212.191	14.51
212.409	137.38
212.628	51.37
212.846	-8.02
213.065	63.66
213.283	39.08
213.502	59.56
213.72	108.71
213.938	59.56
214.157	2.22
214.375	65.71
214.594	-28.5
214.812	-34.64
215.031	41.13
215.249	-38.74
215.467	0.17
215.686	34.99
215.904	41.13
216.122	63.66
216.341	59.56
216.559	71.85
216.778	55.47
216.996	55.47
217.214	18.6
217.432	-87.89
217.651	14.51
217.869	14.51
218.087	-14.17
218.306	-22.36
218.524	71.85
218.742	32.94
218.96	-34.64
219.179	-8.02
219.397	39.08
219.615	80.04
219.833	73.9
220.051	6.31
220.27	121
220.488	10.41
220.706	26.79
220.924	14.51
221.142	24.75
221.36	32.94
221.578	12.46
221.796	10.41
222.015	14.51
222.233	77.99
222.451	104.62
222.669	-44.88
222.887	47.27
223.105	-57.17
223.323	16.55
223.541	-38.74
223.759	125.1
223.977	20.65
224.195	71.85
224.413	123.05
224.631	-40.79
224.849	30.89
225.067	47.27
225.285	51.37
225.503	53.42
225.721	-26.45
225.939	77.99
226.157	6.31
226.375	114.86
226.592	-10.07
226.81	80.04
227.028	135.34
227.246	86.19
227.464	75.95
227.682	51.37
227.9	80.04
228.117	32.94
228.335	2.22
228.553	-1.88
228.771	112.81
228.989	6.31
229.206	41.13
229.424	-16.21
229.642	-1.88
229.86	8.36
230.077	88.23
230.295	80.04
230.513	39.08
230.731	45.23
230.948	12.46
231.166	141.48
231.384	98.47
231.601	24.75
231.819	6.31
232.037	39.08
232.254	14.51
232.472	63.66
232.689	2.22
232.907	133.29
233.125	16.55
233.342	43.18
233.56	-55.12
233.777	22.7
233.995	39.08
234.213	88.23
234.43	55.47
234.648	37.03
234.865	-38.74
235.083	41.13
235.3	24.75
235.518	80.04
235.735	96.43
235.953	71.85
236.17	88.23
236.388	28.84
236.605	49.32
236.822	47.27
237.04	63.66
237.257	43.18
237.475	-34.64
237.692	26.79
237.909	34.99
238.127	106.67
238.344	47.27
238.562	116.9
238.779	-14.17
238.996	39.08
239.214	30.89
239.431	39.08
239.648	12.46
239.865	55.47
240.083	55.47
240.3	30.89
240.517	82.09
240.735	98.47
240.952	86.19
241.169	-26.45
241.386	-26.45
241.603	-26.45
241.821	73.9
242.038	55.47
242.255	41.13
242.472	-3.93
242.689	84.14
242.907	153.77
243.124	34.99
243.341	-12.12
243.558	-5.97
243.775	92.33
243.992	18.6
244.209	14.51
244.426	55.47
244.643	96.43
244.86	6.31
245.078	114.86
245.295	80.04
245.512	90.28
245.729	18.6
245.946	22.7
246.163	84.14
246.38	59.56
246.597	10.41
246.814	10.41
247.031	32.94
247.248	43.18
247.464	0.17
247.681	18.6
247.898	65.71
248.115	14.51
248.332	6.31
248.549	39.08
248.766	53.42
248.983	18.6
249.2	63.66
249.417	82.09
249.633	-1.88
249.85	39.08
250.067	41.13
250.284	4.27
250.501	63.66
250.717	71.85
250.934	-24.4
251.151	-10.07
251.368	73.9
251.585	51.37
251.801	22.7
252.018	-5.97
252.235	14.51
252.451	-22.36
252.668	30.89
252.885	30.89
253.102	30.89
253.318	69.8
253.535	63.66
253.752	-16.21
253.968	80.04
254.185	-16.21
254.401	-16.21
254.618	80.04
254.835	-42.84
255.051	88.23
255.268	69.8
255.484	22.7
255.701	-59.22
255.917	49.32
256.134	-18.26
256.351	14.51
256.567	-5.97
256.784	73.9
257	37.03
257.217	59.56
257.433	-1.88
257.65	55.47
257.866	14.51
258.082	2.22
258.299	2.22
258.515	73.9
258.732	-34.64
258.948	-46.93
259.165	88.23
259.381	-3.93
259.597	-24.4
259.814	73.9
260.03	39.08
260.246	39.08
260.463	133.29
260.679	90.28
260.895	6.31
261.112	-16.21
261.328	-73.56
261.544	-1.88
261.761	96.43
261.977	-51.03
262.193	4.27
262.409	59.56
262.626	55.47
262.842	-51.03
263.058	53.42
263.274	43.18
263.49	28.84
263.707	30.89
263.923	71.85
264.139	-26.45
264.355	-10.07
264.571	59.56
264.787	18.6
265.004	24.75
265.22	47.27
265.436	6.31
265.652	49.32
265.868	22.7
266.084	18.6
266.3	100.52
266.516	22.7
266.732	43.18
266.948	-1.88
267.164	6.31
267.38	37.03
267.596	73.9
267.812	94.38
268.028	49.32
268.244	6.31
268.46	63.66
268.676	114.86
268.892	49.32
269.108	-10.07
269.324	22.7
269.54	28.84
269.756	67.75
269.972	-42.84
270.188	69.8
270.403	14.51
270.619	69.8
270.835	26.79
271.051	26.79
271.267	6.31
271.483	-14.17
271.698	18.6
271.914	84.14
272.13	65.71
272.346	47.27
272.562	112.81
272.777	55.47
272.993	80.04
273.209	80.04
273.425	6.31
273.64	43.18
273.856	110.76
274.072	22.7
274.287	8.36
274.503	104.62
274.719	51.37
274.934	71.85
275.15	-18.26
275.366	41.13
275.581	24.75
275.797	63.66
276.012	8.36
276.228	51.37
276.444	-22.36
276.659	88.23
276.875	55.47
277.09	-18.26
277.306	37.03
277.521	110.76
277.737	32.94
277.952	24.75
278.168	82.09
278.383	39.08
278.599	43.18
278.814	80.04
279.03	65.71
279.245	80.04
279.461	55.47
279.676	90.28
279.892	30.89
280.107	18.6
280.322	-38.74
280.538	71.85
280.753	2.22
280.969	59.56
281.184	57.51
281.399	65.71
281.615	55.47
281.83	39.08
282.045	-36.69
282.26	6.31
282.476	22.7
282.691	30.89
282.906	-1.88
283.122	39.08
283.337	2.22
283.552	47.27
283.767	-14.17
283.983	39.08
284.198	-1.88
284.413	32.94
284.628	39.08
284.843	108.71
285.058	67.75
285.274	14.51
285.489	8.36
285.704	110.76
285.919	8.36
286.134	41.13
286.349	-40.79
286.564	-8.02
286.779	71.85
286.995	47.27
287.21	-73.56
287.425	104.62
287.64	-1.88
287.855	63.66
288.07	-44.88
288.285	39.08
288.5	37.03
288.715	104.62
288.93	26.79
289.145	121
289.36	55.47
289.575	57.51
289.79	37.03
290.004	-10.07
290.219	90.28
290.434	16.55
290.649	-14.17
290.864	-12.12
291.079	-51.03
291.294	-5.97
291.509	-5.97
291.724	63.66
291.938	22.7
292.153	88.23
292.368	8.36
292.583	18.6
292.798	75.95
293.012	59.56
293.227	34.99
293.442	-12.12
293.657	88.23
293.871	88.23
294.086	67.75
294.301	30.89
294.516	92.33
294.73	16.55
294.945	18.6
295.16	67.75
295.374	80.04
295.589	75.95
295.804	-48.98
296.018	-3.93
296.233	24.75
296.447	-18.26
296.662	49.32
296.877	75.95
297.091	0.17
297.306	6.31
297.52	30.89
297.735	30.89
297.949	22.7
298.164	22.7
298.378	22.7
298.593	-12.12
298.807	41.13
299.022	51.37
299.236	6.31
299.451	-20.31
299.665	41.13
299.88	-16.21
300.094	37.03
300.309	121
300.523	39.08
300.737	49.32
300.952	-5.97
301.166	-42.84
301.381	6.31
301.595	63.66
301.809	-24.4
302.024	47.27
302.238	-22.36
302.452	80.04
302.667	14.51
302.881	30.89
303.095	59.56
303.309	98.47
303.524	-12.12
303.738	80.04
303.952	61.61
304.166	18.6
304.381	-28.5
304.595	98.47
304.809	8.36
305.023	112.81
305.237	-14.17
305.452	90.28
305.666	73.9
305.88	71.85
306.094	26.79
306.308	114.86
306.522	39.08
306.736	114.86
306.95	45.23
307.164	34.99
307.379	10.41
307.593	96.43
307.807	55.47
308.021	106.67
308.235	14.51
308.449	-8.02
308.663	75.95
308.877	75.95
309.091	84.14
309.305	24.75
309.519	14.51
309.733	129.19
309.947	71.85
310.161	118.95
310.374	59.56
310.588	127.14
310.802	63.66
311.016	6.31
311.23	71.85
311.444	-10.07
311.658	-14.17
311.872	73.9
312.085	80.04
312.299	96.43
312.513	112.81
312.727	71.85
312.941	63.66
313.154	55.47
313.368	55.47
313.582	12.46
313.796	57.51
314.009	75.95
314.223	41.13
314.437	71.85
314.651	63.66
314.864	22.7
315.078	6.31
315.292	6.31
315.505	55.47
315.719	-3.93
315.933	49.32
316.146	30.89
316.36	22.7
316.573	112.81
316.787	110.76
317.001	86.19
317.214	14.51
317.428	55.47
317.641	53.42
317.855	67.75
318.068	-8.02
318.282	63.66
318.495	102.57
318.709	75.95
318.922	98.47
319.136	153.77
319.349	63.66
319.563	47.27
319.776	34.99
319.99	24.75
320.203	55.47
320.417	77.99
320.63	30.89
320.843	141.48
321.057	47.27
321.27	-10.07
321.483	114.86
321.697	75.95
321.91	77.99
322.124	32.94
322.337	55.47
322.55	-1.88
322.763	71.85
322.977	55.47
323.19	32.94
323.403	59.56
323.617	47.27
323.83	104.62
324.043	-22.36
324.256	8.36
324.469	22.7
324.683	39.08
324.896	24.75
325.109	24.75
325.322	49.32
325.535	0.17
325.748	104.62
325.962	39.08
326.175	41.13
326.388	30.89
326.601	106.67
326.814	24.75
327.027	14.51
327.24	-16.21
327.453	28.84
327.666	123.05
327.879	121
328.092	6.31
328.305	67.75
328.518	63.66
328.731	80.04
328.944	34.99
329.157	108.71
329.37	39.08
329.583	135.34
329.796	96.43
330.009	26.79
330.222	71.85
330.435	73.9
330.648	26.79
330.861	-8.02
331.073	34.99
331.286	149.67
331.499	71.85
331.712	24.75
331.925	26.79
332.138	-18.26
332.35	94.38
332.563	-5.97
332.776	37.03
332.989	39.08
333.202	63.66
333.414	-28.5
333.627	39.08
333.84	88.23
334.053	80.04
334.265	37.03
334.478	55.47
334.691	30.89
334.903	18.6
335.116	80.04
335.329	32.94
335.541	123.05
335.754	112.81
335.966	63.66
336.179	10.41
336.392	51.37
336.604	55.47
336.817	-59.22
337.029	-22.36
337.242	-10.07
337.454	39.08
337.667	61.61
337.88	82.09
338.092	-32.6
338.305	106.67
338.517	24.75
338.729	67.75
338.942	20.65
339.154	-18.26
339.367	-30.55
339.579	30.89
339.792	59.56
340.004	80.04
340.217	88.23
340.429	57.51
340.641	20.65
340.854	12.46
341.066	14.51
341.278	65.71
341.491	145.58
341.703	39.08
341.915	26.79
342.128	47.27
342.34	69.8
342.552	65.71
342.764	37.03
342.977	47.27
343.189	34.99
343.401	71.85
343.613	24.75
343.826	69.8
344.038	49.32
344.25	30.89
344.462	-8.02
344.674	-5.97
344.886	67.75
345.099	82.09
345.311	-10.07
345.523	6.31
345.735	12.46
345.947	55.47
346.159	18.6
346.371	39.08
346.583	104.62
346.795	133.29
347.007	80.04
347.219	63.66
347.431	51.37
347.643	116.9
347.855	77.99
348.067	47.27
348.279	30.89
348.491	137.38
348.703	0.17
348.915	24.75
349.127	10.41
349.339	47.27
349.551	-18.26
349.763	104.62
349.975	65.71
350.187	196.78
350.399	82.09
350.61	88.23
350.822	26.79
351.034	-26.45
351.246	114.86
351.458	57.51
351.669	82.09
351.881	51.37
352.093	57.51
352.305	82.09
352.517	96.43
352.728	41.13
352.94	22.7
353.152	77.99
353.363	18.6
353.575	47.27
353.787	106.67
353.999	30.89
354.21	57.51
354.422	55.47
354.633	16.55
354.845	10.41
355.057	47.27
355.268	65.71
355.48	47.27
355.692	-30.55
355.903	22.7
356.115	47.27
356.326	-44.88
356.538	98.47
356.749	57.51
356.961	73.9
357.172	16.55
357.384	10.41
357.595	116.9
357.807	59.56
358.018	18.6
358.23	112.81
358.441	92.33
358.653	59.56
358.864	71.85
359.075	69.8
359.287	10.41
359.498	131.24
359.709	-26.45
359.921	34.99
360.132	75.95
360.344	71.85
360.555	57.51
360.766	67.75
360.977	-8.02
361.189	43.18
361.4	41.13
361.611	12.46
361.823	149.67
362.034	53.42
362.245	-40.79
362.456	47.27
362.667	-26.45
362.879	24.75
363.09	92.33
363.301	45.23
363.512	24.75
363.723	-34.64
363.935	28.84
364.146	131.24
364.357	39.08
364.568	110.76
364.779	-22.36
364.99	80.04
365.201	18.6
365.412	45.23
365.623	-1.88
365.834	30.89
366.045	51.37
366.256	49.32
366.467	104.62
366.678	88.23
366.889	-5.97
367.1	10.41
367.311	90.28
367.522	45.23
367.733	73.9
367.944	22.7
368.155	6.31
368.366	67.75
368.577	90.28
368.788	55.47
368.999	77.99
369.209	45.23
369.42	100.52
369.631	127.14
369.842	22.7
370.053	82.09
370.264	129.19
370.474	30.89
370.685	94.38
370.896	24.75
371.107	129.19
371.317	98.47
371.528	8.36
371.739	116.9
371.95	47.27
372.16	104.62
372.371	32.94
372.582	73.9
372.792	-3.93
373.003	49.32
373.214	106.67
373.424	61.61
373.635	129.19
373.846	182.44
374.056	106.67
374.267	139.43
374.477	102.57
374.688	39.08
374.898	26.79
375.109	41.13
375.319	-1.88
375.53	164.01
375.74	53.42
375.951	12.46
376.161	43.18
376.372	114.86
376.582	45.23
376.793	59.56
377.003	80.04
377.214	47.27
377.424	65.71
377.635	57.51
377.845	34.99
378.055	86.19
378.266	-10.07
378.476	10.41
378.686	53.42
378.897	116.9
379.107	106.67
379.317	90.28
379.528	67.75
379.738	90.28
379.948	47.27
380.158	80.04
380.369	94.38
380.579	86.19
380.789	77.99
380.999	57.51
381.21	98.47
381.42	90.28
381.63	108.71
381.84	186.54
382.05	92.33
382.261	39.08
382.471	129.19
382.681	55.47
382.891	75.95
383.101	63.66
383.311	20.65
383.521	49.32
383.731	24.75
383.941	141.48
384.151	88.23
384.361	67.75
384.571	41.13
384.781	63.66
384.991	96.43
385.201	102.57
385.411	22.7
385.621	104.62
385.831	80.04
386.041	-22.36
386.251	67.75
386.461	65.71
386.671	30.89
386.881	82.09
387.091	49.32
387.301	80.04
387.511	49.32
387.72	57.51
387.93	75.95
388.14	32.94
388.35	125.1
388.56	194.73
388.769	121
388.979	84.14
389.189	41.13
389.399	77.99
389.609	80.04
389.818	106.67
390.028	118.95
390.238	104.62
390.447	39.08
390.657	82.09
390.867	57.51
391.076	98.47
391.286	55.47
391.496	88.23
391.705	47.27
391.915	96.43
392.125	73.9
392.334	45.23
392.544	164.01
392.753	84.14
392.963	69.8
393.172	112.81
393.382	59.56
393.591	92.33
393.801	88.23
394.01	116.9
394.22	170.15
394.429	108.71
394.639	-18.26
394.848	96.43
395.058	100.52
395.267	100.52
395.477	63.66
395.686	116.9
395.895	170.15
396.105	145.58
396.314	141.48
396.524	168.1
396.733	77.99
396.942	90.28
397.152	188.58
397.361	172.2
397.57	102.57
397.78	96.43
397.989	151.72
398.198	215.21
398.407	129.19
398.617	55.47
398.826	131.24
399.035	141.48
399.244	137.38
399.453	82.09
399.663	129.19
399.872	133.29
400.081	84.14
400.29	90.28
400.499	161.96
400.708	143.53
400.917	125.1
401.127	100.52
401.336	110.76
401.545	161.96
401.754	118.95
401.963	204.97
402.172	135.34
402.381	106.67
402.59	170.15
402.799	170.15
403.008	161.96
403.217	112.81
403.426	153.77
403.635	170.15
403.844	180.39
404.053	227.5
404.262	141.48
404.471	237.74
404.68	104.62
404.888	207.02
405.097	143.53
405.306	250.02
405.515	186.54
405.724	272.55
405.933	174.25
406.142	258.21
406.35	200.87
406.559	264.36
406.768	221.35
406.977	307.37
407.185	280.74
407.394	362.66
407.603	217.26
407.812	311.46
408.02	262.31
408.229	313.51
408.438	303.27
408.646	315.56
408.855	303.27
409.064	317.61
409.272	430.24
409.481	391.33
409.69	338.09
409.898	321.7
410.107	383.14
410.315	473.25
410.524	420
410.733	409.76
410.941	477.35
411.15	518.31
411.358	438.44
411.567	559.27
411.775	538.79
411.984	555.17
412.192	628.9
412.401	563.36
412.609	546.98
412.818	647.33
413.026	743.58
413.234	686.24
413.443	653.47
413.651	755.87
413.86	719.01
414.068	778.4
414.276	811.17
414.485	733.34
414.693	821.41
414.901	915.61
415.11	942.24
415.318	886.94
415.526	952.48
415.734	1048.73
415.943	1046.68
416.151	1075.35
416.359	1171.61
416.567	1136.79
416.776	1134.75
416.984	1314.97
417.192	1304.73
417.4	1269.91
417.608	1317.01
417.817	1368.21
418.025	1517.72
418.233	1466.52
418.441	1505.43
418.649	1513.62
418.857	1697.94
419.065	1798.29
419.273	1644.69
419.481	1792.14
419.689	1865.87
419.897	2005.13
420.105	1972.36
420.313	2023.56
420.521	2175.11
420.729	2095.24
420.937	2265.22
421.145	2300.04
421.353	2429.06
421.561	2506.88
421.769	2709.63
421.977	2791.55
422.185	2701.44
422.393	2711.68
422.601	3104.89
422.809	2941.05
423.017	3010.68
423.224	3131.51
423.432	3283.06
423.64	3209.34
423.848	3537.01
424.056	3491.96
424.263	3735.67
424.471	3700.85
424.679	3807.34
424.887	4063.34
425.094	4202.6
425.302	4348.01
425.51	4388.97
425.718	4618.34
425.925	4587.62
426.133	4644.96
426.341	4823.14
426.548	5171.29
426.756	5257.31
426.964	5206.11
427.171	5666.9
427.379	5742.68
427.586	5693.52
427.794	5965.9
428.001	6168.65
428.209	6367.31
428.417	6420.55
428.624	6873.15
428.832	6676.55
429.039	6803.52
429.247	6860.87
429.454	7452.73
429.662	7841.84
429.869	7422.01
430.076	7823.41
430.284	7682.1
430.491	8052.78
430.699	8527.91
430.906	8478.76
431.114	8742.95
431.321	8898.59
431.528	9099.3
431.736	9910.29
431.943	10096.66
432.15	9734.17
432.358	9855
432.565	10692.62
432.772	10227.73
432.979	10989.57
433.187	10979.33
433.394	11167.74
433.601	11966.45
433.808	11991.03
434.016	11909.11
434.223	12679.15
434.43	13219.81
434.637	12945.38
434.844	13801.43
435.052	13946.84
435.259	13678.55
435.466	13846.49
435.673	13869.02
435.88	14788.55
436.087	15488.96
436.294	15480.77
436.501	15200.19
436.708	15325.12
436.915	16046.01
437.122	16834.47
437.329	16484.27
437.537	17063.85
437.743	17545.12
437.95	17188.77
438.157	18077.59
438.364	18716.56
438.571	18691.98
438.778	18755.47
438.985	20617.07
439.192	19906.43
439.399	20299.64
439.606	19947.39
439.813	20936.56
440.02	22171.48
440.227	21854.05
440.433	21520.23
440.64	22390.61
440.847	22210.39
441.054	22904.65
441.261	24229.69
441.467	23787.33
441.674	24342.33
441.881	25200.43
442.088	25544.48
442.294	25214.76
442.501	25653.03
442.708	26097.44
442.914	27041.55
443.121	28172.03
443.328	27440.9
443.534	29474.54
443.741	28495.61
443.948	28344.06
444.154	30516.95
444.361	30338.78
444.568	30207.71
444.774	30263
444.981	30783.19
445.187	31573.7
445.394	33040.05
445.6	32440
445.807	35806.86
446.013	33564.33
446.22	34580.12
446.426	36036.23
446.633	36038.28
446.839	37346.93
447.046	35872.39
447.252	37754.47
447.459	37840.49
447.665	37803.63
447.871	39298.64
448.078	41000.51
448.284	39349.84
448.491	40089.16
448.697	41979.43
448.903	42559.01
449.11	42472.99
449.316	41649.71
449.522	43120.15
449.728	43875.85
449.935	44275.21
450.141	44025.35
450.347	44705.28
450.553	43243.03
450.76	44107.27
450.966	45506.04
451.172	45291
451.378	45796.85
451.584	45149.69
451.791	46122.47
451.997	45884.91
452.203	47244.76
452.409	46853.6
452.615	46192.11
452.821	44926.46
453.027	44750.34
453.233	46757.35
453.44	44846.59
453.646	45393.4
453.852	45704.69
454.058	46550.5
454.264	44631.55
454.47	45868.53
454.676	45032.96
454.882	46325.22
455.088	42225.19
455.294	43030.04
455.5	43396.63
455.705	43961.87
455.911	42200.61
456.117	41287.22
456.323	40926.78
456.529	38850.14
456.735	40339.01
456.941	39396.95
457.147	38561.37
457.352	37629.55
457.558	37326.45
457.764	37338.74
457.97	36251.27
458.176	35704.46
458.381	35813
458.587	34299.55
458.793	34107.04
458.999	32265.92
459.204	34817.69
459.41	33517.23
459.616	31420.11
459.821	31248.08
460.027	31203.02
460.233	30463.71
460.438	29284.08
460.644	29513.45
460.85	28153.6
461.055	27651.84
461.261	27455.24
461.466	25808.67
461.672	24567.6
461.878	26730.26
462.083	24938.29
462.289	24196.92
462.494	23852.86
462.7	23158.6
462.905	22503.25
463.111	23125.83
463.316	23236.42
463.522	22441.81
463.727	22755.15
463.932	22751.06
464.138	22609.75
464.343	22458.2
464.549	21688.16
464.754	22589.27
464.959	22366.04
465.165	21966.68
465.37	21501.79
465.575	20924.27
465.781	21688.16
465.986	21790.56
466.191	20891.5
466.397	20424.56
466.602	19519.36
466.807	20191.09
