Data from USB4F104151__66__14-30-14-653.txt Node

Date: Thu Mar 13 14:30:14 EDT 2025
User: louis
Spectrometer: USB4F10415
Trigger mode: 4
Integration Time (sec): 2.500000E-2
Scans to average: 1
Electric dark correction enabled: true
Nonlinearity correction enabled: false
Boxcar width: 0
XAxis mode: Wavelengths
Number of Pixels in Spectrum: 3648
>>>>>Begin Spectral Data<<<<<
178.204	-161.28
178.424	-161.28
178.644	-161.28
178.864	-142.85
179.084	-142.85
179.304	-9.73
179.524	51.71
179.744	-17.92
179.964	10.75
180.184	-13.82
180.404	-52.74
180.624	68.09
180.844	10.75
181.064	-46.59
181.283	-22.02
181.503	-30.21
181.723	51.71
181.943	23.04
182.163	27.14
182.383	-11.78
182.602	-5.63
182.822	70.14
183.042	39.42
183.262	-19.97
183.482	-5.63
183.701	29.18
183.921	18.94
184.141	-17.92
184.361	-13.82
184.58	-15.87
184.8	27.14
185.02	-24.06
185.239	84.48
185.459	37.38
185.679	18.94
185.898	-28.16
186.118	18.94
186.338	104.96
186.557	39.42
186.777	-30.21
186.997	-9.73
187.216	68.09
187.436	76.29
187.655	-17.92
187.875	135.68
188.095	-34.3
188.314	61.95
188.534	-30.21
188.753	18.94
188.973	2.56
189.192	35.33
189.412	23.04
189.631	84.48
189.851	20.99
190.07	-30.21
190.29	49.66
190.509	35.33
190.729	10.75
190.948	72.19
191.168	160.25
191.387	109.05
191.607	-42.5
191.826	2.56
192.045	-5.63
192.265	35.33
192.484	78.33
192.704	18.94
192.923	-75.26
193.142	158.21
193.362	113.15
193.581	84.48
193.8	51.71
194.02	78.33
194.239	-22.02
194.458	43.52
194.678	-22.02
194.897	-19.97
195.116	31.23
195.335	45.57
195.555	18.94
195.774	-24.06
195.993	2.56
196.212	29.18
196.432	-85.5
196.651	98.81
196.87	-42.5
197.089	100.86
197.308	39.42
197.528	23.04
197.747	-54.78
197.966	45.57
198.185	76.29
198.404	43.52
198.623	33.28
198.842	2.56
199.062	133.63
199.281	86.53
199.5	18.94
199.719	18.94
199.938	86.53
200.157	113.15
200.376	92.67
200.595	53.76
200.814	27.14
201.033	10.75
201.252	51.71
201.471	23.04
201.69	72.19
201.909	-22.02
202.128	70.14
202.347	102.91
202.566	18.94
202.785	23.04
203.004	-22.02
203.223	125.44
203.442	10.75
203.661	129.53
203.879	64
204.098	59.9
204.317	31.23
204.536	74.24
204.755	82.43
204.974	100.86
205.193	51.71
205.411	61.95
205.63	70.14
205.849	-3.58
206.068	-9.73
206.287	80.38
206.505	78.33
206.724	39.42
206.943	80.38
207.162	0.51
207.381	68.09
207.599	18.94
207.818	45.57
208.037	10.75
208.255	12.8
208.474	115.2
208.693	61.95
208.911	20.99
209.13	55.81
209.349	117.25
209.567	51.71
209.786	61.95
210.005	31.23
210.223	72.19
210.442	2.56
210.661	80.38
210.879	-1.54
211.098	-1.54
211.316	18.94
211.535	53.76
211.753	76.29
211.972	23.04
212.191	39.42
212.409	51.71
212.628	-52.74
212.846	18.94
213.065	43.52
213.283	51.71
213.502	-34.3
213.72	-30.21
213.938	57.86
214.157	55.81
214.375	-38.4
214.594	59.9
214.812	100.86
215.031	86.53
215.249	16.9
215.467	59.9
215.686	-3.58
215.904	92.67
216.122	64
216.341	35.33
216.559	-38.4
216.778	154.11
216.996	53.76
217.214	20.99
217.432	43.52
217.651	2.56
217.869	57.86
218.087	27.14
218.306	70.14
218.524	111.1
218.742	-17.92
218.96	59.9
219.179	12.8
219.397	39.42
219.615	111.1
219.833	64
220.051	6.66
220.27	20.99
220.488	64
220.706	2.56
220.924	29.18
221.142	-46.59
221.36	27.14
221.578	53.76
221.796	64
222.015	61.95
222.233	2.56
222.451	100.86
222.669	-62.98
222.887	39.42
223.105	18.94
223.323	-28.16
223.541	53.76
223.759	51.71
223.977	14.85
224.195	47.62
224.413	59.9
224.631	27.14
224.849	100.86
225.067	64
225.285	0.51
225.503	88.57
225.721	-22.02
225.939	57.86
226.157	18.94
226.375	61.95
226.592	-46.59
226.81	20.99
227.028	6.66
227.246	80.38
227.464	2.56
227.682	45.57
227.9	23.04
228.117	-22.02
228.335	27.14
228.553	-26.11
228.771	-9.73
228.989	115.2
229.206	12.8
229.424	-54.78
229.642	-42.5
229.86	29.18
230.077	76.29
230.295	-15.87
230.513	25.09
230.731	35.33
230.948	47.62
231.166	70.14
231.384	25.09
231.601	-13.82
231.819	84.48
232.037	12.8
232.254	25.09
232.472	16.9
232.689	-5.63
232.907	84.48
233.125	37.38
233.342	6.66
233.56	45.57
233.777	45.57
233.995	51.71
234.213	4.61
234.43	64
234.648	2.56
234.865	12.8
235.083	27.14
235.3	59.9
235.518	37.38
235.735	125.44
235.953	84.48
236.17	70.14
236.388	-9.73
236.605	20.99
236.822	84.48
237.04	4.61
237.257	-30.21
237.475	35.33
237.692	43.52
237.909	37.38
238.127	76.29
238.344	18.94
238.562	37.38
238.779	-22.02
238.996	-44.54
239.214	8.7
239.431	59.9
239.648	-44.54
239.865	80.38
240.083	72.19
240.3	23.04
240.517	59.9
240.735	39.42
240.952	39.42
241.169	84.48
241.386	18.94
241.603	6.66
241.821	23.04
242.038	10.75
242.255	20.99
242.472	31.23
242.689	-3.58
242.907	68.09
243.124	-11.78
243.341	35.33
243.558	12.8
243.775	-19.97
243.992	-34.3
244.209	-36.35
244.426	111.1
244.643	45.57
244.86	-9.73
245.078	55.81
245.295	121.34
245.512	-13.82
245.729	29.18
245.946	-28.16
246.163	68.09
246.38	39.42
246.597	8.7
246.814	10.75
247.031	25.09
247.248	-22.02
247.464	45.57
247.681	66.05
247.898	-13.82
248.115	82.43
248.332	-15.87
248.549	37.38
248.766	23.04
248.983	61.95
249.2	43.52
249.417	-1.54
249.633	4.61
249.85	78.33
250.067	-26.11
250.284	4.61
250.501	47.62
250.717	59.9
250.934	23.04
251.151	64
251.368	4.61
251.585	88.57
251.801	-42.5
252.018	-1.54
252.235	29.18
252.451	29.18
252.668	68.09
252.885	182.78
253.102	39.42
253.318	43.52
253.535	64
253.752	49.66
253.968	35.33
254.185	-36.35
254.401	4.61
254.618	111.1
254.835	-5.63
255.051	72.19
255.268	-11.78
255.484	145.92
255.701	12.8
255.917	-11.78
256.134	-19.97
256.351	20.99
256.567	12.8
256.784	51.71
257	8.7
257.217	35.33
257.433	59.9
257.65	43.52
257.866	51.71
258.082	-5.63
258.299	23.04
258.515	35.33
258.732	55.81
258.948	27.14
259.165	55.81
259.381	18.94
259.597	4.61
259.814	45.57
260.03	43.52
260.246	35.33
260.463	-44.54
260.679	86.53
260.895	66.05
261.112	127.49
261.328	78.33
261.544	10.75
261.761	92.67
261.977	-3.58
262.193	-46.59
262.409	35.33
262.626	27.14
262.842	10.75
263.058	18.94
263.274	55.81
263.49	70.14
263.707	51.71
263.923	104.96
264.139	76.29
264.355	76.29
264.571	53.76
264.787	76.29
265.004	104.96
265.22	61.95
265.436	29.18
265.652	39.42
265.868	53.76
266.084	4.61
266.3	59.9
266.516	23.04
266.732	72.19
266.948	-32.26
267.164	4.61
267.38	31.23
267.596	84.48
267.812	100.86
268.028	94.72
268.244	20.99
268.46	76.29
268.676	14.85
268.892	27.14
269.108	80.38
269.324	-9.73
269.54	4.61
269.756	72.19
269.972	-54.78
270.188	2.56
270.403	64
270.619	117.25
270.835	86.53
271.051	10.75
271.267	84.48
271.483	37.38
271.698	43.52
271.914	10.75
272.13	45.57
272.346	29.18
272.562	31.23
272.777	18.94
272.993	-54.78
273.209	61.95
273.425	117.25
273.64	-22.02
273.856	66.05
274.072	20.99
274.287	14.85
274.503	86.53
274.719	55.81
274.934	-30.21
275.15	6.66
275.366	92.67
275.581	-9.73
275.797	-19.97
276.012	59.9
276.228	-1.54
276.444	-34.3
276.659	43.52
276.875	-75.26
277.09	86.53
277.306	51.71
277.521	47.62
277.737	84.48
277.952	-5.63
278.168	100.86
278.383	20.99
278.599	2.56
278.814	68.09
279.03	10.75
279.245	92.67
279.461	29.18
279.676	-1.54
279.892	35.33
280.107	70.14
280.322	4.61
280.538	86.53
280.753	-40.45
280.969	37.38
281.184	-101.89
281.399	100.86
281.615	68.09
281.83	47.62
282.045	-26.11
282.26	-3.58
282.476	61.95
282.691	10.75
282.906	27.14
283.122	29.18
283.337	-1.54
283.552	27.14
283.767	10.75
283.983	43.52
284.198	43.52
284.413	113.15
284.628	0.51
284.843	74.24
285.058	70.14
285.274	39.42
285.489	10.75
285.704	37.38
285.919	6.66
286.134	10.75
286.349	10.75
286.564	111.1
286.779	76.29
286.995	10.75
287.21	16.9
287.425	100.86
287.64	-17.92
287.855	-40.45
288.07	-60.93
288.285	43.52
288.5	43.52
288.715	39.42
288.93	59.9
289.145	-9.73
289.36	96.77
289.575	68.09
289.79	68.09
290.004	23.04
290.219	59.9
290.434	109.05
290.649	-11.78
290.864	18.94
291.079	16.9
291.294	90.62
291.509	10.75
291.724	55.81
291.938	39.42
292.153	43.52
292.368	0.51
292.583	78.33
292.798	-38.4
293.012	64
293.227	-52.74
293.442	2.56
293.657	39.42
293.871	100.86
294.086	59.9
294.301	68.09
294.516	43.52
294.73	125.44
294.945	55.81
295.16	86.53
295.374	76.29
295.589	100.86
295.804	41.47
296.018	74.24
296.233	18.94
296.447	2.56
296.662	-5.63
296.877	109.05
297.091	29.18
297.306	29.18
297.52	16.9
297.735	29.18
297.949	-7.68
298.164	43.52
298.378	33.28
298.593	-40.45
298.807	51.71
299.022	64
299.236	-3.58
299.451	16.9
299.665	14.85
299.88	109.05
300.094	109.05
300.309	117.25
300.523	25.09
300.737	0.51
300.952	18.94
301.166	68.09
301.381	25.09
301.595	59.9
301.809	35.33
302.024	-5.63
302.238	43.52
302.452	10.75
302.667	51.71
302.881	133.63
303.095	20.99
303.309	76.29
303.524	27.14
303.738	64
303.952	6.66
304.166	35.33
304.381	8.7
304.595	64
304.809	-56.83
305.023	23.04
305.237	104.96
305.452	88.57
305.666	51.71
305.88	141.82
306.094	51.71
306.308	51.71
306.522	29.18
306.736	45.57
306.95	27.14
307.164	59.9
307.379	16.9
307.593	64
307.807	59.9
308.021	88.57
308.235	76.29
308.449	-13.82
308.663	47.62
308.877	100.86
309.091	12.8
309.305	100.86
309.519	29.18
309.733	61.95
309.947	-3.58
310.161	117.25
310.374	20.99
310.588	45.57
310.802	55.81
311.016	55.81
311.23	94.72
311.444	-26.11
311.658	27.14
311.872	150.01
312.085	16.9
312.299	31.23
312.513	92.67
312.727	-3.58
312.941	12.8
313.154	86.53
313.368	43.52
313.582	158.21
313.796	39.42
314.009	-73.21
314.223	70.14
314.437	64
314.651	102.91
314.864	39.42
315.078	-62.98
315.292	-22.02
315.505	-5.63
315.719	23.04
315.933	16.9
316.146	68.09
316.36	-26.11
316.573	31.23
316.787	94.72
317.001	70.14
317.214	37.38
317.428	-71.17
317.641	-22.02
317.855	18.94
318.068	59.9
318.282	88.57
318.495	33.28
318.709	102.91
318.922	70.14
319.136	125.44
319.349	55.81
319.563	59.9
319.776	27.14
319.99	-9.73
320.203	88.57
320.417	27.14
320.63	57.86
320.843	115.2
321.057	98.81
321.27	27.14
321.483	66.05
321.697	31.23
321.91	100.86
322.124	94.72
322.337	92.67
322.55	29.18
322.763	47.62
322.977	-26.11
323.19	27.14
323.403	-30.21
323.617	84.48
323.83	53.76
324.043	74.24
324.256	29.18
324.469	-3.58
324.683	100.86
324.896	68.09
325.109	37.38
325.322	10.75
325.535	53.76
325.748	61.95
325.962	47.62
326.175	84.48
326.388	125.44
326.601	31.23
326.814	78.33
327.027	39.42
327.24	86.53
327.453	-32.26
327.666	119.29
327.879	145.92
328.092	64
328.305	-19.97
328.518	49.66
328.731	59.9
328.944	29.18
329.157	68.09
329.37	-50.69
329.583	92.67
329.796	82.43
330.009	-22.02
330.222	102.91
330.435	55.81
330.648	53.76
330.861	29.18
331.073	109.05
331.286	37.38
331.499	84.48
331.712	-22.02
331.925	12.8
332.138	37.38
332.35	125.44
332.563	64
332.776	117.25
332.989	-5.63
333.202	35.33
333.414	119.29
333.627	18.94
333.84	92.67
334.053	35.33
334.265	53.76
334.478	23.04
334.691	90.62
334.903	45.57
335.116	-5.63
335.329	23.04
335.541	84.48
335.754	78.33
335.966	37.38
336.179	47.62
336.392	43.52
336.604	31.23
336.817	100.86
337.029	111.1
337.242	72.19
337.454	-3.58
337.667	-13.82
337.88	127.49
338.092	72.19
338.305	86.53
338.517	68.09
338.729	59.9
338.942	121.34
339.154	6.66
339.367	0.51
339.579	84.48
339.792	51.71
340.004	86.53
340.217	82.43
340.429	6.66
340.641	23.04
340.854	12.8
341.066	-26.11
341.278	113.15
341.491	78.33
341.703	-28.16
341.915	12.8
342.128	59.9
342.34	49.66
342.552	57.86
342.764	6.66
342.977	8.7
343.189	8.7
343.401	4.61
343.613	37.38
343.826	100.86
344.038	-17.92
344.25	84.48
344.462	74.24
344.674	59.9
344.886	43.52
345.099	100.86
345.311	59.9
345.523	88.57
345.735	41.47
345.947	68.09
346.159	147.97
346.371	86.53
346.583	49.66
346.795	143.87
347.007	47.62
347.219	117.25
347.431	51.71
347.643	49.66
347.855	55.81
348.067	68.09
348.279	41.47
348.491	43.52
348.703	23.04
348.915	59.9
349.127	-17.92
349.339	51.71
349.551	51.71
349.763	68.09
349.975	37.38
350.187	51.71
350.399	96.77
350.61	70.14
350.822	76.29
351.034	119.29
351.246	57.86
351.458	20.99
351.669	94.72
351.881	84.48
352.093	53.76
352.305	29.18
352.517	37.38
352.728	117.25
352.94	121.34
353.152	102.91
353.363	2.56
353.575	64
353.787	109.05
353.999	43.52
354.21	107.01
354.422	31.23
354.633	72.19
354.845	45.57
355.057	53.76
355.268	88.57
355.48	59.9
355.692	20.99
355.903	64
356.115	37.38
356.326	-40.45
356.538	51.71
356.749	66.05
356.961	133.63
357.172	23.04
357.384	35.33
357.595	113.15
357.807	47.62
358.018	2.56
358.23	43.52
358.441	94.72
358.653	96.77
358.864	-60.93
359.075	84.48
359.287	59.9
359.498	39.42
359.709	-9.73
359.921	45.57
360.132	158.21
360.344	31.23
360.555	55.81
360.766	55.81
360.977	47.62
361.189	117.25
361.4	57.86
361.611	86.53
361.823	109.05
362.034	43.52
362.245	-42.5
362.456	57.86
362.667	61.95
362.879	27.14
363.09	68.09
363.301	127.49
363.512	72.19
363.723	10.75
363.935	76.29
364.146	49.66
364.357	31.23
364.568	64
364.779	2.56
364.99	104.96
365.201	4.61
365.412	100.86
365.623	31.23
365.834	51.71
366.045	-5.63
366.256	61.95
366.467	37.38
366.678	8.7
366.889	31.23
367.1	96.77
367.311	25.09
367.522	37.38
367.733	131.58
367.944	10.75
368.155	31.23
368.366	94.72
368.577	141.82
368.788	74.24
368.999	31.23
369.209	141.82
369.42	45.57
369.631	150.01
369.842	104.96
370.053	125.44
370.264	51.71
370.474	82.43
370.685	35.33
370.896	45.57
371.107	35.33
371.317	125.44
371.528	41.47
371.739	45.57
371.95	45.57
372.16	-3.58
372.371	31.23
372.582	88.57
372.792	61.95
373.003	123.39
373.214	10.75
373.424	43.52
373.635	29.18
373.846	111.1
374.056	78.33
374.267	10.75
374.477	37.38
374.688	68.09
374.898	35.33
375.109	39.42
375.319	51.71
375.53	109.05
375.74	35.33
375.951	12.8
376.161	123.39
376.372	76.29
376.582	-9.73
376.793	23.04
377.003	59.9
377.214	45.57
377.424	6.66
377.635	78.33
377.845	14.85
378.055	86.53
378.266	-24.06
378.476	119.29
378.686	92.67
378.897	59.9
379.107	68.09
379.317	-30.21
379.528	-1.54
379.738	47.62
379.948	-13.82
380.158	84.48
380.369	59.9
380.579	45.57
380.789	51.71
380.999	123.39
381.21	92.67
381.42	72.19
381.63	43.52
381.84	109.05
382.05	51.71
382.261	92.67
382.471	27.14
382.681	39.42
382.891	141.82
383.101	145.92
383.311	68.09
383.521	55.81
383.731	88.57
383.941	59.9
384.151	70.14
384.361	68.09
384.571	133.63
384.781	68.09
384.991	72.19
385.201	96.77
385.411	6.66
385.621	125.44
385.831	131.58
386.041	51.71
386.251	45.57
386.461	78.33
386.671	70.14
386.881	86.53
387.091	39.42
387.301	12.8
387.511	135.68
387.72	160.25
387.93	84.48
388.14	49.66
388.35	100.86
388.56	76.29
388.769	90.62
388.979	72.19
389.189	6.66
389.399	80.38
389.609	68.09
389.818	160.25
390.028	119.29
390.238	113.15
390.447	35.33
390.657	68.09
390.867	37.38
391.076	12.8
391.286	100.86
391.496	72.19
391.705	59.9
391.915	100.86
392.125	109.05
392.334	59.9
392.544	150.01
392.753	18.94
392.963	49.66
393.172	115.2
393.382	59.9
393.591	166.4
393.801	43.52
394.01	119.29
394.22	96.77
394.429	-17.92
394.639	115.2
394.848	66.05
395.058	137.73
395.267	84.48
395.477	143.87
395.686	18.94
395.895	141.82
396.105	215.55
396.314	74.24
396.524	92.67
396.733	76.29
396.942	133.63
397.152	68.09
397.361	117.25
397.57	74.24
397.78	209.4
397.989	113.15
398.198	209.4
398.407	100.86
398.617	143.87
398.826	113.15
399.035	158.21
399.244	150.01
399.453	76.29
399.663	143.87
399.872	92.67
400.081	123.39
400.29	215.55
400.499	109.05
400.708	190.97
400.917	152.06
401.127	133.63
401.336	162.3
401.545	127.49
401.754	201.21
401.963	141.82
402.172	115.2
402.381	45.57
402.59	141.82
402.799	207.36
403.008	170.49
403.217	129.53
403.426	172.54
403.635	104.96
403.844	100.86
404.053	158.21
404.262	100.86
404.471	199.16
404.68	150.01
404.888	201.21
405.097	178.69
405.306	176.64
405.515	227.84
405.724	182.78
405.933	227.84
406.142	215.55
406.35	184.83
406.559	203.26
406.768	207.36
406.977	309.76
407.185	264.7
407.394	272.89
407.603	322.04
407.812	283.13
408.02	332.28
408.229	246.27
408.438	301.56
408.646	272.89
408.855	299.52
409.064	363
409.272	303.61
409.481	403.96
409.69	363
409.898	326.14
410.107	340.47
410.315	371.19
410.524	326.14
410.733	375.29
410.941	489.98
411.15	500.22
411.358	455.16
411.567	481.78
411.775	436.73
411.984	403.96
412.192	449.02
412.401	578.04
412.609	563.7
412.818	649.72
413.026	594.42
413.234	643.57
413.443	739.83
413.651	731.64
413.86	731.64
414.068	715.25
414.276	866.8
414.485	860.66
414.693	758.26
414.901	936.43
415.11	815.6
415.318	920.05
415.526	905.71
415.734	944.63
415.943	1006.06
416.151	1063.41
416.359	985.58
416.567	1059.31
416.776	1174
416.984	1208.81
417.192	1247.72
417.4	1182.19
417.608	1165.81
417.817	1247.72
418.025	1440.23
418.233	1468.91
418.441	1452.52
418.649	1462.76
418.857	1503.72
419.065	1649.13
419.273	1632.74
419.481	1763.81
419.689	1714.66
419.897	1763.81
420.105	1939.94
420.313	1939.94
420.521	2068.96
420.729	2132.45
420.937	2159.07
421.145	2140.64
421.353	2249.18
421.561	2349.53
421.769	2470.36
421.977	2603.48
422.185	2595.29
422.393	2652.63
422.601	2857.43
422.809	2744.79
423.017	2857.43
423.224	2937.3
423.432	3000.79
423.64	3086.8
423.848	3283.41
424.056	3303.89
424.263	3525.07
424.471	3518.92
424.679	3703.24
424.887	3781.06
425.094	3994.05
425.302	3891.65
425.51	4043.2
425.718	4131.26
425.925	4243.9
426.133	4471.23
426.341	4579.77
426.548	4772.28
426.756	4889.01
426.964	4825.53
427.171	5265.84
427.379	5353.9
427.586	5458.35
427.794	5648.81
428.001	5802.41
428.209	6099.36
428.417	6015.4
428.624	6365.6
428.832	6547.87
429.039	6298.02
429.247	6582.68
429.454	6881.69
429.662	7334.29
429.869	7014.8
430.076	7547.28
430.284	7199.12
430.491	7453.07
430.699	7926.15
430.906	8022.41
431.114	7985.54
431.321	8417.66
431.528	8518.01
431.736	9030.01
431.943	9529.71
432.15	8948.09
432.358	9312.63
432.565	9763.18
432.772	9607.53
432.979	10377.57
433.187	10541.41
433.394	10563.93
433.601	11237.72
433.808	11163.99
434.016	11250
434.223	11587.92
434.43	12536.13
434.637	11919.69
434.844	12878.14
435.052	12998.97
435.259	13076.79
435.466	13218.1
435.673	12992.83
435.88	13842.73
436.087	14364.96
436.294	14539.04
436.501	14113.06
436.708	14373.16
436.915	14876.96
437.122	15575.31
437.329	15477.01
437.537	16034.06
437.743	16279.82
437.95	16152.84
438.157	16922.88
438.364	17443.06
438.571	17690.87
438.778	17719.54
438.985	19366.1
439.192	18684.13
439.399	19097.82
439.606	18573.54
439.813	19728.59
440.02	20875.46
440.227	20721.86
440.433	20037.84
440.64	20971.71
440.847	20871.36
441.054	21141.69
441.261	22470.83
441.467	22374.57
441.674	23013.54
441.881	23814.29
442.088	23992.47
442.294	23138.46
442.501	24029.33
442.708	24635.53
442.914	25661.56
443.121	26505.32
443.328	25725.05
443.534	27752.54
443.741	26851.43
443.948	26597.48
444.154	28575.82
444.361	28160.08
444.568	28422.22
444.774	28770.38
444.981	29036.61
445.187	29788.22
445.394	30595.12
445.6	30255.15
445.807	33198.09
446.013	31741.98
446.22	32581.65
446.426	33746.94
446.633	33816.57
446.839	35416.04
447.046	33695.74
447.252	35829.73
447.459	35596.26
447.665	35610.59
447.871	36982.73
448.078	38666.16
448.284	36622.29
448.491	37826.49
448.697	39018.41
448.903	39958.43
449.11	39706.53
449.316	39509.93
449.522	39968.67
449.728	41260.94
449.935	41551.75
450.141	41050
450.347	42254.2
450.553	41054.09
450.76	41336.71
450.966	42559.35
451.172	42571.64
451.378	43589.48
451.584	42512.25
451.791	43181.93
451.997	43382.63
452.203	44224.35
452.409	43999.07
452.615	43976.54
452.821	42280.83
453.027	41764.74
453.233	44271.45
453.44	42381.18
453.646	42841.97
453.852	42712.95
454.058	43339.63
454.264	42256.25
454.47	43110.25
454.676	42227.58
454.882	43945.83
455.088	39780.26
455.294	40413.08
455.5	41123.72
455.705	41729.92
455.911	39884.7
456.117	39008.17
456.323	38473.65
456.529	36595.67
456.735	38025.15
456.941	37046.22
457.147	36493.27
457.352	35444.71
457.558	34965.48
457.764	35155.94
457.97	34502.64
458.176	33642.49
458.381	33595.39
458.587	31899.67
458.793	31969.3
458.999	30349.36
459.204	32612.37
459.41	31592.48
459.616	29605.95
459.821	29749.31
460.027	29249.6
460.233	28698.7
460.438	27408.48
460.644	27873.37
460.85	26751.08
461.055	26108.02
461.261	26120.31
461.466	24053.9
461.672	23281.82
461.878	24774.79
462.083	23425.18
462.289	22567.08
462.494	22456.49
462.7	21588.15
462.905	21061.82
463.111	21825.71
463.316	22034.61
463.522	21434.55
463.727	21309.63
463.932	21094.59
464.138	20920.51
464.343	20957.38
464.549	20334.79
464.754	21231.8
464.959	20967.62
465.165	20492.49
465.37	19658.96
465.575	19362.01
465.781	20125.9
465.986	20179.15
466.191	19577.05
466.397	19116.25
466.602	18079.98
466.807	18831.58
467.012	19009.76
467.218	18745.57
