Data from USB4F104151__317__14-35-09-144.txt Node

Date: Thu Mar 13 14:35:09 EDT 2025
User: louis
Spectrometer: USB4F10415
Trigger mode: 4
Integration Time (sec): 2.500000E-2
Scans to average: 1
Electric dark correction enabled: true
Nonlinearity correction enabled: false
Boxcar width: 0
XAxis mode: Wavelengths
Number of Pixels in Spectrum: 3648
>>>>>Begin Spectral Data<<<<<
178.204	-153.43
178.424	-153.43
178.644	-153.43
178.864	-225.11
179.084	-157.52
179.304	-63.32
179.524	6.31
179.744	-3.93
179.964	57.51
180.184	14.51
180.404	-12.12
180.624	-20.31
180.844	4.27
181.064	-22.36
181.283	-12.12
181.503	39.08
181.723	12.46
181.943	-61.27
182.163	30.89
182.383	-1.88
182.602	73.9
182.822	61.61
183.042	20.65
183.262	-81.75
183.482	-3.93
183.701	-5.97
183.921	30.89
184.141	-85.84
184.361	34.99
184.58	37.03
184.8	-8.02
185.02	37.03
185.239	14.51
185.459	-69.46
185.679	30.89
185.898	-3.93
186.118	53.42
186.338	20.65
186.557	18.6
186.777	-81.75
186.997	-22.36
187.216	14.51
187.436	98.47
187.655	59.56
187.875	102.57
188.095	-3.93
188.314	28.84
188.534	90.28
188.753	49.32
188.973	41.13
189.192	47.27
189.412	8.36
189.631	43.18
189.851	73.9
190.07	-1.88
190.29	34.99
190.509	45.23
190.729	-18.26
190.948	20.65
191.168	71.85
191.387	14.51
191.607	-28.5
191.826	-12.12
192.045	24.75
192.265	80.04
192.484	98.47
192.704	28.84
192.923	-12.12
193.142	100.52
193.362	10.41
193.581	118.95
193.8	55.47
194.02	-8.02
194.239	6.31
194.458	139.43
194.678	4.27
194.897	-1.88
195.116	8.36
195.335	43.18
195.555	39.08
195.774	-10.07
195.993	34.99
196.212	47.27
196.432	-28.5
196.651	45.23
196.87	-61.27
197.089	59.56
197.308	112.81
197.528	45.23
197.747	-51.03
197.966	84.14
198.185	110.76
198.404	43.18
198.623	55.47
198.842	-18.26
199.062	-44.88
199.281	43.18
199.5	32.94
199.719	16.55
199.938	45.23
200.157	100.52
200.376	47.27
200.595	65.71
200.814	96.43
201.033	51.37
201.252	37.03
201.471	-12.12
201.69	59.56
201.909	-8.02
202.128	-10.07
202.347	32.94
202.566	24.75
202.785	-83.8
203.004	39.08
203.223	90.28
203.442	67.75
203.661	47.27
203.879	-16.21
204.098	43.18
204.317	-28.5
204.536	47.27
204.755	51.37
204.974	12.46
205.193	55.47
205.411	92.33
205.63	61.61
205.849	-26.45
206.068	2.22
206.287	26.79
206.505	86.19
206.724	43.18
206.943	-8.02
207.162	45.23
207.381	45.23
207.599	-26.45
207.818	69.8
208.037	-12.12
208.255	-51.03
208.474	-28.5
208.693	-16.21
208.911	8.36
209.13	-61.27
209.349	-26.45
209.567	4.27
209.786	37.03
210.005	49.32
210.223	-28.5
210.442	-14.17
210.661	53.42
210.879	34.99
211.098	28.84
211.316	4.27
211.535	-3.93
211.753	-16.21
211.972	49.32
212.191	-51.03
212.409	57.51
212.628	39.08
212.846	-40.79
213.065	61.61
213.283	-3.93
213.502	-14.17
213.72	-10.07
213.938	41.13
214.157	47.27
214.375	12.46
214.594	34.99
214.812	28.84
215.031	2.22
215.249	-26.45
215.467	12.46
215.686	12.46
215.904	96.43
216.122	-20.31
216.341	67.75
216.559	71.85
216.778	12.46
216.996	18.6
217.214	39.08
217.432	-10.07
217.651	63.66
217.869	49.32
218.087	63.66
218.306	102.57
218.524	12.46
218.742	-40.79
218.96	102.57
219.179	-44.88
219.397	20.65
219.615	71.85
219.833	37.03
220.051	41.13
220.27	127.14
220.488	118.95
220.706	53.42
220.924	-8.02
221.142	43.18
221.36	-8.02
221.578	69.8
221.796	45.23
222.015	-3.93
222.233	-3.93
222.451	26.79
222.669	4.27
222.887	-28.5
223.105	0.17
223.323	4.27
223.541	-46.93
223.759	63.66
223.977	4.27
224.195	80.04
224.413	69.8
224.631	61.61
224.849	53.42
225.067	118.95
225.285	-3.93
225.503	12.46
225.721	18.6
225.939	94.38
226.157	-34.64
226.375	47.27
226.592	2.22
226.81	14.51
227.028	73.9
227.246	-20.31
227.464	67.75
227.682	53.42
227.9	118.95
228.117	28.84
228.335	-36.69
228.553	-87.89
228.771	-10.07
228.989	20.65
229.206	63.66
229.424	39.08
229.642	-20.31
229.86	18.6
230.077	57.51
230.295	4.27
230.513	12.46
230.731	37.03
230.948	20.65
231.166	39.08
231.384	-22.36
231.601	-26.45
231.819	53.42
232.037	4.27
232.254	-12.12
232.472	-26.45
232.689	32.94
232.907	47.27
233.125	47.27
233.342	-1.88
233.56	-32.6
233.777	55.47
233.995	-36.69
234.213	32.94
234.43	0.17
234.648	20.65
234.865	-14.17
235.083	37.03
235.3	-65.36
235.518	59.56
235.735	63.66
235.953	24.75
236.17	-20.31
236.388	4.27
236.605	80.04
236.822	-32.6
237.04	8.36
237.257	63.66
237.475	28.84
237.692	45.23
237.909	30.89
238.127	0.17
238.344	45.23
238.562	65.71
238.779	22.7
238.996	-30.55
239.214	80.04
239.431	55.47
239.648	45.23
239.865	77.99
240.083	-24.4
240.3	-46.93
240.517	14.51
240.735	10.41
240.952	77.99
241.169	37.03
241.386	18.6
241.603	-18.26
241.821	-18.26
242.038	-32.6
242.255	16.55
242.472	-61.27
242.689	28.84
242.907	80.04
243.124	8.36
243.341	26.79
243.558	6.31
243.775	4.27
243.992	14.51
244.209	6.31
244.426	8.36
244.643	69.8
244.86	30.89
245.078	63.66
245.295	-8.02
245.512	10.41
245.729	39.08
245.946	-8.02
246.163	-28.5
246.38	51.37
246.597	20.65
246.814	24.75
247.031	-1.88
247.248	-20.31
247.464	8.36
247.681	-38.74
247.898	47.27
248.115	53.42
248.332	45.23
248.549	14.51
248.766	47.27
248.983	57.51
249.2	59.56
249.417	94.38
249.633	22.7
249.85	100.52
250.067	-12.12
250.284	8.36
250.501	6.31
250.717	49.32
250.934	20.65
251.151	-28.5
251.368	45.23
251.585	61.61
251.801	61.61
252.018	-3.93
252.235	-12.12
252.451	4.27
252.668	6.31
252.885	20.65
253.102	-14.17
253.318	28.84
253.535	32.94
253.752	-18.26
253.968	30.89
254.185	-12.12
254.401	4.27
254.618	118.95
254.835	-69.46
255.051	118.95
255.268	20.65
255.484	63.66
255.701	20.65
255.917	77.99
256.134	16.55
256.351	41.13
256.567	-57.17
256.784	12.46
257	-22.36
257.217	63.66
257.433	129.19
257.65	61.61
257.866	73.9
258.082	-20.31
258.299	-8.02
258.515	94.38
258.732	69.8
258.948	14.51
259.165	86.19
259.381	-77.65
259.597	32.94
259.814	49.32
260.03	14.51
260.246	4.27
260.463	14.51
260.679	-10.07
260.895	8.36
261.112	28.84
261.328	16.55
261.544	-12.12
261.761	53.42
261.977	32.94
262.193	-1.88
262.409	-40.79
262.626	53.42
262.842	24.75
263.058	-8.02
263.274	28.84
263.49	20.65
263.707	20.65
263.923	20.65
264.139	26.79
264.355	-3.93
264.571	14.51
264.787	39.08
265.004	47.27
265.22	84.14
265.436	-44.88
265.652	49.32
265.868	-18.26
266.084	14.51
266.3	55.47
266.516	-1.88
266.732	-16.21
266.948	-26.45
267.164	-1.88
267.38	-30.55
267.596	73.9
267.812	12.46
268.028	16.55
268.244	24.75
268.46	-16.21
268.676	14.51
268.892	16.55
269.108	-20.31
269.324	-28.5
269.54	22.7
269.756	80.04
269.972	-53.08
270.188	-14.17
270.403	12.46
270.619	39.08
270.835	-18.26
271.051	-16.21
271.267	-16.21
271.483	22.7
271.698	39.08
271.914	53.42
272.13	-36.69
272.346	-12.12
272.562	-3.93
272.777	20.65
272.993	45.23
273.209	32.94
273.425	98.47
273.64	-65.36
273.856	84.14
274.072	37.03
274.287	69.8
274.503	41.13
274.719	88.23
274.934	24.75
275.15	-5.97
275.366	41.13
275.581	-16.21
275.797	28.84
276.012	98.47
276.228	86.19
276.444	39.08
276.659	28.84
276.875	45.23
277.09	-44.88
277.306	14.51
277.521	57.51
277.737	53.42
277.952	30.89
278.168	-3.93
278.383	92.33
278.599	28.84
278.814	-16.21
279.03	4.27
279.245	131.24
279.461	24.75
279.676	77.99
279.892	75.95
280.107	-20.31
280.322	-40.79
280.538	73.9
280.753	22.7
280.969	14.51
281.184	96.43
281.399	47.27
281.615	32.94
281.83	16.55
282.045	6.31
282.26	-44.88
282.476	26.79
282.691	-26.45
282.906	28.84
283.122	-12.12
283.337	32.94
283.552	84.14
283.767	0.17
283.983	61.61
284.198	59.56
284.413	98.47
284.628	45.23
284.843	4.27
285.058	77.99
285.274	-14.17
285.489	26.79
285.704	61.61
285.919	32.94
286.134	55.47
286.349	20.65
286.564	20.65
286.779	110.76
286.995	-10.07
287.21	-59.22
287.425	-34.64
287.64	39.08
287.855	75.95
288.07	24.75
288.285	73.9
288.5	6.31
288.715	28.84
288.93	-1.88
289.145	-36.69
289.36	4.27
289.575	43.18
289.79	4.27
290.004	-32.6
290.219	88.23
290.434	-10.07
290.649	2.22
290.864	59.56
291.079	-51.03
291.294	-5.97
291.509	39.08
291.724	-53.08
291.938	-3.93
292.153	80.04
292.368	-69.46
292.583	20.65
292.798	110.76
293.012	77.99
293.227	-18.26
293.442	4.27
293.657	100.52
293.871	61.61
294.086	-34.64
294.301	90.28
294.516	10.41
294.73	26.79
294.945	-42.84
295.16	55.47
295.374	90.28
295.589	30.89
295.804	49.32
296.018	-10.07
296.233	39.08
296.447	69.8
296.662	-53.08
296.877	47.27
297.091	96.43
297.306	22.7
297.52	28.84
297.735	69.8
297.949	30.89
298.164	121
298.378	30.89
298.593	-5.97
298.807	12.46
299.022	88.23
299.236	69.8
299.451	30.89
299.665	45.23
299.88	12.46
300.094	-36.69
300.309	49.32
300.523	45.23
300.737	98.47
300.952	80.04
301.166	18.6
301.381	-73.56
301.595	-34.64
301.809	-51.03
302.024	28.84
302.238	34.99
302.452	37.03
302.667	-26.45
302.881	86.19
303.095	69.8
303.309	69.8
303.524	8.36
303.738	12.46
303.952	12.46
304.166	-42.84
304.381	-12.12
304.595	73.9
304.809	-3.93
305.023	57.51
305.237	28.84
305.452	-3.93
305.666	-14.17
305.88	41.13
306.094	-3.93
306.308	28.84
306.522	6.31
306.736	12.46
306.95	28.84
307.164	55.47
307.379	32.94
307.593	82.09
307.807	12.46
308.021	82.09
308.235	24.75
308.449	-18.26
308.663	-12.12
308.877	145.58
309.091	-3.93
309.305	86.19
309.519	-71.51
309.733	39.08
309.947	-59.22
310.161	135.34
310.374	57.51
310.588	102.57
310.802	-53.08
311.016	20.65
311.23	139.43
311.444	-75.6
311.658	20.65
311.872	69.8
312.085	88.23
312.299	80.04
312.513	39.08
312.727	-18.26
312.941	39.08
313.154	-24.4
313.368	49.32
313.582	53.42
313.796	77.99
314.009	96.43
314.223	55.47
314.437	53.42
314.651	86.19
314.864	20.65
315.078	-8.02
315.292	32.94
315.505	37.03
315.719	45.23
315.933	49.32
316.146	39.08
316.36	-22.36
316.573	39.08
316.787	30.89
317.001	75.95
317.214	20.65
317.428	43.18
317.641	-12.12
317.855	61.61
318.068	4.27
318.282	55.47
318.495	45.23
318.709	41.13
318.922	55.47
319.136	39.08
319.349	57.51
319.563	22.7
319.776	30.89
319.99	-32.6
320.203	80.04
320.417	88.23
320.63	86.19
320.843	34.99
321.057	96.43
321.27	20.65
321.483	69.8
321.697	65.71
321.91	-8.02
322.124	61.61
322.337	-1.88
322.55	0.17
322.763	32.94
322.977	45.23
323.19	30.89
323.403	20.65
323.617	90.28
323.83	94.38
324.043	-16.21
324.256	82.09
324.469	-67.41
324.683	16.55
324.896	28.84
325.109	45.23
325.322	-12.12
325.535	127.14
325.748	-16.21
325.962	12.46
326.175	4.27
326.388	0.17
326.601	16.55
326.814	45.23
327.027	51.37
327.24	86.19
327.453	22.7
327.666	6.31
327.879	65.71
328.092	53.42
328.305	73.9
328.518	-16.21
328.731	-38.74
328.944	20.65
329.157	53.42
329.37	39.08
329.583	63.66
329.796	37.03
330.009	-12.12
330.222	55.47
330.435	-85.84
330.648	77.99
330.861	102.57
331.073	-26.45
331.286	69.8
331.499	45.23
331.712	8.36
331.925	43.18
332.138	-18.26
332.35	77.99
332.563	47.27
332.776	86.19
332.989	53.42
333.202	-10.07
333.414	-12.12
333.627	-42.84
333.84	-26.45
334.053	28.84
334.265	-1.88
334.478	-32.6
334.691	20.65
334.903	-28.5
335.116	45.23
335.329	12.46
335.541	133.29
335.754	108.71
335.966	-36.69
336.179	53.42
336.392	-16.21
336.604	16.55
336.817	26.79
337.029	-57.17
337.242	37.03
337.454	14.51
337.667	0.17
337.88	39.08
338.092	-38.74
338.305	112.81
338.517	-42.84
338.729	45.23
338.942	57.51
339.154	-75.6
339.367	55.47
339.579	77.99
339.792	0.17
340.004	41.13
340.217	14.51
340.429	14.51
340.641	4.27
340.854	-18.26
341.066	57.51
341.278	28.84
341.491	104.62
341.703	10.41
341.915	-20.31
342.128	49.32
342.34	71.85
342.552	4.27
342.764	63.66
342.977	37.03
343.189	4.27
343.401	133.29
343.613	-98.13
343.826	88.23
344.038	77.99
344.25	63.66
344.462	20.65
344.674	45.23
344.886	-12.12
345.099	112.81
345.311	32.94
345.523	24.75
345.735	-18.26
345.947	47.27
346.159	-18.26
346.371	28.84
346.583	12.46
346.795	133.29
347.007	102.57
347.219	37.03
347.431	45.23
347.643	106.67
347.855	110.76
348.067	102.57
348.279	-14.17
348.491	14.51
348.703	8.36
348.915	-42.84
349.127	80.04
349.339	6.31
349.551	-5.97
349.763	114.86
349.975	22.7
350.187	86.19
350.399	28.84
350.61	49.32
350.822	4.27
351.034	77.99
351.246	24.75
351.458	77.99
351.669	41.13
351.881	61.61
352.093	61.61
352.305	77.99
352.517	47.27
352.728	55.47
352.94	-22.36
353.152	-8.02
353.363	69.8
353.575	102.57
353.787	102.57
353.999	55.47
354.21	106.67
354.422	41.13
354.633	61.61
354.845	14.51
355.057	-1.88
355.268	0.17
355.48	20.65
355.692	20.65
355.903	-24.4
356.115	55.47
356.326	65.71
356.538	12.46
356.749	-18.26
356.961	32.94
357.172	4.27
357.384	45.23
357.595	135.34
357.807	45.23
358.018	4.27
358.23	-30.55
358.441	12.46
358.653	88.23
358.864	77.99
359.075	-3.93
359.287	-12.12
359.498	69.8
359.709	57.51
359.921	-20.31
360.132	96.43
360.344	49.32
360.555	4.27
360.766	55.47
360.977	104.62
361.189	82.09
361.4	28.84
361.611	-3.93
361.823	90.28
362.034	-20.31
362.245	2.22
362.456	4.27
362.667	28.84
362.879	55.47
363.09	65.71
363.301	135.34
363.512	16.55
363.723	24.75
363.935	24.75
364.146	94.38
364.357	12.46
364.568	71.85
364.779	4.27
364.99	129.19
365.201	4.27
365.412	106.67
365.623	-26.45
365.834	43.18
366.045	32.94
366.256	65.71
366.467	45.23
366.678	37.03
366.889	20.65
367.1	41.13
367.311	114.86
367.522	55.47
367.733	116.9
367.944	22.7
368.155	-24.4
368.366	69.8
368.577	84.14
368.788	24.75
368.999	28.84
369.209	61.61
369.42	102.57
369.631	143.53
369.842	20.65
370.053	12.46
370.264	61.61
370.474	63.66
370.685	6.31
370.896	28.84
371.107	45.23
371.317	4.27
371.528	28.84
371.739	51.37
371.95	86.19
372.16	26.79
372.371	-1.88
372.582	-20.31
372.792	77.99
373.003	71.85
373.214	4.27
373.424	20.65
373.635	0.17
373.846	96.43
374.056	61.61
374.267	37.03
374.477	55.47
374.688	-14.17
374.898	41.13
375.109	41.13
375.319	41.13
375.53	77.99
375.74	59.56
375.951	34.99
376.161	104.62
376.372	90.28
376.582	14.51
376.793	65.71
377.003	41.13
377.214	20.65
377.424	94.38
377.635	116.9
377.845	24.75
378.055	229.54
378.266	-12.12
378.476	28.84
378.686	45.23
378.897	-1.88
379.107	61.61
379.317	41.13
379.528	67.75
379.738	12.46
379.948	-1.88
380.158	-8.02
380.369	30.89
380.579	-5.97
380.789	34.99
380.999	-1.88
381.21	104.62
381.42	98.47
381.63	30.89
381.84	45.23
382.05	28.84
382.261	59.56
382.471	4.27
382.681	4.27
382.891	94.38
383.101	-32.6
383.311	0.17
383.521	39.08
383.731	37.03
383.941	61.61
384.151	47.27
384.361	127.14
384.571	0.17
384.781	86.19
384.991	55.47
385.201	47.27
385.411	39.08
385.621	67.75
385.831	14.51
386.041	88.23
386.251	32.94
386.461	80.04
386.671	28.84
386.881	71.85
387.091	6.31
387.301	123.05
387.511	-1.88
387.72	53.42
387.93	39.08
388.14	0.17
388.35	114.86
388.56	127.14
388.769	57.51
388.979	77.99
389.189	39.08
389.399	53.42
389.609	86.19
389.818	57.51
390.028	71.85
390.238	65.71
390.447	8.36
390.657	20.65
390.867	-26.45
391.076	-26.45
391.286	110.76
391.496	118.95
391.705	118.95
391.915	77.99
392.125	98.47
392.334	30.89
392.544	61.61
392.753	80.04
392.963	57.51
393.172	98.47
393.382	4.27
393.591	86.19
393.801	20.65
394.01	69.8
394.22	94.38
394.429	28.84
394.639	57.51
394.848	86.19
395.058	80.04
395.267	28.84
395.477	153.77
395.686	12.46
395.895	61.61
396.105	143.53
396.314	168.1
396.524	114.86
396.733	47.27
396.942	159.91
397.152	164.01
397.361	45.23
397.57	80.04
397.78	90.28
397.989	86.19
398.198	121
398.407	196.78
398.617	118.95
398.826	47.27
399.035	110.76
399.244	39.08
399.453	100.52
399.663	94.38
399.872	118.95
400.081	43.18
400.29	110.76
400.499	90.28
400.708	139.43
400.917	20.65
401.127	80.04
401.336	104.62
401.545	151.72
401.754	104.62
401.963	30.89
402.172	147.62
402.381	37.03
402.59	151.72
402.799	121
403.008	77.99
403.217	100.52
403.426	135.34
403.635	123.05
403.844	82.09
404.053	147.62
404.262	69.8
404.471	200.87
404.68	170.15
404.888	194.73
405.097	182.44
405.306	241.83
405.515	170.15
405.724	168.1
405.933	217.26
406.142	168.1
406.35	188.58
406.559	151.72
406.768	168.1
406.977	243.88
407.185	280.74
407.394	262.31
407.603	172.2
407.812	284.84
408.02	282.79
408.229	231.59
408.438	211.11
408.646	245.93
408.855	266.41
409.064	325.8
409.272	286.89
409.481	243.88
409.69	336.04
409.898	319.65
410.107	309.41
410.315	266.41
410.524	354.47
410.733	278.69
410.941	434.34
411.15	358.57
411.358	364.71
411.567	450.72
411.775	458.92
411.984	444.58
412.192	489.64
412.401	430.24
412.609	430.24
412.818	544.93
413.026	479.4
413.234	536.74
413.443	536.74
413.651	602.27
413.86	573.6
414.068	678.05
414.276	608.42
414.485	632.99
414.693	671.9
414.901	749.73
415.11	661.66
415.318	741.54
415.526	743.58
415.734	876.7
415.943	798.88
416.151	962.72
416.359	954.52
416.567	905.37
416.776	956.57
416.984	1056.92
417.192	1036.44
417.4	1085.59
417.608	1030.3
417.817	940.19
418.025	1159.32
418.233	1380.5
418.441	1251.48
418.649	1179.8
418.857	1310.87
419.065	1413.27
419.273	1366.17
419.481	1425.56
419.689	1450.13
419.897	1527.96
420.105	1552.53
420.313	1734.8
420.521	1777.81
420.729	1843.34
420.937	1878.16
421.145	1808.53
421.353	2019.47
421.561	2156.68
421.769	2076.81
421.977	2216.07
422.185	2222.22
422.393	2396.29
422.601	2457.73
422.809	2609.28
423.017	2513.03
423.224	2498.69
423.432	2736.26
423.64	2660.48
423.848	2939.01
424.056	2826.37
424.263	3084.41
424.471	3035.26
424.679	3111.04
424.887	3254.39
425.094	3373.18
425.302	3399.8
425.51	3518.58
425.718	3559.54
425.925	3608.69
426.133	3821.68
426.341	4079.72
426.548	4239.47
426.756	4165.74
426.964	4216.94
427.171	4526.18
427.379	4489.32
427.586	4624.48
427.794	4765.79
428.001	5072.99
428.209	5347.42
428.417	5075.04
428.624	5617.75
428.832	5533.78
429.039	5429.34
429.247	5584.98
429.454	5994.58
429.662	6422.6
429.869	6135.89
430.076	6516.81
430.284	6305.87
430.491	6535.24
430.699	6778.95
430.906	6963.26
431.114	6897.73
431.321	7182.4
431.528	7540.79
431.736	7700.53
431.943	8241.2
432.15	7788.6
432.358	8087.6
432.565	8443.95
432.772	8646.69
432.979	9031.71
433.187	9117.73
433.394	8894.5
433.601	9496.6
433.808	9578.52
434.016	9680.92
434.223	10080.27
434.43	10659.85
434.637	10356.75
434.844	11089.92
435.052	11284.48
435.259	11243.52
435.466	10956.8
435.673	11143.17
435.88	12115.95
436.087	12451.82
436.294	12728.3
436.501	12275.7
436.708	12363.76
436.915	12769.26
437.122	13469.66
437.329	13455.33
437.537	13819.86
437.743	14094.29
437.95	14049.24
438.157	14563.28
438.364	15501.25
438.571	15206.34
438.778	15208.39
438.985	16811.95
439.192	15968.18
439.399	16617.39
439.606	15896.5
439.813	17242.02
440.02	17778.59
440.227	17643.42
440.433	17768.35
440.64	18159.51
440.847	18034.58
441.054	18679.69
441.261	19761.02
441.467	19408.77
441.674	19959.67
441.881	20658.03
442.088	20305.78
442.294	20127.61
442.501	20670.32
442.708	21141.35
442.914	22194.01
443.121	22810.45
443.328	22603.6
443.534	23934.78
443.741	23490.37
443.948	22865.74
444.154	24457.01
444.361	24414.01
444.568	24743.73
444.774	24332.09
444.981	24827.7
445.187	25571.11
445.394	26734.35
445.6	26488.6
445.807	28530.42
446.013	27531.01
446.22	27924.22
446.426	29013.74
446.633	29472.49
446.839	30564.06
447.046	29081.33
447.252	31125.2
447.459	31170.26
447.665	30967.51
447.871	32458.43
448.078	33089.2
448.284	32026.31
448.491	32827.06
448.697	34051.75
448.903	34467.48
449.11	34676.38
449.316	33990.31
449.522	34825.88
449.728	35751.56
449.935	35851.91
450.141	36195.97
450.347	36978.29
450.553	35540.62
450.76	35913.35
450.966	37461.62
451.172	36767.35
451.378	38180.45
451.584	37049.97
451.791	37727.85
451.997	37785.19
452.203	38676.06
452.409	38600.29
452.615	38405.73
452.821	37074.55
453.027	36703.87
453.233	38338.15
453.44	36859.51
453.646	37527.15
453.852	37357.17
454.058	37889.64
454.264	36660.86
454.47	37699.18
454.676	36728.44
454.882	38420.06
455.088	34422.43
455.294	35194.51
455.5	36023.94
455.705	36073.09
455.911	34932.37
456.117	34510.49
456.323	33863.33
456.529	31981.25
456.735	33308.33
456.941	32585.4
457.147	31944.39
457.352	30951.12
457.558	30265.05
457.764	30891.73
457.97	30047.97
458.176	29247.21
458.381	29230.83
458.587	28143.36
458.793	27885.31
458.999	26431.26
459.204	28452.6
459.41	27789.06
459.616	25769.76
459.821	25718.56
460.027	26046.24
460.233	25317.16
460.438	23799.62
460.644	24012.6
460.85	23205.7
461.055	22546.26
461.261	22673.23
461.466	21116.78
461.672	20086.65
461.878	21854.05
462.083	20287.35
462.289	20180.85
462.494	19552.13
462.7	18816.91
462.905	18511.76
463.111	18892.68
463.316	18718.61
463.522	18474.9
463.727	18409.36
463.932	18567.06
464.138	18268.05
464.343	18616.21
464.549	17829.79
464.754	18526.1
464.959	18413.46
465.165	17981.34
465.37	17434.53
465.575	16881.58
465.781	17412
465.986	17514.4
466.191	17012.65
466.397	16527.28
466.602	15681.47
