Data from USB4F104151__204__14-33-17-101.txt Node

Date: Thu Mar 13 14:33:17 EDT 2025
User: louis
Spectrometer: USB4F10415
Trigger mode: 4
Integration Time (sec): 2.500000E-2
Scans to average: 1
Electric dark correction enabled: true
Nonlinearity correction enabled: false
Boxcar width: 0
XAxis mode: Wavelengths
Number of Pixels in Spectrum: 3648
>>>>>Begin Spectral Data<<<<<
178.204	-159.91
178.424	-159.91
178.644	-159.91
178.864	-137.38
179.084	-141.48
179.304	-45.23
179.524	1.88
179.744	34.64
179.964	30.55
180.184	-4.27
180.404	30.55
180.624	-39.08
180.844	18.26
181.064	-47.27
181.283	67.41
181.503	-43.18
181.723	-4.27
181.943	-114.86
182.163	114.52
182.383	8.02
182.602	14.17
182.822	77.65
183.042	34.64
183.262	-32.94
183.482	-2.22
183.701	-14.51
183.921	-6.31
184.141	-12.46
184.361	-6.31
184.58	-22.7
184.8	26.45
185.02	22.36
185.239	36.69
185.459	-6.31
185.679	55.12
185.898	-4.27
186.118	26.45
186.338	44.88
186.557	5.97
186.777	24.4
186.997	59.22
187.216	3.93
187.436	69.46
187.655	22.36
187.875	77.65
188.095	-14.51
188.314	28.5
188.534	61.27
188.753	-4.27
188.973	30.55
189.192	51.03
189.412	10.07
189.631	73.56
189.851	1.88
190.07	51.03
190.29	-6.31
190.509	20.31
190.729	34.64
190.948	77.65
191.168	157.52
191.387	59.22
191.607	-10.41
191.826	20.31
192.045	-2.22
192.265	-14.51
192.484	75.6
192.704	67.41
192.923	1.88
193.142	91.99
193.362	85.84
193.581	75.6
193.8	12.12
194.02	51.03
194.239	36.69
194.458	-6.31
194.678	20.31
194.897	-16.55
195.116	75.6
195.335	-37.03
195.555	122.71
195.774	-61.61
195.993	20.31
196.212	67.41
196.432	-45.23
196.651	67.41
196.87	-39.08
197.089	124.76
197.308	-6.31
197.528	77.65
197.747	-34.99
197.966	20.31
198.185	44.88
198.404	5.97
198.623	32.6
198.842	59.22
199.062	-2.22
199.281	44.88
199.5	63.32
199.719	71.51
199.938	61.27
200.157	67.41
200.376	30.55
200.595	85.84
200.814	55.12
201.033	1.88
201.252	91.99
201.471	20.31
201.69	51.03
201.909	-14.51
202.128	28.5
202.347	5.97
202.566	-4.27
202.785	30.55
203.004	-32.94
203.223	67.41
203.442	22.36
203.661	42.84
203.879	12.12
204.098	-32.94
204.317	63.32
204.536	61.27
204.755	18.26
204.974	55.12
205.193	51.03
205.411	91.99
205.63	18.26
205.849	10.07
206.068	44.88
206.287	46.93
206.505	51.03
206.724	20.31
206.943	10.07
207.162	-8.36
207.381	30.55
207.599	-10.41
207.818	-12.46
208.037	-14.51
208.255	44.88
208.474	30.55
208.693	28.5
208.911	20.31
209.13	8.02
209.349	110.42
209.567	65.36
209.786	87.89
210.005	-26.79
210.223	-16.55
210.442	-69.8
210.661	48.98
210.879	44.88
211.098	69.46
211.316	59.22
211.535	26.45
211.753	53.08
211.972	65.36
212.191	3.93
212.409	18.26
212.628	71.51
212.846	12.12
213.065	5.97
213.283	91.99
213.502	-37.03
213.72	46.93
213.938	28.5
214.157	-37.03
214.375	20.31
214.594	26.45
214.812	71.51
215.031	-51.37
215.249	12.12
215.467	75.6
215.686	16.21
215.904	83.8
216.122	-20.65
216.341	14.17
216.559	-8.36
216.778	59.22
216.996	26.45
217.214	14.17
217.432	-2.22
217.651	-34.99
217.869	-28.84
218.087	10.07
218.306	28.5
218.524	-16.55
218.742	-28.84
218.96	-12.46
219.179	18.26
219.397	71.51
219.615	94.04
219.833	32.6
220.051	42.84
220.27	79.7
220.488	18.26
220.706	10.07
220.924	-37.03
221.142	34.64
221.36	-80.04
221.578	18.26
221.796	51.03
222.015	1.88
222.233	36.69
222.451	65.36
222.669	-61.61
222.887	116.56
223.105	-14.51
223.323	14.17
223.541	-14.51
223.759	1.88
223.977	18.26
224.195	-2.22
224.413	-18.6
224.631	130.9
224.849	-6.31
225.067	69.46
225.285	-14.51
225.503	-39.08
225.721	-2.22
225.939	-55.47
226.157	-16.55
226.375	132.95
226.592	-39.08
226.81	10.07
227.028	114.52
227.246	34.64
227.464	51.03
227.682	81.75
227.9	-22.7
228.117	36.69
228.335	-4.27
228.553	-6.31
228.771	-14.51
228.989	87.89
229.206	94.04
229.424	14.17
229.642	-16.55
229.86	-2.22
230.077	85.84
230.295	16.21
230.513	48.98
230.731	28.5
230.948	61.27
231.166	-10.41
231.384	-30.89
231.601	-6.31
231.819	67.41
232.037	5.97
232.254	-12.46
232.472	12.12
232.689	-14.51
232.907	67.41
233.125	-0.17
233.342	67.41
233.56	-8.36
233.777	12.12
233.995	1.88
234.213	-12.46
234.43	44.88
234.648	61.27
234.865	-2.22
235.083	5.97
235.3	46.93
235.518	96.08
235.735	16.21
235.953	98.13
236.17	87.89
236.388	108.37
236.605	57.17
236.822	51.03
237.04	28.5
237.257	-6.31
237.475	14.17
237.692	67.41
237.909	5.97
238.127	8.02
238.344	42.84
238.562	20.31
238.779	18.26
238.996	26.45
239.214	59.22
239.431	59.22
239.648	-51.37
239.865	79.7
240.083	-18.6
240.3	-43.18
240.517	38.74
240.735	-12.46
240.952	83.8
241.169	32.6
241.386	18.26
241.603	53.08
241.821	1.88
242.038	124.76
242.255	44.88
242.472	-26.79
242.689	-22.7
242.907	42.84
243.124	24.4
243.341	-43.18
243.558	-6.31
243.775	-22.7
243.992	-12.46
244.209	3.93
244.426	26.45
244.643	46.93
244.86	-80.04
245.078	34.64
245.295	-10.41
245.512	-10.41
245.729	1.88
245.946	53.08
246.163	3.93
246.38	26.45
246.597	5.97
246.814	55.12
247.031	67.41
247.248	-6.31
247.464	14.17
247.681	34.64
247.898	3.93
248.115	-86.19
248.332	-10.41
248.549	-2.22
248.766	32.6
248.983	-65.71
249.2	83.8
249.417	-2.22
249.633	-69.8
249.85	100.18
250.067	-32.94
250.284	22.36
250.501	83.8
250.717	3.93
250.934	-55.47
251.151	55.12
251.368	5.97
251.585	91.99
251.801	10.07
252.018	36.69
252.235	44.88
252.451	-12.46
252.668	-20.65
252.885	30.55
253.102	-10.41
253.318	-34.99
253.535	18.26
253.752	75.6
253.968	-4.27
254.185	-22.7
254.401	-24.75
254.618	36.69
254.835	55.12
255.051	8.02
255.268	20.31
255.484	-4.27
255.701	3.93
255.917	18.26
256.134	46.93
256.351	-14.51
256.567	20.31
256.784	8.02
257	-10.41
257.217	55.12
257.433	71.51
257.65	71.51
257.866	79.7
258.082	-32.94
258.299	51.03
258.515	22.36
258.732	16.21
258.948	40.79
259.165	-18.6
259.381	5.97
259.597	-12.46
259.814	18.26
260.03	-30.89
260.246	44.88
260.463	53.08
260.679	75.6
260.895	3.93
261.112	38.74
261.328	-14.51
261.544	5.97
261.761	100.18
261.977	24.4
262.193	-28.84
262.409	-14.51
262.626	5.97
262.842	83.8
263.058	28.5
263.274	79.7
263.49	14.17
263.707	5.97
263.923	36.69
264.139	26.45
264.355	81.75
264.571	38.74
264.787	3.93
265.004	14.17
265.22	5.97
265.436	22.36
265.652	48.98
265.868	61.27
266.084	51.03
266.3	22.36
266.516	1.88
266.732	42.84
266.948	28.5
267.164	16.21
267.38	18.26
267.596	18.26
267.812	59.22
268.028	-28.84
268.244	44.88
268.46	-63.66
268.676	-53.42
268.892	26.45
269.108	20.31
269.324	1.88
269.54	-43.18
269.756	89.94
269.972	12.12
270.188	53.08
270.403	-41.13
270.619	79.7
270.835	42.84
271.051	42.84
271.267	-2.22
271.483	42.84
271.698	89.94
271.914	61.27
272.13	14.17
272.346	-6.31
272.562	59.22
272.777	87.89
272.993	5.97
273.209	61.27
273.425	79.7
273.64	-59.56
273.856	38.74
274.072	-6.31
274.287	-30.89
274.503	61.27
274.719	-30.89
274.934	63.32
275.15	-71.85
275.366	124.76
275.581	-47.27
275.797	20.31
276.012	-34.99
276.228	-37.03
276.444	85.84
276.659	71.51
276.875	-34.99
277.09	30.55
277.306	1.88
277.521	28.5
277.737	-20.65
277.952	30.55
278.168	-20.65
278.383	-22.7
278.599	-59.56
278.814	34.64
279.03	-6.31
279.245	-18.6
279.461	20.31
279.676	96.08
279.892	-45.23
280.107	-28.84
280.322	10.07
280.538	-37.03
280.753	34.64
280.969	67.41
281.184	20.31
281.399	91.99
281.615	12.12
281.83	36.69
282.045	24.4
282.26	75.6
282.476	-80.04
282.691	116.56
282.906	34.64
283.122	-41.13
283.337	104.28
283.552	14.17
283.767	-34.99
283.983	63.32
284.198	53.08
284.413	75.6
284.628	5.97
284.843	104.28
285.058	67.41
285.274	22.36
285.489	-53.42
285.704	63.32
285.919	-18.6
286.134	-16.55
286.349	42.84
286.564	-6.31
286.779	104.28
286.995	51.03
287.21	-32.94
287.425	59.22
287.64	28.5
287.855	42.84
288.07	26.45
288.285	75.6
288.5	40.79
288.715	53.08
288.93	22.36
289.145	-12.46
289.36	124.76
289.575	102.23
289.79	42.84
290.004	42.84
290.219	18.26
290.434	-20.65
290.649	-51.37
290.864	116.56
291.079	5.97
291.294	38.74
291.509	32.6
291.724	22.36
291.938	-4.27
292.153	71.51
292.368	-39.08
292.583	67.41
292.798	44.88
293.012	116.56
293.227	26.45
293.442	61.27
293.657	14.17
293.871	85.84
294.086	42.84
294.301	91.99
294.516	48.98
294.73	22.36
294.945	-26.79
295.16	-51.37
295.374	51.03
295.589	63.32
295.804	1.88
296.018	42.84
296.233	44.88
296.447	-53.42
296.662	24.4
296.877	85.84
297.091	85.84
297.306	26.45
297.52	-14.51
297.735	65.36
297.949	24.4
298.164	71.51
298.378	1.88
298.593	1.88
298.807	-28.84
299.022	59.22
299.236	67.41
299.451	34.64
299.665	-0.17
299.88	83.8
300.094	71.51
300.309	1.88
300.523	10.07
300.737	5.97
300.952	22.36
301.166	63.32
301.381	-10.41
301.595	42.84
301.809	-0.17
302.024	22.36
302.238	-14.51
302.452	51.03
302.667	42.84
302.881	141.14
303.095	30.55
303.309	116.56
303.524	18.26
303.738	63.32
303.952	10.07
304.166	55.12
304.381	-4.27
304.595	53.08
304.809	-2.22
305.023	28.5
305.237	26.45
305.452	18.26
305.666	-49.32
305.88	18.26
306.094	24.4
306.308	22.36
306.522	67.41
306.736	28.5
306.95	26.45
307.164	-47.27
307.379	22.36
307.593	1.88
307.807	1.88
308.021	22.36
308.235	26.45
308.449	-47.27
308.663	26.45
308.877	161.62
309.091	28.5
309.305	81.75
309.519	10.07
309.733	14.17
309.947	-8.36
310.161	18.26
310.374	53.08
310.588	28.5
310.802	-22.7
311.016	-18.6
311.23	34.64
311.444	34.64
311.658	71.51
311.872	63.32
312.085	61.27
312.299	63.32
312.513	73.56
312.727	26.45
312.941	30.55
313.154	100.18
313.368	91.99
313.582	36.69
313.796	-10.41
314.009	69.46
314.223	85.84
314.437	22.36
314.651	3.93
314.864	-0.17
315.078	12.12
315.292	-10.41
315.505	-14.51
315.719	42.84
315.933	1.88
316.146	14.17
316.36	28.5
316.573	34.64
316.787	-22.7
317.001	46.93
317.214	44.88
317.428	114.52
317.641	-45.23
317.855	12.12
318.068	-6.31
318.282	42.84
318.495	63.32
318.709	79.7
318.922	8.02
319.136	77.65
319.349	124.76
319.563	24.4
319.776	38.74
319.99	-8.36
320.203	48.98
320.417	116.56
320.63	34.64
320.843	40.79
321.057	51.03
321.27	108.37
321.483	22.36
321.697	85.84
321.91	36.69
322.124	-6.31
322.337	28.5
322.55	65.36
322.763	-39.08
322.977	44.88
323.19	51.03
323.403	116.56
323.617	8.02
323.83	81.75
324.043	67.41
324.256	38.74
324.469	1.88
324.683	112.47
324.896	-22.7
325.109	1.88
325.322	18.26
325.535	34.64
325.748	69.46
325.962	-12.46
326.175	14.17
326.388	14.17
326.601	36.69
326.814	94.04
327.027	53.08
327.24	100.18
327.453	-6.31
327.666	46.93
327.879	69.46
328.092	116.56
328.305	53.08
328.518	14.17
328.731	-28.84
328.944	57.17
329.157	26.45
329.37	-18.6
329.583	67.41
329.796	157.52
330.009	10.07
330.222	59.22
330.435	100.18
330.648	36.69
330.861	89.94
331.073	26.45
331.286	67.41
331.499	46.93
331.712	10.07
331.925	85.84
332.138	83.8
332.35	108.37
332.563	14.17
332.776	53.08
332.989	24.4
333.202	-26.79
333.414	42.84
333.627	91.99
333.84	38.74
334.053	65.36
334.265	42.84
334.478	-2.22
334.691	71.51
334.903	48.98
335.116	10.07
335.329	10.07
335.541	42.84
335.754	153.43
335.966	26.45
336.179	-22.7
336.392	10.07
336.604	26.45
336.817	-2.22
337.029	46.93
337.242	10.07
337.454	116.56
337.667	20.31
337.88	75.6
338.092	79.7
338.305	-39.08
338.517	-20.65
338.729	53.08
338.942	34.64
339.154	-73.9
339.367	91.99
339.579	112.47
339.792	10.07
340.004	57.17
340.217	-16.55
340.429	100.18
340.641	48.98
340.854	98.13
341.066	40.79
341.278	59.22
341.491	91.99
341.703	3.93
341.915	26.45
342.128	94.04
342.34	67.41
342.552	10.07
342.764	67.41
342.977	-20.65
343.189	-6.31
343.401	51.03
343.613	-2.22
343.826	36.69
344.038	-14.51
344.25	-14.51
344.462	30.55
344.674	42.84
344.886	28.5
345.099	128.85
345.311	59.22
345.523	46.93
345.735	-34.99
345.947	65.36
346.159	55.12
346.371	59.22
346.583	34.64
346.795	128.85
347.007	-4.27
347.219	5.97
347.431	-39.08
347.643	42.84
347.855	32.6
348.067	81.75
348.279	-14.51
348.491	51.03
348.703	55.12
348.915	-47.27
349.127	-14.51
349.339	59.22
349.551	65.36
349.763	30.55
349.975	69.46
350.187	53.08
350.399	53.08
350.61	98.13
350.822	12.12
351.034	42.84
351.246	20.31
351.458	53.08
351.669	96.08
351.881	38.74
352.093	77.65
352.305	51.03
352.517	69.46
352.728	75.6
352.94	20.31
353.152	132.95
353.363	61.27
353.575	51.03
353.787	22.36
353.999	10.07
354.21	149.33
354.422	1.88
354.633	-10.41
354.845	8.02
355.057	75.6
355.268	59.22
355.48	-32.94
355.692	-10.41
355.903	67.41
356.115	20.31
356.326	24.4
356.538	143.19
356.749	30.55
356.961	14.17
357.172	53.08
357.384	61.27
357.595	-18.6
357.807	-10.41
358.018	18.26
358.23	-67.75
358.441	65.36
358.653	81.75
358.864	28.5
359.075	42.84
359.287	83.8
359.498	42.84
359.709	18.26
359.921	10.07
360.132	91.99
360.344	38.74
360.555	79.7
360.766	75.6
360.977	3.93
361.189	22.36
361.4	59.22
361.611	5.97
361.823	75.6
362.034	75.6
362.245	10.07
362.456	85.84
362.667	22.36
362.879	67.41
363.09	77.65
363.301	87.89
363.512	1.88
363.723	46.93
363.935	30.55
364.146	69.46
364.357	-30.89
364.568	55.12
364.779	18.26
364.99	1.88
365.201	61.27
365.412	51.03
365.623	28.5
365.834	100.18
366.045	91.99
366.256	91.99
366.467	-12.46
366.678	75.6
366.889	38.74
367.1	18.26
367.311	59.22
367.522	44.88
367.733	71.51
367.944	-20.65
368.155	94.04
368.366	73.56
368.577	34.64
368.788	149.33
368.999	83.8
369.209	18.26
369.42	149.33
369.631	20.31
369.842	65.36
370.053	42.84
370.264	44.88
370.474	10.07
370.685	63.32
370.896	36.69
371.107	77.65
371.317	36.69
371.528	1.88
371.739	65.36
371.95	44.88
372.16	96.08
372.371	14.17
372.582	44.88
372.792	100.18
373.003	-22.7
373.214	96.08
373.424	1.88
373.635	18.26
373.846	108.37
374.056	46.93
374.267	53.08
374.477	-4.27
374.688	20.31
374.898	104.28
375.109	65.36
375.319	-2.22
375.53	83.8
375.74	59.22
375.951	69.46
376.161	81.75
376.372	118.61
376.582	1.88
376.793	51.03
377.003	67.41
377.214	87.89
377.424	108.37
377.635	-10.41
377.845	69.46
378.055	34.64
378.266	-14.51
378.476	135
378.686	102.23
378.897	69.46
379.107	48.98
379.317	30.55
379.528	28.5
379.738	141.14
379.948	38.74
380.158	32.6
380.369	48.98
380.579	59.22
380.789	-4.27
380.999	42.84
381.21	42.84
381.42	116.56
381.63	-14.51
381.84	100.18
382.05	108.37
382.261	169.81
382.471	67.41
382.681	44.88
382.891	100.18
383.101	55.12
383.311	10.07
383.521	116.56
383.731	89.94
383.941	96.08
384.151	91.99
384.361	102.23
384.571	94.04
384.781	55.12
384.991	63.32
385.201	159.57
385.411	63.32
385.621	67.41
385.831	81.75
386.041	51.03
386.251	-22.7
386.461	94.04
386.671	55.12
386.881	77.65
387.091	48.98
387.301	108.37
387.511	69.46
387.72	106.32
387.93	126.8
388.14	59.22
388.35	14.17
388.56	53.08
388.769	130.9
388.979	100.18
389.189	44.88
389.399	53.08
389.609	116.56
389.818	65.36
390.028	75.6
390.238	1.88
390.447	59.22
390.657	108.37
390.867	3.93
391.076	18.26
391.286	38.74
391.496	34.64
391.705	18.26
391.915	110.42
392.125	36.69
392.334	51.03
392.544	110.42
392.753	149.33
392.963	12.12
393.172	149.33
393.382	34.64
393.591	194.39
393.801	57.17
394.01	96.08
394.22	157.52
394.429	126.8
394.639	85.84
394.848	91.99
395.058	159.57
395.267	130.9
395.477	108.37
395.686	110.42
395.895	159.57
396.105	196.43
396.314	124.76
396.524	137.04
396.733	94.04
396.942	104.28
397.152	116.56
397.361	163.67
397.57	91.99
397.78	116.56
397.989	104.28
398.198	214.87
398.407	145.24
398.617	32.6
398.826	167.76
399.035	73.56
399.244	63.32
399.453	116.56
399.663	96.08
399.872	132.95
400.081	157.52
400.29	186.19
400.499	85.84
400.708	173.91
400.917	102.23
401.127	190.29
401.336	178
401.545	225.11
401.754	124.76
401.963	167.76
402.172	87.89
402.381	147.28
402.59	116.56
402.799	116.56
403.008	175.95
403.217	106.32
403.426	200.53
403.635	141.14
403.844	69.46
404.053	167.76
404.262	145.24
404.471	231.25
404.68	173.91
404.888	71.51
405.097	167.76
405.306	161.62
405.515	247.63
405.724	233.3
405.933	198.48
406.142	272.21
406.35	202.58
406.559	165.71
406.768	278.35
406.977	223.06
407.185	178
407.394	247.63
407.603	247.63
407.812	290.64
408.02	329.55
408.229	370.51
408.438	335.7
408.646	241.49
408.855	333.65
409.064	378.7
409.272	255.83
409.481	335.7
409.69	395.09
409.898	360.27
410.107	407.38
410.315	444.24
410.524	397.14
410.733	427.85
410.941	378.7
411.15	485.2
411.358	470.86
411.567	542.54
411.775	460.62
411.984	522.06
412.192	612.17
412.401	608.08
412.609	642.89
412.818	708.43
413.026	628.56
413.234	608.08
413.443	737.1
413.651	704.33
413.86	769.87
414.068	796.49
414.276	780.11
414.485	804.68
414.693	796.49
414.901	931.66
415.11	952.13
415.318	886.6
415.526	991.05
415.734	991.05
415.943	1023.81
416.151	1083.2
416.359	1052.49
416.567	1158.98
416.776	1199.94
416.984	1279.81
417.192	1365.82
417.4	1304.39
417.608	1304.39
417.817	1384.26
418.025	1496.89
418.233	1478.46
418.441	1519.42
418.649	1460.03
418.857	1730.36
419.065	1836.86
419.273	1738.55
419.481	1742.65
419.689	1998.65
419.897	2033.46
420.105	1978.17
420.313	2168.63
420.521	2150.2
420.729	2156.34
420.937	2324.27
421.145	2305.84
421.353	2373.43
421.561	2664.24
421.769	2576.17
421.977	2705.2
422.185	2844.46
422.393	2909.99
422.601	3051.3
422.809	3180.32
423.017	3229.48
423.224	3184.42
423.432	3372.83
423.64	3290.92
423.848	3712.8
424.056	3653.41
424.263	3944.22
424.471	3905.31
424.679	4028.18
424.887	4142.87
425.094	4212.5
425.302	4212.5
425.51	4458.26
425.718	4620.05
425.925	4681.49
426.133	4847.37
426.341	5129.99
426.548	5228.29
426.756	5314.31
426.964	5304.07
427.171	5584.64
427.379	5951.23
427.586	6024.95
427.794	6065.91
428.001	6405.88
428.209	6637.3
428.417	6606.58
428.624	7007.98
428.832	7063.27
429.039	6964.97
429.247	7030.51
429.454	7571.17
429.662	8222.42
429.869	7526.11
430.076	8220.38
430.284	7866.08
430.491	8244.95
430.699	8746.7
430.906	8779.47
431.114	8775.38
431.321	9086.67
431.528	9422.53
431.736	9918.14
431.943	10292.92
432.15	10096.32
432.358	10284.73
432.565	10757.81
432.772	10962.61
432.979	11130.54
433.187	11376.3
433.394	11511.46
433.601	12242.59
433.808	12519.06
434.016	12390.04
434.223	12549.78
434.43	13528.71
434.637	13002.38
434.844	13852.29
435.052	14290.56
435.259	14313.08
435.466	14343.8
435.673	14204.54
435.88	14997.1
436.087	15855.2
436.294	15804
436.501	15478.38
436.708	15642.21
436.915	16328.28
437.122	17077.84
437.329	17153.62
437.537	17817.16
437.743	17612.36
437.95	17616.46
438.157	18753.08
438.364	18959.92
438.571	19228.21
438.778	19314.22
438.985	20901.4
439.192	20139.55
439.399	20758.04
439.606	20500
439.813	21663.24
440.02	22771.19
440.227	22564.35
440.433	21939.72
440.64	22830.58
440.847	22621.69
441.054	23297.52
441.261	24761.82
441.467	24473.06
441.674	24866.27
441.881	26019.27
442.088	25994.7
442.294	25578.96
442.501	26326.47
442.708	26883.52
442.914	28048.81
443.121	28865.95
443.328	28079.53
443.534	29820.3
443.741	28960.16
443.948	28861.85
444.154	31167.87
444.361	30860.67
444.568	31012.22
444.774	30932.35
444.981	31128.95
445.187	32306.54
445.394	33676.63
445.6	33037.66
445.807	36255.02
446.013	34475.34
446.22	35274.04
446.426	37006.62
446.633	36918.56
446.839	38464.78
447.046	36420.91
447.252	38673.67
447.459	38761.73
447.665	38702.34
447.871	40434.92
448.078	41968.85
448.284	39531.77
448.491	41309.41
448.697	42122.45
448.903	43553.98
449.11	43472.06
449.316	43035.84
449.522	43457.73
449.728	44786.86
449.935	44842.15
450.141	45083.81
450.347	45649.05
450.553	44188.85
450.76	44864.68
450.966	46337.17
451.172	45841.56
451.378	47111.3
451.584	46333.07
451.791	47266.95
451.997	47131.78
452.203	47799.42
452.409	48149.62
452.615	47197.32
452.821	46259.35
453.027	45440.16
453.233	47860.86
453.44	45935.77
453.646	46363.79
453.852	46234.77
454.058	47287.43
454.264	45427.87
454.47	46806.16
454.676	45657.24
454.882	46922.89
455.088	43195.59
455.294	44045.49
455.5	44457.13
455.705	44393.65
455.911	43021.51
456.117	42357.97
456.323	41868.5
456.529	39384.32
456.735	41286.88
456.941	40250.61
457.147	39542.01
457.352	38128.91
457.558	38124.82
457.764	37616.92
457.97	37324.06
458.176	36480.3
458.381	36703.53
458.587	34688.32
458.793	34579.78
458.999	32972.13
459.204	35177.79
459.41	34610.5
459.616	32146.79
459.821	31757.68
460.027	32062.83
460.233	31069.56
460.438	29910.41
460.644	29613.46
460.85	28609.95
461.055	28290.47
461.261	28523.94
461.466	25945.55
461.672	25048.54
461.878	26721.73
462.083	25159.13
462.289	24677.85
462.494	24354.27
462.7	23483.89
462.905	22724.09
463.111	23469.55
463.316	23537.13
463.522	23041.53
463.727	22924.79
463.932	23010.81
464.138	22734.33
464.343	23201.27
464.549	22072.84
464.754	23115.25
464.959	22865.4
465.165	22441.47
465.37	21587.47
465.575	21038.61
465.781	21474.83
465.986	21884.42
466.191	21095.96
466.397	20669.98
466.602	19512.88
