Data from USB4F104151__93__14-30-43-369.txt Node

Date: Thu Mar 13 14:30:43 EDT 2025
User: louis
Spectrometer: USB4F10415
Trigger mode: 4
Integration Time (sec): 2.500000E-2
Scans to average: 1
Electric dark correction enabled: true
Nonlinearity correction enabled: false
Boxcar width: 0
XAxis mode: Wavelengths
Number of Pixels in Spectrum: 3648
>>>>>Begin Spectral Data<<<<<
178.204	-130.05
178.424	-130.05
178.644	-130.05
178.864	-119.81
179.084	-177.15
179.304	56.32
179.524	-21.5
179.744	5.12
179.964	-68.61
180.184	39.94
180.404	11.26
180.624	3.07
180.844	-1.02
181.064	-41.98
181.283	-21.5
181.503	-37.89
181.723	76.8
181.943	11.26
182.163	27.65
182.383	44.03
182.602	29.7
182.822	23.55
183.042	44.03
183.262	-1.02
183.482	68.61
183.701	27.65
183.921	-31.74
184.141	64.51
184.361	21.5
184.58	52.22
184.8	17.41
185.02	80.89
185.239	105.47
185.459	35.84
185.679	109.57
185.898	-29.7
186.118	37.89
186.338	-25.6
186.557	15.36
186.777	-39.94
186.997	39.94
187.216	-21.5
187.436	138.24
187.655	35.84
187.875	87.04
188.095	64.51
188.314	64.51
188.534	101.37
188.753	54.27
188.973	35.84
189.192	146.43
189.412	-103.42
189.631	35.84
189.851	111.61
190.07	62.46
190.29	-21.5
190.509	11.26
190.729	29.7
190.948	95.23
191.168	152.57
191.387	33.79
191.607	37.89
191.826	19.46
192.045	-11.26
192.265	52.22
192.484	46.08
192.704	134.14
192.923	5.12
193.142	84.99
193.362	27.65
193.581	13.31
193.8	93.18
194.02	-5.12
194.239	19.46
194.458	3.07
194.678	21.5
194.897	87.04
195.116	37.89
195.335	37.89
195.555	60.42
195.774	56.32
195.993	68.61
196.212	107.52
196.432	56.32
196.651	76.8
196.87	93.18
197.089	91.13
197.308	84.99
197.528	19.46
197.747	-21.5
197.966	-3.07
198.185	162.81
198.404	60.42
198.623	70.65
198.842	19.46
199.062	9.22
199.281	158.72
199.5	19.46
199.719	23.55
199.938	93.18
200.157	11.26
200.376	19.46
200.595	117.76
200.814	19.46
201.033	35.84
201.252	95.23
201.471	27.65
201.69	21.5
201.909	64.51
202.128	52.22
202.347	27.65
202.566	68.61
202.785	3.07
203.004	35.84
203.223	125.95
203.442	11.26
203.661	-3.07
203.879	37.89
204.098	64.51
204.317	89.09
204.536	29.7
204.755	31.74
204.974	-9.22
205.193	74.75
205.411	89.09
205.63	97.28
205.849	68.61
206.068	-21.5
206.287	35.84
206.505	84.99
206.724	39.94
206.943	125.95
207.162	-41.98
207.381	-35.84
207.599	44.03
207.818	15.36
208.037	50.18
208.255	-13.31
208.474	5.12
208.693	52.22
208.911	3.07
209.13	-70.65
209.349	17.41
209.567	19.46
209.786	93.18
210.005	-13.31
210.223	93.18
210.442	33.79
210.661	76.8
210.879	35.84
211.098	68.61
211.316	-11.26
211.535	56.32
211.753	-9.22
211.972	1.02
212.191	-27.65
212.409	37.89
212.628	56.32
212.846	-9.22
213.065	82.94
213.283	146.43
213.502	-21.5
213.72	1.02
213.938	52.22
214.157	23.55
214.375	62.46
214.594	76.8
214.812	78.85
215.031	46.08
215.249	-9.22
215.467	-3.07
215.686	95.23
215.904	89.09
216.122	29.7
216.341	119.81
216.559	46.08
216.778	109.57
216.996	25.6
217.214	27.65
217.432	5.12
217.651	-21.5
217.869	44.03
218.087	19.46
218.306	52.22
218.524	11.26
218.742	39.94
218.96	-29.7
219.179	27.65
219.397	-3.07
219.615	60.42
219.833	7.17
220.051	54.27
220.27	105.47
220.488	62.46
220.706	68.61
220.924	11.26
221.142	44.03
221.36	76.8
221.578	1.02
221.796	93.18
222.015	35.84
222.233	68.61
222.451	84.99
222.669	29.7
222.887	56.32
223.105	95.23
223.323	60.42
223.541	-29.7
223.759	64.51
223.977	-13.31
224.195	11.26
224.413	37.89
224.631	101.37
224.849	60.42
225.067	119.81
225.285	25.6
225.503	23.55
225.721	21.5
225.939	80.89
226.157	60.42
226.375	181.25
226.592	39.94
226.81	52.22
227.028	121.85
227.246	78.85
227.464	-5.12
227.682	25.6
227.9	-13.31
228.117	11.26
228.335	37.89
228.553	-5.12
228.771	37.89
228.989	37.89
229.206	84.99
229.424	23.55
229.642	39.94
229.86	54.27
230.077	19.46
230.295	13.31
230.513	15.36
230.731	48.13
230.948	62.46
231.166	97.28
231.384	41.98
231.601	-5.12
231.819	142.33
232.037	-17.41
232.254	97.28
232.472	121.85
232.689	-5.12
232.907	80.89
233.125	68.61
233.342	93.18
233.56	11.26
233.777	37.89
233.995	84.99
234.213	31.74
234.43	46.08
234.648	68.61
234.865	31.74
235.083	84.99
235.3	41.98
235.518	29.7
235.735	7.17
235.953	95.23
236.17	-1.02
236.388	3.07
236.605	5.12
236.822	128
237.04	70.65
237.257	27.65
237.475	-13.31
237.692	29.7
237.909	87.04
238.127	-13.31
238.344	46.08
238.562	29.7
238.779	-33.79
238.996	-3.07
239.214	11.26
239.431	93.18
239.648	7.17
239.865	150.53
240.083	13.31
240.3	27.65
240.517	35.84
240.735	27.65
240.952	62.46
241.169	76.8
241.386	-33.79
241.603	19.46
241.821	37.89
242.038	68.61
242.255	33.79
242.472	-62.46
242.689	46.08
242.907	-1.02
243.124	9.22
243.341	50.18
243.558	76.8
243.775	76.8
243.992	15.36
244.209	35.84
244.426	60.42
244.643	56.32
244.86	74.75
245.078	37.89
245.295	39.94
245.512	27.65
245.729	-52.22
245.946	68.61
246.163	109.57
246.38	95.23
246.597	56.32
246.814	11.26
247.031	66.56
247.248	-21.5
247.464	78.85
247.681	52.22
247.898	109.57
248.115	-3.07
248.332	17.41
248.549	93.18
248.766	60.42
248.983	3.07
249.2	-7.17
249.417	-3.07
249.633	19.46
249.85	39.94
250.067	58.37
250.284	23.55
250.501	54.27
250.717	84.99
250.934	-25.6
251.151	-29.7
251.368	101.37
251.585	54.27
251.801	35.84
252.018	35.84
252.235	11.26
252.451	-5.12
252.668	66.56
252.885	70.65
253.102	56.32
253.318	64.51
253.535	-9.22
253.752	11.26
253.968	105.47
254.185	70.65
254.401	56.32
254.618	117.76
254.835	-1.02
255.051	72.7
255.268	35.84
255.484	60.42
255.701	27.65
255.917	35.84
256.134	13.31
256.351	7.17
256.567	-29.7
256.784	7.17
257	-13.31
257.217	101.37
257.433	9.22
257.65	-3.07
257.866	35.84
258.082	54.27
258.299	41.98
258.515	68.61
258.732	7.17
258.948	-27.65
259.165	54.27
259.381	11.26
259.597	19.46
259.814	48.13
260.03	101.37
260.246	109.57
260.463	95.23
260.679	93.18
260.895	15.36
261.112	-58.37
261.328	23.55
261.544	25.6
261.761	76.8
261.977	-7.17
262.193	-66.56
262.409	62.46
262.626	80.89
262.842	29.7
263.058	-17.41
263.274	84.99
263.49	89.09
263.707	21.5
263.923	76.8
264.139	31.74
264.355	19.46
264.571	56.32
264.787	64.51
265.004	111.61
265.22	7.17
265.436	78.85
265.652	35.84
265.868	91.13
266.084	68.61
266.3	37.89
266.516	-3.07
266.732	37.89
266.948	19.46
267.164	84.99
267.38	72.7
267.596	23.55
267.812	171.01
268.028	44.03
268.244	72.7
268.46	84.99
268.676	52.22
268.892	29.7
269.108	3.07
269.324	3.07
269.54	13.31
269.756	68.61
269.972	-3.07
270.188	37.89
270.403	29.7
270.619	46.08
270.835	3.07
271.051	5.12
271.267	56.32
271.483	11.26
271.698	91.13
271.914	39.94
272.13	-29.7
272.346	44.03
272.562	72.7
272.777	11.26
272.993	27.65
273.209	60.42
273.425	21.5
273.64	11.26
273.856	74.75
274.072	54.27
274.287	21.5
274.503	97.28
274.719	7.17
274.934	3.07
275.15	-46.08
275.366	87.04
275.581	5.12
275.797	52.22
276.012	68.61
276.228	19.46
276.444	-9.22
276.659	78.85
276.875	25.6
277.09	70.65
277.306	52.22
277.521	117.76
277.737	3.07
277.952	56.32
278.168	3.07
278.383	70.65
278.599	60.42
278.814	25.6
279.03	52.22
279.245	62.46
279.461	62.46
279.676	76.8
279.892	25.6
280.107	84.99
280.322	-11.26
280.538	37.89
280.753	11.26
280.969	46.08
281.184	23.55
281.399	103.42
281.615	27.65
281.83	-13.31
282.045	5.12
282.26	5.12
282.476	-41.98
282.691	78.85
282.906	76.8
283.122	89.09
283.337	60.42
283.552	48.13
283.767	-52.22
283.983	41.98
284.198	-23.55
284.413	44.03
284.628	-5.12
284.843	84.99
285.058	68.61
285.274	37.89
285.489	68.61
285.704	76.8
285.919	39.94
286.134	46.08
286.349	-33.79
286.564	87.04
286.779	207.87
286.995	-11.26
287.21	-35.84
287.425	84.99
287.64	-19.46
287.855	39.94
288.07	31.74
288.285	60.42
288.5	87.04
288.715	52.22
288.93	25.6
289.145	-58.37
289.36	130.05
289.575	62.46
289.79	72.7
290.004	7.17
290.219	68.61
290.434	-5.12
290.649	13.31
290.864	62.46
291.079	52.22
291.294	95.23
291.509	13.31
291.724	93.18
291.938	23.55
292.153	68.61
292.368	-21.5
292.583	29.7
292.798	23.55
293.012	68.61
293.227	-21.5
293.442	5.12
293.657	101.37
293.871	117.76
294.086	48.13
294.301	62.46
294.516	-17.41
294.73	76.8
294.945	7.17
295.16	101.37
295.374	95.23
295.589	76.8
295.804	95.23
296.018	64.51
296.233	23.55
296.447	52.22
296.662	37.89
296.877	23.55
297.091	44.03
297.306	11.26
297.52	50.18
297.735	35.84
297.949	33.79
298.164	3.07
298.378	52.22
298.593	-13.31
298.807	93.18
299.022	15.36
299.236	60.42
299.451	64.51
299.665	-19.46
299.88	134.14
300.094	103.42
300.309	27.65
300.523	60.42
300.737	-13.31
300.952	-9.22
301.166	95.23
301.381	5.12
301.595	121.85
301.809	95.23
302.024	-5.12
302.238	15.36
302.452	76.8
302.667	-5.12
302.881	62.46
303.095	31.74
303.309	84.99
303.524	103.42
303.738	7.17
303.952	27.65
304.166	54.27
304.381	-56.32
304.595	35.84
304.809	-13.31
305.023	68.61
305.237	-21.5
305.452	-29.7
305.666	70.65
305.88	-11.26
306.094	37.89
306.308	109.57
306.522	91.13
306.736	44.03
306.95	11.26
307.164	3.07
307.379	19.46
307.593	150.53
307.807	109.57
308.021	44.03
308.235	7.17
308.449	33.79
308.663	101.37
308.877	136.19
309.091	109.57
309.305	76.8
309.519	-19.46
309.733	-21.5
309.947	1.02
310.161	70.65
310.374	23.55
310.588	93.18
310.802	44.03
311.016	52.22
311.23	93.18
311.444	13.31
311.658	117.76
311.872	113.66
312.085	80.89
312.299	68.61
312.513	97.28
312.727	35.84
312.941	-21.5
313.154	11.26
313.368	39.94
313.582	60.42
313.796	130.05
314.009	31.74
314.223	142.33
314.437	140.29
314.651	39.94
314.864	3.07
315.078	35.84
315.292	125.95
315.505	119.81
315.719	103.42
315.933	95.23
316.146	-1.02
316.36	35.84
316.573	103.42
316.787	76.8
317.001	60.42
317.214	52.22
317.428	39.94
317.641	52.22
317.855	-50.18
318.068	15.36
318.282	60.42
318.495	54.27
318.709	109.57
318.922	13.31
319.136	148.48
319.349	87.04
319.563	64.51
319.776	134.14
319.99	-17.41
320.203	84.99
320.417	56.32
320.63	109.57
320.843	142.33
321.057	11.26
321.27	78.85
321.483	89.09
321.697	175.1
321.91	62.46
322.124	117.76
322.337	29.7
322.55	23.55
322.763	64.51
322.977	56.32
323.19	-5.12
323.403	76.8
323.617	101.37
323.83	105.47
324.043	15.36
324.256	72.7
324.469	84.99
324.683	84.99
324.896	60.42
325.109	31.74
325.322	5.12
325.535	29.7
325.748	87.04
325.962	31.74
326.175	44.03
326.388	35.84
326.601	50.18
326.814	21.5
327.027	84.99
327.24	134.14
327.453	29.7
327.666	39.94
327.879	101.37
328.092	46.08
328.305	142.33
328.518	11.26
328.731	101.37
328.944	72.7
329.157	41.98
329.37	54.27
329.583	76.8
329.796	64.51
330.009	27.65
330.222	78.85
330.435	48.13
330.648	72.7
330.861	37.89
331.073	-3.07
331.286	74.75
331.499	3.07
331.712	-35.84
331.925	54.27
332.138	35.84
332.35	142.33
332.563	-5.12
332.776	46.08
332.989	46.08
333.202	60.42
333.414	58.37
333.627	128
333.84	27.65
334.053	62.46
334.265	48.13
334.478	76.8
334.691	54.27
334.903	70.65
335.116	31.74
335.329	39.94
335.541	101.37
335.754	76.8
335.966	64.51
336.179	15.36
336.392	41.98
336.604	97.28
336.817	56.32
337.029	103.42
337.242	48.13
337.454	101.37
337.667	56.32
337.88	25.6
338.092	19.46
338.305	52.22
338.517	3.07
338.729	68.61
338.942	68.61
339.154	-3.07
339.367	60.42
339.579	76.8
339.792	113.66
340.004	19.46
340.217	37.89
340.429	84.99
340.641	109.57
340.854	35.84
341.066	31.74
341.278	62.46
341.491	187.39
341.703	44.03
341.915	15.36
342.128	162.81
342.34	29.7
342.552	52.22
342.764	64.51
342.977	76.8
343.189	44.03
343.401	62.46
343.613	1.02
343.826	31.74
344.038	-9.22
344.25	84.99
344.462	-7.17
344.674	35.84
344.886	27.65
345.099	70.65
345.311	21.5
345.523	56.32
345.735	60.42
345.947	89.09
346.159	19.46
346.371	64.51
346.583	-17.41
346.795	111.61
347.007	11.26
347.219	84.99
347.431	177.15
347.643	105.47
347.855	27.65
348.067	52.22
348.279	-54.27
348.491	70.65
348.703	84.99
348.915	35.84
349.127	93.18
349.339	35.84
349.551	89.09
349.763	111.61
349.975	107.52
350.187	62.46
350.399	50.18
350.61	27.65
350.822	54.27
351.034	128
351.246	7.17
351.458	23.55
351.669	60.42
351.881	109.57
352.093	158.72
352.305	68.61
352.517	87.04
352.728	152.57
352.94	68.61
353.152	72.7
353.363	101.37
353.575	97.28
353.787	74.75
353.999	48.13
354.21	35.84
354.422	25.6
354.633	84.99
354.845	84.99
355.057	84.99
355.268	119.81
355.48	87.04
355.692	15.36
355.903	72.7
356.115	109.57
356.326	-29.7
356.538	105.47
356.749	37.89
356.961	84.99
357.172	76.8
357.384	62.46
357.595	82.94
357.807	128
358.018	60.42
358.23	125.95
358.441	177.15
358.653	44.03
358.864	68.61
359.075	44.03
359.287	-5.12
359.498	117.76
359.709	99.33
359.921	136.19
360.132	-3.07
360.344	31.74
360.555	91.13
360.766	27.65
360.977	3.07
361.189	80.89
361.4	101.37
361.611	87.04
361.823	33.79
362.034	80.89
362.245	-46.08
362.456	1.02
362.667	101.37
362.879	27.65
363.09	29.7
363.301	13.31
363.512	19.46
363.723	37.89
363.935	54.27
364.146	54.27
364.357	60.42
364.568	76.8
364.779	78.85
364.99	46.08
365.201	52.22
365.412	33.79
365.623	-1.02
365.834	84.99
366.045	27.65
366.256	78.85
366.467	78.85
366.678	37.89
366.889	41.98
367.1	31.74
367.311	109.57
367.522	87.04
367.733	33.79
367.944	7.17
368.155	111.61
368.366	87.04
368.577	117.76
368.788	-17.41
368.999	54.27
369.209	35.84
369.42	76.8
369.631	101.37
369.842	93.18
370.053	99.33
370.264	128
370.474	70.65
370.685	93.18
370.896	27.65
371.107	84.99
371.317	101.37
371.528	87.04
371.739	97.28
371.95	138.24
372.16	19.46
372.371	76.8
372.582	54.27
372.792	84.99
373.003	130.05
373.214	68.61
373.424	113.66
373.635	29.7
373.846	109.57
374.056	-5.12
374.267	60.42
374.477	89.09
374.688	35.84
374.898	52.22
375.109	27.65
375.319	-3.07
375.53	171.01
375.74	105.47
375.951	56.32
376.161	62.46
376.372	101.37
376.582	39.94
376.793	56.32
377.003	29.7
377.214	78.85
377.424	154.62
377.635	-11.26
377.845	-5.12
378.055	117.76
378.266	-29.7
378.476	21.5
378.686	89.09
378.897	39.94
379.107	111.61
379.317	84.99
379.528	29.7
379.738	70.65
379.948	35.84
380.158	93.18
380.369	89.09
380.579	103.42
380.789	128
380.999	68.61
381.21	76.8
381.42	95.23
381.63	-48.13
381.84	109.57
382.05	136.19
382.261	80.89
382.471	109.57
382.681	62.46
382.891	109.57
383.101	70.65
383.311	41.98
383.521	-48.13
383.731	111.61
383.941	17.41
384.151	80.89
384.361	7.17
384.571	78.85
384.781	60.42
384.991	56.32
385.201	158.72
385.411	87.04
385.621	119.81
385.831	89.09
386.041	99.33
386.251	101.37
386.461	119.81
386.671	111.61
386.881	109.57
387.091	13.31
387.301	119.81
387.511	109.57
387.72	125.95
387.93	60.42
388.14	48.13
388.35	56.32
388.56	121.85
388.769	33.79
388.979	101.37
389.189	109.57
389.399	87.04
389.609	119.81
389.818	76.8
390.028	78.85
390.238	39.94
390.447	46.08
390.657	64.51
390.867	60.42
391.076	52.22
391.286	93.18
391.496	64.51
391.705	35.84
391.915	115.71
392.125	115.71
392.334	76.8
392.544	168.96
392.753	125.95
392.963	44.03
393.172	109.57
393.382	23.55
393.591	160.77
393.801	50.18
394.01	154.62
394.22	105.47
394.429	93.18
394.639	5.12
394.848	185.34
395.058	62.46
395.267	142.33
395.477	158.72
395.686	166.91
395.895	162.81
396.105	197.63
396.314	80.89
396.524	101.37
396.733	136.19
396.942	160.77
397.152	140.29
397.361	130.05
397.57	101.37
397.78	168.96
397.989	128
398.198	136.19
398.407	58.37
398.617	183.29
398.826	138.24
399.035	78.85
399.244	125.95
399.453	152.57
399.663	84.99
399.872	138.24
400.081	107.52
400.29	211.96
400.499	134.14
400.708	175.1
400.917	103.42
401.127	220.16
401.336	125.95
401.545	209.92
401.754	218.11
401.963	134.14
402.172	207.87
402.381	125.95
402.59	134.14
402.799	199.68
403.008	181.25
403.217	101.37
403.426	160.77
403.635	209.92
403.844	160.77
404.053	156.67
404.262	185.34
404.471	306.17
404.68	191.49
404.888	207.87
405.097	146.43
405.306	191.49
405.515	187.39
405.724	101.37
405.933	283.64
406.142	257.02
406.35	246.78
406.559	191.49
406.768	316.41
406.977	236.54
407.185	246.78
407.394	322.56
407.603	232.44
407.812	328.7
408.02	351.23
408.229	336.89
408.438	246.78
408.646	433.15
408.855	388.09
409.064	373.75
409.272	324.6
409.481	396.28
409.69	406.52
409.898	390.14
410.107	418.81
410.315	408.57
410.524	418.81
410.733	508.92
410.941	478.2
411.15	424.95
411.358	588.79
411.567	562.17
411.775	515.06
411.984	633.85
412.192	625.65
412.401	545.78
412.609	678.9
412.818	674.81
413.026	660.47
413.234	689.14
413.443	695.29
413.651	646.13
413.86	719.86
414.068	895.99
414.276	773.11
414.485	744.44
414.693	861.17
414.901	1027.06
415.11	998.38
415.318	1018.86
415.526	924.66
415.734	1108.98
415.943	967.67
416.151	1135.6
416.359	1104.88
416.567	1199.09
416.776	1240.05
416.984	1297.39
417.192	1362.92
417.4	1407.98
417.608	1352.68
417.817	1373.16
418.025	1537
418.233	1588.2
418.441	1455.08
418.649	1596.39
418.857	1790.95
419.065	1817.57
419.273	1723.37
419.481	1833.96
419.689	2036.7
419.897	2036.7
420.105	2010.08
420.313	2034.66
420.521	2202.59
420.729	2198.49
420.937	2261.98
421.145	2323.42
421.353	2415.58
421.561	2558.94
421.769	2743.25
421.977	2737.11
422.185	2630.62
422.393	2970.58
422.601	3060.69
422.809	3079.12
423.017	3118.03
423.224	3226.57
423.432	3435.47
423.64	3298.25
423.848	3623.88
424.056	3437.52
424.263	3947.46
424.471	3736.52
424.679	3838.92
424.887	4109.25
425.094	4201.41
425.302	4336.57
425.51	4393.92
425.718	4434.88
425.925	4641.72
426.133	4705.21
426.341	4938.68
426.548	5262.26
426.756	5184.43
426.964	5335.98
427.171	5434.29
427.379	5899.17
427.586	5827.5
427.794	6101.92
428.001	6452.13
428.209	6615.96
428.417	6458.27
428.624	7093.14
428.832	7009.17
429.039	6898.58
429.247	6949.78
429.454	7650.19
429.662	8110.98
429.869	7682.95
430.076	8104.84
430.284	7992.2
430.491	8205.19
430.699	8721.27
430.906	8682.36
431.114	8555.39
431.321	9067.38
431.528	9259.89
431.736	9849.71
431.943	10353.51
432.15	10042.21
432.358	10095.46
432.565	10773.34
432.772	10347.36
432.979	11012.95
433.187	11244.37
433.394	11203.41
433.601	12016.46
433.808	12241.73
434.016	12028.74
434.223	12602.18
434.43	13085.5
434.637	13009.72
434.844	13988.65
435.052	14181.16
435.259	14093.1
435.466	14199.59
435.673	13953.84
435.88	14873.37
436.087	15723.28
436.294	15723.28
436.501	15330.07
436.708	15588.11
436.915	16237.32
437.122	17079.04
437.329	16675.59
437.537	17382.13
437.743	17787.63
437.95	17433.33
438.157	18322.15
438.364	19110.62
438.571	18858.72
438.778	19106.52
438.985	20921.02
439.192	19999.44
439.399	20679.36
439.606	20114.13
439.813	21170.88
440.02	22741.67
440.227	22239.92
440.433	21846.71
440.64	22559.4
440.847	22653.61
441.054	22846.12
441.261	24461.96
441.467	24158.86
441.674	24863.36
441.881	25918.07
442.088	25565.82
442.294	25397.88
442.501	26002.04
442.708	26708.58
442.914	27351.65
443.121	28899.91
443.328	28064.34
443.534	30048.82
443.741	29004.36
443.948	28566.09
444.154	30626.35
444.361	30536.24
444.568	30554.67
444.774	30577.2
444.981	31263.27
445.187	32170.52
445.394	33262.08
445.6	33024.52
445.807	36039.13
446.013	34695.66
446.22	35146.22
446.426	36266.45
446.633	36819.41
446.839	38263.22
447.046	36485.59
447.252	38666.67
447.459	38875.57
447.665	38468.02
447.871	40100.25
448.078	41826.69
448.284	39639.46
448.491	40477.08
448.697	42594.68
448.903	43024.75
449.11	43235.69
449.316	42484.09
449.522	43123.05
449.728	44321.12
449.935	44667.22
450.141	44779.86
450.347	45363.53
450.553	44198.24
450.76	44941.65
450.966	46068.03
451.172	45539.66
451.378	46371.13
451.584	45760.84
451.791	46608.7
451.997	46932.28
452.203	47690.02
452.409	47313.2
452.615	47089.97
452.821	45617.48
453.027	45107.54
453.233	47511.85
453.44	45424.97
453.646	46104.9
453.852	46137.66
454.058	46956.85
454.264	45470.03
454.47	46725.43
454.676	45369.68
454.882	46786.87
455.088	42721.65
455.294	43776.36
455.5	44149.09
455.705	44783.96
455.911	42803.57
456.117	42054.01
456.323	41435.53
456.529	39328.17
456.735	40948.11
456.941	40194.46
457.147	39256.49
457.352	38289.85
457.558	37892.54
457.764	37851.58
457.97	36995.53
458.176	36229.59
458.381	36458.96
458.587	34574.83
458.793	34552.3
458.999	32688.65
459.204	34884.08
459.41	34028.02
459.616	32004.63
459.821	31636
460.027	31666.72
460.233	31148.58
460.438	29678.14
460.644	29954.61
460.85	28564.04
461.055	28113.49
461.261	27953.75
461.466	25961.08
461.672	25246.33
461.878	26872.42
462.083	25244.29
462.289	24576.65
462.494	24586.89
462.7	23415.45
462.905	22942.37
463.111	23593.62
463.316	23624.34
463.522	23141.02
463.727	23448.22
463.932	22786.72
464.138	23018.14
464.343	22997.67
464.549	22092.46
464.754	22946.47
464.959	22459.05
465.165	22379.18
465.37	21619.38
465.575	21129.92
465.781	21828.27
465.986	22223.53
466.191	21174.97
466.397	20751.04
466.602	19780.31
