Data from USB4F104151__145__14-31-54-174.txt Node

Date: Thu Mar 13 14:31:54 EDT 2025
User: louis
Spectrometer: USB4F10415
Trigger mode: 4
Integration Time (sec): 2.500000E-2
Scans to average: 1
Electric dark correction enabled: true
Nonlinearity correction enabled: false
Boxcar width: 0
XAxis mode: Wavelengths
Number of Pixels in Spectrum: 3648
>>>>>Begin Spectral Data<<<<<
178.204	-208.89
178.424	-208.89
178.644	-208.89
178.864	-172.03
179.084	-94.21
179.304	26.62
179.524	-34.82
179.744	-51.2
179.964	30.72
180.184	88.06
180.404	20.48
180.624	-26.62
180.844	2.05
181.064	-96.25
181.283	65.54
181.503	0
181.723	-24.58
181.943	8.19
182.163	108.54
182.383	57.34
182.602	108.54
182.822	-24.58
183.042	83.97
183.262	26.62
183.482	-71.68
183.701	34.82
183.921	45.06
184.141	-6.14
184.361	22.53
184.58	40.96
184.8	20.48
185.02	102.4
185.239	61.44
185.459	73.73
185.679	61.44
185.898	4.1
186.118	96.25
186.338	75.77
186.557	47.1
186.777	6.14
186.997	83.97
187.216	34.82
187.436	83.97
187.655	83.97
187.875	55.3
188.095	34.82
188.314	96.25
188.534	83.97
188.753	-43.01
188.973	36.86
189.192	63.49
189.412	30.72
189.631	6.14
189.851	47.1
190.07	112.64
190.29	30.72
190.509	61.44
190.729	18.43
190.948	133.12
191.168	167.93
191.387	75.77
191.607	43.01
191.826	59.39
192.045	30.72
192.265	86.01
192.484	47.1
192.704	43.01
192.923	22.53
193.142	83.97
193.362	75.77
193.581	86.01
193.8	92.16
194.02	34.82
194.239	67.58
194.458	92.16
194.678	-12.29
194.897	108.54
195.116	67.58
195.335	16.38
195.555	28.67
195.774	18.43
195.993	92.16
196.212	16.38
196.432	86.01
196.651	83.97
196.87	83.97
197.089	75.77
197.308	49.15
197.528	116.73
197.747	57.34
197.966	67.58
198.185	47.1
198.404	71.68
198.623	75.77
198.842	102.4
199.062	106.49
199.281	63.49
199.5	88.06
199.719	63.49
199.938	38.91
200.157	71.68
200.376	75.77
200.595	77.82
200.814	59.39
201.033	32.77
201.252	20.48
201.471	88.06
201.69	18.43
201.909	75.77
202.128	83.97
202.347	126.97
202.566	75.77
202.785	67.58
203.004	116.73
203.223	96.25
203.442	10.24
203.661	-10.24
203.879	2.05
204.098	153.6
204.317	34.82
204.536	8.19
204.755	61.44
204.974	61.44
205.193	63.49
205.411	174.08
205.63	157.69
205.849	18.43
206.068	53.25
206.287	79.87
206.505	81.92
206.724	100.35
206.943	-2.05
207.162	86.01
207.381	73.73
207.599	79.87
207.818	36.86
208.037	18.43
208.255	-30.72
208.474	106.49
208.693	16.38
208.911	-47.1
209.13	6.14
209.349	57.34
209.567	51.2
209.786	26.62
210.005	51.2
210.223	61.44
210.442	-36.86
210.661	26.62
210.879	47.1
211.098	30.72
211.316	51.2
211.535	92.16
211.753	-55.3
211.972	34.82
212.191	-2.05
212.409	18.43
212.628	83.97
212.846	43.01
213.065	51.2
213.283	141.31
213.502	32.77
213.72	86.01
213.938	-12.29
214.157	26.62
214.375	38.91
214.594	6.14
214.812	20.48
215.031	-2.05
215.249	83.97
215.467	51.2
215.686	51.2
215.904	98.3
216.122	69.63
216.341	43.01
216.559	24.58
216.778	47.1
216.996	16.38
217.214	51.2
217.432	92.16
217.651	34.82
217.869	69.63
218.087	12.29
218.306	106.49
218.524	141.31
218.742	18.43
218.96	22.53
219.179	20.48
219.397	20.48
219.615	102.4
219.833	106.49
220.051	24.58
220.27	141.31
220.488	45.06
220.706	92.16
220.924	12.29
221.142	59.39
221.36	26.62
221.578	53.25
221.796	51.2
222.015	-36.86
222.233	36.86
222.451	26.62
222.669	-22.53
222.887	77.82
223.105	49.15
223.323	47.1
223.541	20.48
223.759	145.41
223.977	28.67
224.195	81.92
224.413	90.11
224.631	79.87
224.849	59.39
225.067	110.59
225.285	30.72
225.503	57.34
225.721	-43.01
225.939	20.48
226.157	57.34
226.375	161.79
226.592	-10.24
226.81	43.01
227.028	98.3
227.246	147.45
227.464	-32.77
227.682	69.63
227.9	38.91
228.117	75.77
228.335	79.87
228.553	51.2
228.771	86.01
228.989	30.72
229.206	75.77
229.424	-4.1
229.642	-6.14
229.86	-14.34
230.077	98.3
230.295	36.86
230.513	16.38
230.731	12.29
230.948	51.2
231.166	98.3
231.384	61.44
231.601	14.34
231.819	96.25
232.037	-4.1
232.254	14.34
232.472	-6.14
232.689	36.86
232.907	22.53
233.125	18.43
233.342	69.63
233.56	-18.43
233.777	14.34
233.995	-4.1
234.213	102.4
234.43	22.53
234.648	14.34
234.865	75.77
235.083	108.54
235.3	139.26
235.518	36.86
235.735	67.58
235.953	61.44
236.17	100.35
236.388	4.1
236.605	38.91
236.822	79.87
237.04	120.83
237.257	57.34
237.475	40.96
237.692	71.68
237.909	94.21
238.127	69.63
238.344	28.67
238.562	114.69
238.779	2.05
238.996	-47.1
239.214	18.43
239.431	67.58
239.648	51.2
239.865	126.97
240.083	49.15
240.3	137.21
240.517	36.86
240.735	-6.14
240.952	69.63
241.169	67.58
241.386	61.44
241.603	100.35
241.821	10.24
242.038	120.83
242.255	45.06
242.472	8.19
242.689	47.1
242.907	63.49
243.124	55.3
243.341	94.21
243.558	110.59
243.775	-12.29
243.992	-4.1
244.209	71.68
244.426	165.89
244.643	102.4
244.86	43.01
245.078	96.25
245.295	24.58
245.512	36.86
245.729	18.43
245.946	34.82
246.163	92.16
246.38	67.58
246.597	75.77
246.814	86.01
247.031	61.44
247.248	43.01
247.464	118.78
247.681	67.58
247.898	137.21
248.115	26.62
248.332	-14.34
248.549	141.31
248.766	40.96
248.983	112.64
249.2	18.43
249.417	100.35
249.633	-4.1
249.85	69.63
250.067	59.39
250.284	63.49
250.501	36.86
250.717	63.49
250.934	34.82
251.151	6.14
251.368	75.77
251.585	59.39
251.801	12.29
252.018	2.05
252.235	43.01
252.451	10.24
252.668	14.34
252.885	30.72
253.102	20.48
253.318	34.82
253.535	83.97
253.752	100.35
253.968	57.34
254.185	-24.58
254.401	147.45
254.618	59.39
254.835	26.62
255.051	151.55
255.268	77.82
255.484	43.01
255.701	-22.53
255.917	49.15
256.134	-8.19
256.351	4.1
256.567	61.44
256.784	75.77
257	-12.29
257.217	108.54
257.433	61.44
257.65	-8.19
257.866	59.39
258.082	112.64
258.299	96.25
258.515	30.72
258.732	75.77
258.948	126.97
259.165	20.48
259.381	4.1
259.597	-6.14
259.814	83.97
260.03	26.62
260.246	34.82
260.463	116.73
260.679	59.39
260.895	59.39
261.112	38.91
261.328	12.29
261.544	20.48
261.761	143.36
261.977	77.82
262.193	-47.1
262.409	120.83
262.626	92.16
262.842	49.15
263.058	6.14
263.274	110.59
263.49	92.16
263.707	59.39
263.923	40.96
264.139	-8.19
264.355	38.91
264.571	92.16
264.787	77.82
265.004	133.12
265.22	36.86
265.436	55.3
265.652	108.54
265.868	69.63
266.084	-6.14
266.3	122.88
266.516	-22.53
266.732	26.62
266.948	-51.2
267.164	126.97
267.38	-4.1
267.596	86.01
267.812	104.45
268.028	86.01
268.244	100.35
268.46	4.1
268.676	-40.96
268.892	34.82
269.108	77.82
269.324	30.72
269.54	4.1
269.756	124.93
269.972	-22.53
270.188	2.05
270.403	2.05
270.619	-43.01
270.835	22.53
271.051	88.06
271.267	55.3
271.483	96.25
271.698	53.25
271.914	59.39
272.13	45.06
272.346	51.2
272.562	59.39
272.777	116.73
272.993	77.82
273.209	14.34
273.425	53.25
273.64	-20.48
273.856	71.68
274.072	86.01
274.287	28.67
274.503	88.06
274.719	53.25
274.934	61.44
275.15	28.67
275.366	45.06
275.581	-10.24
275.797	26.62
276.012	10.24
276.228	14.34
276.444	26.62
276.659	86.01
276.875	10.24
277.09	30.72
277.306	83.97
277.521	67.58
277.737	22.53
277.952	133.12
278.168	116.73
278.383	104.45
278.599	94.21
278.814	61.44
279.03	34.82
279.245	118.78
279.461	36.86
279.676	2.05
279.892	59.39
280.107	-47.1
280.322	12.29
280.538	63.49
280.753	30.72
280.969	53.25
281.184	86.01
281.399	141.31
281.615	55.3
281.83	83.97
282.045	40.96
282.26	28.67
282.476	65.54
282.691	20.48
282.906	14.34
283.122	34.82
283.337	79.87
283.552	174.08
283.767	43.01
283.983	26.62
284.198	63.49
284.413	81.92
284.628	34.82
284.843	83.97
285.058	61.44
285.274	18.43
285.489	-14.34
285.704	14.34
285.919	-22.53
286.134	51.2
286.349	49.15
286.564	18.43
286.779	47.1
286.995	38.91
287.21	-28.67
287.425	14.34
287.64	16.38
287.855	38.91
288.07	129.02
288.285	126.97
288.5	104.45
288.715	67.58
288.93	124.93
289.145	22.53
289.36	79.87
289.575	59.39
289.79	135.17
290.004	49.15
290.219	51.2
290.434	12.29
290.649	24.58
290.864	30.72
291.079	124.93
291.294	92.16
291.509	49.15
291.724	-24.58
291.938	51.2
292.153	110.59
292.368	28.67
292.583	135.17
292.798	79.87
293.012	55.3
293.227	51.2
293.442	118.78
293.657	133.12
293.871	143.36
294.086	133.12
294.301	149.5
294.516	24.58
294.73	108.54
294.945	4.1
295.16	53.25
295.374	112.64
295.589	102.4
295.804	6.14
296.018	40.96
296.233	135.17
296.447	86.01
296.662	4.1
296.877	120.83
297.091	59.39
297.306	14.34
297.52	43.01
297.735	24.58
297.949	53.25
298.164	45.06
298.378	69.63
298.593	28.67
298.807	77.82
299.022	38.91
299.236	143.36
299.451	100.35
299.665	79.87
299.88	110.59
300.094	59.39
300.309	69.63
300.523	133.12
300.737	59.39
300.952	133.12
301.166	96.25
301.381	43.01
301.595	28.67
301.809	36.86
302.024	55.3
302.238	112.64
302.452	100.35
302.667	65.54
302.881	83.97
303.095	43.01
303.309	28.67
303.524	34.82
303.738	43.01
303.952	92.16
304.166	51.2
304.381	47.1
304.595	59.39
304.809	83.97
305.023	86.01
305.237	30.72
305.452	83.97
305.666	51.2
305.88	10.24
306.094	83.97
306.308	108.54
306.522	133.12
306.736	38.91
306.95	92.16
307.164	18.43
307.379	14.34
307.593	108.54
307.807	71.68
308.021	122.88
308.235	22.53
308.449	10.24
308.663	20.48
308.877	143.36
309.091	24.58
309.305	108.54
309.519	-8.19
309.733	131.07
309.947	47.1
310.161	51.2
310.374	81.92
310.588	51.2
310.802	108.54
311.016	75.77
311.23	77.82
311.444	34.82
311.658	10.24
311.872	67.58
312.085	20.48
312.299	-14.34
312.513	147.45
312.727	28.67
312.941	-30.72
313.154	40.96
313.368	102.4
313.582	67.58
313.796	116.73
314.009	96.25
314.223	83.97
314.437	88.06
314.651	108.54
314.864	20.48
315.078	-8.19
315.292	-14.34
315.505	45.06
315.719	26.62
315.933	43.01
316.146	124.93
316.36	75.77
316.573	96.25
316.787	94.21
317.001	92.16
317.214	22.53
317.428	30.72
317.641	61.44
317.855	63.49
318.068	45.06
318.282	53.25
318.495	102.4
318.709	71.68
318.922	45.06
319.136	153.6
319.349	73.73
319.563	12.29
319.776	77.82
319.99	34.82
320.203	67.58
320.417	75.77
320.63	22.53
320.843	163.84
321.057	65.54
321.27	-38.91
321.483	16.38
321.697	83.97
321.91	53.25
322.124	100.35
322.337	-22.53
322.55	124.93
322.763	26.62
322.977	75.77
323.19	-26.62
323.403	100.35
323.617	6.14
323.83	55.3
324.043	45.06
324.256	26.62
324.469	57.34
324.683	120.83
324.896	34.82
325.109	75.77
325.322	-18.43
325.535	71.68
325.748	86.01
325.962	12.29
326.175	36.86
326.388	131.07
326.601	18.43
326.814	55.3
327.027	100.35
327.24	18.43
327.453	12.29
327.666	86.01
327.879	55.3
328.092	83.97
328.305	55.3
328.518	83.97
328.731	124.93
328.944	22.53
329.157	53.25
329.37	45.06
329.583	83.97
329.796	94.21
330.009	67.58
330.222	67.58
330.435	86.01
330.648	43.01
330.861	51.2
331.073	75.77
331.286	100.35
331.499	55.3
331.712	43.01
331.925	24.58
332.138	67.58
332.35	129.02
332.563	55.3
332.776	65.54
332.989	20.48
333.202	88.06
333.414	110.59
333.627	110.59
333.84	30.72
334.053	118.78
334.265	57.34
334.478	20.48
334.691	108.54
334.903	57.34
335.116	92.16
335.329	61.44
335.541	88.06
335.754	116.73
335.966	86.01
336.179	59.39
336.392	96.25
336.604	141.31
336.817	143.36
337.029	43.01
337.242	59.39
337.454	51.2
337.667	100.35
337.88	122.88
338.092	47.1
338.305	51.2
338.517	61.44
338.729	96.25
338.942	104.45
339.154	59.39
339.367	86.01
339.579	147.45
339.792	-45.06
340.004	59.39
340.217	86.01
340.429	133.12
340.641	40.96
340.854	16.38
341.066	51.2
341.278	108.54
341.491	131.07
341.703	124.93
341.915	14.34
342.128	131.07
342.34	34.82
342.552	69.63
342.764	22.53
342.977	55.3
343.189	63.49
343.401	61.44
343.613	34.82
343.826	141.31
344.038	38.91
344.25	75.77
344.462	12.29
344.674	10.24
344.886	92.16
345.099	108.54
345.311	51.2
345.523	51.2
345.735	-4.1
345.947	14.34
346.159	71.68
346.371	59.39
346.583	92.16
346.795	108.54
347.007	83.97
347.219	61.44
347.431	-51.2
347.643	129.02
347.855	43.01
348.067	118.78
348.279	2.05
348.491	83.97
348.703	47.1
348.915	-6.14
349.127	43.01
349.339	57.34
349.551	32.77
349.763	149.5
349.975	28.67
350.187	102.4
350.399	57.34
350.61	40.96
350.822	-38.91
351.034	18.43
351.246	36.86
351.458	75.77
351.669	18.43
351.881	110.59
352.093	100.35
352.305	141.31
352.517	75.77
352.728	38.91
352.94	-2.05
353.152	83.97
353.363	108.54
353.575	55.3
353.787	108.54
353.999	96.25
354.21	184.32
354.422	75.77
354.633	77.82
354.845	26.62
355.057	55.3
355.268	20.48
355.48	110.59
355.692	26.62
355.903	69.63
356.115	67.58
356.326	116.73
356.538	190.46
356.749	73.73
356.961	172.03
357.172	22.53
357.384	71.68
357.595	219.13
357.807	59.39
358.018	34.82
358.23	61.44
358.441	200.7
358.653	67.58
358.864	71.68
359.075	47.1
359.287	124.93
359.498	124.93
359.709	45.06
359.921	20.48
360.132	100.35
360.344	94.21
360.555	28.67
360.766	92.16
360.977	135.17
361.189	145.41
361.4	57.34
361.611	135.17
361.823	108.54
362.034	133.12
362.245	75.77
362.456	92.16
362.667	124.93
362.879	43.01
363.09	79.87
363.301	137.21
363.512	12.29
363.723	65.54
363.935	38.91
364.146	100.35
364.357	65.54
364.568	135.17
364.779	65.54
364.99	124.93
365.201	-8.19
365.412	126.97
365.623	67.58
365.834	79.87
366.045	-55.3
366.256	149.5
366.467	55.3
366.678	79.87
366.889	30.72
367.1	108.54
367.311	83.97
367.522	217.08
367.733	129.02
367.944	122.88
368.155	92.16
368.366	108.54
368.577	116.73
368.788	92.16
368.999	57.34
369.209	133.12
369.42	124.93
369.631	186.37
369.842	75.77
370.053	59.39
370.264	114.69
370.474	-18.43
370.685	116.73
370.896	-36.86
371.107	141.31
371.317	141.31
371.528	92.16
371.739	153.6
371.95	92.16
372.16	38.91
372.371	26.62
372.582	83.97
372.792	67.58
373.003	67.58
373.214	-10.24
373.424	28.67
373.635	-16.38
373.846	71.68
374.056	86.01
374.267	79.87
374.477	120.83
374.688	45.06
374.898	34.82
375.109	92.16
375.319	112.64
375.53	88.06
375.74	126.97
375.951	147.45
376.161	81.92
376.372	112.64
376.582	38.91
376.793	143.36
377.003	59.39
377.214	88.06
377.424	71.68
377.635	45.06
377.845	18.43
378.055	53.25
378.266	51.2
378.476	4.1
378.686	100.35
378.897	81.92
379.107	141.31
379.317	100.35
379.528	116.73
379.738	75.77
379.948	30.72
380.158	86.01
380.369	145.41
380.579	77.82
380.789	49.15
380.999	65.54
381.21	18.43
381.42	102.4
381.63	88.06
381.84	100.35
382.05	59.39
382.261	104.45
382.471	141.31
382.681	32.77
382.891	149.5
383.101	165.89
383.311	61.44
383.521	133.12
383.731	108.54
383.941	157.69
384.151	129.02
384.361	43.01
384.571	124.93
384.781	88.06
384.991	153.6
385.201	98.3
385.411	122.88
385.621	110.59
385.831	116.73
386.041	86.01
386.251	47.1
386.461	112.64
386.671	110.59
386.881	108.54
387.091	63.49
387.301	118.78
387.511	51.2
387.72	110.59
387.93	67.58
388.14	106.49
388.35	18.43
388.56	81.92
388.769	129.02
388.979	100.35
389.189	98.3
389.399	-2.05
389.609	112.64
389.818	149.5
390.028	10.24
390.238	100.35
390.447	10.24
390.657	53.25
390.867	131.07
391.076	36.86
391.286	110.59
391.496	75.77
391.705	153.6
391.915	94.21
392.125	143.36
392.334	-40.96
392.544	110.59
392.753	143.36
392.963	116.73
393.172	79.87
393.382	126.97
393.591	180.22
393.801	47.1
394.01	165.89
394.22	194.56
394.429	143.36
394.639	63.49
394.848	100.35
395.058	157.69
395.267	108.54
395.477	198.65
395.686	77.82
395.895	137.21
396.105	92.16
396.314	190.46
396.524	120.83
396.733	108.54
396.942	149.5
397.152	159.74
397.361	124.93
397.57	137.21
397.78	157.69
397.989	204.8
398.198	194.56
398.407	149.5
398.617	178.17
398.826	174.08
399.035	165.89
399.244	182.27
399.453	167.93
399.663	208.89
399.872	212.99
400.081	112.64
400.29	151.55
400.499	206.84
400.708	223.23
400.917	159.74
401.127	165.89
401.336	167.93
401.545	280.57
401.754	149.5
401.963	243.71
402.172	151.55
402.381	184.32
402.59	198.65
402.799	256
403.008	208.89
403.217	204.8
403.426	182.27
403.635	157.69
403.844	178.17
404.053	182.27
404.262	247.8
404.471	258.04
404.68	235.52
404.888	219.13
405.097	198.65
405.306	270.33
405.515	315.39
405.724	225.28
405.933	346.11
406.142	299
406.35	323.58
406.559	305.15
406.768	333.82
406.977	346.11
407.185	346.11
407.394	364.54
407.603	321.53
407.812	337.91
408.02	352.25
408.229	321.53
408.438	419.83
408.646	358.39
408.855	419.83
409.064	452.6
409.272	436.22
409.481	438.27
409.69	428.03
409.898	444.41
410.107	514.04
410.315	444.41
410.524	403.45
410.733	518.14
410.941	540.66
411.15	591.86
411.358	641.01
411.567	655.35
411.775	651.25
411.984	684.02
412.192	757.75
412.401	698.36
412.609	790.52
412.818	864.24
413.026	874.48
413.234	911.35
413.443	878.58
413.651	886.77
413.86	808.95
414.068	1023.98
414.276	958.45
414.485	964.59
414.693	962.55
414.901	1159.15
415.11	1234.93
415.318	1101.81
415.526	1066.99
415.734	1228.78
415.943	1226.73
416.151	1282.03
416.359	1341.42
416.567	1421.29
416.776	1368.04
416.984	1501.16
417.192	1611.75
417.4	1550.31
417.608	1609.7
417.817	1601.51
418.025	1853.41
418.233	1861.6
418.441	1953.76
418.649	1961.95
418.857	2004.96
419.065	2148.32
419.273	2029.54
419.481	2181.09
419.689	2418.65
419.897	2367.45
420.105	2353.12
420.313	2465.75
420.521	2639.83
420.729	2715.61
420.937	2688.98
421.145	2887.64
421.353	2910.16
421.561	2987.99
421.769	3190.74
421.977	3352.52
422.185	3282.89
422.393	3592.14
422.601	3600.33
422.809	3639.24
423.017	3661.77
423.224	3862.47
423.432	4069.31
423.64	3944.39
423.848	4446.14
424.056	4280.25
424.263	4564.92
424.471	4708.28
424.679	4657.08
424.887	4990.9
425.094	5134.26
425.302	5117.87
425.51	5406.64
425.718	5527.47
425.925	5558.19
426.133	5769.13
426.341	6018.98
426.548	6344.61
426.756	6416.29
426.964	6447.01
427.171	6817.69
427.379	6903.7
427.586	7026.58
427.794	7270.29
428.001	7655.31
428.209	8062.85
428.417	7630.73
428.624	8548.22
428.832	8263.55
429.039	8384.38
429.247	8277.89
429.454	9107.32
429.662	9643.88
429.869	9078.65
430.076	9686.89
430.284	9586.54
430.491	10024.81
430.699	10530.66
430.906	10407.78
431.114	10536.8
431.321	10946.39
431.528	11431.76
431.736	11741
431.943	12578.62
432.15	12005.19
432.358	11890.51
432.565	12957.5
432.772	12764.99
432.979	13514.55
433.187	13674.29
433.394	14018.35
433.601	14634.78
433.808	14739.23
434.016	14739.23
434.223	15140.63
434.43	15949.58
434.637	15847.18
434.844	16815.87
435.052	17262.33
435.259	17198.84
435.466	16992
435.673	17069.82
435.88	18290.41
436.087	19207.9
436.294	18919.14
436.501	18613.99
436.708	19093.21
436.915	19609.3
437.122	20750.02
437.329	20487.88
437.537	21214.91
437.743	21520.06
437.95	21049.02
438.157	22286
438.364	23086.75
438.571	22945.44
438.778	23246.49
438.985	25075.33
439.192	24172.18
439.399	25386.62
439.606	24698.5
439.813	26132.08
440.02	27416.16
440.227	27123.3
440.433	26648.17
440.64	27561.56
440.847	27534.94
441.054	28067.41
441.261	30316.08
441.467	29589.05
441.674	30099
441.881	31331.87
442.088	31260.2
442.294	30959.14
442.501	31622.69
442.708	32628.24
442.914	33451.52
443.121	34631.15
443.328	34035.19
443.534	36126.17
443.741	35409.38
443.948	34954.73
444.154	37389.77
444.361	37313.99
444.568	37461.44
444.774	37244.36
444.981	38051.26
445.187	38268.34
445.394	40451.48
445.6	40091.04
445.807	43832.68
446.013	41751.94
446.22	42493.3
446.426	44164.45
446.633	44455.26
446.839	46198.08
447.046	43836.77
447.252	46515.51
447.459	46447.93
447.665	46388.54
447.871	48282.91
448.078	50283.78
448.284	47994.15
448.491	49163.54
448.697	50822.39
448.903	51242.23
449.11	51827.95
449.316	51504.37
449.522	52210.92
449.728	53454.03
449.935	52937.94
450.141	53599.44
450.347	54809.79
450.553	52868.31
450.76	53845.19
450.966	55196.85
451.172	54955.19
451.378	56751.26
451.584	55325.88
451.791	56364.2
451.997	56439.97
452.203	56888.48
452.409	57101.46
452.615	56868
452.821	55020.73
453.027	53966.02
453.233	57177.24
453.44	54924.47
453.646	55571.63
453.852	55626.93
454.058	56712.35
454.264	54678.72
454.47	55784.62
454.676	54387.91
454.882	56122.54
455.088	51494.13
455.294	52100.32
455.5	53443.79
455.705	53398.74
455.911	51625.2
456.117	50265.34
456.323	50330.88
456.529	47275.31
456.735	49321.23
456.941	47795.49
457.147	47109.43
457.352	45727.05
457.558	45419.85
457.764	45395.28
457.97	44496.22
458.176	43947.36
458.381	43543.91
458.587	41780.61
458.793	41688.45
458.999	39421.35
459.204	42052.99
459.41	41268.62
459.616	38518.2
459.821	38598.07
460.027	38630.83
460.233	37619.14
460.438	36011.48
460.644	36269.53
460.85	34551.28
461.055	33652.22
461.261	34076.15
461.466	31559.2
461.672	30340.66
461.878	32476.69
462.083	30461.49
462.289	29853.24
462.494	29621.82
462.7	28550.73
462.905	27735.64
463.111	28800.58
463.316	28663.37
463.522	28032.6
463.727	28223.06
463.932	28290.64
464.138	28102.23
464.343	28016.21
464.549	27022.95
464.754	27893.33
464.959	27940.44
465.165	27516.51
465.37	26480.24
465.575	25849.46
