Data from USB4F104151__262__14-34-32-105.txt Node

Date: Thu Mar 13 14:34:32 EDT 2025
User: louis
Spectrometer: USB4F10415
Trigger mode: 4
Integration Time (sec): 2.500000E-2
Scans to average: 1
Electric dark correction enabled: true
Nonlinearity correction enabled: false
Boxcar width: 0
XAxis mode: Wavelengths
Number of Pixels in Spectrum: 3648
>>>>>Begin Spectral Data<<<<<
178.204	-124.58
178.424	-124.58
178.644	-124.58
178.864	-190.12
179.084	-124.58
179.304	-3.75
179.524	10.58
179.744	-40.62
179.964	43.35
180.184	14.68
180.404	-11.95
180.624	6.49
180.844	69.97
181.064	-11.95
181.283	20.82
181.503	-87.72
181.723	-9.9
181.943	-50.86
182.163	53.59
182.383	-52.91
182.602	86.36
182.822	49.49
183.042	45.4
183.262	-30.38
183.482	41.3
183.701	0.34
183.921	6.49
184.141	-42.67
184.361	63.83
184.58	-3.75
184.8	-11.95
185.02	-71.34
185.239	86.36
185.459	0.34
185.679	18.77
185.898	24.92
186.118	69.97
186.338	-28.33
186.557	-11.95
186.777	-20.14
186.997	90.45
187.216	-3.75
187.436	86.36
187.655	78.16
187.875	37.2
188.095	-3.75
188.314	41.3
188.534	94.55
188.753	12.63
188.973	-24.23
189.192	39.25
189.412	-11.95
189.631	151.89
189.851	72.02
190.07	86.36
190.29	72.02
190.509	78.16
190.729	22.87
190.948	59.73
191.168	98.64
191.387	-3.75
191.607	45.4
191.826	16.73
192.045	14.68
192.265	45.4
192.484	-50.86
192.704	12.63
192.923	-32.43
193.142	61.78
193.362	-44.71
193.581	24.92
193.8	-24.23
194.02	29.01
194.239	-1.71
194.458	-22.19
194.678	-3.75
194.897	45.4
195.116	26.96
195.335	53.59
195.555	45.4
195.774	33.11
195.993	4.44
196.212	-44.71
196.432	31.06
196.651	31.06
196.87	39.25
197.089	98.64
197.308	-3.75
197.528	72.02
197.747	-44.71
197.966	29.01
198.185	88.4
198.404	82.26
198.623	-1.71
198.842	49.49
199.062	12.63
199.281	78.16
199.5	6.49
199.719	-28.33
199.938	18.77
200.157	16.73
200.376	88.4
200.595	4.44
200.814	22.87
201.033	57.68
201.252	41.3
201.471	-16.04
201.69	-30.38
201.909	-11.95
202.128	16.73
202.347	49.49
202.566	41.3
202.785	29.01
203.004	-32.43
203.223	110.93
203.442	10.58
203.661	-11.95
203.879	-40.62
204.098	84.31
204.317	35.16
204.536	102.74
204.755	18.77
204.974	-32.43
205.193	6.49
205.411	29.01
205.63	6.49
205.849	47.44
206.068	-11.95
206.287	-26.28
206.505	-16.04
206.724	53.59
206.943	-28.33
207.162	31.06
207.381	-13.99
207.599	-59.05
207.818	24.92
208.037	41.3
208.255	20.82
208.474	20.82
208.693	65.88
208.911	29.01
209.13	-3.75
209.349	94.55
209.567	45.4
209.786	4.44
210.005	29.01
210.223	29.01
210.442	-32.43
210.661	53.59
210.879	49.49
211.098	33.11
211.316	-11.95
211.535	94.55
211.753	61.78
211.972	4.44
212.191	-9.9
212.409	47.44
212.628	51.54
212.846	-63.15
213.065	8.53
213.283	119.12
213.502	16.73
213.72	20.82
213.938	-28.33
214.157	39.25
214.375	78.16
214.594	41.3
214.812	45.4
215.031	-34.47
215.249	14.68
215.467	37.2
215.686	29.01
215.904	59.73
216.122	57.68
216.341	55.64
216.559	-81.58
216.778	67.92
216.996	24.92
217.214	-38.57
217.432	69.97
217.651	45.4
217.869	65.88
218.087	104.79
218.306	74.07
218.524	39.25
218.742	0.34
218.96	94.55
219.179	-13.99
219.397	61.78
219.615	90.45
219.833	112.98
220.051	18.77
220.27	47.44
220.488	0.34
220.706	-3.75
220.924	4.44
221.142	82.26
221.36	74.07
221.578	12.63
221.796	82.26
222.015	45.4
222.233	-61.1
222.451	49.49
222.669	16.73
222.887	35.16
223.105	-34.47
223.323	-9.9
223.541	16.73
223.759	-18.09
223.977	-18.09
224.195	-18.09
224.413	47.44
224.631	47.44
224.849	12.63
225.067	14.68
225.285	0.34
225.503	-44.71
225.721	-26.28
225.939	20.82
226.157	45.4
226.375	78.16
226.592	6.49
226.81	61.78
227.028	45.4
227.246	53.59
227.464	-3.75
227.682	53.59
227.9	59.73
228.117	53.59
228.335	12.63
228.553	110.93
228.771	29.01
228.989	6.49
229.206	-1.71
229.424	-30.38
229.642	0.34
229.86	39.25
230.077	29.01
230.295	-3.75
230.513	78.16
230.731	22.87
230.948	67.92
231.166	37.2
231.384	4.44
231.601	-59.05
231.819	45.4
232.037	-44.71
232.254	31.06
232.472	12.63
232.689	-75.43
232.907	72.02
233.125	96.6
233.342	4.44
233.56	29.01
233.777	41.3
233.995	78.16
234.213	80.21
234.43	-20.14
234.648	22.87
234.865	-11.95
235.083	39.25
235.3	0.34
235.518	6.49
235.735	20.82
235.953	51.54
236.17	65.88
236.388	-30.38
236.605	55.64
236.822	119.12
237.04	4.44
237.257	0.34
237.475	-44.71
237.692	-20.14
237.909	12.63
238.127	12.63
238.344	-3.75
238.562	0.34
238.779	-13.99
238.996	-9.9
239.214	45.4
239.431	35.16
239.648	-1.71
239.865	67.92
240.083	-3.75
240.3	86.36
240.517	0.34
240.735	-11.95
240.952	20.82
241.169	98.64
241.386	94.55
241.603	39.25
241.821	-13.99
242.038	102.74
242.255	35.16
242.472	-50.86
242.689	51.54
242.907	4.44
243.124	49.49
243.341	0.34
243.558	-67.24
243.775	-77.48
243.992	-11.95
244.209	39.25
244.426	29.01
244.643	-77.48
244.86	-40.62
245.078	12.63
245.295	-13.99
245.512	-32.43
245.729	12.63
245.946	37.2
246.163	4.44
246.38	63.83
246.597	37.2
246.814	0.34
247.031	-16.04
247.248	86.36
247.464	72.02
247.681	61.78
247.898	4.44
248.115	65.88
248.332	-52.91
248.549	53.59
248.766	12.63
248.983	31.06
249.2	33.11
249.417	0.34
249.633	2.39
249.85	41.3
250.067	24.92
250.284	37.2
250.501	-22.19
250.717	78.16
250.934	29.01
251.151	110.93
251.368	100.69
251.585	12.63
251.801	16.73
252.018	-7.85
252.235	104.79
252.451	-50.86
252.668	-40.62
252.885	47.44
253.102	20.82
253.318	-1.71
253.535	39.25
253.752	96.6
253.968	-57
254.185	-52.91
254.401	12.63
254.618	53.59
254.835	45.4
255.051	6.49
255.268	69.97
255.484	12.63
255.701	20.82
255.917	72.02
256.134	-24.23
256.351	45.4
256.567	-11.95
256.784	37.2
257	12.63
257.217	12.63
257.433	55.64
257.65	29.01
257.866	80.21
258.082	-11.95
258.299	-11.95
258.515	31.06
258.732	-22.19
258.948	16.73
259.165	6.49
259.381	-18.09
259.597	37.2
259.814	-11.95
260.03	39.25
260.246	-7.85
260.463	29.01
260.679	72.02
260.895	31.06
261.112	61.78
261.328	-3.75
261.544	-13.99
261.761	94.55
261.977	-20.14
262.193	2.39
262.409	-32.43
262.626	37.2
262.842	94.55
263.058	43.35
263.274	31.06
263.49	90.45
263.707	80.21
263.923	24.92
264.139	-32.43
264.355	20.82
264.571	49.49
264.787	6.49
265.004	86.36
265.22	-7.85
265.436	29.01
265.652	-36.52
265.868	49.49
266.084	55.64
266.3	31.06
266.516	12.63
266.732	76.12
266.948	4.44
267.164	69.97
267.38	-32.43
267.596	47.44
267.812	94.55
268.028	96.6
268.244	33.11
268.46	-42.67
268.676	-57
268.892	-9.9
269.108	102.74
269.324	51.54
269.54	-3.75
269.756	121.17
269.972	-36.52
270.188	-7.85
270.403	100.69
270.619	-11.95
270.835	94.55
271.051	65.88
271.267	-16.04
271.483	-52.91
271.698	53.59
271.914	53.59
272.13	33.11
272.346	31.06
272.562	53.59
272.777	90.45
272.993	-28.33
273.209	51.54
273.425	96.6
273.64	20.82
273.856	86.36
274.072	0.34
274.287	-93.87
274.503	29.01
274.719	47.44
274.934	-1.71
275.15	-24.23
275.366	20.82
275.581	0.34
275.797	65.88
276.012	22.87
276.228	4.44
276.444	86.36
276.659	41.3
276.875	16.73
277.09	29.01
277.306	-20.14
277.521	-52.91
277.737	22.87
277.952	37.2
278.168	12.63
278.383	-3.75
278.599	8.53
278.814	-36.52
279.03	29.01
279.245	135.51
279.461	20.82
279.676	33.11
279.892	37.2
280.107	-36.52
280.322	-34.47
280.538	57.68
280.753	24.92
280.969	88.4
281.184	-20.14
281.399	59.73
281.615	49.49
281.83	125.27
282.045	-18.09
282.26	12.63
282.476	33.11
282.691	0.34
282.906	61.78
283.122	20.82
283.337	47.44
283.552	4.44
283.767	-61.1
283.983	-13.99
284.198	29.01
284.413	16.73
284.628	-3.75
284.843	16.73
285.058	4.44
285.274	37.2
285.489	-28.33
285.704	49.49
285.919	-42.67
286.134	12.63
286.349	65.88
286.564	33.11
286.779	49.49
286.995	-36.52
287.21	6.49
287.425	72.02
287.64	6.49
287.855	-26.28
288.07	-38.57
288.285	110.93
288.5	0.34
288.715	127.32
288.93	-36.52
289.145	37.2
289.36	-18.09
289.575	12.63
289.79	45.4
290.004	37.2
290.219	20.82
290.434	26.96
290.649	-89.77
290.864	-36.52
291.079	43.35
291.294	-20.14
291.509	-24.23
291.724	-20.14
291.938	-9.9
292.153	-16.04
292.368	-16.04
292.583	53.59
292.798	8.53
293.012	31.06
293.227	65.88
293.442	-20.14
293.657	-5.8
293.871	63.83
294.086	-59.05
294.301	86.36
294.516	29.01
294.73	108.88
294.945	8.53
295.16	-11.95
295.374	98.64
295.589	69.97
295.804	6.49
296.018	49.49
296.233	55.64
296.447	22.87
296.662	14.68
296.877	69.97
297.091	100.69
297.306	-1.71
297.52	6.49
297.735	29.01
297.949	53.59
298.164	88.4
298.378	102.74
298.593	12.63
298.807	-20.14
299.022	45.4
299.236	12.63
299.451	41.3
299.665	39.25
299.88	53.59
300.094	-44.71
300.309	-9.9
300.523	18.77
300.737	-1.71
300.952	12.63
301.166	65.88
301.381	4.44
301.595	-42.67
301.809	-26.28
302.024	65.88
302.238	41.3
302.452	94.55
302.667	55.64
302.881	84.31
303.095	33.11
303.309	22.87
303.524	-44.71
303.738	8.53
303.952	37.2
304.166	4.44
304.381	0.34
304.595	43.35
304.809	45.4
305.023	-3.75
305.237	14.68
305.452	-26.28
305.666	94.55
305.88	-13.99
306.094	37.2
306.308	108.88
306.522	69.97
306.736	10.58
306.95	78.16
307.164	-1.71
307.379	-48.81
307.593	112.98
307.807	-11.95
308.021	37.2
308.235	39.25
308.449	-34.47
308.663	-9.9
308.877	102.74
309.091	-20.14
309.305	72.02
309.519	6.49
309.733	47.44
309.947	-24.23
310.161	37.2
310.374	4.44
310.588	41.3
310.802	-26.28
311.016	-20.14
311.23	74.07
311.444	-20.14
311.658	-20.14
311.872	86.36
312.085	-38.57
312.299	119.12
312.513	84.31
312.727	8.53
312.941	20.82
313.154	-18.09
313.368	37.2
313.582	12.63
313.796	78.16
314.009	6.49
314.223	84.31
314.437	10.58
314.651	47.44
314.864	-28.33
315.078	-16.04
315.292	-28.33
315.505	55.64
315.719	69.97
315.933	12.63
316.146	6.49
316.36	0.34
316.573	47.44
316.787	29.01
317.001	29.01
317.214	-30.38
317.428	72.02
317.641	16.73
317.855	-20.14
318.068	29.01
318.282	6.49
318.495	147.8
318.709	-16.04
318.922	45.4
319.136	69.97
319.349	94.55
319.563	4.44
319.776	20.82
319.99	10.58
320.203	41.3
320.417	14.68
320.63	-1.71
320.843	49.49
321.057	-42.67
321.27	-18.09
321.483	-13.99
321.697	63.83
321.91	4.44
322.124	31.06
322.337	55.64
322.55	-48.81
322.763	-26.28
322.977	26.96
323.19	-65.19
323.403	22.87
323.617	-20.14
323.83	-9.9
324.043	6.49
324.256	-18.09
324.469	33.11
324.683	74.07
324.896	12.63
325.109	14.68
325.322	8.53
325.535	4.44
325.748	-9.9
325.962	-11.95
326.175	39.25
326.388	63.83
326.601	6.49
326.814	45.4
327.027	-9.9
327.24	160.08
327.453	-44.71
327.666	37.2
327.879	-3.75
328.092	8.53
328.305	-16.04
328.518	39.25
328.731	-18.09
328.944	63.83
329.157	-9.9
329.37	45.4
329.583	29.01
329.796	69.97
330.009	8.53
330.222	18.77
330.435	35.16
330.648	37.2
330.861	6.49
331.073	14.68
331.286	43.35
331.499	-1.71
331.712	-44.71
331.925	-34.47
332.138	110.93
332.35	65.88
332.563	-16.04
332.776	115.03
332.989	-32.43
333.202	20.82
333.414	20.82
333.627	53.59
333.84	37.2
334.053	-20.14
334.265	-16.04
334.478	33.11
334.691	88.4
334.903	-24.23
335.116	-5.8
335.329	33.11
335.541	80.21
335.754	119.12
335.966	6.49
336.179	72.02
336.392	80.21
336.604	102.74
336.817	8.53
337.029	22.87
337.242	94.55
337.454	-3.75
337.667	-18.09
337.88	102.74
338.092	121.17
338.305	8.53
338.517	-24.23
338.729	110.93
338.942	102.74
339.154	14.68
339.367	63.83
339.579	37.2
339.792	121.17
340.004	-16.04
340.217	29.01
340.429	-1.71
340.641	20.82
340.854	37.2
341.066	-9.9
341.278	4.44
341.491	102.74
341.703	57.68
341.915	-67.24
342.128	4.44
342.34	47.44
342.552	10.58
342.764	4.44
342.977	22.87
343.189	-28.33
343.401	-28.33
343.613	6.49
343.826	88.4
344.038	-32.43
344.25	41.3
344.462	6.49
344.674	33.11
344.886	39.25
345.099	49.49
345.311	63.83
345.523	-36.52
345.735	22.87
345.947	6.49
346.159	57.68
346.371	-36.52
346.583	-44.71
346.795	164.18
347.007	86.36
347.219	20.82
347.431	6.49
347.643	12.63
347.855	14.68
348.067	29.01
348.279	4.44
348.491	53.59
348.703	16.73
348.915	22.87
349.127	-16.04
349.339	-18.09
349.551	6.49
349.763	-20.14
349.975	92.5
350.187	12.63
350.399	29.01
350.61	49.49
350.822	33.11
351.034	69.97
351.246	102.74
351.458	6.49
351.669	-11.95
351.881	8.53
352.093	72.02
352.305	8.53
352.517	55.64
352.728	4.44
352.94	33.11
353.152	86.36
353.363	16.73
353.575	31.06
353.787	72.02
353.999	33.11
354.21	-7.85
354.422	-48.81
354.633	-34.47
354.845	63.83
355.057	20.82
355.268	-28.33
355.48	2.39
355.692	-20.14
355.903	102.74
356.115	29.01
356.326	-9.9
356.538	67.92
356.749	37.2
356.961	153.94
357.172	78.16
357.384	45.4
357.595	33.11
357.807	45.4
358.018	12.63
358.23	20.82
358.441	61.78
358.653	53.59
358.864	-18.09
359.075	-32.43
359.287	76.12
359.498	88.4
359.709	51.54
359.921	12.63
360.132	-20.14
360.344	37.2
360.555	-40.62
360.766	65.88
360.977	37.2
361.189	-28.33
361.4	-61.1
361.611	135.51
361.823	53.59
362.034	-28.33
362.245	-77.48
362.456	86.36
362.667	47.44
362.879	24.92
363.09	47.44
363.301	16.73
363.512	59.73
363.723	121.17
363.935	-1.71
364.146	90.45
364.357	65.88
364.568	78.16
364.779	-28.33
364.99	14.68
365.201	-54.95
365.412	39.25
365.623	12.63
365.834	37.2
366.045	39.25
366.256	14.68
366.467	53.59
366.678	33.11
366.889	31.06
367.1	6.49
367.311	39.25
367.522	61.78
367.733	65.88
367.944	6.49
368.155	-11.95
368.366	108.88
368.577	55.64
368.788	96.6
368.999	14.68
369.209	12.63
369.42	92.5
369.631	123.22
369.842	61.78
370.053	-26.28
370.264	-20.14
370.474	6.49
370.685	29.01
370.896	96.6
371.107	-20.14
371.317	55.64
371.528	41.3
371.739	63.83
371.95	29.01
372.16	51.54
372.371	78.16
372.582	41.3
372.792	4.44
373.003	29.01
373.214	-26.28
373.424	88.4
373.635	8.53
373.846	106.84
374.056	16.73
374.267	53.59
374.477	61.78
374.688	20.82
374.898	14.68
375.109	-63.15
375.319	61.78
375.53	26.96
375.74	-3.75
375.951	55.64
376.161	98.64
376.372	4.44
376.582	65.88
376.793	55.64
377.003	53.59
377.214	55.64
377.424	29.01
377.635	39.25
377.845	12.63
378.055	-7.85
378.266	22.87
378.476	37.2
378.686	20.82
378.897	53.59
379.107	94.55
379.317	47.44
379.528	24.92
379.738	80.21
379.948	-7.85
380.158	-40.62
380.369	37.2
380.579	-11.95
380.789	-34.47
380.999	94.55
381.21	53.59
381.42	76.12
381.63	102.74
381.84	102.74
382.05	16.73
382.261	90.45
382.471	53.59
382.681	41.3
382.891	121.17
383.101	121.17
383.311	37.2
383.521	-44.71
383.731	12.63
383.941	104.79
384.151	4.44
384.361	94.55
384.571	6.49
384.781	61.78
384.991	84.31
385.201	55.64
385.411	31.06
385.621	94.55
385.831	4.44
386.041	-3.75
386.251	33.11
386.461	55.64
386.671	29.01
386.881	-3.75
387.091	-34.47
387.301	33.11
387.511	106.84
387.72	123.22
387.93	69.97
388.14	-48.81
388.35	94.55
388.56	49.49
388.769	47.44
388.979	16.73
389.189	8.53
389.399	43.35
389.609	69.97
389.818	69.97
390.028	-24.23
390.238	78.16
390.447	43.35
390.657	94.55
390.867	-9.9
391.076	12.63
391.286	14.68
391.496	41.3
391.705	37.2
391.915	84.31
392.125	69.97
392.334	16.73
392.544	57.68
392.753	63.83
392.963	-20.14
393.172	49.49
393.382	-40.62
393.591	90.45
393.801	12.63
394.01	72.02
394.22	90.45
394.429	96.6
394.639	49.49
394.848	65.88
395.058	-3.75
395.267	31.06
395.477	45.4
395.686	92.5
395.895	135.51
396.105	86.36
396.314	119.12
396.524	127.32
396.733	20.82
396.942	160.08
397.152	41.3
397.361	129.36
397.57	121.17
397.78	115.03
397.989	78.16
398.198	153.94
398.407	-18.09
398.617	49.49
398.826	41.3
399.035	125.27
399.244	102.74
399.453	18.77
399.663	49.49
399.872	119.12
400.081	86.36
400.29	110.93
400.499	31.06
400.708	90.45
400.917	98.64
401.127	14.68
401.336	151.89
401.545	162.13
401.754	102.74
401.963	131.41
402.172	67.92
402.381	78.16
402.59	69.97
402.799	69.97
403.008	129.36
403.217	178.51
403.426	104.79
403.635	110.93
403.844	45.4
404.053	119.12
404.262	147.8
404.471	213.33
404.68	90.45
404.888	135.51
405.097	74.07
405.306	160.08
405.515	235.86
405.724	176.47
405.933	80.21
406.142	170.32
406.35	233.81
406.559	166.23
406.768	41.3
406.977	176.47
407.185	213.33
407.394	172.37
407.603	162.13
407.812	151.89
408.02	225.62
408.229	201.04
408.438	178.51
408.646	137.56
408.855	196.95
409.064	229.71
409.272	135.51
409.481	270.67
409.69	198.99
409.898	172.37
410.107	186.71
410.315	268.63
410.524	282.96
410.733	262.48
410.941	237.91
411.15	430.41
411.358	303.44
411.567	323.92
411.775	356.69
411.984	293.2
412.192	405.84
412.401	303.44
412.609	368.98
412.818	422.22
413.026	471.37
413.234	381.26
413.443	422.22
413.651	446.8
413.86	471.37
414.068	555.34
414.276	555.34
414.485	473.42
414.693	555.34
414.901	547.15
415.11	553.29
415.318	569.68
415.526	565.58
415.734	643.4
415.943	608.59
416.151	643.4
416.359	620.88
416.567	655.69
416.776	717.13
416.984	758.09
417.192	809.29
417.4	852.3
417.608	835.91
417.817	797
418.025	815.43
418.233	921.93
418.441	891.21
418.649	926.02
418.857	940.36
419.065	1112.39
419.273	1093.96
419.481	1165.64
419.689	1210.69
419.897	1175.88
420.105	1171.78
420.313	1265.99
420.521	1327.43
420.729	1360.19
420.937	1341.76
421.145	1417.54
421.353	1462.59
421.561	1511.74
421.769	1661.24
421.977	1601.85
422.185	1718.59
422.393	1784.12
422.601	1898.81
422.809	1857.85
423.017	1890.62
423.224	1909.05
423.432	2095.41
423.64	2070.84
423.848	2267.44
424.056	2093.37
424.263	2267.44
424.471	2246.96
424.679	2457.9
424.887	2349.36
425.094	2621.74
425.302	2570.54
425.51	2709.8
425.718	2761
425.925	2818.35
426.133	2793.77
426.341	2976.04
426.548	3166.5
426.756	3152.17
426.964	3201.32
427.171	3273
427.379	3465.5
427.586	3445.02
427.794	3582.24
428.001	3807.52
428.209	4014.36
428.417	3838.23
428.624	4223.25
428.832	4225.3
429.039	4055.32
429.247	4215.06
429.454	4526.35
429.662	4937.99
429.869	4692.24
430.076	4870.41
430.284	4641.04
430.491	4931.85
430.699	5189.89
430.906	5257.48
431.114	5380.36
431.321	5437.7
431.528	5478.66
431.736	5943.55
431.943	6134.01
432.15	5966.07
432.358	6025.47
432.565	6246.65
432.772	6224.12
432.979	6748.4
433.187	6752.49
433.394	6664.43
433.601	7051.5
433.808	7205.1
434.016	7180.52
434.223	7487.72
434.43	7846.11
434.637	8012
434.844	8378.58
435.052	8155.35
435.259	8329.43
435.466	8372.44
435.673	8380.63
435.88	8812.75
436.087	9304.26
436.294	9314.5
436.501	9201.86
436.708	9156.81
436.915	9676.99
437.122	10023.1
437.329	10019
437.537	10399.93
437.743	10369.21
437.95	10279.1
438.157	11016.37
438.364	11327.66
438.571	10997.93
438.778	11139.24
438.985	12327.07
439.192	11526.31
439.399	12277.91
439.606	11940
439.813	12546.2
440.02	13439.11
440.227	13060.24
440.433	12916.88
440.64	13373.58
440.847	13250.7
441.054	13922.43
441.261	14671.99
441.467	14430.33
441.674	14655.61
441.881	15290.48
442.088	15149.17
442.294	15183.98
442.501	15165.55
442.708	15775.84
442.914	16150.62
443.121	16937.04
443.328	16549.98
443.534	17487.95
443.741	17029.2
443.948	16754.77
444.154	18186.3
444.361	18206.78
444.568	18159.68
444.774	18122.82
444.981	18298.94
445.187	18790.45
445.394	19777.58
445.6	19578.92
445.807	21250.07
446.013	20045.86
446.22	20770.84
446.426	21481.49
446.633	22020.1
446.839	22464.51
447.046	21501.97
447.252	22732.79
447.459	22829.05
447.665	22581.24
447.871	23441.39
448.078	24645.6
448.284	23259.12
448.491	24182.76
448.697	24958.94
448.903	25530.32
449.11	25520.08
449.316	25472.98
449.522	25661.39
449.728	26087.37
449.935	26406.85
450.141	26675.13
450.347	26937.27
450.553	26161.09
450.76	26836.92
450.966	27662.26
451.172	26961.85
451.378	27842.48
451.584	27088.82
451.791	27981.74
451.997	27580.34
452.203	28164.01
452.409	28516.26
452.615	28491.68
452.821	27213.75
453.027	26673.09
453.233	28460.96
453.44	27070.39
453.646	27459.51
453.852	27303.86
454.058	27600.82
454.264	27140.02
454.47	27635.63
454.676	27131.83
454.882	28321.7
455.088	25233.36
455.294	26017.74
455.5	26351.56
455.705	26564.54
455.911	25317.33
456.117	24547.29
456.323	24659.93
456.529	23328.75
456.735	24369.12
456.941	23535.6
457.147	23189.49
457.352	22511.61
457.558	22095.88
457.764	22317.06
457.97	21813.26
458.176	21288.98
458.381	21207.06
458.587	20320.29
458.793	20142.11
458.999	19275.82
459.204	20609.05
459.41	19982.37
459.616	18751.54
459.821	18501.69
460.027	18360.38
460.233	18294.85
460.438	17250.38
460.644	17389.64
460.85	16535.64
461.055	16191.58
461.261	16289.88
461.466	15183.98
461.672	14631.03
461.878	15513.7
462.083	14397.56
462.289	14094.46
462.494	13860.99
462.7	13469.83
462.905	13019.28
463.111	13514.89
463.316	13543.56
463.522	13326.47
463.727	13336.71
463.932	13389.96
464.138	13088.91
464.343	13068.43
464.549	12521.62
464.754	13123.73
464.959	13086.86
465.165	13078.67
465.37	12368.02
465.575	11950.24
465.781	12423.32
465.986	12476.57
466.191	12019.87
466.397	11759.78
466.602	11161.77
466.807	11620.52
467.012	11620.52
467.218	11524.26
467.423	11344.04
467.628	11423.91
