Data from USB4F104151__223__14-33-54-515.txt Node

Date: Thu Mar 13 14:33:54 EDT 2025
User: louis
Spectrometer: USB4F10415
Trigger mode: 4
Integration Time (sec): 2.500000E-2
Scans to average: 1
Electric dark correction enabled: true
Nonlinearity correction enabled: false
Boxcar width: 0
XAxis mode: Wavelengths
Number of Pixels in Spectrum: 3648
>>>>>Begin Spectral Data<<<<<
178.204	-182.78
178.424	-182.78
178.644	-182.78
178.864	-166.4
179.084	-166.4
179.304	-55.81
179.524	-49.66
179.744	22.02
179.964	116.22
180.184	32.26
180.404	38.4
180.624	-16.9
180.844	1.54
181.064	-47.62
181.283	26.11
181.503	-59.9
181.723	-6.66
181.943	-29.18
182.163	30.21
182.383	-2.56
182.602	95.74
182.822	24.06
183.042	38.4
183.262	-25.09
183.482	-23.04
183.701	30.21
183.921	36.35
184.141	28.16
184.361	22.02
184.58	-33.28
184.8	-39.42
185.02	-57.86
185.239	52.74
185.459	48.64
185.679	65.02
185.898	-61.95
186.118	30.21
186.338	48.64
186.557	-2.56
186.777	-68.09
186.997	-16.9
187.216	-2.56
187.436	62.98
187.655	50.69
187.875	34.3
188.095	9.73
188.314	87.55
188.534	142.85
188.753	108.03
188.973	32.26
189.192	56.83
189.412	5.63
189.631	58.88
189.851	40.45
190.07	122.37
190.29	-41.47
190.509	54.78
190.729	120.32
190.948	52.74
191.168	187.9
191.387	146.94
191.607	32.26
191.826	5.63
192.045	-31.23
192.265	42.5
192.484	79.36
192.704	58.88
192.923	-66.05
193.142	36.35
193.362	103.93
193.581	114.17
193.8	65.02
194.02	50.69
194.239	-37.38
194.458	-31.23
194.678	-59.9
194.897	26.11
195.116	50.69
195.335	81.41
195.555	-2.56
195.774	-2.56
195.993	54.78
196.212	105.98
196.432	-14.85
196.651	-2.56
196.87	40.45
197.089	161.28
197.308	65.02
197.528	46.59
197.747	-8.7
197.966	101.89
198.185	52.74
198.404	26.11
198.623	46.59
198.842	32.26
199.062	87.55
199.281	81.41
199.5	-16.9
199.719	13.82
199.938	95.74
200.157	114.17
200.376	13.82
200.595	32.26
200.814	75.26
201.033	1.54
201.252	87.55
201.471	38.4
201.69	-16.9
201.909	34.3
202.128	17.92
202.347	81.41
202.566	-4.61
202.785	22.02
203.004	-20.99
203.223	69.12
203.442	56.83
203.661	-16.9
203.879	50.69
204.098	58.88
204.317	-2.56
204.536	81.41
204.755	-14.85
204.974	48.64
205.193	19.97
205.411	112.13
205.63	50.69
205.849	26.11
206.068	30.21
206.287	9.73
206.505	3.58
206.724	46.59
206.943	75.26
207.162	-0.51
207.381	99.84
207.599	-10.75
207.818	32.26
208.037	112.13
208.255	13.82
208.474	75.26
208.693	73.21
208.911	65.02
209.13	9.73
209.349	42.5
209.567	40.45
209.786	5.63
210.005	62.98
210.223	-2.56
210.442	30.21
210.661	58.88
210.879	36.35
211.098	-8.7
211.316	58.88
211.535	62.98
211.753	13.82
211.972	30.21
212.191	-25.09
212.409	19.97
212.628	62.98
212.846	-18.94
213.065	108.03
213.283	-6.66
213.502	46.59
213.72	-39.42
213.938	9.73
214.157	48.64
214.375	46.59
214.594	26.11
214.812	44.54
215.031	40.45
215.249	-0.51
215.467	30.21
215.686	30.21
215.904	17.92
216.122	62.98
216.341	151.04
216.559	65.02
216.778	60.93
216.996	79.36
217.214	5.63
217.432	38.4
217.651	42.5
217.869	9.73
218.087	89.6
218.306	71.17
218.524	5.63
218.742	30.21
218.96	48.64
219.179	-16.9
219.397	38.4
219.615	89.6
219.833	112.13
220.051	-76.29
220.27	112.13
220.488	30.21
220.706	71.17
220.924	19.97
221.142	81.41
221.36	32.26
221.578	-16.9
221.796	7.68
222.015	-43.52
222.233	28.16
222.451	103.93
222.669	34.3
222.887	-10.75
223.105	71.17
223.323	54.78
223.541	38.4
223.759	-23.04
223.977	40.45
224.195	17.92
224.413	50.69
224.631	91.65
224.849	-4.61
225.067	89.6
225.285	32.26
225.503	13.82
225.721	-51.71
225.939	62.98
226.157	46.59
226.375	79.36
226.592	-33.28
226.81	40.45
227.028	75.26
227.246	71.17
227.464	-53.76
227.682	54.78
227.9	97.79
228.117	65.02
228.335	54.78
228.553	81.41
228.771	71.17
228.989	120.32
229.206	-12.8
229.424	22.02
229.642	-25.09
229.86	-18.94
230.077	-6.66
230.295	-0.51
230.513	65.02
230.731	73.21
230.948	-0.51
231.166	89.6
231.384	28.16
231.601	13.82
231.819	93.69
232.037	71.17
232.254	1.54
232.472	36.35
232.689	50.69
232.907	95.74
233.125	-0.51
233.342	46.59
233.56	-2.56
233.777	42.5
233.995	75.26
234.213	101.89
234.43	-14.85
234.648	34.3
234.865	-4.61
235.083	38.4
235.3	62.98
235.518	46.59
235.735	58.88
235.953	71.17
236.17	19.97
236.388	75.26
236.605	65.02
236.822	89.6
237.04	62.98
237.257	73.21
237.475	3.58
237.692	-51.71
237.909	48.64
238.127	38.4
238.344	101.89
238.562	-10.75
238.779	15.87
238.996	46.59
239.214	62.98
239.431	46.59
239.648	-27.14
239.865	83.45
240.083	46.59
240.3	38.4
240.517	83.45
240.735	1.54
240.952	95.74
241.169	58.88
241.386	-0.51
241.603	75.26
241.821	44.54
242.038	30.21
242.255	26.11
242.472	-86.53
242.689	46.59
242.907	32.26
243.124	-25.09
243.341	79.36
243.558	5.63
243.775	13.82
243.992	-16.9
244.209	62.98
244.426	112.13
244.643	79.36
244.86	56.83
245.078	93.69
245.295	50.69
245.512	40.45
245.729	-23.04
245.946	-31.23
246.163	67.07
246.38	11.78
246.597	46.59
246.814	5.63
247.031	17.92
247.248	71.17
247.464	32.26
247.681	87.55
247.898	22.02
248.115	50.69
248.332	48.64
248.549	71.17
248.766	91.65
248.983	79.36
249.2	24.06
249.417	48.64
249.633	81.41
249.85	-0.51
250.067	15.87
250.284	32.26
250.501	42.5
250.717	46.59
250.934	-72.19
251.151	67.07
251.368	13.82
251.585	52.74
251.801	32.26
252.018	71.17
252.235	46.59
252.451	-8.7
252.668	-6.66
252.885	77.31
253.102	13.82
253.318	42.5
253.535	-6.66
253.752	48.64
253.968	-18.94
254.185	-16.9
254.401	32.26
254.618	65.02
254.835	-10.75
255.051	87.55
255.268	95.74
255.484	79.36
255.701	13.82
255.917	93.69
256.134	-27.14
256.351	22.02
256.567	24.06
256.784	91.65
257	26.11
257.217	42.5
257.433	136.7
257.65	38.4
257.866	101.89
258.082	1.54
258.299	-2.56
258.515	73.21
258.732	-4.61
258.948	95.74
259.165	-47.62
259.381	9.73
259.597	46.59
259.814	17.92
260.03	-10.75
260.246	19.97
260.463	54.78
260.679	77.31
260.895	108.03
261.112	13.82
261.328	54.78
261.544	48.64
261.761	81.41
261.977	50.69
262.193	24.06
262.409	87.55
262.626	-16.9
262.842	24.06
263.058	54.78
263.274	71.17
263.49	56.83
263.707	15.87
263.923	38.4
264.139	67.07
264.355	58.88
264.571	22.02
264.787	7.68
265.004	62.98
265.22	26.11
265.436	75.26
265.652	-18.94
265.868	81.41
266.084	-0.51
266.3	34.3
266.516	101.89
266.732	42.5
266.948	15.87
267.164	67.07
267.38	54.78
267.596	50.69
267.812	19.97
268.028	77.31
268.244	62.98
268.46	30.21
268.676	42.5
268.892	46.59
269.108	-31.23
269.324	-4.61
269.54	-14.85
269.756	69.12
269.972	26.11
270.188	-23.04
270.403	30.21
270.619	46.59
270.835	65.02
271.051	-0.51
271.267	36.35
271.483	56.83
271.698	-10.75
271.914	26.11
272.13	42.5
272.346	38.4
272.562	5.63
272.777	114.17
272.993	13.82
273.209	81.41
273.425	15.87
273.64	7.68
273.856	9.73
274.072	15.87
274.287	1.54
274.503	116.22
274.719	62.98
274.934	48.64
275.15	-0.51
275.366	5.63
275.581	22.02
275.797	24.06
276.012	87.55
276.228	65.02
276.444	93.69
276.659	67.07
276.875	22.02
277.09	-2.56
277.306	46.59
277.521	34.3
277.737	26.11
277.952	5.63
278.168	22.02
278.383	24.06
278.599	22.02
278.814	89.6
279.03	83.45
279.245	97.79
279.461	13.82
279.676	75.26
279.892	7.68
280.107	36.35
280.322	38.4
280.538	73.21
280.753	32.26
280.969	79.36
281.184	38.4
281.399	81.41
281.615	13.82
281.83	28.16
282.045	11.78
282.26	50.69
282.476	-20.99
282.691	-51.71
282.906	-4.61
283.122	95.74
283.337	-35.33
283.552	54.78
283.767	32.26
283.983	108.03
284.198	48.64
284.413	81.41
284.628	19.97
284.843	38.4
285.058	105.98
285.274	19.97
285.489	40.45
285.704	19.97
285.919	-0.51
286.134	30.21
286.349	7.68
286.564	22.02
286.779	97.79
286.995	32.26
287.21	22.02
287.425	81.41
287.64	30.21
287.855	44.54
288.07	42.5
288.285	95.74
288.5	62.98
288.715	112.13
288.93	-2.56
289.145	-72.19
289.36	1.54
289.575	54.78
289.79	38.4
290.004	71.17
290.219	69.12
290.434	3.58
290.649	15.87
290.864	9.73
291.079	13.82
291.294	22.02
291.509	71.17
291.724	3.58
291.938	38.4
292.153	97.79
292.368	26.11
292.583	99.84
292.798	-6.66
293.012	87.55
293.227	46.59
293.442	83.45
293.657	75.26
293.871	71.17
294.086	1.54
294.301	130.56
294.516	87.55
294.73	81.41
294.945	17.92
295.16	-14.85
295.374	140.8
295.589	46.59
295.804	-33.28
296.018	73.21
296.233	75.26
296.447	87.55
296.662	54.78
296.877	54.78
297.091	81.41
297.306	54.78
297.52	38.4
297.735	30.21
297.949	-43.52
298.164	13.82
298.378	26.11
298.593	-18.94
298.807	-35.33
299.022	-25.09
299.236	5.63
299.451	65.02
299.665	103.93
299.88	-31.23
300.094	122.37
300.309	87.55
300.523	65.02
300.737	-64
300.952	124.41
301.166	62.98
301.381	-0.51
301.595	40.45
301.809	44.54
302.024	-16.9
302.238	38.4
302.452	128.51
302.667	38.4
302.881	99.84
303.095	5.63
303.309	46.59
303.524	79.36
303.738	73.21
303.952	-12.8
304.166	42.5
304.381	-2.56
304.595	91.65
304.809	58.88
305.023	97.79
305.237	-8.7
305.452	7.68
305.666	62.98
305.88	128.51
306.094	42.5
306.308	26.11
306.522	60.93
306.736	15.87
306.95	120.32
307.164	95.74
307.379	75.26
307.593	122.37
307.807	22.02
308.021	85.5
308.235	34.3
308.449	62.98
308.663	13.82
308.877	81.41
309.091	34.3
309.305	30.21
309.519	7.68
309.733	95.74
309.947	69.12
310.161	13.82
310.374	67.07
310.588	99.84
310.802	71.17
311.016	83.45
311.23	136.7
311.444	-18.94
311.658	11.78
311.872	30.21
312.085	83.45
312.299	79.36
312.513	50.69
312.727	87.55
312.941	50.69
313.154	56.83
313.368	81.41
313.582	91.65
313.796	85.5
314.009	30.21
314.223	71.17
314.437	32.26
314.651	30.21
314.864	46.59
315.078	-8.7
315.292	46.59
315.505	22.02
315.719	5.63
315.933	62.98
316.146	5.63
316.36	-29.18
316.573	114.17
316.787	81.41
317.001	73.21
317.214	9.73
317.428	56.83
317.641	7.68
317.855	32.26
318.068	62.98
318.282	7.68
318.495	87.55
318.709	99.84
318.922	38.4
319.136	91.65
319.349	54.78
319.563	52.74
319.776	71.17
319.99	-35.33
320.203	7.68
320.417	19.97
320.63	93.69
320.843	95.74
321.057	44.54
321.27	-0.51
321.483	69.12
321.697	89.6
321.91	32.26
322.124	50.69
322.337	62.98
322.55	22.02
322.763	69.12
322.977	17.92
323.19	-35.33
323.403	81.41
323.617	15.87
323.83	105.98
324.043	75.26
324.256	73.21
324.469	22.02
324.683	103.93
324.896	24.06
325.109	120.32
325.322	-0.51
325.535	71.17
325.748	79.36
325.962	17.92
326.175	17.92
326.388	87.55
326.601	15.87
326.814	30.21
327.027	46.59
327.24	95.74
327.453	15.87
327.666	103.93
327.879	105.98
328.092	120.32
328.305	95.74
328.518	103.93
328.731	26.11
328.944	65.02
329.157	62.98
329.37	-10.75
329.583	81.41
329.796	60.93
330.009	-8.7
330.222	58.88
330.435	40.45
330.648	71.17
330.861	52.74
331.073	79.36
331.286	56.83
331.499	40.45
331.712	-43.52
331.925	-8.7
332.138	3.58
332.35	81.41
332.563	56.83
332.776	62.98
332.989	75.26
333.202	40.45
333.414	-10.75
333.627	105.98
333.84	-27.14
334.053	-37.38
334.265	30.21
334.478	56.83
334.691	65.02
334.903	62.98
335.116	65.02
335.329	9.73
335.541	89.6
335.754	128.51
335.966	3.58
336.179	93.69
336.392	42.5
336.604	32.26
336.817	50.69
337.029	38.4
337.242	62.98
337.454	54.78
337.667	54.78
337.88	62.98
338.092	22.02
338.305	71.17
338.517	50.69
338.729	73.21
338.942	30.21
339.154	79.36
339.367	32.26
339.579	32.26
339.792	32.26
340.004	22.02
340.217	87.55
340.429	71.17
340.641	75.26
340.854	17.92
341.066	103.93
341.278	112.13
341.491	69.12
341.703	62.98
341.915	5.63
342.128	85.5
342.34	83.45
342.552	34.3
342.764	79.36
342.977	71.17
343.189	-10.75
343.401	112.13
343.613	-2.56
343.826	67.07
344.038	9.73
344.25	83.45
344.462	30.21
344.674	91.65
344.886	28.16
345.099	42.5
345.311	67.07
345.523	17.92
345.735	-45.57
345.947	52.74
346.159	48.64
346.371	65.02
346.583	54.78
346.795	99.84
347.007	-16.9
347.219	95.74
347.431	5.63
347.643	79.36
347.855	56.83
348.067	130.56
348.279	95.74
348.491	30.21
348.703	114.17
348.915	24.06
349.127	-10.75
349.339	-0.51
349.551	7.68
349.763	93.69
349.975	38.4
350.187	38.4
350.399	103.93
350.61	46.59
350.822	58.88
351.034	56.83
351.246	69.12
351.458	9.73
351.669	50.69
351.881	81.41
352.093	99.84
352.305	114.17
352.517	73.21
352.728	157.18
352.94	73.21
353.152	116.22
353.363	-10.75
353.575	-12.8
353.787	83.45
353.999	128.51
354.21	95.74
354.422	-14.85
354.633	95.74
354.845	108.03
355.057	95.74
355.268	40.45
355.48	50.69
355.692	54.78
355.903	120.32
356.115	54.78
356.326	-51.71
356.538	32.26
356.749	108.03
356.961	71.17
357.172	46.59
357.384	48.64
357.595	83.45
357.807	67.07
358.018	1.54
358.23	48.64
358.441	65.02
358.653	32.26
358.864	-27.14
359.075	5.63
359.287	105.98
359.498	3.58
359.709	105.98
359.921	-8.7
360.132	-4.61
360.344	22.02
360.555	3.58
360.766	105.98
360.977	22.02
361.189	54.78
361.4	122.37
361.611	54.78
361.823	159.23
362.034	87.55
362.245	13.82
362.456	54.78
362.667	62.98
362.879	75.26
363.09	26.11
363.301	124.41
363.512	122.37
363.723	28.16
363.935	42.5
364.146	9.73
364.357	46.59
364.568	58.88
364.779	40.45
364.99	116.22
365.201	62.98
365.412	50.69
365.623	30.21
365.834	71.17
366.045	71.17
366.256	71.17
366.467	85.5
366.678	99.84
366.889	101.89
367.1	79.36
367.311	71.17
367.522	24.06
367.733	7.68
367.944	42.5
368.155	73.21
368.366	126.46
368.577	120.32
368.788	103.93
368.999	120.32
369.209	71.17
369.42	171.52
369.631	144.89
369.842	87.55
370.053	36.35
370.264	62.98
370.474	65.02
370.685	110.08
370.896	50.69
371.107	202.24
371.317	67.07
371.528	30.21
371.739	122.37
371.95	136.7
372.16	46.59
372.371	13.82
372.582	62.98
372.792	75.26
373.003	105.98
373.214	58.88
373.424	71.17
373.635	93.69
373.846	157.18
374.056	13.82
374.267	65.02
374.477	65.02
374.688	62.98
374.898	38.4
375.109	26.11
375.319	56.83
375.53	81.41
375.74	62.98
375.951	79.36
376.161	65.02
376.372	130.56
376.582	46.59
376.793	24.06
377.003	38.4
377.214	112.13
377.424	73.21
377.635	50.69
377.845	1.54
378.055	118.27
378.266	42.5
378.476	112.13
378.686	13.82
378.897	79.36
379.107	69.12
379.317	67.07
379.528	83.45
379.738	120.32
379.948	103.93
380.158	138.75
380.369	97.79
380.579	103.93
380.789	40.45
380.999	71.17
381.21	103.93
381.42	132.61
381.63	44.54
381.84	13.82
382.05	161.28
382.261	56.83
382.471	99.84
382.681	71.17
382.891	89.6
383.101	124.41
383.311	42.5
383.521	89.6
383.731	95.74
383.941	48.64
384.151	5.63
384.361	46.59
384.571	60.93
384.781	114.17
384.991	120.32
385.201	187.9
385.411	179.71
385.621	95.74
385.831	103.93
386.041	54.78
386.251	97.79
386.461	103.93
386.671	65.02
386.881	71.17
387.091	30.21
387.301	58.88
387.511	15.87
387.72	136.7
387.93	38.4
388.14	-8.7
388.35	50.69
388.56	138.75
388.769	56.83
388.979	114.17
389.189	95.74
389.399	34.3
389.609	60.93
389.818	185.85
390.028	50.69
390.238	122.37
390.447	50.69
390.657	62.98
390.867	42.5
391.076	48.64
391.286	38.4
391.496	40.45
391.705	122.37
391.915	144.89
392.125	130.56
392.334	58.88
392.544	146.94
392.753	71.17
392.963	95.74
393.172	99.84
393.382	-10.75
393.591	136.7
393.801	34.3
394.01	79.36
394.22	69.12
394.429	28.16
394.639	108.03
394.848	108.03
395.058	38.4
395.267	97.79
395.477	108.03
395.686	136.7
395.895	259.58
396.105	261.63
396.314	103.93
396.524	136.7
396.733	103.93
396.942	144.89
397.152	153.09
397.361	146.94
397.57	155.13
397.78	83.45
397.989	132.61
398.198	120.32
398.407	120.32
398.617	153.09
398.826	120.32
399.035	155.13
399.244	146.94
399.453	138.75
399.663	146.94
399.872	116.22
400.081	120.32
400.29	146.94
400.499	87.55
400.708	159.23
400.917	192
401.127	93.69
401.336	93.69
401.545	196.09
401.754	187.9
401.963	177.66
402.172	124.41
402.381	136.7
402.59	112.13
402.799	177.66
403.008	206.33
403.217	153.09
403.426	155.13
403.635	222.72
403.844	136.7
404.053	169.47
404.262	228.86
404.471	255.48
404.68	187.9
404.888	187.9
405.097	210.43
405.306	185.85
405.515	237.05
405.724	259.58
405.933	206.33
406.142	259.58
406.35	278.01
406.559	292.35
406.768	269.82
406.977	302.59
407.185	243.2
407.394	292.35
407.603	237.05
407.812	296.44
408.02	290.3
408.229	310.78
408.438	275.96
408.646	241.15
408.855	353.79
409.064	370.17
409.272	386.55
409.481	431.61
409.69	366.07
409.898	327.16
410.107	357.88
410.315	484.86
410.524	374.27
410.733	402.94
410.941	466.42
411.15	538.1
411.358	517.62
411.567	529.91
411.775	579.06
411.984	550.39
412.192	564.73
412.401	630.26
412.609	687.61
412.818	644.6
413.026	681.46
413.234	703.99
413.443	685.56
413.651	660.98
413.86	732.66
414.068	861.68
414.276	787.96
414.485	845.3
414.693	916.98
414.901	894.45
415.11	964.08
415.318	939.51
415.526	945.65
415.734	1037.81
415.943	1058.29
416.151	1132.01
416.359	1107.44
416.567	1193.45
416.776	1209.84
416.984	1172.97
417.192	1242.61
417.4	1201.65
417.608	1304.04
417.817	1435.11
418.025	1431.02
418.233	1570.28
418.441	1418.73
418.649	1562.09
418.857	1746.41
419.065	1801.7
419.273	1803.75
419.481	1801.7
419.689	1881.57
419.897	2088.42
420.105	1975.78
420.313	2053.6
420.521	2168.29
420.729	2258.4
420.937	2178.53
421.145	2424.28
421.353	2430.43
421.561	2586.07
421.769	2596.31
421.977	2721.24
422.185	2659.8
422.393	2741.72
422.601	3044.82
422.809	3163.6
423.017	3093.97
423.224	3319.25
423.432	3276.24
423.64	3403.21
423.848	3671.5
424.056	3419.6
424.263	3798.47
424.471	3831.24
424.679	3923.4
424.887	4085.19
425.094	4232.64
425.302	4249.02
425.51	4332.99
425.718	4707.77
425.925	4715.96
426.133	4765.11
426.341	4814.26
426.548	5021.11
426.756	5273.01
426.964	5209.52
427.171	5666.22
427.379	5741.99
427.586	5705.13
427.794	5989.8
428.001	6208.93
428.209	6561.18
428.417	6391.2
428.624	6763.93
428.832	6874.52
429.039	6790.55
429.247	6747.55
429.454	7476.62
429.662	7921.03
429.869	7460.24
430.076	8093.06
430.284	7697.8
430.491	8140.16
430.699	8535.42
430.906	8578.43
431.114	8709.5
431.321	8908.15
431.528	9143.67
431.736	9588.08
431.943	10001.77
432.15	9893.23
432.358	9878.89
432.565	10659.17
432.772	10589.53
432.979	10802.52
433.187	11115.86
433.394	11220.31
433.601	12051.78
433.808	12094.79
434.016	11945.29
434.223	12434.75
434.43	13133.11
434.637	12807.48
434.844	13452.59
435.052	13980.97
435.259	13819.18
435.466	14087.47
435.673	13843.76
435.88	14816.54
436.087	15275.29
436.294	15392.02
436.501	15228.18
436.708	15406.36
436.915	16069.9
437.122	16700.67
437.329	16706.82
437.537	17110.27
437.743	17380.6
437.95	17315.06
438.157	17976.56
438.364	18801.89
438.571	18767.07
438.778	18973.92
438.985	20499.66
439.192	19832.02
439.399	20331.72
439.606	19829.97
439.813	21273.79
440.02	22369.45
440.227	21732.53
440.433	21787.83
440.64	22891.68
440.847	22072.5
441.054	22783.14
441.261	24575.11
441.467	24190.09
441.674	24409.23
441.881	25355.39
442.088	25336.96
442.294	25279.61
442.501	25449.6
442.708	26205.3
442.914	27178.08
443.121	28429.39
443.328	27720.79
443.534	29627.45
443.741	28906.57
443.948	28214.35
444.154	30487.6
444.361	30198.84
444.568	30481.45
444.774	30596.14
444.981	30780.46
445.187	31380.51
445.394	32871.43
445.6	32678.93
445.807	35748.83
446.013	34270.2
446.22	34706.41
446.426	35949.53
446.633	36453.33
446.839	37706.69
447.046	35754.97
447.252	37913.53
447.459	37778.37
447.665	37893.05
447.871	39998.37
448.078	41126.8
448.284	39222.19
448.491	40199.07
448.697	41960.32
448.903	43076.46
449.11	42173.31
449.316	42029.95
449.522	42666.87
449.728	43436.91
449.935	44292.96
450.141	44174.17
450.347	44823.38
450.553	43434.86
450.76	44329.82
450.966	45624.14
451.172	44964.69
451.378	46113.6
451.584	45108.05
451.791	46471.99
451.997	46222.14
452.203	46803.77
452.409	46943.03
452.615	46801.72
452.821	44657.49
453.027	44551
453.233	46707.51
453.44	44903.25
453.646	45452.11
453.852	45400.91
454.058	46555.96
454.264	45022.03
454.47	46119.74
454.676	45042.51
454.882	46168.9
455.088	42363.77
455.294	42920.82
455.5	43502.44
455.705	44178.27
455.911	42568.57
456.117	41501.57
456.323	41081.74
456.529	38898.61
456.735	40512.41
456.941	39371.69
457.147	38966.19
457.352	37520.32
457.558	37194.7
457.764	37067.72
457.97	36459.48
458.176	35802.08
458.381	35580.9
458.587	33995.77
458.793	34032.63
458.999	32209.94
459.204	34880.49
459.41	33731.58
459.616	31011.88
459.821	31527.97
460.027	31347.75
460.233	30911.53
460.438	29033.54
460.644	29389.89
460.85	28238.93
461.055	27509.85
461.261	27690.07
461.466	25619.58
461.672	24458.38
461.878	26295.41
462.083	24896.64
462.289	24155.28
462.494	23936.15
462.7	22758.56
462.905	22164.65
463.111	22916.26
463.316	23377.05
463.522	22682.79
463.727	22420.65
463.932	22590.63
464.138	22576.3
464.343	22236.33
464.549	21902.51
464.754	22285.48
464.959	22439.08
465.165	22176.94
465.37	21058.75
465.575	20688.07
465.781	21449.91
465.986	21724.34
466.191	20903.11
466.397	20546.76
466.602	19481.81
466.807	20348.11
467.012	20012.24
