Data from USB4F104151__65__14-30-14-153.txt Node

Date: Thu Mar 13 14:30:14 EDT 2025
User: louis
Spectrometer: USB4F10415
Trigger mode: 4
Integration Time (sec): 2.500000E-2
Scans to average: 1
Electric dark correction enabled: true
Nonlinearity correction enabled: false
Boxcar width: 0
XAxis mode: Wavelengths
Number of Pixels in Spectrum: 3648
>>>>>Begin Spectral Data<<<<<
178.204	-179.71
178.424	-179.71
178.644	-179.71
178.864	-146.94
179.084	-159.23
179.304	-46.59
179.524	0.51
179.744	0.51
179.964	27.14
180.184	12.8
180.404	33.28
180.624	80.38
180.844	16.9
181.064	-44.54
181.283	2.56
181.503	-42.5
181.723	-40.45
181.943	-34.3
182.163	84.48
182.383	0.51
182.602	115.2
182.822	-3.58
183.042	33.28
183.262	-30.21
183.482	-32.26
183.701	-1.54
183.921	-36.35
184.141	2.56
184.361	135.68
184.58	43.52
184.8	0.51
185.02	8.7
185.239	33.28
185.459	20.99
185.679	59.9
185.898	59.9
186.118	43.52
186.338	10.75
186.557	78.33
186.777	10.75
186.997	-28.16
187.216	74.24
187.436	90.62
187.655	45.57
187.875	16.9
188.095	2.56
188.314	82.43
188.534	45.57
188.753	88.57
188.973	82.43
189.192	35.33
189.412	37.38
189.631	29.18
189.851	4.61
190.07	25.09
190.29	2.56
190.509	2.56
190.729	6.66
190.948	49.66
191.168	125.44
191.387	96.77
191.607	12.8
191.826	20.99
192.045	43.52
192.265	8.7
192.484	-7.68
192.704	18.94
192.923	-65.02
193.142	98.81
193.362	45.57
193.581	47.62
193.8	57.86
194.02	16.9
194.239	0.51
194.458	33.28
194.678	43.52
194.897	43.52
195.116	47.62
195.335	-46.59
195.555	-7.68
195.774	-3.58
195.993	41.47
196.212	-46.59
196.432	-9.73
196.651	47.62
196.87	35.33
197.089	27.14
197.308	31.23
197.528	76.29
197.747	-11.78
197.966	0.51
198.185	147.97
198.404	-28.16
198.623	57.86
198.842	64
199.062	102.91
199.281	131.58
199.5	49.66
199.719	25.09
199.938	33.28
200.157	41.47
200.376	-1.54
200.595	55.81
200.814	25.09
201.033	82.43
201.252	90.62
201.471	-7.68
201.69	100.86
201.909	33.28
202.128	104.96
202.347	0.51
202.566	31.23
202.785	-5.63
203.004	-85.5
203.223	82.43
203.442	57.86
203.661	-56.83
203.879	-36.35
204.098	10.75
204.317	-32.26
204.536	20.99
204.755	29.18
204.974	4.61
205.193	8.7
205.411	80.38
205.63	41.47
205.849	12.8
206.068	-46.59
206.287	-13.82
206.505	78.33
206.724	-62.98
206.943	68.09
207.162	4.61
207.381	-5.63
207.599	-38.4
207.818	127.49
208.037	-3.58
208.255	-38.4
208.474	86.53
208.693	-58.88
208.911	-22.02
209.13	29.18
209.349	49.66
209.567	41.47
209.786	18.94
210.005	12.8
210.223	25.09
210.442	45.57
210.661	8.7
210.879	47.62
211.098	41.47
211.316	-15.87
211.535	70.14
211.753	0.51
211.972	25.09
212.191	-36.35
212.409	0.51
212.628	31.23
212.846	-30.21
213.065	41.47
213.283	41.47
213.502	35.33
213.72	6.66
213.938	-3.58
214.157	-22.02
214.375	31.23
214.594	18.94
214.812	-30.21
215.031	25.09
215.249	37.38
215.467	20.99
215.686	33.28
215.904	76.29
216.122	33.28
216.341	84.48
216.559	-30.21
216.778	90.62
216.996	4.61
217.214	10.75
217.432	25.09
217.651	74.24
217.869	-3.58
218.087	20.99
218.306	-71.17
218.524	41.47
218.742	72.19
218.96	76.29
219.179	55.81
219.397	10.75
219.615	121.34
219.833	45.57
220.051	55.81
220.27	70.14
220.488	45.57
220.706	-1.54
220.924	16.9
221.142	16.9
221.36	43.52
221.578	125.44
221.796	86.53
222.015	41.47
222.233	-15.87
222.451	25.09
222.669	10.75
222.887	20.99
223.105	43.52
223.323	4.61
223.541	-38.4
223.759	8.7
223.977	18.94
224.195	68.09
224.413	39.42
224.631	-15.87
224.849	74.24
225.067	150.01
225.285	29.18
225.503	-11.78
225.721	-50.69
225.939	41.47
226.157	6.66
226.375	117.25
226.592	43.52
226.81	66.05
227.028	43.52
227.246	115.2
227.464	20.99
227.682	27.14
227.9	115.2
228.117	57.86
228.335	68.09
228.553	-1.54
228.771	27.14
228.989	86.53
229.206	109.05
229.424	131.58
229.642	66.05
229.86	-30.21
230.077	-3.58
230.295	61.95
230.513	57.86
230.731	-44.54
230.948	90.62
231.166	119.29
231.384	27.14
231.601	-11.78
231.819	35.33
232.037	2.56
232.254	12.8
232.472	25.09
232.689	41.47
232.907	27.14
233.125	53.76
233.342	-38.4
233.56	0.51
233.777	-15.87
233.995	-95.74
234.213	59.9
234.43	-15.87
234.648	-28.16
234.865	29.18
235.083	29.18
235.3	37.38
235.518	49.66
235.735	-1.54
235.953	61.95
236.17	16.9
236.388	27.14
236.605	45.57
236.822	64
237.04	51.71
237.257	66.05
237.475	57.86
237.692	25.09
237.909	25.09
238.127	-28.16
238.344	64
238.562	35.33
238.779	-13.82
238.996	29.18
239.214	37.38
239.431	51.71
239.648	-32.26
239.865	35.33
240.083	123.39
240.3	-11.78
240.517	49.66
240.735	92.67
240.952	84.48
241.169	119.29
241.386	-24.06
241.603	57.86
241.821	0.51
242.038	-1.54
242.255	49.66
242.472	59.9
242.689	53.76
242.907	113.15
243.124	94.72
243.341	57.86
243.558	-85.5
243.775	27.14
243.992	-5.63
244.209	10.75
244.426	66.05
244.643	37.38
244.86	-36.35
245.078	-11.78
245.295	57.86
245.512	92.67
245.729	43.52
245.946	-7.68
246.163	74.24
246.38	74.24
246.597	74.24
246.814	-7.68
247.031	16.9
247.248	43.52
247.464	43.52
247.681	0.51
247.898	53.76
248.115	35.33
248.332	-9.73
248.549	25.09
248.766	82.43
248.983	4.61
249.2	12.8
249.417	53.76
249.633	16.9
249.85	133.63
250.067	12.8
250.284	76.29
250.501	41.47
250.717	55.81
250.934	-73.21
251.151	27.14
251.368	-19.97
251.585	47.62
251.801	-19.97
252.018	33.28
252.235	66.05
252.451	-40.45
252.668	-17.92
252.885	53.76
253.102	41.47
253.318	57.86
253.535	47.62
253.752	-38.4
253.968	43.52
254.185	4.61
254.401	-11.78
254.618	8.7
254.835	33.28
255.051	74.24
255.268	47.62
255.484	49.66
255.701	59.9
255.917	70.14
256.134	-17.92
256.351	78.33
256.567	-30.21
256.784	27.14
257	-26.11
257.217	131.58
257.433	27.14
257.65	-52.74
257.866	-38.4
258.082	61.95
258.299	-19.97
258.515	33.28
258.732	41.47
258.948	-1.54
259.165	61.95
259.381	-40.45
259.597	-3.58
259.814	74.24
260.03	-7.68
260.246	-40.45
260.463	82.43
260.679	57.86
260.895	-11.78
261.112	57.86
261.328	6.66
261.544	20.99
261.761	164.35
261.977	39.42
262.193	-62.98
262.409	64
262.626	33.28
262.842	43.52
263.058	-5.63
263.274	78.33
263.49	23.04
263.707	74.24
263.923	33.28
264.139	-65.02
264.355	82.43
264.571	90.62
264.787	-44.54
265.004	66.05
265.22	59.9
265.436	43.52
265.652	-5.63
265.868	51.71
266.084	-56.83
266.3	4.61
266.516	-19.97
266.732	33.28
266.948	-40.45
267.164	72.19
267.38	8.7
267.596	74.24
267.812	41.47
268.028	35.33
268.244	29.18
268.46	94.72
268.676	10.75
268.892	35.33
269.108	0.51
269.324	-7.68
269.54	-50.69
269.756	16.9
269.972	-7.68
270.188	27.14
270.403	-81.41
270.619	115.2
270.835	-5.63
271.051	-30.21
271.267	33.28
271.483	18.94
271.698	-3.58
271.914	10.75
272.13	14.85
272.346	16.9
272.562	94.72
272.777	-30.21
272.993	-30.21
273.209	49.66
273.425	0.51
273.64	84.48
273.856	10.75
274.072	74.24
274.287	78.33
274.503	74.24
274.719	43.52
274.934	59.9
275.15	16.9
275.366	49.66
275.581	-44.54
275.797	35.33
276.012	-38.4
276.228	90.62
276.444	12.8
276.659	-5.63
276.875	45.57
277.09	-11.78
277.306	4.61
277.521	53.76
277.737	16.9
277.952	125.44
278.168	86.53
278.383	43.52
278.599	-19.97
278.814	76.29
279.03	33.28
279.245	59.9
279.461	8.7
279.676	35.33
279.892	-56.83
280.107	2.56
280.322	51.71
280.538	0.51
280.753	41.47
280.969	16.9
281.184	84.48
281.399	64
281.615	59.9
281.83	33.28
282.045	8.7
282.26	-30.21
282.476	-22.02
282.691	-7.68
282.906	-3.58
283.122	33.28
283.337	-7.68
283.552	82.43
283.767	27.14
283.983	25.09
284.198	115.2
284.413	57.86
284.628	43.52
284.843	49.66
285.058	66.05
285.274	25.09
285.489	8.7
285.704	23.04
285.919	33.28
286.134	16.9
286.349	0.51
286.564	-15.87
286.779	98.81
286.995	68.09
287.21	-3.58
287.425	-28.16
287.64	-19.97
287.855	84.48
288.07	-17.92
288.285	125.44
288.5	45.57
288.715	37.38
288.93	16.9
289.145	-13.82
289.36	-19.97
289.575	12.8
289.79	72.19
290.004	109.05
290.219	41.47
290.434	35.33
290.649	-1.54
290.864	-32.26
291.079	33.28
291.294	-7.68
291.509	47.62
291.724	-19.97
291.938	49.66
292.153	49.66
292.368	-32.26
292.583	-19.97
292.798	66.05
293.012	59.9
293.227	57.86
293.442	37.38
293.657	18.94
293.871	86.53
294.086	-11.78
294.301	66.05
294.516	98.81
294.73	57.86
294.945	12.8
295.16	98.81
295.374	25.09
295.589	12.8
295.804	27.14
296.018	-24.06
296.233	115.2
296.447	16.9
296.662	-65.02
296.877	66.05
297.091	53.76
297.306	35.33
297.52	49.66
297.735	98.81
297.949	57.86
298.164	107.01
298.378	76.29
298.593	2.56
298.807	14.85
299.022	49.66
299.236	117.25
299.451	-19.97
299.665	35.33
299.88	51.71
300.094	-7.68
300.309	82.43
300.523	25.09
300.737	49.66
300.952	-1.54
301.166	66.05
301.381	86.53
301.595	27.14
301.809	16.9
302.024	-54.78
302.238	-34.3
302.452	37.38
302.667	-7.68
302.881	51.71
303.095	-40.45
303.309	-34.3
303.524	25.09
303.738	35.33
303.952	57.86
304.166	8.7
304.381	-38.4
304.595	61.95
304.809	23.04
305.023	-15.87
305.237	35.33
305.452	78.33
305.666	53.76
305.88	119.29
306.094	57.86
306.308	90.62
306.522	68.09
306.736	43.52
306.95	-3.58
307.164	37.38
307.379	-65.02
307.593	84.48
307.807	61.95
308.021	49.66
308.235	41.47
308.449	-5.63
308.663	8.7
308.877	133.63
309.091	41.47
309.305	8.7
309.519	-73.21
309.733	125.44
309.947	0.51
310.161	51.71
310.374	66.05
310.588	74.24
310.802	2.56
311.016	-7.68
311.23	55.81
311.444	-5.63
311.658	20.99
311.872	25.09
312.085	86.53
312.299	43.52
312.513	31.23
312.727	53.76
312.941	23.04
313.154	92.67
313.368	14.85
313.582	31.23
313.796	-32.26
314.009	37.38
314.223	78.33
314.437	82.43
314.651	141.82
314.864	25.09
315.078	-3.58
315.292	35.33
315.505	29.18
315.719	76.29
315.933	12.8
316.146	-7.68
316.36	59.9
316.573	0.51
316.787	84.48
317.001	66.05
317.214	76.29
317.428	33.28
317.641	-13.82
317.855	-40.45
318.068	61.95
318.282	78.33
318.495	64
318.709	27.14
318.922	-13.82
319.136	172.54
319.349	41.47
319.563	12.8
319.776	74.24
319.99	-24.06
320.203	8.7
320.417	72.19
320.63	2.56
320.843	64
321.057	8.7
321.27	41.47
321.483	94.72
321.697	0.51
321.91	51.71
322.124	16.9
322.337	35.33
322.55	8.7
322.763	23.04
322.977	-24.06
323.19	-19.97
323.403	61.95
323.617	-60.93
323.83	90.62
324.043	45.57
324.256	72.19
324.469	6.66
324.683	66.05
324.896	-42.5
325.109	0.51
325.322	16.9
325.535	0.51
325.748	29.18
325.962	-69.12
326.175	150.01
326.388	8.7
326.601	53.76
326.814	78.33
327.027	68.09
327.24	68.09
327.453	-22.02
327.666	117.25
327.879	35.33
328.092	23.04
328.305	66.05
328.518	45.57
328.731	82.43
328.944	76.29
329.157	14.85
329.37	12.8
329.583	100.86
329.796	55.81
330.009	4.61
330.222	74.24
330.435	111.1
330.648	-11.78
330.861	-48.64
331.073	59.9
331.286	59.9
331.499	86.53
331.712	25.09
331.925	12.8
332.138	0.51
332.35	37.38
332.563	82.43
332.776	12.8
332.989	33.28
333.202	6.66
333.414	78.33
333.627	107.01
333.84	-5.63
334.053	-22.02
334.265	59.9
334.478	-32.26
334.691	-1.54
334.903	47.62
335.116	-11.78
335.329	90.62
335.541	0.51
335.754	90.62
335.966	86.53
336.179	12.8
336.392	35.33
336.604	78.33
336.817	61.95
337.029	92.67
337.242	4.61
337.454	107.01
337.667	59.9
337.88	160.25
338.092	84.48
338.305	25.09
338.517	-22.02
338.729	49.66
338.942	98.81
339.154	4.61
339.367	6.66
339.579	57.86
339.792	-34.3
340.004	76.29
340.217	25.09
340.429	16.9
340.641	74.24
340.854	16.9
341.066	-17.92
341.278	51.71
341.491	133.63
341.703	41.47
341.915	-40.45
342.128	102.91
342.34	41.47
342.552	6.66
342.764	-34.3
342.977	53.76
343.189	31.23
343.401	33.28
343.613	-42.5
343.826	18.94
344.038	49.66
344.25	82.43
344.462	-5.63
344.674	25.09
344.886	10.75
345.099	100.86
345.311	41.47
345.523	-22.02
345.735	-71.17
345.947	43.52
346.159	37.38
346.371	-7.68
346.583	18.94
346.795	131.58
347.007	0.51
347.219	123.39
347.431	59.9
347.643	76.29
347.855	45.57
348.067	53.76
348.279	78.33
348.491	37.38
348.703	70.14
348.915	-15.87
349.127	-44.54
349.339	59.9
349.551	-15.87
349.763	20.99
349.975	2.56
350.187	41.47
350.399	115.2
350.61	-30.21
350.822	98.81
351.034	49.66
351.246	68.09
351.458	125.44
351.669	-44.54
351.881	51.71
352.093	70.14
352.305	72.19
352.517	-54.78
352.728	51.71
352.94	18.94
353.152	49.66
353.363	-15.87
353.575	43.52
353.787	94.72
353.999	39.42
354.21	92.67
354.422	78.33
354.633	96.77
354.845	16.9
355.057	64
355.268	35.33
355.48	90.62
355.692	33.28
355.903	41.47
356.115	88.57
356.326	53.76
356.538	94.72
356.749	100.86
356.961	131.58
357.172	20.99
357.384	-13.82
357.595	59.9
357.807	41.47
358.018	37.38
358.23	57.86
358.441	53.76
358.653	0.51
358.864	-7.68
359.075	27.14
359.287	90.62
359.498	100.86
359.709	70.14
359.921	94.72
360.132	84.48
360.344	76.29
360.555	8.7
360.766	74.24
360.977	113.15
361.189	78.33
361.4	33.28
361.611	109.05
361.823	92.67
362.034	25.09
362.245	45.57
362.456	2.56
362.667	78.33
362.879	53.76
363.09	8.7
363.301	115.2
363.512	78.33
363.723	14.85
363.935	55.81
364.146	61.95
364.357	47.62
364.568	94.72
364.779	-19.97
364.99	94.72
365.201	51.71
365.412	66.05
365.623	20.99
365.834	115.2
366.045	-15.87
366.256	82.43
366.467	74.24
366.678	45.57
366.889	72.19
367.1	57.86
367.311	82.43
367.522	66.05
367.733	98.81
367.944	4.61
368.155	49.66
368.366	51.71
368.577	2.56
368.788	25.09
368.999	2.56
369.209	90.62
369.42	14.85
369.631	76.29
369.842	43.52
370.053	-3.58
370.264	86.53
370.474	96.77
370.685	61.95
370.896	8.7
371.107	152.06
371.317	-3.58
371.528	25.09
371.739	43.52
371.95	14.85
372.16	27.14
372.371	-22.02
372.582	41.47
372.792	70.14
373.003	29.18
373.214	143.87
373.424	57.86
373.635	59.9
373.846	55.81
374.056	107.01
374.267	100.86
374.477	76.29
374.688	16.9
374.898	4.61
375.109	49.66
375.319	33.28
375.53	109.05
375.74	117.25
375.951	82.43
376.161	82.43
376.372	98.81
376.582	35.33
376.793	25.09
377.003	16.9
377.214	49.66
377.424	-32.26
377.635	0.51
377.845	-19.97
378.055	59.9
378.266	45.57
378.476	2.56
378.686	2.56
378.897	49.66
379.107	92.67
379.317	129.53
379.528	64
379.738	84.48
379.948	29.18
380.158	102.91
380.369	64
380.579	41.47
380.789	-7.68
380.999	20.99
381.21	131.58
381.42	45.57
381.63	78.33
381.84	41.47
382.05	-13.82
382.261	115.2
382.471	20.99
382.681	70.14
382.891	111.1
383.101	45.57
383.311	16.9
383.521	80.38
383.731	35.33
383.941	100.86
384.151	-19.97
384.361	49.66
384.571	86.53
384.781	129.53
384.991	84.48
385.201	70.14
385.411	49.66
385.621	47.62
385.831	8.7
386.041	37.38
386.251	-28.16
386.461	107.01
386.671	90.62
386.881	41.47
387.091	59.9
387.301	43.52
387.511	39.42
387.72	127.49
387.93	84.48
388.14	41.47
388.35	86.53
388.56	66.05
388.769	115.2
388.979	31.23
389.189	8.7
389.399	45.57
389.609	47.62
389.818	70.14
390.028	74.24
390.238	115.2
390.447	70.14
390.657	96.77
390.867	25.09
391.076	25.09
391.286	92.67
391.496	137.73
391.705	43.52
391.915	70.14
392.125	-7.68
392.334	41.47
392.544	127.49
392.753	33.28
392.963	66.05
393.172	-5.63
393.382	4.61
393.591	182.78
393.801	68.09
394.01	111.1
394.22	76.29
394.429	-34.3
394.639	137.73
394.848	82.43
395.058	78.33
395.267	68.09
395.477	66.05
395.686	123.39
395.895	57.86
396.105	92.67
396.314	78.33
396.524	109.05
396.733	98.81
396.942	190.97
397.152	123.39
397.361	123.39
397.57	102.91
397.78	205.31
397.989	121.34
398.198	168.45
398.407	55.81
398.617	119.29
398.826	141.82
399.035	147.97
399.244	125.44
399.453	86.53
399.663	150.01
399.872	172.54
400.081	94.72
400.29	107.01
400.499	115.2
400.708	254.46
400.917	139.77
401.127	139.77
401.336	172.54
401.545	119.29
401.754	135.68
401.963	123.39
402.172	25.09
402.381	121.34
402.59	88.57
402.799	66.05
403.008	107.01
403.217	119.29
403.426	139.77
403.635	156.16
403.844	160.25
404.053	125.44
404.262	172.54
404.471	291.32
404.68	150.01
404.888	119.29
405.097	129.53
405.306	256.51
405.515	221.69
405.724	129.53
405.933	197.12
406.142	293.37
406.35	225.79
406.559	205.31
406.768	238.08
406.977	336.38
407.185	260.6
407.394	250.36
407.603	260.6
407.812	311.8
408.02	315.9
408.229	272.89
408.438	311.8
408.646	223.74
408.855	289.28
409.064	348.67
409.272	393.72
409.481	330.23
409.69	401.91
409.898	352.76
410.107	434.68
410.315	385.53
410.524	356.86
410.733	461.3
410.941	336.38
411.15	504.31
411.358	412.15
411.567	492.02
411.775	498.17
411.984	500.22
412.192	584.18
412.401	463.35
412.609	635.38
412.818	643.57
413.026	619
413.234	565.75
413.443	641.53
413.651	639.48
413.86	750.07
414.068	782.84
414.276	737.78
414.485	772.6
414.693	721.4
414.901	844.28
415.11	862.71
415.318	926.19
415.526	877.04
415.734	950.77
415.943	956.91
416.151	954.87
416.359	922.1
416.567	1049.07
416.776	1034.74
416.984	1124.85
417.192	1133.04
417.4	1229.29
417.608	1311.21
417.817	1268.2
418.025	1333.74
418.233	1559.02
418.441	1368.56
418.649	1452.52
418.857	1614.31
419.065	1624.55
419.273	1626.6
419.481	1729
419.689	1724.9
419.897	1876.45
420.105	1796.58
420.313	1917.41
420.521	1964.51
420.729	2007.52
420.937	2169.31
421.145	2089.44
421.353	2277.85
421.561	2392.54
421.769	2482.65
421.977	2458.07
422.185	2548.19
422.393	2638.3
422.601	2847.19
422.809	2851.28
423.017	2804.18
423.224	2882
423.432	3088.85
423.64	3101.14
423.848	3453.39
424.056	3330.51
424.263	3570.12
424.471	3615.18
424.679	3611.08
424.887	3768.77
425.094	3895.75
425.302	3918.28
425.51	3932.61
425.718	4270.53
425.925	4131.26
426.133	4346.3
426.341	4630.97
426.548	4759.99
426.756	4850.1
426.964	4932.02
427.171	5079.47
427.379	5392.81
427.586	5460.4
427.794	5579.18
428.001	5980.58
428.209	5843.37
428.417	5890.47
428.624	6513.05
428.832	6336.93
429.039	6472.09
429.247	6427.04
429.454	6955.41
429.662	7457.17
429.869	6955.41
430.076	7342.48
430.284	7225.75
430.491	7479.69
430.699	7891.34
430.906	7946.63
431.114	8049.03
431.321	8335.74
431.528	8540.54
431.736	8948.09
431.943	9353.59
432.15	9091.45
432.358	9300.34
432.565	9843.05
432.772	9675.12
432.979	10199.4
433.187	10258.79
433.394	10441.06
433.601	11231.57
433.808	11313.49
434.016	11207
434.223	11747.66
434.43	12355.91
434.637	12069.19
434.844	12874.04
435.052	13117.75
435.259	12796.22
435.466	13390.13
435.673	12910.91
435.88	13783.34
436.087	14496.03
436.294	14653.73
436.501	14250.28
436.708	14430.5
436.915	14889.24
437.122	15687.95
437.329	15507.73
437.537	16079.11
437.743	16292.1
437.95	16269.58
438.157	17031.42
438.364	17467.64
438.571	17885.42
438.778	17705.2
438.985	19312.86
439.192	18358.5
439.399	18833.63
439.606	18716.9
439.813	19534.04
440.02	20766.92
440.227	20363.47
440.433	20046.03
440.64	20992.19
440.847	20629.7
441.054	21094.59
441.261	22663.33
441.467	22263.98
441.674	22681.77
441.881	23720.09
442.088	23713.94
442.294	23314.59
442.501	23777.43
442.708	24559.75
442.914	25503.87
443.121	26527.85
443.328	25761.91
443.534	27408.48
443.741	26652.78
443.948	26220.66
444.154	28137.55
444.361	27902.04
444.568	28354.64
444.774	28581.96
444.981	28809.29
445.187	29587.52
445.394	30539.82
445.6	29950.01
445.807	33650.69
446.013	31797.27
446.22	32071.7
446.426	33642.49
446.633	34088.95
446.839	35039.21
447.046	33509.38
447.252	35264.49
447.459	35598.3
447.665	35305.45
447.871	36734.93
448.078	38533.04
448.284	36644.82
448.491	37406.66
448.697	38743.98
448.903	39514.02
449.11	40032.16
449.316	39090.09
449.522	39833.5
449.728	41013.13
449.935	41168.78
450.141	41453.45
450.347	42258.3
450.553	40556.44
450.76	41351.05
450.966	42549.11
451.172	42309.5
451.378	43028.34
451.584	42340.22
451.791	43331.43
451.997	43202.41
452.203	44066.66
452.409	43915.11
452.615	43677.54
452.821	42147.71
453.027	41766.79
453.233	43911.01
453.44	42205.05
453.646	42735.48
453.852	42694.52
454.058	43396.97
454.264	41998.21
454.47	42952.56
454.676	42106.75
454.882	43429.74
455.088	39919.52
455.294	40247.19
455.5	40945.55
455.705	41484.17
455.911	39700.39
456.117	39108.52
456.323	38416.31
456.529	36267.99
456.735	38293.43
456.941	37117.9
457.147	36427.73
457.352	35207.14
457.558	35065.83
457.764	35084.26
457.97	33941.5
458.176	33988.6
458.381	33626.11
458.587	32079.89
458.793	32153.62
458.999	30156.85
459.204	32370.71
459.41	31647.77
459.616	29321.28
459.821	29294.66
460.027	29454.4
460.233	28500.05
460.438	27390.05
460.644	27392.09
460.85	26607.72
461.055	25661.56
461.261	25804.92
461.466	23961.75
461.672	23126.18
461.878	24893.57
462.083	23058.59
462.289	22714.53
462.494	22659.24
462.7	21698.74
462.905	21049.53
463.111	22003.89
463.316	21768.37
463.522	21309.63
463.727	21139.65
463.932	20969.66
464.138	21024.96
464.343	20871.36
464.549	20195.53
464.754	21045.44
464.959	20900.03
465.165	21014.72
465.37	19841.23
465.575	19425.5
465.781	19900.62
465.986	20347.08
466.191	19392.73
466.397	18964.7
466.602	18206.95
466.807	18673.89
467.012	18663.65
467.218	18393.32
467.423	18389.22
467.628	18508.01
467.833	19407.06
