Data from USB4F104151__176__14-32-43-910.txt Node

Date: Thu Mar 13 14:32:43 EDT 2025
User: louis
Spectrometer: USB4F10415
Trigger mode: 4
Integration Time (sec): 2.500000E-2
Scans to average: 1
Electric dark correction enabled: true
Nonlinearity correction enabled: false
Boxcar width: 0
XAxis mode: Wavelengths
Number of Pixels in Spectrum: 3648
>>>>>Begin Spectral Data<<<<<
178.204	-149.84
178.424	-149.84
178.644	-149.84
178.864	-153.94
179.084	-110.93
179.304	-72.02
179.524	-16.73
179.744	30.38
179.964	16.04
180.184	93.87
180.404	-53.59
180.624	-6.49
180.844	63.15
181.064	-41.3
181.283	7.85
181.503	-94.55
181.723	73.39
181.943	-67.92
182.163	38.57
182.383	61.1
182.602	40.62
182.822	20.14
183.042	102.06
183.262	-53.59
183.482	-16.73
183.701	69.29
183.921	44.71
184.141	5.8
184.361	77.48
184.58	-4.44
184.8	13.99
185.02	5.8
185.239	69.29
185.459	9.9
185.679	59.05
185.898	28.33
186.118	87.72
186.338	9.9
186.557	63.15
186.777	-84.31
186.997	28.33
187.216	69.29
187.436	-12.63
187.655	-35.16
187.875	-16.73
188.095	93.87
188.314	46.76
188.534	57
188.753	-82.26
188.973	61.1
189.192	38.57
189.412	52.91
189.631	24.23
189.851	-12.63
190.07	54.95
190.29	-51.54
190.509	44.71
190.729	-4.44
190.948	20.14
191.168	77.48
191.387	-4.44
191.607	-8.53
191.826	61.1
192.045	7.85
192.265	34.47
192.484	-24.92
192.704	11.95
192.923	-18.77
193.142	104.11
193.362	-18.77
193.581	85.67
193.8	38.57
194.02	5.8
194.239	57
194.458	-4.44
194.678	-8.53
194.897	-10.58
195.116	-0.34
195.335	95.91
195.555	18.09
195.774	-18.77
195.993	97.96
196.212	5.8
196.432	9.9
196.651	-37.2
196.87	-2.39
197.089	61.1
197.308	36.52
197.528	71.34
197.747	-74.07
197.966	-35.16
198.185	97.96
198.404	52.91
198.623	61.1
198.842	95.91
199.062	36.52
199.281	63.15
199.5	-2.39
199.719	44.71
199.938	11.95
200.157	108.2
200.376	69.29
200.595	65.19
200.814	42.67
201.033	-10.58
201.252	24.23
201.471	95.91
201.69	65.19
201.909	-12.63
202.128	63.15
202.347	38.57
202.566	7.85
202.785	-2.39
203.004	-59.73
203.223	34.47
203.442	50.86
203.661	7.85
203.879	-0.34
204.098	44.71
204.317	61.1
204.536	-10.58
204.755	75.43
204.974	5.8
205.193	38.57
205.411	36.52
205.63	77.48
205.849	57
206.068	36.52
206.287	-10.58
206.505	3.75
206.724	20.14
206.943	32.43
207.162	16.04
207.381	-88.4
207.599	9.9
207.818	-4.44
208.037	-18.77
208.255	16.04
208.474	36.52
208.693	100.01
208.911	24.23
209.13	11.95
209.349	-26.96
209.567	57
209.786	73.39
210.005	63.15
210.223	13.99
210.442	-37.2
210.661	22.19
210.879	-16.73
211.098	3.75
211.316	69.29
211.535	73.39
211.753	-55.64
211.972	106.15
212.191	42.67
212.409	24.23
212.628	11.95
212.846	-26.96
213.065	65.19
213.283	61.1
213.502	63.15
213.72	-29.01
213.938	18.09
214.157	11.95
214.375	118.44
214.594	28.33
214.812	108.2
215.031	-16.73
215.249	85.67
215.467	85.67
215.686	16.04
215.904	52.91
216.122	20.14
216.341	44.71
216.559	-8.53
216.778	16.04
216.996	85.67
217.214	-6.49
217.432	16.04
217.651	-10.58
217.869	79.53
218.087	3.75
218.306	28.33
218.524	16.04
218.742	13.99
218.96	83.63
219.179	-57.68
219.397	69.29
219.615	73.39
219.833	-6.49
220.051	16.04
220.27	-16.73
220.488	30.38
220.706	24.23
220.924	32.43
221.142	20.14
221.36	22.19
221.578	-57.68
221.796	28.33
222.015	32.43
222.233	-12.63
222.451	54.95
222.669	11.95
222.887	-53.59
223.105	30.38
223.323	-26.96
223.541	18.09
223.759	59.05
223.977	61.1
224.195	71.34
224.413	81.58
224.631	28.33
224.849	50.86
225.067	20.14
225.285	24.23
225.503	24.23
225.721	3.75
225.939	46.76
226.157	-49.49
226.375	126.63
226.592	-24.92
226.81	44.71
227.028	11.95
227.246	114.34
227.464	46.76
227.682	104.11
227.9	132.78
228.117	46.76
228.335	9.9
228.553	57
228.771	69.29
228.989	44.71
229.206	3.75
229.424	-8.53
229.642	40.62
229.86	-47.44
230.077	54.95
230.295	-33.11
230.513	77.48
230.731	57
230.948	24.23
231.166	124.58
231.384	-10.58
231.601	16.04
231.819	120.49
232.037	30.38
232.254	-2.39
232.472	3.75
232.689	13.99
232.907	28.33
233.125	36.52
233.342	-12.63
233.56	-35.16
233.777	22.19
233.995	-20.82
234.213	44.71
234.43	40.62
234.648	11.95
234.865	36.52
235.083	-45.4
235.3	13.99
235.518	-0.34
235.735	46.76
235.953	-2.39
236.17	36.52
236.388	-55.64
236.605	11.95
236.822	38.57
237.04	40.62
237.257	-24.92
237.475	30.38
237.692	28.33
237.909	34.47
238.127	30.38
238.344	42.67
238.562	5.8
238.779	-2.39
238.996	13.99
239.214	16.04
239.431	42.67
239.648	-4.44
239.865	-8.53
240.083	44.71
240.3	-20.82
240.517	-33.11
240.735	24.23
240.952	59.05
241.169	-10.58
241.386	85.67
241.603	36.52
241.821	-4.44
242.038	28.33
242.255	81.58
242.472	-76.12
242.689	-6.49
242.907	57
243.124	11.95
243.341	52.91
243.558	-16.73
243.775	-24.92
243.992	-55.64
244.209	20.14
244.426	85.67
244.643	44.71
244.86	48.81
245.078	85.67
245.295	120.49
245.512	9.9
245.729	20.14
245.946	38.57
246.163	11.95
246.38	54.95
246.597	13.99
246.814	3.75
247.031	52.91
247.248	28.33
247.464	20.14
247.681	22.19
247.898	85.67
248.115	11.95
248.332	24.23
248.549	79.53
248.766	13.99
248.983	28.33
249.2	61.1
249.417	40.62
249.633	40.62
249.85	40.62
250.067	-8.53
250.284	-39.25
250.501	-18.77
250.717	-2.39
250.934	-59.73
251.151	-20.82
251.368	44.71
251.585	20.14
251.801	7.85
252.018	-29.01
252.235	69.29
252.451	77.48
252.668	-49.49
252.885	-8.53
253.102	106.15
253.318	-8.53
253.535	-8.53
253.752	11.95
253.968	16.04
254.185	13.99
254.401	16.04
254.618	46.76
254.835	13.99
255.051	20.14
255.268	28.33
255.484	20.14
255.701	32.43
255.917	48.81
256.134	-12.63
256.351	9.9
256.567	46.76
256.784	28.33
257	-16.73
257.217	-2.39
257.433	3.75
257.65	-59.73
257.866	50.86
258.082	-12.63
258.299	-20.82
258.515	63.15
258.732	-6.49
258.948	28.33
259.165	-12.63
259.381	54.95
259.597	-31.06
259.814	-2.39
260.03	44.71
260.246	44.71
260.463	118.44
260.679	50.86
260.895	32.43
261.112	22.19
261.328	63.15
261.544	11.95
261.761	87.72
261.977	-29.01
262.193	3.75
262.409	13.99
262.626	24.23
262.842	7.85
263.058	-12.63
263.274	61.1
263.49	18.09
263.707	20.14
263.923	3.75
264.139	13.99
264.355	69.29
264.571	89.77
264.787	69.29
265.004	134.82
265.22	-24.92
265.436	34.47
265.652	32.43
265.868	-2.39
266.084	36.52
266.3	28.33
266.516	-0.34
266.732	22.19
266.948	44.71
267.164	-31.06
267.38	36.52
267.596	52.91
267.812	124.58
268.028	-31.06
268.244	57
268.46	32.43
268.676	69.29
268.892	24.23
269.108	-0.34
269.324	-24.92
269.54	9.9
269.756	95.91
269.972	-4.44
270.188	28.33
270.403	20.14
270.619	-69.97
270.835	102.06
271.051	-2.39
271.267	46.76
271.483	38.57
271.698	-35.16
271.914	61.1
272.13	-4.44
272.346	42.67
272.562	32.43
272.777	106.15
272.993	-29.01
273.209	40.62
273.425	28.33
273.64	-43.35
273.856	11.95
274.072	-20.82
274.287	28.33
274.503	-12.63
274.719	44.71
274.934	-55.64
275.15	-59.73
275.366	69.29
275.581	-4.44
275.797	11.95
276.012	28.33
276.228	20.14
276.444	11.95
276.659	61.1
276.875	-14.68
277.09	24.23
277.306	59.05
277.521	36.52
277.737	-39.25
277.952	-8.53
278.168	79.53
278.383	85.67
278.599	13.99
278.814	13.99
279.03	52.91
279.245	59.05
279.461	83.63
279.676	52.91
279.892	11.95
280.107	32.43
280.322	-55.64
280.538	3.75
280.753	-12.63
280.969	112.3
281.184	-18.77
281.399	118.44
281.615	-24.92
281.83	11.95
282.045	20.14
282.26	46.76
282.476	-2.39
282.691	-12.63
282.906	46.76
283.122	-4.44
283.337	9.9
283.552	30.38
283.767	-59.73
283.983	38.57
284.198	16.04
284.413	16.04
284.628	-59.73
284.843	28.33
285.058	24.23
285.274	22.19
285.489	38.57
285.704	28.33
285.919	-33.11
286.134	7.85
286.349	-12.63
286.564	52.91
286.779	36.52
286.995	-2.39
287.21	3.75
287.425	79.53
287.64	28.33
287.855	77.48
288.07	28.33
288.285	110.25
288.5	140.97
288.715	89.77
288.93	81.58
289.145	-4.44
289.36	134.82
289.575	11.95
289.79	-18.77
290.004	-29.01
290.219	87.72
290.434	85.67
290.649	-18.77
290.864	-41.3
291.079	50.86
291.294	-10.58
291.509	-41.3
291.724	52.91
291.938	-29.01
292.153	48.81
292.368	48.81
292.583	7.85
292.798	57
293.012	28.33
293.227	24.23
293.442	36.52
293.657	-0.34
293.871	79.53
294.086	-41.3
294.301	7.85
294.516	16.04
294.73	-33.11
294.945	-35.16
295.16	-4.44
295.374	24.23
295.589	130.73
295.804	32.43
296.018	-4.44
296.233	52.91
296.447	-69.97
296.662	5.8
296.877	52.91
297.091	28.33
297.306	16.04
297.52	79.53
297.735	24.23
297.949	52.91
298.164	77.48
298.378	44.71
298.593	24.23
298.807	-37.2
299.022	36.52
299.236	73.39
299.451	79.53
299.665	-2.39
299.88	73.39
300.094	-6.49
300.309	-22.87
300.523	69.29
300.737	11.95
300.952	32.43
301.166	59.05
301.381	-12.63
301.595	28.33
301.809	71.34
302.024	-22.87
302.238	-69.97
302.452	28.33
302.667	22.19
302.881	54.95
303.095	61.1
303.309	-2.39
303.524	-29.01
303.738	79.53
303.952	-76.12
304.166	3.75
304.381	-24.92
304.595	16.04
304.809	91.82
305.023	9.9
305.237	48.81
305.452	13.99
305.666	18.09
305.88	65.19
306.094	13.99
306.308	-10.58
306.522	42.67
306.736	38.57
306.95	20.14
307.164	73.39
307.379	28.33
307.593	171.69
307.807	-53.59
308.021	93.87
308.235	11.95
308.449	-45.4
308.663	48.81
308.877	52.91
309.091	63.15
309.305	61.1
309.519	22.19
309.733	69.29
309.947	-10.58
310.161	95.91
310.374	7.85
310.588	89.77
310.802	-4.44
311.016	-18.77
311.23	75.43
311.444	-24.92
311.658	54.95
311.872	71.34
312.085	71.34
312.299	143.02
312.513	3.75
312.727	59.05
312.941	46.76
313.154	-4.44
313.368	46.76
313.582	28.33
313.796	3.75
314.009	46.76
314.223	61.1
314.437	7.85
314.651	89.77
314.864	9.9
315.078	3.75
315.292	7.85
315.505	89.77
315.719	57
315.933	30.38
316.146	38.57
316.36	-10.58
316.573	40.62
316.787	61.1
317.001	20.14
317.214	59.05
317.428	-18.77
317.641	-31.06
317.855	77.48
318.068	-51.54
318.282	-43.35
318.495	79.53
318.709	61.1
318.922	11.95
319.136	30.38
319.349	87.72
319.563	11.95
319.776	38.57
319.99	-18.77
320.203	36.52
320.417	52.91
320.63	-10.58
320.843	54.95
321.057	36.52
321.27	20.14
321.483	36.52
321.697	44.71
321.91	63.15
322.124	44.71
322.337	57
322.55	30.38
322.763	22.19
322.977	-4.44
323.19	28.33
323.403	30.38
323.617	73.39
323.83	65.19
324.043	16.04
324.256	-8.53
324.469	-4.44
324.683	16.04
324.896	-4.44
325.109	32.43
325.322	18.09
325.535	61.1
325.748	7.85
325.962	-26.96
326.175	30.38
326.388	-61.78
326.601	59.05
326.814	11.95
327.027	11.95
327.24	93.87
327.453	-51.54
327.666	126.63
327.879	69.29
328.092	-10.58
328.305	26.28
328.518	20.14
328.731	52.91
328.944	22.19
329.157	89.77
329.37	-8.53
329.583	-4.44
329.796	108.2
330.009	-16.73
330.222	46.76
330.435	11.95
330.648	-24.92
330.861	52.91
331.073	40.62
331.286	-10.58
331.499	54.95
331.712	11.95
331.925	-4.44
332.138	1.71
332.35	91.82
332.563	-29.01
332.776	11.95
332.989	-2.39
333.202	13.99
333.414	-6.49
333.627	-26.96
333.84	-33.11
334.053	77.48
334.265	-33.11
334.478	-26.96
334.691	1.71
334.903	52.91
335.116	-29.01
335.329	-4.44
335.541	1.71
335.754	93.87
335.966	13.99
336.179	-76.12
336.392	-35.16
336.604	16.04
336.817	28.33
337.029	28.33
337.242	32.43
337.454	48.81
337.667	71.34
337.88	28.33
338.092	16.04
338.305	-20.82
338.517	54.95
338.729	7.85
338.942	36.52
339.154	-16.73
339.367	-37.2
339.579	11.95
339.792	-49.49
340.004	28.33
340.217	28.33
340.429	97.96
340.641	-14.68
340.854	3.75
341.066	-14.68
341.278	91.82
341.491	46.76
341.703	44.71
341.915	-4.44
342.128	-4.44
342.34	114.34
342.552	18.09
342.764	-2.39
342.977	57
343.189	36.52
343.401	40.62
343.613	-2.39
343.826	28.33
344.038	-57.68
344.25	46.76
344.462	7.85
344.674	118.44
344.886	28.33
345.099	7.85
345.311	44.71
345.523	-26.96
345.735	30.38
345.947	3.75
346.159	-20.82
346.371	36.52
346.583	-6.49
346.795	52.91
347.007	7.85
347.219	36.52
347.431	13.99
347.643	79.53
347.855	85.67
348.067	3.75
348.279	-37.2
348.491	46.76
348.703	71.34
348.915	36.52
349.127	30.38
349.339	36.52
349.551	-4.44
349.763	-18.77
349.975	-12.63
350.187	44.71
350.399	52.91
350.61	71.34
350.822	5.8
351.034	18.09
351.246	24.23
351.458	36.52
351.669	-16.73
351.881	77.48
352.093	130.73
352.305	3.75
352.517	30.38
352.728	71.34
352.94	28.33
353.152	30.38
353.363	-29.01
353.575	11.95
353.787	73.39
353.999	11.95
354.21	114.34
354.422	-22.87
354.633	24.23
354.845	46.76
355.057	-12.63
355.268	-20.82
355.48	-26.96
355.692	40.62
355.903	16.04
356.115	65.19
356.326	-86.36
356.538	-2.39
356.749	22.19
356.961	52.91
357.172	85.67
357.384	-0.34
357.595	81.58
357.807	28.33
358.018	61.1
358.23	-31.06
358.441	-6.49
358.653	77.48
358.864	7.85
359.075	36.52
359.287	87.72
359.498	83.63
359.709	-49.49
359.921	52.91
360.132	46.76
360.344	-12.63
360.555	18.09
360.766	52.91
360.977	-29.01
361.189	-26.96
361.4	-47.44
361.611	3.75
361.823	36.52
362.034	79.53
362.245	-45.4
362.456	13.99
362.667	79.53
362.879	1.71
363.09	24.23
363.301	85.67
363.512	18.09
363.723	69.29
363.935	20.14
364.146	20.14
364.357	5.8
364.568	95.91
364.779	3.75
364.99	118.44
365.201	30.38
365.412	73.39
365.623	-47.44
365.834	40.62
366.045	57
366.256	16.04
366.467	110.25
366.678	1.71
366.889	36.52
367.1	22.19
367.311	61.1
367.522	20.14
367.733	22.19
367.944	54.95
368.155	40.62
368.366	79.53
368.577	48.81
368.788	93.87
368.999	57
369.209	-29.01
369.42	40.62
369.631	112.3
369.842	13.99
370.053	-6.49
370.264	149.16
370.474	20.14
370.685	30.38
370.896	46.76
371.107	102.06
371.317	28.33
371.528	13.99
371.739	77.48
371.95	-10.58
372.16	38.57
372.371	20.14
372.582	69.29
372.792	5.8
373.003	44.71
373.214	3.75
373.424	81.58
373.635	46.76
373.846	171.69
374.056	9.9
374.267	28.33
374.477	28.33
374.688	77.48
374.898	22.19
375.109	95.91
375.319	40.62
375.53	104.11
375.74	20.14
375.951	-2.39
376.161	-43.35
376.372	-45.4
376.582	-26.96
376.793	54.95
377.003	-29.01
377.214	28.33
377.424	83.63
377.635	52.91
377.845	-33.11
378.055	67.24
378.266	-29.01
378.476	-43.35
378.686	16.04
378.897	38.57
379.107	11.95
379.317	5.8
379.528	83.63
379.738	81.58
379.948	-12.63
380.158	30.38
380.369	57
380.579	79.53
380.789	44.71
380.999	85.67
381.21	7.85
381.42	93.87
381.63	-20.82
381.84	20.14
382.05	65.19
382.261	65.19
382.471	5.8
382.681	-2.39
382.891	71.34
383.101	71.34
383.311	-12.63
383.521	-33.11
383.731	20.14
383.941	126.63
384.151	9.9
384.361	24.23
384.571	-67.92
384.781	93.87
384.991	77.48
385.201	85.67
385.411	153.26
385.621	-45.4
385.831	42.67
386.041	93.87
386.251	71.34
386.461	36.52
386.671	89.77
386.881	67.24
387.091	36.52
387.301	116.39
387.511	134.82
387.72	44.71
387.93	38.57
388.14	-26.96
388.35	-37.2
388.56	-29.01
388.769	48.81
388.979	32.43
389.189	73.39
389.399	44.71
389.609	30.38
389.818	69.29
390.028	57
390.238	69.29
390.447	-0.34
390.657	102.06
390.867	95.91
391.076	20.14
391.286	-10.58
391.496	42.67
391.705	102.06
391.915	122.54
392.125	102.06
392.334	52.91
392.544	20.14
392.753	13.99
392.963	28.33
393.172	1.71
393.382	50.86
393.591	143.02
393.801	36.52
394.01	59.05
394.22	77.48
394.429	32.43
394.639	61.1
394.848	100.01
395.058	69.29
395.267	30.38
395.477	18.09
395.686	73.39
395.895	73.39
396.105	143.02
396.314	50.86
396.524	71.34
396.733	46.76
396.942	138.92
397.152	73.39
397.361	93.87
397.57	126.63
397.78	52.91
397.989	81.58
398.198	163.5
398.407	65.19
398.617	77.48
398.826	69.29
399.035	93.87
399.244	134.82
399.453	44.71
399.663	93.87
399.872	52.91
400.081	36.52
400.29	183.98
400.499	54.95
400.708	126.63
400.917	75.43
401.127	30.38
401.336	61.1
401.545	145.06
401.754	79.53
401.963	106.15
402.172	-0.34
402.381	106.15
402.59	87.72
402.799	128.68
403.008	130.73
403.217	59.05
403.426	97.96
403.635	28.33
403.844	102.06
404.053	77.48
404.262	134.82
404.471	122.54
404.68	145.06
404.888	93.87
405.097	44.71
405.306	97.96
405.515	153.26
405.724	87.72
405.933	102.06
406.142	100.01
406.35	134.82
406.559	110.25
406.768	118.44
406.977	118.44
407.185	77.48
407.394	171.69
407.603	151.21
407.812	161.45
408.02	186.02
408.229	145.06
408.438	138.92
408.646	155.3
408.855	194.22
409.064	167.59
409.272	183.98
409.481	202.41
409.69	282.28
409.898	208.55
410.107	265.89
410.315	263.85
410.524	151.21
410.733	192.17
410.941	171.69
411.15	274.09
411.358	298.66
411.567	269.99
411.775	245.41
411.984	261.8
412.192	339.62
412.401	315.05
412.609	372.39
412.818	382.63
413.026	366.25
413.234	321.19
413.443	331.43
413.651	362.15
413.86	413.35
414.068	396.96
414.276	493.22
414.485	351.91
414.693	442.02
414.901	462.5
415.11	458.4
415.318	474.79
415.526	540.32
415.734	562.85
415.943	523.94
416.151	579.23
416.359	636.58
416.567	585.38
416.776	595.62
416.984	738.98
417.192	738.98
417.4	722.59
417.608	673.44
417.817	679.58
418.025	800.41
418.233	913.05
418.441	781.98
418.649	855.71
418.857	865.95
419.065	1044.12
419.273	933.53
419.481	1072.79
419.689	1013.4
419.897	1007.26
420.105	1152.67
420.313	1070.75
420.521	1175.19
420.729	1259.16
420.937	1150.62
421.145	1271.45
421.353	1261.21
421.561	1369.75
421.769	1455.76
421.977	1412.76
422.185	1466
422.393	1527.44
422.601	1566.35
422.809	1552.02
423.017	1586.83
423.224	1703.57
423.432	1732.24
423.64	1744.53
423.848	2012.81
424.056	1891.98
424.263	2037.39
424.471	1992.33
424.679	2047.63
424.887	2158.22
425.094	2213.51
425.302	2219.66
425.51	2209.42
425.718	2477.7
425.925	2467.46
426.133	2561.67
426.341	2705.03
426.548	2733.7
426.756	2657.92
426.964	2813.57
427.171	2791.04
427.379	3018.36
427.586	2991.74
427.794	3153.53
428.001	3247.74
428.209	3440.25
428.417	3434.1
428.624	3616.37
428.832	3587.7
429.039	3708.53
429.247	3532.4
429.454	4040.3
429.662	4134.51
429.869	3960.43
430.076	4247.15
430.284	4134.51
430.491	4206.19
430.699	4533.86
430.906	4423.27
431.114	4566.63
431.321	4556.39
431.528	4990.56
431.736	5008.99
431.943	5434.97
432.15	5185.12
432.358	5181.02
432.565	5543.51
432.772	5578.33
432.979	5754.45
433.187	5811.79
433.394	6004.3
433.601	6245.96
433.808	6461
434.016	6229.58
434.223	6491.72
434.43	6878.79
434.637	6727.24
434.844	7368.25
435.052	7294.52
435.259	7278.14
435.466	7394.87
435.673	7392.83
435.88	7970.35
436.087	8072.75
436.294	8130.09
436.501	7941.68
436.708	8136.24
436.915	8386.09
437.122	8928.8
437.329	8834.6
437.537	8904.23
437.743	9178.65
437.95	9207.33
438.157	9494.04
438.364	9827.86
438.571	9690.65
438.778	9997.84
438.985	10655.24
439.192	10452.49
439.399	10731.01
439.606	10395.15
439.813	10974.72
440.02	11881.97
440.227	11406.84
440.433	11507.2
440.64	11890.17
440.847	11816.44
441.054	11898.36
441.261	12776.94
441.467	12621.29
441.674	13057.51
441.881	13376.99
442.088	13227.49
442.294	13166.05
442.501	13428.19
442.708	13946.33
442.914	14263.76
443.121	14876.1
443.328	14495.18
443.534	15424.96
443.741	15027.65
443.948	15058.37
444.154	16145.84
444.361	16209.33
444.568	15977.91
444.774	15904.18
444.981	16281.01
445.187	16553.39
445.394	17487.26
445.6	17163.68
445.807	18914.7
446.013	17970.58
446.22	18206.1
446.426	19004.81
446.633	19205.51
446.839	19594.62
447.046	18759.05
447.252	20061.56
447.459	20002.17
447.665	19938.68
447.871	20972.91
448.078	21552.48
448.284	20772.21
448.491	21417.32
448.697	21890.4
448.903	22488.4
449.11	22476.12
449.316	22291.8
449.522	22472.02
449.728	23334.21
449.935	23313.73
450.141	23539.01
450.347	23811.39
450.553	23139.66
450.76	23504.2
450.966	24239.42
451.172	23698.75
451.378	24626.48
451.584	23932.22
451.791	24440.12
451.997	24634.67
452.203	25066.8
452.409	24892.72
452.615	24718.64
452.821	23625.03
453.027	23676.23
453.233	24827.18
453.44	23788.86
453.646	23887.17
453.852	24098.11
454.058	24550.71
454.264	23899.45
454.47	24280.38
454.676	23604.55
454.882	24419.64
455.088	22383.96
455.294	22519.12
455.5	23014.73
455.705	22986.06
455.911	22091.1
456.117	21644.64
456.323	21609.82
456.529	20305.27
456.735	21144.94
456.941	20622.7
457.147	20026.75
457.352	19801.47
457.558	19500.42
457.764	19539.33
457.97	19115.4
458.176	18699.66
458.381	18761.1
458.587	17743.26
458.793	17642.91
458.999	16876.97
459.204	18007.45
459.41	17737.12
459.616	16287.15
459.821	16373.17
460.027	16295.35
460.233	15678.91
460.438	15377.86
460.644	15162.82
460.85	14704.07
461.055	14249.43
461.261	14323.15
461.466	13520.35
461.672	12830.18
461.878	13542.88
462.083	13010.4
462.289	12824.04
462.494	12688.87
462.7	11914.74
462.905	11591.16
463.111	12019.19
463.316	12115.44
463.522	11824.63
463.727	11685.37
463.932	11834.87
464.138	11597.31
464.343	11775.48
464.549	11277.82
464.754	11646.46
464.959	11879.93
465.165	11662.84
465.37	10841.61
465.575	10857.99
465.781	11173.38
465.986	11128.32
466.191	10882.56
466.397	10587.66
466.602	9948.69
466.807	10507.79
467.012	10307.09
467.218	10423.82
467.423	10481.16
467.628	10501.64
