Data from USB4F104151__143__14-31-50-500.txt Node

Date: Thu Mar 13 14:31:50 EDT 2025
User: louis
Spectrometer: USB4F10415
Trigger mode: 4
Integration Time (sec): 2.500000E-2
Scans to average: 1
Electric dark correction enabled: true
Nonlinearity correction enabled: false
Boxcar width: 0
XAxis mode: Wavelengths
Number of Pixels in Spectrum: 3648
>>>>>Begin Spectral Data<<<<<
178.204	-119.12
178.424	-119.12
178.644	-119.12
178.864	-139.6
179.084	-131.41
179.304	-14.68
179.524	-24.92
179.744	48.81
179.964	89.77
180.184	-49.49
180.404	26.28
180.624	-0.34
180.844	46.76
181.064	-39.25
181.283	-72.02
181.503	5.8
181.723	-16.73
181.943	20.14
182.163	124.58
182.383	11.95
182.602	-47.44
182.822	50.86
183.042	44.71
183.262	18.09
183.482	-12.63
183.701	11.95
183.921	-12.63
184.141	32.43
184.361	42.67
184.58	30.38
184.8	97.96
185.02	-22.87
185.239	36.52
185.459	32.43
185.679	16.04
185.898	-41.3
186.118	59.05
186.338	73.39
186.557	46.76
186.777	32.43
186.997	40.62
187.216	11.95
187.436	-31.06
187.655	34.47
187.875	83.63
188.095	-22.87
188.314	57
188.534	116.39
188.753	-55.64
188.973	20.14
189.192	81.58
189.412	42.67
189.631	40.62
189.851	48.81
190.07	57
190.29	-10.58
190.509	7.85
190.729	-20.82
190.948	67.24
191.168	171.69
191.387	16.04
191.607	-12.63
191.826	-43.35
192.045	-16.73
192.265	20.14
192.484	50.86
192.704	73.39
192.923	-16.73
193.142	91.82
193.362	89.77
193.581	73.39
193.8	130.73
194.02	40.62
194.239	-33.11
194.458	32.43
194.678	59.05
194.897	73.39
195.116	81.58
195.335	65.19
195.555	46.76
195.774	69.29
195.993	46.76
196.212	71.34
196.432	-6.49
196.651	32.43
196.87	48.81
197.089	52.91
197.308	81.58
197.528	40.62
197.747	97.96
197.966	18.09
198.185	65.19
198.404	59.05
198.623	24.23
198.842	69.29
199.062	83.63
199.281	114.34
199.5	40.62
199.719	57
199.938	18.09
200.157	106.15
200.376	22.19
200.595	159.4
200.814	61.1
201.033	48.81
201.252	40.62
201.471	-80.21
201.69	110.25
201.909	71.34
202.128	-47.44
202.347	110.25
202.566	-22.87
202.785	-41.3
203.004	9.9
203.223	95.91
203.442	85.67
203.661	-0.34
203.879	32.43
204.098	-20.82
204.317	46.76
204.536	138.92
204.755	-0.34
204.974	59.05
205.193	24.23
205.411	81.58
205.63	42.67
205.849	77.48
206.068	30.38
206.287	32.43
206.505	93.87
206.724	-0.34
206.943	7.85
207.162	28.33
207.381	-4.44
207.599	28.33
207.818	57
208.037	81.58
208.255	22.19
208.474	-4.44
208.693	40.62
208.911	-78.16
209.13	5.8
209.349	1.71
209.567	-14.68
209.786	46.76
210.005	-8.53
210.223	69.29
210.442	-37.2
210.661	93.87
210.879	83.63
211.098	34.47
211.316	36.52
211.535	69.29
211.753	-22.87
211.972	-20.82
212.191	36.52
212.409	18.09
212.628	-20.82
212.846	44.71
213.065	100.01
213.283	143.02
213.502	-2.39
213.72	30.38
213.938	40.62
214.157	16.04
214.375	73.39
214.594	40.62
214.812	48.81
215.031	79.53
215.249	24.23
215.467	-4.44
215.686	118.44
215.904	85.67
216.122	48.81
216.341	38.57
216.559	9.9
216.778	97.96
216.996	44.71
217.214	57
217.432	38.57
217.651	42.67
217.869	26.28
218.087	36.52
218.306	102.06
218.524	50.86
218.742	59.05
218.96	108.2
219.179	63.15
219.397	89.77
219.615	147.11
219.833	50.86
220.051	40.62
220.27	138.92
220.488	69.29
220.706	48.81
220.924	54.95
221.142	46.76
221.36	54.95
221.578	59.05
221.796	-6.49
222.015	40.62
222.233	38.57
222.451	7.85
222.669	67.24
222.887	18.09
223.105	50.86
223.323	5.8
223.541	-6.49
223.759	-24.92
223.977	28.33
224.195	69.29
224.413	106.15
224.631	24.23
224.849	81.58
225.067	97.96
225.285	18.09
225.503	61.1
225.721	-65.88
225.939	42.67
226.157	69.29
226.375	75.43
226.592	11.95
226.81	69.29
227.028	-63.83
227.246	140.97
227.464	28.33
227.682	59.05
227.9	89.77
228.117	40.62
228.335	97.96
228.553	73.39
228.771	22.19
228.989	11.95
229.206	73.39
229.424	50.86
229.642	-18.77
229.86	100.01
230.077	-45.4
230.295	32.43
230.513	61.1
230.731	83.63
230.948	52.91
231.166	67.24
231.384	61.1
231.601	18.09
231.819	26.28
232.037	-33.11
232.254	-20.82
232.472	50.86
232.689	85.67
232.907	20.14
233.125	48.81
233.342	-14.68
233.56	32.43
233.777	40.62
233.995	-45.4
234.213	54.95
234.43	-24.92
234.648	-33.11
234.865	67.24
235.083	44.71
235.3	48.81
235.518	-45.4
235.735	67.24
235.953	95.91
236.17	16.04
236.388	40.62
236.605	75.43
236.822	57
237.04	42.67
237.257	24.23
237.475	28.33
237.692	16.04
237.909	28.33
238.127	57
238.344	48.81
238.562	50.86
238.779	-49.49
238.996	7.85
239.214	-74.07
239.431	57
239.648	13.99
239.865	122.54
240.083	20.14
240.3	-0.34
240.517	-0.34
240.735	81.58
240.952	-0.34
241.169	85.67
241.386	48.81
241.603	54.95
241.821	28.33
242.038	73.39
242.255	-29.01
242.472	44.71
242.689	102.06
242.907	106.15
243.124	26.28
243.341	20.14
243.558	38.57
243.775	1.71
243.992	32.43
244.209	81.58
244.426	85.67
244.643	-24.92
244.86	20.14
245.078	59.05
245.295	-12.63
245.512	3.75
245.729	30.38
245.946	52.91
246.163	50.86
246.38	69.29
246.597	57
246.814	48.81
247.031	73.39
247.248	32.43
247.464	32.43
247.681	-49.49
247.898	18.09
248.115	59.05
248.332	40.62
248.549	65.19
248.766	122.54
248.983	9.9
249.2	67.24
249.417	57
249.633	9.9
249.85	104.11
250.067	26.28
250.284	77.48
250.501	89.77
250.717	50.86
250.934	24.23
251.151	-0.34
251.368	61.1
251.585	93.87
251.801	36.52
252.018	48.81
252.235	54.95
252.451	-41.3
252.668	57
252.885	102.06
253.102	-39.25
253.318	30.38
253.535	32.43
253.752	40.62
253.968	71.34
254.185	-0.34
254.401	-22.87
254.618	-29.01
254.835	69.29
255.051	97.96
255.268	7.85
255.484	59.05
255.701	-47.44
255.917	59.05
256.134	-8.53
256.351	24.23
256.567	-24.92
256.784	36.52
257	11.95
257.217	34.47
257.433	40.62
257.65	7.85
257.866	24.23
258.082	24.23
258.299	65.19
258.515	102.06
258.732	-65.88
258.948	38.57
259.165	28.33
259.381	16.04
259.597	67.24
259.814	-6.49
260.03	-0.34
260.246	18.09
260.463	52.91
260.679	24.23
260.895	75.43
261.112	34.47
261.328	57
261.544	7.85
261.761	132.78
261.977	-2.39
262.193	40.62
262.409	32.43
262.626	89.77
262.842	7.85
263.058	3.75
263.274	44.71
263.49	20.14
263.707	73.39
263.923	36.52
264.139	26.28
264.355	48.81
264.571	130.73
264.787	7.85
265.004	-12.63
265.22	38.57
265.436	77.48
265.652	69.29
265.868	-0.34
266.084	-6.49
266.3	42.67
266.516	-72.02
266.732	75.43
266.948	61.1
267.164	16.04
267.38	54.95
267.596	83.63
267.812	93.87
268.028	108.2
268.244	85.67
268.46	24.23
268.676	69.29
268.892	73.39
269.108	-8.53
269.324	73.39
269.54	26.28
269.756	106.15
269.972	73.39
270.188	18.09
270.403	-16.73
270.619	-37.2
270.835	24.23
271.051	40.62
271.267	-0.34
271.483	104.11
271.698	57
271.914	-29.01
272.13	13.99
272.346	-39.25
272.562	50.86
272.777	54.95
272.993	63.15
273.209	-16.73
273.425	50.86
273.64	-57.68
273.856	97.96
274.072	24.23
274.287	20.14
274.503	59.05
274.719	50.86
274.934	-12.63
275.15	-18.77
275.366	65.19
275.581	7.85
275.797	16.04
276.012	24.23
276.228	7.85
276.444	63.15
276.659	65.19
276.875	1.71
277.09	-6.49
277.306	20.14
277.521	91.82
277.737	34.47
277.952	97.96
278.168	106.15
278.383	-0.34
278.599	-35.16
278.814	81.58
279.03	18.09
279.245	89.77
279.461	7.85
279.676	112.3
279.892	7.85
280.107	46.76
280.322	-8.53
280.538	42.67
280.753	73.39
280.969	71.34
281.184	30.38
281.399	-22.87
281.615	48.81
281.83	50.86
282.045	-4.44
282.26	59.05
282.476	85.67
282.691	16.04
282.906	-59.73
283.122	32.43
283.337	20.14
283.552	93.87
283.767	89.77
283.983	61.1
284.198	48.81
284.413	24.23
284.628	-98.64
284.843	57
285.058	52.91
285.274	77.48
285.489	-14.68
285.704	130.73
285.919	40.62
286.134	1.71
286.349	-16.73
286.564	1.71
286.779	114.34
286.995	9.9
287.21	36.52
287.425	97.96
287.64	-24.92
287.855	100.01
288.07	5.8
288.285	52.91
288.5	28.33
288.715	91.82
288.93	34.47
289.145	34.47
289.36	93.87
289.575	52.91
289.79	204.46
290.004	18.09
290.219	104.11
290.434	20.14
290.649	20.14
290.864	57
291.079	1.71
291.294	-12.63
291.509	108.2
291.724	24.23
291.938	-24.92
292.153	83.63
292.368	18.09
292.583	16.04
292.798	-18.77
293.012	50.86
293.227	9.9
293.442	40.62
293.657	108.2
293.871	116.39
294.086	18.09
294.301	155.3
294.516	32.43
294.73	-0.34
294.945	26.28
295.16	-0.34
295.374	73.39
295.589	20.14
295.804	126.63
296.018	75.43
296.233	57
296.447	52.91
296.662	85.67
296.877	40.62
297.091	75.43
297.306	52.91
297.52	52.91
297.735	79.53
297.949	-12.63
298.164	42.67
298.378	42.67
298.593	24.23
298.807	3.75
299.022	26.28
299.236	40.62
299.451	36.52
299.665	24.23
299.88	65.19
300.094	36.52
300.309	-55.64
300.523	-6.49
300.737	81.58
300.952	69.29
301.166	100.01
301.381	48.81
301.595	54.95
301.809	40.62
302.024	34.47
302.238	-57.68
302.452	83.63
302.667	-0.34
302.881	1.71
303.095	59.05
303.309	40.62
303.524	-0.34
303.738	32.43
303.952	46.76
304.166	57
304.381	75.43
304.595	28.33
304.809	38.57
305.023	93.87
305.237	-0.34
305.452	75.43
305.666	112.3
305.88	69.29
306.094	67.24
306.308	97.96
306.522	75.43
306.736	44.71
306.95	100.01
307.164	28.33
307.379	34.47
307.593	126.63
307.807	65.19
308.021	50.86
308.235	-29.01
308.449	1.71
308.663	44.71
308.877	65.19
309.091	106.15
309.305	13.99
309.519	-12.63
309.733	57
309.947	38.57
310.161	57
310.374	13.99
310.588	69.29
310.802	-4.44
311.016	32.43
311.23	108.2
311.444	75.43
311.658	11.95
311.872	24.23
312.085	40.62
312.299	102.06
312.513	44.71
312.727	89.77
312.941	-14.68
313.154	75.43
313.368	59.05
313.582	32.43
313.796	59.05
314.009	75.43
314.223	57
314.437	34.47
314.651	-0.34
314.864	73.39
315.078	32.43
315.292	44.71
315.505	59.05
315.719	69.29
315.933	48.81
316.146	36.52
316.36	32.43
316.573	11.95
316.787	97.96
317.001	38.57
317.214	-16.73
317.428	32.43
317.641	40.62
317.855	24.23
318.068	67.24
318.282	61.1
318.495	75.43
318.709	77.48
318.922	57
319.136	24.23
319.349	81.58
319.563	81.58
319.776	73.39
319.99	65.19
320.203	69.29
320.417	100.01
320.63	44.71
320.843	93.87
321.057	3.75
321.27	65.19
321.483	34.47
321.697	122.54
321.91	77.48
322.124	100.01
322.337	89.77
322.55	24.23
322.763	44.71
322.977	20.14
323.19	32.43
323.403	-8.53
323.617	50.86
323.83	81.58
324.043	79.53
324.256	59.05
324.469	93.87
324.683	89.77
324.896	48.81
325.109	34.47
325.322	7.85
325.535	22.19
325.748	48.81
325.962	85.67
326.175	32.43
326.388	40.62
326.601	140.97
326.814	69.29
327.027	30.38
327.24	89.77
327.453	34.47
327.666	52.91
327.879	132.78
328.092	112.3
328.305	30.38
328.518	87.72
328.731	52.91
328.944	40.62
329.157	-26.96
329.37	1.71
329.583	54.95
329.796	124.58
330.009	7.85
330.222	116.39
330.435	77.48
330.648	42.67
330.861	50.86
331.073	65.19
331.286	52.91
331.499	106.15
331.712	-14.68
331.925	52.91
332.138	11.95
332.35	83.63
332.563	75.43
332.776	110.25
332.989	16.04
333.202	48.81
333.414	24.23
333.627	65.19
333.84	59.05
334.053	7.85
334.265	7.85
334.478	40.62
334.691	7.85
334.903	57
335.116	42.67
335.329	59.05
335.541	-14.68
335.754	124.58
335.966	5.8
336.179	138.92
336.392	-4.44
336.604	81.58
336.817	85.67
337.029	46.76
337.242	48.81
337.454	1.71
337.667	73.39
337.88	52.91
338.092	83.63
338.305	71.34
338.517	48.81
338.729	54.95
338.942	42.67
339.154	18.09
339.367	-31.06
339.579	106.15
339.792	16.04
340.004	-8.53
340.217	26.28
340.429	89.77
340.641	57
340.854	18.09
341.066	24.23
341.278	75.43
341.491	130.73
341.703	48.81
341.915	59.05
342.128	61.1
342.34	59.05
342.552	7.85
342.764	-29.01
342.977	3.75
343.189	9.9
343.401	36.52
343.613	-31.06
343.826	44.71
344.038	-24.92
344.25	48.81
344.462	89.77
344.674	-41.3
344.886	13.99
345.099	32.43
345.311	48.81
345.523	40.62
345.735	-14.68
345.947	11.95
346.159	30.38
346.371	81.58
346.583	9.9
346.795	122.54
347.007	69.29
347.219	32.43
347.431	59.05
347.643	120.49
347.855	71.34
348.067	34.47
348.279	67.24
348.491	110.25
348.703	147.11
348.915	63.15
349.127	28.33
349.339	40.62
349.551	59.05
349.763	89.77
349.975	-24.92
350.187	57
350.399	85.67
350.61	69.29
350.822	65.19
351.034	57
351.246	79.53
351.458	75.43
351.669	79.53
351.881	48.81
352.093	40.62
352.305	91.82
352.517	81.58
352.728	52.91
352.94	81.58
353.152	22.19
353.363	34.47
353.575	42.67
353.787	106.15
353.999	63.15
354.21	73.39
354.422	-20.82
354.633	-10.58
354.845	46.76
355.057	-16.73
355.268	-0.34
355.48	97.96
355.692	7.85
355.903	57
356.115	-29.01
356.326	32.43
356.538	71.34
356.749	61.1
356.961	93.87
357.172	71.34
357.384	38.57
357.595	122.54
357.807	54.95
358.018	83.63
358.23	7.85
358.441	81.58
358.653	116.39
358.864	38.57
359.075	9.9
359.287	69.29
359.498	79.53
359.709	89.77
359.921	106.15
360.132	36.52
360.344	77.48
360.555	16.04
360.766	54.95
360.977	28.33
361.189	108.2
361.4	-22.87
361.611	75.43
361.823	38.57
362.034	79.53
362.245	3.75
362.456	20.14
362.667	59.05
362.879	30.38
363.09	20.14
363.301	91.82
363.512	36.52
363.723	1.71
363.935	48.81
364.146	67.24
364.357	5.8
364.568	40.62
364.779	20.14
364.99	24.23
365.201	32.43
365.412	67.24
365.623	-29.01
365.834	65.19
366.045	155.3
366.256	16.04
366.467	59.05
366.678	116.39
366.889	48.81
367.1	57
367.311	24.23
367.522	106.15
367.733	61.1
367.944	91.82
368.155	7.85
368.366	5.8
368.577	200.36
368.788	67.24
368.999	63.15
369.209	59.05
369.42	124.58
369.631	151.21
369.842	71.34
370.053	3.75
370.264	140.97
370.474	-14.68
370.685	1.71
370.896	50.86
371.107	34.47
371.317	67.24
371.528	32.43
371.739	9.9
371.95	48.81
372.16	108.2
372.371	24.23
372.582	-8.53
372.792	132.78
373.003	5.8
373.214	-16.73
373.424	69.29
373.635	44.71
373.846	114.34
374.056	61.1
374.267	32.43
374.477	11.95
374.688	106.15
374.898	132.78
375.109	57
375.319	11.95
375.53	93.87
375.74	79.53
375.951	48.81
376.161	116.39
376.372	48.81
376.582	75.43
376.793	75.43
377.003	57
377.214	16.04
377.424	89.77
377.635	22.19
377.845	26.28
378.055	57
378.266	11.95
378.476	114.34
378.686	57
378.897	44.71
379.107	65.19
379.317	40.62
379.528	20.14
379.738	-6.49
379.948	50.86
380.158	81.58
380.369	42.67
380.579	106.15
380.789	50.86
380.999	40.62
381.21	11.95
381.42	83.63
381.63	100.01
381.84	48.81
382.05	112.3
382.261	149.16
382.471	138.92
382.681	-0.34
382.891	108.2
383.101	122.54
383.311	40.62
383.521	52.91
383.731	75.43
383.941	61.1
384.151	61.1
384.361	26.28
384.571	50.86
384.781	100.01
384.991	93.87
385.201	112.3
385.411	32.43
385.621	89.77
385.831	34.47
386.041	9.9
386.251	28.33
386.461	120.49
386.671	34.47
386.881	122.54
387.091	71.34
387.301	73.39
387.511	26.28
387.72	34.47
387.93	63.15
388.14	85.67
388.35	114.34
388.56	151.21
388.769	159.4
388.979	65.19
389.189	16.04
389.399	81.58
389.609	138.92
389.818	149.16
390.028	102.06
390.238	75.43
390.447	114.34
390.657	85.67
390.867	69.29
391.076	18.09
391.286	97.96
391.496	61.1
391.705	38.57
391.915	130.73
392.125	89.77
392.334	124.58
392.544	24.23
392.753	59.05
392.963	24.23
393.172	65.19
393.382	73.39
393.591	173.74
393.801	34.47
394.01	120.49
394.22	79.53
394.429	59.05
394.639	52.91
394.848	145.06
395.058	65.19
395.267	87.72
395.477	7.85
395.686	20.14
395.895	100.01
396.105	149.16
396.314	54.95
396.524	59.05
396.733	73.39
396.942	163.5
397.152	124.58
397.361	163.5
397.57	138.92
397.78	122.54
397.989	91.82
398.198	147.11
398.407	179.88
398.617	114.34
398.826	89.77
399.035	163.5
399.244	91.82
399.453	50.86
399.663	124.58
399.872	140.97
400.081	171.69
400.29	183.98
400.499	87.72
400.708	181.93
400.917	59.05
401.127	100.01
401.336	83.63
401.545	171.69
401.754	196.26
401.963	97.96
402.172	36.52
402.381	69.29
402.59	126.63
402.799	165.54
403.008	130.73
403.217	188.07
403.426	159.4
403.635	93.87
403.844	93.87
404.053	89.77
404.262	118.44
404.471	263.85
404.68	179.88
404.888	204.46
405.097	130.73
405.306	194.22
405.515	214.7
405.724	249.51
405.933	206.5
406.142	235.18
406.35	222.89
406.559	188.07
406.768	222.89
406.977	253.61
407.185	179.88
407.394	140.97
407.603	224.94
407.812	257.7
408.02	304.81
408.229	296.61
408.438	376.48
408.646	274.09
408.855	278.18
409.064	329.38
409.272	276.13
409.481	351.91
409.69	325.29
409.898	333.48
410.107	263.85
410.315	376.48
410.524	374.44
410.733	386.72
410.941	388.77
411.15	427.68
411.358	421.54
411.567	442.02
411.775	538.27
411.984	425.64
412.192	482.98
412.401	476.84
412.609	589.47
412.818	540.32
413.026	566.95
413.234	544.42
413.443	544.42
413.651	523.94
413.86	659.1
414.068	777.89
414.276	753.31
414.485	607.91
414.693	706.21
414.901	868
415.11	784.03
415.318	814.75
415.526	900.76
415.734	927.39
415.943	863.9
416.151	878.24
416.359	984.73
416.567	958.11
416.776	972.44
416.984	1128.09
417.192	1191.58
417.4	1111.71
417.608	1066.65
417.817	1212.06
418.025	1164.95
418.233	1296.02
418.441	1154.71
418.649	1363.61
418.857	1500.82
419.065	1431.19
419.273	1377.94
419.481	1638.03
419.689	1621.65
419.897	1672.85
420.105	1609.36
420.313	1769.1
420.521	1750.67
420.729	1830.54
420.937	2000.52
421.145	1918.61
421.353	2109.07
421.561	2156.17
421.769	2190.99
421.977	2211.46
422.185	2342.53
422.393	2416.26
422.601	2629.25
422.809	2360.97
423.017	2569.86
423.224	2668.16
423.432	2920.06
423.64	2762.37
423.848	2979.45
424.056	2846.34
424.263	3249.79
424.471	3257.98
424.679	3120.76
424.887	3444.34
425.094	3407.48
425.302	3401.33
425.51	3673.71
425.718	3903.09
425.925	3917.42
426.133	3952.24
426.341	4251.24
426.548	4413.03
426.756	4552.29
426.964	4554.34
427.171	4824.67
427.379	4742.75
427.586	4816.48
427.794	4998.75
428.001	5262.94
428.209	5498.45
428.417	5426.78
428.624	5799.51
428.832	5848.66
429.039	5785.17
429.247	5832.27
429.454	6309.45
429.662	6923.84
429.869	6342.22
430.076	6657.61
430.284	6520.39
430.491	6796.87
430.699	7151.17
430.906	7446.07
431.114	7310.91
431.321	7538.23
431.528	7640.63
431.736	8240.68
431.943	8515.11
432.15	8355.37
432.358	8384.04
432.565	9023.01
432.772	8904.23
432.979	9356.83
433.187	9381.4
433.394	9473.56
433.601	10155.54
433.808	10198.54
434.016	10233.36
434.223	10458.64
434.43	11136.51
434.637	10866.18
434.844	11623.93
435.052	11791.86
435.259	11789.81
435.466	11965.94
435.673	11824.63
435.88	12463.6
436.087	13256.16
436.294	13315.55
436.501	12658.15
436.708	13043.17
436.915	13583.84
437.122	14392.78
437.329	13962.71
437.537	14679.5
437.743	14603.72
437.95	14742.99
438.157	15484.35
438.364	15932.86
438.571	15887.8
438.778	16102.84
438.985	17311.14
439.192	16670.12
439.399	17182.12
439.606	17051.05
439.813	17939.86
440.02	19019.14
440.227	18605.45
440.433	18560.4
440.64	19017.1
440.847	18826.64
441.054	19258.76
441.261	20542.83
441.467	20233.59
441.674	20819.31
441.881	21523.81
442.088	21679.46
442.294	21445.99
442.501	21708.13
442.708	22302.04
442.914	23188.81
443.121	23962.94
443.328	23543.11
443.534	25105.71
443.741	24700.21
443.948	23866.69
444.154	25793.83
444.361	25476.39
444.568	25871.65
444.774	26002.72
444.981	26371.35
445.187	26678.55
445.394	27915.52
445.6	27395.34
445.807	30313.69
446.013	28833.01
446.22	29426.92
446.426	30829.78
446.633	30772.44
446.839	31843.52
447.046	30489.82
447.252	32320.7
447.459	32304.32
447.665	31909.06
447.871	33791.14
448.078	35112.08
448.284	33232.05
448.491	34262.18
448.697	35441.81
448.903	36045.96
449.11	36076.68
449.316	35683.47
449.522	36310.14
449.728	37436.53
449.935	37168.24
450.141	37504.11
450.347	38349.92
450.553	36977.78
450.76	37586.03
450.966	38640.73
451.172	38319.2
451.378	39453.78
451.584	38700.12
451.791	39820.36
451.997	39369.81
452.203	40143.94
452.409	40141.89
452.615	39748.68
452.821	38366.31
453.027	37964.9
453.233	39705.68
453.44	38110.31
453.646	38601.82
453.852	38909.02
454.058	39644.24
454.264	38517.85
454.47	39074.9
454.676	38036.58
454.882	39623.76
455.088	36267.14
455.294	36443.26
455.5	36988.02
455.705	37211.25
455.911	35927.17
456.117	35402.89
456.323	34688.15
456.529	33051.83
456.735	34380.96
456.941	33479.85
457.147	32720.06
457.352	31499.47
457.558	31360.2
457.764	31829.19
457.97	30964.95
458.176	30641.37
458.381	30366.94
458.587	28796.15
458.793	28937.46
458.999	27190.54
459.204	29134.06
459.41	28284.16
459.616	26561.81
459.821	26516.76
460.027	26553.62
460.233	25888.03
460.438	24698.16
460.644	24849.71
460.85	23641.41
461.055	23311.69
461.261	23424.33
461.466	21603.68
461.672	20790.64
461.878	22625.62
462.083	20882.8
462.289	20307.32
462.494	20385.14
462.7	19418.5
462.905	19033.48
463.111	19537.28
463.316	19785.08
463.522	19084.68
463.727	19383.68
463.932	19080.58
464.138	18845.07
464.343	18765.2
464.549	18525.58
464.754	19201.41
464.959	19113.35
465.165	18765.2
465.37	17673.63
465.575	17554.85
465.781	18349.46
465.986	18216.34
466.191	17626.53
466.397	17292.71
466.602	16315.83
466.807	16967.08
467.012	16883.11
467.218	17040.81
467.423	16661.93
467.628	16993.7
