Data from USB4F104151__161__14-32-15-943.txt Node

Date: Thu Mar 13 14:32:15 EDT 2025
User: louis
Spectrometer: USB4F10415
Trigger mode: 4
Integration Time (sec): 2.500000E-2
Scans to average: 1
Electric dark correction enabled: true
Nonlinearity correction enabled: false
Boxcar width: 0
XAxis mode: Wavelengths
Number of Pixels in Spectrum: 3648
>>>>>Begin Spectral Data<<<<<
178.204	-137.9
178.424	-137.9
178.644	-137.9
178.864	-193.19
179.084	-78.51
179.304	-21.16
179.524	-27.31
179.744	9.56
179.964	38.23
180.184	-19.11
180.404	15.7
180.624	19.8
180.844	40.28
181.064	-41.64
181.283	-21.16
181.503	-45.74
181.723	52.56
181.943	-45.74
182.163	122.2
182.383	-19.11
182.602	118.1
182.822	-8.87
183.042	64.85
183.262	36.18
183.482	73.04
183.701	15.7
183.921	85.33
184.141	11.61
184.361	52.56
184.58	19.8
184.8	7.51
185.02	60.76
185.239	85.33
185.459	34.13
185.679	-49.83
185.898	-37.55
186.118	95.57
186.338	50.52
186.557	118.1
186.777	50.52
186.997	93.52
187.216	52.56
187.436	62.8
187.655	58.71
187.875	68.95
188.095	-12.97
188.314	85.33
188.534	105.81
188.753	23.89
188.973	52.56
189.192	93.52
189.412	23.89
189.631	73.04
189.851	-15.02
190.07	87.38
190.29	79.19
190.509	56.66
190.729	27.99
190.948	40.28
191.168	208.21
191.387	7.51
191.607	54.61
191.826	32.08
192.045	7.51
192.265	93.52
192.484	60.76
192.704	62.8
192.923	23.89
193.142	79.19
193.362	3.41
193.581	89.43
193.8	68.95
194.02	19.8
194.239	-8.87
194.458	89.43
194.678	21.85
194.897	101.72
195.116	27.99
195.335	114
195.555	101.72
195.774	-4.78
195.993	46.42
196.212	-21.16
196.432	3.41
196.651	11.61
196.87	36.18
197.089	103.76
197.308	81.24
197.528	75.09
197.747	-4.78
197.966	-0.68
198.185	62.8
198.404	93.52
198.623	91.48
198.842	52.56
199.062	60.76
199.281	81.24
199.5	-55.98
199.719	17.75
199.938	44.37
200.157	89.43
200.376	38.23
200.595	68.95
200.814	44.37
201.033	-29.35
201.252	105.81
201.471	60.76
201.69	93.52
201.909	52.56
202.128	77.14
202.347	-37.55
202.566	77.14
202.785	38.23
203.004	66.9
203.223	77.14
203.442	44.37
203.661	21.85
203.879	52.56
204.098	101.72
204.317	38.23
204.536	85.33
204.755	36.18
204.974	62.8
205.193	95.57
205.411	150.87
205.63	25.94
205.849	5.46
206.068	56.66
206.287	27.99
206.505	27.99
206.724	3.41
206.943	-4.78
207.162	-8.87
207.381	25.94
207.599	48.47
207.818	30.04
208.037	-10.92
208.255	62.8
208.474	120.15
208.693	68.95
208.911	13.65
209.13	36.18
209.349	75.09
209.567	58.71
209.786	150.87
210.005	54.61
210.223	173.39
210.442	89.43
210.661	60.76
210.879	75.09
211.098	-33.45
211.316	95.57
211.535	46.42
211.753	5.46
211.972	5.46
212.191	-31.4
212.409	30.04
212.628	-21.16
212.846	5.46
213.065	71
213.283	68.95
213.502	32.08
213.72	73.04
213.938	83.28
214.157	44.37
214.375	46.42
214.594	-0.68
214.812	71
215.031	38.23
215.249	38.23
215.467	60.76
215.686	7.51
215.904	21.85
216.122	52.56
216.341	54.61
216.559	32.08
216.778	120.15
216.996	85.33
217.214	30.04
217.432	27.99
217.651	11.61
217.869	44.37
218.087	60.76
218.306	54.61
218.524	52.56
218.742	7.51
218.96	3.41
219.179	68.95
219.397	103.76
219.615	109.91
219.833	124.24
220.051	17.75
220.27	120.15
220.488	32.08
220.706	27.99
220.924	23.89
221.142	38.23
221.36	118.1
221.578	68.95
221.796	79.19
222.015	13.65
222.233	25.94
222.451	30.04
222.669	56.66
222.887	97.62
223.105	79.19
223.323	11.61
223.541	19.8
223.759	52.56
223.977	54.61
224.195	-2.73
224.413	-2.73
224.631	44.37
224.849	89.43
225.067	103.76
225.285	83.28
225.503	-41.64
225.721	5.46
225.939	40.28
226.157	58.71
226.375	130.39
226.592	77.14
226.81	-2.73
227.028	101.72
227.246	13.65
227.464	103.76
227.682	23.89
227.9	19.8
228.117	77.14
228.335	52.56
228.553	52.56
228.771	157.01
228.989	38.23
229.206	3.41
229.424	15.7
229.642	3.41
229.86	34.13
230.077	44.37
230.295	75.09
230.513	79.19
230.731	60.76
230.948	103.76
231.166	83.28
231.384	44.37
231.601	44.37
231.819	64.85
232.037	-10.92
232.254	83.28
232.472	109.91
232.689	19.8
232.907	3.41
233.125	97.62
233.342	34.13
233.56	40.28
233.777	-8.87
233.995	23.89
234.213	-2.73
234.43	21.85
234.648	46.42
234.865	30.04
235.083	-2.73
235.3	21.85
235.518	15.7
235.735	30.04
235.953	146.77
236.17	-62.12
236.388	60.76
236.605	75.09
236.822	-21.16
237.04	54.61
237.257	-29.35
237.475	30.04
237.692	60.76
237.909	62.8
238.127	87.38
238.344	126.29
238.562	23.89
238.779	-4.78
238.996	27.99
239.214	93.52
239.431	81.24
239.648	11.61
239.865	68.95
240.083	15.7
240.3	11.61
240.517	32.08
240.735	1.37
240.952	44.37
241.169	85.33
241.386	64.85
241.603	-17.07
241.821	105.81
242.038	73.04
242.255	134.48
242.472	42.32
242.689	-8.87
242.907	27.99
243.124	-21.16
243.341	111.96
243.558	44.37
243.775	60.76
243.992	-4.78
244.209	40.28
244.426	19.8
244.643	44.37
244.86	-2.73
245.078	46.42
245.295	27.99
245.512	62.8
245.729	79.19
245.946	-4.78
246.163	60.76
246.38	144.72
246.597	5.46
246.814	-10.92
247.031	111.96
247.248	36.18
247.464	-35.5
247.681	44.37
247.898	-4.78
248.115	85.33
248.332	-21.16
248.549	64.85
248.766	7.51
248.983	-6.83
249.2	25.94
249.417	89.43
249.633	52.56
249.85	-45.74
250.067	32.08
250.284	-4.78
250.501	23.89
250.717	91.48
250.934	7.51
251.151	36.18
251.368	-29.35
251.585	73.04
251.801	19.8
252.018	21.85
252.235	36.18
252.451	23.89
252.668	38.23
252.885	73.04
253.102	-8.87
253.318	23.89
253.535	-31.4
253.752	68.95
253.968	46.42
254.185	77.14
254.401	52.56
254.618	73.04
254.835	52.56
255.051	52.56
255.268	-6.83
255.484	36.18
255.701	27.99
255.917	83.28
256.134	-23.21
256.351	109.91
256.567	19.8
256.784	23.89
257	-19.11
257.217	27.99
257.433	-2.73
257.65	68.95
257.866	13.65
258.082	-4.78
258.299	19.8
258.515	159.06
258.732	19.8
258.948	21.85
259.165	42.32
259.381	-12.97
259.597	71
259.814	13.65
260.03	71
260.246	36.18
260.463	19.8
260.679	111.96
260.895	-12.97
261.112	-43.69
261.328	19.8
261.544	64.85
261.761	134.48
261.977	93.52
262.193	38.23
262.409	87.38
262.626	120.15
262.842	95.57
263.058	19.8
263.274	140.63
263.49	27.99
263.707	40.28
263.923	27.99
264.139	-41.64
264.355	38.23
264.571	60.76
264.787	60.76
265.004	17.75
265.22	1.37
265.436	1.37
265.652	38.23
265.868	44.37
266.084	15.7
266.3	68.95
266.516	-17.07
266.732	81.24
266.948	73.04
267.164	64.85
267.38	105.81
267.596	52.56
267.812	79.19
268.028	27.99
268.244	15.7
268.46	64.85
268.676	11.61
268.892	77.14
269.108	48.47
269.324	7.51
269.54	-41.64
269.756	21.85
269.972	3.41
270.188	27.99
270.403	46.42
270.619	44.37
270.835	32.08
271.051	-4.78
271.267	36.18
271.483	44.37
271.698	66.9
271.914	23.89
272.13	-8.87
272.346	-6.83
272.562	71
272.777	38.23
272.993	19.8
273.209	-15.02
273.425	89.43
273.64	-21.16
273.856	36.18
274.072	3.41
274.287	-0.68
274.503	42.32
274.719	114
274.934	32.08
275.15	36.18
275.366	66.9
275.581	-47.79
275.797	128.34
276.012	-21.16
276.228	52.56
276.444	11.61
276.659	97.62
276.875	79.19
277.09	68.95
277.306	13.65
277.521	32.08
277.737	66.9
277.952	21.85
278.168	54.61
278.383	132.44
278.599	23.89
278.814	77.14
279.03	27.99
279.245	48.47
279.461	93.52
279.676	60.76
279.892	38.23
280.107	27.99
280.322	-10.92
280.538	11.61
280.753	3.41
280.969	44.37
281.184	60.76
281.399	111.96
281.615	52.56
281.83	38.23
282.045	13.65
282.26	89.43
282.476	17.75
282.691	32.08
282.906	95.57
283.122	-0.68
283.337	-21.16
283.552	38.23
283.767	32.08
283.983	48.47
284.198	13.65
284.413	71
284.628	-2.73
284.843	77.14
285.058	85.33
285.274	38.23
285.489	-27.31
285.704	32.08
285.919	3.41
286.134	36.18
286.349	52.56
286.564	13.65
286.779	95.57
286.995	118.1
287.21	32.08
287.425	15.7
287.64	-45.74
287.855	68.95
288.07	36.18
288.285	97.62
288.5	52.56
288.715	64.85
288.93	3.41
289.145	44.37
289.36	122.2
289.575	19.8
289.79	42.32
290.004	-4.78
290.219	77.14
290.434	5.46
290.649	17.75
290.864	-12.97
291.079	-37.55
291.294	77.14
291.509	-27.31
291.724	-19.11
291.938	46.42
292.153	60.76
292.368	93.52
292.583	44.37
292.798	68.95
293.012	52.56
293.227	68.95
293.442	-33.45
293.657	126.29
293.871	68.95
294.086	19.8
294.301	85.33
294.516	3.41
294.73	58.71
294.945	21.85
295.16	-8.87
295.374	68.95
295.589	73.04
295.804	38.23
296.018	54.61
296.233	25.94
296.447	40.28
296.662	93.52
296.877	81.24
297.091	44.37
297.306	5.46
297.52	-0.68
297.735	71
297.949	60.76
298.164	105.81
298.378	81.24
298.593	64.85
298.807	27.99
299.022	44.37
299.236	68.95
299.451	95.57
299.665	40.28
299.88	46.42
300.094	44.37
300.309	81.24
300.523	23.89
300.737	23.89
300.952	42.32
301.166	114
301.381	17.75
301.595	44.37
301.809	60.76
302.024	60.76
302.238	38.23
302.452	75.09
302.667	71
302.881	54.61
303.095	79.19
303.309	36.18
303.524	11.61
303.738	-33.45
303.952	-19.11
304.166	46.42
304.381	-8.87
304.595	101.72
304.809	-21.16
305.023	62.8
305.237	50.52
305.452	73.04
305.666	109.91
305.88	71
306.094	95.57
306.308	81.24
306.522	73.04
306.736	58.71
306.95	73.04
307.164	95.57
307.379	34.13
307.593	105.81
307.807	34.13
308.021	97.62
308.235	124.24
308.449	-12.97
308.663	-37.55
308.877	68.95
309.091	15.7
309.305	68.95
309.519	64.85
309.733	109.91
309.947	-51.88
310.161	42.32
310.374	89.43
310.588	21.85
310.802	27.99
311.016	101.72
311.23	79.19
311.444	-10.92
311.658	46.42
311.872	60.76
312.085	44.37
312.299	159.06
312.513	66.9
312.727	71
312.941	30.04
313.154	7.51
313.368	52.56
313.582	1.37
313.796	-21.16
314.009	-33.45
314.223	93.52
314.437	-12.97
314.651	44.37
314.864	36.18
315.078	101.72
315.292	7.51
315.505	-15.02
315.719	99.67
315.933	15.7
316.146	-4.78
316.36	-43.69
316.573	52.56
316.787	81.24
317.001	38.23
317.214	23.89
317.428	64.85
317.641	-0.68
317.855	-35.5
318.068	21.85
318.282	46.42
318.495	97.62
318.709	95.57
318.922	3.41
319.136	71
319.349	30.04
319.563	111.96
319.776	60.76
319.99	44.37
320.203	15.7
320.417	11.61
320.63	79.19
320.843	128.34
321.057	46.42
321.27	109.91
321.483	36.18
321.697	134.48
321.91	81.24
322.124	52.56
322.337	109.91
322.55	11.61
322.763	-8.87
322.977	-12.97
323.19	77.14
323.403	15.7
323.617	89.43
323.83	103.76
324.043	27.99
324.256	52.56
324.469	5.46
324.683	-8.87
324.896	71
325.109	30.04
325.322	-4.78
325.535	142.68
325.748	52.56
325.962	-17.07
326.175	48.47
326.388	101.72
326.601	44.37
326.814	52.56
327.027	-2.73
327.24	71
327.453	-12.97
327.666	54.61
327.879	32.08
328.092	44.37
328.305	-2.73
328.518	89.43
328.731	44.37
328.944	17.75
329.157	118.1
329.37	19.8
329.583	105.81
329.796	44.37
330.009	7.51
330.222	85.33
330.435	46.42
330.648	27.99
330.861	81.24
331.073	30.04
331.286	-10.92
331.499	103.76
331.712	15.7
331.925	32.08
332.138	44.37
332.35	93.52
332.563	-21.16
332.776	85.33
332.989	-33.45
333.202	54.61
333.414	-37.55
333.627	85.33
333.84	77.14
334.053	27.99
334.265	54.61
334.478	25.94
334.691	71
334.903	52.56
335.116	15.7
335.329	79.19
335.541	60.76
335.754	95.57
335.966	27.99
336.179	34.13
336.392	27.99
336.604	-21.16
336.817	120.15
337.029	95.57
337.242	40.28
337.454	44.37
337.667	9.56
337.88	83.28
338.092	30.04
338.305	114
338.517	-29.35
338.729	38.23
338.942	159.06
339.154	60.76
339.367	83.28
339.579	46.42
339.792	11.61
340.004	89.43
340.217	30.04
340.429	44.37
340.641	-29.35
340.854	-10.92
341.066	38.23
341.278	71
341.491	81.24
341.703	9.56
341.915	1.37
342.128	93.52
342.34	27.99
342.552	44.37
342.764	71
342.977	46.42
343.189	15.7
343.401	150.87
343.613	25.94
343.826	19.8
344.038	-8.87
344.25	54.61
344.462	52.56
344.674	38.23
344.886	17.75
345.099	25.94
345.311	73.04
345.523	95.57
345.735	50.52
345.947	36.18
346.159	-12.97
346.371	62.8
346.583	48.47
346.795	167.25
347.007	52.56
347.219	71
347.431	19.8
347.643	89.43
347.855	60.76
348.067	118.1
348.279	-27.31
348.491	-25.26
348.703	36.18
348.915	-6.83
349.127	-125.61
349.339	109.91
349.551	-12.97
349.763	81.24
349.975	71
350.187	62.8
350.399	77.14
350.61	126.29
350.822	87.38
351.034	77.14
351.246	62.8
351.458	114
351.669	30.04
351.881	68.95
352.093	68.95
352.305	99.67
352.517	25.94
352.728	87.38
352.94	56.66
353.152	126.29
353.363	27.99
353.575	79.19
353.787	62.8
353.999	122.2
354.21	44.37
354.422	-8.87
354.633	13.65
354.845	71
355.057	46.42
355.268	32.08
355.48	44.37
355.692	-10.92
355.903	42.32
356.115	68.95
356.326	-37.55
356.538	126.29
356.749	77.14
356.961	114
357.172	89.43
357.384	23.89
357.595	85.33
357.807	111.96
358.018	11.61
358.23	60.76
358.441	107.86
358.653	46.42
358.864	-25.26
359.075	101.72
359.287	103.76
359.498	109.91
359.709	81.24
359.921	105.81
360.132	62.8
360.344	50.52
360.555	-12.97
360.766	97.62
360.977	38.23
361.189	62.8
361.4	-4.78
361.611	171.35
361.823	114
362.034	36.18
362.245	15.7
362.456	-21.16
362.667	64.85
362.879	-37.55
363.09	30.04
363.301	36.18
363.512	85.33
363.723	-10.92
363.935	1.37
364.146	46.42
364.357	13.65
364.568	93.52
364.779	-2.73
364.99	134.48
365.201	5.46
365.412	95.57
365.623	-2.73
365.834	56.66
366.045	73.04
366.256	101.72
366.467	89.43
366.678	5.46
366.889	48.47
367.1	95.57
367.311	77.14
367.522	109.91
367.733	83.28
367.944	21.85
368.155	-25.26
368.366	130.39
368.577	79.19
368.788	109.91
368.999	118.1
369.209	38.23
369.42	62.8
369.631	93.52
369.842	71
370.053	40.28
370.264	75.09
370.474	71
370.685	77.14
370.896	52.56
371.107	-8.87
371.317	7.51
371.528	-17.07
371.739	163.15
371.95	77.14
372.16	42.32
372.371	-2.73
372.582	11.61
372.792	62.8
373.003	15.7
373.214	34.13
373.424	81.24
373.635	-70.31
373.846	60.76
374.056	-12.97
374.267	83.28
374.477	44.37
374.688	83.28
374.898	19.8
375.109	62.8
375.319	-23.21
375.53	64.85
375.74	71
375.951	44.37
376.161	58.71
376.372	87.38
376.582	68.95
376.793	36.18
377.003	111.96
377.214	54.61
377.424	46.42
377.635	38.23
377.845	-33.45
378.055	122.2
378.266	30.04
378.476	-4.78
378.686	-4.78
378.897	60.76
379.107	27.99
379.317	105.81
379.528	7.51
379.738	62.8
379.948	36.18
380.158	11.61
380.369	-33.45
380.579	23.89
380.789	56.66
380.999	32.08
381.21	30.04
381.42	77.14
381.63	68.95
381.84	52.56
382.05	87.38
382.261	52.56
382.471	109.91
382.681	11.61
382.891	13.65
383.101	42.32
383.311	-12.97
383.521	36.18
383.731	50.52
383.941	87.38
384.151	36.18
384.361	122.2
384.571	42.32
384.781	52.56
384.991	134.48
385.201	150.87
385.411	81.24
385.621	75.09
385.831	48.47
386.041	44.37
386.251	60.76
386.461	68.95
386.671	-8.87
386.881	95.57
387.091	19.8
387.301	126.29
387.511	77.14
387.72	19.8
387.93	71
388.14	60.76
388.35	118.1
388.56	40.28
388.769	48.47
388.979	71
389.189	77.14
389.399	101.72
389.609	46.42
389.818	81.24
390.028	144.72
390.238	124.24
390.447	62.8
390.657	93.52
390.867	-12.97
391.076	75.09
391.286	30.04
391.496	128.34
391.705	36.18
391.915	89.43
392.125	52.56
392.334	38.23
392.544	50.52
392.753	87.38
392.963	-47.79
393.172	95.57
393.382	40.28
393.591	142.68
393.801	58.71
394.01	25.94
394.22	71
394.429	46.42
394.639	19.8
394.848	126.29
395.058	27.99
395.267	114
395.477	62.8
395.686	89.43
395.895	169.3
396.105	138.58
396.314	91.48
396.524	79.19
396.733	132.44
396.942	89.43
397.152	66.9
397.361	54.61
397.57	101.72
397.78	46.42
397.989	118.1
398.198	175.44
398.407	95.57
398.617	40.28
398.826	109.91
399.035	81.24
399.244	93.52
399.453	130.39
399.663	71
399.872	126.29
400.081	83.28
400.29	138.58
400.499	75.09
400.708	200.02
400.917	97.62
401.127	42.32
401.336	81.24
401.545	185.68
401.754	101.72
401.963	150.87
402.172	103.76
402.381	77.14
402.59	126.29
402.799	81.24
403.008	134.48
403.217	173.39
403.426	122.2
403.635	138.58
403.844	85.33
404.053	99.67
404.262	159.06
404.471	179.54
404.68	101.72
404.888	126.29
405.097	136.53
405.306	109.91
405.515	210.26
405.724	136.53
405.933	142.68
406.142	165.2
406.35	124.24
406.559	216.4
406.768	175.44
406.977	191.83
407.185	142.68
407.394	210.26
407.603	146.77
407.812	175.44
408.02	208.21
408.229	216.4
408.438	214.35
408.646	185.68
408.855	238.93
409.064	249.17
409.272	144.72
409.481	265.55
409.69	267.6
409.898	228.69
410.107	253.27
410.315	279.89
410.524	243.03
410.733	283.99
410.941	275.79
411.15	269.65
411.358	259.41
411.567	388.43
411.775	406.86
411.984	355.66
412.192	451.92
412.401	308.56
412.609	470.35
412.818	449.87
413.026	398.67
413.234	406.86
413.443	447.82
413.651	476.49
413.86	423.25
414.068	453.97
414.276	568.65
414.485	539.98
414.693	552.27
414.901	630.09
415.11	701.77
415.318	556.36
415.526	691.53
415.734	658.76
415.943	679.24
416.151	773.45
416.359	689.48
416.567	707.91
416.776	748.87
416.984	789.83
417.192	773.45
417.4	851.27
417.608	793.93
417.817	818.5
418.025	929.1
418.233	998.73
418.441	920.9
418.649	978.25
418.857	1086.79
419.065	1129.8
419.273	1047.88
419.481	1109.32
419.689	1199.43
419.897	1273.15
420.105	1301.83
420.313	1299.78
420.521	1412.42
420.729	1441.09
420.937	1379.65
421.145	1480
421.353	1518.91
421.561	1692.99
421.769	1701.18
421.977	1764.67
422.185	1744.19
422.393	1799.48
422.601	1930.55
422.809	1916.22
423.017	1885.5
423.224	2016.57
423.432	1987.89
423.64	2053.43
423.848	2309.43
424.056	2190.64
424.263	2487.6
424.471	2395.44
424.679	2485.55
424.887	2606.38
425.094	2581.81
425.302	2612.53
425.51	2743.6
425.718	2821.42
425.925	2989.35
426.133	3001.64
426.341	3124.52
426.548	3231.01
426.756	3167.52
426.964	3409.19
427.171	3503.39
427.379	3624.22
427.586	3577.12
427.794	3814.68
428.001	3945.75
428.209	4197.65
428.417	3974.42
428.624	4431.12
428.832	4205.85
429.039	4273.43
429.247	4238.61
429.454	4791.56
429.662	4779.28
429.869	4652.3
430.076	5106.95
430.284	4916.49
430.491	5086.47
430.699	5311.75
430.906	5442.82
431.114	5348.61
431.321	5625.09
431.528	5815.55
431.736	6063.35
431.943	6278.39
432.15	6122.74
432.358	6147.32
432.565	6509.81
432.772	6495.47
432.979	6905.07
433.187	7130.34
433.394	7007.47
433.601	7380.2
433.808	7695.58
434.016	7582.95
434.223	7607.52
434.43	8228.06
434.637	8002.78
434.844	8578.26
435.052	8740.05
435.259	8649.94
435.466	8725.71
435.673	8654.03
435.88	9217.22
436.087	9653.44
436.294	9800.9
436.501	9626.82
436.708	9637.06
436.915	9903.29
437.122	10460.34
437.329	10405.05
437.537	10626.23
437.743	10998.96
437.95	10677.43
438.157	11351.21
438.364	11906.21
438.571	11535.53
438.778	11873.44
438.985	12688.53
439.192	12448.92
439.399	12698.77
439.606	12389.53
439.813	13085.84
440.02	14060.67
440.227	13444.23
440.433	13587.59
440.64	14124.16
440.847	13747.33
441.054	14367.87
441.261	15103.09
441.467	14826.61
441.674	15336.56
441.881	15895.65
442.088	15768.68
442.294	15993.95
442.501	16014.43
442.708	16362.59
442.914	17198.16
443.121	17677.38
443.328	17222.73
443.534	18517.05
443.741	18048.07
443.948	17624.14
444.154	19274.8
444.361	18914.36
444.568	19037.23
444.774	18723.9
444.981	19209.26
445.187	19702.82
445.394	20450.33
445.6	20243.49
445.807	22336.51
446.013	21269.52
446.22	21470.22
446.426	22688.76
446.633	22664.19
446.839	23636.97
447.046	22348.8
447.252	23796.71
447.459	23518.19
447.665	23495.66
447.871	24798.17
448.078	25676.75
448.284	24458.21
448.491	25267.16
448.697	26123.21
448.903	26528.7
449.11	26430.4
449.316	26258.37
449.522	26647.49
449.728	27392.95
449.935	27644.85
450.141	27714.48
450.347	27978.67
450.553	27044.79
450.76	27911.08
450.966	28490.66
451.172	28048.3
451.378	28967.84
451.584	28564.39
451.791	29209.5
451.997	28949.4
452.203	29619.09
452.409	29586.32
452.615	29506.45
452.821	28169.13
453.027	27747.25
453.233	29322.13
453.44	28308.39
453.646	28056.49
453.852	28734.37
454.058	29272.98
454.264	28066.73
454.47	28722.08
454.676	27954.09
454.882	28904.35
455.088	26387.39
455.294	26801.08
455.5	27263.93
455.705	27700.14
455.911	26129.35
456.117	25916.36
456.323	25719.76
456.529	24540.13
456.735	25547.73
456.941	24712.16
457.147	24316.9
457.352	23462.9
457.558	23323.63
457.764	23327.73
457.97	22838.26
458.176	22510.59
458.381	22705.15
458.587	21351.44
458.793	21140.5
458.999	20116.51
459.204	21589
459.41	20972.57
459.616	19547.18
459.821	19414.06
460.027	19608.62
460.233	19139.63
460.438	18216
460.644	18357.31
460.85	17601.61
461.055	17439.82
461.261	17216.59
461.466	16043.1
461.672	15660.13
461.878	16583.77
462.083	15441
462.289	14994.54
462.494	14937.2
462.7	14302.33
462.905	13767.81
463.111	14453.88
463.316	14113.92
463.522	14087.29
463.727	14015.62
463.932	14027.9
464.138	13898.88
464.343	13911.17
464.549	13599.88
464.754	14144.64
464.959	13882.5
465.165	13798.53
465.37	13200.52
465.575	12919.95
465.781	13438.09
465.986	13266.06
466.191	12864.66
466.397	12493.97
466.602	12106.91
466.807	12596.37
467.012	12455.06
467.218	12491.93
467.423	12373.14
467.628	12283.03
467.833	12827.79
468.038	12422.3
468.244	12053.66
468.449	12410.01
