Data from USB4F104151__113__14-31-09-337.txt Node

Date: Thu Mar 13 14:31:09 EDT 2025
User: louis
Spectrometer: USB4F10415
Trigger mode: 4
Integration Time (sec): 2.500000E-2
Scans to average: 1
Electric dark correction enabled: true
Nonlinearity correction enabled: false
Boxcar width: 0
XAxis mode: Wavelengths
Number of Pixels in Spectrum: 3648
>>>>>Begin Spectral Data<<<<<
178.204	-79.87
178.424	-79.87
178.644	-79.87
178.864	-165.89
179.084	-169.98
179.304	26.62
179.524	-2.05
179.744	-26.62
179.964	20.48
180.184	51.2
180.404	-4.1
180.624	-34.82
180.844	-14.34
181.064	-10.24
181.283	10.24
181.503	-36.86
181.723	20.48
181.943	-49.15
182.163	36.86
182.383	2.05
182.602	110.59
182.822	55.3
183.042	2.05
183.262	10.24
183.482	14.34
183.701	4.1
183.921	-10.24
184.141	40.96
184.361	157.69
184.58	38.91
184.8	30.72
185.02	-14.34
185.239	108.54
185.459	-10.24
185.679	43.01
185.898	-14.34
186.118	63.49
186.338	-6.14
186.557	26.62
186.777	-98.3
186.997	59.39
187.216	28.67
187.436	45.06
187.655	43.01
187.875	83.97
188.095	-20.48
188.314	63.49
188.534	116.73
188.753	36.86
188.973	79.87
189.192	102.4
189.412	45.06
189.631	92.16
189.851	18.43
190.07	51.2
190.29	-77.82
190.509	43.01
190.729	4.1
190.948	67.58
191.168	141.31
191.387	43.01
191.607	-26.62
191.826	20.48
192.045	2.05
192.265	73.73
192.484	8.19
192.704	38.91
192.923	16.38
193.142	71.68
193.362	18.43
193.581	2.05
193.8	61.44
194.02	116.73
194.239	59.39
194.458	75.77
194.678	73.73
194.897	-28.67
195.116	24.58
195.335	-2.05
195.555	-14.34
195.774	32.77
195.993	81.92
196.212	51.2
196.432	36.86
196.651	-30.72
196.87	63.49
197.089	129.02
197.308	18.43
197.528	86.01
197.747	-22.53
197.966	-30.72
198.185	69.63
198.404	57.34
198.623	116.73
198.842	-55.3
199.062	51.2
199.281	77.82
199.5	-6.14
199.719	67.58
199.938	-12.29
200.157	63.49
200.376	12.29
200.595	108.54
200.814	108.54
201.033	65.53
201.252	30.72
201.471	36.86
201.69	55.3
201.909	10.24
202.128	53.25
202.347	-4.1
202.566	2.05
202.785	-38.91
203.004	-12.29
203.223	53.25
203.442	-30.72
203.661	43.01
203.879	112.64
204.098	79.87
204.317	71.68
204.536	100.35
204.755	-6.14
204.974	32.77
205.193	124.93
205.411	51.2
205.63	-22.53
205.849	-20.48
206.068	-26.62
206.287	-14.34
206.505	-10.24
206.724	20.48
206.943	34.82
207.162	30.72
207.381	34.82
207.599	-77.82
207.818	-22.53
208.037	-38.91
208.255	-22.53
208.474	110.59
208.693	59.39
208.911	4.1
209.13	86.01
209.349	22.53
209.567	-12.29
209.786	43.01
210.005	26.62
210.223	34.82
210.442	-30.72
210.661	4.1
210.879	-2.05
211.098	45.06
211.316	26.62
211.535	61.44
211.753	36.86
211.972	51.2
212.191	10.24
212.409	22.53
212.628	51.2
212.846	10.24
213.065	53.25
213.283	14.34
213.502	34.82
213.72	18.43
213.938	-6.14
214.157	-6.14
214.375	16.38
214.594	26.62
214.812	-14.34
215.031	16.38
215.249	-4.1
215.467	-20.48
215.686	-36.86
215.904	61.44
216.122	53.25
216.341	71.68
216.559	43.01
216.778	59.39
216.996	71.68
217.214	71.68
217.432	-45.06
217.651	22.53
217.869	43.01
218.087	-22.53
218.306	18.43
218.524	-32.77
218.742	61.44
218.96	34.82
219.179	24.58
219.397	18.43
219.615	120.83
219.833	32.77
220.051	63.49
220.27	-45.06
220.488	69.63
220.706	10.24
220.924	-43.01
221.142	10.24
221.36	-81.92
221.578	-12.29
221.796	-14.34
222.015	45.06
222.233	4.1
222.451	112.64
222.669	-34.82
222.887	49.15
223.105	-38.91
223.323	92.16
223.541	22.53
223.759	69.63
223.977	22.53
224.195	59.39
224.413	69.63
224.631	34.82
224.849	63.49
225.067	108.54
225.285	-14.34
225.503	-14.34
225.721	-49.15
225.939	2.05
226.157	16.38
226.375	129.02
226.592	40.96
226.81	-55.3
227.028	34.82
227.246	161.79
227.464	40.96
227.682	47.1
227.9	36.86
228.117	79.87
228.335	65.53
228.553	83.97
228.771	59.39
228.989	67.58
229.206	47.1
229.424	36.86
229.642	-32.77
229.86	18.43
230.077	79.87
230.295	10.24
230.513	10.24
230.731	83.97
230.948	92.16
231.166	92.16
231.384	45.06
231.601	32.77
231.819	75.77
232.037	73.73
232.254	8.19
232.472	45.06
232.689	-32.77
232.907	83.97
233.125	2.05
233.342	10.24
233.56	75.77
233.777	12.29
233.995	30.72
234.213	28.67
234.43	-14.34
234.648	18.43
234.865	-4.1
235.083	141.31
235.3	100.35
235.518	77.82
235.735	71.68
235.953	75.77
236.17	-6.14
236.388	-4.1
236.605	6.14
236.822	47.1
237.04	63.49
237.257	6.14
237.475	43.01
237.692	18.43
237.909	59.39
238.127	-45.06
238.344	30.72
238.562	59.39
238.779	-24.58
238.996	-22.53
239.214	57.34
239.431	104.45
239.648	38.91
239.865	51.2
240.083	92.16
240.3	43.01
240.517	53.25
240.735	4.1
240.952	79.87
241.169	10.24
241.386	104.45
241.603	59.39
241.821	-61.44
242.038	55.3
242.255	34.82
242.472	-6.14
242.689	75.77
242.907	30.72
243.124	53.25
243.341	59.39
243.558	-12.29
243.775	-28.67
243.992	-18.43
244.209	71.68
244.426	86.01
244.643	49.15
244.86	-22.53
245.078	47.1
245.295	-12.29
245.512	75.77
245.729	-6.14
245.946	-26.62
246.163	79.87
246.38	53.25
246.597	12.29
246.814	88.06
247.031	30.72
247.248	75.77
247.464	83.97
247.681	63.49
247.898	6.14
248.115	30.72
248.332	-6.14
248.549	18.43
248.766	75.77
248.983	-12.29
249.2	22.53
249.417	104.45
249.633	2.05
249.85	30.72
250.067	14.34
250.284	71.68
250.501	63.49
250.717	51.2
250.934	-2.05
251.151	36.86
251.368	38.91
251.585	45.06
251.801	57.34
252.018	47.1
252.235	65.53
252.451	18.43
252.668	-22.53
252.885	75.77
253.102	102.4
253.318	6.14
253.535	28.67
253.752	-32.77
253.968	28.67
254.185	12.29
254.401	30.72
254.618	43.01
254.835	-2.05
255.051	30.72
255.268	83.97
255.484	28.67
255.701	104.45
255.917	92.16
256.134	-36.86
256.351	51.2
256.567	-4.1
256.784	32.77
257	-71.68
257.217	75.77
257.433	6.14
257.65	18.43
257.866	47.1
258.082	12.29
258.299	38.91
258.515	53.25
258.732	38.91
258.948	-28.67
259.165	53.25
259.381	63.49
259.597	45.06
259.814	-2.05
260.03	-47.1
260.246	47.1
260.463	53.25
260.679	-14.34
260.895	92.16
261.112	26.62
261.328	-36.86
261.544	71.68
261.761	153.6
261.977	22.53
262.193	8.19
262.409	38.91
262.626	12.29
262.842	63.49
263.058	-0
263.274	145.41
263.49	94.21
263.707	63.49
263.923	34.82
264.139	-12.29
264.355	20.48
264.571	43.01
264.787	20.48
265.004	104.45
265.22	8.19
265.436	26.62
265.652	-14.34
265.868	36.86
266.084	-59.39
266.3	86.01
266.516	2.05
266.732	26.62
266.948	26.62
267.164	61.44
267.38	55.3
267.596	77.82
267.812	53.25
268.028	77.82
268.244	-38.91
268.46	43.01
268.676	81.92
268.892	34.82
269.108	20.48
269.324	-28.67
269.54	-59.39
269.756	30.72
269.972	-51.2
270.188	51.2
270.403	-51.2
270.619	26.62
270.835	2.05
271.051	106.49
271.267	36.86
271.483	34.82
271.698	-2.05
271.914	34.82
272.13	40.96
272.346	-14.34
272.562	28.67
272.777	92.16
272.993	12.29
273.209	34.82
273.425	38.91
273.64	38.91
273.856	79.87
274.072	22.53
274.287	10.24
274.503	36.86
274.719	108.54
274.934	63.49
275.15	-28.67
275.366	22.53
275.581	36.86
275.797	28.67
276.012	-20.48
276.228	34.82
276.444	18.43
276.659	65.53
276.875	61.44
277.09	20.48
277.306	104.45
277.521	-6.14
277.737	53.25
277.952	77.82
278.168	65.53
278.383	69.63
278.599	69.63
278.814	133.12
279.03	-43.01
279.245	96.25
279.461	6.14
279.676	61.44
279.892	32.77
280.107	28.67
280.322	10.24
280.538	63.49
280.753	120.83
280.969	124.93
281.184	34.82
281.399	30.72
281.615	34.82
281.83	51.2
282.045	-28.67
282.26	20.48
282.476	-6.14
282.691	51.2
282.906	75.77
283.122	75.77
283.337	-12.29
283.552	77.82
283.767	2.05
283.983	118.78
284.198	38.91
284.413	18.43
284.628	4.1
284.843	51.2
285.058	22.53
285.274	30.72
285.489	75.77
285.704	26.62
285.919	20.48
286.134	92.16
286.349	30.72
286.564	63.49
286.779	79.87
286.995	10.24
287.21	49.15
287.425	12.29
287.64	-4.1
287.855	43.01
288.07	-14.34
288.285	51.2
288.5	81.92
288.715	28.67
288.93	14.34
289.145	55.3
289.36	26.62
289.575	18.43
289.79	90.11
290.004	51.2
290.219	79.87
290.434	83.97
290.649	22.53
290.864	34.82
291.079	-6.14
291.294	71.68
291.509	36.86
291.724	94.21
291.938	-4.1
292.153	32.77
292.368	51.2
292.583	43.01
292.798	100.35
293.012	131.07
293.227	-2.05
293.442	49.15
293.657	59.39
293.871	22.53
294.086	47.1
294.301	75.77
294.516	67.58
294.73	71.68
294.945	18.43
295.16	83.97
295.374	118.78
295.589	28.67
295.804	4.1
296.018	18.43
296.233	86.01
296.447	26.62
296.662	86.01
296.877	114.69
297.091	43.01
297.306	90.11
297.52	43.01
297.735	47.1
297.949	79.87
298.164	40.96
298.378	-6.14
298.593	63.49
298.807	49.15
299.022	6.14
299.236	67.58
299.451	18.43
299.665	59.39
299.88	96.25
300.094	124.93
300.309	26.62
300.523	51.2
300.737	102.4
300.952	59.39
301.166	59.39
301.381	34.82
301.595	45.06
301.809	45.06
302.024	12.29
302.238	28.67
302.452	100.35
302.667	28.67
302.881	63.49
303.095	63.49
303.309	67.58
303.524	47.1
303.738	-10.24
303.952	-12.29
304.166	81.92
304.381	-47.1
304.595	98.3
304.809	51.2
305.023	26.62
305.237	75.77
305.452	20.48
305.666	63.49
305.88	45.06
306.094	-22.53
306.308	120.83
306.522	61.44
306.736	92.16
306.95	57.34
307.164	20.48
307.379	100.35
307.593	108.54
307.807	104.45
308.021	75.77
308.235	34.82
308.449	-26.62
308.663	-10.24
308.877	94.21
309.091	-4.1
309.305	-18.43
309.519	-28.67
309.733	-10.24
309.947	-6.14
310.161	63.49
310.374	-30.72
310.588	59.39
310.802	26.62
311.016	-2.05
311.23	47.1
311.444	-30.72
311.658	59.39
311.872	126.97
312.085	69.63
312.299	129.02
312.513	26.62
312.727	86.01
312.941	18.43
313.154	43.01
313.368	43.01
313.582	-12.29
313.796	-43.01
314.009	4.1
314.223	90.11
314.437	12.29
314.651	47.1
314.864	-4.1
315.078	53.25
315.292	6.14
315.505	16.38
315.719	6.14
315.933	-2.05
316.146	51.2
316.36	16.38
316.573	65.53
316.787	67.58
317.001	10.24
317.214	71.68
317.428	51.2
317.641	61.44
317.855	12.29
318.068	28.67
318.282	83.97
318.495	94.21
318.709	67.58
318.922	49.15
319.136	67.58
319.349	47.1
319.563	6.14
319.776	40.96
319.99	45.06
320.203	-30.72
320.417	10.24
320.63	83.97
320.843	122.88
321.057	47.1
321.27	36.86
321.483	49.15
321.697	34.82
321.91	26.62
322.124	26.62
322.337	45.06
322.55	88.06
322.763	2.05
322.977	-18.43
323.19	43.01
323.403	26.62
323.617	47.1
323.83	53.25
324.043	36.86
324.256	-2.05
324.469	18.43
324.683	-12.29
324.896	67.58
325.109	71.68
325.322	12.29
325.535	43.01
325.748	65.53
325.962	-8.19
326.175	102.4
326.388	18.43
326.601	57.34
326.814	-47.1
327.027	-6.14
327.24	100.35
327.453	18.43
327.666	43.01
327.879	75.77
328.092	51.2
328.305	-26.62
328.518	28.67
328.731	34.82
328.944	43.01
329.157	67.58
329.37	53.25
329.583	88.06
329.796	16.38
330.009	-10.24
330.222	75.77
330.435	81.92
330.648	53.25
330.861	49.15
331.073	73.73
331.286	26.62
331.499	34.82
331.712	-26.62
331.925	100.35
332.138	61.44
332.35	43.01
332.563	-2.05
332.776	67.58
332.989	75.77
333.202	63.49
333.414	43.01
333.627	-6.14
333.84	71.68
334.053	110.59
334.265	67.58
334.478	49.15
334.691	43.01
334.903	47.1
335.116	-71.68
335.329	20.48
335.541	104.45
335.754	110.59
335.966	22.53
336.179	2.05
336.392	67.58
336.604	49.15
336.817	118.78
337.029	106.49
337.242	14.34
337.454	-30.72
337.667	55.3
337.88	69.63
338.092	86.01
338.305	-2.05
338.517	-14.34
338.729	159.74
338.942	92.16
339.154	-16.38
339.367	51.2
339.579	141.31
339.792	40.96
340.004	83.97
340.217	20.48
340.429	51.2
340.641	-47.1
340.854	-16.38
341.066	-59.39
341.278	59.39
341.491	67.58
341.703	38.91
341.915	43.01
342.128	116.73
342.34	20.48
342.552	2.05
342.764	36.86
342.977	63.49
343.189	28.67
343.401	20.48
343.613	34.82
343.826	53.25
344.038	4.1
344.25	43.01
344.462	40.96
344.674	77.82
344.886	22.53
345.099	20.48
345.311	75.77
345.523	10.24
345.735	2.05
345.947	110.59
346.159	-4.1
346.371	79.87
346.583	79.87
346.795	83.97
347.007	22.53
347.219	71.68
347.431	69.63
347.643	108.54
347.855	26.62
348.067	36.86
348.279	53.25
348.491	4.1
348.703	28.67
348.915	10.24
349.127	22.53
349.339	59.39
349.551	2.05
349.763	59.39
349.975	53.25
350.187	47.1
350.399	86.01
350.61	83.97
350.822	65.53
351.034	49.15
351.246	-88.06
351.458	83.97
351.669	100.35
351.881	26.62
352.093	116.73
352.305	18.43
352.517	34.82
352.728	43.01
352.94	67.58
353.152	75.77
353.363	53.25
353.575	108.54
353.787	71.68
353.999	47.1
354.21	55.3
354.422	133.12
354.633	-2.05
354.845	20.48
355.057	53.25
355.268	67.58
355.48	57.34
355.692	2.05
355.903	28.67
356.115	88.06
356.326	-43.01
356.538	153.6
356.749	92.16
356.961	65.53
357.172	55.3
357.384	61.44
357.595	110.59
357.807	10.24
358.018	14.34
358.23	73.73
358.441	151.55
358.653	124.93
358.864	-14.34
359.075	-4.1
359.287	8.19
359.498	43.01
359.709	83.97
359.921	-2.05
360.132	67.58
360.344	94.21
360.555	49.15
360.766	45.06
360.977	-38.91
361.189	143.36
361.4	34.82
361.611	83.97
361.823	108.54
362.034	20.48
362.245	-30.72
362.456	18.43
362.667	147.45
362.879	18.43
363.09	22.53
363.301	116.73
363.512	79.87
363.723	118.78
363.935	61.44
364.146	59.39
364.357	26.62
364.568	-4.1
364.779	61.44
364.99	120.83
365.201	47.1
365.412	69.63
365.623	43.01
365.834	53.25
366.045	79.87
366.256	28.67
366.467	28.67
366.678	-28.67
366.889	55.3
367.1	59.39
367.311	2.05
367.522	53.25
367.733	36.86
367.944	92.16
368.155	120.83
368.366	100.35
368.577	83.97
368.788	106.49
368.999	10.24
369.209	36.86
369.42	102.4
369.631	94.21
369.842	18.43
370.053	53.25
370.264	49.15
370.474	20.48
370.685	71.68
370.896	55.3
371.107	63.49
371.317	79.87
371.528	114.69
371.739	129.02
371.95	59.39
372.16	77.82
372.371	28.67
372.582	53.25
372.792	110.59
373.003	34.82
373.214	43.01
373.424	47.1
373.635	47.1
373.846	133.12
374.056	43.01
374.267	45.06
374.477	112.64
374.688	-18.43
374.898	20.48
375.109	59.39
375.319	22.53
375.53	98.3
375.74	108.54
375.951	26.62
376.161	137.21
376.372	67.58
376.582	36.86
376.793	55.3
377.003	47.1
377.214	43.01
377.424	77.82
377.635	45.06
377.845	-2.05
378.055	161.79
378.266	34.82
378.476	36.86
378.686	100.35
378.897	34.82
379.107	67.58
379.317	67.58
379.528	6.14
379.738	100.35
379.948	10.24
380.158	157.69
380.369	36.86
380.579	77.82
380.789	36.86
380.999	73.73
381.21	53.25
381.42	157.69
381.63	55.3
381.84	4.1
382.05	18.43
382.261	108.54
382.471	94.21
382.681	49.15
382.891	79.87
383.101	88.06
383.311	10.24
383.521	43.01
383.731	51.2
383.941	53.25
384.151	69.63
384.361	92.16
384.571	124.93
384.781	43.01
384.991	75.77
385.201	157.69
385.411	86.01
385.621	59.39
385.831	98.3
386.041	28.67
386.251	-12.29
386.461	96.25
386.671	59.39
386.881	4.1
387.091	102.4
387.301	40.96
387.511	10.24
387.72	2.05
387.93	34.82
388.14	-63.49
388.35	26.62
388.56	133.12
388.769	83.97
388.979	102.4
389.189	75.77
389.399	92.16
389.609	92.16
389.818	94.21
390.028	79.87
390.238	67.58
390.447	92.16
390.657	169.98
390.867	124.93
391.076	45.06
391.286	79.87
391.496	100.35
391.705	10.24
391.915	108.54
392.125	75.77
392.334	67.58
392.544	163.84
392.753	108.54
392.963	34.82
393.172	43.01
393.382	-8.19
393.591	165.89
393.801	129.02
394.01	129.02
394.22	77.82
394.429	151.55
394.639	61.44
394.848	88.06
395.058	129.02
395.267	129.02
395.477	157.69
395.686	141.31
395.895	149.5
396.105	75.77
396.314	110.59
396.524	116.73
396.733	165.89
396.942	131.07
397.152	133.12
397.361	169.98
397.57	137.21
397.78	108.54
397.989	161.79
398.198	247.8
398.407	124.93
398.617	96.25
398.826	108.54
399.035	51.2
399.244	104.45
399.453	161.79
399.663	114.69
399.872	161.79
400.081	139.26
400.29	90.11
400.499	79.87
400.708	153.6
400.917	198.65
401.127	49.15
401.336	108.54
401.545	198.65
401.754	229.37
401.963	235.52
402.172	190.46
402.381	79.87
402.59	247.8
402.799	153.6
403.008	102.4
403.217	116.73
403.426	182.27
403.635	194.56
403.844	239.61
404.053	100.35
404.262	176.13
404.471	284.67
404.68	284.67
404.888	153.6
405.097	200.7
405.306	198.65
405.515	149.5
405.724	251.9
405.933	178.17
406.142	239.61
406.35	317.44
406.559	233.47
406.768	266.24
406.977	331.77
407.185	215.04
407.394	313.34
407.603	305.15
407.812	280.57
408.02	299
408.229	272.38
408.438	247.8
408.646	215.04
408.855	321.53
409.064	387.07
409.272	272.38
409.481	423.93
409.69	348.15
409.898	305.15
410.107	497.66
410.315	382.97
410.524	407.55
410.733	466.94
410.941	419.83
411.15	428.03
411.358	421.88
411.567	555
411.775	534.52
411.984	567.29
412.192	571.38
412.401	608.25
412.609	663.54
412.818	686.07
413.026	612.34
413.234	686.07
413.443	690.17
413.651	634.87
413.86	780.28
414.068	741.36
414.276	778.23
414.485	847.86
414.693	796.66
414.901	952.31
415.11	909.3
415.318	870.39
415.526	929.78
415.734	1083.38
415.943	1042.42
416.151	1112.05
416.359	1095.66
416.567	1134.57
416.776	1167.34
416.984	1185.77
417.192	1292.27
417.4	1279.98
417.608	1279.98
417.817	1415.15
418.025	1353.71
418.233	1585.13
418.441	1488.87
418.649	1574.89
418.857	1632.23
419.065	1689.57
419.273	1673.19
419.481	1779.68
419.689	1771.49
419.897	1988.58
420.105	1996.77
420.313	2080.74
420.521	1984.48
420.729	2142.18
420.937	2193.37
421.145	2306.01
421.353	2365.4
421.561	2519
421.769	2484.19
421.977	2697.17
422.185	2592.73
422.393	2727.89
422.601	2938.84
422.809	2924.5
423.017	2850.77
423.224	3180.5
423.432	3229.65
423.64	3323.85
423.848	3565.51
424.056	3395.53
424.263	3749.83
424.471	3688.39
424.679	3866.56
424.887	4149.18
425.094	4179.9
425.302	4122.56
425.51	4403.13
425.718	4259.77
425.925	4444.09
426.133	4700.09
426.341	4892.6
426.548	5218.22
426.756	5052.34
426.964	5187.5
427.171	5506.99
427.379	5670.83
427.586	5679.02
427.794	5857.19
428.001	6057.89
428.209	6518.68
428.417	6301.6
428.624	6727.58
428.832	6868.89
429.039	6784.92
429.247	6793.11
429.454	7425.93
429.662	7954.31
429.869	7315.34
430.076	7788.43
430.284	7718.79
430.491	8009.61
430.699	8267.65
430.906	8339.33
431.114	8433.54
431.321	8703.87
431.528	9037.69
431.736	9381.74
431.943	10067.81
432.15	9914.22
432.358	9848.68
432.565	10428.26
432.772	10403.68
432.979	10897.24
433.187	11104.09
433.394	11030.36
433.601	11810.64
433.808	11777.87
434.016	11757.39
434.223	12136.26
434.43	12830.52
434.637	12676.93
434.844	13412.15
435.052	13776.69
435.259	13848.36
435.466	13625.14
435.673	13645.62
435.88	14673.7
436.087	15327
436.294	15410.96
436.501	15230.74
436.708	15195.93
436.915	15900.43
437.122	16449.28
437.329	16447.24
437.537	17028.86
437.743	17006.33
437.95	16928.51
438.157	17983.21
438.364	18482.92
438.571	18507.49
438.778	18659.04
438.985	20238.03
439.192	19324.63
439.399	20160.2
439.606	19693.27
439.813	21067.45
440.02	22189.74
440.227	21753.52
440.433	21253.82
440.64	22242.99
440.847	22075.06
441.054	22410.92
441.261	23854.74
441.467	23594.65
441.674	24379.02
441.881	25210.5
442.088	24862.34
442.294	24811.14
442.501	25513.59
442.708	25972.34
442.914	26893.93
443.121	27971.16
443.328	27289.18
443.534	28849.74
443.741	28597.84
443.948	27958.87
444.154	29978.17
444.361	29978.17
444.568	30209.59
444.774	30078.52
444.981	30142
445.187	31090.21
445.394	32634.38
445.6	32140.82
445.807	35005.93
446.013	33404.42
446.22	34276.85
446.426	35745.25
446.633	36275.67
446.839	36969.93
447.046	35749.34
447.252	37815.74
447.459	37486.02
447.665	37277.13
447.871	38550.96
448.078	40494.49
448.284	38477.24
448.491	39982.49
448.697	41137.55
448.903	41913.73
449.11	42327.42
449.316	40992.14
449.522	42423.67
449.728	43308.4
449.935	43646.31
450.141	43611.49
450.347	44541.27
450.553	42999.15
450.76	43824.48
450.966	44875.09
451.172	44571.99
451.378	45866.31
451.584	45110.61
451.791	45849.92
451.997	45595.98
452.203	46646.58
452.409	46708.02
452.615	46523.71
452.821	44442.97
453.027	44182.88
453.233	46531.9
453.44	44686.68
453.646	44950.87
453.852	45020.5
454.058	45915.46
454.264	44387.67
454.47	45436.23
454.676	44305.76
454.882	45776.2
455.088	41692.55
455.294	42454.39
455.5	43576.68
455.705	43535.72
455.911	41942.4
456.117	41272.71
456.323	40684.95
456.529	38503.86
456.735	40140.19
456.941	38940.08
457.147	38409.65
457.352	37393.86
457.558	37156.3
457.764	36795.85
457.97	36283.86
458.176	35286.5
458.381	35253.73
458.587	33459.71
458.793	33668.61
458.999	31956.5
459.204	34078.2
459.41	33281.54
459.616	31219.24
459.821	31034.92
460.027	30998.06
460.233	30438.96
460.438	29148.74
460.644	29314.62
460.85	27840.09
461.055	27381.34
461.261	27551.32
461.466	25548.41
461.672	24671.88
461.878	26709.61
462.083	24477.32
462.289	24325.77
462.494	24075.92
462.7	22752.93
462.905	22206.13
463.111	22965.92
463.316	23178.91
463.522	22458.03
463.727	22787.75
463.932	22537.9
464.138	22218.41
464.343	22449.83
464.549	21591.73
464.754	22386.35
464.959	22116.01
465.165	22021.81
465.37	20924.1
465.575	20659.91
465.781	21345.98
465.986	21319.35
466.191	20618.95
466.397	20260.55
466.602	19265.24
