Data from USB4F104151__290__14-34-52-648.txt Node

Date: Thu Mar 13 14:34:52 EDT 2025
User: louis
Spectrometer: USB4F10415
Trigger mode: 4
Integration Time (sec): 2.500000E-2
Scans to average: 1
Electric dark correction enabled: true
Nonlinearity correction enabled: false
Boxcar width: 0
XAxis mode: Wavelengths
Number of Pixels in Spectrum: 3648
>>>>>Begin Spectral Data<<<<<
178.204	-158.21
178.424	-158.21
178.644	-158.21
178.864	-184.83
179.084	-139.77
179.304	3.58
179.524	-14.85
179.744	11.78
179.964	30.21
180.184	-4.61
180.404	-2.56
180.624	-0.51
180.844	-14.85
181.064	-20.99
181.283	15.87
181.503	3.58
181.723	-6.66
181.943	-31.23
182.163	89.6
182.383	-20.99
182.602	69.12
182.822	28.16
183.042	79.36
183.262	24.06
183.482	22.02
183.701	-16.9
183.921	75.26
184.141	-35.33
184.361	36.35
184.58	-78.33
184.8	36.35
185.02	44.54
185.239	-10.75
185.459	97.79
185.679	54.78
185.898	-88.57
186.118	48.64
186.338	-0.51
186.557	112.13
186.777	-100.86
186.997	-27.14
187.216	-49.66
187.436	79.36
187.655	54.78
187.875	3.58
188.095	44.54
188.314	7.68
188.534	128.51
188.753	-37.38
188.973	3.58
189.192	36.35
189.412	-18.94
189.631	3.58
189.851	36.35
190.07	46.59
190.29	3.58
190.509	-0.51
190.729	-35.33
190.948	54.78
191.168	108.03
191.387	85.5
191.607	-8.7
191.826	54.78
192.045	-20.99
192.265	-12.8
192.484	91.65
192.704	-6.66
192.923	73.21
193.142	138.75
193.362	15.87
193.581	89.6
193.8	11.78
194.02	1.54
194.239	-0.51
194.458	-18.94
194.678	17.92
194.897	38.4
195.116	28.16
195.335	79.36
195.555	95.74
195.774	44.54
195.993	56.83
196.212	40.45
196.432	-10.75
196.651	28.16
196.87	-41.47
197.089	122.37
197.308	13.82
197.528	42.5
197.747	-29.18
197.966	60.93
198.185	28.16
198.404	-14.85
198.623	22.02
198.842	69.12
199.062	122.37
199.281	60.93
199.5	11.78
199.719	28.16
199.938	69.12
200.157	46.59
200.376	44.54
200.595	-45.57
200.814	5.63
201.033	-27.14
201.252	65.02
201.471	15.87
201.69	44.54
201.909	52.74
202.128	38.4
202.347	79.36
202.566	67.07
202.785	-25.09
203.004	-76.29
203.223	120.32
203.442	32.26
203.661	36.35
203.879	54.78
204.098	-8.7
204.317	-8.7
204.536	11.78
204.755	28.16
204.974	-8.7
205.193	32.26
205.411	67.07
205.63	3.58
205.849	-10.75
206.068	22.02
206.287	13.82
206.505	50.69
206.724	36.35
206.943	79.36
207.162	11.78
207.381	28.16
207.599	48.64
207.818	-12.8
208.037	44.54
208.255	-6.66
208.474	40.45
208.693	15.87
208.911	-4.61
209.13	3.58
209.349	-8.7
209.567	42.5
209.786	13.82
210.005	5.63
210.223	11.78
210.442	-4.61
210.661	-29.18
210.879	9.73
211.098	-25.09
211.316	5.63
211.535	65.02
211.753	-4.61
211.972	87.55
212.191	-37.38
212.409	79.36
212.628	58.88
212.846	15.87
213.065	54.78
213.283	52.74
213.502	46.59
213.72	54.78
213.938	-41.47
214.157	40.45
214.375	-4.61
214.594	-27.14
214.812	-35.33
215.031	44.54
215.249	28.16
215.467	44.54
215.686	-43.52
215.904	87.55
216.122	-27.14
216.341	36.35
216.559	58.88
216.778	40.45
216.996	-29.18
217.214	-12.8
217.432	-78.33
217.651	54.78
217.869	19.97
218.087	-14.85
218.306	19.97
218.524	71.17
218.742	7.68
218.96	13.82
219.179	-4.61
219.397	-18.94
219.615	46.59
219.833	62.98
220.051	-20.99
220.27	54.78
220.488	24.06
220.706	-6.66
220.924	-37.38
221.142	-20.99
221.36	81.41
221.578	17.92
221.796	13.82
222.015	22.02
222.233	22.02
222.451	54.78
222.669	-41.47
222.887	62.98
223.105	13.82
223.323	-0.51
223.541	11.78
223.759	40.45
223.977	24.06
224.195	79.36
224.413	112.13
224.631	13.82
224.849	52.74
225.067	71.17
225.285	-14.85
225.503	-76.29
225.721	-27.14
225.939	-0.51
226.157	-4.61
226.375	140.8
226.592	46.59
226.81	75.26
227.028	-2.56
227.246	46.59
227.464	11.78
227.682	3.58
227.9	36.35
228.117	-4.61
228.335	-35.33
228.553	30.21
228.771	-8.7
228.989	24.06
229.206	62.98
229.424	62.98
229.642	-2.56
229.86	-29.18
230.077	-8.7
230.295	87.55
230.513	36.35
230.731	69.12
230.948	11.78
231.166	-59.9
231.384	-4.61
231.601	-27.14
231.819	28.16
232.037	-20.99
232.254	-39.42
232.472	38.4
232.689	52.74
232.907	60.93
233.125	-4.61
233.342	3.58
233.56	19.97
233.777	52.74
233.995	-25.09
234.213	69.12
234.43	44.54
234.648	28.16
234.865	60.93
235.083	46.59
235.3	69.12
235.518	42.5
235.735	93.69
235.953	46.59
236.17	62.98
236.388	65.02
236.605	-27.14
236.822	28.16
237.04	134.65
237.257	-61.95
237.475	13.82
237.692	19.97
237.909	19.97
238.127	5.63
238.344	65.02
238.562	-8.7
238.779	-2.56
238.996	-8.7
239.214	67.07
239.431	34.3
239.648	5.63
239.865	93.69
240.083	15.87
240.3	-27.14
240.517	24.06
240.735	-8.7
240.952	62.98
241.169	130.56
241.386	110.08
241.603	-23.04
241.821	-2.56
242.038	69.12
242.255	-12.8
242.472	34.3
242.689	11.78
242.907	-4.61
243.124	24.06
243.341	-57.86
243.558	-86.53
243.775	30.21
243.992	17.92
244.209	73.21
244.426	93.69
244.643	60.93
244.86	-27.14
245.078	7.68
245.295	89.6
245.512	73.21
245.729	19.97
245.946	9.73
246.163	32.26
246.38	44.54
246.597	17.92
246.814	30.21
247.031	42.5
247.248	48.64
247.464	11.78
247.681	3.58
247.898	32.26
248.115	13.82
248.332	-16.9
248.549	-4.61
248.766	112.13
248.983	38.4
249.2	-47.62
249.417	13.82
249.633	1.54
249.85	32.26
250.067	50.69
250.284	-4.61
250.501	-16.9
250.717	5.63
250.934	-37.38
251.151	22.02
251.368	38.4
251.585	-10.75
251.801	73.21
252.018	-53.76
252.235	46.59
252.451	-16.9
252.668	9.73
252.885	36.35
253.102	-25.09
253.318	13.82
253.535	-29.18
253.752	19.97
253.968	-27.14
254.185	5.63
254.401	67.07
254.618	-47.62
254.835	-78.33
255.051	-12.8
255.268	-0.51
255.484	46.59
255.701	50.69
255.917	9.73
256.134	60.93
256.351	3.58
256.567	-53.76
256.784	40.45
257	-43.52
257.217	89.6
257.433	36.35
257.65	5.63
257.866	52.74
258.082	-59.9
258.299	-16.9
258.515	42.5
258.732	-6.66
258.948	30.21
259.165	24.06
259.381	93.69
259.597	-0.51
259.814	28.16
260.03	77.31
260.246	-37.38
260.463	26.11
260.679	62.98
260.895	-61.95
261.112	54.78
261.328	19.97
261.544	36.35
261.761	79.36
261.977	5.63
262.193	-66.05
262.409	36.35
262.626	42.5
262.842	11.78
263.058	3.58
263.274	69.12
263.49	24.06
263.707	36.35
263.923	36.35
264.139	-68.09
264.355	52.74
264.571	19.97
264.787	42.5
265.004	118.27
265.22	148.99
265.436	11.78
265.652	-20.99
265.868	19.97
266.084	-29.18
266.3	-33.28
266.516	19.97
266.732	-53.76
266.948	36.35
267.164	-25.09
267.38	36.35
267.596	97.79
267.812	101.89
268.028	11.78
268.244	19.97
268.46	-8.7
268.676	44.54
268.892	-12.8
269.108	24.06
269.324	-31.23
269.54	-57.86
269.756	-12.8
269.972	-16.9
270.188	48.64
270.403	-35.33
270.619	-37.38
270.835	48.64
271.051	-8.7
271.267	-18.94
271.483	-37.38
271.698	54.78
271.914	28.16
272.13	36.35
272.346	42.5
272.562	-10.75
272.777	69.12
272.993	85.5
273.209	52.74
273.425	15.87
273.64	24.06
273.856	144.89
274.072	13.82
274.287	-29.18
274.503	85.5
274.719	-16.9
274.934	-27.14
275.15	-12.8
275.366	50.69
275.581	-33.28
275.797	52.74
276.012	-8.7
276.228	19.97
276.444	58.88
276.659	62.98
276.875	5.63
277.09	28.16
277.306	-39.42
277.521	97.79
277.737	11.78
277.952	-8.7
278.168	62.98
278.383	28.16
278.599	36.35
278.814	19.97
279.03	13.82
279.245	19.97
279.461	17.92
279.676	89.6
279.892	-16.9
280.107	44.54
280.322	-68.09
280.538	28.16
280.753	-41.47
280.969	46.59
281.184	54.78
281.399	122.37
281.615	-16.9
281.83	79.36
282.045	71.17
282.26	81.41
282.476	11.78
282.691	71.17
282.906	5.63
283.122	11.78
283.337	-35.33
283.552	36.35
283.767	-61.95
283.983	-43.52
284.198	-33.28
284.413	-29.18
284.628	-29.18
284.843	-4.61
285.058	60.93
285.274	36.35
285.489	30.21
285.704	95.74
285.919	62.98
286.134	-18.94
286.349	60.93
286.564	101.89
286.779	89.6
286.995	-18.94
287.21	-2.56
287.425	81.41
287.64	-29.18
287.855	-4.61
288.07	-25.09
288.285	60.93
288.5	38.4
288.715	44.54
288.93	32.26
289.145	-20.99
289.36	-29.18
289.575	15.87
289.79	60.93
290.004	-35.33
290.219	46.59
290.434	44.54
290.649	32.26
290.864	17.92
291.079	30.21
291.294	-43.52
291.509	28.16
291.724	-20.99
291.938	19.97
292.153	56.83
292.368	24.06
292.583	30.21
292.798	93.69
293.012	-68.09
293.227	28.16
293.442	-45.57
293.657	28.16
293.871	22.02
294.086	11.78
294.301	60.93
294.516	44.54
294.73	-12.8
294.945	-14.85
295.16	52.74
295.374	-6.66
295.589	-16.9
295.804	122.37
296.018	32.26
296.233	73.21
296.447	38.4
296.662	-16.9
296.877	54.78
297.091	65.02
297.306	22.02
297.52	52.74
297.735	-12.8
297.949	-20.99
298.164	60.93
298.378	62.98
298.593	-43.52
298.807	11.78
299.022	69.12
299.236	46.59
299.451	15.87
299.665	22.02
299.88	19.97
300.094	-14.85
300.309	69.12
300.523	136.7
300.737	3.58
300.952	7.68
301.166	3.58
301.381	48.64
301.595	28.16
301.809	36.35
302.024	-4.61
302.238	11.78
302.452	28.16
302.667	32.26
302.881	52.74
303.095	142.85
303.309	-4.61
303.524	-25.09
303.738	3.58
303.952	3.58
304.166	71.17
304.381	-53.76
304.595	44.54
304.809	-16.9
305.023	-18.94
305.237	52.74
305.452	36.35
305.666	48.64
305.88	-20.99
306.094	52.74
306.308	28.16
306.522	28.16
306.736	52.74
306.95	5.63
307.164	11.78
307.379	13.82
307.593	132.61
307.807	24.06
308.021	34.3
308.235	1.54
308.449	11.78
308.663	-45.57
308.877	134.65
309.091	56.83
309.305	97.79
309.519	15.87
309.733	54.78
309.947	13.82
310.161	19.97
310.374	50.69
310.588	81.41
310.802	-31.23
311.016	7.68
311.23	5.63
311.444	46.59
311.658	69.12
311.872	28.16
312.085	97.79
312.299	101.89
312.513	44.54
312.727	22.02
312.941	-20.99
313.154	97.79
313.368	13.82
313.582	-0.51
313.796	-0.51
314.009	52.74
314.223	32.26
314.437	3.58
314.651	13.82
314.864	38.4
315.078	105.98
315.292	-57.86
315.505	7.68
315.719	36.35
315.933	69.12
316.146	30.21
316.36	-29.18
316.573	54.78
316.787	-12.8
317.001	28.16
317.214	73.21
317.428	-12.8
317.641	17.92
317.855	-10.75
318.068	13.82
318.282	13.82
318.495	97.79
318.709	120.32
318.922	-2.56
319.136	134.65
319.349	-2.56
319.563	-12.8
319.776	77.31
319.99	-61.95
320.203	28.16
320.417	46.59
320.63	13.82
320.843	105.98
321.057	60.93
321.27	-51.71
321.483	85.5
321.697	69.12
321.91	7.68
322.124	-4.61
322.337	101.89
322.55	22.02
322.763	69.12
322.977	-16.9
323.19	13.82
323.403	44.54
323.617	-4.61
323.83	93.69
324.043	28.16
324.256	9.73
324.469	28.16
324.683	7.68
324.896	73.21
325.109	30.21
325.322	36.35
325.535	89.6
325.748	15.87
325.962	19.97
326.175	73.21
326.388	142.85
326.601	11.78
326.814	30.21
327.027	50.69
327.24	134.65
327.453	44.54
327.666	52.74
327.879	38.4
328.092	28.16
328.305	73.21
328.518	-10.75
328.731	13.82
328.944	42.5
329.157	28.16
329.37	38.4
329.583	56.83
329.796	48.64
330.009	-35.33
330.222	56.83
330.435	7.68
330.648	67.07
330.861	28.16
331.073	-45.57
331.286	52.74
331.499	77.31
331.712	15.87
331.925	42.5
332.138	11.78
332.35	50.69
332.563	-4.61
332.776	36.35
332.989	32.26
333.202	3.58
333.414	28.16
333.627	93.69
333.84	69.12
334.053	3.58
334.265	-12.8
334.478	3.58
334.691	-25.09
334.903	40.45
335.116	-31.23
335.329	73.21
335.541	73.21
335.754	87.55
335.966	-18.94
336.179	89.6
336.392	46.59
336.604	-2.56
336.817	42.5
337.029	19.97
337.242	-4.61
337.454	5.63
337.667	60.93
337.88	56.83
338.092	15.87
338.305	-8.7
338.517	95.74
338.729	-2.56
338.942	48.64
339.154	44.54
339.367	54.78
339.579	26.11
339.792	-8.7
340.004	50.69
340.217	46.59
340.429	44.54
340.641	-29.18
340.854	62.98
341.066	58.88
341.278	-12.8
341.491	89.6
341.703	48.64
341.915	15.87
342.128	3.58
342.34	-12.8
342.552	38.4
342.764	54.78
342.977	65.02
343.189	65.02
343.401	77.31
343.613	-70.14
343.826	56.83
344.038	42.5
344.25	54.78
344.462	-4.61
344.674	-12.8
344.886	-45.57
345.099	11.78
345.311	58.88
345.523	13.82
345.735	42.5
345.947	69.12
346.159	19.97
346.371	48.64
346.583	-18.94
346.795	171.52
347.007	65.02
347.219	93.69
347.431	19.97
347.643	77.31
347.855	-16.9
348.067	52.74
348.279	-12.8
348.491	-37.38
348.703	3.58
348.915	9.73
349.127	-84.48
349.339	69.12
349.551	-4.61
349.763	48.64
349.975	-35.33
350.187	97.79
350.399	110.08
350.61	118.27
350.822	38.4
351.034	36.35
351.246	69.12
351.458	87.55
351.669	13.82
351.881	54.78
352.093	95.74
352.305	79.36
352.517	46.59
352.728	54.78
352.94	24.06
353.152	38.4
353.363	3.58
353.575	-20.99
353.787	60.93
353.999	50.69
354.21	128.51
354.422	3.58
354.633	97.79
354.845	24.06
355.057	62.98
355.268	87.55
355.48	81.41
355.692	-55.81
355.903	69.12
356.115	60.93
356.326	-41.47
356.538	97.79
356.749	62.98
356.961	93.69
357.172	11.78
357.384	24.06
357.595	155.13
357.807	42.5
358.018	65.02
358.23	60.93
358.441	56.83
358.653	62.98
358.864	-29.18
359.075	48.64
359.287	38.4
359.498	114.17
359.709	3.58
359.921	110.08
360.132	9.73
360.344	85.5
360.555	46.59
360.766	101.89
360.977	105.98
361.189	44.54
361.4	-4.61
361.611	112.13
361.823	112.13
362.034	54.78
362.245	46.59
362.456	77.31
362.667	36.35
362.879	103.93
363.09	69.12
363.301	52.74
363.512	71.17
363.723	26.11
363.935	36.35
364.146	81.41
364.357	42.5
364.568	46.59
364.779	26.11
364.99	69.12
365.201	3.58
365.412	138.75
365.623	-0.51
365.834	38.4
366.045	62.98
366.256	71.17
366.467	71.17
366.678	26.11
366.889	52.74
367.1	58.88
367.311	134.65
367.522	-51.71
367.733	19.97
367.944	15.87
368.155	60.93
368.366	36.35
368.577	44.54
368.788	15.87
368.999	-29.18
369.209	83.45
369.42	52.74
369.631	81.41
369.842	-29.18
370.053	48.64
370.264	114.17
370.474	28.16
370.685	54.78
370.896	60.93
371.107	87.55
371.317	28.16
371.528	93.69
371.739	60.93
371.95	120.32
372.16	-35.33
372.371	3.58
372.582	15.87
372.792	62.98
373.003	62.98
373.214	60.93
373.424	13.82
373.635	77.31
373.846	54.78
374.056	-29.18
374.267	60.93
374.477	60.93
374.688	36.35
374.898	28.16
375.109	167.42
375.319	73.21
375.53	56.83
375.74	112.13
375.951	52.74
376.161	40.45
376.372	81.41
376.582	-51.71
376.793	-14.85
377.003	67.07
377.214	-14.85
377.424	38.4
377.635	105.98
377.845	3.58
378.055	144.89
378.266	-64
378.476	17.92
378.686	44.54
378.897	77.31
379.107	-31.23
379.317	-2.56
379.528	103.93
379.738	-2.56
379.948	11.78
380.158	52.74
380.369	13.82
380.579	95.74
380.789	38.4
380.999	89.6
381.21	-29.18
381.42	85.5
381.63	38.4
381.84	36.35
382.05	54.78
382.261	40.45
382.471	69.12
382.681	-29.18
382.891	85.5
383.101	146.94
383.311	11.78
383.521	112.13
383.731	77.31
383.941	95.74
384.151	44.54
384.361	52.74
384.571	58.88
384.781	75.26
384.991	114.17
385.201	81.41
385.411	77.31
385.621	52.74
385.831	40.45
386.041	26.11
386.251	85.5
386.461	-18.94
386.671	87.55
386.881	28.16
387.091	50.69
387.301	77.31
387.511	34.3
387.72	62.98
387.93	103.93
388.14	5.63
388.35	124.41
388.56	79.36
388.769	58.88
388.979	110.08
389.189	32.26
389.399	-20.99
389.609	93.69
389.818	101.89
390.028	118.27
390.238	69.12
390.447	93.69
390.657	7.68
390.867	28.16
391.076	-4.61
391.286	50.69
391.496	69.12
391.705	7.68
391.915	110.08
392.125	126.46
392.334	69.12
392.544	134.65
392.753	52.74
392.963	46.59
393.172	95.74
393.382	44.54
393.591	116.22
393.801	38.4
394.01	93.69
394.22	120.32
394.429	44.54
394.639	69.12
394.848	218.62
395.058	52.74
395.267	112.13
395.477	108.03
395.686	13.82
395.895	142.85
396.105	224.76
396.314	85.5
396.524	110.08
396.733	50.69
396.942	118.27
397.152	118.27
397.361	103.93
397.57	56.83
397.78	165.37
397.989	105.98
398.198	157.18
398.407	183.81
398.617	128.51
398.826	97.79
399.035	118.27
399.244	110.08
399.453	118.27
399.663	101.89
399.872	118.27
400.081	62.98
400.29	144.89
400.499	40.45
400.708	214.52
400.917	71.17
401.127	151.04
401.336	95.74
401.545	167.42
401.754	243.2
401.963	116.22
402.172	151.04
402.381	87.55
402.59	140.8
402.799	148.99
403.008	155.13
403.217	52.74
403.426	169.47
403.635	142.85
403.844	95.74
404.053	200.19
404.262	101.89
404.471	155.13
404.68	116.22
404.888	155.13
405.097	204.28
405.306	194.05
405.515	200.19
405.724	142.85
405.933	216.57
406.142	171.52
406.35	216.57
406.559	282.11
406.768	257.53
406.977	312.83
407.185	228.86
407.394	185.85
407.603	224.76
407.812	249.34
408.02	243.2
408.229	226.81
408.438	310.78
408.646	210.43
408.855	335.35
409.064	318.97
409.272	282.11
409.481	282.11
409.69	378.36
409.898	314.88
410.107	404.99
410.315	384.51
410.524	329.21
410.733	429.56
410.941	359.93
411.15	466.42
411.358	493.05
411.567	509.43
411.775	495.1
411.984	486.9
412.192	548.34
412.401	515.58
412.609	603.64
412.818	685.56
413.026	556.54
413.234	615.93
413.443	634.36
413.651	658.93
413.86	683.51
414.068	642.55
414.276	820.72
414.485	642.55
414.693	777.72
414.901	857.59
415.11	810.48
415.318	785.91
415.526	904.69
415.734	947.7
415.943	949.75
416.151	1013.23
416.359	992.75
416.567	988.66
416.776	1140.21
416.984	1150.45
417.192	1183.21
417.4	1220.08
417.608	1170.93
417.817	1224.17
418.025	1355.24
418.233	1541.61
418.441	1447.4
418.649	1461.74
418.857	1654.25
419.065	1656.29
419.273	1555.94
419.481	1658.34
419.689	1748.45
419.897	1756.65
420.105	1807.84
420.313	2010.59
420.521	1961.44
420.729	1936.87
420.937	2178.53
421.145	2145.76
421.353	2264.54
421.561	2422.24
421.769	2493.91
421.977	2530.78
422.185	2461.15
422.393	2579.93
422.601	2797.01
422.809	2868.69
423.017	2803.16
423.224	3018.19
423.432	3046.87
423.64	3102.16
423.848	3470.8
424.056	3266
424.263	3546.57
424.471	3565
424.679	3562.95
424.887	3749.32
425.094	3855.81
425.302	3952.07
425.51	4148.67
425.718	4177.34
425.925	4175.3
426.133	4425.15
426.341	4885.94
426.548	4787.64
426.756	4672.95
426.964	4902.33
427.171	5174.71
427.379	5416.37
427.586	5502.38
427.794	5635.5
428.001	5776.81
428.209	6092.2
428.417	5868.97
428.624	6245.79
428.832	6356.38
429.039	6372.77
429.247	6350.24
429.454	6991.25
429.662	7372.18
429.869	6962.58
430.076	7458.19
430.284	7292.3
430.491	7409.04
430.699	7976.33
430.906	8041.86
431.114	7886.22
431.321	8277.38
431.528	8519.04
431.736	9004.41
431.943	9565.55
432.15	9270.64
432.358	9125.24
432.565	9923.94
432.772	9723.24
432.979	10227.04
433.187	10607.97
433.394	10427.74
433.601	11115.86
433.808	11144.53
434.016	11185.49
434.223	11373.91
434.43	12553.54
434.637	12084.55
434.844	12963.13
435.052	12803.39
435.259	13112.63
435.466	12989.75
435.673	12891.45
435.88	13784.37
436.087	14519.59
436.294	14681.38
436.501	14202.15
436.708	14404.9
436.915	15088.92
437.122	15502.61
437.329	15392.02
437.537	16227.59
437.743	16076.04
437.95	16030.99
438.157	16911.61
438.364	17439.99
438.571	17396.98
438.778	17483
438.985	19184.86
439.192	18312.42
439.399	18949.34
439.606	18578.66
439.813	19784.91
440.02	20780.23
440.227	20479.18
440.433	20008.14
440.64	20753.6
440.847	20862.15
441.054	21245.12
441.261	22641.83
441.467	22332.59
441.674	22846.63
441.881	23887
442.088	23700.63
442.294	23157.92
442.501	23919.76
442.708	24468.62
442.914	25287.81
443.121	26442.86
443.328	25676.92
443.534	27546.72
443.741	26942.56
443.948	26367.09
444.154	28259.41
444.361	28216.4
444.568	28400.72
444.774	28419.15
444.981	28693.58
445.187	29119.56
445.394	30729.26
445.6	30280.75
445.807	33291.27
446.013	31591.45
446.22	32234.52
446.426	33872.89
446.633	33909.75
446.839	35116.01
447.046	33827.84
447.252	35544.03
447.459	35490.79
447.665	35476.45
447.871	36903.88
448.078	38085.56
448.284	36926.41
448.491	37741.5
448.697	38638.51
448.903	39652.26
449.11	39560.1
449.316	39211.95
449.522	39586.72
449.728	40729.49
449.935	40954.77
450.141	41255.82
450.347	41980.8
450.553	40926.1
450.76	41221
450.966	42335.1
451.172	42113.92
451.378	43613.03
451.584	42492.79
451.791	43187.05
451.997	42779.51
452.203	44196.7
452.409	43737.96
452.615	44131.17
452.821	42023.81
453.027	41610.12
453.233	44137.31
453.44	42244.99
453.646	42687.35
453.852	43033.46
454.058	43123.57
454.264	42036.09
454.47	42918.77
454.676	42105.73
454.882	43342.7
455.088	40068
455.294	40545.17
455.5	41284.49
455.705	41173.9
455.911	39994.27
456.117	39007.15
456.323	38323.13
456.529	36619.22
456.735	38226.87
456.941	36785.1
457.147	36563.92
457.352	35507.17
457.558	35152.87
457.764	35159.02
457.97	34309.11
458.176	33520.64
458.381	33532.93
458.587	32234.52
458.793	32162.84
458.999	30665.77
459.204	32531.47
459.41	31769.63
459.616	29224
459.821	29342.78
460.027	29279.3
460.233	28550.22
460.438	27303.01
460.644	27784.28
460.85	26584.17
461.055	25896.05
461.261	25576.57
461.466	24095.89
461.672	23301.28
461.878	25048.19
462.083	23248.03
462.289	22674.6
462.494	22387.88
462.7	21562.55
462.905	21048.51
463.111	21701.81
463.316	21781.68
463.522	21277.88
463.727	21570.74
463.932	21122.24
464.138	20794.56
464.343	21306.55
464.549	20194.51
464.754	21060.8
464.959	20821.19
465.165	20481.22
465.37	19508.44
465.575	19389.66
465.781	20143.31
465.986	20229.32
466.191	19205.34
466.397	18965.73
466.602	18009.33
466.807	18644.2
