Data from USB4F104151__85__14-30-37-596.txt Node

Date: Thu Mar 13 14:30:37 EDT 2025
User: louis
Spectrometer: USB4F10415
Trigger mode: 4
Integration Time (sec): 2.500000E-2
Scans to average: 1
Electric dark correction enabled: true
Nonlinearity correction enabled: false
Boxcar width: 0
XAxis mode: Wavelengths
Number of Pixels in Spectrum: 3648
>>>>>Begin Spectral Data<<<<<
178.204	-120.66
178.424	-120.66
178.644	-120.66
178.864	-128.85
179.084	-57.17
179.304	-5.97
179.524	26.79
179.744	-20.31
179.964	18.6
180.184	-5.97
180.404	26.79
180.624	-48.98
180.844	6.31
181.064	-26.45
181.283	-22.36
181.503	-16.21
181.723	67.75
181.943	-53.08
182.163	39.08
182.383	71.85
182.602	135.34
182.822	49.32
183.042	67.75
183.262	20.65
183.482	75.95
183.701	37.03
183.921	-12.12
184.141	-30.55
184.361	34.99
184.58	67.75
184.8	86.19
185.02	39.08
185.239	161.96
185.459	92.33
185.679	47.27
185.898	-55.12
186.118	-14.17
186.338	24.75
186.557	10.41
186.777	-18.26
186.997	22.7
187.216	-10.07
187.436	18.6
187.655	88.23
187.875	84.14
188.095	84.14
188.314	18.6
188.534	18.6
188.753	59.56
188.973	61.61
189.192	96.43
189.412	26.79
189.631	69.8
189.851	32.94
190.07	153.77
190.29	-12.12
190.509	67.75
190.729	47.27
190.948	100.52
191.168	166.06
191.387	151.72
191.607	59.56
191.826	80.04
192.045	94.38
192.265	14.51
192.484	61.61
192.704	-46.93
192.923	-14.17
193.142	96.43
193.362	59.56
193.581	92.33
193.8	94.38
194.02	26.79
194.239	-24.4
194.458	43.18
194.678	61.61
194.897	98.47
195.116	43.18
195.335	-30.55
195.555	59.56
195.774	75.95
195.993	96.43
196.212	2.22
196.432	41.13
196.651	41.13
196.87	30.89
197.089	61.61
197.308	67.75
197.528	53.42
197.747	51.37
197.966	39.08
198.185	104.62
198.404	45.23
198.623	32.94
198.842	71.85
199.062	67.75
199.281	47.27
199.5	45.23
199.719	63.66
199.938	69.8
200.157	61.61
200.376	51.37
200.595	59.56
200.814	94.38
201.033	69.8
201.252	18.6
201.471	67.75
201.69	45.23
201.909	12.46
202.128	2.22
202.347	20.65
202.566	-1.88
202.785	2.22
203.004	34.99
203.223	86.19
203.442	88.23
203.661	59.56
203.879	77.99
204.098	69.8
204.317	71.85
204.536	2.22
204.755	125.1
204.974	80.04
205.193	37.03
205.411	108.71
205.63	43.18
205.849	55.47
206.068	75.95
206.287	6.31
206.505	92.33
206.724	22.7
206.943	71.85
207.162	-12.12
207.381	30.89
207.599	59.56
207.818	75.95
208.037	2.22
208.255	39.08
208.474	61.61
208.693	51.37
208.911	39.08
209.13	18.6
209.349	37.03
209.567	61.61
209.786	92.33
210.005	71.85
210.223	45.23
210.442	2.22
210.661	67.75
210.879	2.22
211.098	71.85
211.316	24.75
211.535	41.13
211.753	-12.12
211.972	59.56
212.191	112.81
212.409	108.71
212.628	41.13
212.846	6.31
213.065	43.18
213.283	133.29
213.502	10.41
213.72	12.46
213.938	112.81
214.157	67.75
214.375	69.8
214.594	34.99
214.812	-38.74
215.031	77.99
215.249	2.22
215.467	49.32
215.686	6.31
215.904	26.79
216.122	53.42
216.341	53.42
216.559	34.99
216.778	100.52
216.996	-3.93
217.214	14.51
217.432	34.99
217.651	32.94
217.869	71.85
218.087	53.42
218.306	61.61
218.524	28.84
218.742	28.84
218.96	96.43
219.179	106.67
219.397	-10.07
219.615	121
219.833	71.85
220.051	37.03
220.27	159.91
220.488	98.47
220.706	26.79
220.924	112.81
221.142	116.9
221.36	12.46
221.578	92.33
221.796	-30.55
222.015	57.51
222.233	51.37
222.451	118.95
222.669	61.61
222.887	45.23
223.105	-30.55
223.323	-5.97
223.541	-87.89
223.759	59.56
223.977	16.55
224.195	125.1
224.413	55.47
224.631	84.14
224.849	28.84
225.067	86.19
225.285	28.84
225.503	53.42
225.721	22.7
225.939	32.94
226.157	2.22
226.375	123.05
226.592	34.99
226.81	39.08
227.028	6.31
227.246	174.25
227.464	57.51
227.682	86.19
227.9	28.84
228.117	63.66
228.335	18.6
228.553	4.27
228.771	94.38
228.989	67.75
229.206	141.48
229.424	2.22
229.642	-1.88
229.86	47.27
230.077	100.52
230.295	96.43
230.513	153.77
230.731	45.23
230.948	121
231.166	112.81
231.384	96.43
231.601	16.55
231.819	86.19
232.037	63.66
232.254	26.79
232.472	65.71
232.689	59.56
232.907	51.37
233.125	22.7
233.342	145.58
233.56	-22.36
233.777	45.23
233.995	69.8
234.213	63.66
234.43	34.99
234.648	18.6
234.865	39.08
235.083	55.47
235.3	26.79
235.518	69.8
235.735	77.99
235.953	100.52
236.17	2.22
236.388	77.99
236.605	41.13
236.822	86.19
237.04	133.29
237.257	24.75
237.475	63.66
237.692	53.42
237.909	96.43
238.127	28.84
238.344	59.56
238.562	51.37
238.779	94.38
238.996	45.23
239.214	104.62
239.431	67.75
239.648	61.61
239.865	59.56
240.083	-3.93
240.3	133.29
240.517	10.41
240.735	88.23
240.952	77.99
241.169	108.71
241.386	-5.97
241.603	43.18
241.821	63.66
242.038	108.71
242.255	94.38
242.472	8.36
242.689	32.94
242.907	30.89
243.124	59.56
243.341	86.19
243.558	82.09
243.775	102.57
243.992	20.65
244.209	45.23
244.426	149.67
244.643	65.71
244.86	104.62
245.078	69.8
245.295	16.55
245.512	45.23
245.729	80.04
245.946	47.27
246.163	61.61
246.38	34.99
246.597	-18.26
246.814	80.04
247.031	123.05
247.248	75.95
247.464	18.6
247.681	39.08
247.898	67.75
248.115	43.18
248.332	30.89
248.549	63.66
248.766	121
248.983	45.23
249.2	32.94
249.417	67.75
249.633	-3.93
249.85	129.19
250.067	63.66
250.284	-20.31
250.501	59.56
250.717	43.18
250.934	-22.36
251.151	108.71
251.368	10.41
251.585	116.9
251.801	84.14
252.018	-40.79
252.235	118.95
252.451	43.18
252.668	-12.12
252.885	67.75
253.102	61.61
253.318	53.42
253.535	43.18
253.752	55.47
253.968	82.09
254.185	-30.55
254.401	37.03
254.618	26.79
254.835	4.27
255.051	90.28
255.268	10.41
255.484	-30.55
255.701	86.19
255.917	43.18
256.134	-26.45
256.351	20.65
256.567	59.56
256.784	2.22
257	-16.21
257.217	61.61
257.433	22.7
257.65	10.41
257.866	34.99
258.082	-14.17
258.299	59.56
258.515	71.85
258.732	-38.74
258.948	12.46
259.165	129.19
259.381	37.03
259.597	108.71
259.814	57.51
260.03	14.51
260.246	34.99
260.463	67.75
260.679	100.52
260.895	34.99
261.112	98.47
261.328	30.89
261.544	51.37
261.761	77.99
261.977	108.71
262.193	49.32
262.409	67.75
262.626	51.37
262.842	86.19
263.058	22.7
263.274	80.04
263.49	-5.97
263.707	116.9
263.923	26.79
264.139	10.41
264.355	10.41
264.571	80.04
264.787	96.43
265.004	127.14
265.22	51.37
265.436	26.79
265.652	-55.12
265.868	10.41
266.084	26.79
266.3	53.42
266.516	63.66
266.732	151.72
266.948	32.94
267.164	86.19
267.38	43.18
267.596	96.43
267.812	102.57
268.028	80.04
268.244	10.41
268.46	61.61
268.676	6.31
268.892	53.42
269.108	-46.93
269.324	118.95
269.54	16.55
269.756	12.46
269.972	28.84
270.188	51.37
270.403	-26.45
270.619	106.67
270.835	34.99
271.051	39.08
271.267	39.08
271.483	43.18
271.698	10.41
271.914	8.36
272.13	37.03
272.346	37.03
272.562	37.03
272.777	67.75
272.993	63.66
273.209	-5.97
273.425	51.37
273.64	55.47
273.856	51.37
274.072	34.99
274.287	18.6
274.503	32.94
274.719	112.81
274.934	63.66
275.15	26.79
275.366	90.28
275.581	2.22
275.797	45.23
276.012	-18.26
276.228	61.61
276.444	37.03
276.659	159.91
276.875	-38.74
277.09	100.52
277.306	18.6
277.521	75.95
277.737	92.33
277.952	26.79
278.168	88.23
278.383	112.81
278.599	108.71
278.814	102.57
279.03	34.99
279.245	190.63
279.461	0.17
279.676	80.04
279.892	26.79
280.107	67.75
280.322	69.8
280.538	20.65
280.753	69.8
280.969	131.24
281.184	32.94
281.399	116.9
281.615	59.56
281.83	22.7
282.045	55.47
282.26	43.18
282.476	71.85
282.691	145.58
282.906	63.66
283.122	-22.36
283.337	10.41
283.552	30.89
283.767	-20.31
283.983	92.33
284.198	-30.55
284.413	96.43
284.628	2.22
284.843	63.66
285.058	114.86
285.274	92.33
285.489	6.31
285.704	26.79
285.919	-5.97
286.134	69.8
286.349	30.89
286.564	135.34
286.779	112.81
286.995	14.51
287.21	-79.7
287.425	61.61
287.64	84.14
287.855	125.1
288.07	47.27
288.285	67.75
288.5	94.38
288.715	94.38
288.93	10.41
289.145	47.27
289.36	49.32
289.575	28.84
289.79	53.42
290.004	34.99
290.219	82.09
290.434	43.18
290.649	18.6
290.864	18.6
291.079	84.14
291.294	37.03
291.509	34.99
291.724	47.27
291.938	135.34
292.153	45.23
292.368	18.6
292.583	67.75
292.798	86.19
293.012	92.33
293.227	63.66
293.442	71.85
293.657	59.56
293.871	159.91
294.086	26.79
294.301	92.33
294.516	92.33
294.73	75.95
294.945	2.22
295.16	34.99
295.374	100.52
295.589	67.75
295.804	39.08
296.018	49.32
296.233	49.32
296.447	110.76
296.662	67.75
296.877	2.22
297.091	86.19
297.306	10.41
297.52	59.56
297.735	67.75
297.949	43.18
298.164	69.8
298.378	22.7
298.593	77.99
298.807	12.46
299.022	-3.93
299.236	71.85
299.451	112.81
299.665	53.42
299.88	100.52
300.094	77.99
300.309	12.46
300.523	59.56
300.737	51.37
300.952	112.81
301.166	47.27
301.381	4.27
301.595	-28.5
301.809	65.71
302.024	20.65
302.238	-1.88
302.452	67.75
302.667	43.18
302.881	59.56
303.095	75.95
303.309	133.29
303.524	2.22
303.738	84.14
303.952	67.75
304.166	172.2
304.381	4.27
304.595	75.95
304.809	51.37
305.023	26.79
305.237	10.41
305.452	28.84
305.666	61.61
305.88	110.76
306.094	88.23
306.308	118.95
306.522	75.95
306.736	90.28
306.95	102.57
307.164	59.56
307.379	-5.97
307.593	125.1
307.807	100.52
308.021	88.23
308.235	129.19
308.449	34.99
308.663	51.37
308.877	102.57
309.091	47.27
309.305	94.38
309.519	55.47
309.733	71.85
309.947	-3.93
310.161	108.71
310.374	51.37
310.588	67.75
310.802	39.08
311.016	34.99
311.23	73.9
311.444	82.09
311.658	39.08
311.872	168.1
312.085	100.52
312.299	39.08
312.513	8.36
312.727	125.1
312.941	10.41
313.154	100.52
313.368	45.23
313.582	67.75
313.796	108.71
314.009	59.56
314.223	77.99
314.437	98.47
314.651	18.6
314.864	59.56
315.078	-5.97
315.292	10.41
315.505	6.31
315.719	61.61
315.933	80.04
316.146	6.31
316.36	2.22
316.573	116.9
316.787	106.67
317.001	123.05
317.214	59.56
317.428	75.95
317.641	20.65
317.855	53.42
318.068	61.61
318.282	102.57
318.495	121
318.709	37.03
318.922	39.08
319.136	118.95
319.349	96.43
319.563	67.75
319.776	34.99
319.99	-28.5
320.203	43.18
320.417	45.23
320.63	22.7
320.843	110.76
321.057	28.84
321.27	141.48
321.483	47.27
321.697	133.29
321.91	20.65
322.124	69.8
322.337	106.67
322.55	6.31
322.763	100.52
322.977	37.03
323.19	10.41
323.403	77.99
323.617	22.7
323.83	94.38
324.043	22.7
324.256	75.95
324.469	67.75
324.683	84.14
324.896	84.14
325.109	-14.17
325.322	34.99
325.535	92.33
325.748	108.71
325.962	59.56
326.175	84.14
326.388	121
326.601	67.75
326.814	125.1
327.027	26.79
327.24	125.1
327.453	20.65
327.666	159.91
327.879	75.95
328.092	26.79
328.305	73.9
328.518	18.6
328.731	34.99
328.944	61.61
329.157	57.51
329.37	12.46
329.583	98.47
329.796	45.23
330.009	-12.12
330.222	67.75
330.435	67.75
330.648	102.57
330.861	69.8
331.073	96.43
331.286	34.99
331.499	-26.45
331.712	61.61
331.925	104.62
332.138	59.56
332.35	82.09
332.563	18.6
332.776	88.23
332.989	-36.69
333.202	100.52
333.414	67.75
333.627	71.85
333.84	96.43
334.053	131.24
334.265	24.75
334.478	71.85
334.691	22.7
334.903	90.28
335.116	51.37
335.329	57.51
335.541	69.8
335.754	57.51
335.966	49.32
336.179	-22.36
336.392	80.04
336.604	47.27
336.817	92.33
337.029	61.61
337.242	88.23
337.454	90.28
337.667	59.56
337.88	86.19
338.092	164.01
338.305	43.18
338.517	20.65
338.729	114.86
338.942	63.66
339.154	59.56
339.367	14.51
339.579	80.04
339.792	12.46
340.004	100.52
340.217	28.84
340.429	137.38
340.641	55.47
340.854	26.79
341.066	45.23
341.278	73.9
341.491	161.96
341.703	61.61
341.915	2.22
342.128	75.95
342.34	28.84
342.552	118.95
342.764	86.19
342.977	53.42
343.189	84.14
343.401	47.27
343.613	96.43
343.826	41.13
344.038	37.03
344.25	92.33
344.462	77.99
344.674	71.85
344.886	53.42
345.099	80.04
345.311	37.03
345.523	82.09
345.735	18.6
345.947	96.43
346.159	110.76
346.371	116.9
346.583	26.79
346.795	145.58
347.007	100.52
347.219	59.56
347.431	94.38
347.643	110.76
347.855	86.19
348.067	133.29
348.279	59.56
348.491	80.04
348.703	94.38
348.915	55.47
349.127	10.41
349.339	67.75
349.551	2.22
349.763	67.75
349.975	26.79
350.187	108.71
350.399	84.14
350.61	37.03
350.822	43.18
351.034	4.27
351.246	10.41
351.458	43.18
351.669	71.85
351.881	94.38
352.093	37.03
352.305	75.95
352.517	67.75
352.728	84.14
352.94	59.56
353.152	75.95
353.363	-48.98
353.575	125.1
353.787	110.76
353.999	45.23
354.21	133.29
354.422	94.38
354.633	-18.26
354.845	133.29
355.057	32.94
355.268	84.14
355.48	77.99
355.692	53.42
355.903	37.03
356.115	55.47
356.326	55.47
356.538	127.14
356.749	157.86
356.961	67.75
357.172	104.62
357.384	47.27
357.595	149.67
357.807	82.09
358.018	39.08
358.23	106.67
358.441	69.8
358.653	110.76
358.864	43.18
359.075	32.94
359.287	10.41
359.498	133.29
359.709	184.49
359.921	82.09
360.132	84.14
360.344	59.56
360.555	65.71
360.766	10.41
360.977	69.8
361.189	116.9
361.4	116.9
361.611	96.43
361.823	49.32
362.034	71.85
362.245	63.66
362.456	43.18
362.667	118.95
362.879	61.61
363.09	77.99
363.301	135.34
363.512	43.18
363.723	37.03
363.935	59.56
364.146	63.66
364.357	84.14
364.568	69.8
364.779	16.55
364.99	55.47
365.201	69.8
365.412	92.33
365.623	39.08
365.834	59.56
366.045	26.79
366.256	84.14
366.467	71.85
366.678	118.95
366.889	69.8
367.1	129.19
367.311	84.14
367.522	84.14
367.733	75.95
367.944	84.14
368.155	71.85
368.366	121
368.577	131.24
368.788	116.9
368.999	30.89
369.209	80.04
369.42	153.77
369.631	131.24
369.842	92.33
370.053	157.86
370.264	61.61
370.474	43.18
370.685	59.56
370.896	28.84
371.107	96.43
371.317	118.95
371.528	51.37
371.739	98.47
371.95	51.37
372.16	84.14
372.371	84.14
372.582	100.52
372.792	172.2
373.003	20.65
373.214	137.38
373.424	110.76
373.635	67.75
373.846	159.91
374.056	80.04
374.267	112.81
374.477	133.29
374.688	73.9
374.898	51.37
375.109	30.89
375.319	34.99
375.53	129.19
375.74	110.76
375.951	166.06
376.161	86.19
376.372	133.29
376.582	18.6
376.793	112.81
377.003	47.27
377.214	37.03
377.424	84.14
377.635	73.9
377.845	26.79
378.055	141.48
378.266	10.41
378.476	63.66
378.686	133.29
378.897	100.52
379.107	75.95
379.317	75.95
379.528	51.37
379.738	30.89
379.948	121
380.158	145.58
380.369	75.95
380.579	141.48
380.789	69.8
380.999	53.42
381.21	34.99
381.42	67.75
381.63	82.09
381.84	110.76
382.05	149.67
382.261	39.08
382.471	59.56
382.681	94.38
382.891	108.71
383.101	118.95
383.311	32.94
383.521	125.1
383.731	190.63
383.941	-10.07
384.151	110.76
384.361	86.19
384.571	73.9
384.781	102.57
384.991	182.44
385.201	194.73
385.411	151.72
385.621	108.71
385.831	108.71
386.041	67.75
386.251	102.57
386.461	133.29
386.671	43.18
386.881	135.34
387.091	92.33
387.301	86.19
387.511	86.19
387.72	30.89
387.93	84.14
388.14	159.91
388.35	133.29
388.56	118.95
388.769	133.29
388.979	59.56
389.189	80.04
389.399	77.99
389.609	88.23
389.818	116.9
390.028	94.38
390.238	71.85
390.447	125.1
390.657	149.67
390.867	94.38
391.076	37.03
391.286	174.25
391.496	73.9
391.705	53.42
391.915	133.29
392.125	100.52
392.334	116.9
392.544	125.1
392.753	149.67
392.963	121
393.172	184.49
393.382	26.79
393.591	184.49
393.801	149.67
394.01	141.48
394.22	133.29
394.429	110.76
394.639	153.77
394.848	67.75
395.058	215.21
395.267	100.52
395.477	133.29
395.686	153.77
395.895	200.87
396.105	223.4
396.314	141.48
396.524	170.15
396.733	41.13
396.942	151.72
397.152	202.92
397.361	219.3
397.57	168.1
397.78	178.34
397.989	198.82
398.198	284.84
398.407	192.68
398.617	202.92
398.826	112.81
399.035	84.14
399.244	137.38
399.453	141.48
399.663	86.19
399.872	170.15
400.081	92.33
400.29	182.44
400.499	151.72
400.708	198.82
400.917	100.52
401.127	151.72
401.336	170.15
401.545	166.06
401.754	211.11
401.963	92.33
402.172	102.57
402.381	190.63
402.59	125.1
402.799	225.45
403.008	231.59
403.217	231.59
403.426	176.3
403.635	151.72
403.844	215.21
404.053	258.21
404.262	192.68
404.471	256.17
404.68	200.87
404.888	256.17
405.097	231.59
405.306	282.79
405.515	143.53
405.724	239.78
405.933	276.65
406.142	166.06
406.35	338.09
406.559	266.41
406.768	260.26
406.977	338.09
407.185	342.18
407.394	272.55
407.603	247.97
407.812	346.28
408.02	315.56
408.229	315.56
408.438	368.81
408.646	426.15
408.855	460.96
409.064	420
409.272	338.09
409.481	487.59
409.69	391.33
409.898	460.96
410.107	489.64
410.315	536.74
410.524	460.96
410.733	600.23
410.941	495.78
411.15	540.83
411.358	542.88
411.567	618.66
411.775	546.98
411.984	624.8
412.192	657.57
412.401	673.95
412.609	706.72
412.818	788.64
413.026	764.06
413.234	770.21
413.443	815.26
413.651	825.5
413.86	772.25
414.068	903.32
414.276	891.04
414.485	979.1
414.693	913.56
414.901	1058.97
415.11	1028.25
415.318	1095.83
415.526	1235.1
415.734	1120.41
415.943	1005.72
416.151	1280.15
416.359	1300.63
416.567	1276.06
416.776	1333.4
416.984	1421.46
417.192	1517.72
417.4	1480.85
417.608	1579.15
417.817	1540.24
418.025	1624.21
418.233	1742.99
418.441	1648.79
418.649	1656.98
418.857	1949.84
419.065	2068.62
419.273	1880.21
419.481	2128.01
419.689	2078.86
419.897	2240.65
420.105	2281.61
420.313	2439.3
420.521	2390.15
420.729	2500.74
420.937	2484.36
421.145	2519.17
421.353	2762.88
421.561	2885.76
421.769	2963.58
421.977	3088.51
422.185	3082.36
422.393	3203.19
422.601	3381.37
422.809	3422.33
423.017	3393.65
423.224	3627.12
423.432	3631.22
423.64	3700.85
423.848	4096.11
424.056	3971.18
424.263	4253.8
424.471	4321.38
424.679	4311.14
424.887	4436.07
425.094	4659.3
425.302	4876.38
425.51	4810.85
425.718	5050.46
425.925	5265.5
426.133	5351.51
426.341	5646.42
426.548	5982.29
426.756	5830.74
426.964	5963.86
427.171	6307.91
427.379	6449.22
427.586	6367.31
427.794	6764.61
428.001	7120.96
428.209	7454.78
428.417	7415.87
428.624	7772.21
428.832	7766.07
429.039	7604.28
429.247	7614.52
429.454	8390.7
429.662	9015.33
429.869	8390.7
430.076	8931.36
430.284	8783.91
430.491	8925.22
430.699	9605.14
430.906	9588.76
431.114	9828.37
431.321	10154
431.528	10268.69
431.736	10979.33
431.943	11390.97
432.15	11106.31
432.358	11415.55
432.565	11874.29
432.772	11700.22
432.979	12359.66
433.187	12629.99
433.394	12822.5
433.601	13621.21
433.808	13518.81
434.016	13436.89
434.223	13979.61
434.43	14788.55
434.637	14770.12
434.844	15687.61
435.052	15779.77
435.259	15577.02
435.466	15962.04
435.673	15628.22
435.88	16703.4
436.087	17635.23
436.294	17448.86
436.501	17049.51
436.708	17495.97
436.915	17942.42
437.122	18794.38
437.329	18745.23
437.537	19599.23
437.743	19603.33
437.95	19627.9
438.157	20594.54
438.364	21309.29
438.571	20950.89
438.778	21518.18
438.985	23179.08
439.192	22372.18
439.399	22888.27
439.606	22796.11
439.813	23768.9
440.02	25294.63
440.227	24536.88
440.433	24434.49
440.64	25642.79
440.847	24954.67
441.054	25663.27
441.261	27315.98
441.467	27244.3
441.674	27680.52
441.881	28585.72
442.088	29044.46
442.294	28212.99
442.501	28999.41
442.708	29593.32
442.914	30686.93
443.121	32069.31
443.328	31030.99
443.534	33676.97
443.741	32435.9
443.948	32288.45
444.154	34168.48
444.361	34156.19
444.568	34291.36
444.774	34242.21
444.981	34649.75
445.187	35735.18
445.394	37328.5
445.6	36793.98
445.807	40042.06
446.013	38282.85
446.22	39542.35
446.426	40228.42
446.633	40820.28
446.839	42751.52
447.046	40595.01
447.252	42944.03
447.459	42649.12
447.665	42528.29
447.871	44602.88
448.078	46429.67
448.284	44201.48
448.491	45450.74
448.697	46974.43
448.903	47859.15
449.11	48405.96
449.316	47375.83
449.522	48340.43
449.728	49561.01
449.935	49599.93
450.141	49786.29
450.347	50681.25
450.553	48946.62
450.76	49870.26
450.966	51729.81
451.172	50693.54
451.378	52446.6
451.584	51060.13
451.791	52489.61
451.997	51893.65
452.203	53601.66
452.409	52917.64
452.615	52489.61
452.821	50359.72
453.027	50615.72
453.233	52606.34
453.44	50486.7
453.646	51563.93
453.852	51248.54
454.058	51991.95
454.264	50576.81
454.47	51623.32
454.676	50646.44
454.882	52243.85
455.088	47308.25
455.294	48383.43
455.5	49149.37
455.705	49651.13
455.911	48016.85
456.117	46652.9
456.323	46038.51
456.529	43677.2
456.735	45698.55
456.941	44539.4
457.147	43820.56
457.352	42458.66
457.558	41965.1
457.764	41795.12
457.97	41606.7
458.176	40433.22
458.381	40556.1
458.587	38823.51
458.793	38854.23
458.999	36339.33
459.204	39200.34
459.41	37996.13
459.616	35223.19
459.821	35606.16
460.027	35323.54
460.233	34616.99
460.438	33038
460.644	33433.26
460.85	31882.95
461.055	31340.24
461.261	31004.37
461.466	28835.57
461.672	28165.88
461.878	29884.13
462.083	28108.54
462.289	27455.24
462.494	27285.26
462.7	25741.09
462.905	25263.91
463.111	26296.09
463.316	26277.66
463.522	25847.58
463.727	26130.2
463.932	26072.86
464.138	25263.91
464.343	25483.05
464.549	24696.63
464.754	25427.75
464.959	25470.76
465.165	25173.8
465.37	23883.58
465.575	23600.96
465.781	24446.77
465.986	24807.22
