Data from USB4F104151__119__14-31-14-536.txt Node

Date: Thu Mar 13 14:31:14 EDT 2025
User: louis
Spectrometer: USB4F10415
Trigger mode: 4
Integration Time (sec): 2.500000E-2
Scans to average: 1
Electric dark correction enabled: true
Nonlinearity correction enabled: false
Boxcar width: 0
XAxis mode: Wavelengths
Number of Pixels in Spectrum: 3648
>>>>>Begin Spectral Data<<<<<
178.204	-134.48
178.424	-134.48
178.644	-134.48
178.864	-214.35
179.084	-97.62
179.304	-38.23
179.524	-42.32
179.744	-9.56
179.964	2.73
180.184	19.11
180.404	-38.23
180.624	35.5
180.844	29.35
181.064	27.31
181.283	10.92
181.503	-21.85
181.723	25.26
181.943	25.26
182.163	33.45
182.383	-38.23
182.602	53.93
182.822	2.73
183.042	58.03
183.262	-11.61
183.482	33.45
183.701	41.64
183.921	88.75
184.141	55.98
184.361	66.22
184.58	-56.66
184.8	29.35
185.02	-11.61
185.239	41.64
185.459	4.78
185.679	82.6
185.898	23.21
186.118	94.89
186.338	-21.85
186.557	31.4
186.777	-23.89
186.997	70.31
187.216	45.74
187.436	49.83
187.655	43.69
187.875	41.64
188.095	35.5
188.314	60.07
188.534	135.85
188.753	60.07
188.973	-7.51
189.192	98.99
189.412	62.12
189.631	21.16
189.851	45.74
190.07	21.16
190.29	4.78
190.509	37.55
190.729	-7.51
190.948	-40.28
191.168	131.75
191.387	41.64
191.607	41.64
191.826	0.68
192.045	12.97
192.265	66.22
192.484	17.07
192.704	109.22
192.923	-42.32
193.142	90.79
193.362	58.03
193.581	49.83
193.8	29.35
194.02	70.31
194.239	-32.08
194.458	-5.46
194.678	-13.65
194.897	2.73
195.116	17.07
195.335	29.35
195.555	33.45
195.774	-23.89
195.993	74.41
196.212	-1.37
196.432	82.6
196.651	39.59
196.87	-34.13
197.089	115.37
197.308	103.08
197.528	8.87
197.747	17.07
197.966	19.11
198.185	53.93
198.404	8.87
198.623	101.03
198.842	25.26
199.062	90.79
199.281	80.55
199.5	12.97
199.719	49.83
199.938	-5.46
200.157	82.6
200.376	70.31
200.595	45.74
200.814	47.79
201.033	58.03
201.252	37.55
201.471	45.74
201.69	123.56
201.909	-11.61
202.128	66.22
202.347	-36.18
202.566	-3.41
202.785	-13.65
203.004	29.35
203.223	170.66
203.442	21.16
203.661	37.55
203.879	82.6
204.098	98.99
204.317	-27.99
204.536	58.03
204.755	8.87
204.974	-52.56
205.193	17.07
205.411	58.03
205.63	45.74
205.849	-48.47
206.068	60.07
206.287	-23.89
206.505	49.83
206.724	98.99
206.943	-44.37
207.162	62.12
207.381	45.74
207.599	27.31
207.818	2.73
208.037	33.45
208.255	55.98
208.474	12.97
208.693	19.11
208.911	12.97
209.13	-5.46
209.349	23.21
209.567	12.97
209.786	17.07
210.005	23.21
210.223	-1.37
210.442	17.07
210.661	45.74
210.879	49.83
211.098	-7.51
211.316	94.89
211.535	35.5
211.753	96.94
211.972	12.97
212.191	62.12
212.409	74.41
212.628	2.73
212.846	-5.46
213.065	111.27
213.283	74.41
213.502	39.59
213.72	27.31
213.938	12.97
214.157	17.07
214.375	31.4
214.594	92.84
214.812	51.88
215.031	-19.8
215.249	35.5
215.467	45.74
215.686	-11.61
215.904	25.26
216.122	17.07
216.341	41.64
216.559	-23.89
216.778	131.75
216.996	8.87
217.214	25.26
217.432	47.79
217.651	-32.08
217.869	-64.85
218.087	8.87
218.306	8.87
218.524	41.64
218.742	-38.23
218.96	66.22
219.179	21.16
219.397	66.22
219.615	90.79
219.833	21.16
220.051	4.78
220.27	8.87
220.488	82.6
220.706	-30.04
220.924	25.26
221.142	10.92
221.36	-23.89
221.578	-3.41
221.796	49.83
222.015	0.68
222.233	-23.89
222.451	10.92
222.669	-40.28
222.887	49.83
223.105	19.11
223.323	-23.89
223.541	41.64
223.759	-25.94
223.977	78.51
224.195	66.22
224.413	-19.8
224.631	25.26
224.849	19.11
225.067	98.99
225.285	-13.65
225.503	4.78
225.721	12.97
225.939	103.08
226.157	49.83
226.375	191.14
226.592	33.45
226.81	41.64
227.028	4.78
227.246	88.75
227.464	-7.51
227.682	58.03
227.9	55.98
228.117	41.64
228.335	-5.46
228.553	25.26
228.771	25.26
228.989	-15.7
229.206	49.83
229.424	84.65
229.642	74.41
229.86	23.21
230.077	82.6
230.295	47.79
230.513	-38.23
230.731	-15.7
230.948	84.65
231.166	115.37
231.384	58.03
231.601	25.26
231.819	68.27
232.037	-64.85
232.254	84.65
232.472	21.16
232.689	-32.08
232.907	8.87
233.125	29.35
233.342	21.16
233.56	-27.99
233.777	-3.41
233.995	33.45
234.213	41.64
234.43	103.08
234.648	33.45
234.865	12.97
235.083	8.87
235.3	0.68
235.518	80.55
235.735	78.51
235.953	41.64
236.17	-21.85
236.388	-40.28
236.605	45.74
236.822	115.37
237.04	45.74
237.257	66.22
237.475	8.87
237.692	43.69
237.909	43.69
238.127	4.78
238.344	74.41
238.562	70.31
238.779	-60.76
238.996	37.55
239.214	31.4
239.431	33.45
239.648	21.16
239.865	68.27
240.083	12.97
240.3	0.68
240.517	10.92
240.735	29.35
240.952	2.73
241.169	-17.75
241.386	27.31
241.603	31.4
241.821	-15.7
242.038	78.51
242.255	-19.8
242.472	-58.71
242.689	35.5
242.907	90.79
243.124	121.51
243.341	60.07
243.558	-1.37
243.775	17.07
243.992	-5.46
244.209	19.11
244.426	101.03
244.643	35.5
244.86	41.64
245.078	2.73
245.295	127.66
245.512	19.11
245.729	60.07
245.946	17.07
246.163	25.26
246.38	82.6
246.597	78.51
246.814	49.83
247.031	15.02
247.248	51.88
247.464	-7.51
247.681	33.45
247.898	51.88
248.115	29.35
248.332	0.68
248.549	90.79
248.766	35.5
248.983	39.59
249.2	-25.94
249.417	2.73
249.633	-21.85
249.85	47.79
250.067	53.93
250.284	25.26
250.501	33.45
250.717	47.79
250.934	-7.51
251.151	19.11
251.368	-46.42
251.585	43.69
251.801	-34.13
252.018	121.51
252.235	76.46
252.451	43.69
252.668	-7.51
252.885	66.22
253.102	17.07
253.318	-7.51
253.535	-30.04
253.752	-19.8
253.968	25.26
254.185	-32.08
254.401	41.64
254.618	45.74
254.835	31.4
255.051	141.99
255.268	39.59
255.484	98.99
255.701	62.12
255.917	41.64
256.134	-36.18
256.351	43.69
256.567	10.92
256.784	25.26
257	2.73
257.217	70.31
257.433	62.12
257.65	35.5
257.866	55.98
258.082	-62.8
258.299	-32.08
258.515	12.97
258.732	35.5
258.948	49.83
259.165	21.16
259.381	21.16
259.597	49.83
259.814	23.21
260.03	-68.95
260.246	70.31
260.463	-7.51
260.679	29.35
260.895	55.98
261.112	62.12
261.328	-7.51
261.544	21.16
261.761	74.41
261.977	98.99
262.193	8.87
262.409	66.22
262.626	80.55
262.842	17.07
263.058	10.92
263.274	74.41
263.49	41.64
263.707	90.79
263.923	35.5
264.139	10.92
264.355	41.64
264.571	35.5
264.787	35.5
265.004	101.03
265.22	96.94
265.436	-7.51
265.652	74.41
265.868	74.41
266.084	-5.46
266.3	29.35
266.516	-52.56
266.732	51.88
266.948	49.83
267.164	-7.51
267.38	-32.08
267.596	2.73
267.812	152.23
268.028	62.12
268.244	12.97
268.46	58.03
268.676	29.35
268.892	90.79
269.108	0.68
269.324	45.74
269.54	60.07
269.756	117.42
269.972	47.79
270.188	51.88
270.403	-17.75
270.619	62.12
270.835	72.36
271.051	10.92
271.267	35.5
271.483	45.74
271.698	78.51
271.914	35.5
272.13	2.73
272.346	-7.51
272.562	-21.85
272.777	23.21
272.993	12.97
273.209	62.12
273.425	66.22
273.64	21.16
273.856	37.55
274.072	29.35
274.287	43.69
274.503	4.78
274.719	2.73
274.934	53.93
275.15	43.69
275.366	41.64
275.581	17.07
275.797	45.74
276.012	0.68
276.228	17.07
276.444	-17.75
276.659	82.6
276.875	-46.42
277.09	-5.46
277.306	25.26
277.521	-27.99
277.737	66.22
277.952	94.89
278.168	51.88
278.383	66.22
278.599	8.87
278.814	103.08
279.03	90.79
279.245	62.12
279.461	58.03
279.676	37.55
279.892	-15.7
280.107	2.73
280.322	-3.41
280.538	17.07
280.753	15.02
280.969	84.65
281.184	58.03
281.399	82.6
281.615	80.55
281.83	41.64
282.045	12.97
282.26	33.45
282.476	4.78
282.691	62.12
282.906	12.97
283.122	55.98
283.337	33.45
283.552	64.17
283.767	17.07
283.983	94.89
284.198	-21.85
284.413	107.18
284.628	41.64
284.843	41.64
285.058	76.46
285.274	58.03
285.489	37.55
285.704	43.69
285.919	-48.47
286.134	51.88
286.349	19.11
286.564	66.22
286.779	94.89
286.995	27.31
287.21	-7.51
287.425	43.69
287.64	-79.19
287.855	21.16
288.07	-32.08
288.285	82.6
288.5	10.92
288.715	29.35
288.93	62.12
289.145	62.12
289.36	29.35
289.575	21.16
289.79	17.07
290.004	-15.7
290.219	144.04
290.434	64.17
290.649	0.68
290.864	2.73
291.079	4.78
291.294	78.51
291.509	49.83
291.724	25.26
291.938	29.35
292.153	19.11
292.368	43.69
292.583	17.07
292.798	76.46
293.012	19.11
293.227	51.88
293.442	21.16
293.657	45.74
293.871	109.22
294.086	12.97
294.301	94.89
294.516	70.31
294.73	27.31
294.945	49.83
295.16	33.45
295.374	-7.51
295.589	111.27
295.804	-19.8
296.018	137.9
296.233	12.97
296.447	154.28
296.662	49.83
296.877	76.46
297.091	103.08
297.306	41.64
297.52	25.26
297.735	12.97
297.949	12.97
298.164	92.84
298.378	2.73
298.593	4.78
298.807	10.92
299.022	80.55
299.236	90.79
299.451	41.64
299.665	-13.65
299.88	37.55
300.094	33.45
300.309	49.83
300.523	-19.8
300.737	27.31
300.952	37.55
301.166	33.45
301.381	68.27
301.595	70.31
301.809	45.74
302.024	45.74
302.238	-15.7
302.452	12.97
302.667	25.26
302.881	115.37
303.095	8.87
303.309	53.93
303.524	-1.37
303.738	25.26
303.952	29.35
304.166	21.16
304.381	6.83
304.595	82.6
304.809	12.97
305.023	62.12
305.237	-23.89
305.452	25.26
305.666	51.88
305.88	90.79
306.094	76.46
306.308	82.6
306.522	21.16
306.736	84.65
306.95	66.22
307.164	58.03
307.379	12.97
307.593	109.22
307.807	47.79
308.021	139.94
308.235	90.79
308.449	-36.18
308.663	74.41
308.877	121.51
309.091	49.83
309.305	33.45
309.519	-15.7
309.733	146.09
309.947	-81.24
310.161	55.98
310.374	49.83
310.588	29.35
310.802	10.92
311.016	53.93
311.23	8.87
311.444	-7.51
311.658	45.74
311.872	90.79
312.085	4.78
312.299	115.37
312.513	123.56
312.727	101.03
312.941	-1.37
313.154	35.5
313.368	-23.89
313.582	45.74
313.796	113.32
314.009	0.68
314.223	58.03
314.437	86.7
314.651	17.07
314.864	17.07
315.078	17.07
315.292	25.26
315.505	29.35
315.719	49.83
315.933	148.14
316.146	2.73
316.36	15.02
316.573	51.88
316.787	4.78
317.001	66.22
317.214	33.45
317.428	123.56
317.641	25.26
317.855	-56.66
318.068	82.6
318.282	27.31
318.495	84.65
318.709	66.22
318.922	-3.41
319.136	137.9
319.349	53.93
319.563	43.69
319.776	58.03
319.99	-40.28
320.203	70.31
320.417	17.07
320.63	66.22
320.843	98.99
321.057	92.84
321.27	45.74
321.483	45.74
321.697	125.61
321.91	92.84
322.124	33.45
322.337	21.16
322.55	68.27
322.763	17.07
322.977	19.11
323.19	-21.85
323.403	107.18
323.617	53.93
323.83	60.07
324.043	-21.85
324.256	53.93
324.469	58.03
324.683	33.45
324.896	115.37
325.109	33.45
325.322	-23.89
325.535	88.75
325.748	12.97
325.962	12.97
326.175	39.59
326.388	103.08
326.601	25.26
326.814	-5.46
327.027	17.07
327.24	82.6
327.453	-5.46
327.666	107.18
327.879	82.6
328.092	41.64
328.305	29.35
328.518	60.07
328.731	43.69
328.944	74.41
329.157	17.07
329.37	45.74
329.583	74.41
329.796	137.9
330.009	-79.19
330.222	103.08
330.435	74.41
330.648	51.88
330.861	31.4
331.073	80.55
331.286	21.16
331.499	74.41
331.712	49.83
331.925	-13.65
332.138	17.07
332.35	105.13
332.563	27.31
332.776	101.03
332.989	-7.51
333.202	-23.89
333.414	53.93
333.627	88.75
333.84	119.46
334.053	76.46
334.265	-32.08
334.478	17.07
334.691	33.45
334.903	101.03
335.116	17.07
335.329	33.45
335.541	90.79
335.754	94.89
335.966	58.03
336.179	68.27
336.392	8.87
336.604	115.37
336.817	-13.65
337.029	41.64
337.242	27.31
337.454	53.93
337.667	41.64
337.88	70.31
338.092	88.75
338.305	17.07
338.517	127.66
338.729	62.12
338.942	49.83
339.154	-5.46
339.367	23.21
339.579	82.6
339.792	-7.51
340.004	68.27
340.217	-32.08
340.429	-23.89
340.641	49.83
340.854	58.03
341.066	-32.08
341.278	31.4
341.491	49.83
341.703	76.46
341.915	8.87
342.128	58.03
342.34	111.27
342.552	-25.94
342.764	17.07
342.977	6.83
343.189	41.64
343.401	55.98
343.613	8.87
343.826	74.41
344.038	15.02
344.25	58.03
344.462	0.68
344.674	-5.46
344.886	29.35
345.099	-5.46
345.311	2.73
345.523	-3.41
345.735	-30.04
345.947	-5.46
346.159	123.56
346.371	-44.37
346.583	33.45
346.795	80.55
347.007	19.11
347.219	84.65
347.431	-62.8
347.643	76.46
347.855	-23.89
348.067	82.6
348.279	29.35
348.491	62.12
348.703	53.93
348.915	74.41
349.127	84.65
349.339	35.5
349.551	17.07
349.763	78.51
349.975	0.68
350.187	76.46
350.399	103.08
350.61	92.84
350.822	-32.08
351.034	25.26
351.246	51.88
351.458	76.46
351.669	33.45
351.881	-7.51
352.093	98.99
352.305	53.93
352.517	8.87
352.728	68.27
352.94	37.55
353.152	33.45
353.363	17.07
353.575	33.45
353.787	152.23
353.999	66.22
354.21	139.94
354.422	25.26
354.633	70.31
354.845	49.83
355.057	68.27
355.268	78.51
355.48	2.73
355.692	6.83
355.903	41.64
356.115	-3.41
356.326	-3.41
356.538	84.65
356.749	47.79
356.961	135.85
357.172	53.93
357.384	49.83
357.595	125.61
357.807	27.31
358.018	64.17
358.23	53.93
358.441	125.61
358.653	125.61
358.864	45.74
359.075	133.8
359.287	35.5
359.498	92.84
359.709	58.03
359.921	131.75
360.132	86.7
360.344	84.65
360.555	-5.46
360.766	96.94
360.977	19.11
361.189	152.23
361.4	60.07
361.611	103.08
361.823	107.18
362.034	-3.41
362.245	-34.13
362.456	-3.41
362.667	-9.56
362.879	58.03
363.09	25.26
363.301	35.5
363.512	55.98
363.723	94.89
363.935	25.26
364.146	101.03
364.357	17.07
364.568	78.51
364.779	35.5
364.99	98.99
365.201	82.6
365.412	84.65
365.623	8.87
365.834	82.6
366.045	35.5
366.256	60.07
366.467	33.45
366.678	55.98
366.889	8.87
367.1	-3.41
367.311	107.18
367.522	25.26
367.733	74.41
367.944	49.83
368.155	60.07
368.366	33.45
368.577	58.03
368.788	86.7
368.999	92.84
369.209	27.31
369.42	156.33
369.631	133.8
369.842	58.03
370.053	68.27
370.264	117.42
370.474	-7.51
370.685	27.31
370.896	10.92
371.107	107.18
371.317	33.45
371.528	10.92
371.739	156.33
371.95	64.17
372.16	29.35
372.371	29.35
372.582	78.51
372.792	123.56
373.003	96.94
373.214	12.97
373.424	64.17
373.635	-7.51
373.846	197.29
374.056	25.26
374.267	90.79
374.477	19.11
374.688	60.07
374.898	55.98
375.109	35.5
375.319	135.85
375.53	150.18
375.74	127.66
375.951	45.74
376.161	62.12
376.372	90.79
376.582	94.89
376.793	141.99
377.003	21.16
377.214	25.26
377.424	107.18
377.635	78.51
377.845	19.11
378.055	53.93
378.266	-1.37
378.476	58.03
378.686	58.03
378.897	82.6
379.107	70.31
379.317	33.45
379.528	25.26
379.738	72.36
379.948	41.64
380.158	103.08
380.369	76.46
380.579	152.23
380.789	33.45
380.999	49.83
381.21	58.03
381.42	68.27
381.63	12.97
381.84	60.07
382.05	70.31
382.261	162.47
382.471	58.03
382.681	84.65
382.891	49.83
383.101	107.18
383.311	47.79
383.521	43.69
383.731	139.94
383.941	17.07
384.151	109.22
384.361	94.89
384.571	45.74
384.781	133.8
384.991	41.64
385.201	115.37
385.411	33.45
385.621	88.75
385.831	0.68
386.041	-7.51
386.251	37.55
386.461	141.99
386.671	35.5
386.881	68.27
387.091	60.07
387.301	84.65
387.511	70.31
387.72	64.17
387.93	51.88
388.14	25.26
388.35	98.99
388.56	90.79
388.769	49.83
388.979	25.26
389.189	51.88
389.399	70.31
389.609	41.64
389.818	133.8
390.028	70.31
390.238	101.03
390.447	119.46
390.657	80.55
390.867	90.79
391.076	33.45
391.286	131.75
391.496	109.22
391.705	148.14
391.915	123.56
392.125	94.89
392.334	105.13
392.544	164.52
392.753	78.51
392.963	139.94
393.172	105.13
393.382	82.6
393.591	148.14
393.801	33.45
394.01	189.1
394.22	141.99
394.429	94.89
394.639	135.85
394.848	94.89
395.058	127.66
395.267	53.93
395.477	125.61
395.686	68.27
395.895	197.29
396.105	148.14
396.314	53.93
396.524	119.46
396.733	125.61
396.942	90.79
397.152	166.57
397.361	174.76
397.57	131.75
397.78	129.7
397.989	109.22
398.198	160.42
398.407	107.18
398.617	119.46
398.826	76.46
399.035	139.94
399.244	107.18
399.453	135.85
399.663	152.23
399.872	123.56
400.081	94.89
400.29	205.48
400.499	119.46
400.708	172.71
400.917	115.37
401.127	172.71
401.336	92.84
401.545	66.22
401.754	217.77
401.963	125.61
402.172	82.6
402.381	123.56
402.59	117.42
402.799	141.99
403.008	168.62
403.217	164.52
403.426	197.29
403.635	103.08
403.844	148.14
404.053	160.42
404.262	160.42
404.471	221.86
404.68	123.56
404.888	88.75
405.097	182.95
405.306	185
405.515	242.34
405.724	215.72
405.933	215.72
406.142	197.29
406.35	248.49
406.559	254.63
406.768	299.69
406.977	279.21
407.185	252.58
407.394	262.82
407.603	215.72
407.812	330.41
408.02	336.55
408.229	305.83
408.438	279.21
408.646	289.45
408.855	346.79
409.064	455.33
409.272	311.97
409.481	393.89
409.69	318.12
409.898	324.26
410.107	410.28
410.315	397.99
410.524	387.75
410.733	459.43
410.941	500.39
411.15	606.88
411.358	504.48
411.567	477.86
411.775	434.85
411.984	537.25
412.192	584.35
412.401	570.02
412.609	641.7
412.818	639.65
413.026	606.88
413.234	758.43
413.443	787.1
413.651	696.99
413.86	762.53
414.068	846.49
414.276	852.64
414.485	783.01
414.693	916.12
414.901	946.84
415.11	975.52
415.318	996
415.526	987.8
415.734	1020.57
415.943	1110.68
416.151	1188.5
416.359	1141.4
416.567	1258.14
416.776	1155.74
416.984	1247.9
417.192	1393.3
417.4	1354.39
417.608	1309.33
417.817	1499.8
418.025	1532.56
418.233	1596.05
418.441	1497.75
418.649	1667.73
418.857	1784.46
419.065	1772.18
419.273	1720.98
419.481	1829.52
419.689	1927.82
419.897	1944.2
420.105	2114.19
420.313	2171.53
420.521	2316.94
420.729	2245.26
420.937	2286.22
421.145	2482.82
421.353	2495.11
421.561	2540.16
421.769	2726.53
421.977	2880.13
422.185	2771.58
422.393	2876.03
422.601	3082.88
422.809	3076.73
423.017	3207.8
423.224	3119.74
423.432	3424.89
423.64	3486.33
423.848	3584.63
424.056	3517.04
424.263	3857.01
424.471	4006.51
424.679	4082.28
424.887	4229.74
425.094	4262.51
425.302	4420.2
425.51	4491.88
425.718	4737.63
425.925	4790.88
426.133	4815.46
426.341	5046.88
426.548	5335.64
426.756	5505.62
426.964	5382.74
427.171	5726.8
427.379	5732.95
427.586	6054.48
427.794	6220.36
428.001	6507.08
428.209	6724.16
428.417	6589
428.624	7144
428.832	7053.89
429.039	7094.85
429.247	6931.01
429.454	7655.99
429.662	8036.91
429.869	7580.21
430.076	8292.91
430.284	8032.82
430.491	8317.48
430.699	8817.19
430.906	8772.13
431.114	9034.27
431.321	9294.36
431.528	9486.87
431.736	9986.58
431.943	10363.4
432.15	10166.8
432.358	10150.42
432.565	10682.89
432.772	10852.87
432.979	11403.77
433.187	11512.31
433.394	11395.58
433.601	12345.84
433.808	12304.88
434.016	12380.65
434.223	13038.05
434.43	13916.63
434.637	13468.13
434.844	14119.38
435.052	14397.9
435.259	14520.78
435.466	14447.05
435.673	14174.67
435.88	15430.08
436.087	16036.28
436.294	16187.83
436.501	15706.56
436.708	15835.58
436.915	16499.12
437.122	17088.93
437.329	17402.27
437.537	17766.81
437.743	18074.01
437.95	18137.49
438.157	18848.14
438.364	19712.38
438.571	19499.39
438.778	19538.3
438.985	21365.09
439.192	20298.1
439.399	21156.2
439.606	20445.55
439.813	22118.75
440.02	22997.32
440.227	22679.89
440.433	22460.76
440.64	23257.42
440.847	22982.99
441.054	23638.34
441.261	25106.73
441.467	24822.06
441.674	25450.79
441.881	26421.53
442.088	26372.38
442.294	26183.96
442.501	26409.24
442.708	27298.06
442.914	27900.16
443.121	29341.93
443.328	28571.89
443.534	30370.01
443.741	29708.52
443.948	29257.96
444.154	31240.4
444.361	31275.21
444.568	31432.91
444.774	31682.76
444.981	31807.69
445.187	32446.65
445.394	34185.38
445.6	33624.23
445.807	36698.23
446.013	35287.18
446.22	35694.73
446.426	37859.43
446.633	37419.12
446.839	38785.11
447.046	37079.16
447.252	39166.04
447.459	39002.2
447.665	38846.55
447.871	40572.99
448.078	42604.58
448.284	40196.17
448.491	41549.87
448.697	42915.87
448.903	43710.48
449.11	43890.7
449.316	43135
449.522	44374.02
449.728	44986.36
449.935	45342.71
450.141	45461.49
450.347	46811.1
450.553	45199.35
450.76	45901.81
450.966	47003.61
451.172	46602.21
451.378	47984.59
451.584	46804.96
451.791	48117.71
451.997	47953.87
452.203	48304.07
452.409	48488.39
452.615	48281.55
452.821	46219.24
453.027	46407.65
453.233	48508.87
453.44	46798.82
453.646	47052.76
453.852	46991.33
454.058	47888.34
454.264	46295.02
454.47	47665.11
454.676	46419.94
454.882	48170.96
455.088	43855.89
455.294	44603.39
455.5	45307.9
455.705	45610.99
455.911	44464.13
456.117	42903.58
456.323	42602.53
456.529	40476.74
456.735	42029.1
456.941	41228.34
457.147	40398.91
457.352	39157.85
457.558	38901.85
457.764	38809.69
457.97	38287.46
458.176	37292.15
458.381	37298.29
458.587	35616.91
458.793	35270.8
458.999	33724.58
459.204	35965.06
459.41	35033.24
459.616	33108.15
459.821	32643.26
460.027	32817.33
460.233	31770.82
460.438	30519.51
460.644	30922.96
460.85	29370.6
461.055	28639.48
461.261	28887.28
461.466	26556.69
461.672	25596.2
461.878	27580.68
462.083	25807.14
462.289	25463.08
462.494	24914.22
462.7	24154.43
462.905	23408.97
463.111	23806.27
463.316	24299.83
463.522	23617.86
463.727	23920.96
463.932	23812.42
464.138	23241.03
464.343	23554.37
464.549	22675.79
464.754	23552.32
464.959	23277.9
465.165	23034.19
465.37	21961.05
465.575	21598.56
465.781	22563.15
465.986	22587.73
466.191	21582.18
466.397	21277.03
466.602	20060.54
