Data from USB4F104151__207__14-33-22-099.txt Node

Date: Thu Mar 13 14:33:22 EDT 2025
User: louis
Spectrometer: USB4F10415
Trigger mode: 4
Integration Time (sec): 2.500000E-2
Scans to average: 1
Electric dark correction enabled: true
Nonlinearity correction enabled: false
Boxcar width: 0
XAxis mode: Wavelengths
Number of Pixels in Spectrum: 3648
>>>>>Begin Spectral Data<<<<<
178.204	-185.85
178.424	-185.85
178.644	-185.85
178.864	-151.04
179.084	-189.95
179.304	20.99
179.524	-28.16
179.744	12.8
179.964	12.8
180.184	-32.26
180.404	-67.07
180.624	20.99
180.844	29.18
181.064	-50.69
181.283	20.99
181.503	12.8
181.723	47.62
181.943	-26.11
182.163	31.23
182.383	-17.92
182.602	33.28
182.822	-7.68
183.042	47.62
183.262	45.57
183.482	4.61
183.701	8.7
183.921	47.62
184.141	8.7
184.361	41.47
184.58	27.14
184.8	41.47
185.02	102.91
185.239	104.96
185.459	-11.78
185.679	76.29
185.898	-85.5
186.118	80.38
186.338	-42.5
186.557	72.19
186.777	31.23
186.997	66.05
187.216	29.18
187.436	64
187.655	88.57
187.875	90.62
188.095	94.72
188.314	14.85
188.534	41.47
188.753	8.7
188.973	29.18
189.192	96.77
189.412	20.99
189.631	0.51
189.851	-36.35
190.07	6.66
190.29	-1.54
190.509	20.99
190.729	-42.5
190.948	53.76
191.168	135.68
191.387	20.99
191.607	29.18
191.826	-15.87
192.045	-65.02
192.265	31.23
192.484	78.33
192.704	70.14
192.923	-60.93
193.142	78.33
193.362	41.47
193.581	51.71
193.8	86.53
194.02	8.7
194.239	68.09
194.458	57.86
194.678	-3.58
194.897	37.38
195.116	37.38
195.335	96.77
195.555	-3.58
195.774	33.28
195.993	2.56
196.212	8.7
196.432	-5.63
196.651	53.76
196.87	45.57
197.089	29.18
197.308	31.23
197.528	68.09
197.747	6.66
197.966	31.23
198.185	74.24
198.404	66.05
198.623	37.38
198.842	64
199.062	57.86
199.281	86.53
199.5	33.28
199.719	86.53
199.938	88.57
200.157	70.14
200.376	23.04
200.595	57.86
200.814	16.9
201.033	74.24
201.252	53.76
201.471	86.53
201.69	23.04
201.909	66.05
202.128	-11.78
202.347	-19.97
202.566	14.85
202.785	16.9
203.004	-44.54
203.223	55.81
203.442	37.38
203.661	-22.02
203.879	20.99
204.098	80.38
204.317	47.62
204.536	70.14
204.755	111.1
204.974	113.15
205.193	23.04
205.411	39.42
205.63	115.2
205.849	72.19
206.068	-42.5
206.287	33.28
206.505	53.76
206.724	86.53
206.943	45.57
207.162	0.51
207.381	20.99
207.599	64
207.818	53.76
208.037	-19.97
208.255	-24.06
208.474	-22.02
208.693	27.14
208.911	86.53
209.13	-11.78
209.349	111.1
209.567	37.38
209.786	20.99
210.005	111.1
210.223	25.09
210.442	0.51
210.661	-5.63
210.879	14.85
211.098	-7.68
211.316	37.38
211.535	96.77
211.753	23.04
211.972	43.52
212.191	37.38
212.409	129.53
212.628	66.05
212.846	-17.92
213.065	31.23
213.283	145.92
213.502	47.62
213.72	78.33
213.938	6.66
214.157	47.62
214.375	74.24
214.594	55.81
214.812	61.95
215.031	37.38
215.249	-26.11
215.467	53.76
215.686	4.61
215.904	31.23
216.122	78.33
216.341	152.06
216.559	37.38
216.778	119.29
216.996	86.53
217.214	37.38
217.432	-13.82
217.651	102.91
217.869	53.76
218.087	94.72
218.306	68.09
218.524	111.1
218.742	20.99
218.96	-15.87
219.179	39.42
219.397	57.86
219.615	43.52
219.833	39.42
220.051	-1.54
220.27	70.14
220.488	4.61
220.706	23.04
220.924	49.66
221.142	57.86
221.36	121.34
221.578	2.56
221.796	4.61
222.015	39.42
222.233	90.62
222.451	82.43
222.669	31.23
222.887	98.81
223.105	80.38
223.323	4.61
223.541	25.09
223.759	-40.45
223.977	8.7
224.195	127.49
224.413	64
224.631	20.99
224.849	53.76
225.067	47.62
225.285	12.8
225.503	72.19
225.721	-42.5
225.939	29.18
226.157	8.7
226.375	88.57
226.592	-28.16
226.81	57.86
227.028	33.28
227.246	147.97
227.464	57.86
227.682	8.7
227.9	-1.54
228.117	45.57
228.335	94.72
228.553	25.09
228.771	49.66
228.989	61.95
229.206	53.76
229.424	57.86
229.642	82.43
229.86	20.99
230.077	59.9
230.295	39.42
230.513	104.96
230.731	72.19
230.948	61.95
231.166	94.72
231.384	16.9
231.601	70.14
231.819	78.33
232.037	-60.93
232.254	-52.74
232.472	33.28
232.689	-38.4
232.907	29.18
233.125	-52.74
233.342	53.76
233.56	20.99
233.777	29.18
233.995	43.52
234.213	33.28
234.43	82.43
234.648	0.51
234.865	16.9
235.083	4.61
235.3	86.53
235.518	-11.78
235.735	135.68
235.953	31.23
236.17	20.99
236.388	12.8
236.605	82.43
236.822	139.77
237.04	98.81
237.257	86.53
237.475	96.77
237.692	55.81
237.909	14.85
238.127	2.56
238.344	37.38
238.562	86.53
238.779	-54.78
238.996	6.66
239.214	59.9
239.431	86.53
239.648	-13.82
239.865	-17.92
240.083	76.29
240.3	14.85
240.517	47.62
240.735	53.76
240.952	127.49
241.169	6.66
241.386	37.38
241.603	-11.78
241.821	16.9
242.038	45.57
242.255	6.66
242.472	-52.74
242.689	6.66
242.907	47.62
243.124	39.42
243.341	68.09
243.558	20.99
243.775	-1.54
243.992	18.94
244.209	68.09
244.426	109.05
244.643	41.47
244.86	-24.06
245.078	-26.11
245.295	70.14
245.512	45.57
245.729	53.76
245.946	20.99
246.163	39.42
246.38	49.66
246.597	25.09
246.814	-7.68
247.031	-60.93
247.248	45.57
247.464	14.85
247.681	-7.68
247.898	18.94
248.115	53.76
248.332	-60.93
248.549	4.61
248.766	53.76
248.983	74.24
249.2	16.9
249.417	2.56
249.633	55.81
249.85	80.38
250.067	29.18
250.284	37.38
250.501	-3.58
250.717	0.51
250.934	4.61
251.151	33.28
251.368	74.24
251.585	45.57
251.801	-56.83
252.018	64
252.235	55.81
252.451	0.51
252.668	35.33
252.885	66.05
253.102	-11.78
253.318	29.18
253.535	-44.54
253.752	-15.87
253.968	70.14
254.185	-5.63
254.401	6.66
254.618	61.95
254.835	-28.16
255.051	135.68
255.268	78.33
255.484	74.24
255.701	37.38
255.917	61.95
256.134	8.7
256.351	-17.92
256.567	16.9
256.784	100.86
257	45.57
257.217	76.29
257.433	12.8
257.65	113.15
257.866	94.72
258.082	74.24
258.299	64
258.515	88.57
258.732	139.77
258.948	31.23
259.165	14.85
259.381	8.7
259.597	53.76
259.814	-3.58
260.03	119.29
260.246	23.04
260.463	16.9
260.679	55.81
260.895	55.81
261.112	90.62
261.328	-11.78
261.544	23.04
261.761	107.01
261.977	33.28
262.193	0.51
262.409	10.75
262.626	80.38
262.842	20.99
263.058	86.53
263.274	12.8
263.49	78.33
263.707	111.1
263.923	-19.97
264.139	4.61
264.355	25.09
264.571	156.16
264.787	94.72
265.004	119.29
265.22	-3.58
265.436	14.85
265.652	4.61
265.868	33.28
266.084	-24.06
266.3	64
266.516	8.7
266.732	20.99
266.948	4.61
267.164	127.49
267.38	45.57
267.596	39.42
267.812	94.72
268.028	-19.97
268.244	-52.74
268.46	-15.87
268.676	-19.97
268.892	45.57
269.108	23.04
269.324	-38.4
269.54	12.8
269.756	25.09
269.972	51.71
270.188	80.38
270.403	-24.06
270.619	4.61
270.835	16.9
271.051	127.49
271.267	16.9
271.483	57.86
271.698	86.53
271.914	64
272.13	29.18
272.346	-40.45
272.562	88.57
272.777	12.8
272.993	29.18
273.209	-13.82
273.425	20.99
273.64	57.86
273.856	23.04
274.072	51.71
274.287	-19.97
274.503	59.9
274.719	-48.64
274.934	-3.58
275.15	-11.78
275.366	0.51
275.581	-44.54
275.797	23.04
276.012	37.38
276.228	57.86
276.444	41.47
276.659	23.04
276.875	-3.58
277.09	0.51
277.306	80.38
277.521	72.19
277.737	78.33
277.952	47.62
278.168	25.09
278.383	90.62
278.599	-60.93
278.814	78.33
279.03	-7.68
279.245	82.43
279.461	0.51
279.676	111.1
279.892	29.18
280.107	-91.65
280.322	-13.82
280.538	-34.3
280.753	78.33
280.969	70.14
281.184	-36.35
281.399	86.53
281.615	6.66
281.83	49.66
282.045	53.76
282.26	-34.3
282.476	98.81
282.691	53.76
282.906	94.72
283.122	31.23
283.337	94.72
283.552	-11.78
283.767	14.85
283.983	88.57
284.198	-7.68
284.413	25.09
284.628	39.42
284.843	23.04
285.058	92.67
285.274	72.19
285.489	86.53
285.704	102.91
285.919	-19.97
286.134	-11.78
286.349	61.95
286.564	4.61
286.779	47.62
286.995	16.9
287.21	-67.07
287.425	66.05
287.64	-7.68
287.855	33.28
288.07	86.53
288.285	86.53
288.5	2.56
288.715	39.42
288.93	10.75
289.145	47.62
289.36	80.38
289.575	41.47
289.79	125.44
290.004	57.86
290.219	29.18
290.434	70.14
290.649	-52.74
290.864	4.61
291.079	47.62
291.294	14.85
291.509	70.14
291.724	49.66
291.938	20.99
292.153	6.66
292.368	12.8
292.583	37.38
292.798	86.53
293.012	55.81
293.227	45.57
293.442	45.57
293.657	14.85
293.871	51.71
294.086	39.42
294.301	64
294.516	8.7
294.73	37.38
294.945	10.75
295.16	2.56
295.374	41.47
295.589	70.14
295.804	-36.35
296.018	29.18
296.233	78.33
296.447	74.24
296.662	25.09
296.877	27.14
297.091	74.24
297.306	64
297.52	59.9
297.735	20.99
297.949	96.77
298.164	86.53
298.378	70.14
298.593	31.23
298.807	66.05
299.022	6.66
299.236	162.3
299.451	39.42
299.665	88.57
299.88	98.81
300.094	12.8
300.309	57.86
300.523	29.18
300.737	104.96
300.952	-11.78
301.166	41.47
301.381	53.76
301.595	35.33
301.809	53.76
302.024	55.81
302.238	-15.87
302.452	78.33
302.667	64
302.881	16.9
303.095	27.14
303.309	80.38
303.524	8.7
303.738	127.49
303.952	53.76
304.166	78.33
304.381	29.18
304.595	135.68
304.809	2.56
305.023	82.43
305.237	57.86
305.452	119.29
305.666	16.9
305.88	70.14
306.094	37.38
306.308	37.38
306.522	14.85
306.736	37.38
306.95	104.96
307.164	-17.92
307.379	70.14
307.593	43.52
307.807	14.85
308.021	49.66
308.235	72.19
308.449	29.18
308.663	86.53
308.877	90.62
309.091	-28.16
309.305	37.38
309.519	-40.45
309.733	127.49
309.947	-9.73
310.161	135.68
310.374	70.14
310.588	133.63
310.802	-17.92
311.016	49.66
311.23	57.86
311.444	4.61
311.658	16.9
311.872	129.53
312.085	31.23
312.299	119.29
312.513	29.18
312.727	80.38
312.941	-28.16
313.154	-7.68
313.368	2.56
313.582	39.42
313.796	76.29
314.009	78.33
314.223	66.05
314.437	53.76
314.651	-19.97
314.864	78.33
315.078	37.38
315.292	-19.97
315.505	-9.73
315.719	102.91
315.933	107.01
316.146	39.42
316.36	66.05
316.573	12.8
316.787	88.57
317.001	12.8
317.214	61.95
317.428	80.38
317.641	70.14
317.855	53.76
318.068	-15.87
318.282	55.81
318.495	147.97
318.709	37.38
318.922	90.62
319.136	180.73
319.349	55.81
319.563	115.2
319.776	37.38
319.99	37.38
320.203	-22.02
320.417	61.95
320.63	53.76
320.843	57.86
321.057	104.96
321.27	14.85
321.483	70.14
321.697	102.91
321.91	70.14
322.124	23.04
322.337	104.96
322.55	-15.87
322.763	20.99
322.977	61.95
323.19	-28.16
323.403	72.19
323.617	23.04
323.83	78.33
324.043	70.14
324.256	78.33
324.469	-26.11
324.683	59.9
324.896	37.38
325.109	74.24
325.322	39.42
325.535	135.68
325.748	121.34
325.962	47.62
326.175	41.47
326.388	82.43
326.601	37.38
326.814	74.24
327.027	43.52
327.24	135.68
327.453	-44.54
327.666	74.24
327.879	115.2
328.092	23.04
328.305	-15.87
328.518	70.14
328.731	82.43
328.944	94.72
329.157	16.9
329.37	49.66
329.583	78.33
329.796	16.9
330.009	-19.97
330.222	102.91
330.435	127.49
330.648	74.24
330.861	-50.69
331.073	70.14
331.286	72.19
331.499	31.23
331.712	-32.26
331.925	53.76
332.138	57.86
332.35	41.47
332.563	37.38
332.776	72.19
332.989	74.24
333.202	18.94
333.414	43.52
333.627	104.96
333.84	-11.78
334.053	111.1
334.265	61.95
334.478	90.62
334.691	49.66
334.903	61.95
335.116	37.38
335.329	20.99
335.541	74.24
335.754	70.14
335.966	96.77
336.179	16.9
336.392	45.57
336.604	96.77
336.817	39.42
337.029	45.57
337.242	80.38
337.454	76.29
337.667	70.14
337.88	70.14
338.092	29.18
338.305	12.8
338.517	12.8
338.729	57.86
338.942	137.73
339.154	12.8
339.367	-7.68
339.579	70.14
339.792	57.86
340.004	100.86
340.217	23.04
340.429	59.9
340.641	41.47
340.854	25.09
341.066	-28.16
341.278	4.61
341.491	64
341.703	6.66
341.915	-17.92
342.128	25.09
342.34	-7.68
342.552	70.14
342.764	141.82
342.977	80.38
343.189	104.96
343.401	25.09
343.613	20.99
343.826	86.53
344.038	86.53
344.25	51.71
344.462	14.85
344.674	-32.26
344.886	104.96
345.099	119.29
345.311	80.38
345.523	78.33
345.735	33.28
345.947	47.62
346.159	31.23
346.371	-11.78
346.583	72.19
346.795	137.73
347.007	29.18
347.219	6.66
347.431	72.19
347.643	152.06
347.855	2.56
348.067	61.95
348.279	-19.97
348.491	70.14
348.703	80.38
348.915	37.38
349.127	-7.68
349.339	12.8
349.551	53.76
349.763	86.53
349.975	23.04
350.187	104.96
350.399	74.24
350.61	86.53
350.822	20.99
351.034	94.72
351.246	139.77
351.458	16.9
351.669	55.81
351.881	88.57
352.093	162.3
352.305	43.52
352.517	90.62
352.728	143.87
352.94	152.06
353.152	41.47
353.363	6.66
353.575	61.95
353.787	51.71
353.999	119.29
354.21	96.77
354.422	-28.16
354.633	-7.68
354.845	-7.68
355.057	43.52
355.268	-11.78
355.48	84.48
355.692	37.38
355.903	78.33
356.115	12.8
356.326	-30.21
356.538	147.97
356.749	160.25
356.961	131.58
357.172	39.42
357.384	18.94
357.595	152.06
357.807	78.33
358.018	41.47
358.23	102.91
358.441	111.1
358.653	109.05
358.864	12.8
359.075	-48.64
359.287	47.62
359.498	12.8
359.709	64
359.921	37.38
360.132	45.57
360.344	20.99
360.555	55.81
360.766	23.04
360.977	129.53
361.189	92.67
361.4	41.47
361.611	127.49
361.823	41.47
362.034	80.38
362.245	64
362.456	45.57
362.667	98.81
362.879	33.28
363.09	8.7
363.301	29.18
363.512	94.72
363.723	29.18
363.935	14.85
364.146	86.53
364.357	64
364.568	-17.92
364.779	53.76
364.99	152.06
365.201	18.94
365.412	27.14
365.623	-3.58
365.834	102.91
366.045	12.8
366.256	135.68
366.467	55.81
366.678	98.81
366.889	86.53
367.1	61.95
367.311	41.47
367.522	55.81
367.733	61.95
367.944	33.28
368.155	78.33
368.366	90.62
368.577	84.48
368.788	53.76
368.999	-11.78
369.209	102.91
369.42	170.49
369.631	115.2
369.842	80.38
370.053	86.53
370.264	111.1
370.474	59.9
370.685	80.38
370.896	57.86
371.107	143.87
371.317	139.77
371.528	-28.16
371.739	152.06
371.95	86.53
372.16	12.8
372.371	4.61
372.582	102.91
372.792	104.96
373.003	107.01
373.214	8.7
373.424	57.86
373.635	131.58
373.846	80.38
374.056	80.38
374.267	64
374.477	137.73
374.688	43.52
374.898	125.44
375.109	31.23
375.319	-81.41
375.53	70.14
375.74	107.01
375.951	72.19
376.161	76.29
376.372	156.16
376.582	43.52
376.793	53.76
377.003	66.05
377.214	45.57
377.424	88.57
377.635	37.38
377.845	121.34
378.055	158.21
378.266	80.38
378.476	94.72
378.686	49.66
378.897	66.05
379.107	96.77
379.317	64
379.528	39.42
379.738	111.1
379.948	23.04
380.158	111.1
380.369	53.76
380.579	88.57
380.789	78.33
380.999	92.67
381.21	98.81
381.42	240.12
381.63	51.71
381.84	111.1
382.05	94.72
382.261	88.57
382.471	109.05
382.681	70.14
382.891	115.2
383.101	41.47
383.311	64
383.521	61.95
383.731	102.91
383.941	39.42
384.151	12.8
384.361	86.53
384.571	53.76
384.781	29.18
384.991	143.87
385.201	61.95
385.411	115.2
385.621	94.72
385.831	96.77
386.041	27.14
386.251	43.52
386.461	88.57
386.671	47.62
386.881	37.38
387.091	129.53
387.301	82.43
387.511	82.43
387.72	76.29
387.93	123.39
388.14	123.39
388.35	29.18
388.56	25.09
388.769	104.96
388.979	45.57
389.189	29.18
389.399	39.42
389.609	33.28
389.818	70.14
390.028	80.38
390.238	145.92
390.447	84.48
390.657	80.38
390.867	-13.82
391.076	29.18
391.286	94.72
391.496	45.57
391.705	45.57
391.915	121.34
392.125	104.96
392.334	119.29
392.544	121.34
392.753	20.99
392.963	27.14
393.172	115.2
393.382	70.14
393.591	111.1
393.801	119.29
394.01	176.64
394.22	16.9
394.429	98.81
394.639	23.04
394.848	94.72
395.058	111.1
395.267	82.43
395.477	102.91
395.686	98.81
395.895	113.15
396.105	193.02
396.314	100.86
396.524	113.15
396.733	119.29
396.942	102.91
397.152	121.34
397.361	154.11
397.57	133.63
397.78	78.33
397.989	109.05
398.198	143.87
398.407	137.73
398.617	219.64
398.826	154.11
399.035	147.97
399.244	168.45
399.453	127.49
399.663	168.45
399.872	152.06
400.081	145.92
400.29	90.62
400.499	98.81
400.708	162.3
400.917	86.53
401.127	109.05
401.336	127.49
401.545	193.02
401.754	190.97
401.963	168.45
402.172	201.21
402.381	102.91
402.59	180.73
402.799	184.83
403.008	238.08
403.217	104.96
403.426	178.69
403.635	135.68
403.844	221.69
404.053	233.98
404.262	248.32
404.471	330.23
404.68	225.79
404.888	172.54
405.097	242.17
405.306	168.45
405.515	213.5
405.724	242.17
405.933	354.81
406.142	266.75
406.35	291.32
406.559	268.8
406.768	260.6
406.977	299.52
407.185	238.08
407.394	324.09
407.603	328.19
407.812	242.17
408.02	315.9
408.229	283.13
408.438	270.84
408.646	233.98
408.855	348.67
409.064	365.05
409.272	358.91
409.481	424.44
409.69	365.05
409.898	373.24
410.107	475.64
410.315	406.01
410.524	422.39
410.733	451.07
410.941	383.48
411.15	473.59
411.358	510.46
411.567	537.08
411.775	541.18
411.984	520.7
412.192	684.53
412.401	578.04
412.609	662.01
412.818	711.16
413.026	645.62
413.234	711.16
413.443	768.5
413.651	684.53
413.86	782.84
414.068	922.1
414.276	862.71
414.485	897.52
414.693	942.58
414.901	971.25
415.11	1016.3
415.318	930.29
415.526	997.87
415.734	1055.22
415.943	1083.89
416.151	1184.24
416.359	1069.55
416.567	1233.39
416.776	1323.5
416.984	1274.35
417.192	1274.35
417.4	1393.13
417.608	1352.17
417.817	1372.65
418.025	1511.91
418.233	1620.46
418.441	1479.15
418.649	1606.12
418.857	1724.9
419.065	1729
419.273	1753.57
419.481	1890.79
419.689	1937.89
419.897	2060.77
420.105	2009.57
420.313	2068.96
420.521	2232.8
420.729	2175.45
420.937	2390.49
421.145	2552.28
421.353	2517.47
421.561	2642.39
421.769	2666.97
421.977	2826.71
422.185	2666.97
422.393	2920.92
422.601	3092.94
422.809	3072.47
423.017	3254.73
423.224	3381.71
423.432	3408.33
423.64	3486.15
423.848	3840.45
424.056	3637.7
424.263	4018.63
424.471	3887.56
424.679	4041.15
424.887	4135.36
425.094	4348.35
425.302	4475.32
425.51	4600.25
425.718	4585.91
425.925	4827.57
426.133	4846.01
426.341	5161.39
426.548	5562.8
426.756	5439.92
426.964	5353.9
427.171	5689.77
427.379	5878.18
427.586	5996.96
427.794	6037.92
428.001	6566.3
428.209	6775.19
428.417	6539.68
428.624	7057.81
428.832	6971.8
429.039	7190.93
429.247	7072.15
429.454	7711.11
429.662	8071.56
429.869	7524.75
430.076	8395.14
430.284	7942.53
430.491	8442.24
430.699	8888.7
430.906	8808.83
431.114	8884.6
431.321	9253.23
431.528	9462.13
431.736	10160.48
431.943	10502.5
432.15	10211.68
432.358	10332.51
432.565	10834.27
432.772	10781.02
432.979	11309.4
433.187	11561.3
433.394	11563.34
433.601	12265.8
433.808	12341.57
434.016	12454.21
434.223	12681.53
434.43	13713.71
434.637	13375.8
434.844	14385.44
435.052	14432.55
435.259	14385.44
435.466	14496.03
435.673	14225.7
435.88	15210.78
436.087	15859.98
436.294	15986.96
436.501	15677.71
436.708	15849.74
436.915	16632.07
437.122	17072.38
437.329	17207.55
437.537	17744.11
437.743	18014.45
437.95	17570.04
438.157	18757.86
438.364	19554.52
438.571	19362.01
438.778	19345.62
438.985	21174.46
439.192	20252.87
439.399	21076.16
439.606	20558.02
439.813	21674.17
440.02	22964.39
440.227	22763.68
440.433	22448.3
440.64	23238.81
440.847	22753.44
441.054	23681.17
441.261	25069.7
441.467	24760.45
441.674	25262.21
441.881	25944.18
442.088	25882.74
442.294	25831.54
442.501	26308.72
442.708	26771.56
442.914	27813.98
443.121	28893.26
443.328	28170.32
443.534	30232.63
443.741	29624.38
443.948	29069.38
444.154	31242.28
444.361	31060.01
444.568	30957.61
444.774	31229.99
444.981	31500.32
445.187	32559.12
445.394	33966.07
445.6	33595.39
445.807	36065.24
446.013	34568.18
446.22	35405.8
446.426	36874.19
446.633	37085.13
446.839	38561.72
447.046	36939.72
447.252	38985.65
447.459	39004.08
447.665	38782.9
447.871	40585.11
448.078	42512.25
448.284	40288.15
448.491	41078.67
448.697	42811.25
448.903	43351.91
449.11	43595.62
449.316	42788.72
449.522	43784.04
449.728	44777.3
449.935	44676.95
450.141	45428.55
450.347	46016.32
450.553	44468.06
450.76	45219.66
450.966	46577.47
451.172	46161.73
451.378	47535.91
451.584	46161.73
451.791	47722.28
451.997	47302.45
452.203	48254.75
452.409	47953.7
452.615	47816.49
452.821	46014.27
453.027	45598.54
453.233	47965.99
453.44	46350.14
453.646	46589.75
453.852	46583.61
454.058	47935.27
454.264	45842.24
454.47	47179.57
454.676	45789
454.882	47320.88
455.088	43478.89
455.294	44033.89
455.5	44574.55
455.705	45072.21
455.911	43525.99
456.117	42585.97
456.323	42051.45
456.529	39872.42
456.735	41727.88
456.941	40603.54
457.147	39786.4
457.352	38670.26
457.558	38281.14
457.764	38184.89
457.97	37394.37
458.176	36902.86
458.381	36423.64
458.587	34955.24
458.793	34795.5
458.999	33226.76
459.204	35088.36
459.41	34564.08
459.616	32122.9
459.821	32274.45
460.027	32278.55
460.233	31324.19
460.438	29993.01
460.644	29771.83
460.85	28678.22
461.055	27940.95
461.261	28430.41
461.466	26042.48
461.672	25272.45
461.878	26927.21
462.083	25882.74
462.289	24877.19
462.494	24801.41
462.7	23703.7
462.905	23019.68
463.111	23558.3
463.316	23857.3
463.522	23302.3
463.727	23193.76
463.932	23058.59
464.138	22788.26
464.343	22755.49
464.549	22419.63
464.754	23097.5
464.959	22548.65
465.165	22595.75
465.37	21321.91
465.575	21102.78
465.781	21786.8
465.986	21813.43
466.191	21219.52
466.397	20809.92
466.602	19732.69
466.807	20429
467.012	20314.31
467.218	20181.2
