Data from USB4F104151__178__14-32-44-735.txt Node

Date: Thu Mar 13 14:32:44 EDT 2025
User: louis
Spectrometer: USB4F10415
Trigger mode: 4
Integration Time (sec): 2.500000E-2
Scans to average: 1
Electric dark correction enabled: true
Nonlinearity correction enabled: false
Boxcar width: 0
XAxis mode: Wavelengths
Number of Pixels in Spectrum: 3648
>>>>>Begin Spectral Data<<<<<
178.204	-126.63
178.424	-126.63
178.644	-126.63
178.864	-122.54
179.084	-143.02
179.304	65.88
179.524	-16.04
179.744	-54.95
179.964	29.01
180.184	45.4
180.404	-50.86
180.624	8.53
180.844	-9.9
181.064	-54.95
181.283	-9.9
181.503	39.25
181.723	8.53
181.943	-20.14
182.163	123.22
182.383	4.44
182.602	47.44
182.822	53.59
183.042	74.07
183.262	20.82
183.482	78.16
183.701	12.63
183.921	53.59
184.141	65.88
184.361	72.02
184.58	10.58
184.8	45.4
185.02	33.11
185.239	112.98
185.459	72.02
185.679	43.35
185.898	-24.23
186.118	65.88
186.338	24.92
186.557	12.63
186.777	33.11
186.997	65.88
187.216	4.44
187.436	72.02
187.655	106.84
187.875	47.44
188.095	110.93
188.314	102.74
188.534	80.21
188.753	45.4
188.973	22.87
189.192	69.97
189.412	47.44
189.631	74.07
189.851	37.2
190.07	65.88
190.29	47.44
190.509	22.87
190.729	41.3
190.948	22.87
191.168	135.51
191.387	72.02
191.607	4.44
191.826	20.82
192.045	-36.52
192.265	41.3
192.484	-20.14
192.704	39.25
192.923	16.73
193.142	65.88
193.362	69.97
193.581	72.02
193.8	33.11
194.02	112.98
194.239	49.49
194.458	57.68
194.678	98.64
194.897	61.78
195.116	100.69
195.335	31.06
195.555	-16.04
195.774	-7.85
195.993	112.98
196.212	47.44
196.432	74.07
196.651	-11.95
196.87	55.64
197.089	139.6
197.308	96.6
197.528	55.64
197.747	76.12
197.966	160.08
198.185	115.03
198.404	16.73
198.623	82.26
198.842	137.56
199.062	69.97
199.281	121.17
199.5	65.88
199.719	153.94
199.938	100.69
200.157	45.4
200.376	61.78
200.595	-3.75
200.814	55.64
201.033	0.34
201.252	69.97
201.471	96.6
201.69	67.92
201.909	119.12
202.128	78.16
202.347	20.82
202.566	88.4
202.785	-38.57
203.004	-36.52
203.223	112.98
203.442	82.26
203.661	6.49
203.879	53.59
204.098	102.74
204.317	59.73
204.536	176.47
204.755	29.01
204.974	65.88
205.193	72.02
205.411	69.97
205.63	51.54
205.849	84.31
206.068	74.07
206.287	29.01
206.505	-11.95
206.724	41.3
206.943	74.07
207.162	53.59
207.381	94.55
207.599	102.74
207.818	24.92
208.037	55.64
208.255	-36.52
208.474	78.16
208.693	69.97
208.911	72.02
209.13	37.2
209.349	82.26
209.567	96.6
209.786	6.49
210.005	61.78
210.223	110.93
210.442	37.2
210.661	45.4
210.879	-16.04
211.098	37.2
211.316	-11.95
211.535	94.55
211.753	26.96
211.972	37.2
212.191	55.64
212.409	29.01
212.628	6.49
212.846	-7.85
213.065	39.25
213.283	65.88
213.502	59.73
213.72	45.4
213.938	37.2
214.157	31.06
214.375	63.83
214.594	8.53
214.812	45.4
215.031	31.06
215.249	-24.23
215.467	102.74
215.686	55.64
215.904	168.27
216.122	31.06
216.341	59.73
216.559	24.92
216.778	121.17
216.996	37.2
217.214	53.59
217.432	53.59
217.651	14.68
217.869	4.44
218.087	47.44
218.306	-28.33
218.524	65.88
218.742	-9.9
218.96	65.88
219.179	102.74
219.397	63.83
219.615	78.16
219.833	69.97
220.051	33.11
220.27	39.25
220.488	90.45
220.706	31.06
220.924	39.25
221.142	22.87
221.36	-42.67
221.578	65.88
221.796	0.34
222.015	24.92
222.233	-48.81
222.451	39.25
222.669	-42.67
222.887	86.36
223.105	-34.47
223.323	108.88
223.541	-34.47
223.759	69.97
223.977	-1.71
224.195	69.97
224.413	112.98
224.631	86.36
224.849	37.2
225.067	37.2
225.285	55.64
225.503	94.55
225.721	-9.9
225.939	-9.9
226.157	57.68
226.375	147.8
226.592	-48.81
226.81	16.73
227.028	112.98
227.246	153.94
227.464	29.01
227.682	41.3
227.9	29.01
228.117	108.88
228.335	74.07
228.553	47.44
228.771	125.27
228.989	61.78
229.206	63.83
229.424	80.21
229.642	-16.04
229.86	20.82
230.077	57.68
230.295	127.32
230.513	88.4
230.731	63.83
230.948	69.97
231.166	135.51
231.384	-3.75
231.601	-36.52
231.819	112.98
232.037	16.73
232.254	4.44
232.472	29.01
232.689	55.64
232.907	61.78
233.125	74.07
233.342	37.2
233.56	82.26
233.777	88.4
233.995	63.83
234.213	119.12
234.43	63.83
234.648	37.2
234.865	84.31
235.083	123.22
235.3	100.69
235.518	76.12
235.735	110.93
235.953	74.07
236.17	31.06
236.388	90.45
236.605	49.49
236.822	117.08
237.04	20.82
237.257	61.78
237.475	90.45
237.692	18.77
237.909	96.6
238.127	-3.75
238.344	18.77
238.562	29.01
238.779	16.73
238.996	78.16
239.214	20.82
239.431	57.68
239.648	-28.33
239.865	86.36
240.083	45.4
240.3	37.2
240.517	6.49
240.735	69.97
240.952	82.26
241.169	39.25
241.386	74.07
241.603	63.83
241.821	-18.09
242.038	82.26
242.255	74.07
242.472	53.59
242.689	61.78
242.907	49.49
243.124	59.73
243.341	47.44
243.558	49.49
243.775	-7.85
243.992	24.92
244.209	57.68
244.426	180.56
244.643	37.2
244.86	39.25
245.078	82.26
245.295	-13.99
245.512	67.92
245.729	69.97
245.946	86.36
246.163	-11.95
246.38	88.4
246.597	110.93
246.814	94.55
247.031	35.16
247.248	49.49
247.464	115.03
247.681	94.55
247.898	14.68
248.115	29.01
248.332	69.97
248.549	47.44
248.766	104.79
248.983	63.83
249.2	-16.04
249.417	102.74
249.633	-3.75
249.85	41.3
250.067	-18.09
250.284	53.59
250.501	37.2
250.717	90.45
250.934	61.78
251.151	51.54
251.368	47.44
251.585	61.78
251.801	145.75
252.018	8.53
252.235	78.16
252.451	78.16
252.668	104.79
252.885	43.35
253.102	53.59
253.318	24.92
253.535	61.78
253.752	84.31
253.968	29.01
254.185	74.07
254.401	127.32
254.618	80.21
254.835	55.64
255.051	135.51
255.268	86.36
255.484	24.92
255.701	24.92
255.917	69.97
256.134	72.02
256.351	12.63
256.567	14.68
256.784	78.16
257	12.63
257.217	22.87
257.433	72.02
257.65	92.5
257.866	59.73
258.082	22.87
258.299	69.97
258.515	86.36
258.732	53.59
258.948	90.45
259.165	69.97
259.381	78.16
259.597	74.07
259.814	20.82
260.03	76.12
260.246	45.4
260.463	29.01
260.679	49.49
260.895	39.25
261.112	41.3
261.328	29.01
261.544	39.25
261.761	49.49
261.977	47.44
262.193	4.44
262.409	61.78
262.626	135.51
262.842	129.36
263.058	78.16
263.274	96.6
263.49	12.63
263.707	86.36
263.923	43.35
264.139	29.01
264.355	12.63
264.571	90.45
264.787	69.97
265.004	22.87
265.22	12.63
265.436	8.53
265.652	57.68
265.868	61.78
266.084	4.44
266.3	57.68
266.516	16.73
266.732	29.01
266.948	45.4
267.164	69.97
267.38	147.8
267.596	69.97
267.812	98.64
268.028	65.88
268.244	24.92
268.46	12.63
268.676	55.64
268.892	-9.9
269.108	-3.75
269.324	59.73
269.54	41.3
269.756	74.07
269.972	12.63
270.188	35.16
270.403	-36.52
270.619	49.49
270.835	20.82
271.051	69.97
271.267	-36.52
271.483	-20.14
271.698	139.6
271.914	57.68
272.13	45.4
272.346	20.82
272.562	74.07
272.777	39.25
272.993	102.74
273.209	20.82
273.425	41.3
273.64	12.63
273.856	69.97
274.072	47.44
274.287	-20.14
274.503	61.78
274.719	143.7
274.934	92.5
275.15	37.2
275.366	12.63
275.581	102.74
275.797	49.49
276.012	63.83
276.228	112.98
276.444	29.01
276.659	102.74
276.875	24.92
277.09	24.92
277.306	-20.14
277.521	115.03
277.737	4.44
277.952	78.16
278.168	69.97
278.383	69.97
278.599	-3.75
278.814	74.07
279.03	49.49
279.245	78.16
279.461	14.68
279.676	69.97
279.892	41.3
280.107	-11.95
280.322	-46.76
280.538	80.21
280.753	24.92
280.969	-1.71
281.184	72.02
281.399	53.59
281.615	74.07
281.83	20.82
282.045	6.49
282.26	57.68
282.476	82.26
282.691	72.02
282.906	104.79
283.122	39.25
283.337	-32.43
283.552	72.02
283.767	57.68
283.983	47.44
284.198	-20.14
284.413	72.02
284.628	-52.91
284.843	102.74
285.058	110.93
285.274	51.54
285.489	-11.95
285.704	90.45
285.919	45.4
286.134	20.82
286.349	84.31
286.564	37.2
286.779	135.51
286.995	37.2
287.21	-7.85
287.425	98.64
287.64	37.2
287.855	47.44
288.07	-9.9
288.285	45.4
288.5	26.96
288.715	-26.28
288.93	22.87
289.145	-5.8
289.36	69.97
289.575	-11.95
289.79	0.34
290.004	29.01
290.219	63.83
290.434	-16.04
290.649	6.49
290.864	37.2
291.079	0.34
291.294	22.87
291.509	18.77
291.724	-3.75
291.938	-13.99
292.153	78.16
292.368	-69.29
292.583	33.11
292.798	102.74
293.012	45.4
293.227	20.82
293.442	86.36
293.657	69.97
293.871	31.06
294.086	84.31
294.301	78.16
294.516	57.68
294.73	31.06
294.945	39.25
295.16	55.64
295.374	102.74
295.589	96.6
295.804	53.59
296.018	112.98
296.233	143.7
296.447	37.2
296.662	78.16
296.877	12.63
297.091	61.78
297.306	102.74
297.52	-20.14
297.735	49.49
297.949	-11.95
298.164	37.2
298.378	10.58
298.593	31.06
298.807	18.77
299.022	2.39
299.236	-3.75
299.451	4.44
299.665	6.49
299.88	53.59
300.094	53.59
300.309	84.31
300.523	8.53
300.737	-18.09
300.952	90.45
301.166	51.54
301.381	14.68
301.595	37.2
301.809	39.25
302.024	31.06
302.238	-16.04
302.452	115.03
302.667	72.02
302.881	127.32
303.095	-16.04
303.309	104.79
303.524	-20.14
303.738	-7.85
303.952	67.92
304.166	12.63
304.381	59.73
304.595	20.82
304.809	6.49
305.023	131.41
305.237	47.44
305.452	-9.9
305.666	63.83
305.88	153.94
306.094	35.16
306.308	117.08
306.522	45.4
306.736	49.49
306.95	92.5
307.164	53.59
307.379	31.06
307.593	108.88
307.807	49.49
308.021	80.21
308.235	117.08
308.449	14.68
308.663	110.93
308.877	78.16
309.091	-36.52
309.305	-24.23
309.519	-20.14
309.733	76.12
309.947	61.78
310.161	110.93
310.374	82.26
310.588	45.4
310.802	6.49
311.016	74.07
311.23	47.44
311.444	55.64
311.658	98.64
311.872	115.03
312.085	37.2
312.299	47.44
312.513	39.25
312.727	49.49
312.941	80.21
313.154	-3.75
313.368	53.59
313.582	-20.14
313.796	72.02
314.009	55.64
314.223	22.87
314.437	39.25
314.651	55.64
314.864	45.4
315.078	0.34
315.292	22.87
315.505	43.35
315.719	41.3
315.933	55.64
316.146	16.73
316.36	14.68
316.573	86.36
316.787	76.12
317.001	63.83
317.214	-1.71
317.428	69.97
317.641	-44.71
317.855	20.82
318.068	37.2
318.282	14.68
318.495	115.03
318.709	121.17
318.922	20.82
319.136	168.27
319.349	88.4
319.563	33.11
319.776	74.07
319.99	16.73
320.203	88.4
320.417	65.88
320.63	100.69
320.843	82.26
321.057	96.6
321.27	55.64
321.483	61.78
321.697	59.73
321.91	86.36
322.124	37.2
322.337	-24.23
322.55	41.3
322.763	-1.71
322.977	37.2
323.19	8.53
323.403	6.49
323.617	78.16
323.83	65.88
324.043	43.35
324.256	12.63
324.469	-85.67
324.683	45.4
324.896	33.11
325.109	110.93
325.322	-1.71
325.535	61.78
325.748	-3.75
325.962	63.83
326.175	72.02
326.388	72.02
326.601	33.11
326.814	4.44
327.027	33.11
327.24	115.03
327.453	41.3
327.666	53.59
327.879	139.6
328.092	155.99
328.305	61.78
328.518	4.44
328.731	4.44
328.944	76.12
329.157	12.63
329.37	29.01
329.583	61.78
329.796	90.45
330.009	6.49
330.222	102.74
330.435	74.07
330.648	51.54
330.861	102.74
331.073	104.79
331.286	102.74
331.499	29.01
331.712	0.34
331.925	-3.75
332.138	102.74
332.35	205.14
332.563	14.68
332.776	121.17
332.989	80.21
333.202	14.68
333.414	47.44
333.627	-20.14
333.84	33.11
334.053	57.68
334.265	-9.9
334.478	31.06
334.691	94.55
334.903	61.78
335.116	61.78
335.329	41.3
335.541	106.84
335.754	170.32
335.966	96.6
336.179	47.44
336.392	37.2
336.604	45.4
336.817	104.79
337.029	37.2
337.242	33.11
337.454	29.01
337.667	37.2
337.88	24.92
338.092	-1.71
338.305	84.31
338.517	61.78
338.729	98.64
338.942	43.35
339.154	41.3
339.367	-26.28
339.579	106.84
339.792	-11.95
340.004	102.74
340.217	53.59
340.429	115.03
340.641	43.35
340.854	-24.23
341.066	63.83
341.278	96.6
341.491	80.21
341.703	88.4
341.915	29.01
342.128	84.31
342.34	45.4
342.552	37.2
342.764	29.01
342.977	24.92
343.189	43.35
343.401	20.82
343.613	-9.9
343.826	61.78
344.038	-5.8
344.25	63.83
344.462	115.03
344.674	53.59
344.886	88.4
345.099	45.4
345.311	55.64
345.523	55.64
345.735	20.82
345.947	33.11
346.159	82.26
346.371	6.49
346.583	49.49
346.795	135.51
347.007	-11.95
347.219	127.32
347.431	47.44
347.643	67.92
347.855	41.3
348.067	49.49
348.279	-87.72
348.491	72.02
348.703	24.92
348.915	20.82
349.127	39.25
349.339	61.78
349.551	22.87
349.763	110.93
349.975	104.79
350.187	69.97
350.399	86.36
350.61	139.6
350.822	90.45
351.034	115.03
351.246	0.34
351.458	94.55
351.669	108.88
351.881	49.49
352.093	94.55
352.305	135.51
352.517	41.3
352.728	143.7
352.94	6.49
353.152	102.74
353.363	102.74
353.575	53.59
353.787	82.26
353.999	53.59
354.21	69.97
354.422	20.82
354.633	63.83
354.845	82.26
355.057	65.88
355.268	94.55
355.48	37.2
355.692	-16.04
355.903	55.64
356.115	4.44
356.326	24.92
356.538	63.83
356.749	31.06
356.961	65.88
357.172	37.2
357.384	35.16
357.595	86.36
357.807	100.69
358.018	78.16
358.23	12.63
358.441	92.5
358.653	110.93
358.864	65.88
359.075	72.02
359.287	24.92
359.498	39.25
359.709	47.44
359.921	86.36
360.132	26.96
360.344	127.32
360.555	37.2
360.766	51.54
360.977	74.07
361.189	98.64
361.4	39.25
361.611	94.55
361.823	55.64
362.034	8.53
362.245	-11.95
362.456	-3.75
362.667	61.78
362.879	22.87
363.09	22.87
363.301	14.68
363.512	100.69
363.723	84.31
363.935	61.78
364.146	43.35
364.357	102.74
364.568	37.2
364.779	22.87
364.99	78.16
365.201	47.44
365.412	49.49
365.623	18.77
365.834	135.51
366.045	45.4
366.256	49.49
366.467	37.2
366.678	61.78
366.889	98.64
367.1	43.35
367.311	39.25
367.522	12.63
367.733	106.84
367.944	153.94
368.155	4.44
368.366	82.26
368.577	115.03
368.788	78.16
368.999	26.96
369.209	174.42
369.42	178.51
369.631	100.69
369.842	102.74
370.053	168.27
370.264	57.68
370.474	98.64
370.685	35.16
370.896	-1.71
371.107	129.36
371.317	72.02
371.528	-16.04
371.739	72.02
371.95	78.16
372.16	14.68
372.371	8.53
372.582	53.59
372.792	29.01
373.003	69.97
373.214	88.4
373.424	45.4
373.635	24.92
373.846	80.21
374.056	33.11
374.267	43.35
374.477	24.92
374.688	-9.9
374.898	24.92
375.109	98.64
375.319	72.02
375.53	14.68
375.74	86.36
375.951	16.73
376.161	86.36
376.372	63.83
376.582	43.35
376.793	37.2
377.003	18.77
377.214	61.78
377.424	24.92
377.635	53.59
377.845	86.36
378.055	-11.95
378.266	49.49
378.476	94.55
378.686	49.49
378.897	61.78
379.107	24.92
379.317	41.3
379.528	47.44
379.738	102.74
379.948	39.25
380.158	6.49
380.369	53.59
380.579	151.89
380.789	90.45
380.999	24.92
381.21	110.93
381.42	153.94
381.63	37.2
381.84	24.92
382.05	72.02
382.261	88.4
382.471	61.78
382.681	137.56
382.891	53.59
383.101	37.2
383.311	-16.04
383.521	20.82
383.731	147.8
383.941	53.59
384.151	47.44
384.361	69.97
384.571	123.22
384.781	82.26
384.991	98.64
385.201	147.8
385.411	129.36
385.621	78.16
385.831	61.78
386.041	8.53
386.251	104.79
386.461	106.84
386.671	49.49
386.881	55.64
387.091	-1.71
387.301	72.02
387.511	16.73
387.72	6.49
387.93	61.78
388.14	4.44
388.35	119.12
388.56	55.64
388.769	119.12
388.979	164.18
389.189	51.54
389.399	125.27
389.609	131.41
389.818	94.55
390.028	-38.57
390.238	74.07
390.447	98.64
390.657	137.56
390.867	94.55
391.076	49.49
391.286	74.07
391.496	86.36
391.705	39.25
391.915	20.82
392.125	131.41
392.334	29.01
392.544	121.17
392.753	102.74
392.963	-20.14
393.172	94.55
393.382	90.45
393.591	110.93
393.801	45.4
394.01	149.84
394.22	86.36
394.429	29.01
394.639	78.16
394.848	112.98
395.058	76.12
395.267	53.59
395.477	53.59
395.686	139.6
395.895	131.41
396.105	110.93
396.314	80.21
396.524	69.97
396.733	0.34
396.942	135.51
397.152	41.3
397.361	108.88
397.57	96.6
397.78	110.93
397.989	108.88
398.198	155.99
398.407	90.45
398.617	112.98
398.826	98.64
399.035	63.83
399.244	104.79
399.453	102.74
399.663	57.68
399.872	133.46
400.081	26.96
400.29	188.75
400.499	65.88
400.708	110.93
400.917	115.03
401.127	88.4
401.336	115.03
401.545	131.41
401.754	104.79
401.963	82.26
402.172	94.55
402.381	29.01
402.59	94.55
402.799	78.16
403.008	151.89
403.217	69.97
403.426	155.99
403.635	18.77
403.844	69.97
404.053	131.41
404.262	100.69
404.471	178.51
404.68	20.82
404.888	127.32
405.097	78.16
405.306	90.45
405.515	123.22
405.724	100.69
405.933	147.8
406.142	176.47
406.35	135.51
406.559	170.32
406.768	149.84
406.977	209.23
407.185	192.85
407.394	194.9
407.603	135.51
407.812	184.66
408.02	117.08
408.229	207.19
408.438	254.29
408.646	172.37
408.855	205.14
409.064	201.04
409.272	139.6
409.481	309.58
409.69	186.71
409.898	127.32
410.107	270.67
410.315	194.9
410.524	209.23
410.733	307.54
410.941	315.73
411.15	262.48
411.358	307.54
411.567	254.29
411.775	330.06
411.984	291.15
412.192	360.78
412.401	325.97
412.609	381.26
412.818	383.31
413.026	309.58
413.234	407.89
413.443	422.22
413.651	325.97
413.86	391.5
414.068	356.69
414.276	495.95
414.485	479.57
414.693	495.95
414.901	561.48
415.11	506.19
415.318	508.24
415.526	555.34
415.734	508.24
415.943	557.39
416.151	569.68
416.359	596.3
416.567	547.15
416.776	635.21
416.984	659.79
417.192	659.79
417.4	694.6
417.608	735.56
417.817	760.14
418.025	831.82
418.233	831.82
418.441	741.71
418.649	921.93
418.857	880.97
419.065	833.86
419.273	856.39
419.481	979.27
419.689	1020.23
419.897	1022.28
420.105	1139.01
420.313	1143.11
420.521	1272.13
420.729	1200.45
420.937	1087.81
421.145	1235.27
421.353	1259.84
421.561	1421.63
421.769	1380.67
421.977	1392.96
422.185	1438.02
422.393	1433.92
422.601	1618.24
422.809	1636.67
423.017	1618.24
423.224	1716.54
423.432	1814.84
423.64	1726.78
423.848	1814.84
424.056	1876.28
424.263	1990.97
424.471	2052.41
424.679	2079.03
424.887	2105.65
425.094	2281.78
425.302	2183.48
425.51	2210.1
425.718	2392.37
425.925	2382.13
426.133	2617.65
426.341	2691.37
426.548	2767.15
426.756	2695.47
426.964	2781.48
427.171	2906.41
427.379	2982.18
427.586	2986.28
427.794	3129.64
428.001	3316
428.209	3436.83
428.417	3326.24
428.624	3670.3
428.832	3563.81
429.039	3512.61
429.247	3694.88
429.454	3866.91
429.662	4079.9
429.869	3823.9
430.076	4088.09
430.284	4043.03
430.491	4116.76
430.699	4528.4
430.906	4393.23
431.114	4509.97
431.321	4612.37
431.528	4780.3
431.736	4997.39
431.943	5290.24
432.15	5118.22
432.358	5056.78
432.565	5402.88
432.772	5271.81
432.979	5775.61
433.187	5695.74
433.394	5873.92
433.601	6310.13
433.808	6390
434.016	6207.73
434.223	6332.66
434.43	6721.77
434.637	6768.88
434.844	7246.05
435.052	7203.05
435.259	7135.46
435.466	7356.65
435.673	7133.42
435.88	7794.91
436.087	8173.78
436.294	7928.03
436.501	7825.63
436.708	7866.59
436.915	8290.52
437.122	8610
437.329	8560.85
437.537	8591.57
437.743	8917.2
437.95	8999.12
438.157	9418.95
438.364	9599.17
438.571	9769.15
438.778	9711.81
438.985	10584.24
439.192	10399.93
439.399	10447.03
439.606	10221.75
439.813	10907.82
440.02	11622.56
440.227	11176.11
440.433	11120.81
440.64	11587.75
440.847	11792.55
441.054	11860.13
441.261	12630.16
441.467	12343.45
441.674	12861.59
441.881	13267.08
442.088	12908.69
442.294	13037.71
442.501	13373.58
442.708	13512.84
442.914	14041.22
443.121	14534.78
443.328	14319.74
443.534	15235.18
443.741	14704.76
443.948	14661.75
444.154	15677.54
444.361	15870.05
444.568	15919.2
444.774	15343.72
444.981	15841.38
445.187	16244.83
445.394	17041.49
445.6	16701.53
445.807	18432.06
446.013	17571.91
446.22	18053.19
446.426	18780.21
446.633	18864.18
446.839	19296.3
447.046	18626.62
447.252	19712.04
447.459	19605.55
447.665	19701.8
447.871	20346.91
448.078	21145.62
448.284	20144.16
448.491	20711.45
448.697	21665.8
448.903	22161.41
449.11	21989.38
449.316	21784.58
449.522	22128.64
449.728	22743.03
449.935	22861.82
450.141	23281.65
450.347	23371.76
450.553	22571
450.76	22697.98
450.966	23672.81
451.172	23353.33
451.378	23889.9
451.584	23351.28
451.791	24360.93
451.997	24111.08
452.203	24446.94
452.409	24543.2
452.615	24444.9
452.821	23500.78
453.027	23250.93
453.233	24498.14
453.44	23320.56
453.646	23408.62
453.852	23685.1
454.058	24162.28
454.264	23173.11
454.47	23820.27
454.676	23226.35
454.882	24010.73
455.088	21848.07
455.294	22183.94
455.5	22532.09
455.705	22525.95
455.911	22050.82
456.117	21811.21
456.323	21229.59
456.529	20211.74
456.735	20914.2
456.941	20379.68
457.147	19933.22
457.352	19605.55
457.558	19261.49
457.764	19206.19
457.97	18765.88
458.176	18403.39
458.381	18309.18
458.587	17553.48
458.793	17543.24
458.999	16498.78
459.204	17705.03
459.41	17262.67
459.616	16363.61
459.821	15917.15
460.027	15984.74
460.233	15620.2
460.438	15163.5
460.644	15063.15
460.85	14342.27
461.055	14225.53
461.261	14071.93
461.466	13123.73
461.672	12472.47
461.878	13598.85
462.083	12847.25
462.289	12521.62
462.494	12361.88
462.7	11581.6
462.905	11573.41
463.111	11868.32
463.316	12095.64
463.522	11483.3
463.727	11591.84
463.932	11456.68
464.138	11448.49
464.343	11466.92
464.549	11206.83
464.754	11563.17
464.959	11464.87
465.165	11542.69
465.37	10967.21
465.575	10657.97
465.781	10997.93
465.986	11110.57
466.191	10698.93
466.397	10451.13
466.602	9932.99
466.807	10399.93
467.012	10475.7
467.218	10338.49
467.423	10064.06
467.628	10227.9
467.833	10727.6
