Data from USB4F104151__208__14-33-22-549.txt Node

Date: Thu Mar 13 14:33:22 EDT 2025
User: louis
Spectrometer: USB4F10415
Trigger mode: 4
Integration Time (sec): 2.500000E-2
Scans to average: 1
Electric dark correction enabled: true
Nonlinearity correction enabled: false
Boxcar width: 0
XAxis mode: Wavelengths
Number of Pixels in Spectrum: 3648
>>>>>Begin Spectral Data<<<<<
178.204	-128.68
178.424	-128.68
178.644	-128.68
178.864	-136.87
179.084	-130.73
179.304	-9.9
179.524	-9.9
179.744	-16.04
179.964	-42.67
180.184	-7.85
180.404	39.25
180.624	-11.95
180.844	16.73
181.064	-67.24
181.283	55.64
181.503	-11.95
181.723	65.88
181.943	-5.8
182.163	84.31
182.383	47.44
182.602	82.26
182.822	88.4
183.042	88.4
183.262	26.96
183.482	51.54
183.701	-5.8
183.921	65.88
184.141	22.87
184.361	92.5
184.58	33.11
184.8	112.98
185.02	-16.04
185.239	90.45
185.459	86.36
185.679	55.64
185.898	-1.71
186.118	127.32
186.338	6.49
186.557	22.87
186.777	67.92
186.997	-26.28
187.216	0.34
187.436	67.92
187.655	43.35
187.875	-1.71
188.095	57.68
188.314	139.6
188.534	166.23
188.753	2.39
188.973	90.45
189.192	88.4
189.412	20.82
189.631	8.53
189.851	-16.04
190.07	88.4
190.29	-13.99
190.509	-42.67
190.729	45.4
190.948	96.6
191.168	131.41
191.387	115.03
191.607	18.77
191.826	41.3
192.045	16.73
192.265	-16.04
192.484	104.79
192.704	10.58
192.923	-59.05
193.142	82.26
193.362	8.53
193.581	74.07
193.8	72.02
194.02	110.93
194.239	-18.09
194.458	59.73
194.678	16.73
194.897	14.68
195.116	16.73
195.335	-26.28
195.555	72.02
195.774	78.16
195.993	-32.43
196.212	88.4
196.432	12.63
196.651	108.88
196.87	16.73
197.089	35.16
197.308	63.83
197.528	100.69
197.747	26.96
197.966	-20.14
198.185	45.4
198.404	18.77
198.623	74.07
198.842	88.4
199.062	125.27
199.281	61.78
199.5	26.96
199.719	59.73
199.938	63.83
200.157	-18.09
200.376	24.92
200.595	41.3
200.814	33.11
201.033	26.96
201.252	74.07
201.471	35.16
201.69	106.84
201.909	31.06
202.128	47.44
202.347	149.84
202.566	12.63
202.785	16.73
203.004	0.34
203.223	98.64
203.442	45.4
203.661	-1.71
203.879	63.83
204.098	10.58
204.317	16.73
204.536	96.6
204.755	41.3
204.974	55.64
205.193	96.6
205.411	74.07
205.63	76.12
205.849	104.79
206.068	4.44
206.287	4.44
206.505	41.3
206.724	41.3
206.943	-26.28
207.162	-13.99
207.381	-1.71
207.599	14.68
207.818	72.02
208.037	80.21
208.255	88.4
208.474	88.4
208.693	96.6
208.911	88.4
209.13	117.08
209.349	74.07
209.567	74.07
209.786	72.02
210.005	-7.85
210.223	-1.71
210.442	-9.9
210.661	88.4
210.879	26.96
211.098	51.54
211.316	74.07
211.535	76.12
211.753	80.21
211.972	51.54
212.191	104.79
212.409	47.44
212.628	194.9
212.846	26.96
213.065	26.96
213.283	129.36
213.502	26.96
213.72	-13.99
213.938	33.11
214.157	43.35
214.375	-5.8
214.594	24.92
214.812	72.02
215.031	41.3
215.249	-9.9
215.467	92.5
215.686	12.63
215.904	74.07
216.122	74.07
216.341	121.17
216.559	72.02
216.778	96.6
216.996	72.02
217.214	-24.23
217.432	33.11
217.651	55.64
217.869	-7.85
218.087	59.73
218.306	76.12
218.524	80.21
218.742	41.3
218.96	65.88
219.179	39.25
219.397	6.49
219.615	84.31
219.833	2.39
220.051	47.44
220.27	104.79
220.488	-1.71
220.706	61.78
220.924	31.06
221.142	55.64
221.36	67.92
221.578	35.16
221.796	96.6
222.015	47.44
222.233	-7.85
222.451	106.84
222.669	2.39
222.887	104.79
223.105	104.79
223.323	-9.9
223.541	-40.62
223.759	72.02
223.977	65.88
224.195	65.88
224.413	47.44
224.631	45.4
224.849	22.87
225.067	74.07
225.285	88.4
225.503	-1.71
225.721	-5.8
225.939	78.16
226.157	55.64
226.375	108.88
226.592	26.96
226.81	90.45
227.028	74.07
227.246	63.83
227.464	117.08
227.682	39.25
227.9	112.98
228.117	55.64
228.335	74.07
228.553	-34.47
228.771	39.25
228.989	45.4
229.206	14.68
229.424	88.4
229.642	108.88
229.86	-18.09
230.077	72.02
230.295	-46.76
230.513	117.08
230.731	33.11
230.948	88.4
231.166	100.69
231.384	33.11
231.601	22.87
231.819	88.4
232.037	-24.23
232.254	-5.8
232.472	88.4
232.689	4.44
232.907	8.53
233.125	104.79
233.342	-34.47
233.56	92.5
233.777	14.68
233.995	88.4
234.213	90.45
234.43	6.49
234.648	12.63
234.865	-42.67
235.083	104.79
235.3	55.64
235.518	88.4
235.735	59.73
235.953	112.98
236.17	108.88
236.388	39.25
236.605	-26.28
236.822	82.26
237.04	158.03
237.257	65.88
237.475	49.49
237.692	31.06
237.909	22.87
238.127	47.44
238.344	80.21
238.562	51.54
238.779	72.02
238.996	-59.05
239.214	-3.75
239.431	90.45
239.648	-1.71
239.865	39.25
240.083	47.44
240.3	31.06
240.517	10.58
240.735	8.53
240.952	137.56
241.169	61.78
241.386	26.96
241.603	-9.9
241.821	-1.71
242.038	67.92
242.255	80.21
242.472	-59.05
242.689	43.35
242.907	41.3
243.124	2.39
243.341	-11.95
243.558	0.34
243.775	82.26
243.992	6.49
244.209	-1.71
244.426	129.36
244.643	82.26
244.86	125.27
245.078	35.16
245.295	94.55
245.512	121.17
245.729	-3.75
245.946	39.25
246.163	74.07
246.38	63.83
246.597	102.74
246.814	117.08
247.031	80.21
247.248	92.5
247.464	4.44
247.681	31.06
247.898	55.64
248.115	117.08
248.332	-24.23
248.549	22.87
248.766	20.82
248.983	80.21
249.2	47.44
249.417	33.11
249.633	26.96
249.85	-20.14
250.067	33.11
250.284	24.92
250.501	6.49
250.717	67.92
250.934	-1.71
251.151	72.02
251.368	49.49
251.585	96.6
251.801	-50.86
252.018	37.2
252.235	100.69
252.451	88.4
252.668	6.49
252.885	72.02
253.102	51.54
253.318	82.26
253.535	2.39
253.752	59.73
253.968	78.16
254.185	18.77
254.401	69.97
254.618	10.58
254.835	115.03
255.051	106.84
255.268	125.27
255.484	2.39
255.701	67.92
255.917	49.49
256.134	-9.9
256.351	102.74
256.567	8.53
256.784	-16.04
257	55.64
257.217	78.16
257.433	98.64
257.65	74.07
257.866	35.16
258.082	6.49
258.299	41.3
258.515	53.59
258.732	-71.34
258.948	22.87
259.165	84.31
259.381	8.53
259.597	123.22
259.814	53.59
260.03	43.35
260.246	-34.47
260.463	76.12
260.679	88.4
260.895	-1.71
261.112	41.3
261.328	47.44
261.544	-9.9
261.761	108.88
261.977	-7.85
262.193	10.58
262.409	74.07
262.626	39.25
262.842	0.34
263.058	-9.9
263.274	61.78
263.49	57.68
263.707	39.25
263.923	47.44
264.139	-5.8
264.355	22.87
264.571	76.12
264.787	24.92
265.004	67.92
265.22	67.92
265.436	92.5
265.652	39.25
265.868	123.22
266.084	-34.47
266.3	-54.95
266.516	-32.43
266.732	76.12
266.948	31.06
267.164	72.02
267.38	14.68
267.596	82.26
267.812	96.6
268.028	43.35
268.244	37.2
268.46	106.84
268.676	24.92
268.892	76.12
269.108	-18.09
269.324	45.4
269.54	26.96
269.756	98.64
269.972	-30.38
270.188	65.88
270.403	43.35
270.619	47.44
270.835	39.25
271.051	86.36
271.267	-18.09
271.483	96.6
271.698	14.68
271.914	35.16
272.13	92.5
272.346	-50.86
272.562	51.54
272.777	133.46
272.993	121.17
273.209	57.68
273.425	35.16
273.64	18.77
273.856	20.82
274.072	31.06
274.287	-5.8
274.503	123.22
274.719	106.84
274.934	47.44
275.15	-16.04
275.366	16.73
275.581	6.49
275.797	49.49
276.012	33.11
276.228	37.2
276.444	84.31
276.659	186.71
276.875	72.02
277.09	8.53
277.306	47.44
277.521	88.4
277.737	43.35
277.952	-9.9
278.168	59.73
278.383	6.49
278.599	-50.86
278.814	98.64
279.03	63.83
279.245	98.64
279.461	78.16
279.676	49.49
279.892	57.68
280.107	39.25
280.322	49.49
280.538	6.49
280.753	-20.14
280.969	59.73
281.184	6.49
281.399	125.27
281.615	35.16
281.83	88.4
282.045	33.11
282.26	57.68
282.476	61.78
282.691	74.07
282.906	-30.38
283.122	47.44
283.337	8.53
283.552	67.92
283.767	55.64
283.983	125.27
284.198	29.01
284.413	33.11
284.628	47.44
284.843	55.64
285.058	98.64
285.274	-18.09
285.489	-32.43
285.704	49.49
285.919	-16.04
286.134	96.6
286.349	-11.95
286.564	74.07
286.779	53.59
286.995	137.56
287.21	0.34
287.425	106.84
287.64	65.88
287.855	4.44
288.07	78.16
288.285	47.44
288.5	110.93
288.715	14.68
288.93	-18.09
289.145	-26.28
289.36	39.25
289.575	-28.33
289.79	51.54
290.004	-16.04
290.219	100.69
290.434	-3.75
290.649	22.87
290.864	43.35
291.079	47.44
291.294	88.4
291.509	112.98
291.724	18.77
291.938	63.83
292.153	22.87
292.368	-34.47
292.583	16.73
292.798	84.31
293.012	8.53
293.227	47.44
293.442	4.44
293.657	72.02
293.871	92.5
294.086	41.3
294.301	143.7
294.516	59.73
294.73	-20.14
294.945	10.58
295.16	20.82
295.374	39.25
295.589	74.07
295.804	-11.95
296.018	80.21
296.233	72.02
296.447	98.64
296.662	47.44
296.877	55.64
297.091	20.82
297.306	63.83
297.52	-1.71
297.735	10.58
297.949	-30.38
298.164	33.11
298.378	69.97
298.593	2.39
298.807	22.87
299.022	41.3
299.236	137.56
299.451	96.6
299.665	106.84
299.88	108.88
300.094	-57
300.309	104.79
300.523	31.06
300.737	31.06
300.952	2.39
301.166	47.44
301.381	31.06
301.595	39.25
301.809	100.69
302.024	55.64
302.238	24.92
302.452	82.26
302.667	41.3
302.881	57.68
303.095	-11.95
303.309	74.07
303.524	55.64
303.738	106.84
303.952	2.39
304.166	24.92
304.381	-22.19
304.595	108.88
304.809	6.49
305.023	33.11
305.237	49.49
305.452	31.06
305.666	57.68
305.88	49.49
306.094	72.02
306.308	33.11
306.522	141.65
306.736	119.12
306.95	31.06
307.164	-1.71
307.379	69.97
307.593	143.7
307.807	88.4
308.021	63.83
308.235	65.88
308.449	26.96
308.663	61.78
308.877	203.09
309.091	57.68
309.305	59.73
309.519	20.82
309.733	84.31
309.947	4.44
310.161	31.06
310.374	115.03
310.588	72.02
310.802	8.53
311.016	55.64
311.23	96.6
311.444	29.01
311.658	43.35
311.872	133.46
312.085	22.87
312.299	55.64
312.513	31.06
312.727	88.4
312.941	100.69
313.154	39.25
313.368	47.44
313.582	33.11
313.796	65.88
314.009	100.69
314.223	22.87
314.437	57.68
314.651	76.12
314.864	-32.43
315.078	67.92
315.292	-24.23
315.505	55.64
315.719	57.68
315.933	67.92
316.146	41.3
316.36	26.96
316.573	31.06
316.787	22.87
317.001	59.73
317.214	14.68
317.428	4.44
317.641	47.44
317.855	31.06
318.068	41.3
318.282	20.82
318.495	121.17
318.709	47.44
318.922	47.44
319.136	166.23
319.349	100.69
319.563	63.83
319.776	12.63
319.99	29.01
320.203	0.34
320.417	127.32
320.63	84.31
320.843	47.44
321.057	31.06
321.27	65.88
321.483	51.54
321.697	121.17
321.91	96.6
322.124	-36.52
322.337	86.36
322.55	24.92
322.763	63.83
322.977	72.02
323.19	20.82
323.403	72.02
323.617	10.58
323.83	110.93
324.043	61.78
324.256	72.02
324.469	47.44
324.683	100.69
324.896	57.68
325.109	63.83
325.322	-22.19
325.535	166.23
325.748	59.73
325.962	47.44
326.175	72.02
326.388	24.92
326.601	100.69
326.814	31.06
327.027	125.27
327.24	141.65
327.453	-73.39
327.666	106.84
327.879	78.16
328.092	74.07
328.305	69.97
328.518	24.92
328.731	94.55
328.944	129.36
329.157	35.16
329.37	49.49
329.583	80.21
329.796	96.6
330.009	0.34
330.222	131.41
330.435	110.93
330.648	106.84
330.861	69.97
331.073	90.45
331.286	139.6
331.499	47.44
331.712	-18.09
331.925	88.4
332.138	98.64
332.35	65.88
332.563	76.12
332.776	37.2
332.989	18.77
333.202	26.96
333.414	33.11
333.627	63.83
333.84	100.69
334.053	-9.9
334.265	55.64
334.478	16.73
334.691	39.25
334.903	67.92
335.116	-32.43
335.329	-18.09
335.541	121.17
335.754	121.17
335.966	-11.95
336.179	53.59
336.392	96.6
336.604	37.2
336.817	92.5
337.029	121.17
337.242	67.92
337.454	112.98
337.667	-30.38
337.88	92.5
338.092	72.02
338.305	74.07
338.517	69.97
338.729	22.87
338.942	76.12
339.154	37.2
339.367	-32.43
339.579	74.07
339.792	41.3
340.004	65.88
340.217	31.06
340.429	8.53
340.641	55.64
340.854	96.6
341.066	47.44
341.278	69.97
341.491	106.84
341.703	55.64
341.915	0.34
342.128	82.26
342.34	49.49
342.552	14.68
342.764	43.35
342.977	20.82
343.189	96.6
343.401	59.73
343.613	123.22
343.826	96.6
344.038	47.44
344.25	88.4
344.462	72.02
344.674	37.2
344.886	61.78
345.099	96.6
345.311	88.4
345.523	57.68
345.735	20.82
345.947	74.07
346.159	72.02
346.371	24.92
346.583	72.02
346.795	137.56
347.007	43.35
347.219	119.12
347.431	14.68
347.643	63.83
347.855	6.49
348.067	45.4
348.279	53.59
348.491	80.21
348.703	78.16
348.915	41.3
349.127	104.79
349.339	76.12
349.551	8.53
349.763	104.79
349.975	117.08
350.187	-9.9
350.399	92.5
350.61	63.83
350.822	-13.99
351.034	92.5
351.246	137.56
351.458	33.11
351.669	14.68
351.881	141.65
352.093	76.12
352.305	90.45
352.517	65.88
352.728	166.23
352.94	61.78
353.152	76.12
353.363	35.16
353.575	96.6
353.787	72.02
353.999	96.6
354.21	133.46
354.422	31.06
354.633	24.92
354.845	35.16
355.057	18.77
355.268	108.88
355.48	63.83
355.692	63.83
355.903	125.27
356.115	2.39
356.326	0.34
356.538	104.79
356.749	63.83
356.961	112.98
357.172	59.73
357.384	47.44
357.595	164.18
357.807	82.26
358.018	74.07
358.23	164.18
358.441	104.79
358.653	72.02
358.864	-30.38
359.075	6.49
359.287	80.21
359.498	49.49
359.709	104.79
359.921	41.3
360.132	43.35
360.344	63.83
360.555	22.87
360.766	45.4
360.977	115.03
361.189	96.6
361.4	90.45
361.611	18.77
361.823	123.22
362.034	57.68
362.245	16.73
362.456	110.93
362.667	80.21
362.879	59.73
363.09	123.22
363.301	123.22
363.512	39.25
363.723	39.25
363.935	63.83
364.146	182.61
364.357	96.6
364.568	98.64
364.779	43.35
364.99	112.98
365.201	33.11
365.412	112.98
365.623	80.21
365.834	121.17
366.045	31.06
366.256	88.4
366.467	69.97
366.678	55.64
366.889	115.03
367.1	80.21
367.311	143.7
367.522	104.79
367.733	164.18
367.944	76.12
368.155	90.45
368.366	100.69
368.577	143.7
368.788	39.25
368.999	82.26
369.209	100.69
369.42	209.23
369.631	215.38
369.842	80.21
370.053	49.49
370.264	129.36
370.474	80.21
370.685	65.88
370.896	78.16
371.107	39.25
371.317	67.92
371.528	53.59
371.739	49.49
371.95	98.64
372.16	84.31
372.371	63.83
372.582	117.08
372.792	59.73
373.003	90.45
373.214	41.3
373.424	49.49
373.635	24.92
373.846	78.16
374.056	-16.04
374.267	90.45
374.477	67.92
374.688	41.3
374.898	145.75
375.109	47.44
375.319	80.21
375.53	72.02
375.74	76.12
375.951	141.65
376.161	2.39
376.372	80.21
376.582	33.11
376.793	117.08
377.003	80.21
377.214	33.11
377.424	86.36
377.635	18.77
377.845	18.77
378.055	119.12
378.266	14.68
378.476	139.6
378.686	29.01
378.897	76.12
379.107	123.22
379.317	57.68
379.528	88.4
379.738	51.54
379.948	53.59
380.158	106.84
380.369	110.93
380.579	63.83
380.789	131.41
380.999	129.36
381.21	106.84
381.42	125.27
381.63	49.49
381.84	121.17
382.05	39.25
382.261	47.44
382.471	162.13
382.681	88.4
382.891	84.31
383.101	102.74
383.311	37.2
383.521	24.92
383.731	84.31
383.941	92.5
384.151	22.87
384.361	57.68
384.571	4.44
384.781	57.68
384.991	129.36
385.201	90.45
385.411	86.36
385.621	31.06
385.831	137.56
386.041	108.88
386.251	82.26
386.461	63.83
386.671	131.41
386.881	80.21
387.091	43.35
387.301	8.53
387.511	72.02
387.72	119.12
387.93	57.68
388.14	41.3
388.35	39.25
388.56	92.5
388.769	82.26
388.979	98.64
389.189	125.27
389.399	104.79
389.609	84.31
389.818	137.56
390.028	176.47
390.238	14.68
390.447	22.87
390.657	74.07
390.867	43.35
391.076	55.64
391.286	100.69
391.496	12.63
391.705	55.64
391.915	147.8
392.125	112.98
392.334	55.64
392.544	133.46
392.753	121.17
392.963	-5.8
393.172	49.49
393.382	6.49
393.591	106.84
393.801	137.56
394.01	145.75
394.22	94.55
394.429	57.68
394.639	104.79
394.848	39.25
395.058	92.5
395.267	145.75
395.477	59.73
395.686	117.08
395.895	203.09
396.105	194.9
396.314	123.22
396.524	170.32
396.733	186.71
396.942	188.75
397.152	164.18
397.361	141.65
397.57	90.45
397.78	153.94
397.989	182.61
398.198	190.8
398.407	133.46
398.617	35.16
398.826	211.28
399.035	108.88
399.244	211.28
399.453	190.8
399.663	145.75
399.872	98.64
400.081	158.03
400.29	194.9
400.499	96.6
400.708	194.9
400.917	104.79
401.127	188.75
401.336	100.69
401.545	192.85
401.754	233.81
401.963	188.75
402.172	129.36
402.381	137.56
402.59	162.13
402.799	153.94
403.008	229.71
403.217	182.61
403.426	235.86
403.635	137.56
403.844	127.32
404.053	170.32
404.262	172.37
404.471	252.24
404.68	205.14
404.888	252.24
405.097	254.29
405.306	252.24
405.515	246.1
405.724	235.86
405.933	237.91
406.142	225.62
406.35	293.2
406.559	274.77
406.768	196.95
406.977	358.74
407.185	309.58
407.394	289.1
407.603	287.06
407.812	317.78
408.02	272.72
408.229	344.4
408.438	385.36
408.646	256.34
408.855	379.22
409.064	352.59
409.272	391.5
409.481	463.18
409.69	383.31
409.898	420.17
410.107	407.89
410.315	518.48
410.524	391.5
410.733	469.33
410.941	510.29
411.15	471.37
411.358	495.95
411.567	618.83
411.775	541.01
411.984	594.25
412.192	598.35
412.401	592.2
412.609	649.55
412.818	751.95
413.026	745.8
413.234	713.03
413.443	688.46
413.651	706.89
413.86	756.04
414.068	803.15
414.276	956.74
414.485	932.17
414.693	874.82
414.901	956.74
415.11	1040.71
415.318	1009.99
415.526	1059.14
415.734	1063.24
415.943	1153.35
416.151	1196.36
416.359	1206.59
416.567	1177.92
416.776	1239.36
416.984	1308.99
417.192	1409.34
417.4	1440.06
417.608	1530.17
417.817	1458.5
418.025	1431.87
418.233	1562.94
418.441	1614.14
418.649	1704.25
418.857	1853.75
419.065	1655.1
419.273	1761.59
419.481	1857.85
419.689	1976.63
419.897	2079.03
420.105	2113.85
420.313	2216.24
420.521	2277.68
420.729	2304.31
420.937	2406.7
421.145	2455.86
421.353	2599.21
421.561	2652.46
421.769	2726.19
421.977	2949.42
422.185	2814.25
422.393	2943.27
422.601	3098.92
422.809	3119.4
423.017	3174.69
423.224	3332.39
423.432	3496.22
423.64	3471.65
423.848	3815.71
424.056	3563.81
424.263	3989.78
424.471	3954.97
424.679	4118.81
424.887	4303.12
425.094	4323.6
425.302	4421.91
425.51	4573.46
425.718	4737.29
425.925	4827.4
426.133	5017.86
426.341	5118.22
426.548	5396.74
426.756	5333.25
426.964	5409.03
427.171	5843.2
427.379	6101.24
427.586	6080.76
427.794	6347
428.001	6465.78
428.209	6740.21
428.417	6789.36
428.624	7233.77
428.832	7114.98
429.039	6936.81
429.247	7186.66
429.454	8009.95
429.662	8337.62
429.869	7676.13
430.076	8468.69
430.284	8141.02
430.491	8415.44
430.699	9029.84
430.906	8870.09
431.114	9173.19
431.321	9140.43
431.528	9513.16
431.736	10158.27
431.943	10490.04
432.15	10471.61
432.358	10410.17
432.565	10969.26
432.772	10934.45
432.979	11516.07
433.187	11757.73
433.394	11479.21
433.601	12449.94
433.808	12742.8
434.016	12433.56
434.223	12949.65
434.43	13619.33
434.637	13510.79
434.844	14096.51
435.052	14624.89
435.259	14526.58
435.466	14657.65
435.673	14350.46
435.88	15290.48
436.087	16212.06
436.294	16183.39
436.501	15726.69
436.708	15931.49
436.915	16787.54
437.122	17418.32
437.329	17383.5
437.537	17999.94
437.743	17999.94
437.95	17799.24
438.157	19134.51
438.364	19454
438.571	19587.11
438.778	19454
438.985	21542.92
439.192	20598.81
439.399	21110.8
439.606	20813.85
439.813	21915.65
440.02	23123.96
440.227	22865.91
440.433	22673.4
440.64	23189.49
440.847	23007.22
441.054	23803.88
441.261	25528.27
441.467	25151.45
441.674	25411.54
441.881	26202.05
442.088	26365.89
442.294	26118.09
442.501	26750.91
442.708	27396.02
442.914	28440.48
443.121	29106.07
443.328	28917.66
443.534	30496.64
443.741	29505.43
443.948	29257.62
444.154	31618.93
444.361	31594.36
444.568	31455.09
444.774	31346.55
444.981	31674.23
445.187	32489.32
445.394	34309.96
445.6	33632.08
445.807	36695.85
446.013	34826.05
446.22	35692.34
446.426	37072.67
446.633	37678.87
446.839	38694.66
447.046	37424.92
447.252	39419.64
447.459	39370.49
447.665	39255.81
447.871	40847.08
448.078	42374.86
448.284	40699.62
448.491	41723.61
448.697	43151.04
448.903	44003
449.11	44074.68
449.316	43257.54
449.522	43984.57
449.728	45094.57
449.935	45600.41
450.141	45620.89
450.347	46509.71
450.553	45121.19
450.76	45682.33
450.966	46843.53
451.172	46335.63
451.378	47844.99
451.584	47148.68
451.791	48047.74
451.997	47890.04
452.203	48615.02
452.409	48492.15
452.615	48363.12
452.821	46468.75
453.027	46091.93
453.233	48520.82
453.44	46216.85
453.646	46718.6
453.852	47046.28
454.058	47844.99
454.264	46378.64
454.47	47623.81
454.676	46139.03
454.882	47902.33
455.088	44144.31
455.294	44488.37
455.5	44789.42
455.705	45631.13
455.911	43943.61
456.117	43073.22
456.323	42221.27
456.529	39978.74
456.735	41944.79
456.941	40629.99
457.147	40177.39
457.352	39145.22
457.558	38278.93
457.764	38878.98
457.97	37801.75
458.176	37105.44
458.381	37031.71
458.587	35204.92
458.793	35409.72
458.999	33531.73
459.204	35467.06
459.41	34936.64
459.616	32364.39
459.821	32442.21
460.027	32126.83
460.233	31670.13
460.438	30439.3
460.644	30443.4
460.85	29292.44
461.055	28493.73
461.261	28565.41
461.466	26419.14
461.672	25731.02
461.878	27373.49
462.083	25591.76
462.289	25010.14
462.494	24809.43
462.7	23883.75
462.905	23406.58
463.111	23627.76
463.316	23939.05
463.522	23341.04
463.727	23695.34
463.932	23326.71
464.138	22892.54
464.343	23160.82
464.549	22745.08
464.754	23214.07
464.959	22945.78
465.165	22872.06
465.37	21796.87
465.575	21364.75
465.781	21975.05
465.986	22321.15
466.191	21213.2
466.397	20860.95
466.602	19906.6
466.807	20740.12
