Data from USB4F104151__59__14-30-06-980.txt Node

Date: Thu Mar 13 14:30:06 EDT 2025
User: louis
Spectrometer: USB4F10415
Trigger mode: 4
Integration Time (sec): 2.500000E-2
Scans to average: 1
Electric dark correction enabled: true
Nonlinearity correction enabled: false
Boxcar width: 0
XAxis mode: Wavelengths
Number of Pixels in Spectrum: 3648
>>>>>Begin Spectral Data<<<<<
178.204	-106.67
178.424	-106.67
178.644	-106.67
178.864	-121
179.084	-155.82
179.304	22.36
179.524	-8.36
179.744	-22.7
179.964	12.12
180.184	24.4
180.404	83.8
180.624	-8.36
180.844	-30.89
181.064	-28.84
181.283	8.02
181.503	5.97
181.723	-57.51
181.943	-16.55
182.163	87.89
182.383	71.51
182.602	16.21
182.822	67.41
183.042	48.98
183.262	59.22
183.482	10.07
183.701	18.26
183.921	24.4
184.141	-4.27
184.361	94.04
184.58	94.04
184.8	16.21
185.02	1.88
185.239	81.75
185.459	36.69
185.679	81.75
185.898	-37.03
186.118	12.12
186.338	48.98
186.557	24.4
186.777	-32.94
186.997	40.79
187.216	32.6
187.436	46.93
187.655	32.6
187.875	147.28
188.095	75.6
188.314	40.79
188.534	61.27
188.753	48.98
188.973	57.17
189.192	83.8
189.412	73.56
189.631	67.41
189.851	91.99
190.07	139.09
190.29	20.31
190.509	24.4
190.729	59.22
190.948	40.79
191.168	214.87
191.387	12.12
191.607	-39.08
191.826	40.79
192.045	-69.8
192.265	110.42
192.484	3.93
192.704	48.98
192.923	-6.31
193.142	102.23
193.362	51.03
193.581	83.8
193.8	24.4
194.02	122.71
194.239	-2.22
194.458	122.71
194.678	-32.94
194.897	116.56
195.116	-26.79
195.335	-30.89
195.555	-4.27
195.774	12.12
195.993	53.08
196.212	-28.84
196.432	-8.36
196.651	73.56
196.87	110.42
197.089	61.27
197.308	65.36
197.528	81.75
197.747	16.21
197.966	-18.6
198.185	100.18
198.404	91.99
198.623	32.6
198.842	65.36
199.062	73.56
199.281	114.52
199.5	-0.17
199.719	94.04
199.938	51.03
200.157	57.17
200.376	-30.89
200.595	81.75
200.814	81.75
201.033	-26.79
201.252	79.7
201.471	73.56
201.69	81.75
201.909	65.36
202.128	73.56
202.347	34.64
202.566	53.08
202.785	12.12
203.004	-14.51
203.223	130.9
203.442	67.41
203.661	40.79
203.879	38.74
204.098	32.6
204.317	-63.66
204.536	42.84
204.755	44.88
204.974	65.36
205.193	12.12
205.411	122.71
205.63	36.69
205.849	14.17
206.068	-14.51
206.287	81.75
206.505	18.26
206.724	57.17
206.943	24.4
207.162	32.6
207.381	48.98
207.599	44.88
207.818	91.99
208.037	57.17
208.255	-8.36
208.474	73.56
208.693	55.12
208.911	32.6
209.13	65.36
209.349	83.8
209.567	40.79
209.786	143.19
210.005	116.56
210.223	-20.65
210.442	-34.99
210.661	51.03
210.879	94.04
211.098	65.36
211.316	3.93
211.535	10.07
211.753	108.37
211.972	-12.46
212.191	42.84
212.409	18.26
212.628	98.13
212.846	34.64
213.065	12.12
213.283	83.8
213.502	87.89
213.72	8.02
213.938	87.89
214.157	46.93
214.375	18.26
214.594	124.76
214.812	48.98
215.031	16.21
215.249	1.88
215.467	40.79
215.686	65.36
215.904	83.8
216.122	65.36
216.341	20.31
216.559	81.75
216.778	53.08
216.996	3.93
217.214	24.4
217.432	73.56
217.651	32.6
217.869	3.93
218.087	51.03
218.306	46.93
218.524	91.99
218.742	-6.31
218.96	67.41
219.179	57.17
219.397	83.8
219.615	16.21
219.833	79.7
220.051	-0.17
220.27	139.09
220.488	69.46
220.706	87.89
220.924	-0.17
221.142	28.5
221.36	46.93
221.578	28.5
221.796	61.27
222.015	24.4
222.233	16.21
222.451	141.14
222.669	32.6
222.887	75.6
223.105	14.17
223.323	57.17
223.541	-28.84
223.759	104.28
223.977	-26.79
224.195	135
224.413	-16.55
224.631	24.4
224.849	8.02
225.067	48.98
225.285	32.6
225.503	-12.46
225.721	-14.51
225.939	40.79
226.157	73.56
226.375	163.67
226.592	34.64
226.81	-18.6
227.028	114.52
227.246	89.94
227.464	-14.51
227.682	81.75
227.9	-22.7
228.117	57.17
228.335	48.98
228.553	59.22
228.771	-0.17
228.989	34.64
229.206	71.51
229.424	-12.46
229.642	8.02
229.86	-49.32
230.077	32.6
230.295	24.4
230.513	26.45
230.731	1.88
230.948	53.08
231.166	22.36
231.384	10.07
231.601	12.12
231.819	85.84
232.037	32.6
232.254	20.31
232.472	-4.27
232.689	34.64
232.907	75.6
233.125	18.26
233.342	12.12
233.56	87.89
233.777	-8.36
233.995	118.61
234.213	96.08
234.43	98.13
234.648	-16.55
234.865	-26.79
235.083	91.99
235.3	-8.36
235.518	65.36
235.735	55.12
235.953	22.36
236.17	-57.51
236.388	38.74
236.605	40.79
236.822	44.88
237.04	73.56
237.257	77.65
237.475	10.07
237.692	106.32
237.909	48.98
238.127	-37.03
238.344	83.8
238.562	77.65
238.779	-10.41
238.996	-16.55
239.214	5.97
239.431	122.71
239.648	67.41
239.865	24.4
240.083	73.56
240.3	34.64
240.517	34.64
240.735	-4.27
240.952	-6.31
241.169	24.4
241.386	55.12
241.603	57.17
241.821	-14.51
242.038	57.17
242.255	118.61
242.472	10.07
242.689	-8.36
242.907	53.08
243.124	32.6
243.341	59.22
243.558	28.5
243.775	38.74
243.992	30.55
244.209	32.6
244.426	96.08
244.643	108.37
244.86	65.36
245.078	16.21
245.295	8.02
245.512	28.5
245.729	18.26
245.946	3.93
246.163	77.65
246.38	65.36
246.597	-16.55
246.814	81.75
247.031	42.84
247.248	44.88
247.464	108.37
247.681	24.4
247.898	69.46
248.115	61.27
248.332	18.26
248.549	110.42
248.766	67.41
248.983	85.84
249.2	61.27
249.417	89.94
249.633	-0.17
249.85	75.6
250.067	32.6
250.284	16.21
250.501	-2.22
250.717	34.64
250.934	-12.46
251.151	83.8
251.368	-0.17
251.585	106.32
251.801	40.79
252.018	-14.51
252.235	-8.36
252.451	40.79
252.668	20.31
252.885	126.8
253.102	102.23
253.318	-8.36
253.535	20.31
253.752	-2.22
253.968	69.46
254.185	73.56
254.401	-14.51
254.618	44.88
254.835	69.46
255.051	159.57
255.268	16.21
255.484	26.45
255.701	1.88
255.917	67.41
256.134	8.02
256.351	42.84
256.567	32.6
256.784	20.31
257	-4.27
257.217	65.36
257.433	40.79
257.65	126.8
257.866	147.28
258.082	-2.22
258.299	14.17
258.515	79.7
258.732	34.64
258.948	22.36
259.165	57.17
259.381	1.88
259.597	61.27
259.814	-8.36
260.03	14.17
260.246	89.94
260.463	83.8
260.679	-4.27
260.895	3.93
261.112	85.84
261.328	32.6
261.544	69.46
261.761	53.08
261.977	24.4
262.193	-20.65
262.409	73.56
262.626	12.12
262.842	44.88
263.058	96.08
263.274	73.56
263.49	46.93
263.707	16.21
263.923	61.27
264.139	-41.13
264.355	3.93
264.571	118.61
264.787	8.02
265.004	116.56
265.22	75.6
265.436	61.27
265.652	-0.17
265.868	12.12
266.084	24.4
266.3	51.03
266.516	-24.75
266.732	46.93
266.948	16.21
267.164	73.56
267.38	16.21
267.596	55.12
267.812	65.36
268.028	137.04
268.244	-12.46
268.46	40.79
268.676	-14.51
268.892	57.17
269.108	-16.55
269.324	120.66
269.54	-20.65
269.756	106.32
269.972	-14.51
270.188	-0.17
270.403	-12.46
270.619	73.56
270.835	8.02
271.051	48.98
271.267	-49.32
271.483	-0.17
271.698	-2.22
271.914	-4.27
272.13	59.22
272.346	40.79
272.562	24.4
272.777	98.13
272.993	24.4
273.209	28.5
273.425	1.88
273.64	28.5
273.856	48.98
274.072	18.26
274.287	51.03
274.503	-2.22
274.719	-4.27
274.934	71.51
275.15	-73.9
275.366	16.21
275.581	36.69
275.797	-16.55
276.012	55.12
276.228	40.79
276.444	18.26
276.659	30.55
276.875	22.36
277.09	32.6
277.306	-2.22
277.521	83.8
277.737	48.98
277.952	61.27
278.168	77.65
278.383	94.04
278.599	10.07
278.814	18.26
279.03	42.84
279.245	91.99
279.461	65.36
279.676	65.36
279.892	-30.89
280.107	40.79
280.322	14.17
280.538	69.46
280.753	24.4
280.969	65.36
281.184	24.4
281.399	98.13
281.615	24.4
281.83	106.32
282.045	-69.8
282.26	32.6
282.476	44.88
282.691	46.93
282.906	69.46
283.122	-8.36
283.337	26.45
283.552	24.4
283.767	53.08
283.983	18.26
284.198	57.17
284.413	42.84
284.628	65.36
284.843	51.03
285.058	71.51
285.274	-6.31
285.489	40.79
285.704	24.4
285.919	3.93
286.134	59.22
286.349	34.64
286.564	10.07
286.779	24.4
286.995	8.02
287.21	-10.41
287.425	61.27
287.64	-24.75
287.855	89.94
288.07	-16.55
288.285	28.5
288.5	24.4
288.715	28.5
288.93	-18.6
289.145	-32.94
289.36	-14.51
289.575	44.88
289.79	75.6
290.004	42.84
290.219	153.43
290.434	-12.46
290.649	53.08
290.864	48.98
291.079	67.41
291.294	-28.84
291.509	73.56
291.724	98.13
291.938	57.17
292.153	83.8
292.368	-8.36
292.583	18.26
292.798	32.6
293.012	-10.41
293.227	18.26
293.442	48.98
293.657	16.21
293.871	75.6
294.086	63.32
294.301	81.75
294.516	116.56
294.73	22.36
294.945	1.88
295.16	16.21
295.374	130.9
295.589	81.75
295.804	98.13
296.018	-8.36
296.233	87.89
296.447	81.75
296.662	1.88
296.877	98.13
297.091	3.93
297.306	75.6
297.52	22.36
297.735	36.69
297.949	67.41
298.164	18.26
298.378	20.31
298.593	-28.84
298.807	67.41
299.022	48.98
299.236	89.94
299.451	81.75
299.665	10.07
299.88	8.02
300.094	122.71
300.309	98.13
300.523	65.36
300.737	-2.22
300.952	-45.23
301.166	155.47
301.381	3.93
301.595	16.21
301.809	112.47
302.024	36.69
302.238	55.12
302.452	102.23
302.667	3.93
302.881	53.08
303.095	51.03
303.309	26.45
303.524	65.36
303.738	8.02
303.952	-24.75
304.166	3.93
304.381	-82.09
304.595	184.15
304.809	-32.94
305.023	180.05
305.237	24.4
305.452	-41.13
305.666	65.36
305.88	-14.51
306.094	34.64
306.308	-28.84
306.522	22.36
306.736	32.6
306.95	100.18
307.164	-47.27
307.379	75.6
307.593	81.75
307.807	8.02
308.021	40.79
308.235	55.12
308.449	-20.65
308.663	-0.17
308.877	130.9
309.091	89.94
309.305	98.13
309.519	85.84
309.733	83.8
309.947	14.17
310.161	98.13
310.374	18.26
310.588	108.37
310.802	-28.84
311.016	44.88
311.23	124.76
311.444	30.55
311.658	63.32
311.872	106.32
312.085	124.76
312.299	67.41
312.513	75.6
312.727	44.88
312.941	53.08
313.154	69.46
313.368	61.27
313.582	89.94
313.796	36.69
314.009	89.94
314.223	53.08
314.437	40.79
314.651	44.88
314.864	63.32
315.078	44.88
315.292	69.46
315.505	59.22
315.719	46.93
315.933	77.65
316.146	89.94
316.36	-16.55
316.573	122.71
316.787	106.32
317.001	59.22
317.214	40.79
317.428	48.98
317.641	-24.75
317.855	26.45
318.068	51.03
318.282	65.36
318.495	61.27
318.709	106.32
318.922	48.98
319.136	89.94
319.349	130.9
319.563	16.21
319.776	137.04
319.99	-16.55
320.203	106.32
320.417	36.69
320.63	57.17
320.843	143.19
321.057	-2.22
321.27	24.4
321.483	102.23
321.697	135
321.91	16.21
322.124	57.17
322.337	-41.13
322.55	51.03
322.763	3.93
322.977	-6.31
323.19	16.21
323.403	65.36
323.617	116.56
323.83	77.65
324.043	-30.89
324.256	77.65
324.469	73.56
324.683	100.18
324.896	28.5
325.109	114.52
325.322	8.02
325.535	77.65
325.748	108.37
325.962	81.75
326.175	81.75
326.388	130.9
326.601	26.45
326.814	110.42
327.027	40.79
327.24	110.42
327.453	-22.7
327.666	40.79
327.879	79.7
328.092	34.64
328.305	89.94
328.518	-10.41
328.731	1.88
328.944	69.46
329.157	24.4
329.37	69.46
329.583	104.28
329.796	149.33
330.009	-16.55
330.222	130.9
330.435	83.8
330.648	73.56
330.861	67.41
331.073	69.46
331.286	106.32
331.499	22.36
331.712	-61.61
331.925	26.45
332.138	108.37
332.35	87.89
332.563	26.45
332.776	59.22
332.989	-28.84
333.202	116.56
333.414	12.12
333.627	81.75
333.84	-14.51
334.053	16.21
334.265	46.93
334.478	14.17
334.691	24.4
334.903	53.08
335.116	53.08
335.329	57.17
335.541	89.94
335.754	155.47
335.966	12.12
336.179	-8.36
336.392	102.23
336.604	-6.31
336.817	12.12
337.029	26.45
337.242	48.98
337.454	65.36
337.667	34.64
337.88	67.41
338.092	102.23
338.305	98.13
338.517	61.27
338.729	91.99
338.942	85.84
339.154	71.51
339.367	69.46
339.579	114.52
339.792	-12.46
340.004	85.84
340.217	61.27
340.429	81.75
340.641	32.6
340.854	-14.51
341.066	-39.08
341.278	10.07
341.491	83.8
341.703	42.84
341.915	12.12
342.128	139.09
342.34	36.69
342.552	51.03
342.764	34.64
342.977	8.02
343.189	91.99
343.401	55.12
343.613	14.17
343.826	-10.41
344.038	65.36
344.25	-16.55
344.462	20.31
344.674	55.12
344.886	110.42
345.099	102.23
345.311	-8.36
345.523	102.23
345.735	-20.65
345.947	108.37
346.159	81.75
346.371	36.69
346.583	-0.17
346.795	40.79
347.007	85.84
347.219	69.46
347.431	20.31
347.643	69.46
347.855	3.93
348.067	61.27
348.279	-0.17
348.491	73.56
348.703	32.6
348.915	28.5
349.127	28.5
349.339	44.88
349.551	8.02
349.763	71.51
349.975	147.28
350.187	106.32
350.399	128.85
350.61	28.5
350.822	104.28
351.034	81.75
351.246	48.98
351.458	40.79
351.669	77.65
351.881	57.17
352.093	65.36
352.305	106.32
352.517	32.6
352.728	24.4
352.94	75.6
353.152	85.84
353.363	16.21
353.575	16.21
353.787	85.84
353.999	98.13
354.21	110.42
354.422	85.84
354.633	40.79
354.845	-4.27
355.057	36.69
355.268	28.5
355.48	65.36
355.692	18.26
355.903	128.85
356.115	8.02
356.326	130.9
356.538	139.09
356.749	83.8
356.961	114.52
357.172	149.33
357.384	69.46
357.595	137.04
357.807	-12.46
358.018	24.4
358.23	67.41
358.441	53.08
358.653	106.32
358.864	16.21
359.075	38.74
359.287	89.94
359.498	14.17
359.709	44.88
359.921	94.04
360.132	85.84
360.344	94.04
360.555	34.64
360.766	81.75
360.977	36.69
361.189	118.61
361.4	69.46
361.611	51.03
361.823	114.52
362.034	65.36
362.245	32.6
362.456	94.04
362.667	44.88
362.879	59.22
363.09	-10.41
363.301	141.14
363.512	24.4
363.723	114.52
363.935	34.64
364.146	85.84
364.357	102.23
364.568	65.36
364.779	28.5
364.99	65.36
365.201	106.32
365.412	61.27
365.623	-14.51
365.834	96.08
366.045	-0.17
366.256	81.75
366.467	57.17
366.678	65.36
366.889	83.8
367.1	40.79
367.311	96.08
367.522	-16.55
367.733	-20.65
367.944	81.75
368.155	8.02
368.366	71.51
368.577	24.4
368.788	104.28
368.999	-65.71
369.209	73.56
369.42	51.03
369.631	18.26
369.842	106.32
370.053	73.56
370.264	73.56
370.474	24.4
370.685	-8.36
370.896	83.8
371.107	100.18
371.317	40.79
371.528	91.99
371.739	67.41
371.95	73.56
372.16	71.51
372.371	-16.55
372.582	48.98
372.792	85.84
373.003	65.36
373.214	22.36
373.424	38.74
373.635	42.84
373.846	61.27
374.056	34.64
374.267	96.08
374.477	71.51
374.688	98.13
374.898	75.6
375.109	10.07
375.319	85.84
375.53	69.46
375.74	77.65
375.951	40.79
376.161	1.88
376.372	96.08
376.582	53.08
376.793	100.18
377.003	-6.31
377.214	5.97
377.424	44.88
377.635	48.98
377.845	8.02
378.055	91.99
378.266	65.36
378.476	94.04
378.686	87.89
378.897	28.5
379.107	40.79
379.317	100.18
379.528	-6.31
379.738	112.47
379.948	98.13
380.158	132.95
380.369	36.69
380.579	110.42
380.789	38.74
380.999	77.65
381.21	106.32
381.42	139.09
381.63	34.64
381.84	81.75
382.05	57.17
382.261	100.18
382.471	139.09
382.681	81.75
382.891	106.32
383.101	106.32
383.311	71.51
383.521	53.08
383.731	75.6
383.941	81.75
384.151	36.69
384.361	65.36
384.571	14.17
384.781	67.41
384.991	135
385.201	130.9
385.411	106.32
385.621	85.84
385.831	77.65
386.041	42.84
386.251	51.03
386.461	81.75
386.671	75.6
386.881	51.03
387.091	69.46
387.301	135
387.511	145.24
387.72	48.98
387.93	48.98
388.14	44.88
388.35	57.17
388.56	73.56
388.769	12.12
388.979	59.22
389.189	67.41
389.399	61.27
389.609	132.95
389.818	214.87
390.028	137.04
390.238	98.13
390.447	87.89
390.657	81.75
390.867	100.18
391.076	16.21
391.286	67.41
391.496	20.31
391.705	65.36
391.915	106.32
392.125	159.57
392.334	100.18
392.544	98.13
392.753	34.64
392.963	57.17
393.172	91.99
393.382	24.4
393.591	163.67
393.801	106.32
394.01	126.8
394.22	48.98
394.429	159.57
394.639	108.37
394.848	46.93
395.058	94.04
395.267	124.76
395.477	171.86
395.686	69.46
395.895	196.43
396.105	264.02
396.314	59.22
396.524	200.53
396.733	51.03
396.942	149.33
397.152	106.32
397.361	100.18
397.57	65.36
397.78	171.86
397.989	186.19
398.198	198.48
398.407	114.52
398.617	73.56
398.826	114.52
399.035	77.65
399.244	116.56
399.453	139.09
399.663	132.95
399.872	196.43
400.081	155.47
400.29	139.09
400.499	108.37
400.708	184.15
400.917	91.99
401.127	212.82
401.336	81.75
401.545	145.24
401.754	100.18
401.963	180.05
402.172	145.24
402.381	73.56
402.59	126.8
402.799	198.48
403.008	120.66
403.217	141.14
403.426	102.23
403.635	100.18
403.844	130.9
404.053	139.09
404.262	126.8
404.471	196.43
404.68	188.24
404.888	223.06
405.097	157.52
405.306	159.57
405.515	239.44
405.724	171.86
405.933	225.11
406.142	237.39
406.35	196.43
406.559	188.24
406.768	188.24
406.977	173.91
407.185	257.87
407.394	286.54
407.603	216.91
407.812	270.16
408.02	270.16
408.229	395.09
408.438	243.54
408.646	253.78
408.855	329.55
409.064	241.49
409.272	274.26
409.481	290.64
409.69	341.84
409.898	282.45
410.107	399.18
410.315	411.47
410.524	280.4
410.733	452.43
410.941	360.27
411.15	411.47
411.358	452.43
411.567	481.1
411.775	440.14
411.984	481.1
412.192	487.25
412.401	503.63
412.609	548.68
412.818	646.99
413.026	606.03
413.234	550.73
413.443	655.18
413.651	606.03
413.86	700.23
414.068	687.95
414.276	714.57
414.485	769.87
414.693	829.26
414.901	841.54
415.11	855.88
415.318	847.69
415.526	814.92
415.734	900.94
415.943	902.98
416.151	1103.68
416.359	1038.15
416.567	1050.44
416.776	1132.36
416.984	1107.78
417.192	1146.69
417.4	1220.42
417.608	1199.94
417.817	1269.57
418.025	1320.77
418.233	1398.59
418.441	1384.26
418.649	1439.55
418.857	1587.01
419.065	1597.24
419.273	1544
419.481	1705.79
419.689	1742.65
419.897	1828.67
420.105	1795.9
420.313	1998.65
420.521	1982.26
420.729	2017.08
420.937	2015.03
421.145	2158.39
421.353	2219.83
421.561	2346.8
421.769	2457.39
421.977	2393.9
422.185	2598.7
422.393	2752.3
422.601	2756.4
422.809	2852.65
423.017	2742.06
423.224	2858.79
423.432	3026.73
423.64	3045.16
423.848	3385.12
424.056	3196.71
424.263	3325.73
424.471	3505.95
424.679	3440.42
424.887	3716.89
425.094	3876.63
425.302	3964.7
425.51	3964.7
425.718	4144.92
425.925	4196.12
426.133	4245.27
426.341	4583.18
426.548	4718.35
426.756	4556.56
426.964	4882.19
427.171	5162.76
427.379	5244.68
427.586	5361.41
427.794	5465.86
428.001	5701.37
428.209	6008.57
428.417	5850.88
428.624	6348.53
428.832	6192.89
429.039	6164.22
429.247	6137.59
429.454	6864.62
429.662	7284.45
429.869	6792.94
430.076	7347.94
430.284	7046.89
430.491	7565.03
430.699	7775.97
430.906	7792.35
431.114	7919.32
431.321	8199.9
431.528	8238.81
431.736	8828.62
431.943	9252.55
432.15	8896.21
432.358	9086.67
432.565	9725.63
432.772	9701.06
432.979	10090.17
433.187	10127.03
433.394	10184.38
433.601	10954.41
433.808	10960.56
434.016	10741.43
434.223	11153.07
434.43	12041.89
434.637	11945.63
434.844	12580.5
435.052	12492.44
435.259	12756.63
435.466	12881.55
435.673	12820.11
435.88	13450.89
436.087	14139.01
436.294	14048.89
436.501	13706.88
436.708	14220.92
436.915	14370.43
437.122	15296.11
437.329	15036.02
437.537	15687.27
437.743	15707.75
437.95	15599.21
438.157	16451.16
438.364	17272.4
438.571	16952.91
438.778	17096.27
438.985	18830.9
439.192	18026.05
439.399	18495.04
439.606	18325.05
439.813	19086.9
440.02	20082.21
440.227	19996.2
440.433	19867.17
440.64	20368.93
440.847	19942.95
441.054	20543
441.261	22066.69
441.467	21894.66
441.674	22044.16
441.881	22969.85
442.088	22908.41
442.294	22779.39
442.501	23217.65
442.708	23631.34
442.914	24503.78
443.121	25564.62
443.328	25048.54
443.534	26746.3
443.741	26310.08
443.948	25736.65
444.154	27559.34
444.361	27348.4
444.568	27542.96
444.774	27499.95
444.981	28026.28
445.187	28655.01
445.394	29889.93
445.6	29572.5
445.807	32429.41
446.013	30750.08
446.22	31724.91
446.426	32654.69
446.633	33109.34
446.839	33602.9
447.046	32619.88
447.252	34268.49
447.459	34344.27
447.665	34266.44
447.871	36066.61
448.078	37432.6
448.284	35339.58
448.491	36386.09
448.697	37848.34
448.903	38405.39
449.11	38362.38
449.316	38305.04
449.522	38743.3
449.728	39642.36
449.935	39808.25
450.141	40109.3
450.347	40905.96
450.553	39660.79
450.76	40273.13
450.966	41333.98
451.172	40772.84
451.378	41960.66
451.584	41180.38
451.791	42038.48
451.997	42226.9
452.203	42618.06
452.409	42708.17
452.615	42478.8
452.821	40957.16
453.027	40559.85
453.233	42452.17
453.44	40852.71
453.646	41536.73
453.852	41704.66
454.058	42226.9
454.264	40930.53
454.47	41805.02
454.676	40764.65
454.882	42239.18
455.088	38276.37
455.294	39423.23
455.5	39619.83
455.705	40367.34
455.911	38546.7
456.117	38270.22
456.323	37342.49
456.529	35265.85
456.735	36850.98
456.941	36101.42
457.147	35388.73
457.352	34329.93
457.558	33906
457.764	33981.77
457.97	33410.39
458.176	32453.99
458.381	32720.23
458.587	30717.31
458.793	31251.83
458.999	29599.12
459.204	31116.67
459.41	30829.95
459.616	28472.74
459.821	28628.38
460.027	28720.54
460.233	27643.31
460.438	26404.29
460.644	27065.78
460.85	25386.45
461.055	24829.4
461.261	25144.79
461.466	23299.57
461.672	22334.98
461.878	24067.56
462.083	22572.54
462.289	21904.9
462.494	21665.29
462.7	21042.71
462.905	20215.33
463.111	21110.29
463.316	21136.91
463.522	20663.83
463.727	20536.86
463.932	20520.48
464.138	20266.53
464.343	20448.8
464.549	19445.29
464.754	20469.28
464.959	20031.01
465.165	20168.23
465.37	19177.01
465.575	18646.58
465.781	19435.05
465.986	19600.94
466.191	18574.91
466.397	18468.41
466.602	17661.51
466.807	17976.9
467.012	18028.1
