Data from USB4F104151__231__14-34-01-988.txt Node

Date: Thu Mar 13 14:34:01 EDT 2025
User: louis
Spectrometer: USB4F10415
Trigger mode: 4
Integration Time (sec): 2.500000E-2
Scans to average: 1
Electric dark correction enabled: true
Nonlinearity correction enabled: false
Boxcar width: 0
XAxis mode: Wavelengths
Number of Pixels in Spectrum: 3648
>>>>>Begin Spectral Data<<<<<
178.204	-105.81
178.424	-105.81
178.644	-105.81
178.864	-122.2
179.084	-183.63
179.304	-9.56
179.524	12.97
179.744	-9.56
179.964	2.73
180.184	12.97
180.404	19.11
180.624	-30.04
180.844	-13.65
181.064	-30.04
181.283	27.31
181.503	12.97
181.723	4.78
181.943	-89.43
182.163	107.18
182.383	37.55
182.602	76.46
182.822	53.93
183.042	51.88
183.262	66.22
183.482	58.03
183.701	43.69
183.921	41.64
184.141	10.92
184.361	47.79
184.58	0.68
184.8	27.31
185.02	-25.94
185.239	45.74
185.459	51.88
185.679	64.17
185.898	-9.56
186.118	35.5
186.338	25.26
186.557	39.59
186.777	-5.46
186.997	58.03
187.216	76.46
187.436	74.41
187.655	86.7
187.875	80.55
188.095	121.51
188.314	74.41
188.534	62.12
188.753	35.5
188.973	35.5
189.192	92.84
189.412	23.21
189.631	55.98
189.851	98.99
190.07	-1.37
190.29	84.65
190.509	62.12
190.729	-5.46
190.948	8.87
191.168	148.14
191.387	109.22
191.607	76.46
191.826	94.89
192.045	94.89
192.265	70.31
192.484	-1.37
192.704	15.02
192.923	-5.46
193.142	125.61
193.362	55.98
193.581	113.32
193.8	45.74
194.02	74.41
194.239	103.08
194.458	92.84
194.678	35.5
194.897	4.78
195.116	115.37
195.335	43.69
195.555	78.51
195.774	64.17
195.993	39.59
196.212	96.94
196.432	33.45
196.651	-5.46
196.87	43.69
197.089	68.27
197.308	88.75
197.528	96.94
197.747	19.11
197.966	-3.41
198.185	154.28
198.404	51.88
198.623	27.31
198.842	-5.46
199.062	178.86
199.281	53.93
199.5	64.17
199.719	55.98
199.938	72.36
200.157	23.21
200.376	129.7
200.595	47.79
200.814	43.69
201.033	-5.46
201.252	96.94
201.471	80.55
201.69	111.27
201.909	21.16
202.128	60.07
202.347	133.8
202.566	125.61
202.785	47.79
203.004	29.35
203.223	125.61
203.442	101.03
203.661	19.11
203.879	94.89
204.098	60.07
204.317	-9.56
204.536	131.75
204.755	-9.56
204.974	94.89
205.193	119.46
205.411	113.32
205.63	-11.61
205.849	43.69
206.068	37.55
206.287	68.27
206.505	109.22
206.724	33.45
206.943	78.51
207.162	51.88
207.381	144.04
207.599	2.73
207.818	10.92
208.037	68.27
208.255	141.99
208.474	31.4
208.693	62.12
208.911	107.18
209.13	58.03
209.349	76.46
209.567	88.75
209.786	62.12
210.005	98.99
210.223	129.7
210.442	35.5
210.661	64.17
210.879	74.41
211.098	39.59
211.316	98.99
211.535	68.27
211.753	47.79
211.972	-13.65
212.191	60.07
212.409	88.75
212.628	2.73
212.846	-13.65
213.065	101.03
213.283	125.61
213.502	117.42
213.72	76.46
213.938	68.27
214.157	72.36
214.375	-9.56
214.594	51.88
214.812	60.07
215.031	53.93
215.249	-13.65
215.467	-21.85
215.686	64.17
215.904	23.21
216.122	39.59
216.341	68.27
216.559	51.88
216.778	10.92
216.996	55.98
217.214	58.03
217.432	-46.42
217.651	-5.46
217.869	35.5
218.087	23.21
218.306	6.83
218.524	12.97
218.742	-5.46
218.96	39.59
219.179	-21.85
219.397	29.35
219.615	68.27
219.833	84.65
220.051	78.51
220.27	117.42
220.488	88.75
220.706	66.22
220.924	10.92
221.142	-1.37
221.36	62.12
221.578	76.46
221.796	68.27
222.015	37.55
222.233	35.5
222.451	6.83
222.669	19.11
222.887	37.55
223.105	49.83
223.323	35.5
223.541	2.73
223.759	92.84
223.977	2.73
224.195	35.5
224.413	64.17
224.631	96.94
224.849	37.55
225.067	121.51
225.285	68.27
225.503	53.93
225.721	15.02
225.939	31.4
226.157	121.51
226.375	96.94
226.592	74.41
226.81	35.5
227.028	96.94
227.246	62.12
227.464	39.59
227.682	39.59
227.9	35.5
228.117	80.55
228.335	10.92
228.553	49.83
228.771	43.69
228.989	8.87
229.206	43.69
229.424	39.59
229.642	6.83
229.86	27.31
230.077	84.65
230.295	109.22
230.513	135.85
230.731	76.46
230.948	49.83
231.166	78.51
231.384	98.99
231.601	39.59
231.819	131.75
232.037	4.78
232.254	-50.52
232.472	82.6
232.689	45.74
232.907	37.55
233.125	25.26
233.342	64.17
233.56	35.5
233.777	29.35
233.995	51.88
234.213	53.93
234.43	66.22
234.648	94.89
234.865	2.73
235.083	12.97
235.3	72.36
235.518	62.12
235.735	113.32
235.953	47.79
236.17	51.88
236.388	-5.46
236.605	51.88
236.822	94.89
237.04	58.03
237.257	41.64
237.475	2.73
237.692	141.99
237.909	43.69
238.127	45.74
238.344	-11.61
238.562	78.51
238.779	45.74
238.996	62.12
239.214	41.64
239.431	84.65
239.648	0.68
239.865	141.99
240.083	-25.94
240.3	35.5
240.517	60.07
240.735	15.02
240.952	113.32
241.169	101.03
241.386	78.51
241.603	35.5
241.821	62.12
242.038	84.65
242.255	29.35
242.472	29.35
242.689	76.46
242.907	31.4
243.124	113.32
243.341	47.79
243.558	49.83
243.775	-19.8
243.992	-19.8
244.209	64.17
244.426	53.93
244.643	82.6
244.86	2.73
245.078	76.46
245.295	43.69
245.512	109.22
245.729	25.26
245.946	86.7
246.163	15.02
246.38	4.78
246.597	10.92
246.814	51.88
247.031	8.87
247.248	101.03
247.464	103.08
247.681	109.22
247.898	19.11
248.115	68.27
248.332	70.31
248.549	51.88
248.766	101.03
248.983	86.7
249.2	35.5
249.417	78.51
249.633	68.27
249.85	66.22
250.067	19.11
250.284	-13.65
250.501	101.03
250.717	76.46
250.934	51.88
251.151	55.98
251.368	12.97
251.585	76.46
251.801	-46.42
252.018	29.35
252.235	88.75
252.451	35.5
252.668	-52.56
252.885	68.27
253.102	60.07
253.318	-7.51
253.535	-1.37
253.752	68.27
253.968	39.59
254.185	10.92
254.401	-34.13
254.618	29.35
254.835	-5.46
255.051	109.22
255.268	27.31
255.484	-5.46
255.701	35.5
255.917	47.79
256.134	21.16
256.351	90.79
256.567	55.98
256.784	29.35
257	21.16
257.217	127.66
257.433	109.22
257.65	49.83
257.866	10.92
258.082	35.5
258.299	2.73
258.515	109.22
258.732	101.03
258.948	60.07
259.165	70.31
259.381	62.12
259.597	41.64
259.814	-5.46
260.03	76.46
260.246	92.84
260.463	125.61
260.679	68.27
260.895	15.02
261.112	-3.41
261.328	17.07
261.544	10.92
261.761	101.03
261.977	68.27
262.193	-56.66
262.409	23.21
262.626	86.7
262.842	39.59
263.058	31.4
263.274	35.5
263.49	-25.94
263.707	-5.46
263.923	68.27
264.139	-19.8
264.355	47.79
264.571	111.27
264.787	27.31
265.004	74.41
265.22	68.27
265.436	135.85
265.652	47.79
265.868	76.46
266.084	19.11
266.3	84.65
266.516	-21.85
266.732	86.7
266.948	37.55
267.164	29.35
267.38	31.4
267.596	84.65
267.812	119.46
268.028	72.36
268.244	27.31
268.46	92.84
268.676	12.97
268.892	84.65
269.108	60.07
269.324	92.84
269.54	2.73
269.756	86.7
269.972	23.21
270.188	84.65
270.403	-1.37
270.619	51.88
270.835	12.97
271.051	78.51
271.267	39.59
271.483	62.12
271.698	35.5
271.914	72.36
272.13	103.08
272.346	96.94
272.562	10.92
272.777	98.99
272.993	39.59
273.209	2.73
273.425	-27.99
273.64	58.03
273.856	109.22
274.072	31.4
274.287	-66.9
274.503	78.51
274.719	53.93
274.934	129.7
275.15	27.31
275.366	29.35
275.581	-46.42
275.797	15.02
276.012	70.31
276.228	51.88
276.444	47.79
276.659	12.97
276.875	43.69
277.09	68.27
277.306	86.7
277.521	60.07
277.737	10.92
277.952	10.92
278.168	17.07
278.383	51.88
278.599	47.79
278.814	76.46
279.03	47.79
279.245	60.07
279.461	-13.65
279.676	12.97
279.892	19.11
280.107	51.88
280.322	27.31
280.538	168.62
280.753	-56.66
280.969	23.21
281.184	78.51
281.399	92.84
281.615	41.64
281.83	84.65
282.045	51.88
282.26	-3.41
282.476	43.69
282.691	72.36
282.906	-9.56
283.122	76.46
283.337	19.11
283.552	17.07
283.767	51.88
283.983	135.85
284.198	23.21
284.413	125.61
284.628	94.89
284.843	98.99
285.058	-25.94
285.274	84.65
285.489	6.83
285.704	51.88
285.919	29.35
286.134	8.87
286.349	98.99
286.564	92.84
286.779	148.14
286.995	-5.46
287.21	-1.37
287.425	84.65
287.64	29.35
287.855	41.64
288.07	-21.85
288.285	31.4
288.5	115.37
288.715	23.21
288.93	43.69
289.145	60.07
289.36	35.5
289.575	101.03
289.79	72.36
290.004	62.12
290.219	45.74
290.434	60.07
290.649	6.83
290.864	55.98
291.079	-75.09
291.294	43.69
291.509	10.92
291.724	62.12
291.938	-9.56
292.153	94.89
292.368	-42.32
292.583	43.69
292.798	62.12
293.012	45.74
293.227	31.4
293.442	60.07
293.657	53.93
293.871	158.38
294.086	92.84
294.301	119.46
294.516	90.79
294.73	31.4
294.945	21.16
295.16	6.83
295.374	98.99
295.589	74.41
295.804	-11.61
296.018	113.32
296.233	139.94
296.447	125.61
296.662	6.83
296.877	125.61
297.091	-1.37
297.306	68.27
297.52	6.83
297.735	64.17
297.949	51.88
298.164	70.31
298.378	25.26
298.593	78.51
298.807	33.45
299.022	150.18
299.236	64.17
299.451	68.27
299.665	37.55
299.88	4.78
300.094	39.59
300.309	76.46
300.523	133.8
300.737	74.41
300.952	105.13
301.166	45.74
301.381	39.59
301.595	19.11
301.809	86.7
302.024	101.03
302.238	15.02
302.452	158.38
302.667	76.46
302.881	96.94
303.095	80.55
303.309	68.27
303.524	-30.04
303.738	37.55
303.952	45.74
304.166	43.69
304.381	-25.94
304.595	72.36
304.809	-3.41
305.023	51.88
305.237	-13.65
305.452	55.98
305.666	92.84
305.88	84.65
306.094	53.93
306.308	133.8
306.522	64.17
306.736	92.84
306.95	33.45
307.164	80.55
307.379	37.55
307.593	66.22
307.807	101.03
308.021	84.65
308.235	76.46
308.449	6.83
308.663	10.92
308.877	162.47
309.091	76.46
309.305	62.12
309.519	10.92
309.733	144.04
309.947	47.79
310.161	72.36
310.374	60.07
310.588	51.88
310.802	84.65
311.016	-21.85
311.23	33.45
311.444	78.51
311.658	27.31
311.872	121.51
312.085	55.98
312.299	10.92
312.513	115.37
312.727	43.69
312.941	-21.85
313.154	47.79
313.368	55.98
313.582	37.55
313.796	8.87
314.009	19.11
314.223	6.83
314.437	4.78
314.651	68.27
314.864	43.69
315.078	-5.46
315.292	76.46
315.505	53.93
315.719	74.41
315.933	29.35
316.146	35.5
316.36	-25.94
316.573	127.66
316.787	62.12
317.001	-5.46
317.214	-11.61
317.428	96.94
317.641	68.27
317.855	109.22
318.068	55.98
318.282	-3.41
318.495	111.27
318.709	96.94
318.922	51.88
319.136	107.18
319.349	62.12
319.563	27.31
319.776	70.31
319.99	-54.61
320.203	111.27
320.417	29.35
320.63	84.65
320.843	84.65
321.057	15.02
321.27	76.46
321.483	92.84
321.697	92.84
321.91	78.51
322.124	103.08
322.337	123.56
322.55	43.69
322.763	105.13
322.977	92.84
323.19	4.78
323.403	60.07
323.617	51.88
323.83	80.55
324.043	37.55
324.256	47.79
324.469	12.97
324.683	96.94
324.896	37.55
325.109	76.46
325.322	109.22
325.535	76.46
325.748	51.88
325.962	78.51
326.175	84.65
326.388	51.88
326.601	23.21
326.814	62.12
327.027	21.16
327.24	96.94
327.453	15.02
327.666	62.12
327.879	92.84
328.092	127.66
328.305	86.7
328.518	80.55
328.731	-21.85
328.944	76.46
329.157	64.17
329.37	84.65
329.583	92.84
329.796	29.35
330.009	-21.85
330.222	39.59
330.435	21.16
330.648	84.65
330.861	29.35
331.073	43.69
331.286	76.46
331.499	60.07
331.712	-21.85
331.925	72.36
332.138	76.46
332.35	121.51
332.563	76.46
332.776	168.62
332.989	60.07
333.202	-9.56
333.414	35.5
333.627	76.46
333.84	113.32
334.053	-21.85
334.265	119.46
334.478	70.31
334.691	82.6
334.903	103.08
335.116	53.93
335.329	68.27
335.541	105.13
335.754	141.99
335.966	10.92
336.179	119.46
336.392	43.69
336.604	-1.37
336.817	84.65
337.029	92.84
337.242	37.55
337.454	15.02
337.667	21.16
337.88	55.98
338.092	152.23
338.305	33.45
338.517	27.31
338.729	86.7
338.942	60.07
339.154	31.4
339.367	-21.85
339.579	70.31
339.792	12.97
340.004	98.99
340.217	76.46
340.429	12.97
340.641	-38.23
340.854	-9.56
341.066	101.03
341.278	39.59
341.491	115.37
341.703	84.65
341.915	-21.85
342.128	68.27
342.34	84.65
342.552	-5.46
342.764	78.51
342.977	68.27
343.189	109.22
343.401	2.73
343.613	10.92
343.826	55.98
344.038	4.78
344.25	107.18
344.462	76.46
344.674	92.84
344.886	55.98
345.099	72.36
345.311	55.98
345.523	53.93
345.735	43.69
345.947	111.27
346.159	68.27
346.371	31.4
346.583	25.26
346.795	199.34
347.007	70.31
347.219	37.55
347.431	58.03
347.643	76.46
347.855	78.51
348.067	137.9
348.279	27.31
348.491	133.8
348.703	68.27
348.915	51.88
349.127	82.6
349.339	158.38
349.551	60.07
349.763	119.46
349.975	10.92
350.187	76.46
350.399	96.94
350.61	53.93
350.822	29.35
351.034	43.69
351.246	29.35
351.458	133.8
351.669	55.98
351.881	35.5
352.093	62.12
352.305	64.17
352.517	76.46
352.728	19.11
352.94	39.59
353.152	88.75
353.363	80.55
353.575	94.89
353.787	137.9
353.999	98.99
354.21	96.94
354.422	109.22
354.633	78.51
354.845	23.21
355.057	43.69
355.268	92.84
355.48	101.03
355.692	88.75
355.903	72.36
356.115	64.17
356.326	-38.23
356.538	119.46
356.749	109.22
356.961	45.74
357.172	80.55
357.384	101.03
357.595	133.8
357.807	78.51
358.018	39.59
358.23	33.45
358.441	94.89
358.653	66.22
358.864	76.46
359.075	-7.51
359.287	-9.56
359.498	62.12
359.709	84.65
359.921	62.12
360.132	72.36
360.344	41.64
360.555	10.92
360.766	76.46
360.977	27.31
361.189	51.88
361.4	51.88
361.611	58.03
361.823	141.99
362.034	68.27
362.245	70.31
362.456	37.55
362.667	6.83
362.879	92.84
363.09	70.31
363.301	68.27
363.512	21.16
363.723	64.17
363.935	117.42
364.146	82.6
364.357	45.74
364.568	27.31
364.779	10.92
364.99	158.38
365.201	37.55
365.412	111.27
365.623	43.69
365.834	133.8
366.045	10.92
366.256	96.94
366.467	76.46
366.678	39.59
366.889	109.22
367.1	21.16
367.311	94.89
367.522	10.92
367.733	55.98
367.944	43.69
368.155	111.27
368.366	72.36
368.577	150.18
368.788	125.61
368.999	72.36
369.209	49.83
369.42	12.97
369.631	168.62
369.842	19.11
370.053	139.94
370.264	92.84
370.474	-5.46
370.685	113.32
370.896	109.22
371.107	162.47
371.317	51.88
371.528	76.46
371.739	35.5
371.95	-38.23
372.16	107.18
372.371	78.51
372.582	76.46
372.792	92.84
373.003	62.12
373.214	37.55
373.424	125.61
373.635	47.79
373.846	117.42
374.056	109.22
374.267	76.46
374.477	78.51
374.688	39.59
374.898	-15.7
375.109	35.5
375.319	35.5
375.53	51.88
375.74	92.84
375.951	103.08
376.161	103.08
376.372	133.8
376.582	-7.51
376.793	72.36
377.003	10.92
377.214	43.69
377.424	213.67
377.635	131.75
377.845	133.8
378.055	101.03
378.266	-5.46
378.476	55.98
378.686	68.27
378.897	94.89
379.107	68.27
379.317	43.69
379.528	111.27
379.738	141.99
379.948	76.46
380.158	72.36
380.369	39.59
380.579	43.69
380.789	82.6
380.999	64.17
381.21	37.55
381.42	68.27
381.63	45.74
381.84	123.56
382.05	113.32
382.261	62.12
382.471	58.03
382.681	47.79
382.891	211.62
383.101	55.98
383.311	70.31
383.521	21.16
383.731	154.28
383.941	92.84
384.151	113.32
384.361	86.7
384.571	98.99
384.781	105.13
384.991	127.66
385.201	125.61
385.411	92.84
385.621	125.61
385.831	35.5
386.041	-11.61
386.251	84.65
386.461	84.65
386.671	76.46
386.881	115.37
387.091	76.46
387.301	174.76
387.511	-56.66
387.72	117.42
387.93	92.84
388.14	-3.41
388.35	45.74
388.56	35.5
388.769	162.47
388.979	60.07
389.189	12.97
389.399	88.75
389.609	117.42
389.818	101.03
390.028	70.31
390.238	115.37
390.447	68.27
390.657	144.04
390.867	55.98
391.076	37.55
391.286	96.94
391.496	111.27
391.705	74.41
391.915	101.03
392.125	86.7
392.334	62.12
392.544	133.8
392.753	162.47
392.963	10.92
393.172	53.93
393.382	70.31
393.591	117.42
393.801	166.57
394.01	144.04
394.22	88.75
394.429	68.27
394.639	144.04
394.848	123.56
395.058	133.8
395.267	23.21
395.477	150.18
395.686	80.55
395.895	150.18
396.105	156.33
396.314	131.75
396.524	129.7
396.733	74.41
396.942	121.51
397.152	170.66
397.361	148.14
397.57	172.71
397.78	176.81
397.989	180.9
398.198	109.22
398.407	55.98
398.617	168.62
398.826	27.31
399.035	27.31
399.244	207.53
399.453	182.95
399.663	78.51
399.872	129.7
400.081	84.65
400.29	189.1
400.499	88.75
400.708	203.43
400.917	111.27
401.127	78.51
401.336	107.18
401.545	160.42
401.754	141.99
401.963	199.34
402.172	94.89
402.381	133.8
402.59	176.81
402.799	135.85
403.008	236.2
403.217	215.72
403.426	135.85
403.635	191.14
403.844	129.7
404.053	201.38
404.262	191.14
404.471	156.33
404.68	170.66
404.888	213.67
405.097	174.76
405.306	232.1
405.515	232.1
405.724	203.43
405.933	277.16
406.142	268.97
406.35	207.53
406.559	281.25
406.768	141.99
406.977	340.65
407.185	322.21
407.394	307.88
407.603	197.29
407.812	326.31
408.02	283.3
408.229	232.1
408.438	314.02
408.646	256.68
408.855	277.16
409.064	264.87
409.272	252.58
409.481	316.07
409.69	320.17
409.898	279.21
410.107	316.07
410.315	334.5
410.524	379.56
410.733	469.67
410.941	434.85
411.15	453.28
411.358	514.72
411.567	518.82
411.775	469.67
411.984	527.01
412.192	563.87
412.401	584.35
412.609	580.26
412.818	627.36
413.026	594.59
413.234	676.51
413.443	617.12
413.651	604.83
413.86	668.32
414.068	817.82
414.276	785.05
414.485	701.09
414.693	799.39
414.901	740
415.11	815.77
415.318	866.97
415.526	952.99
415.734	891.55
415.943	846.49
416.151	1024.67
416.359	887.45
416.567	1034.91
416.776	1215.13
416.984	1151.64
417.192	1112.73
417.4	1260.18
417.608	1149.59
417.817	1329.81
418.025	1247.9
418.233	1440.4
418.441	1317.53
418.649	1432.21
418.857	1520.28
419.065	1596.05
419.273	1563.28
419.481	1747.6
419.689	1733.26
419.897	1798.8
420.105	1860.24
420.313	1860.24
420.521	1927.82
420.729	2028.17
420.937	2050.7
421.145	2001.55
421.353	2257.54
421.561	2357.89
421.769	2427.53
421.977	2437.77
422.185	2525.83
422.393	2642.56
422.601	2771.58
422.809	2765.44
423.017	2839.17
423.224	2828.93
423.432	3019.39
423.64	2996.86
423.848	3371.64
424.056	3101.31
424.263	3418.74
424.471	3318.39
424.679	3418.74
424.887	3838.58
425.094	3828.34
425.302	3883.63
425.51	3975.79
425.718	4108.91
425.925	4121.2
426.133	4262.51
426.341	4735.59
426.548	4688.48
426.756	4504.17
426.964	4823.65
427.171	5116.51
427.379	5255.77
427.586	5354.07
427.794	5354.07
428.001	5651.03
428.209	5923.41
428.417	5919.31
428.624	6220.36
428.832	6199.88
429.039	6238.8
429.247	6171.21
429.454	6781.51
429.662	7285.31
429.869	6656.58
430.076	7332.41
430.284	7092.8
430.491	7510.58
430.699	7748.15
430.906	7776.82
431.114	7817.78
431.321	7809.59
431.528	8313.39
431.736	8864.29
431.943	9140.77
432.15	8997.41
432.358	9019.94
432.565	9529.88
432.772	9617.94
432.979	9974.29
433.187	10082.83
433.394	10162.7
433.601	10795.53
433.808	10899.97
434.016	10856.97
434.223	11188.74
434.43	11827.7
434.637	11739.64
434.844	12515.82
435.052	12698.09
435.259	12605.93
435.466	12730.86
435.673	12659.18
435.88	13564.38
436.087	13963.73
436.294	14178.77
436.501	13828.57
436.708	14305.74
436.915	14488.01
437.122	15264.19
437.329	15024.58
437.537	15477.18
437.743	15870.39
437.95	15684.03
438.157	16501.17
438.364	17115.56
438.571	16853.42
438.778	17344.93
438.985	18528.66
439.192	17918.36
439.399	18428.31
439.606	17934.74
439.813	19212.68
440.02	20236.66
440.227	19986.81
440.433	19589.5
440.64	20334.96
440.847	20382.07
441.054	20466.03
441.261	22229.34
441.467	21576.03
441.674	22061.4
441.881	23265.61
442.088	22954.32
442.294	22798.67
442.501	23130.44
442.708	23988.54
442.914	24553.78
443.121	25768.23
443.328	24813.87
443.534	27007.25
443.741	26108.19
443.948	25561.38
444.154	27568.39
444.361	27427.08
444.568	27699.46
444.774	27517.19
444.981	27965.7
445.187	28416.25
445.394	29620.45
445.6	29679.85
445.807	32157.89
446.013	30970.07
446.22	31334.6
446.426	32901.3
446.633	32796.85
446.839	34156.71
447.046	32377.02
447.252	34300.06
447.459	34332.83
447.665	34023.59
447.871	35772.55
448.078	37044.34
448.284	35633.29
448.491	36806.78
448.697	37771.37
448.903	38467.68
449.11	38860.89
449.316	37902.44
449.522	38408.29
449.728	39583.82
449.935	39911.5
450.141	39678.03
450.347	41052.22
450.553	39376.98
450.76	40321.09
450.966	41457.71
451.172	40429.63
451.378	42197.03
451.584	41050.17
451.791	41812.01
451.997	42172.46
452.203	42604.58
452.409	42467.36
452.615	42350.63
452.821	40917.05
453.027	40333.38
453.233	42510.37
453.44	40857.66
453.646	40929.34
453.852	41293.88
454.058	42393.64
454.264	40579.14
454.47	42016.81
454.676	40398.91
454.882	41988.14
455.088	38420.58
455.294	38957.14
455.5	39272.53
455.705	39993.42
455.911	38641.76
456.117	37613.68
456.323	37148.79
456.529	35387.53
456.735	36710.52
456.941	35913.86
457.147	35029.14
457.352	33802.41
457.558	33937.57
457.764	33476.78
457.97	32923.83
458.176	32303.29
458.381	32362.68
458.587	30634.2
458.793	30619.86
458.999	29094.13
459.204	31181.01
459.41	30316.76
459.616	28016.9
459.821	28129.53
460.027	28199.16
460.233	27629.83
460.438	26022.17
460.644	26784.02
460.85	25317.67
461.055	24920.37
461.261	24662.32
461.466	22933.84
461.672	22536.53
461.878	23851.33
462.083	22481.24
462.289	22079.83
462.494	21709.15
462.7	20599.15
462.905	20185.46
463.111	20881.77
463.316	20808.05
463.522	20517.23
463.727	20416.88
463.932	20451.7
464.138	20191.61
464.343	20291.96
464.549	19769.72
464.754	20201.85
464.959	20095.35
465.165	20099.45
465.37	19065.22
465.575	18563.47
465.781	19417.47
465.986	19253.64
466.191	18665.87
