Data from USB4F104151__131__14-31-42-003.txt Node

Date: Thu Mar 13 14:31:42 EDT 2025
User: louis
Spectrometer: USB4F10415
Trigger mode: 4
Integration Time (sec): 2.500000E-2
Scans to average: 1
Electric dark correction enabled: true
Nonlinearity correction enabled: false
Boxcar width: 0
XAxis mode: Wavelengths
Number of Pixels in Spectrum: 3648
>>>>>Begin Spectral Data<<<<<
178.204	-122.88
178.424	-122.88
178.644	-122.88
178.864	-151.55
179.084	-106.49
179.304	65.53
179.524	0
179.744	-40.96
179.964	30.72
180.184	-49.15
180.404	36.86
180.624	36.86
180.844	-4.1
181.064	-67.58
181.283	53.25
181.503	-67.58
181.723	6.14
181.943	2.05
182.163	96.25
182.383	-4.1
182.602	79.87
182.822	45.06
183.042	45.06
183.262	22.53
183.482	36.86
183.701	4.1
183.921	12.29
184.141	-10.24
184.361	88.06
184.58	57.34
184.8	20.48
185.02	12.29
185.239	79.87
185.459	0
185.679	69.63
185.898	-71.68
186.118	77.82
186.338	61.44
186.557	24.58
186.777	8.19
186.997	-36.86
187.216	63.49
187.436	135.17
187.655	24.58
187.875	51.2
188.095	22.53
188.314	88.06
188.534	51.2
188.753	69.63
188.973	40.96
189.192	-2.05
189.412	22.53
189.631	61.44
189.851	40.96
190.07	88.06
190.29	-61.44
190.509	86.01
190.729	4.1
190.948	18.43
191.168	131.07
191.387	30.72
191.607	55.3
191.826	4.1
192.045	-57.34
192.265	-12.29
192.484	6.14
192.704	104.45
192.923	28.67
193.142	104.45
193.362	30.72
193.581	4.1
193.8	4.1
194.02	20.48
194.239	0
194.458	28.67
194.678	24.58
194.897	-8.19
195.116	77.82
195.335	61.44
195.555	49.15
195.774	53.25
195.993	-28.67
196.212	-40.96
196.432	-22.53
196.651	-6.14
196.87	-8.19
197.089	86.01
197.308	45.06
197.528	86.01
197.747	-40.96
197.966	45.06
198.185	40.96
198.404	-51.2
198.623	20.48
198.842	51.2
199.062	73.73
199.281	24.58
199.5	-30.72
199.719	53.25
199.938	36.86
200.157	-20.48
200.376	34.82
200.595	22.53
200.814	40.96
201.033	65.53
201.252	55.3
201.471	88.06
201.69	24.58
201.909	-12.29
202.128	30.72
202.347	47.1
202.566	12.29
202.785	-32.77
203.004	28.67
203.223	49.15
203.442	45.06
203.661	40.96
203.879	12.29
204.098	22.53
204.317	-12.29
204.536	36.86
204.755	22.53
204.974	36.86
205.193	8.19
205.411	45.06
205.63	40.96
205.849	61.44
206.068	69.63
206.287	94.21
206.505	47.1
206.724	4.1
206.943	30.72
207.162	28.67
207.381	38.91
207.599	24.58
207.818	28.67
208.037	-20.48
208.255	-49.15
208.474	-16.38
208.693	49.15
208.911	4.1
209.13	45.06
209.349	86.01
209.567	53.25
209.786	69.63
210.005	73.73
210.223	30.72
210.442	-28.67
210.661	79.87
210.879	22.53
211.098	-18.43
211.316	22.53
211.535	61.44
211.753	28.67
211.972	-10.24
212.191	81.92
212.409	18.43
212.628	16.38
212.846	45.06
213.065	36.86
213.283	14.34
213.502	-12.29
213.72	53.25
213.938	122.88
214.157	-28.67
214.375	69.63
214.594	43.01
214.812	28.67
215.031	10.24
215.249	4.1
215.467	14.34
215.686	65.53
215.904	86.01
216.122	131.07
216.341	63.49
216.559	4.1
216.778	73.73
216.996	38.91
217.214	61.44
217.432	40.96
217.651	8.19
217.869	45.06
218.087	94.21
218.306	-26.62
218.524	104.45
218.742	2.05
218.96	20.48
219.179	-55.3
219.397	-4.1
219.615	45.06
219.833	73.73
220.051	32.77
220.27	45.06
220.488	55.3
220.706	100.35
220.924	-28.67
221.142	6.14
221.36	0
221.578	55.3
221.796	-36.86
222.015	43.01
222.233	-40.96
222.451	69.63
222.669	28.67
222.887	47.1
223.105	-18.43
223.323	28.67
223.541	-79.87
223.759	94.21
223.977	4.1
224.195	36.86
224.413	129.02
224.631	28.67
224.849	65.53
225.067	57.34
225.285	24.58
225.503	-4.1
225.721	36.86
225.939	110.59
226.157	36.86
226.375	110.59
226.592	-2.05
226.81	20.48
227.028	120.83
227.246	104.45
227.464	14.34
227.682	12.29
227.9	57.34
228.117	40.96
228.335	-2.05
228.553	28.67
228.771	28.67
228.989	36.86
229.206	-32.77
229.424	-51.2
229.642	30.72
229.86	-53.25
230.077	8.19
230.295	79.87
230.513	49.15
230.731	45.06
230.948	77.82
231.166	-4.1
231.384	61.44
231.601	57.34
231.819	32.77
232.037	-73.73
232.254	-12.29
232.472	40.96
232.689	-53.25
232.907	57.34
233.125	57.34
233.342	63.49
233.56	2.05
233.777	36.86
233.995	-38.91
234.213	61.44
234.43	55.3
234.648	-36.86
234.865	45.06
235.083	88.06
235.3	-12.29
235.518	28.67
235.735	36.86
235.953	90.11
236.17	69.63
236.388	53.25
236.605	20.48
236.822	79.87
237.04	53.25
237.257	18.43
237.475	81.92
237.692	61.44
237.909	28.67
238.127	14.34
238.344	-16.38
238.562	0
238.779	-8.19
238.996	8.19
239.214	-12.29
239.431	36.86
239.648	22.53
239.865	79.87
240.083	6.14
240.3	43.01
240.517	94.21
240.735	90.11
240.952	77.82
241.169	30.72
241.386	-16.38
241.603	49.15
241.821	-28.67
242.038	98.3
242.255	63.49
242.472	16.38
242.689	14.34
242.907	81.92
243.124	61.44
243.341	47.1
243.558	-36.86
243.775	-40.96
243.992	6.14
244.209	-12.29
244.426	75.77
244.643	79.87
244.86	47.1
245.078	47.1
245.295	12.29
245.512	-34.82
245.729	-6.14
245.946	36.86
246.163	6.14
246.38	20.48
246.597	32.77
246.814	-4.1
247.031	40.96
247.248	20.48
247.464	47.1
247.681	0
247.898	-43.01
248.115	94.21
248.332	20.48
248.549	45.06
248.766	24.58
248.983	73.73
249.2	14.34
249.417	57.34
249.633	-6.14
249.85	4.1
250.067	79.87
250.284	-34.82
250.501	30.72
250.717	40.96
250.934	-69.63
251.151	-4.1
251.368	20.48
251.585	32.77
251.801	38.91
252.018	61.44
252.235	98.3
252.451	-34.82
252.668	36.86
252.885	88.06
253.102	57.34
253.318	67.58
253.535	-18.43
253.752	69.63
253.968	14.34
254.185	-12.29
254.401	10.24
254.618	28.67
254.835	20.48
255.051	65.53
255.268	14.34
255.484	12.29
255.701	-4.1
255.917	-12.29
256.134	8.19
256.351	40.96
256.567	30.72
256.784	20.48
257	10.24
257.217	55.3
257.433	61.44
257.65	36.86
257.866	45.06
258.082	-57.34
258.299	-36.86
258.515	28.67
258.732	53.25
258.948	36.86
259.165	73.73
259.381	47.1
259.597	14.34
259.814	24.58
260.03	53.25
260.246	18.43
260.463	67.58
260.679	96.25
260.895	34.82
261.112	16.38
261.328	16.38
261.544	2.05
261.761	94.21
261.977	-4.1
262.193	-43.01
262.409	45.06
262.626	61.44
262.842	71.68
263.058	0
263.274	36.86
263.49	-61.44
263.707	49.15
263.923	-12.29
264.139	-53.25
264.355	61.44
264.571	55.3
264.787	43.01
265.004	45.06
265.22	8.19
265.436	-12.29
265.652	-34.82
265.868	67.58
266.084	49.15
266.3	49.15
266.516	-45.06
266.732	45.06
266.948	69.63
267.164	20.48
267.38	45.06
267.596	63.49
267.812	81.92
268.028	73.73
268.244	-12.29
268.46	12.29
268.676	122.88
268.892	20.48
269.108	-71.68
269.324	-30.72
269.54	6.14
269.756	36.86
269.972	-4.1
270.188	45.06
270.403	18.43
270.619	18.43
270.835	45.06
271.051	20.48
271.267	28.67
271.483	34.82
271.698	71.68
271.914	-4.1
272.13	-2.05
272.346	-73.73
272.562	-36.86
272.777	36.86
272.993	-16.38
273.209	16.38
273.425	8.19
273.64	-77.82
273.856	45.06
274.072	16.38
274.287	0
274.503	30.72
274.719	47.1
274.934	-36.86
275.15	40.96
275.366	36.86
275.581	24.58
275.797	12.29
276.012	6.14
276.228	4.1
276.444	36.86
276.659	90.11
276.875	2.05
277.09	2.05
277.306	26.62
277.521	20.48
277.737	28.67
277.952	86.01
278.168	-18.43
278.383	90.11
278.599	28.67
278.814	-4.1
279.03	-36.86
279.245	63.49
279.461	-18.43
279.676	45.06
279.892	73.73
280.107	20.48
280.322	20.48
280.538	24.58
280.753	22.53
280.969	28.67
281.184	2.05
281.399	73.73
281.615	20.48
281.83	86.01
282.045	-6.14
282.26	-2.05
282.476	32.77
282.691	81.92
282.906	-43.01
283.122	81.92
283.337	49.15
283.552	-2.05
283.767	-36.86
283.983	12.29
284.198	-12.29
284.413	36.86
284.628	-18.43
284.843	94.21
285.058	-16.38
285.274	77.82
285.489	6.14
285.704	61.44
285.919	-4.1
286.134	38.91
286.349	-8.19
286.564	4.1
286.779	-26.62
286.995	73.73
287.21	18.43
287.425	-4.1
287.64	18.43
287.855	47.1
288.07	-51.2
288.285	-8.19
288.5	61.44
288.715	30.72
288.93	-12.29
289.145	-8.19
289.36	45.06
289.575	12.29
289.79	14.34
290.004	36.86
290.219	81.92
290.434	0
290.649	-38.91
290.864	-18.43
291.079	8.19
291.294	73.73
291.509	14.34
291.724	47.1
291.938	14.34
292.153	61.44
292.368	-16.38
292.583	71.68
292.798	14.34
293.012	38.91
293.227	-67.58
293.442	22.53
293.657	55.3
293.871	30.72
294.086	-6.14
294.301	45.06
294.516	30.72
294.73	45.06
294.945	30.72
295.16	94.21
295.374	24.58
295.589	24.58
295.804	12.29
296.018	-22.53
296.233	55.3
296.447	24.58
296.662	-14.34
296.877	30.72
297.091	83.97
297.306	-28.67
297.52	12.29
297.735	-2.05
297.949	-12.29
298.164	57.34
298.378	38.91
298.593	61.44
298.807	28.67
299.022	36.86
299.236	51.2
299.451	-18.43
299.665	18.43
299.88	-24.58
300.094	22.53
300.309	-4.1
300.523	63.49
300.737	45.06
300.952	-4.1
301.166	77.82
301.381	16.38
301.595	-12.29
301.809	47.1
302.024	-12.29
302.238	-16.38
302.452	36.86
302.667	45.06
302.881	-28.67
303.095	51.2
303.309	53.25
303.524	38.91
303.738	53.25
303.952	4.1
304.166	73.73
304.381	-2.05
304.595	-12.29
304.809	63.49
305.023	-4.1
305.237	71.68
305.452	-8.19
305.666	69.63
305.88	88.06
306.094	28.67
306.308	77.82
306.522	71.68
306.736	94.21
306.95	-20.48
307.164	-10.24
307.379	-16.38
307.593	67.58
307.807	69.63
308.021	73.73
308.235	-12.29
308.449	-20.48
308.663	83.97
308.877	40.96
309.091	61.44
309.305	137.21
309.519	-16.38
309.733	81.92
309.947	-36.86
310.161	106.49
310.374	28.67
310.588	45.06
310.802	-38.91
311.016	94.21
311.23	67.58
311.444	20.48
311.658	-32.77
311.872	14.34
312.085	73.73
312.299	96.25
312.513	14.34
312.727	30.72
312.941	8.19
313.154	22.53
313.368	30.72
313.582	77.82
313.796	108.54
314.009	14.34
314.223	69.63
314.437	73.73
314.651	49.15
314.864	-8.19
315.078	30.72
315.292	69.63
315.505	-51.2
315.719	90.11
315.933	-4.1
316.146	-4.1
316.36	8.19
316.573	131.07
316.787	32.77
317.001	-12.29
317.214	30.72
317.428	28.67
317.641	8.19
317.855	22.53
318.068	14.34
318.282	73.73
318.495	63.49
318.709	36.86
318.922	22.53
319.136	79.87
319.349	-6.14
319.563	-4.1
319.776	45.06
319.99	-45.06
320.203	61.44
320.417	20.48
320.63	45.06
320.843	-4.1
321.057	45.06
321.27	45.06
321.483	20.48
321.697	96.25
321.91	104.45
322.124	36.86
322.337	6.14
322.55	12.29
322.763	53.25
322.977	36.86
323.19	36.86
323.403	20.48
323.617	100.35
323.83	12.29
324.043	4.1
324.256	18.43
324.469	47.1
324.683	51.2
324.896	4.1
325.109	22.53
325.322	53.25
325.535	55.3
325.748	61.44
325.962	14.34
326.175	63.49
326.388	69.63
326.601	57.34
326.814	-2.05
327.027	20.48
327.24	92.16
327.453	-18.43
327.666	12.29
327.879	16.38
328.092	38.91
328.305	34.82
328.518	51.2
328.731	73.73
328.944	-61.44
329.157	38.91
329.37	-4.1
329.583	79.87
329.796	-12.29
330.009	14.34
330.222	28.67
330.435	4.1
330.648	83.97
330.861	12.29
331.073	28.67
331.286	71.68
331.499	12.29
331.712	-8.19
331.925	55.3
332.138	4.1
332.35	79.87
332.563	51.2
332.776	28.67
332.989	45.06
333.202	28.67
333.414	-10.24
333.627	57.34
333.84	-45.06
334.053	77.82
334.265	43.01
334.478	53.25
334.691	20.48
334.903	-26.62
335.116	51.2
335.329	-4.1
335.541	47.1
335.754	24.58
335.966	40.96
336.179	47.1
336.392	24.58
336.604	12.29
336.817	14.34
337.029	-28.67
337.242	-43.01
337.454	32.77
337.667	4.1
337.88	12.29
338.092	63.49
338.305	104.45
338.517	-20.48
338.729	53.25
338.942	69.63
339.154	47.1
339.367	83.97
339.579	-59.39
339.792	-45.06
340.004	49.15
340.217	53.25
340.429	36.86
340.641	0
340.854	4.1
341.066	36.86
341.278	73.73
341.491	90.11
341.703	32.77
341.915	45.06
342.128	47.1
342.34	26.62
342.552	-36.86
342.764	8.19
342.977	26.62
343.189	69.63
343.401	12.29
343.613	-53.25
343.826	61.44
344.038	16.38
344.25	77.82
344.462	16.38
344.674	24.58
344.886	-20.48
345.099	28.67
345.311	28.67
345.523	0
345.735	-34.82
345.947	71.68
346.159	-8.19
346.371	8.19
346.583	-12.29
346.795	108.54
347.007	-6.14
347.219	24.58
347.431	36.86
347.643	73.73
347.855	53.25
348.067	129.02
348.279	-12.29
348.491	69.63
348.703	36.86
348.915	14.34
349.127	38.91
349.339	20.48
349.551	0
349.763	63.49
349.975	34.82
350.187	63.49
350.399	110.59
350.61	98.3
350.822	30.72
351.034	49.15
351.246	38.91
351.458	-20.48
351.669	73.73
351.881	149.5
352.093	96.25
352.305	32.77
352.517	32.77
352.728	118.78
352.94	36.86
353.152	36.86
353.363	-2.05
353.575	69.63
353.787	18.43
353.999	102.4
354.21	75.77
354.422	120.83
354.633	-24.58
354.845	18.43
355.057	16.38
355.268	90.11
355.48	90.11
355.692	36.86
355.903	59.39
356.115	-14.34
356.326	-4.1
356.538	104.45
356.749	94.21
356.961	96.25
357.172	49.15
357.384	14.34
357.595	63.49
357.807	45.06
358.018	10.24
358.23	57.34
358.441	86.01
358.653	65.53
358.864	-8.19
359.075	36.86
359.287	12.29
359.498	90.11
359.709	79.87
359.921	30.72
360.132	102.4
360.344	83.97
360.555	28.67
360.766	4.1
360.977	-6.14
361.189	47.1
361.4	55.3
361.611	-12.29
361.823	28.67
362.034	53.25
362.245	-51.2
362.456	65.53
362.667	20.48
362.879	6.14
363.09	57.34
363.301	79.87
363.512	30.72
363.723	61.44
363.935	-24.58
364.146	36.86
364.357	47.1
364.568	59.39
364.779	-4.1
364.99	65.53
365.201	4.1
365.412	79.87
365.623	36.86
365.834	98.3
366.045	47.1
366.256	71.68
366.467	86.01
366.678	2.05
366.889	73.73
367.1	61.44
367.311	47.1
367.522	-34.82
367.733	71.68
367.944	94.21
368.155	16.38
368.366	36.86
368.577	28.67
368.788	88.06
368.999	0
369.209	114.69
369.42	-2.05
369.631	79.87
369.842	137.21
370.053	32.77
370.264	88.06
370.474	-12.29
370.685	0
370.896	14.34
371.107	110.59
371.317	-18.43
371.528	30.72
371.739	28.67
371.95	-22.53
372.16	-26.62
372.371	22.53
372.582	38.91
372.792	22.53
373.003	36.86
373.214	-4.1
373.424	-36.86
373.635	18.43
373.846	98.3
374.056	108.54
374.267	69.63
374.477	61.44
374.688	30.72
374.898	112.64
375.109	20.48
375.319	-28.67
375.53	57.34
375.74	45.06
375.951	63.49
376.161	-55.3
376.372	61.44
376.582	6.14
376.793	2.05
377.003	-57.34
377.214	20.48
377.424	75.77
377.635	6.14
377.845	43.01
378.055	36.86
378.266	4.1
378.476	53.25
378.686	24.58
378.897	69.63
379.107	69.63
379.317	65.53
379.528	53.25
379.738	22.53
379.948	112.64
380.158	14.34
380.369	14.34
380.579	176.13
380.789	-20.48
380.999	79.87
381.21	40.96
381.42	69.63
381.63	-4.1
381.84	51.2
382.05	38.91
382.261	20.48
382.471	69.63
382.681	34.82
382.891	75.77
383.101	20.48
383.311	-30.72
383.521	45.06
383.731	45.06
383.941	98.3
384.151	118.78
384.361	4.1
384.571	104.45
384.781	69.63
384.991	167.93
385.201	28.67
385.411	49.15
385.621	104.45
385.831	22.53
386.041	36.86
386.251	-4.1
386.461	53.25
386.671	92.16
386.881	112.64
387.091	10.24
387.301	32.77
387.511	-12.29
387.72	-10.24
387.93	59.39
388.14	-28.67
388.35	94.21
388.56	45.06
388.769	102.4
388.979	49.15
389.189	20.48
389.399	53.25
389.609	75.77
389.818	63.49
390.028	32.77
390.238	59.39
390.447	61.44
390.657	147.45
390.867	-10.24
391.076	102.4
391.286	96.25
391.496	110.59
391.705	81.92
391.915	71.68
392.125	63.49
392.334	49.15
392.544	75.77
392.753	61.44
392.963	10.24
393.172	51.2
393.382	40.96
393.591	79.87
393.801	43.01
394.01	137.21
394.22	71.68
394.429	94.21
394.639	57.34
394.848	65.53
395.058	88.06
395.267	-2.05
395.477	102.4
395.686	43.01
395.895	102.4
396.105	139.26
396.314	112.64
396.524	176.13
396.733	161.79
396.942	106.49
397.152	135.17
397.361	212.99
397.57	110.59
397.78	73.73
397.989	126.97
398.198	137.21
398.407	14.34
398.617	47.1
398.826	12.29
399.035	118.78
399.244	106.49
399.453	77.82
399.663	133.12
399.872	65.53
400.081	79.87
400.29	208.89
400.499	102.4
400.708	159.74
400.917	143.36
401.127	184.32
401.336	94.21
401.545	143.36
401.754	110.59
401.963	174.08
402.172	86.01
402.381	98.3
402.59	120.83
402.799	120.83
403.008	94.21
403.217	112.64
403.426	153.6
403.635	112.64
403.844	96.25
404.053	135.17
404.262	94.21
404.471	161.79
404.68	143.36
404.888	112.64
405.097	167.93
405.306	118.78
405.515	192.51
405.724	184.32
405.933	153.6
406.142	178.17
406.35	253.95
406.559	217.08
406.768	129.02
406.977	292.86
407.185	172.03
407.394	280.57
407.603	176.13
407.812	172.03
408.02	274.43
408.229	206.84
408.438	198.65
408.646	227.32
408.855	217.08
409.064	243.71
409.272	262.14
409.481	372.73
409.69	260.09
409.898	301.05
410.107	276.48
410.315	307.2
410.524	329.72
410.733	346.11
410.941	395.26
411.15	425.98
411.358	376.83
411.567	417.79
411.775	356.35
411.984	518.14
412.192	499.7
412.401	462.84
412.609	495.61
412.818	552.95
413.026	462.84
413.234	516.09
413.443	536.57
413.651	538.62
413.86	602.1
414.068	651.25
414.276	724.98
414.485	684.02
414.693	765.94
414.901	767.99
415.11	784.37
415.318	708.6
415.526	759.8
415.734	831.48
415.943	782.32
416.151	849.91
416.359	847.86
416.567	819.19
416.776	927.73
416.984	1036.27
417.192	1003.5
417.4	1052.66
417.608	983.02
417.817	1161.2
418.025	1220.59
418.233	1322.99
418.441	1148.91
418.649	1347.56
418.857	1374.19
419.065	1472.49
419.273	1327.08
419.481	1357.8
419.689	1613.8
419.897	1587.18
420.105	1675.24
420.313	1708.01
420.521	1683.43
420.729	1732.58
420.937	1806.31
421.145	1890.28
421.353	2090.98
421.561	2035.68
421.769	2017.25
421.977	2252.77
422.185	2150.37
422.393	2220
422.601	2437.08
422.809	2408.41
423.017	2494.43
423.224	2609.11
423.432	2613.21
423.64	2596.82
423.848	2979.79
424.056	2873.3
424.263	2998.23
424.471	3004.37
424.679	3190.74
424.887	3231.69
425.094	3307.47
425.302	3311.57
425.51	3436.49
425.718	3719.11
425.925	3581.9
426.133	3850.18
426.341	4040.64
426.548	4100.03
426.756	4128.7
426.964	4276.16
427.171	4356.03
427.379	4485.05
427.586	4632.51
427.794	4757.43
428.001	4968.37
428.209	5216.18
428.417	5160.88
428.624	5431.21
428.832	5402.54
429.039	5377.97
429.247	5472.17
429.454	5879.72
429.662	6404
429.869	5904.29
430.076	6379.42
430.284	6148
430.491	6461.34
430.699	6791.06
430.906	6643.61
431.114	6893.46
431.321	7038.87
431.528	7151.51
431.736	7794.57
431.943	8058.76
432.15	7876.49
432.358	8040.33
432.565	8374.14
432.772	8171.4
432.979	8621.95
433.187	8863.61
433.394	9039.73
433.601	9650.03
433.808	9570.16
434.016	9443.18
434.223	9672.56
434.43	10366.82
434.637	10223.46
434.844	10866.52
435.052	11067.22
435.259	11056.98
435.466	11087.7
435.673	10975.06
435.88	11624.27
436.087	12166.98
436.294	12123.98
436.501	11978.57
436.708	12181.32
436.915	12875.58
437.122	13344.56
437.329	13188.92
437.537	13721.39
437.743	13643.57
437.95	13698.86
438.157	14432.04
438.364	14927.64
438.571	14782.24
438.778	14669.6
438.985	16269.06
439.192	15660.82
439.399	16133.9
439.606	15687.44
439.813	16680.71
440.02	17499.89
440.227	17252.09
440.433	16951.04
440.64	17639.15
440.847	17762.03
441.054	17895.15
441.261	19347.16
441.467	19017.44
441.674	19517.14
441.881	20221.64
442.088	20102.86
442.294	19873.49
442.501	20510.41
442.708	20688.58
442.914	21774
443.121	22046.38
443.328	21790.39
443.534	23469.72
443.741	22769.32
443.948	22255.28
444.154	24182.41
444.361	23961.23
444.568	23850.64
444.774	24202.89
444.981	24135.31
445.187	24667.78
445.394	25810.55
445.6	25745.02
445.807	28110.42
446.013	27111.01
446.22	27270.75
446.426	28440.14
446.633	28503.63
446.839	29455.93
447.046	28474.96
447.252	29687.35
447.459	30408.24
447.665	29853.24
447.871	31233.57
448.078	32593.42
448.284	30891.56
448.491	32167.45
448.697	32988.68
448.903	33394.18
449.11	33527.3
449.316	33173
449.522	33881.6
449.728	34696.69
449.935	35239.4
450.141	35067.37
450.347	35620.32
450.553	34469.36
450.76	35151.34
450.966	35941.85
451.172	35681.76
451.378	36937.16
451.584	36154.84
451.791	36541.91
451.997	36746.7
452.203	37344.71
452.409	37469.64
452.615	37023.18
452.821	35587.55
453.027	35384.8
453.233	36963.79
453.44	35560.93
453.646	35368.42
453.852	36261.33
454.058	36799.95
454.264	35560.93
454.47	36324.82
454.676	35429.86
454.882	36267.48
455.088	33527.3
455.294	33934.84
455.5	34194.93
455.705	34790.89
455.911	33195.53
456.117	32349.71
456.323	32132.63
456.529	30613.04
456.735	32134.68
456.941	31118.89
457.147	30416.43
457.352	29621.82
457.558	29480.51
457.764	29105.73
457.97	28642.89
458.176	28302.93
458.381	28290.64
458.587	26656.36
458.793	26834.53
458.999	25206.4
459.204	26891.88
459.41	26338.93
459.616	24827.53
459.821	24729.22
460.027	24409.74
460.233	23787.16
460.438	22927.01
460.644	22845.09
460.85	21604.02
461.055	21561.01
461.261	21411.51
461.466	19730.13
461.672	19173.08
461.878	20590.28
462.083	19064.54
462.289	18818.78
462.494	18845.41
462.7	17669.87
462.905	17256.18
463.111	17764.08
463.316	17923.82
463.522	17495.8
463.727	17383.16
463.932	17723.12
464.138	17370.87
464.343	17161.98
464.549	16748.29
464.754	17274.62
464.959	17186.55
465.165	17151.74
465.37	16385.8
465.575	15984.4
465.781	16381.7
465.986	16555.78
466.191	16338.69
466.397	15535.89
466.602	14792.48
466.807	15474.45
467.012	15417.11
467.218	15341.33
467.423	15204.12
467.628	15234.84
467.833	15724.3
468.038	15200.02
468.244	14624.54
