Data from USB4F104151__260__14-34-31-279.txt Node

Date: Thu Mar 13 14:34:31 EDT 2025
User: louis
Spectrometer: USB4F10415
Trigger mode: 4
Integration Time (sec): 2.500000E-2
Scans to average: 1
Electric dark correction enabled: true
Nonlinearity correction enabled: false
Boxcar width: 0
XAxis mode: Wavelengths
Number of Pixels in Spectrum: 3648
>>>>>Begin Spectral Data<<<<<
178.204	-168.1
178.424	-168.1
178.644	-168.1
178.864	-127.14
179.084	-194.73
179.304	-6.31
179.524	-37.03
179.744	-8.36
179.964	83.8
180.184	-10.41
180.404	-12.46
180.624	-18.6
180.844	10.07
181.064	-20.65
181.283	-22.7
181.503	3.93
181.723	38.74
181.943	-18.6
182.163	100.18
182.383	61.27
182.602	61.27
182.822	100.18
183.042	10.07
183.262	-18.6
183.482	-2.22
183.701	-22.7
183.921	-22.7
184.141	-10.41
184.361	26.45
184.58	51.03
184.8	22.36
185.02	28.5
185.239	30.55
185.459	-30.89
185.679	79.7
185.898	-18.6
186.118	110.42
186.338	42.84
186.557	67.41
186.777	-30.89
186.997	-20.65
187.216	-2.22
187.436	1.88
187.655	1.88
187.875	18.26
188.095	16.21
188.314	-10.41
188.534	94.04
188.753	14.17
188.973	61.27
189.192	20.31
189.412	63.32
189.631	18.26
189.851	-30.89
190.07	75.6
190.29	5.97
190.509	28.5
190.729	51.03
190.948	-10.41
191.168	149.33
191.387	77.65
191.607	-69.8
191.826	3.93
192.045	14.17
192.265	-43.18
192.484	12.12
192.704	10.07
192.923	-30.89
193.142	79.7
193.362	53.08
193.581	36.69
193.8	-4.27
194.02	22.36
194.239	-51.37
194.458	-26.79
194.678	77.65
194.897	-2.22
195.116	51.03
195.335	30.55
195.555	75.6
195.774	-71.85
195.993	51.03
196.212	-10.41
196.432	-14.51
196.651	44.88
196.87	26.45
197.089	108.37
197.308	40.79
197.528	40.79
197.747	-41.13
197.966	-39.08
198.185	61.27
198.404	-63.66
198.623	75.6
198.842	28.5
199.062	96.08
199.281	59.22
199.5	32.6
199.719	34.64
199.938	-2.22
200.157	44.88
200.376	65.36
200.595	69.46
200.814	79.7
201.033	-28.84
201.252	36.69
201.471	3.93
201.69	8.02
201.909	-20.65
202.128	59.22
202.347	-6.31
202.566	118.61
202.785	-14.51
203.004	57.17
203.223	96.08
203.442	63.32
203.661	51.03
203.879	36.69
204.098	40.79
204.317	46.93
204.536	16.21
204.755	53.08
204.974	67.41
205.193	-6.31
205.411	18.26
205.63	18.26
205.849	42.84
206.068	63.32
206.287	87.89
206.505	-18.6
206.724	28.5
206.943	5.97
207.162	18.26
207.381	26.45
207.599	34.64
207.818	83.8
208.037	-10.41
208.255	20.31
208.474	36.69
208.693	96.08
208.911	59.22
209.13	1.88
209.349	10.07
209.567	110.42
209.786	83.8
210.005	51.03
210.223	-2.22
210.442	-63.66
210.661	3.93
210.879	14.17
211.098	48.98
211.316	44.88
211.535	59.22
211.753	67.41
211.972	59.22
212.191	5.97
212.409	14.17
212.628	151.38
212.846	94.04
213.065	71.51
213.283	-4.27
213.502	40.79
213.72	59.22
213.938	-4.27
214.157	32.6
214.375	1.88
214.594	42.84
214.812	53.08
215.031	-4.27
215.249	3.93
215.467	-6.31
215.686	-30.89
215.904	79.7
216.122	71.51
216.341	-6.31
216.559	34.64
216.778	51.03
216.996	38.74
217.214	8.02
217.432	-45.23
217.651	-8.36
217.869	8.02
218.087	-39.08
218.306	-47.27
218.524	28.5
218.742	10.07
218.96	51.03
219.179	36.69
219.397	1.88
219.615	59.22
219.833	36.69
220.051	-10.41
220.27	-14.51
220.488	126.8
220.706	18.26
220.924	75.6
221.142	8.02
221.36	-71.85
221.578	59.22
221.796	18.26
222.015	-4.27
222.233	46.93
222.451	75.6
222.669	34.64
222.887	85.84
223.105	5.97
223.323	44.88
223.541	-8.36
223.759	-6.31
223.977	-47.27
224.195	26.45
224.413	5.97
224.631	26.45
224.849	34.64
225.067	173.91
225.285	61.27
225.503	-32.94
225.721	-55.47
225.939	-14.51
226.157	-30.89
226.375	104.28
226.592	-4.27
226.81	75.6
227.028	67.41
227.246	102.23
227.464	18.26
227.682	20.31
227.9	67.41
228.117	10.07
228.335	94.04
228.553	46.93
228.771	-4.27
228.989	55.12
229.206	22.36
229.424	42.84
229.642	42.84
229.86	59.22
230.077	53.08
230.295	-51.37
230.513	124.76
230.731	51.03
230.948	12.12
231.166	42.84
231.384	-39.08
231.601	18.26
231.819	38.74
232.037	85.84
232.254	-41.13
232.472	10.07
232.689	-22.7
232.907	36.69
233.125	-20.65
233.342	51.03
233.56	67.41
233.777	61.27
233.995	-30.89
234.213	67.41
234.43	59.22
234.648	-20.65
234.865	42.84
235.083	34.64
235.3	-30.89
235.518	83.8
235.735	24.4
235.953	61.27
236.17	-80.04
236.388	28.5
236.605	100.18
236.822	51.03
237.04	42.84
237.257	61.27
237.475	-14.51
237.692	51.03
237.909	38.74
238.127	61.27
238.344	-14.51
238.562	53.08
238.779	-8.36
238.996	-6.31
239.214	18.26
239.431	30.55
239.648	51.03
239.865	1.88
240.083	-2.22
240.3	-18.6
240.517	42.84
240.735	-55.47
240.952	102.23
241.169	96.08
241.386	87.89
241.603	-12.46
241.821	79.7
242.038	116.56
242.255	55.12
242.472	-14.51
242.689	69.46
242.907	61.27
243.124	-8.36
243.341	3.93
243.558	-39.08
243.775	51.03
243.992	-34.99
244.209	61.27
244.426	67.41
244.643	-16.55
244.86	26.45
245.078	79.7
245.295	38.74
245.512	40.79
245.729	-18.6
245.946	46.93
246.163	51.03
246.38	59.22
246.597	20.31
246.814	53.08
247.031	-10.41
247.248	51.03
247.464	48.98
247.681	44.88
247.898	-67.75
248.115	32.6
248.332	-22.7
248.549	5.97
248.766	51.03
248.983	69.46
249.2	22.36
249.417	139.09
249.633	36.69
249.85	67.41
250.067	-12.46
250.284	-20.65
250.501	53.08
250.717	120.66
250.934	3.93
251.151	77.65
251.368	-30.89
251.585	42.84
251.801	10.07
252.018	-30.89
252.235	53.08
252.451	-4.27
252.668	83.8
252.885	14.17
253.102	24.4
253.318	28.5
253.535	59.22
253.752	-0.17
253.968	32.6
254.185	30.55
254.401	-28.84
254.618	14.17
254.835	-32.94
255.051	51.03
255.268	98.13
255.484	42.84
255.701	34.64
255.917	79.7
256.134	-16.55
256.351	-14.51
256.567	34.64
256.784	55.12
257	1.88
257.217	42.84
257.433	75.6
257.65	48.98
257.866	132.95
258.082	1.88
258.299	-22.7
258.515	1.88
258.732	44.88
258.948	61.27
259.165	34.64
259.381	16.21
259.597	-47.27
259.814	12.12
260.03	-24.75
260.246	-18.6
260.463	104.28
260.679	67.41
260.895	102.23
261.112	128.85
261.328	3.93
261.544	14.17
261.761	124.76
261.977	3.93
262.193	-2.22
262.409	59.22
262.626	69.46
262.842	61.27
263.058	5.97
263.274	28.5
263.49	61.27
263.707	22.36
263.923	53.08
264.139	46.93
264.355	26.45
264.571	26.45
264.787	-39.08
265.004	53.08
265.22	38.74
265.436	-63.66
265.652	-4.27
265.868	32.6
266.084	63.32
266.3	75.6
266.516	67.41
266.732	69.46
266.948	30.55
267.164	94.04
267.38	67.41
267.596	30.55
267.812	26.45
268.028	26.45
268.244	16.21
268.46	38.74
268.676	-39.08
268.892	65.36
269.108	22.36
269.324	46.93
269.54	-63.66
269.756	14.17
269.972	-0.17
270.188	-30.89
270.403	-26.79
270.619	12.12
270.835	16.21
271.051	36.69
271.267	30.55
271.483	14.17
271.698	1.88
271.914	22.36
272.13	28.5
272.346	59.22
272.562	63.32
272.777	67.41
272.993	63.32
273.209	67.41
273.425	26.45
273.64	-26.79
273.856	108.37
274.072	-39.08
274.287	-0.17
274.503	55.12
274.719	30.55
274.934	59.22
275.15	-39.08
275.366	42.84
275.581	10.07
275.797	26.45
276.012	14.17
276.228	28.5
276.444	26.45
276.659	1.88
276.875	83.8
277.09	44.88
277.306	-47.27
277.521	12.12
277.737	1.88
277.952	18.26
278.168	-55.47
278.383	85.84
278.599	69.46
278.814	51.03
279.03	3.93
279.245	104.28
279.461	67.41
279.676	-0.17
279.892	34.64
280.107	57.17
280.322	-4.27
280.538	22.36
280.753	20.31
280.969	44.88
281.184	38.74
281.399	85.84
281.615	71.51
281.83	53.08
282.045	1.88
282.26	38.74
282.476	38.74
282.691	69.46
282.906	73.56
283.122	59.22
283.337	53.08
283.552	59.22
283.767	24.4
283.983	10.07
284.198	116.56
284.413	32.6
284.628	18.26
284.843	57.17
285.058	20.31
285.274	42.84
285.489	18.26
285.704	18.26
285.919	10.07
286.134	46.93
286.349	-24.75
286.564	28.5
286.779	63.32
286.995	36.69
287.21	26.45
287.425	124.76
287.64	116.56
287.855	-18.6
288.07	-14.51
288.285	59.22
288.5	-26.79
288.715	67.41
288.93	-2.22
289.145	12.12
289.36	61.27
289.575	34.64
289.79	57.17
290.004	26.45
290.219	89.94
290.434	28.5
290.649	26.45
290.864	-12.46
291.079	42.84
291.294	-0.17
291.509	75.6
291.724	-20.65
291.938	-41.13
292.153	-8.36
292.368	-37.03
292.583	-6.31
292.798	14.17
293.012	42.84
293.227	83.8
293.442	12.12
293.657	83.8
293.871	71.51
294.086	18.26
294.301	36.69
294.516	12.12
294.73	61.27
294.945	1.88
295.16	10.07
295.374	73.56
295.589	18.26
295.804	-69.8
296.018	71.51
296.233	67.41
296.447	12.12
296.662	-43.18
296.877	22.36
297.091	135
297.306	-14.51
297.52	-24.75
297.735	81.75
297.949	-8.36
298.164	75.6
298.378	96.08
298.593	-2.22
298.807	14.17
299.022	1.88
299.236	-2.22
299.451	34.64
299.665	-0.17
299.88	28.5
300.094	100.18
300.309	5.97
300.523	-10.41
300.737	48.98
300.952	116.56
301.166	18.26
301.381	44.88
301.595	-34.99
301.809	79.7
302.024	28.5
302.238	12.12
302.452	44.88
302.667	-20.65
302.881	155.47
303.095	63.32
303.309	34.64
303.524	-2.22
303.738	3.93
303.952	22.36
304.166	42.84
304.381	28.5
304.595	67.41
304.809	-55.47
305.023	44.88
305.237	18.26
305.452	18.26
305.666	77.65
305.88	71.51
306.094	14.17
306.308	57.17
306.522	3.93
306.736	61.27
306.95	59.22
307.164	14.17
307.379	5.97
307.593	22.36
307.807	-18.6
308.021	20.31
308.235	20.31
308.449	26.45
308.663	-12.46
308.877	85.84
309.091	96.08
309.305	51.03
309.519	22.36
309.733	59.22
309.947	-55.47
310.161	69.46
310.374	-18.6
310.588	67.41
310.802	5.97
311.016	36.69
311.23	51.03
311.444	-4.27
311.658	75.6
311.872	-6.31
312.085	71.51
312.299	69.46
312.513	81.75
312.727	34.64
312.941	42.84
313.154	-4.27
313.368	18.26
313.582	77.65
313.796	75.6
314.009	71.51
314.223	30.55
314.437	63.32
314.651	59.22
314.864	-18.6
315.078	-14.51
315.292	26.45
315.505	42.84
315.719	53.08
315.933	42.84
316.146	-4.27
316.36	-82.09
316.573	96.08
316.787	59.22
317.001	-6.31
317.214	51.03
317.428	75.6
317.641	5.97
317.855	-30.89
318.068	24.4
318.282	59.22
318.495	73.56
318.709	75.6
318.922	-4.27
319.136	77.65
319.349	94.04
319.563	-6.31
319.776	38.74
319.99	-22.7
320.203	48.98
320.417	42.84
320.63	55.12
320.843	59.22
321.057	77.65
321.27	104.28
321.483	26.45
321.697	48.98
321.91	8.02
322.124	34.64
322.337	53.08
322.55	44.88
322.763	28.5
322.977	59.22
323.19	63.32
323.403	42.84
323.617	-45.23
323.83	22.36
324.043	34.64
324.256	71.51
324.469	12.12
324.683	112.47
324.896	75.6
325.109	55.12
325.322	-53.42
325.535	71.51
325.748	51.03
325.962	22.36
326.175	-2.22
326.388	51.03
326.601	20.31
326.814	10.07
327.027	67.41
327.24	94.04
327.453	-34.99
327.666	12.12
327.879	67.41
328.092	85.84
328.305	26.45
328.518	12.12
328.731	44.88
328.944	75.6
329.157	77.65
329.37	-10.41
329.583	102.23
329.796	34.64
330.009	1.88
330.222	75.6
330.435	55.12
330.648	79.7
330.861	59.22
331.073	53.08
331.286	110.42
331.499	91.99
331.712	-0.17
331.925	67.41
332.138	77.65
332.35	75.6
332.563	16.21
332.776	20.31
332.989	10.07
333.202	-18.6
333.414	-12.46
333.627	28.5
333.84	-26.79
334.053	132.95
334.265	-55.47
334.478	34.64
334.691	28.5
334.903	87.89
335.116	-43.18
335.329	-61.61
335.541	55.12
335.754	110.42
335.966	71.51
336.179	81.75
336.392	10.07
336.604	-53.42
336.817	77.65
337.029	120.66
337.242	-53.42
337.454	69.46
337.667	38.74
337.88	85.84
338.092	1.88
338.305	61.27
338.517	-6.31
338.729	96.08
338.942	67.41
339.154	44.88
339.367	8.02
339.579	69.46
339.792	-22.7
340.004	67.41
340.217	26.45
340.429	-20.65
340.641	-90.28
340.854	26.45
341.066	59.22
341.278	42.84
341.491	135
341.703	71.51
341.915	38.74
342.128	51.03
342.34	3.93
342.552	20.31
342.764	20.31
342.977	55.12
343.189	102.23
343.401	18.26
343.613	-47.27
343.826	1.88
344.038	22.36
344.25	55.12
344.462	-30.89
344.674	63.32
344.886	-12.46
345.099	61.27
345.311	22.36
345.523	44.88
345.735	-4.27
345.947	-51.37
346.159	18.26
346.371	-55.47
346.583	20.31
346.795	89.94
347.007	55.12
347.219	91.99
347.431	61.27
347.643	69.46
347.855	10.07
348.067	108.37
348.279	-22.7
348.491	67.41
348.703	34.64
348.915	96.08
349.127	28.5
349.339	3.93
349.551	-30.89
349.763	69.46
349.975	-39.08
350.187	30.55
350.399	36.69
350.61	36.69
350.822	51.03
351.034	61.27
351.246	116.56
351.458	71.51
351.669	12.12
351.881	53.08
352.093	53.08
352.305	38.74
352.517	5.97
352.728	124.76
352.94	1.88
353.152	122.71
353.363	18.26
353.575	-20.65
353.787	38.74
353.999	40.79
354.21	67.41
354.422	61.27
354.633	38.74
354.845	-26.79
355.057	-18.6
355.268	-22.7
355.48	55.12
355.692	-14.51
355.903	40.79
356.115	34.64
356.326	-69.8
356.538	32.6
356.749	10.07
356.961	42.84
357.172	69.46
357.384	-20.65
357.595	67.41
357.807	36.69
358.018	-16.55
358.23	36.69
358.441	38.74
358.653	81.75
358.864	34.64
359.075	26.45
359.287	100.18
359.498	128.85
359.709	55.12
359.921	42.84
360.132	79.7
360.344	-0.17
360.555	-30.89
360.766	75.6
360.977	26.45
361.189	94.04
361.4	30.55
361.611	42.84
361.823	51.03
362.034	36.69
362.245	-8.36
362.456	14.17
362.667	-47.27
362.879	85.84
363.09	73.56
363.301	83.8
363.512	34.64
363.723	1.88
363.935	38.74
364.146	116.56
364.357	57.17
364.568	-2.22
364.779	-10.41
364.99	55.12
365.201	10.07
365.412	108.37
365.623	-37.03
365.834	44.88
366.045	46.93
366.256	-2.22
366.467	57.17
366.678	98.13
366.889	-10.41
367.1	14.17
367.311	26.45
367.522	-39.08
367.733	30.55
367.944	67.41
368.155	44.88
368.366	132.95
368.577	28.5
368.788	67.41
368.999	51.03
369.209	36.69
369.42	53.08
369.631	81.75
369.842	14.17
370.053	51.03
370.264	20.31
370.474	40.79
370.685	79.7
370.896	87.89
371.107	61.27
371.317	18.26
371.528	5.97
371.739	116.56
371.95	32.6
372.16	83.8
372.371	42.84
372.582	20.31
372.792	55.12
373.003	55.12
373.214	83.8
373.424	61.27
373.635	-10.41
373.846	108.37
374.056	32.6
374.267	-22.7
374.477	28.5
374.688	1.88
374.898	-2.22
375.109	-22.7
375.319	26.45
375.53	44.88
375.74	36.69
375.951	26.45
376.161	53.08
376.372	87.89
376.582	-34.99
376.793	42.84
377.003	32.6
377.214	18.26
377.424	-10.41
377.635	26.45
377.845	22.36
378.055	30.55
378.266	-69.8
378.476	51.03
378.686	67.41
378.897	83.8
379.107	38.74
379.317	59.22
379.528	18.26
379.738	36.69
379.948	18.26
380.158	75.6
380.369	-14.51
380.579	59.22
380.789	100.18
380.999	77.65
381.21	28.5
381.42	87.89
381.63	-18.6
381.84	46.93
382.05	94.04
382.261	3.93
382.471	61.27
382.681	22.36
382.891	87.89
383.101	98.13
383.311	1.88
383.521	-22.7
383.731	18.26
383.941	34.64
384.151	46.93
384.361	79.7
384.571	77.65
384.781	53.08
384.991	106.32
385.201	91.99
385.411	42.84
385.621	67.41
385.831	44.88
386.041	10.07
386.251	85.84
386.461	12.12
386.671	42.84
386.881	28.5
387.091	38.74
387.301	1.88
387.511	10.07
387.72	-10.41
387.93	44.88
388.14	-69.8
388.35	1.88
388.56	-18.6
388.769	77.65
388.979	116.56
389.189	-12.46
389.399	59.22
389.609	63.32
389.818	155.47
390.028	81.75
390.238	-30.89
390.447	89.94
390.657	69.46
390.867	-92.33
391.076	-6.31
391.286	44.88
391.496	14.17
391.705	42.84
391.915	22.36
392.125	94.04
392.334	10.07
392.544	132.95
392.753	96.08
392.963	10.07
393.172	79.7
393.382	1.88
393.591	108.37
393.801	10.07
394.01	98.13
394.22	3.93
394.429	67.41
394.639	75.6
394.848	141.14
395.058	75.6
395.267	28.5
395.477	-16.55
395.686	77.65
395.895	163.67
396.105	102.23
396.314	26.45
396.524	108.37
396.733	91.99
396.942	124.76
397.152	79.7
397.361	186.19
397.57	67.41
397.78	104.28
397.989	108.37
398.198	132.95
398.407	42.84
398.617	112.47
398.826	116.56
399.035	-6.31
399.244	77.65
399.453	22.36
399.663	18.26
399.872	104.28
400.081	18.26
400.29	91.99
400.499	40.79
400.708	83.8
400.917	100.18
401.127	18.26
401.336	12.12
401.545	102.23
401.754	85.84
401.963	67.41
402.172	61.27
402.381	34.64
402.59	67.41
402.799	118.61
403.008	85.84
403.217	83.8
403.426	69.46
403.635	94.04
403.844	83.8
404.053	53.08
404.262	83.8
404.471	161.62
404.68	65.36
404.888	100.18
405.097	71.51
405.306	108.37
405.515	157.52
405.724	96.08
405.933	108.37
406.142	149.33
406.35	225.11
406.559	132.95
406.768	110.42
406.977	149.33
407.185	149.33
407.394	196.43
407.603	102.23
407.812	149.33
408.02	264.02
408.229	167.76
408.438	194.39
408.646	182.1
408.855	194.39
409.064	198.48
409.272	155.47
409.481	227.15
409.69	139.09
409.898	180.05
410.107	194.39
410.315	194.39
410.524	270.16
410.733	225.11
410.941	284.5
411.15	317.26
411.358	315.22
411.567	337.74
411.775	368.46
411.984	307.02
412.192	399.18
412.401	331.6
412.609	485.2
412.818	376.66
413.026	411.47
413.234	460.62
413.443	479.05
413.651	438.09
413.86	372.56
414.068	520.01
414.276	567.12
414.485	429.9
414.693	569.16
414.901	560.97
415.11	632.65
415.318	550.73
415.526	663.37
415.734	644.94
415.943	632.65
416.151	790.35
416.359	667.47
416.567	671.56
416.776	806.73
416.984	757.58
417.192	763.72
417.4	673.61
417.608	814.92
417.817	823.11
418.025	841.54
418.233	1027.91
418.441	917.32
418.649	982.85
418.857	1083.2
419.065	968.52
419.273	1070.92
419.481	1054.53
419.689	1066.82
419.897	1189.7
420.105	1247.04
420.313	1296.19
420.521	1341.25
420.729	1406.78
420.937	1345.34
421.145	1474.37
421.353	1488.7
421.561	1587.01
421.769	1607.48
421.977	1670.97
422.185	1769.27
422.393	1750.84
422.601	1767.23
422.809	1820.47
423.017	1873.72
423.224	1994.55
423.432	2082.61
423.64	2092.85
423.848	2168.63
424.056	2094.9
424.263	2352.95
424.471	2322.23
424.679	2361.14
424.887	2389.81
425.094	2475.82
425.302	2537.26
425.51	2676.52
425.718	2729.77
425.925	2764.59
426.133	2926.38
426.341	3125.03
426.548	3180.32
426.756	3143.46
426.964	3174.18
427.171	3344.16
427.379	3325.73
427.586	3624.73
427.794	3729.18
428.001	3843.87
428.209	3878.68
428.417	3833.63
428.624	4189.97
428.832	4138.77
429.039	4163.35
429.247	4308.76
429.454	4622.09
429.662	4837.13
429.869	4466.45
430.076	4843.28
430.284	4589.33
430.491	4886.28
430.699	5150.47
430.906	5191.43
431.114	5299.97
431.321	5426.95
431.528	5523.2
431.736	5875.45
431.943	6086.39
432.15	5875.45
432.358	6010.62
432.565	6551.28
432.772	6262.52
432.979	6604.53
433.187	6942.44
433.394	6735.6
433.601	7186.15
433.808	7407.33
434.016	7292.65
434.223	7366.37
434.43	7966.43
434.637	7687.9
434.844	8318.68
435.052	8517.33
435.259	8484.56
435.466	8496.85
435.673	8318.68
435.88	8838.86
436.087	9416.39
436.294	9471.68
436.501	9357
436.708	9221.83
436.915	9488.07
437.122	10006.2
437.329	10153.66
437.537	10282.68
437.743	10438.33
437.95	10327.74
438.157	10933.93
438.364	11232.94
438.571	11259.56
438.778	11429.54
438.985	12576.41
439.192	11955.87
439.399	12316.31
439.606	11892.38
439.813	12750.48
440.02	13493.9
440.227	13325.96
440.433	12947.09
440.64	13594.25
440.847	13239.95
441.054	13801.09
441.261	14599.8
441.467	14571.13
441.674	14487.16
441.881	15423.08
442.088	15177.33
442.294	14900.85
442.501	15414.89
442.708	15746.66
442.914	16387.68
443.121	17182.29
443.328	16545.37
443.534	17612.36
443.741	17387.08
443.948	17086.03
444.154	18409.02
444.361	18110.02
444.568	18204.22
444.774	18150.98
444.981	18568.76
445.187	19086.9
445.394	19570.22
445.6	19469.87
445.807	21280.27
446.013	20418.08
446.22	21081.62
446.426	21837.32
446.633	21833.22
446.839	22472.19
447.046	21696.01
447.252	23088.63
447.459	22740.47
447.665	22775.29
447.871	23713.26
448.078	24700.38
448.284	23838.19
448.491	24415.71
448.697	25337.3
448.903	25828.81
449.11	25593.29
449.316	25040.34
449.522	25605.58
449.728	26551.74
449.935	26533.31
450.141	26402.24
450.347	27430.32
450.553	26478.02
450.76	26854.84
450.966	27598.26
451.172	27518.39
451.378	28464.55
451.584	27530.67
451.791	28095.91
451.997	27919.79
452.203	28247.46
452.409	28630.43
452.615	28259.75
452.821	26828.22
453.027	26957.24
453.233	28548.51
453.44	27102.65
453.646	27495.86
453.852	27534.77
454.058	27870.64
454.264	26998.2
454.47	28212.65
454.676	27043.26
454.882	27901.36
455.088	25538
455.294	25779.66
455.5	26486.21
455.705	26404.29
455.911	25316.82
456.117	25460.18
456.323	24579.55
456.529	23231.99
456.735	24387.04
456.941	23713.26
457.147	23274.99
457.352	22652.41
457.558	22466.05
457.764	22574.59
457.97	21769.74
458.176	21427.73
458.381	21335.57
458.587	20352.54
458.793	20416.03
458.999	19140.15
459.204	20608.54
459.41	19904.04
459.616	18615.87
459.821	18433.6
460.027	18720.31
460.233	18130.5
460.438	17507.91
460.644	17270.35
460.85	16569.94
461.055	16418.39
461.261	16164.45
461.466	14943.86
461.672	14642.81
461.878	15601.26
462.083	14753.4
462.289	14173.82
462.494	14122.62
462.7	13547.14
462.905	13057.68
463.111	13526.66
463.316	13598.34
463.522	13483.66
463.727	13317.77
463.932	13407.88
464.138	13133.45
464.343	13248.14
464.549	12775.06
464.754	13121.17
464.959	12838.55
465.165	12715.67
465.37	12459.67
465.575	12240.54
465.781	12617.36
465.986	12762.77
466.191	12027.55
466.397	11804.32
466.602	11284.14
466.807	11718.31
467.012	11630.24
467.218	11595.43
467.423	11570.85
467.628	11634.34
