Data from USB4F104151__46__14-29-53-609.txt Node

Date: Thu Mar 13 14:29:53 EDT 2025
User: louis
Spectrometer: USB4F10415
Trigger mode: 4
Integration Time (sec): 2.500000E-2
Scans to average: 1
Electric dark correction enabled: true
Nonlinearity correction enabled: false
Boxcar width: 0
XAxis mode: Wavelengths
Number of Pixels in Spectrum: 3648
>>>>>Begin Spectral Data<<<<<
178.204	-126.97
178.424	-126.97
178.644	-126.97
178.864	-167.93
179.084	-208.89
179.304	-4.1
179.524	20.48
179.744	55.3
179.964	-8.19
180.184	-2.05
180.404	53.25
180.624	-57.34
180.844	14.34
181.064	-77.82
181.283	-2.05
181.503	4.1
181.723	4.1
181.943	-8.19
182.163	61.44
182.383	20.48
182.602	28.67
182.822	135.17
183.042	36.86
183.262	8.19
183.482	28.67
183.701	63.49
183.921	-20.48
184.141	6.14
184.361	-40.96
184.58	-10.24
184.8	36.86
185.02	28.67
185.239	12.29
185.459	16.38
185.679	45.06
185.898	-32.77
186.118	-36.86
186.338	-16.38
186.557	30.72
186.777	-34.82
186.997	-20.48
187.216	-67.58
187.436	10.24
187.655	-8.19
187.875	94.21
188.095	-79.87
188.314	79.87
188.534	-63.49
188.753	53.25
188.973	-20.48
189.192	126.97
189.412	-43.01
189.631	14.34
189.851	118.78
190.07	104.45
190.29	-43.01
190.509	-2.05
190.729	24.58
190.948	51.2
191.168	153.6
191.387	120.83
191.607	24.58
191.826	-20.48
192.045	-8.19
192.265	-4.1
192.484	53.25
192.704	-20.48
192.923	-45.06
193.142	61.44
193.362	106.49
193.581	49.15
193.8	98.3
194.02	110.59
194.239	-47.1
194.458	12.29
194.678	-26.62
194.897	18.43
195.116	24.58
195.335	86.01
195.555	-49.15
195.774	-2.05
195.993	12.29
196.212	12.29
196.432	26.62
196.651	-4.1
196.87	-6.14
197.089	47.1
197.308	-36.86
197.528	34.82
197.747	-2.05
197.966	0
198.185	4.1
198.404	12.29
198.623	47.1
198.842	47.1
199.062	77.82
199.281	65.54
199.5	43.01
199.719	53.25
199.938	47.1
200.157	47.1
200.376	4.1
200.595	102.4
200.814	71.68
201.033	57.34
201.252	20.48
201.471	28.67
201.69	38.91
201.909	61.44
202.128	6.14
202.347	45.06
202.566	-24.58
202.785	-12.29
203.004	22.53
203.223	55.3
203.442	0
203.661	45.06
203.879	0
204.098	77.82
204.317	-14.34
204.536	86.01
204.755	86.01
204.974	73.73
205.193	129.02
205.411	163.84
205.63	112.64
205.849	0
206.068	6.14
206.287	12.29
206.505	16.38
206.724	16.38
206.943	47.1
207.162	45.06
207.381	-8.19
207.599	-18.43
207.818	47.1
208.037	-57.34
208.255	47.1
208.474	16.38
208.693	20.48
208.911	2.05
209.13	-24.58
209.349	12.29
209.567	24.58
209.786	94.21
210.005	8.19
210.223	57.34
210.442	4.1
210.661	-20.48
210.879	86.01
211.098	-36.86
211.316	77.82
211.535	61.44
211.753	-12.29
211.972	47.1
212.191	45.06
212.409	28.67
212.628	49.15
212.846	-47.1
213.065	30.72
213.283	49.15
213.502	-8.19
213.72	-20.48
213.938	36.86
214.157	-12.29
214.375	30.72
214.594	-12.29
214.812	-30.72
215.031	22.53
215.249	-20.48
215.467	-20.48
215.686	-8.19
215.904	-12.29
216.122	45.06
216.341	73.73
216.559	65.54
216.778	40.96
216.996	28.67
217.214	-18.43
217.432	-2.05
217.651	6.14
217.869	-8.19
218.087	30.72
218.306	94.21
218.524	24.58
218.742	4.1
218.96	-6.14
219.179	-20.48
219.397	-4.1
219.615	90.11
219.833	-14.34
220.051	4.1
220.27	6.14
220.488	-8.19
220.706	67.58
220.924	-36.86
221.142	24.58
221.36	16.38
221.578	59.39
221.796	-8.19
222.015	69.63
222.233	-20.48
222.451	26.62
222.669	-36.86
222.887	28.67
223.105	49.15
223.323	-47.1
223.541	-14.34
223.759	69.63
223.977	28.67
224.195	53.25
224.413	147.45
224.631	36.86
224.849	69.63
225.067	114.69
225.285	-61.44
225.503	-16.38
225.721	36.86
225.939	57.34
226.157	24.58
226.375	67.58
226.592	16.38
226.81	18.43
227.028	30.72
227.246	61.44
227.464	79.87
227.682	38.91
227.9	43.01
228.117	-20.48
228.335	40.96
228.553	-6.14
228.771	-45.06
228.989	61.44
229.206	88.06
229.424	51.2
229.642	28.67
229.86	2.05
230.077	81.92
230.295	51.2
230.513	53.25
230.731	63.49
230.948	61.44
231.166	40.96
231.384	-40.96
231.601	-55.3
231.819	77.82
232.037	18.43
232.254	36.86
232.472	57.34
232.689	16.38
232.907	45.06
233.125	49.15
233.342	-2.05
233.56	71.68
233.777	-12.29
233.995	34.82
234.213	47.1
234.43	20.48
234.648	47.1
234.865	-36.86
235.083	45.06
235.3	22.53
235.518	40.96
235.735	63.49
235.953	47.1
236.17	36.86
236.388	20.48
236.605	-12.29
236.822	94.21
237.04	45.06
237.257	-28.67
237.475	-8.19
237.692	8.19
237.909	16.38
238.127	14.34
238.344	45.06
238.562	151.55
238.779	18.43
238.996	-18.43
239.214	20.48
239.431	32.77
239.648	57.34
239.865	4.1
240.083	61.44
240.3	-26.62
240.517	88.06
240.735	36.86
240.952	49.15
241.169	-28.67
241.386	10.24
241.603	32.77
241.821	-26.62
242.038	69.63
242.255	-20.48
242.472	-10.24
242.689	22.53
242.907	47.1
243.124	20.48
243.341	-32.77
243.558	-12.29
243.775	-8.19
243.992	30.72
244.209	73.73
244.426	55.3
244.643	45.06
244.86	-4.1
245.078	2.05
245.295	36.86
245.512	-4.1
245.729	-55.3
245.946	12.29
246.163	69.63
246.38	-14.34
246.597	16.38
246.814	-6.14
247.031	55.3
247.248	6.14
247.464	-8.19
247.681	4.1
247.898	16.38
248.115	30.72
248.332	-43.01
248.549	79.87
248.766	88.06
248.983	18.43
249.2	32.77
249.417	16.38
249.633	-26.62
249.85	-16.38
250.067	-51.2
250.284	-8.19
250.501	49.15
250.717	-2.05
250.934	24.58
251.151	36.86
251.368	0
251.585	53.25
251.801	63.49
252.018	-20.48
252.235	69.63
252.451	-2.05
252.668	-28.67
252.885	73.73
253.102	32.77
253.318	12.29
253.535	-36.86
253.752	81.92
253.968	4.1
254.185	-12.29
254.401	38.91
254.618	106.49
254.835	53.25
255.051	100.35
255.268	28.67
255.484	10.24
255.701	-10.24
255.917	59.39
256.134	-63.49
256.351	8.19
256.567	-4.1
256.784	77.82
257	-40.96
257.217	53.25
257.433	-4.1
257.65	32.77
257.866	22.53
258.082	47.1
258.299	32.77
258.515	65.54
258.732	12.29
258.948	28.67
259.165	38.91
259.381	36.86
259.597	18.43
259.814	36.86
260.03	-24.58
260.246	-43.01
260.463	94.21
260.679	55.3
260.895	16.38
261.112	16.38
261.328	-24.58
261.544	-65.53
261.761	90.11
261.977	32.77
262.193	-20.48
262.409	45.06
262.626	77.82
262.842	69.63
263.058	-14.34
263.274	22.53
263.49	36.86
263.707	4.1
263.923	4.1
264.139	-22.53
264.355	53.25
264.571	94.21
264.787	-30.72
265.004	20.48
265.22	-16.38
265.436	34.82
265.652	-53.25
265.868	36.86
266.084	28.67
266.3	-45.06
266.516	-18.43
266.732	20.48
266.948	28.67
267.164	-28.67
267.38	63.49
267.596	88.06
267.812	143.36
268.028	49.15
268.244	-28.67
268.46	-69.63
268.676	-65.53
268.892	53.25
269.108	-16.38
269.324	20.48
269.54	-57.34
269.756	36.86
269.972	53.25
270.188	28.67
270.403	0
270.619	-4.1
270.835	16.38
271.051	-20.48
271.267	110.59
271.483	69.63
271.698	30.72
271.914	61.44
272.13	40.96
272.346	-18.43
272.562	86.01
272.777	51.2
272.993	-8.19
273.209	-20.48
273.425	28.67
273.64	22.53
273.856	77.82
274.072	10.24
274.287	32.77
274.503	30.72
274.719	28.67
274.934	24.58
275.15	12.29
275.366	28.67
275.581	12.29
275.797	45.06
276.012	-24.58
276.228	30.72
276.444	90.11
276.659	94.21
276.875	10.24
277.09	-47.1
277.306	16.38
277.521	75.77
277.737	6.14
277.952	69.63
278.168	45.06
278.383	-2.05
278.599	20.48
278.814	-26.62
279.03	-53.25
279.245	49.15
279.461	-4.1
279.676	36.86
279.892	-26.62
280.107	40.96
280.322	57.34
280.538	49.15
280.753	-30.72
280.969	86.01
281.184	-30.72
281.399	-4.1
281.615	12.29
281.83	32.77
282.045	-2.05
282.26	16.38
282.476	45.06
282.691	6.14
282.906	-45.06
283.122	6.14
283.337	32.77
283.552	83.97
283.767	-38.91
283.983	4.1
284.198	71.68
284.413	30.72
284.628	-18.43
284.843	61.44
285.058	45.06
285.274	45.06
285.489	-59.39
285.704	71.68
285.919	-63.49
286.134	24.58
286.349	53.25
286.564	-34.82
286.779	79.87
286.995	12.29
287.21	28.67
287.425	-24.58
287.64	53.25
287.855	10.24
288.07	-16.38
288.285	38.91
288.5	-12.29
288.715	36.86
288.93	2.05
289.145	-28.67
289.36	-16.38
289.575	12.29
289.79	24.58
290.004	36.86
290.219	36.86
290.434	-4.1
290.649	-14.34
290.864	-59.39
291.079	79.87
291.294	-6.14
291.509	-4.1
291.724	4.1
291.938	12.29
292.153	79.87
292.368	-75.77
292.583	-38.91
292.798	-24.58
293.012	45.06
293.227	0
293.442	-86.01
293.657	30.72
293.871	61.44
294.086	24.58
294.301	53.25
294.516	43.01
294.73	59.39
294.945	-24.58
295.16	-16.38
295.374	77.82
295.589	135.17
295.804	34.82
296.018	20.48
296.233	14.34
296.447	-12.29
296.662	22.53
296.877	30.72
297.091	53.25
297.306	-8.19
297.52	4.1
297.735	77.82
297.949	-22.53
298.164	67.58
298.378	4.1
298.593	38.91
298.807	10.24
299.022	65.54
299.236	47.1
299.451	28.67
299.665	53.25
299.88	20.48
300.094	53.25
300.309	36.86
300.523	81.92
300.737	4.1
300.952	-28.67
301.166	20.48
301.381	53.25
301.595	20.48
301.809	-12.29
302.024	4.1
302.238	12.29
302.452	-53.25
302.667	4.1
302.881	43.01
303.095	-26.62
303.309	102.4
303.524	51.2
303.738	26.62
303.952	-40.96
304.166	-12.29
304.381	-36.86
304.595	45.06
304.809	8.19
305.023	-12.29
305.237	53.25
305.452	63.49
305.666	47.1
305.88	53.25
306.094	178.17
306.308	55.3
306.522	12.29
306.736	45.06
306.95	16.38
307.164	40.96
307.379	43.01
307.593	53.25
307.807	120.83
308.021	92.16
308.235	81.92
308.449	-20.48
308.663	-10.24
308.877	96.25
309.091	26.62
309.305	59.39
309.519	-12.29
309.733	135.17
309.947	53.25
310.161	4.1
310.374	69.63
310.588	0
310.802	-8.19
311.016	69.63
311.23	-22.53
311.444	8.19
311.658	16.38
311.872	110.59
312.085	63.49
312.299	14.34
312.513	45.06
312.727	65.54
312.941	4.1
313.154	88.06
313.368	45.06
313.582	12.29
313.796	45.06
314.009	-8.19
314.223	114.69
314.437	79.87
314.651	61.44
314.864	20.48
315.078	32.77
315.292	12.29
315.505	61.44
315.719	98.3
315.933	69.63
316.146	6.14
316.36	-90.11
316.573	94.21
316.787	-4.1
317.001	79.87
317.214	-59.39
317.428	22.53
317.641	-4.1
317.855	59.39
318.068	-28.67
318.282	-12.29
318.495	49.15
318.709	8.19
318.922	43.01
319.136	55.3
319.349	63.49
319.563	53.25
319.776	67.58
319.99	6.14
320.203	53.25
320.417	71.68
320.63	8.19
320.843	-6.14
321.057	4.1
321.27	-4.1
321.483	6.14
321.697	30.72
321.91	67.58
322.124	61.44
322.337	-10.24
322.55	6.14
322.763	28.67
322.977	10.24
323.19	36.86
323.403	40.96
323.617	20.48
323.83	22.53
324.043	-12.29
324.256	45.06
324.469	-4.1
324.683	38.91
324.896	-51.2
325.109	47.1
325.322	-67.58
325.535	43.01
325.748	73.73
325.962	73.73
326.175	-36.86
326.388	-12.29
326.601	34.82
326.814	12.29
327.027	26.62
327.24	153.6
327.453	-61.44
327.666	38.91
327.879	32.77
328.092	6.14
328.305	-53.25
328.518	-34.82
328.731	-90.11
328.944	28.67
329.157	81.92
329.37	16.38
329.583	94.21
329.796	71.68
330.009	-38.91
330.222	38.91
330.435	-20.48
330.648	122.88
330.861	77.82
331.073	26.62
331.286	24.58
331.499	55.3
331.712	-16.38
331.925	53.25
332.138	-38.91
332.35	98.3
332.563	53.25
332.776	77.82
332.989	-22.53
333.202	18.43
333.414	8.19
333.627	16.38
333.84	32.77
334.053	126.97
334.265	-8.19
334.478	-10.24
334.691	47.1
334.903	-12.29
335.116	32.77
335.329	57.34
335.541	22.53
335.754	67.58
335.966	40.96
336.179	69.63
336.392	-4.1
336.604	4.1
336.817	22.53
337.029	65.54
337.242	22.53
337.454	16.38
337.667	90.11
337.88	102.4
338.092	16.38
338.305	40.96
338.517	8.19
338.729	106.49
338.942	86.01
339.154	-8.19
339.367	-36.86
339.579	47.1
339.792	-18.43
340.004	30.72
340.217	-38.91
340.429	-22.53
340.641	45.06
340.854	53.25
341.066	16.38
341.278	110.59
341.491	98.3
341.703	0
341.915	14.34
342.128	22.53
342.34	20.48
342.552	61.44
342.764	59.39
342.977	53.25
343.189	36.86
343.401	12.29
343.613	-47.1
343.826	32.77
344.038	32.77
344.25	110.59
344.462	49.15
344.674	94.21
344.886	32.77
345.099	55.3
345.311	73.73
345.523	-36.86
345.735	-20.48
345.947	6.14
346.159	36.86
346.371	77.82
346.583	-45.06
346.795	102.4
347.007	26.62
347.219	-10.24
347.431	-2.05
347.643	77.82
347.855	49.15
348.067	94.21
348.279	-83.97
348.491	63.49
348.703	69.63
348.915	-49.15
349.127	-20.48
349.339	0
349.551	8.19
349.763	83.97
349.975	32.77
350.187	38.91
350.399	14.34
350.61	-34.82
350.822	6.14
351.034	69.63
351.246	73.73
351.458	34.82
351.669	-6.14
351.881	34.82
352.093	30.72
352.305	65.54
352.517	20.48
352.728	94.21
352.94	77.82
353.152	94.21
353.363	4.1
353.575	53.25
353.787	53.25
353.999	-4.1
354.21	83.97
354.422	49.15
354.633	6.14
354.845	22.53
355.057	16.38
355.268	12.29
355.48	67.58
355.692	32.77
355.903	20.48
356.115	98.3
356.326	-81.92
356.538	81.92
356.749	30.72
356.961	73.73
357.172	38.91
357.384	-4.1
357.595	73.73
357.807	45.06
358.018	47.1
358.23	61.44
358.441	135.17
358.653	59.39
358.864	28.67
359.075	16.38
359.287	81.92
359.498	69.63
359.709	55.3
359.921	22.53
360.132	53.25
360.344	63.49
360.555	18.43
360.766	77.82
360.977	4.1
361.189	69.63
361.4	20.48
361.611	36.86
361.823	63.49
362.034	36.86
362.245	-4.1
362.456	47.1
362.667	26.62
362.879	73.73
363.09	4.1
363.301	79.87
363.512	-24.58
363.723	40.96
363.935	-47.1
364.146	45.06
364.357	24.58
364.568	-12.29
364.779	81.92
364.99	83.97
365.201	36.86
365.412	57.34
365.623	53.25
365.834	47.1
366.045	34.82
366.256	81.92
366.467	-16.38
366.678	34.82
366.889	8.19
367.1	57.34
367.311	32.77
367.522	20.48
367.733	61.44
367.944	20.48
368.155	45.06
368.366	20.48
368.577	86.01
368.788	14.34
368.999	-28.67
369.209	20.48
369.42	94.21
369.631	71.68
369.842	22.53
370.053	77.82
370.264	28.67
370.474	-16.38
370.685	53.25
370.896	45.06
371.107	112.64
371.317	81.92
371.528	30.72
371.739	36.86
371.95	-4.1
372.16	118.78
372.371	-4.1
372.582	45.06
372.792	71.68
373.003	61.44
373.214	67.58
373.424	100.35
373.635	45.06
373.846	94.21
374.056	8.19
374.267	36.86
374.477	36.86
374.688	-2.05
374.898	12.29
375.109	28.67
375.319	86.01
375.53	30.72
375.74	61.44
375.951	16.38
376.161	-43.01
376.372	43.01
376.582	34.82
376.793	63.49
377.003	10.24
377.214	32.77
377.424	43.01
377.635	43.01
377.845	69.63
378.055	45.06
378.266	20.48
378.476	69.63
378.686	28.67
378.897	36.86
379.107	-26.62
379.317	69.63
379.528	20.48
379.738	71.68
379.948	8.19
380.158	65.54
380.369	30.72
380.579	51.2
380.789	55.3
380.999	-12.29
381.21	110.59
381.42	94.21
381.63	40.96
381.84	104.45
382.05	8.19
382.261	86.01
382.471	102.4
382.681	0
382.891	79.87
383.101	12.29
383.311	-69.63
383.521	73.73
383.731	126.97
383.941	79.87
384.151	-10.24
384.361	-49.15
384.571	83.97
384.781	-28.67
384.991	40.96
385.201	139.26
385.411	77.82
385.621	32.77
385.831	120.83
386.041	47.1
386.251	63.49
386.461	69.63
386.671	22.53
386.881	53.25
387.091	53.25
387.301	18.43
387.511	28.67
387.72	36.86
387.93	55.3
388.14	47.1
388.35	51.2
388.56	79.87
388.769	86.01
388.979	47.1
389.189	22.53
389.399	69.63
389.609	71.68
389.818	45.06
390.028	18.43
390.238	104.45
390.447	16.38
390.657	137.21
390.867	71.68
391.076	59.39
391.286	96.25
391.496	75.77
391.705	47.1
391.915	67.58
392.125	53.25
392.334	-4.1
392.544	88.06
392.753	122.88
392.963	38.91
393.172	24.58
393.382	26.62
393.591	208.89
393.801	49.15
394.01	30.72
394.22	129.02
394.429	-4.1
394.639	71.68
394.848	45.06
395.058	114.69
395.267	53.25
395.477	141.31
395.686	45.06
395.895	110.59
396.105	167.93
396.314	45.06
396.524	145.41
396.733	34.82
396.942	77.82
397.152	53.25
397.361	135.17
397.57	77.82
397.78	118.78
397.989	96.25
398.198	120.83
398.407	94.21
398.617	116.73
398.826	63.49
399.035	36.86
399.244	155.65
399.453	120.83
399.663	118.78
399.872	153.6
400.081	-2.05
400.29	133.12
400.499	67.58
400.708	147.45
400.917	20.48
401.127	61.44
401.336	163.84
401.545	120.83
401.754	172.03
401.963	139.26
402.172	98.3
402.381	53.25
402.59	65.54
402.799	69.63
403.008	124.93
403.217	180.22
403.426	139.26
403.635	59.39
403.844	98.3
404.053	120.83
404.262	153.6
404.471	180.22
404.68	120.83
404.888	63.49
405.097	161.79
405.306	120.83
405.515	141.31
405.724	86.01
405.933	208.89
406.142	176.13
406.35	141.31
406.559	159.74
406.768	172.03
406.977	266.24
407.185	290.81
407.394	239.61
407.603	225.28
407.812	139.26
408.02	202.75
408.229	227.32
408.438	215.04
408.646	159.74
408.855	227.32
409.064	294.91
409.272	266.24
409.481	299
409.69	262.14
409.898	307.2
410.107	292.86
410.315	299
410.524	352.25
410.733	389.11
410.941	301.05
411.15	389.11
411.358	413.69
411.567	403.45
411.775	438.27
411.984	391.16
412.192	397.31
412.401	321.53
412.609	475.13
412.818	421.88
413.026	499.7
413.234	602.1
413.443	485.37
413.651	489.46
413.86	593.91
414.068	671.73
414.276	638.97
414.485	661.49
414.693	618.49
414.901	702.45
415.11	667.64
415.318	735.22
415.526	724.98
415.734	757.75
415.943	794.61
416.151	888.82
416.359	888.82
416.567	819.19
416.776	921.59
416.984	940.02
417.192	1056.75
417.4	1062.9
417.608	913.39
417.817	1077.23
418.025	1126.38
418.233	1167.34
418.441	1138.67
418.649	1134.57
418.857	1314.8
419.065	1384.43
419.273	1230.83
419.481	1355.76
419.689	1525.74
419.897	1439.72
420.105	1521.64
420.313	1540.07
420.521	1658.85
420.729	1701.86
420.937	1628.14
421.145	1822.69
421.353	1970.15
421.561	1941.47
421.769	2021.35
421.977	2052.06
422.185	2093.02
422.393	2168.8
422.601	2346.97
422.809	2379.74
423.017	2392.03
423.224	2459.61
423.432	2752.47
423.64	2516.95
423.848	2785.24
424.056	2596.82
424.263	2879.44
424.471	2944.98
424.679	2908.12
424.887	3164.11
425.094	3270.61
425.302	3110.86
425.51	3489.74
425.718	3547.08
425.925	3461.07
426.133	3559.37
426.341	3897.28
426.548	4034.5
426.756	4028.35
426.964	3960.77
427.171	4265.92
427.379	4358.08
427.586	4407.23
427.794	4587.45
428.001	4800.44
428.209	5042.1
428.417	4919.22
428.624	5230.51
428.832	5304.24
429.039	5296.05
429.247	5320.62
429.454	5631.91
429.662	6219.68
429.869	5689.26
430.076	6152.1
430.284	5945.25
430.491	6303.65
430.699	6657.95
430.906	6696.86
431.114	6717.34
431.321	6735.77
431.528	7075.73
431.736	7497.61
431.943	7552.91
432.15	7569.29
432.358	7597.96
432.565	8273.79
432.772	7868.3
432.979	8304.51
433.187	8558.46
433.394	8609.66
433.601	9359.22
433.808	9271.15
434.016	9183.09
434.223	9518.96
434.43	10139.49
434.637	9949.03
434.844	10542.94
435.052	10747.74
435.259	10448.74
435.466	10708.83
435.673	10514.27
435.88	11165.53
436.087	11980.62
436.294	11870.03
436.501	11636.56
436.708	11837.26
436.915	12021.58
437.122	12861.24
437.329	12506.95
437.537	13037.37
437.743	13346.61
437.95	13254.45
438.157	13831.98
438.364	14268.2
438.571	14380.84
438.778	14343.97
438.985	15916.81
439.192	15109.91
439.399	15335.19
439.606	15095.58
439.813	16094.99
440.02	17071.87
440.227	16494.34
440.433	16627.46
440.64	17035
440.847	16944.89
441.054	17401.59
441.261	18632.42
441.467	18130.67
441.674	18464.49
441.881	19517.14
442.088	19203.8
442.294	19009.25
442.501	19404.5
442.708	19941.07
442.914	20739.78
443.121	21436.09
443.328	20993.73
443.534	22419.11
443.741	22011.57
443.948	21624.5
444.154	23123.62
444.361	22924.96
444.568	23309.98
444.774	23303.84
444.981	23342.75
445.187	23969.43
445.394	25036.42
445.6	24999.55
445.807	27154.02
446.013	25955.96
446.22	26564.2
446.426	27477.6
446.633	27512.41
446.839	28653.13
447.046	27547.23
447.252	29251.14
447.459	29025.86
447.665	28456.53
447.871	30107.19
448.078	31782.43
448.284	29740.6
448.491	30729.77
448.697	31919.64
448.903	32366.1
449.11	32362
449.316	31831.58
449.522	32460.3
449.728	33285.64
449.935	33484.29
450.141	33334.79
450.347	34397.68
450.553	33048.07
450.76	33586.69
450.966	34731.5
451.172	34471.41
451.378	35153.38
451.584	34893.29
451.791	35388.9
451.997	35538.4
452.203	35966.43
452.409	35896.8
452.615	35341.8
452.821	34182.65
453.027	34045.43
453.233	36169.18
453.44	34156.02
453.646	34858.48
453.852	34799.08
454.058	35415.52
454.264	34248.18
454.47	34852.33
454.676	33848.83
454.882	35071.46
455.088	32187.92
455.294	32456.21
455.5	33050.12
455.705	33347.08
455.911	31931.93
456.117	31516.19
456.323	30973.48
456.529	29679.16
456.735	30608.94
456.941	29881.91
457.147	29748.79
457.352	28257.87
457.558	28300.88
457.764	28114.51
457.97	27876.95
458.176	26789.48
458.381	27115.11
458.587	25441.92
458.793	25802.36
458.999	24233.61
459.204	26017.39
459.41	25337.47
459.616	23346.84
459.821	23512.73
460.027	23303.84
460.233	22650.53
460.438	21911.22
460.644	22099.63
460.85	21216.96
461.055	20770.5
461.261	20580.04
461.466	18876.13
461.672	18435.81
461.878	20104.91
462.083	18695.91
462.289	18179.82
462.494	18050.8
462.7	17305.34
462.905	16416.52
463.111	17108.73
463.316	17139.45
463.522	16717.57
463.727	17075.96
463.932	16916.22
464.138	16723.71
464.343	16631.55
464.549	16344.84
464.754	16930.56
464.959	16785.15
465.165	16494.34
465.37	15759.12
465.575	15515.41
465.781	16066.31
465.986	16277.26
466.191	15386.39
466.397	15111.96
466.602	14415.65
466.807	14915.36
467.012	15019.8
467.218	14737.18
467.423	14561.06
467.628	14753.57
467.833	15286.04
