Data from USB4F104151__188__14-32-58-281.txt Node

Date: Thu Mar 13 14:32:58 EDT 2025
User: louis
Spectrometer: USB4F10415
Trigger mode: 4
Integration Time (sec): 2.500000E-2
Scans to average: 1
Electric dark correction enabled: true
Nonlinearity correction enabled: false
Boxcar width: 0
XAxis mode: Wavelengths
Number of Pixels in Spectrum: 3648
>>>>>Begin Spectral Data<<<<<
178.204	-41.98
178.424	-41.98
178.644	-41.98
178.864	-152.57
179.084	-191.49
179.304	-70.65
179.524	-41.98
179.744	-1.02
179.964	21.5
180.184	-25.6
180.404	37.89
180.624	19.46
180.844	-9.22
181.064	9.22
181.283	60.42
181.503	-44.03
181.723	44.03
181.943	-11.26
182.163	72.7
182.383	-78.85
182.602	80.89
182.822	64.51
183.042	-17.41
183.262	-7.17
183.482	44.03
183.701	-50.18
183.921	13.31
184.141	21.5
184.361	113.66
184.58	-29.7
184.8	-27.65
185.02	21.5
185.239	39.94
185.459	23.55
185.679	27.65
185.898	31.74
186.118	31.74
186.338	33.79
186.557	64.51
186.777	-74.75
186.997	19.46
187.216	-5.12
187.436	64.51
187.655	27.65
187.875	111.61
188.095	5.12
188.314	39.94
188.534	19.46
188.753	-11.26
188.973	52.22
189.192	39.94
189.412	-13.31
189.631	3.07
189.851	13.31
190.07	70.65
190.29	-13.31
190.509	29.7
190.729	5.12
190.948	46.08
191.168	119.81
191.387	5.12
191.607	35.84
191.826	15.36
192.045	19.46
192.265	-21.5
192.484	1.02
192.704	19.46
192.923	-19.46
193.142	87.04
193.362	35.84
193.581	113.66
193.8	46.08
194.02	11.26
194.239	7.17
194.458	84.99
194.678	68.61
194.897	84.99
195.116	3.07
195.335	-5.12
195.555	68.61
195.774	93.18
195.993	48.13
196.212	27.65
196.432	-9.22
196.651	50.18
196.87	70.65
197.089	78.85
197.308	68.61
197.528	13.31
197.747	19.46
197.966	-9.22
198.185	54.27
198.404	35.84
198.623	27.65
198.842	64.51
199.062	41.98
199.281	15.36
199.5	-11.26
199.719	13.31
199.938	95.23
200.157	80.89
200.376	11.26
200.595	25.6
200.814	56.32
201.033	27.65
201.252	103.42
201.471	52.22
201.69	52.22
201.909	19.46
202.128	46.08
202.347	-19.46
202.566	64.51
202.785	-13.31
203.004	37.89
203.223	187.39
203.442	29.7
203.661	11.26
203.879	3.07
204.098	52.22
204.317	-1.02
204.536	52.22
204.755	23.55
204.974	84.99
205.193	-13.31
205.411	158.72
205.63	-54.27
205.849	-11.26
206.068	17.41
206.287	-23.55
206.505	19.46
206.724	64.51
206.943	5.12
207.162	64.51
207.381	99.33
207.599	56.32
207.818	37.89
208.037	37.89
208.255	35.84
208.474	-37.89
208.693	1.02
208.911	-9.22
209.13	70.65
209.349	-21.5
209.567	-21.5
209.786	52.22
210.005	27.65
210.223	21.5
210.442	-54.27
210.661	-5.12
210.879	-48.13
211.098	39.94
211.316	52.22
211.535	31.74
211.753	21.5
211.972	111.61
212.191	39.94
212.409	27.65
212.628	25.6
212.846	-37.89
213.065	-31.74
213.283	62.46
213.502	-5.12
213.72	50.18
213.938	105.47
214.157	27.65
214.375	39.94
214.594	5.12
214.812	54.27
215.031	-54.27
215.249	27.65
215.467	52.22
215.686	7.17
215.904	5.12
216.122	-3.07
216.341	19.46
216.559	-19.46
216.778	44.03
216.996	58.37
217.214	13.31
217.432	19.46
217.651	13.31
217.869	52.22
218.087	19.46
218.306	-13.31
218.524	103.42
218.742	15.36
218.96	27.65
219.179	-29.7
219.397	15.36
219.615	117.76
219.833	39.94
220.051	-37.89
220.27	62.46
220.488	70.65
220.706	29.7
220.924	66.56
221.142	-52.22
221.36	-3.07
221.578	21.5
221.796	7.17
222.015	66.56
222.233	-21.5
222.451	109.57
222.669	-5.12
222.887	80.89
223.105	-41.98
223.323	54.27
223.541	19.46
223.759	76.8
223.977	-19.46
224.195	95.23
224.413	29.7
224.631	-1.02
224.849	27.65
225.067	-5.12
225.285	56.32
225.503	35.84
225.721	-29.7
225.939	44.03
226.157	64.51
226.375	62.46
226.592	-50.18
226.81	-11.26
227.028	27.65
227.246	-13.31
227.464	-13.31
227.682	52.22
227.9	-11.26
228.117	37.89
228.335	91.13
228.553	7.17
228.771	19.46
228.989	39.94
229.206	46.08
229.424	-31.74
229.642	27.65
229.86	62.46
230.077	7.17
230.295	-37.89
230.513	64.51
230.731	46.08
230.948	27.65
231.166	117.76
231.384	15.36
231.601	25.6
231.819	-13.31
232.037	19.46
232.254	35.84
232.472	62.46
232.689	72.7
232.907	87.04
233.125	68.61
233.342	39.94
233.56	-13.31
233.777	78.85
233.995	-5.12
234.213	93.18
234.43	-52.22
234.648	62.46
234.865	35.84
235.083	60.42
235.3	52.22
235.518	125.95
235.735	93.18
235.953	54.27
236.17	23.55
236.388	27.65
236.605	76.8
236.822	19.46
237.04	48.13
237.257	19.46
237.475	35.84
237.692	27.65
237.909	27.65
238.127	60.42
238.344	78.85
238.562	44.03
238.779	-109.57
238.996	-60.42
239.214	78.85
239.431	72.7
239.648	-21.5
239.865	-1.02
240.083	76.8
240.3	54.27
240.517	-29.7
240.735	-1.02
240.952	76.8
241.169	60.42
241.386	19.46
241.603	105.47
241.821	5.12
242.038	31.74
242.255	84.99
242.472	-5.12
242.689	95.23
242.907	27.65
243.124	-11.26
243.341	39.94
243.558	-9.22
243.775	-29.7
243.992	-48.13
244.209	7.17
244.426	78.85
244.643	35.84
244.86	35.84
245.078	52.22
245.295	3.07
245.512	23.55
245.729	-27.65
245.946	35.84
246.163	39.94
246.38	54.27
246.597	-5.12
246.814	3.07
247.031	78.85
247.248	31.74
247.464	46.08
247.681	70.65
247.898	54.27
248.115	56.32
248.332	7.17
248.549	72.7
248.766	113.66
248.983	62.46
249.2	109.57
249.417	35.84
249.633	27.65
249.85	111.61
250.067	44.03
250.284	29.7
250.501	-1.02
250.717	50.18
250.934	19.46
251.151	37.89
251.368	19.46
251.585	35.84
251.801	-27.65
252.018	-37.89
252.235	15.36
252.451	-5.12
252.668	-25.6
252.885	76.8
253.102	-19.46
253.318	-21.5
253.535	68.61
253.752	31.74
253.968	-31.74
254.185	-31.74
254.401	7.17
254.618	39.94
254.835	11.26
255.051	130.05
255.268	68.61
255.484	72.7
255.701	48.13
255.917	-5.12
256.134	-58.37
256.351	54.27
256.567	-78.85
256.784	48.13
257	-37.89
257.217	87.04
257.433	54.27
257.65	62.46
257.866	62.46
258.082	-33.79
258.299	11.26
258.515	48.13
258.732	-17.41
258.948	7.17
259.165	33.79
259.381	80.89
259.597	11.26
259.814	-46.08
260.03	37.89
260.246	44.03
260.463	-9.22
260.679	84.99
260.895	-11.26
261.112	31.74
261.328	-37.89
261.544	-13.31
261.761	91.13
261.977	-91.13
262.193	-52.22
262.409	23.55
262.626	97.28
262.842	46.08
263.058	1.02
263.274	1.02
263.49	11.26
263.707	5.12
263.923	44.03
264.139	-17.41
264.355	13.31
264.571	111.61
264.787	-29.7
265.004	93.18
265.22	-19.46
265.436	109.57
265.652	33.79
265.868	60.42
266.084	54.27
266.3	19.46
266.516	7.17
266.732	-46.08
266.948	60.42
267.164	56.32
267.38	76.8
267.596	68.61
267.812	84.99
268.028	52.22
268.244	5.12
268.46	3.07
268.676	27.65
268.892	19.46
269.108	-29.7
269.324	5.12
269.54	13.31
269.756	11.26
269.972	-44.03
270.188	3.07
270.403	-52.22
270.619	60.42
270.835	89.09
271.051	11.26
271.267	-27.65
271.483	3.07
271.698	48.13
271.914	66.56
272.13	21.5
272.346	-19.46
272.562	-70.65
272.777	33.79
272.993	-13.31
273.209	5.12
273.425	29.7
273.64	-1.02
273.856	76.8
274.072	31.74
274.287	19.46
274.503	19.46
274.719	76.8
274.934	-50.18
275.15	-41.98
275.366	52.22
275.581	3.07
275.797	48.13
276.012	27.65
276.228	29.7
276.444	87.04
276.659	19.46
276.875	50.18
277.09	-3.07
277.306	23.55
277.521	19.46
277.737	35.84
277.952	76.8
278.168	21.5
278.383	-1.02
278.599	117.76
278.814	62.46
279.03	68.61
279.245	29.7
279.461	-27.65
279.676	52.22
279.892	13.31
280.107	-37.89
280.322	-37.89
280.538	35.84
280.753	70.65
280.969	-21.5
281.184	23.55
281.399	158.72
281.615	52.22
281.83	56.32
282.045	15.36
282.26	-13.31
282.476	5.12
282.691	-50.18
282.906	46.08
283.122	134.14
283.337	27.65
283.552	76.8
283.767	11.26
283.983	87.04
284.198	7.17
284.413	-31.74
284.628	-13.31
284.843	109.57
285.058	31.74
285.274	21.5
285.489	-37.89
285.704	29.7
285.919	-1.02
286.134	37.89
286.349	68.61
286.564	27.65
286.779	162.81
286.995	60.42
287.21	15.36
287.425	-21.5
287.64	-37.89
287.855	15.36
288.07	3.07
288.285	19.46
288.5	87.04
288.715	37.89
288.93	-7.17
289.145	-21.5
289.36	35.84
289.575	19.46
289.79	15.36
290.004	-46.08
290.219	23.55
290.434	44.03
290.649	-39.94
290.864	76.8
291.079	93.18
291.294	76.8
291.509	-62.46
291.724	50.18
291.938	21.5
292.153	93.18
292.368	1.02
292.583	48.13
292.798	3.07
293.012	111.61
293.227	52.22
293.442	-35.84
293.657	13.31
293.871	52.22
294.086	19.46
294.301	68.61
294.516	76.8
294.73	27.65
294.945	-7.17
295.16	19.46
295.374	58.37
295.589	-44.03
295.804	21.5
296.018	60.42
296.233	21.5
296.447	27.65
296.662	-1.02
296.877	72.7
297.091	11.26
297.306	27.65
297.52	-11.26
297.735	13.31
297.949	-9.22
298.164	78.85
298.378	48.13
298.593	11.26
298.807	-35.84
299.022	-13.31
299.236	78.85
299.451	-25.6
299.665	39.94
299.88	62.46
300.094	39.94
300.309	46.08
300.523	11.26
300.737	-7.17
300.952	-1.02
301.166	119.81
301.381	3.07
301.595	-93.18
301.809	35.84
302.024	84.99
302.238	68.61
302.452	60.42
302.667	35.84
302.881	35.84
303.095	44.03
303.309	35.84
303.524	-35.84
303.738	-13.31
303.952	21.5
304.166	60.42
304.381	-1.02
304.595	35.84
304.809	-31.74
305.023	7.17
305.237	72.7
305.452	44.03
305.666	-5.12
305.88	84.99
306.094	-5.12
306.308	11.26
306.522	52.22
306.736	52.22
306.95	23.55
307.164	50.18
307.379	3.07
307.593	41.98
307.807	-13.31
308.021	-5.12
308.235	21.5
308.449	27.65
308.663	82.94
308.877	111.61
309.091	-1.02
309.305	31.74
309.519	-7.17
309.733	117.76
309.947	-27.65
310.161	46.08
310.374	70.65
310.588	19.46
310.802	93.18
311.016	-17.41
311.23	70.65
311.444	39.94
311.658	23.55
311.872	19.46
312.085	76.8
312.299	39.94
312.513	93.18
312.727	15.36
312.941	-15.36
313.154	68.61
313.368	52.22
313.582	31.74
313.796	35.84
314.009	27.65
314.223	80.89
314.437	76.8
314.651	70.65
314.864	27.65
315.078	80.89
315.292	-5.12
315.505	31.74
315.719	74.75
315.933	39.94
316.146	78.85
316.36	-46.08
316.573	64.51
316.787	-5.12
317.001	31.74
317.214	-29.7
317.428	15.36
317.641	33.79
317.855	-82.94
318.068	-25.6
318.282	31.74
318.495	21.5
318.709	84.99
318.922	11.26
319.136	72.7
319.349	21.5
319.563	21.5
319.776	15.36
319.99	80.89
320.203	78.85
320.417	5.12
320.63	52.22
320.843	134.14
321.057	23.55
321.27	41.98
321.483	17.41
321.697	44.03
321.91	119.81
322.124	46.08
322.337	21.5
322.55	-41.98
322.763	17.41
322.977	29.7
323.19	66.56
323.403	-7.17
323.617	29.7
323.83	52.22
324.043	-25.6
324.256	21.5
324.469	19.46
324.683	11.26
324.896	-3.07
325.109	58.37
325.322	-29.7
325.535	54.27
325.748	93.18
325.962	64.51
326.175	5.12
326.388	95.23
326.601	19.46
326.814	66.56
327.027	105.47
327.24	103.42
327.453	-54.27
327.666	44.03
327.879	72.7
328.092	27.65
328.305	-29.7
328.518	-3.07
328.731	-29.7
328.944	95.23
329.157	99.33
329.37	3.07
329.583	107.52
329.796	101.37
330.009	72.7
330.222	52.22
330.435	105.47
330.648	35.84
330.861	78.85
331.073	-19.46
331.286	72.7
331.499	64.51
331.712	-11.26
331.925	31.74
332.138	-5.12
332.35	87.04
332.563	-103.42
332.776	119.81
332.989	27.65
333.202	56.32
333.414	68.61
333.627	35.84
333.84	23.55
334.053	13.31
334.265	13.31
334.478	3.07
334.691	-1.02
334.903	7.17
335.116	-3.07
335.329	35.84
335.541	52.22
335.754	62.46
335.966	17.41
336.179	-5.12
336.392	31.74
336.604	19.46
336.817	103.42
337.029	97.28
337.242	54.27
337.454	89.09
337.667	-3.07
337.88	52.22
338.092	70.65
338.305	70.65
338.517	54.27
338.729	31.74
338.942	105.47
339.154	-58.37
339.367	68.61
339.579	68.61
339.792	-5.12
340.004	35.84
340.217	70.65
340.429	27.65
340.641	68.61
340.854	-9.22
341.066	76.8
341.278	35.84
341.491	21.5
341.703	11.26
341.915	-29.7
342.128	11.26
342.34	-78.85
342.552	52.22
342.764	13.31
342.977	68.61
343.189	23.55
343.401	-3.07
343.613	37.89
343.826	31.74
344.038	-27.65
344.25	27.65
344.462	7.17
344.674	130.05
344.886	-5.12
345.099	111.61
345.311	97.28
345.523	27.65
345.735	13.31
345.947	103.42
346.159	27.65
346.371	-9.22
346.583	-3.07
346.795	56.32
347.007	-37.89
347.219	46.08
347.431	15.36
347.643	113.66
347.855	19.46
348.067	23.55
348.279	5.12
348.491	82.94
348.703	80.89
348.915	44.03
349.127	15.36
349.339	60.42
349.551	-25.6
349.763	70.65
349.975	70.65
350.187	93.18
350.399	70.65
350.61	-5.12
350.822	5.12
351.034	31.74
351.246	68.61
351.458	13.31
351.669	48.13
351.881	68.61
352.093	117.76
352.305	11.26
352.517	-1.02
352.728	80.89
352.94	17.41
353.152	11.26
353.363	-11.26
353.575	27.65
353.787	35.84
353.999	54.27
354.21	5.12
354.422	19.46
354.633	46.08
354.845	29.7
355.057	1.02
355.268	52.22
355.48	95.23
355.692	19.46
355.903	-1.02
356.115	5.12
356.326	-1.02
356.538	128
356.749	93.18
356.961	11.26
357.172	13.31
357.384	-5.12
357.595	101.37
357.807	64.51
358.018	39.94
358.23	3.07
358.441	80.89
358.653	128
358.864	19.46
359.075	80.89
359.287	23.55
359.498	46.08
359.709	48.13
359.921	101.37
360.132	48.13
360.344	-23.55
360.555	52.22
360.766	41.98
360.977	21.5
361.189	130.05
361.4	-11.26
361.611	76.8
361.823	130.05
362.034	84.99
362.245	-5.12
362.456	21.5
362.667	70.65
362.879	39.94
363.09	35.84
363.301	17.41
363.512	23.55
363.723	54.27
363.935	27.65
364.146	58.37
364.357	97.28
364.568	60.42
364.779	-37.89
364.99	37.89
365.201	-9.22
365.412	97.28
365.623	46.08
365.834	97.28
366.045	19.46
366.256	33.79
366.467	87.04
366.678	17.41
366.889	68.61
367.1	44.03
367.311	25.6
367.522	11.26
367.733	84.99
367.944	76.8
368.155	-11.26
368.366	11.26
368.577	101.37
368.788	76.8
368.999	19.46
369.209	60.42
369.42	68.61
369.631	144.38
369.842	66.56
370.053	-1.02
370.264	76.8
370.474	19.46
370.685	84.99
370.896	35.84
371.107	35.84
371.317	66.56
371.528	50.18
371.739	89.09
371.95	46.08
372.16	33.79
372.371	13.31
372.582	-23.55
372.792	89.09
373.003	66.56
373.214	68.61
373.424	70.65
373.635	48.13
373.846	-3.07
374.056	39.94
374.267	3.07
374.477	95.23
374.688	78.85
374.898	84.99
375.109	27.65
375.319	21.5
375.53	136.19
375.74	37.89
375.951	29.7
376.161	62.46
376.372	64.51
376.582	19.46
376.793	130.05
377.003	27.65
377.214	62.46
377.424	-9.22
377.635	93.18
377.845	39.94
378.055	99.33
378.266	52.22
378.476	80.89
378.686	56.32
378.897	72.7
379.107	-5.12
379.317	95.23
379.528	44.03
379.738	87.04
379.948	-82.94
380.158	72.7
380.369	46.08
380.579	-3.07
380.789	35.84
380.999	80.89
381.21	68.61
381.42	52.22
381.63	52.22
381.84	76.8
382.05	64.51
382.261	29.7
382.471	103.42
382.681	62.46
382.891	76.8
383.101	27.65
383.311	41.98
383.521	11.26
383.731	23.55
383.941	44.03
384.151	101.37
384.361	29.7
384.571	31.74
384.781	107.52
384.991	101.37
385.201	27.65
385.411	130.05
385.621	101.37
385.831	46.08
386.041	62.46
386.251	39.94
386.461	121.85
386.671	95.23
386.881	89.09
387.091	60.42
387.301	109.57
387.511	80.89
387.72	76.8
387.93	48.13
388.14	-17.41
388.35	41.98
388.56	64.51
388.769	72.7
388.979	132.09
389.189	44.03
389.399	84.99
389.609	19.46
389.818	117.76
390.028	138.24
390.238	105.47
390.447	37.89
390.657	72.7
390.867	39.94
391.076	-13.31
391.286	76.8
391.496	19.46
391.705	93.18
391.915	175.1
392.125	87.04
392.334	-15.36
392.544	76.8
392.753	138.24
392.963	76.8
393.172	29.7
393.382	-37.89
393.591	140.29
393.801	52.22
394.01	111.61
394.22	80.89
394.429	72.7
394.639	11.26
394.848	44.03
395.058	99.33
395.267	-9.22
395.477	76.8
395.686	162.81
395.895	234.49
396.105	84.99
396.314	72.7
396.524	97.28
396.733	48.13
396.942	52.22
397.152	56.32
397.361	119.81
397.57	13.31
397.78	101.37
397.989	91.13
398.198	125.95
398.407	121.85
398.617	35.84
398.826	101.37
399.035	93.18
399.244	134.14
399.453	123.9
399.663	156.67
399.872	134.14
400.081	109.57
400.29	185.34
400.499	121.85
400.708	109.57
400.917	156.67
401.127	84.99
401.336	99.33
401.545	113.66
401.754	82.94
401.963	76.8
402.172	105.47
402.381	93.18
402.59	138.24
402.799	84.99
403.008	209.92
403.217	93.18
403.426	101.37
403.635	11.26
403.844	134.14
404.053	84.99
404.262	128
404.471	193.53
404.68	222.2
404.888	101.37
405.097	101.37
405.306	183.29
405.515	205.82
405.724	199.68
405.933	158.72
406.142	76.8
406.35	160.77
406.559	275.45
406.768	179.2
406.977	171.01
407.185	259.07
407.394	218.11
407.603	238.59
407.812	228.35
408.02	193.53
408.229	207.87
408.438	179.2
408.646	261.12
408.855	220.16
409.064	281.6
409.272	232.44
409.481	318.46
409.69	297.98
409.898	263.16
410.107	273.4
410.315	332.79
410.524	363.51
410.733	369.66
410.941	357.37
411.15	398.33
411.358	365.56
411.567	433.15
411.775	420.86
411.984	429.05
412.192	502.78
412.401	394.23
412.609	470.01
412.818	498.68
413.026	570.36
413.234	486.39
413.443	541.69
413.651	494.58
413.86	596.98
414.068	691.19
414.276	699.38
414.485	562.17
414.693	603.13
414.901	752.63
415.11	732.15
415.318	680.95
415.526	752.63
415.734	797.68
415.943	881.65
416.151	822.26
416.359	844.79
416.567	879.6
416.776	994.29
416.984	986.1
417.192	1102.83
417.4	1063.92
417.608	1125.36
417.817	1018.86
418.025	1133.55
418.233	1182.7
418.441	1121.26
418.649	1283.05
418.857	1293.29
419.065	1354.73
419.273	1297.39
419.481	1401.83
419.689	1520.62
419.897	1543.14
420.105	1534.95
420.313	1586.15
420.521	1627.11
420.729	1745.89
420.937	1764.33
421.145	1836
421.353	1960.93
421.561	2028.51
421.769	2018.27
421.977	2192.35
422.185	2083.81
422.393	2304.99
422.601	2376.67
422.809	2323.42
423.017	2370.52
423.224	2464.73
423.432	2634.71
423.64	2558.94
423.848	2755.54
424.056	2796.5
424.263	2960.34
424.471	2982.87
424.679	3169.23
424.887	3288.01
425.094	3408.84
425.302	3400.65
425.51	3509.19
425.718	3541.96
425.925	3705.8
426.133	3644.36
426.341	3982.28
426.548	4133.82
426.756	4060.1
426.964	4187.07
427.171	4406.2
427.379	4369.34
427.586	4557.75
427.794	4707.26
428.001	4924.34
428.209	5243.82
428.417	5082.03
428.624	5446.57
428.832	5352.37
429.039	5372.85
429.247	5411.76
429.454	5917.61
429.662	6382.49
429.869	5954.47
430.076	6382.49
430.284	6087.59
430.491	6400.93
430.699	6701.98
430.906	6638.49
431.114	6744.99
431.321	7224.21
431.528	7334.8
431.736	7435.15
431.943	7904.14
432.15	7691.15
432.358	7877.51
432.565	8317.83
432.772	8221.57
432.979	8547.2
433.187	8874.87
433.394	8735.61
433.601	9333.62
433.808	9499.5
434.016	9583.47
434.223	9872.23
434.43	10300.26
434.637	10355.55
434.844	10759
435.052	10873.69
435.259	10939.23
435.466	10883.93
435.673	11107.16
435.88	11553.62
436.087	12536.64
436.294	12178.25
436.501	11944.78
436.708	12356.42
436.915	12587.84
437.122	13261.62
437.329	13077.3
437.537	13443.89
437.743	13777.71
437.95	13734.7
438.157	14435.11
438.364	14750.49
438.571	14836.51
438.778	14912.28
438.985	16257.8
439.192	15620.88
439.399	15915.79
439.606	15805.2
439.813	16599.81
440.02	17560.31
440.227	17226.49
440.433	17099.52
440.64	17718
440.847	17292.02
441.054	17971.95
441.261	19141.34
441.467	18893.54
441.674	19426.01
441.881	20024.01
442.088	19868.37
442.294	19829.46
442.501	20116.17
442.708	20624.07
442.914	21240.51
443.121	22008.5
443.328	21754.55
443.534	23104.16
443.741	22528.68
443.948	22430.38
444.154	23960.21
444.361	23933.59
444.568	24048.27
444.774	23802.52
444.981	24056.46
445.187	24668.81
445.394	25879.16
445.6	25838.2
445.807	28097.11
446.013	26911.33
446.22	27441.76
446.426	28666.44
446.633	28480.08
446.839	29796.92
447.046	28418.64
447.252	29981.24
447.459	30130.74
447.665	29663.8
447.871	30954.02
448.078	32322.07
448.284	30892.58
448.491	31756.83
448.697	32807.44
448.903	33366.53
449.11	33552.9
449.316	33188.36
449.522	33546.75
449.728	34695.66
449.935	34662.9
450.141	34830.83
450.347	35316.2
450.553	34382.32
450.76	35054.06
450.966	35863
451.172	35836.38
451.378	36418
451.584	35961.31
451.791	36389.33
451.997	36553.17
452.203	37038.54
452.409	37167.56
452.615	36792.78
452.821	35293.67
453.027	35121.64
453.233	36878.8
453.44	35312.1
453.646	35447.27
453.852	35856.86
454.058	36436.44
454.264	35918.3
454.47	36016.6
454.676	35248.61
454.882	36657.62
455.088	33397.25
455.294	33464.83
455.5	34083.32
455.705	34552.3
455.911	33178.12
456.117	32436.75
456.323	32289.3
456.529	30513.71
456.735	31857.18
456.941	30923.3
457.147	30566.96
457.352	29583.93
457.558	29063.75
457.764	29364.8
457.97	28838.47
458.176	28035.67
458.381	28176.98
458.587	26681.96
458.793	26520.17
458.999	25188.99
459.204	27011.68
459.41	26458.73
459.616	24726.15
459.821	24361.61
460.027	24494.73
460.233	24113.81
460.438	22702.76
460.644	23339.68
460.85	21992.11
461.055	21619.38
461.261	21519.03
461.466	19847.89
461.672	19401.43
461.878	20550.34
462.083	19401.43
462.289	19143.39
462.494	18592.48
462.7	17640.18
462.905	17513.2
463.111	17969.9
463.316	18322.15
463.522	17976.05
463.727	17623.8
463.932	17554.16
464.138	17582.84
464.343	17636.08
464.549	17036.03
464.754	17402.61
464.959	17445.62
465.165	17275.64
465.37	16608
465.575	16347.91
465.781	16833.28
465.986	16755.46
466.191	16139.02
466.397	16053
466.602	15158.04
466.807	15747.86
467.012	15516.44
467.218	15512.34
467.423	15307.54
467.628	15455
