Data from USB4F104151__288__14-34-50-100.txt Node

Date: Thu Mar 13 14:34:50 EDT 2025
User: louis
Spectrometer: USB4F10415
Trigger mode: 4
Integration Time (sec): 2.500000E-2
Scans to average: 1
Electric dark correction enabled: true
Nonlinearity correction enabled: false
Boxcar width: 0
XAxis mode: Wavelengths
Number of Pixels in Spectrum: 3648
>>>>>Begin Spectral Data<<<<<
178.204	-189.95
178.424	-189.95
178.644	-189.95
178.864	-212.48
179.084	-120.32
179.304	6.66
179.524	18.94
179.744	18.94
179.964	37.38
180.184	-56.83
180.404	27.14
180.624	25.09
180.844	-58.88
181.064	-77.31
181.283	35.33
181.503	10.75
181.723	12.8
181.943	-87.55
182.163	18.94
182.383	35.33
182.602	20.99
182.822	10.75
183.042	6.66
183.262	4.61
183.482	6.66
183.701	-22.02
183.921	2.56
184.141	6.66
184.361	25.09
184.58	84.48
184.8	39.42
185.02	10.75
185.239	61.95
185.459	-26.11
185.679	72.19
185.898	25.09
186.118	47.62
186.338	6.66
186.557	35.33
186.777	20.99
186.997	25.09
187.216	47.62
187.436	39.42
187.655	72.19
187.875	35.33
188.095	-28.16
188.314	35.33
188.534	119.29
188.753	-19.97
188.973	35.33
189.192	29.18
189.412	16.9
189.631	59.9
189.851	27.14
190.07	45.57
190.29	-34.3
190.509	37.38
190.729	-3.58
190.948	35.33
191.168	111.1
191.387	78.33
191.607	-9.73
191.826	47.62
192.045	12.8
192.265	57.86
192.484	39.42
192.704	-58.88
192.923	-50.69
193.142	70.14
193.362	55.81
193.581	137.73
193.8	107.01
194.02	72.19
194.239	10.75
194.458	23.04
194.678	-11.78
194.897	31.23
195.116	-26.11
195.335	92.67
195.555	109.05
195.774	-3.58
195.993	20.99
196.212	68.09
196.432	35.33
196.651	2.56
196.87	-28.16
197.089	107.01
197.308	27.14
197.528	-22.02
197.747	-87.55
197.966	64
198.185	45.57
198.404	-54.78
198.623	53.76
198.842	-15.87
199.062	72.19
199.281	10.75
199.5	31.23
199.719	20.99
199.938	100.86
200.157	76.29
200.376	57.86
200.595	6.66
200.814	27.14
201.033	35.33
201.252	6.66
201.471	45.57
201.69	170.49
201.909	27.14
202.128	-44.54
202.347	68.09
202.566	43.52
202.785	-30.21
203.004	25.09
203.223	104.96
203.442	45.57
203.661	10.75
203.879	-32.26
204.098	18.94
204.317	-28.16
204.536	0.51
204.755	4.61
204.974	53.76
205.193	145.92
205.411	117.25
205.63	64
205.849	49.66
206.068	-60.93
206.287	55.81
206.505	92.67
206.724	2.56
206.943	35.33
207.162	-32.26
207.381	51.71
207.599	-5.63
207.818	-9.73
208.037	-65.02
208.255	35.33
208.474	-30.21
208.693	18.94
208.911	53.76
209.13	43.52
209.349	-52.74
209.567	27.14
209.786	10.75
210.005	4.61
210.223	18.94
210.442	-71.17
210.661	-5.63
210.879	49.66
211.098	53.76
211.316	27.14
211.535	12.8
211.753	-9.73
211.972	57.86
212.191	-5.63
212.409	70.14
212.628	27.14
212.846	-13.82
213.065	14.85
213.283	102.91
213.502	-5.63
213.72	57.86
213.938	47.62
214.157	20.99
214.375	4.61
214.594	10.75
214.812	64
215.031	25.09
215.249	-22.02
215.467	92.67
215.686	35.33
215.904	35.33
216.122	31.23
216.341	68.09
216.559	-17.92
216.778	96.77
216.996	47.62
217.214	18.94
217.432	25.09
217.651	-28.16
217.869	-19.97
218.087	18.94
218.306	-56.83
218.524	47.62
218.742	-67.07
218.96	64
219.179	43.52
219.397	-5.63
219.615	18.94
219.833	-22.02
220.051	12.8
220.27	96.77
220.488	27.14
220.706	18.94
220.924	23.04
221.142	20.99
221.36	78.33
221.578	-50.69
221.796	18.94
222.015	41.47
222.233	86.53
222.451	39.42
222.669	2.56
222.887	39.42
223.105	53.76
223.323	27.14
223.541	43.52
223.759	-9.73
223.977	-13.82
224.195	68.09
224.413	61.95
224.631	82.43
224.849	43.52
225.067	68.09
225.285	27.14
225.503	-65.02
225.721	-67.07
225.939	59.9
226.157	76.29
226.375	53.76
226.592	-17.92
226.81	53.76
227.028	76.29
227.246	29.18
227.464	18.94
227.682	43.52
227.9	-62.98
228.117	4.61
228.335	10.75
228.553	-44.54
228.771	59.9
228.989	94.72
229.206	109.05
229.424	-46.59
229.642	-3.58
229.86	-40.45
230.077	37.38
230.295	35.33
230.513	137.73
230.731	33.28
230.948	39.42
231.166	74.24
231.384	-30.21
231.601	27.14
231.819	127.49
232.037	-13.82
232.254	61.95
232.472	10.75
232.689	-13.82
232.907	96.77
233.125	-44.54
233.342	31.23
233.56	59.9
233.777	-5.63
233.995	-34.3
234.213	86.53
234.43	84.48
234.648	-5.63
234.865	59.9
235.083	29.18
235.3	51.71
235.518	109.05
235.735	121.34
235.953	27.14
236.17	-5.63
236.388	53.76
236.605	25.09
236.822	31.23
237.04	10.75
237.257	29.18
237.475	-101.89
237.692	-38.4
237.909	-85.5
238.127	35.33
238.344	-36.35
238.562	-28.16
238.779	18.94
238.996	10.75
239.214	39.42
239.431	70.14
239.648	10.75
239.865	18.94
240.083	68.09
240.3	43.52
240.517	6.66
240.735	-11.78
240.952	45.57
241.169	61.95
241.386	29.18
241.603	20.99
241.821	20.99
242.038	84.48
242.255	35.33
242.472	-19.97
242.689	43.52
242.907	12.8
243.124	-5.63
243.341	-54.78
243.558	2.56
243.775	2.56
243.992	-13.82
244.209	68.09
244.426	104.96
244.643	12.8
244.86	27.14
245.078	10.75
245.295	14.85
245.512	80.38
245.729	-32.26
245.946	45.57
246.163	27.14
246.38	-36.35
246.597	0.51
246.814	-15.87
247.031	51.71
247.248	20.99
247.464	35.33
247.681	80.38
247.898	64
248.115	29.18
248.332	51.71
248.549	104.96
248.766	111.1
248.983	35.33
249.2	74.24
249.417	45.57
249.633	23.04
249.85	8.7
250.067	10.75
250.284	27.14
250.501	86.53
250.717	61.95
250.934	37.38
251.151	-28.16
251.368	23.04
251.585	55.81
251.801	35.33
252.018	27.14
252.235	59.9
252.451	20.99
252.668	-30.21
252.885	18.94
253.102	37.38
253.318	27.14
253.535	-5.63
253.752	-19.97
253.968	-30.21
254.185	14.85
254.401	2.56
254.618	53.76
254.835	-69.12
255.051	27.14
255.268	14.85
255.484	4.61
255.701	-13.82
255.917	18.94
256.134	-71.17
256.351	-52.74
256.567	-3.58
256.784	14.85
257	-42.5
257.217	23.04
257.433	18.94
257.65	-26.11
257.866	68.09
258.082	4.61
258.299	55.81
258.515	37.38
258.732	-26.11
258.948	-44.54
259.165	29.18
259.381	-28.16
259.597	-28.16
259.814	39.42
260.03	10.75
260.246	8.7
260.463	37.38
260.679	100.86
260.895	92.67
261.112	61.95
261.328	45.57
261.544	27.14
261.761	68.09
261.977	68.09
262.193	80.38
262.409	-5.63
262.626	25.09
262.842	90.62
263.058	43.52
263.274	68.09
263.49	20.99
263.707	68.09
263.923	61.95
264.139	-22.02
264.355	43.52
264.571	51.71
264.787	10.75
265.004	-5.63
265.22	-15.87
265.436	4.61
265.652	27.14
265.868	39.42
266.084	14.85
266.3	12.8
266.516	41.47
266.732	14.85
266.948	12.8
267.164	18.94
267.38	49.66
267.596	84.48
267.812	92.67
268.028	55.81
268.244	29.18
268.46	72.19
268.676	2.56
268.892	94.72
269.108	27.14
269.324	23.04
269.54	-9.73
269.756	31.23
269.972	49.66
270.188	23.04
270.403	18.94
270.619	43.52
270.835	66.05
271.051	-11.78
271.267	47.62
271.483	2.56
271.698	31.23
271.914	51.71
272.13	-1.54
272.346	68.09
272.562	37.38
272.777	66.05
272.993	47.62
273.209	-1.54
273.425	-19.97
273.64	45.57
273.856	53.76
274.072	68.09
274.287	-3.58
274.503	72.19
274.719	76.29
274.934	-32.26
275.15	4.61
275.366	-19.97
275.581	-62.98
275.797	35.33
276.012	-1.54
276.228	-17.92
276.444	29.18
276.659	76.29
276.875	-46.59
277.09	18.94
277.306	70.14
277.521	49.66
277.737	55.81
277.952	27.14
278.168	-15.87
278.383	43.52
278.599	16.9
278.814	-15.87
279.03	76.29
279.245	76.29
279.461	-9.73
279.676	76.29
279.892	2.56
280.107	12.8
280.322	-5.63
280.538	18.94
280.753	80.38
280.969	82.43
281.184	-17.92
281.399	20.99
281.615	-48.64
281.83	-22.02
282.045	-62.98
282.26	18.94
282.476	-81.41
282.691	27.14
282.906	-34.3
283.122	2.56
283.337	-7.68
283.552	78.33
283.767	2.56
283.983	45.57
284.198	29.18
284.413	37.38
284.628	-54.78
284.843	51.71
285.058	10.75
285.274	27.14
285.489	-19.97
285.704	25.09
285.919	18.94
286.134	-22.02
286.349	-71.17
286.564	-22.02
286.779	64
286.995	47.62
287.21	-5.63
287.425	10.75
287.64	35.33
287.855	-36.35
288.07	37.38
288.285	92.67
288.5	31.23
288.715	27.14
288.93	72.19
289.145	-5.63
289.36	4.61
289.575	-5.63
289.79	0.51
290.004	4.61
290.219	80.38
290.434	-1.54
290.649	-46.59
290.864	55.81
291.079	2.56
291.294	45.57
291.509	10.75
291.724	-30.21
291.938	35.33
292.153	2.56
292.368	68.09
292.583	2.56
292.798	74.24
293.012	10.75
293.227	109.05
293.442	-36.35
293.657	27.14
293.871	53.76
294.086	27.14
294.301	88.57
294.516	-13.82
294.73	-26.11
294.945	-42.5
295.16	86.53
295.374	39.42
295.589	10.75
295.804	14.85
296.018	-1.54
296.233	135.68
296.447	47.62
296.662	-17.92
296.877	35.33
297.091	51.71
297.306	57.86
297.52	59.9
297.735	4.61
297.949	45.57
298.164	-65.02
298.378	35.33
298.593	4.61
298.807	-11.78
299.022	6.66
299.236	84.48
299.451	-13.82
299.665	55.81
299.88	-28.16
300.094	43.52
300.309	51.71
300.523	51.71
300.737	39.42
300.952	-13.82
301.166	10.75
301.381	-46.59
301.595	-46.59
301.809	33.28
302.024	-42.5
302.238	6.66
302.452	100.86
302.667	43.52
302.881	78.33
303.095	92.67
303.309	51.71
303.524	92.67
303.738	39.42
303.952	18.94
304.166	137.73
304.381	18.94
304.595	45.57
304.809	-22.02
305.023	61.95
305.237	-19.97
305.452	-13.82
305.666	27.14
305.88	16.9
306.094	76.29
306.308	4.61
306.522	-34.3
306.736	10.75
306.95	27.14
307.164	-11.78
307.379	70.14
307.593	84.48
307.807	43.52
308.021	86.53
308.235	51.71
308.449	-5.63
308.663	43.52
308.877	86.53
309.091	61.95
309.305	-9.73
309.519	25.09
309.733	104.96
309.947	-5.63
310.161	84.48
310.374	125.44
310.588	92.67
310.802	10.75
311.016	-7.68
311.23	64
311.444	-17.92
311.658	37.38
311.872	68.09
312.085	20.99
312.299	43.52
312.513	104.96
312.727	10.75
312.941	-19.97
313.154	31.23
313.368	8.7
313.582	10.75
313.796	41.47
314.009	10.75
314.223	59.9
314.437	31.23
314.651	4.61
314.864	18.94
315.078	12.8
315.292	53.76
315.505	20.99
315.719	2.56
315.933	76.29
316.146	-46.59
316.36	12.8
316.573	18.94
316.787	104.96
317.001	37.38
317.214	18.94
317.428	27.14
317.641	-9.73
317.855	12.8
318.068	27.14
318.282	10.75
318.495	14.85
318.709	61.95
318.922	31.23
319.136	137.73
319.349	59.9
319.563	72.19
319.776	-38.4
319.99	-3.58
320.203	-7.68
320.417	-52.74
320.63	70.14
320.843	59.9
321.057	6.66
321.27	61.95
321.483	-1.54
321.697	68.09
321.91	43.52
322.124	2.56
322.337	16.9
322.55	-36.35
322.763	121.34
322.977	12.8
323.19	23.04
323.403	117.25
323.617	35.33
323.83	109.05
324.043	18.94
324.256	14.85
324.469	-19.97
324.683	-7.68
324.896	76.29
325.109	10.75
325.322	-46.59
325.535	-3.58
325.748	61.95
325.962	39.42
326.175	-13.82
326.388	133.63
326.601	84.48
326.814	-11.78
327.027	0.51
327.24	102.91
327.453	-17.92
327.666	18.94
327.879	12.8
328.092	70.14
328.305	53.76
328.518	39.42
328.731	-5.63
328.944	-13.82
329.157	-9.73
329.37	55.81
329.583	80.38
329.796	18.94
330.009	-30.21
330.222	-22.02
330.435	78.33
330.648	68.09
330.861	61.95
331.073	86.53
331.286	31.23
331.499	-3.58
331.712	-79.36
331.925	72.19
332.138	76.29
332.35	141.82
332.563	-75.26
332.776	35.33
332.989	-17.92
333.202	4.61
333.414	-28.16
333.627	18.94
333.84	-5.63
334.053	-30.21
334.265	-3.58
334.478	-13.82
334.691	37.38
334.903	39.42
335.116	-22.02
335.329	51.71
335.541	-19.97
335.754	25.09
335.966	-17.92
336.179	70.14
336.392	0.51
336.604	-46.59
336.817	76.29
337.029	84.48
337.242	47.62
337.454	51.71
337.667	61.95
337.88	158.21
338.092	51.71
338.305	27.14
338.517	55.81
338.729	12.8
338.942	92.67
339.154	-40.45
339.367	-28.16
339.579	35.33
339.792	12.8
340.004	100.86
340.217	20.99
340.429	-36.35
340.641	14.85
340.854	-13.82
341.066	27.14
341.278	84.48
341.491	127.49
341.703	47.62
341.915	10.75
342.128	45.57
342.34	51.71
342.552	10.75
342.764	29.18
342.977	10.75
343.189	55.81
343.401	109.05
343.613	10.75
343.826	68.09
344.038	61.95
344.25	4.61
344.462	-22.02
344.674	43.52
344.886	35.33
345.099	59.9
345.311	39.42
345.523	45.57
345.735	18.94
345.947	74.24
346.159	53.76
346.371	59.9
346.583	29.18
346.795	145.92
347.007	2.56
347.219	29.18
347.431	29.18
347.643	43.52
347.855	51.71
348.067	109.05
348.279	14.85
348.491	43.52
348.703	14.85
348.915	59.9
349.127	-1.54
349.339	80.38
349.551	-5.63
349.763	45.57
349.975	-62.98
350.187	59.9
350.399	76.29
350.61	61.95
350.822	27.14
351.034	4.61
351.246	12.8
351.458	18.94
351.669	4.61
351.881	125.44
352.093	64
352.305	74.24
352.517	84.48
352.728	47.62
352.94	61.95
353.152	-40.45
353.363	31.23
353.575	51.71
353.787	102.91
353.999	39.42
354.21	119.29
354.422	18.94
354.633	66.05
354.845	55.81
355.057	35.33
355.268	45.57
355.48	59.9
355.692	-38.4
355.903	-24.06
356.115	-3.58
356.326	27.14
356.538	27.14
356.749	10.75
356.961	78.33
357.172	25.09
357.384	-26.11
357.595	111.1
357.807	-60.93
358.018	18.94
358.23	2.56
358.441	45.57
358.653	72.19
358.864	6.66
359.075	-9.73
359.287	10.75
359.498	66.05
359.709	86.53
359.921	43.52
360.132	82.43
360.344	29.18
360.555	-11.78
360.766	215.55
360.977	43.52
361.189	137.73
361.4	-22.02
361.611	111.1
361.823	45.57
362.034	76.29
362.245	-3.58
362.456	14.85
362.667	96.77
362.879	86.53
363.09	51.71
363.301	78.33
363.512	27.14
363.723	39.42
363.935	-9.73
364.146	27.14
364.357	12.8
364.568	53.76
364.779	-50.69
364.99	-5.63
365.201	-5.63
365.412	127.49
365.623	18.94
365.834	37.38
366.045	43.52
366.256	35.33
366.467	12.8
366.678	18.94
366.889	70.14
367.1	92.67
367.311	143.87
367.522	117.25
367.733	20.99
367.944	59.9
368.155	10.75
368.366	29.18
368.577	117.25
368.788	133.63
368.999	27.14
369.209	6.66
369.42	45.57
369.631	100.86
369.842	72.19
370.053	92.67
370.264	27.14
370.474	18.94
370.685	33.28
370.896	-13.82
371.107	-1.54
371.317	76.29
371.528	57.86
371.739	51.71
371.95	37.38
372.16	51.71
372.371	37.38
372.582	6.66
372.792	18.94
373.003	76.29
373.214	51.71
373.424	72.19
373.635	20.99
373.846	127.49
374.056	98.81
374.267	59.9
374.477	59.9
374.688	-22.02
374.898	55.81
375.109	72.19
375.319	66.05
375.53	96.77
375.74	37.38
375.951	76.29
376.161	51.71
376.372	64
376.582	18.94
376.793	61.95
377.003	43.52
377.214	-30.21
377.424	111.1
377.635	47.62
377.845	59.9
378.055	86.53
378.266	92.67
378.476	-5.63
378.686	35.33
378.897	104.96
379.107	29.18
379.317	76.29
379.528	-22.02
379.738	29.18
379.948	23.04
380.158	74.24
380.369	72.19
380.579	12.8
380.789	10.75
380.999	70.14
381.21	51.71
381.42	94.72
381.63	-11.78
381.84	23.04
382.05	76.29
382.261	27.14
382.471	47.62
382.681	-38.4
382.891	96.77
383.101	53.76
383.311	100.86
383.521	-5.63
383.731	84.48
383.941	68.09
384.151	33.28
384.361	10.75
384.571	59.9
384.781	84.48
384.991	61.95
385.201	113.15
385.411	70.14
385.621	53.76
385.831	43.52
386.041	47.62
386.251	78.33
386.461	61.95
386.671	25.09
386.881	59.9
387.091	100.86
387.301	125.44
387.511	41.47
387.72	117.25
387.93	154.11
388.14	70.14
388.35	2.56
388.56	158.21
388.769	92.67
388.979	51.71
389.189	20.99
389.399	51.71
389.609	109.05
389.818	68.09
390.028	-7.68
390.238	84.48
390.447	-3.58
390.657	72.19
390.867	-54.78
391.076	-28.16
391.286	76.29
391.496	39.42
391.705	10.75
391.915	113.15
392.125	59.9
392.334	45.57
392.544	72.19
392.753	45.57
392.963	18.94
393.172	70.14
393.382	68.09
393.591	117.25
393.801	-1.54
394.01	141.82
394.22	84.48
394.429	92.67
394.639	68.09
394.848	111.1
395.058	152.06
395.267	125.44
395.477	41.47
395.686	137.73
395.895	64
396.105	88.57
396.314	109.05
396.524	127.49
396.733	53.76
396.942	143.87
397.152	61.95
397.361	111.1
397.57	109.05
397.78	133.63
397.989	84.48
398.198	150.01
398.407	141.82
398.617	39.42
398.826	109.05
399.035	45.57
399.244	109.05
399.453	125.44
399.663	107.01
399.872	113.15
400.081	129.53
400.29	131.58
400.499	133.63
400.708	158.21
400.917	125.44
401.127	141.82
401.336	123.39
401.545	190.97
401.754	137.73
401.963	168.45
402.172	102.91
402.381	68.09
402.59	121.34
402.799	176.64
403.008	133.63
403.217	109.05
403.426	100.86
403.635	88.57
403.844	127.49
404.053	80.38
404.262	133.63
404.471	209.4
404.68	162.3
404.888	215.55
405.097	178.69
405.306	178.69
405.515	248.32
405.724	145.92
405.933	217.6
406.142	184.83
406.35	219.64
406.559	201.21
406.768	207.36
406.977	270.84
407.185	207.36
407.394	270.84
407.603	100.86
407.812	223.74
408.02	289.28
408.229	250.36
408.438	266.75
408.646	207.36
408.855	236.03
409.064	301.56
409.272	258.56
409.481	403.96
409.69	307.71
409.898	258.56
410.107	354.81
410.315	354.81
410.524	332.28
410.733	322.04
410.941	403.96
411.15	406.01
411.358	420.35
411.567	504.31
411.775	543.22
411.984	504.31
412.192	526.84
412.401	473.59
412.609	551.42
412.818	555.51
413.026	471.54
413.234	573.94
413.443	616.95
413.651	674.29
413.86	631.29
414.068	690.68
414.276	791.03
414.485	725.49
414.693	829.94
414.901	895.47
415.11	903.67
415.318	883.19
415.526	850.42
415.734	907.76
415.943	901.62
416.151	1016.3
416.359	985.58
416.567	1001.97
416.776	1006.06
416.984	1141.23
417.192	1145.33
417.4	1071.6
417.608	1159.66
417.817	1247.72
418.025	1298.92
418.233	1417.71
418.441	1323.5
418.649	1411.56
418.857	1450.47
419.065	1485.29
419.273	1509.86
419.481	1575.4
419.689	1690.09
419.897	1694.18
420.105	1821.16
420.313	1913.31
420.521	1907.17
420.729	1937.89
420.937	2034.14
421.145	2118.11
421.353	2238.94
421.561	2404.83
421.769	2347.48
421.977	2517.47
422.185	2484.7
422.393	2603.48
422.601	2640.34
422.809	2877.91
423.017	2744.79
423.224	2818.52
423.432	2861.52
423.64	3049.94
423.848	3262.93
424.056	3164.62
424.263	3459.53
424.471	3443.15
424.679	3486.15
424.887	3787.21
425.094	3779.01
425.302	3838.41
425.51	4000.19
425.718	4104.64
425.925	4121.03
426.133	4327.87
426.341	4467.13
426.548	4606.39
426.756	4712.89
426.964	4753.85
427.171	5179.82
427.379	5245.36
427.586	5296.56
427.794	5392.81
428.001	5585.32
428.209	6072.74
428.417	5853.61
428.624	6209.95
428.832	6181.28
429.039	6181.28
429.247	6277.54
429.454	6832.54
429.662	7186.83
429.869	6867.35
430.076	7225.75
430.284	6984.09
430.491	7301.52
430.699	7838.09
430.906	7739.79
431.114	7731.59
431.321	8182.15
431.528	8378.75
431.736	8898.94
431.943	9296.24
432.15	8989.05
432.358	8997.24
432.565	9662.83
432.772	9402.74
432.979	10023.27
433.187	10013.03
433.394	10039.65
433.601	10944.86
433.808	10883.42
434.016	10803.55
434.223	11372.88
434.43	12030.28
434.637	11737.42
434.844	12607.81
435.052	12564.8
435.259	12654.91
435.466	12822.84
435.673	12767.55
435.88	13457.71
436.087	14078.25
436.294	14129.45
436.501	13650.22
436.708	14289.19
436.915	14690.59
437.122	15192.34
437.329	15210.78
437.537	15763.73
437.743	15911.18
437.95	15728.91
438.157	16523.52
438.364	17076.48
438.571	16896.25
438.778	17201.4
438.985	18751.71
439.192	17793.26
439.399	18569.44
439.606	18174.19
439.813	19171.55
440.02	20271.31
440.227	20031.69
440.433	19605.72
440.64	20463.82
440.847	20398.28
441.054	20918.46
441.261	22349.99
441.467	21801.14
441.674	21928.11
441.881	23009.44
442.088	23068.83
442.294	22757.54
442.501	23394.46
442.708	23945.36
442.914	24608.9
443.121	25833.59
443.328	24975.49
443.534	26970.21
443.741	26050.67
443.948	25809.01
444.154	27650.14
444.361	27662.43
444.568	27527.26
444.774	27568.22
444.981	28164.18
445.187	28809.29
445.394	29816.89
445.6	29839.42
445.807	32319.51
446.013	31019.05
446.22	31459.36
446.426	33095.69
446.633	32659.47
446.839	34107.38
447.046	32921.61
447.252	34836.46
447.459	34709.49
447.665	34502.64
447.871	35753.95
448.078	37126.09
448.284	36100.06
448.491	36489.17
448.697	37812.16
448.903	38340.53
449.11	38571.96
449.316	37820.35
449.522	38901.68
449.728	39579.56
449.935	40165.28
450.141	40370.07
450.347	41017.23
450.553	39739.3
450.76	40415.13
450.966	41652.1
451.172	41080.72
451.378	42002.3
451.584	41025.42
451.791	42352.51
451.997	42239.87
452.203	42962.8
452.409	42616.69
452.615	42669.94
452.821	41351.05
453.027	40646.55
453.233	42735.48
453.44	41000.85
453.646	41211.79
453.852	41457.54
454.058	42258.3
454.264	41039.76
454.47	42231.68
454.676	40869.78
454.882	42268.54
455.088	38934.45
455.294	39069.61
455.5	39874.46
455.705	40222.62
455.911	38782.9
456.117	38203.32
456.323	37298.12
456.529	35411.94
456.735	37023.69
456.941	35856.35
457.147	35289.06
457.352	34154.49
457.558	33998.84
457.764	34361.33
457.97	33372.16
458.176	32514.06
458.381	32622.61
458.587	31023.14
458.793	30775.34
458.999	29438.01
459.204	31545.37
459.41	30720.04
459.616	28553.29
459.821	28555.34
460.027	28659.79
460.233	28000.34
460.438	26499.18
460.644	26746.98
460.85	25909.36
461.055	25256.06
461.261	25391.23
461.466	23318.68
461.672	22630.57
461.878	24166.54
462.083	22759.59
462.289	22046.9
462.494	21786.8
462.7	20764.87
462.905	20289.74
463.111	20859.07
463.316	21059.77
463.522	20367.56
463.727	20789.44
463.932	20734.15
464.138	20287.69
464.343	20433.1
464.549	19802.32
464.754	20730.05
464.959	20332.75
465.165	20156.62
465.37	19230.94
465.575	18807.01
465.781	19654.87
465.986	19327.19
466.191	18868.45
466.397	18657.51
