Data from USB4F104151__100__14-30-51-793.txt Node

Date: Thu Mar 13 14:30:51 EDT 2025
User: louis
Spectrometer: USB4F10415
Trigger mode: 4
Integration Time (sec): 2.500000E-2
Scans to average: 1
Electric dark correction enabled: true
Nonlinearity correction enabled: false
Boxcar width: 0
XAxis mode: Wavelengths
Number of Pixels in Spectrum: 3648
>>>>>Begin Spectral Data<<<<<
178.204	-157.52
178.424	-157.52
178.644	-157.52
178.864	-223.06
179.084	-157.52
179.304	22.7
179.524	6.31
179.744	-28.5
179.964	125.1
180.184	-20.31
180.404	-10.07
180.624	-28.5
180.844	34.99
181.064	-24.4
181.283	14.51
181.503	-100.18
181.723	8.36
181.943	-87.89
182.163	77.99
182.383	-32.6
182.602	-57.17
182.822	24.75
183.042	39.08
183.262	-36.69
183.482	-22.36
183.701	20.65
183.921	4.27
184.141	-10.07
184.361	18.6
184.58	14.51
184.8	-30.55
185.02	30.89
185.239	57.51
185.459	37.03
185.679	-10.07
185.898	-10.07
186.118	10.41
186.338	59.56
186.557	121
186.777	-10.07
186.997	14.51
187.216	-16.21
187.436	112.81
187.655	28.84
187.875	59.56
188.095	16.55
188.314	67.75
188.534	22.7
188.753	-65.36
188.973	61.61
189.192	-1.88
189.412	-26.45
189.631	-24.4
189.851	39.08
190.07	14.51
190.29	-30.55
190.509	-65.36
190.729	-22.36
190.948	71.85
191.168	80.04
191.387	63.66
191.607	-24.4
191.826	-59.22
192.045	-24.4
192.265	47.27
192.484	18.6
192.704	-24.4
192.923	-10.07
193.142	59.56
193.362	0.17
193.581	-10.07
193.8	22.7
194.02	67.75
194.239	18.6
194.458	-20.31
194.678	8.36
194.897	-14.17
195.116	59.56
195.335	-28.5
195.555	-1.88
195.774	41.13
195.993	6.31
196.212	2.22
196.432	-18.26
196.651	-16.21
196.87	45.23
197.089	80.04
197.308	-32.6
197.528	49.32
197.747	-65.36
197.966	59.56
198.185	45.23
198.404	-48.98
198.623	-16.21
198.842	22.7
199.062	47.27
199.281	-8.02
199.5	30.89
199.719	-1.88
199.938	24.75
200.157	39.08
200.376	-12.12
200.595	71.85
200.814	16.55
201.033	0.17
201.252	-55.12
201.471	77.99
201.69	108.71
201.909	-12.12
202.128	65.71
202.347	-65.36
202.566	-59.22
202.785	8.36
203.004	-1.88
203.223	34.99
203.442	39.08
203.661	10.41
203.879	-20.31
204.098	-3.93
204.317	-18.26
204.536	22.7
204.755	-5.97
204.974	55.47
205.193	-24.4
205.411	6.31
205.63	34.99
205.849	-51.03
206.068	-28.5
206.287	-32.6
206.505	45.23
206.724	59.56
206.943	22.7
207.162	24.75
207.381	26.79
207.599	-10.07
207.818	8.36
208.037	22.7
208.255	-75.6
208.474	-51.03
208.693	18.6
208.911	-8.02
209.13	6.31
209.349	22.7
209.567	47.27
209.786	41.13
210.005	10.41
210.223	-5.97
210.442	-1.88
210.661	14.51
210.879	34.99
211.098	-14.17
211.316	-8.02
211.535	65.71
211.753	-65.36
211.972	55.47
212.191	6.31
212.409	16.55
212.628	-8.02
212.846	22.7
213.065	63.66
213.283	-5.97
213.502	4.27
213.72	24.75
213.938	-30.55
214.157	-8.02
214.375	-14.17
214.594	24.75
214.812	43.18
215.031	2.22
215.249	82.09
215.467	-18.26
215.686	2.22
215.904	24.75
216.122	-53.08
216.341	34.99
216.559	47.27
216.778	-26.45
216.996	30.89
217.214	8.36
217.432	-16.21
217.651	-38.74
217.869	37.03
218.087	43.18
218.306	37.03
218.524	147.62
218.742	-69.46
218.96	18.6
219.179	75.95
219.397	-32.6
219.615	51.37
219.833	26.79
220.051	-16.21
220.27	43.18
220.488	104.62
220.706	18.6
220.924	-48.98
221.142	10.41
221.36	8.36
221.578	24.75
221.796	-42.84
222.015	2.22
222.233	-46.93
222.451	30.89
222.669	-1.88
222.887	6.31
223.105	-5.97
223.323	63.66
223.541	-24.4
223.759	-10.07
223.977	-63.32
224.195	84.14
224.413	47.27
224.631	41.13
224.849	-59.22
225.067	63.66
225.285	-14.17
225.503	43.18
225.721	28.84
225.939	-8.02
226.157	14.51
226.375	59.56
226.592	-53.08
226.81	26.79
227.028	14.51
227.246	75.95
227.464	-3.93
227.682	14.51
227.9	20.65
228.117	16.55
228.335	22.7
228.553	10.41
228.771	-24.4
228.989	57.51
229.206	55.47
229.424	-18.26
229.642	12.46
229.86	-20.31
230.077	100.52
230.295	24.75
230.513	-8.02
230.731	10.41
230.948	47.27
231.166	88.23
231.384	-38.74
231.601	63.66
231.819	80.04
232.037	-55.12
232.254	22.7
232.472	-34.64
232.689	-32.6
232.907	4.27
233.125	-22.36
233.342	18.6
233.56	-96.08
233.777	20.65
233.995	41.13
234.213	-1.88
234.43	-10.07
234.648	39.08
234.865	86.19
235.083	61.61
235.3	-71.51
235.518	53.42
235.735	53.42
235.953	0.17
236.17	-10.07
236.388	22.7
236.605	104.62
236.822	96.43
237.04	98.47
237.257	30.89
237.475	-65.36
237.692	34.99
237.909	39.08
238.127	-5.97
238.344	-26.45
238.562	71.85
238.779	-53.08
238.996	-5.97
239.214	-42.84
239.431	127.14
239.648	39.08
239.865	-32.6
240.083	6.31
240.3	32.94
240.517	12.46
240.735	-10.07
240.952	43.18
241.169	22.7
241.386	18.6
241.603	47.27
241.821	0.17
242.038	16.55
242.255	34.99
242.472	-108.37
242.689	14.51
242.907	155.82
243.124	-22.36
243.341	12.46
243.558	0.17
243.775	-14.17
243.992	2.22
244.209	71.85
244.426	59.56
244.643	96.43
244.86	-51.03
245.078	22.7
245.295	-18.26
245.512	24.75
245.729	-12.12
245.946	30.89
246.163	45.23
246.38	-8.02
246.597	-16.21
246.814	67.75
247.031	30.89
247.248	47.27
247.464	-16.21
247.681	14.51
247.898	18.6
248.115	53.42
248.332	30.89
248.549	63.66
248.766	63.66
248.983	-10.07
249.2	8.36
249.417	6.31
249.633	55.47
249.85	-5.97
250.067	53.42
250.284	88.23
250.501	26.79
250.717	63.66
250.934	53.42
251.151	-51.03
251.368	-1.88
251.585	18.6
251.801	-32.6
252.018	10.41
252.235	84.14
252.451	10.41
252.668	-5.97
252.885	49.32
253.102	92.33
253.318	2.22
253.535	24.75
253.752	6.31
253.968	-20.31
254.185	-38.74
254.401	-30.55
254.618	59.56
254.835	-10.07
255.051	65.71
255.268	57.51
255.484	-5.97
255.701	53.42
255.917	24.75
256.134	-32.6
256.351	14.51
256.567	-1.88
256.784	53.42
257	34.99
257.217	-34.64
257.433	28.84
257.65	20.65
257.866	65.71
258.082	-18.26
258.299	-65.36
258.515	59.56
258.732	-10.07
258.948	-5.97
259.165	16.55
259.381	47.27
259.597	37.03
259.814	43.18
260.03	-67.41
260.246	69.8
260.463	59.56
260.679	6.31
260.895	104.62
261.112	8.36
261.328	55.47
261.544	-67.41
261.761	100.52
261.977	-24.4
262.193	30.89
262.409	6.31
262.626	-40.79
262.842	49.32
263.058	-102.23
263.274	67.75
263.49	75.95
263.707	-32.6
263.923	-32.6
264.139	-42.84
264.355	20.65
264.571	106.67
264.787	65.71
265.004	-26.45
265.22	30.89
265.436	-32.6
265.652	-38.74
265.868	6.31
266.084	0.17
266.3	100.52
266.516	-59.22
266.732	94.38
266.948	14.51
267.164	0.17
267.38	8.36
267.596	63.66
267.812	71.85
268.028	10.41
268.244	6.31
268.46	2.22
268.676	6.31
268.892	39.08
269.108	55.47
269.324	-24.4
269.54	26.79
269.756	-5.97
269.972	-8.02
270.188	14.51
270.403	-1.88
270.619	-40.79
270.835	10.41
271.051	37.03
271.267	14.51
271.483	30.89
271.698	22.7
271.914	14.51
272.13	71.85
272.346	6.31
272.562	-40.79
272.777	65.71
272.993	-42.84
273.209	10.41
273.425	-34.64
273.64	47.27
273.856	63.66
274.072	67.75
274.287	-20.31
274.503	39.08
274.719	-5.97
274.934	4.27
275.15	-42.84
275.366	63.66
275.581	28.84
275.797	24.75
276.012	-32.6
276.228	14.51
276.444	8.36
276.659	16.55
276.875	14.51
277.09	6.31
277.306	12.46
277.521	30.89
277.737	39.08
277.952	67.75
278.168	61.61
278.383	71.85
278.599	30.89
278.814	106.67
279.03	16.55
279.245	12.46
279.461	18.6
279.676	63.66
279.892	-8.02
280.107	-10.07
280.322	2.22
280.538	32.94
280.753	-8.02
280.969	16.55
281.184	6.31
281.399	59.56
281.615	-34.64
281.83	63.66
282.045	-42.84
282.26	-10.07
282.476	34.99
282.691	32.94
282.906	22.7
283.122	4.27
283.337	14.51
283.552	6.31
283.767	-53.08
283.983	-16.21
284.198	12.46
284.413	123.05
284.628	20.65
284.843	-8.02
285.058	24.75
285.274	55.47
285.489	-51.03
285.704	26.79
285.919	-10.07
286.134	63.66
286.349	-16.21
286.564	34.99
286.779	43.18
286.995	-22.36
287.21	-67.41
287.425	16.55
287.64	-28.5
287.855	10.41
288.07	-48.98
288.285	71.85
288.5	88.23
288.715	108.71
288.93	-10.07
289.145	-48.98
289.36	26.79
289.575	18.6
289.79	59.56
290.004	32.94
290.219	49.32
290.434	-51.03
290.649	6.31
290.864	14.51
291.079	-55.12
291.294	47.27
291.509	14.51
291.724	24.75
291.938	-22.36
292.153	-24.4
292.368	-46.93
292.583	22.7
292.798	100.52
293.012	-36.69
293.227	59.56
293.442	39.08
293.657	-1.88
293.871	51.37
294.086	84.14
294.301	80.04
294.516	-5.97
294.73	-1.88
294.945	-24.4
295.16	53.42
295.374	73.9
295.589	55.47
295.804	-24.4
296.018	39.08
296.233	47.27
296.447	-44.88
296.662	-67.41
296.877	43.18
297.091	43.18
297.306	16.55
297.52	63.66
297.735	88.23
297.949	10.41
298.164	63.66
298.378	-26.45
298.593	-57.17
298.807	18.6
299.022	-1.88
299.236	63.66
299.451	-57.17
299.665	82.09
299.88	22.7
300.094	69.8
300.309	24.75
300.523	-8.02
300.737	43.18
300.952	34.99
301.166	-32.6
301.381	2.22
301.595	-12.12
301.809	-20.31
302.024	71.85
302.238	-55.12
302.452	63.66
302.667	-55.12
302.881	55.47
303.095	51.37
303.309	-3.93
303.524	-5.97
303.738	57.51
303.952	22.7
304.166	45.23
304.381	12.46
304.595	73.9
304.809	-28.5
305.023	0.17
305.237	59.56
305.452	8.36
305.666	14.51
305.88	51.37
306.094	39.08
306.308	67.75
306.522	12.46
306.736	84.14
306.95	39.08
307.164	-32.6
307.379	24.75
307.593	57.51
307.807	53.42
308.021	63.66
308.235	-8.02
308.449	-57.17
308.663	14.51
308.877	112.81
309.091	30.89
309.305	-16.21
309.519	-44.88
309.733	82.09
309.947	-16.21
310.161	-32.6
310.374	0.17
310.588	90.28
310.802	14.51
311.016	6.31
311.23	16.55
311.444	-24.4
311.658	47.27
311.872	65.71
312.085	-26.45
312.299	71.85
312.513	80.04
312.727	10.41
312.941	-79.7
313.154	39.08
313.368	-1.88
313.582	-20.31
313.796	51.37
314.009	51.37
314.223	73.9
314.437	14.51
314.651	39.08
314.864	-16.21
315.078	4.27
315.292	-5.97
315.505	0.17
315.719	55.47
315.933	41.13
316.146	98.47
316.36	0.17
316.573	65.71
316.787	104.62
317.001	96.43
317.214	129.19
317.428	-55.12
317.641	32.94
317.855	24.75
318.068	-18.26
318.282	55.47
318.495	63.66
318.709	123.05
318.922	26.79
319.136	82.09
319.349	39.08
319.563	8.36
319.776	-10.07
319.99	45.23
320.203	39.08
320.417	88.23
320.63	-26.45
320.843	30.89
321.057	-5.97
321.27	55.47
321.483	80.04
321.697	22.7
321.91	-65.36
322.124	14.51
322.337	80.04
322.55	67.75
322.763	-32.6
322.977	20.65
323.19	-55.12
323.403	51.37
323.617	84.14
323.83	0.17
324.043	30.89
324.256	98.47
324.469	16.55
324.683	55.47
324.896	32.94
325.109	80.04
325.322	-55.12
325.535	34.99
325.748	37.03
325.962	18.6
326.175	-1.88
326.388	39.08
326.601	14.51
326.814	12.46
327.027	24.75
327.24	39.08
327.453	-46.93
327.666	47.27
327.879	67.75
328.092	-48.98
328.305	22.7
328.518	37.03
328.731	-18.26
328.944	57.51
329.157	20.65
329.37	2.22
329.583	121
329.796	41.13
330.009	-32.6
330.222	63.66
330.435	90.28
330.648	30.89
330.861	14.51
331.073	30.89
331.286	92.33
331.499	47.27
331.712	-67.41
331.925	30.89
332.138	-1.88
332.35	45.23
332.563	10.41
332.776	34.99
332.989	-38.74
333.202	-14.17
333.414	34.99
333.627	-42.84
333.84	-26.45
334.053	24.75
334.265	14.51
334.478	80.04
334.691	-32.6
334.903	2.22
335.116	30.89
335.329	71.85
335.541	80.04
335.754	129.19
335.966	0.17
336.179	-20.31
336.392	2.22
336.604	28.84
336.817	59.56
337.029	24.75
337.242	16.55
337.454	67.75
337.667	-48.98
337.88	47.27
338.092	112.81
338.305	0.17
338.517	37.03
338.729	-18.26
338.942	106.67
339.154	4.27
339.367	-40.79
339.579	80.04
339.792	-34.64
340.004	30.89
340.217	41.13
340.429	69.8
340.641	-10.07
340.854	-44.88
341.066	-14.17
341.278	108.71
341.491	55.47
341.703	30.89
341.915	-46.93
342.128	-14.17
342.34	71.85
342.552	26.79
342.764	47.27
342.977	24.75
343.189	47.27
343.401	75.95
343.613	-48.98
343.826	-1.88
344.038	39.08
344.25	51.37
344.462	4.27
344.674	-34.64
344.886	12.46
345.099	57.51
345.311	-65.36
345.523	-48.98
345.735	-1.88
345.947	86.19
346.159	-10.07
346.371	26.79
346.583	-1.88
346.795	77.99
347.007	34.99
347.219	96.43
347.431	-40.79
347.643	22.7
347.855	53.42
348.067	34.99
348.279	6.31
348.491	39.08
348.703	-1.88
348.915	22.7
349.127	24.75
349.339	104.62
349.551	59.56
349.763	-42.84
349.975	14.51
350.187	121
350.399	-14.17
350.61	47.27
350.822	57.51
351.034	14.51
351.246	-22.36
351.458	39.08
351.669	16.55
351.881	34.99
352.093	10.41
352.305	82.09
352.517	65.71
352.728	41.13
352.94	14.51
353.152	96.43
353.363	-1.88
353.575	41.13
353.787	96.43
353.999	71.85
354.21	41.13
354.422	32.94
354.633	18.6
354.845	2.22
355.057	67.75
355.268	14.51
355.48	14.51
355.692	125.1
355.903	28.84
356.115	65.71
356.326	-26.45
356.538	67.75
356.749	30.89
356.961	65.71
357.172	22.7
357.384	-34.64
357.595	71.85
357.807	10.41
358.018	-40.79
358.23	10.41
358.441	0.17
358.653	77.99
358.864	30.89
359.075	-32.6
359.287	57.51
359.498	131.24
359.709	71.85
359.921	57.51
360.132	82.09
360.344	59.56
360.555	-3.93
360.766	37.03
360.977	-10.07
361.189	-12.12
361.4	47.27
361.611	-10.07
361.823	80.04
362.034	10.41
362.245	-71.51
362.456	-10.07
362.667	-18.26
362.879	-42.84
363.09	114.86
363.301	14.51
363.512	43.18
363.723	-18.26
363.935	-12.12
364.146	71.85
364.357	80.04
364.568	88.23
364.779	20.65
364.99	114.86
365.201	12.46
365.412	28.84
365.623	-18.26
365.834	26.79
366.045	22.7
366.256	55.47
366.467	4.27
366.678	-51.03
366.889	-22.36
367.1	90.28
367.311	80.04
367.522	-26.45
367.733	22.7
367.944	6.31
368.155	106.67
368.366	14.51
368.577	-16.21
368.788	69.8
368.999	57.51
369.209	57.51
369.42	71.85
369.631	186.54
369.842	49.32
370.053	0.17
370.264	96.43
370.474	39.08
370.685	63.66
370.896	47.27
371.107	-8.02
371.317	55.47
371.528	47.27
371.739	108.71
371.95	30.89
372.16	8.36
372.371	-22.36
372.582	32.94
372.792	22.7
373.003	73.9
373.214	67.75
373.424	88.23
373.635	-24.4
373.846	102.57
374.056	37.03
374.267	43.18
374.477	-24.4
374.688	67.75
374.898	-75.6
375.109	55.47
375.319	55.47
375.53	125.1
375.74	10.41
375.951	59.56
376.161	69.8
376.372	69.8
376.582	22.7
376.793	57.51
377.003	-34.64
377.214	18.6
377.424	10.41
377.635	8.36
377.845	26.79
378.055	63.66
378.266	-16.21
378.476	22.7
378.686	82.09
378.897	-1.88
379.107	47.27
379.317	73.9
379.528	2.22
379.738	180.39
379.948	18.6
380.158	65.71
380.369	34.99
380.579	39.08
380.789	53.42
380.999	123.05
381.21	14.51
381.42	26.79
381.63	39.08
381.84	57.51
382.05	8.36
382.261	6.31
382.471	43.18
382.681	-59.22
382.891	47.27
383.101	20.65
383.311	14.51
383.521	47.27
383.731	59.56
383.941	106.67
384.151	41.13
384.361	6.31
384.571	71.85
384.781	75.95
384.991	92.33
385.201	80.04
385.411	22.7
385.621	-8.02
385.831	39.08
386.041	88.23
386.251	8.36
386.461	16.55
386.671	55.47
386.881	57.51
387.091	39.08
387.301	108.71
387.511	6.31
387.72	65.71
387.93	88.23
388.14	26.79
388.35	24.75
388.56	55.47
388.769	104.62
388.979	92.33
389.189	2.22
389.399	94.38
389.609	55.47
389.818	71.85
390.028	0.17
390.238	96.43
390.447	73.9
390.657	73.9
390.867	55.47
391.076	32.94
391.286	26.79
391.496	63.66
391.705	63.66
391.915	84.14
392.125	80.04
392.334	30.89
392.544	145.58
392.753	108.71
392.963	32.94
393.172	63.66
393.382	121
393.591	141.48
393.801	49.32
394.01	145.58
394.22	61.61
394.429	121
394.639	16.55
394.848	94.38
395.058	6.31
395.267	82.09
395.477	65.71
395.686	49.32
395.895	147.62
396.105	186.54
396.314	102.57
396.524	114.86
396.733	30.89
396.942	131.24
397.152	43.18
397.361	86.19
397.57	51.37
397.78	131.24
397.989	104.62
398.198	94.38
398.407	77.99
398.617	114.86
398.826	80.04
399.035	139.43
399.244	65.71
399.453	80.04
399.663	155.82
399.872	65.71
400.081	121
400.29	139.43
400.499	71.85
400.708	211.11
400.917	110.76
401.127	129.19
401.336	77.99
401.545	100.52
401.754	145.58
401.963	96.43
402.172	98.47
402.381	32.94
402.59	123.05
402.799	131.24
403.008	176.3
403.217	151.72
403.426	98.47
403.635	129.19
403.844	219.3
404.053	153.77
404.262	102.57
404.471	264.36
404.68	219.3
404.888	161.96
405.097	131.24
405.306	153.77
405.515	200.87
405.724	174.25
405.933	262.31
406.142	268.45
406.35	196.78
406.559	204.97
406.768	231.59
406.977	317.61
407.185	227.5
407.394	243.88
407.603	223.4
407.812	284.84
408.02	290.98
408.229	252.07
408.438	260.26
408.646	303.27
408.855	317.61
409.064	276.65
409.272	366.76
409.481	420
409.69	295.08
409.898	327.85
410.107	338.09
410.315	424.1
410.524	448.68
410.733	391.33
410.941	417.96
411.15	516.26
411.358	448.68
411.567	565.41
411.775	510.11
411.984	506.02
412.192	589.99
412.401	497.83
412.609	493.73
412.818	723.1
413.026	682.14
413.234	688.29
413.443	673.95
413.651	745.63
413.86	723.1
414.068	743.58
414.276	800.93
414.485	848.03
414.693	743.58
414.901	1022.11
415.11	917.66
415.318	946.33
415.526	1007.77
415.734	1048.73
415.943	1081.5
416.151	1147.03
416.359	1144.99
416.567	1171.61
416.776	1243.29
416.984	1220.76
417.192	1347.73
417.4	1259.67
417.608	1261.72
417.817	1407.13
418.025	1443.99
418.233	1538.2
418.441	1480.85
418.649	1536.15
418.857	1669.27
419.065	1742.99
419.273	1689.74
419.481	1939.6
419.689	1976.46
419.897	2021.52
420.105	2042
420.313	2099.34
420.521	2209.93
420.729	2349.19
420.937	2336.9
421.145	2422.92
421.353	2488.45
421.561	2562.18
421.769	2758.78
421.977	2867.33
422.185	2656.39
422.393	3012.73
422.601	3096.7
422.809	3100.8
423.017	3074.17
423.224	3274.87
423.432	3377.27
423.64	3418.23
423.848	3719.28
424.056	3627.12
424.263	3842.16
424.471	3795.06
424.679	3852.4
424.887	4184.17
425.094	4421.74
425.302	4317.29
425.51	4597.86
425.718	4515.94
425.925	4675.68
426.133	4839.52
426.341	5216.35
426.548	5355.61
426.756	5451.86
426.964	5423.19
427.171	5791.83
427.379	5806.16
427.586	6113.36
427.794	6199.37
428.001	6572.1
428.209	6748.23
428.417	6576.2
428.624	7145.53
428.832	7049.28
429.039	7223.36
429.247	7082.05
429.454	7735.35
429.662	8169.52
429.869	7772.21
430.076	8218.67
430.284	8030.26
430.491	8357.93
430.699	8794.15
430.906	8853.54
431.114	8818.72
431.321	9295.9
431.528	9293.85
431.736	9945.11
431.943	10496.01
432.15	10139.66
432.358	10215.44
432.565	10815.49
432.772	10921.99
432.979	11360.25
433.187	11655.16
433.394	11522.04
433.601	12328.94
433.808	12296.18
434.016	12591.08
434.223	12908.52
434.43	13723.61
434.637	13567.96
434.844	14227.41
435.052	14313.42
435.259	14440.4
435.466	14485.45
435.673	14202.83
435.88	15312.83
436.087	16072.63
436.294	16181.17
436.501	15869.88
436.708	15929.27
436.915	16660.4
437.122	17256.36
437.329	17217.44
437.537	18005.91
437.743	18048.92
437.95	17993.62
438.157	19052.42
438.364	19558.27
438.571	19404.67
438.778	19654.53
438.985	21309.29
439.192	20356.98
439.399	21288.81
439.606	20547.44
439.813	21956.44
440.02	22738.77
440.227	22812.49
440.433	22536.02
440.64	23107.4
440.847	23203.66
441.054	23893.82
441.261	25136.94
441.467	25194.28
441.674	25444.13
441.881	26521.37
442.088	25937.69
442.294	25880.35
442.501	26894.1
442.708	27086.61
442.914	28450.55
443.121	29798.12
443.328	28745.46
443.534	30703.32
443.741	29959.91
443.948	29023.98
444.154	31551.18
444.361	30936.79
444.568	31409.87
444.774	31360.72
444.981	31966.91
445.187	32890.55
445.394	34137.76
445.6	33582.76
445.807	36431.49
446.013	35223.19
446.22	36228.74
446.426	36867.7
446.633	37447.28
446.839	38684.25
447.046	37389.94
447.252	39607.89
447.459	39513.68
447.665	39341.65
447.871	41039.42
448.078	42581.54
448.284	40537.66
448.491	41799.21
448.697	43122.2
448.903	44279.3
449.11	44486.15
449.316	43503.12
449.522	44557.83
449.728	45317.62
449.935	45676.02
450.141	46015.98
450.347	46892.51
450.553	45499.89
450.76	46190.06
450.966	47222.23
451.172	46747.11
451.378	48215.5
451.584	47111.64
451.791	47953.36
451.997	48172.49
452.203	48827.84
452.409	48557.51
452.615	48272.84
452.821	47037.92
453.027	46347.75
453.233	48514.5
453.44	46761.44
453.646	47652.31
453.852	47685.08
454.058	48258.51
454.264	46771.68
454.47	47603.16
454.676	46583.27
454.882	48147.92
455.088	43730.45
455.294	44877.31
455.5	45563.38
455.705	46292.46
455.911	43879.95
456.117	43351.57
456.323	42901.02
456.529	40369.73
456.735	42124.84
456.941	41201.21
457.147	40597.06
457.352	39571.02
457.558	38874.71
457.764	38917.72
457.97	38127.2
458.176	37367.41
458.381	37340.78
458.587	35468.94
458.793	35786.38
458.999	33834.66
459.204	35917.45
459.41	35407.5
459.616	32708.28
459.821	32894.64
460.027	32732.86
460.233	32067.27
460.438	30975.7
460.644	30877.4
460.85	29128.43
461.055	28980.98
461.261	29030.13
461.466	26459.93
461.672	25935.65
461.878	27932.42
462.083	26093.34
462.289	25331.5
462.494	24995.63
462.7	24244.02
462.905	23314.25
463.111	24428.34
463.316	24153.91
463.522	23758.66
463.727	23904.06
463.932	23236.42
464.138	23297.86
464.343	23398.21
464.549	22775.63
464.754	23517
464.959	23314.25
465.165	23304.01
465.37	22056.79
465.575	21421.92
465.781	22269.78
465.986	22652.75
466.191	21817.18
466.397	21170.02
466.602	20408.18
