Data from USB4F104151__47__14-29-54-059.txt Node

Date: Thu Mar 13 14:29:54 EDT 2025
User: louis
Spectrometer: USB4F10415
Trigger mode: 4
Integration Time (sec): 2.500000E-2
Scans to average: 1
Electric dark correction enabled: true
Nonlinearity correction enabled: false
Boxcar width: 0
XAxis mode: Wavelengths
Number of Pixels in Spectrum: 3648
>>>>>Begin Spectral Data<<<<<
178.204	-181.25
178.424	-181.25
178.644	-181.25
178.864	-128
179.084	-199.68
179.304	41.98
179.524	13.31
179.744	-9.22
179.964	89.09
180.184	21.5
180.404	-31.74
180.624	-74.75
180.844	37.89
181.064	-54.27
181.283	-9.22
181.503	-31.74
181.723	7.17
181.943	-68.61
182.163	31.74
182.383	-62.46
182.602	23.55
182.822	41.98
183.042	9.22
183.262	27.65
183.482	-52.22
183.701	13.31
183.921	54.27
184.141	-3.07
184.361	52.22
184.58	39.94
184.8	-48.13
185.02	-29.7
185.239	21.5
185.459	33.79
185.679	46.08
185.898	-37.89
186.118	64.51
186.338	-15.36
186.557	15.36
186.777	-80.89
186.997	-9.22
187.216	-44.03
187.436	76.8
187.655	21.5
187.875	21.5
188.095	-41.98
188.314	19.46
188.534	64.51
188.753	-1.02
188.973	1.02
189.192	25.6
189.412	29.7
189.631	-39.94
189.851	-1.02
190.07	39.94
190.29	-11.26
190.509	17.41
190.729	-50.18
190.948	48.13
191.168	111.61
191.387	50.18
191.607	5.12
191.826	23.55
192.045	5.12
192.265	84.99
192.484	-35.84
192.704	-17.41
192.923	46.08
193.142	132.09
193.362	-19.46
193.581	21.5
193.8	-15.36
194.02	33.79
194.239	19.46
194.458	27.65
194.678	-1.02
194.897	17.41
195.116	-27.65
195.335	-39.94
195.555	95.23
195.774	-3.07
195.993	50.18
196.212	5.12
196.432	-50.18
196.651	-5.12
196.87	-3.07
197.089	97.28
197.308	1.02
197.528	13.31
197.747	-35.84
197.966	9.22
198.185	95.23
198.404	9.22
198.623	41.98
198.842	62.46
199.062	39.94
199.281	37.89
199.5	1.02
199.719	-1.02
199.938	37.89
200.157	44.03
200.376	62.46
200.595	-35.84
200.814	13.31
201.033	70.65
201.252	41.98
201.471	41.98
201.69	-9.22
201.909	25.6
202.128	68.61
202.347	-17.41
202.566	-74.75
202.785	-11.26
203.004	-44.03
203.223	78.85
203.442	11.26
203.661	15.36
203.879	39.94
204.098	119.81
204.317	9.22
204.536	66.56
204.755	60.42
204.974	111.61
205.193	39.94
205.411	103.42
205.63	46.08
205.849	37.89
206.068	13.31
206.287	-27.65
206.505	9.22
206.724	29.7
206.943	37.89
207.162	-1.02
207.381	5.12
207.599	15.36
207.818	23.55
208.037	-52.22
208.255	-33.79
208.474	41.98
208.693	87.04
208.911	-11.26
209.13	78.85
209.349	13.31
209.567	7.17
209.786	105.47
210.005	7.17
210.223	46.08
210.442	-52.22
210.661	46.08
210.879	60.42
211.098	54.27
211.316	15.36
211.535	66.56
211.753	-19.46
211.972	64.51
212.191	-25.6
212.409	37.89
212.628	27.65
212.846	-19.46
213.065	41.98
213.283	91.13
213.502	41.98
213.72	15.36
213.938	5.12
214.157	-9.22
214.375	29.7
214.594	29.7
214.812	93.18
215.031	11.26
215.249	-11.26
215.467	50.18
215.686	29.7
215.904	78.85
216.122	-35.84
216.341	13.31
216.559	37.89
216.778	-19.46
216.996	5.12
217.214	-58.37
217.432	-27.65
217.651	-39.94
217.869	-19.46
218.087	13.31
218.306	-11.26
218.524	27.65
218.742	-68.61
218.96	27.65
219.179	9.22
219.397	78.85
219.615	-9.22
219.833	-3.07
220.051	-7.17
220.27	41.98
220.488	54.27
220.706	5.12
220.924	21.5
221.142	-48.13
221.36	-72.7
221.578	64.51
221.796	-3.07
222.015	48.13
222.233	5.12
222.451	9.22
222.669	-13.31
222.887	17.41
223.105	-27.65
223.323	3.07
223.541	-39.94
223.759	39.94
223.977	52.22
224.195	107.52
224.413	58.37
224.631	-25.6
224.849	78.85
225.067	66.56
225.285	-44.03
225.503	-29.7
225.721	-17.41
225.939	23.55
226.157	-7.17
226.375	121.85
226.592	-44.03
226.81	-25.6
227.028	5.12
227.246	23.55
227.464	11.26
227.682	50.18
227.9	-5.12
228.117	-17.41
228.335	46.08
228.553	7.17
228.771	-9.22
228.989	21.5
229.206	-1.02
229.424	-7.17
229.642	-50.18
229.86	-39.94
230.077	48.13
230.295	-11.26
230.513	111.61
230.731	33.79
230.948	142.33
231.166	103.42
231.384	17.41
231.601	-27.65
231.819	87.04
232.037	50.18
232.254	17.41
232.472	-5.12
232.689	-1.02
232.907	-1.02
233.125	39.94
233.342	-11.26
233.56	-3.07
233.777	-33.79
233.995	1.02
234.213	64.51
234.43	95.23
234.648	48.13
234.865	9.22
235.083	50.18
235.3	-27.65
235.518	70.65
235.735	-3.07
235.953	-7.17
236.17	-15.36
236.388	39.94
236.605	31.74
236.822	7.17
237.04	7.17
237.257	29.7
237.475	5.12
237.692	5.12
237.909	-23.55
238.127	37.89
238.344	37.89
238.562	50.18
238.779	-50.18
238.996	-3.07
239.214	-15.36
239.431	154.62
239.648	-72.7
239.865	-15.36
240.083	19.46
240.3	-35.84
240.517	-19.46
240.735	56.32
240.952	25.6
241.169	52.22
241.386	3.07
241.603	54.27
241.821	21.5
242.038	23.55
242.255	15.36
242.472	-39.94
242.689	99.33
242.907	5.12
243.124	-19.46
243.341	5.12
243.558	-46.08
243.775	-17.41
243.992	-9.22
244.209	37.89
244.426	48.13
244.643	97.28
244.86	-17.41
245.078	39.94
245.295	-7.17
245.512	68.61
245.729	21.5
245.946	54.27
246.163	23.55
246.38	-9.22
246.597	-17.41
246.814	-15.36
247.031	46.08
247.248	13.31
247.464	13.31
247.681	-3.07
247.898	-41.98
248.115	-25.6
248.332	-11.26
248.549	13.31
248.766	89.09
248.983	64.51
249.2	82.94
249.417	-19.46
249.633	7.17
249.85	66.56
250.067	-27.65
250.284	-11.26
250.501	-11.26
250.717	54.27
250.934	-76.8
251.151	17.41
251.368	17.41
251.585	23.55
251.801	5.12
252.018	-56.32
252.235	68.61
252.451	29.7
252.668	-11.26
252.885	9.22
253.102	-35.84
253.318	31.74
253.535	3.07
253.752	-27.65
253.968	7.17
254.185	3.07
254.401	54.27
254.618	-7.17
254.835	-27.65
255.051	80.89
255.268	31.74
255.484	62.46
255.701	-128
255.917	66.56
256.134	-25.6
256.351	5.12
256.567	19.46
256.784	21.5
257	-29.7
257.217	128
257.433	46.08
257.65	-3.07
257.866	-9.22
258.082	-27.65
258.299	-11.26
258.515	62.46
258.732	66.56
258.948	-29.7
259.165	-7.17
259.381	37.89
259.597	3.07
259.814	-3.07
260.03	-44.03
260.246	-21.5
260.463	84.99
260.679	46.08
260.895	-27.65
261.112	-7.17
261.328	21.5
261.544	-15.36
261.761	62.46
261.977	21.5
262.193	-35.84
262.409	19.46
262.626	-3.07
262.842	25.6
263.058	-19.46
263.274	46.08
263.49	27.65
263.707	41.98
263.923	91.13
264.139	-46.08
264.355	-3.07
264.571	1.02
264.787	76.8
265.004	111.61
265.22	-76.8
265.436	3.07
265.652	62.46
265.868	7.17
266.084	-44.03
266.3	70.65
266.516	-31.74
266.732	78.85
266.948	13.31
267.164	-9.22
267.38	29.7
267.596	33.79
267.812	46.08
268.028	9.22
268.244	-46.08
268.46	64.51
268.676	-11.26
268.892	-1.02
269.108	17.41
269.324	17.41
269.54	1.02
269.756	-1.02
269.972	39.94
270.188	-33.79
270.403	-15.36
270.619	7.17
270.835	48.13
271.051	46.08
271.267	-19.46
271.483	5.12
271.698	11.26
271.914	33.79
272.13	-21.5
272.346	-33.79
272.562	-19.46
272.777	29.7
272.993	-15.36
273.209	113.66
273.425	-3.07
273.64	19.46
273.856	11.26
274.072	13.31
274.287	13.31
274.503	7.17
274.719	58.37
274.934	-44.03
275.15	-15.36
275.366	46.08
275.581	-7.17
275.797	-11.26
276.012	-54.27
276.228	-37.89
276.444	-15.36
276.659	62.46
276.875	-50.18
277.09	13.31
277.306	60.42
277.521	31.74
277.737	-11.26
277.952	21.5
278.168	-56.32
278.383	64.51
278.599	37.89
278.814	74.75
279.03	5.12
279.245	82.94
279.461	1.02
279.676	-5.12
279.892	-37.89
280.107	-48.13
280.322	-15.36
280.538	121.85
280.753	41.98
280.969	1.02
281.184	-35.84
281.399	95.23
281.615	46.08
281.83	-66.56
282.045	19.46
282.26	-19.46
282.476	-48.13
282.691	29.7
282.906	-50.18
283.122	29.7
283.337	-23.55
283.552	21.5
283.767	95.23
283.983	-44.03
284.198	37.89
284.413	33.79
284.628	74.75
284.843	-31.74
285.058	37.89
285.274	33.79
285.489	-46.08
285.704	23.55
285.919	-46.08
286.134	29.7
286.349	-56.32
286.564	-21.5
286.779	41.98
286.995	21.5
287.21	-23.55
287.425	-7.17
287.64	35.84
287.855	1.02
288.07	-3.07
288.285	37.89
288.5	17.41
288.715	123.9
288.93	15.36
289.145	41.98
289.36	37.89
289.575	31.74
289.79	11.26
290.004	-15.36
290.219	76.8
290.434	72.7
290.649	-19.46
290.864	27.65
291.079	21.5
291.294	-41.98
291.509	-11.26
291.724	-35.84
291.938	-41.98
292.153	52.22
292.368	-41.98
292.583	-7.17
292.798	-39.94
293.012	54.27
293.227	13.31
293.442	56.32
293.657	-11.26
293.871	-5.12
294.086	11.26
294.301	113.66
294.516	48.13
294.73	-1.02
294.945	87.04
295.16	-11.26
295.374	54.27
295.589	41.98
295.804	-52.22
296.018	5.12
296.233	-11.26
296.447	-5.12
296.662	44.03
296.877	91.13
297.091	37.89
297.306	15.36
297.52	3.07
297.735	-1.02
297.949	-11.26
298.164	-11.26
298.378	72.7
298.593	15.36
298.807	23.55
299.022	-25.6
299.236	89.09
299.451	-11.26
299.665	-9.22
299.88	80.89
300.094	37.89
300.309	-35.84
300.523	82.94
300.737	-1.02
300.952	7.17
301.166	5.12
301.381	13.31
301.595	19.46
301.809	46.08
302.024	37.89
302.238	-23.55
302.452	87.04
302.667	41.98
302.881	37.89
303.095	95.23
303.309	68.61
303.524	21.5
303.738	31.74
303.952	56.32
304.166	-74.75
304.381	-7.17
304.595	68.61
304.809	39.94
305.023	41.98
305.237	-19.46
305.452	9.22
305.666	78.85
305.88	50.18
306.094	29.7
306.308	-9.22
306.522	27.65
306.736	15.36
306.95	44.03
307.164	35.84
307.379	-52.22
307.593	99.33
307.807	33.79
308.021	-3.07
308.235	17.41
308.449	-33.79
308.663	-41.98
308.877	41.98
309.091	25.6
309.305	-11.26
309.519	-68.61
309.733	-39.94
309.947	-23.55
310.161	37.89
310.374	-17.41
310.588	95.23
310.802	-35.84
311.016	-11.26
311.23	70.65
311.444	-44.03
311.658	60.42
311.872	70.65
312.085	-7.17
312.299	95.23
312.513	7.17
312.727	62.46
312.941	-13.31
313.154	62.46
313.368	58.37
313.582	54.27
313.796	46.08
314.009	35.84
314.223	9.22
314.437	33.79
314.651	-19.46
314.864	-25.6
315.078	58.37
315.292	50.18
315.505	64.51
315.719	23.55
315.933	-35.84
316.146	-60.42
316.36	17.41
316.573	31.74
316.787	70.65
317.001	-11.26
317.214	-39.94
317.428	25.6
317.641	-76.8
317.855	101.37
318.068	48.13
318.282	39.94
318.495	46.08
318.709	13.31
318.922	-1.02
319.136	179.2
319.349	128
319.563	39.94
319.776	37.89
319.99	9.22
320.203	64.51
320.417	13.31
320.63	17.41
320.843	84.99
321.057	21.5
321.27	15.36
321.483	25.6
321.697	29.7
321.91	-62.46
322.124	-27.65
322.337	115.71
322.55	15.36
322.763	-1.02
322.977	62.46
323.19	39.94
323.403	17.41
323.617	21.5
323.83	74.75
324.043	13.31
324.256	119.81
324.469	-62.46
324.683	9.22
324.896	109.57
325.109	39.94
325.322	7.17
325.535	39.94
325.748	99.33
325.962	15.36
326.175	-35.84
326.388	27.65
326.601	48.13
326.814	-11.26
327.027	-44.03
327.24	62.46
327.453	5.12
327.666	82.94
327.879	-15.36
328.092	70.65
328.305	13.31
328.518	31.74
328.731	23.55
328.944	91.13
329.157	48.13
329.37	54.27
329.583	82.94
329.796	64.51
330.009	11.26
330.222	-9.22
330.435	-3.07
330.648	7.17
330.861	-27.65
331.073	54.27
331.286	33.79
331.499	35.84
331.712	3.07
331.925	-3.07
332.138	41.98
332.35	39.94
332.563	33.79
332.776	7.17
332.989	-17.41
333.202	29.7
333.414	23.55
333.627	19.46
333.84	-44.03
334.053	50.18
334.265	-3.07
334.478	-121.85
334.691	46.08
334.903	29.7
335.116	-60.42
335.329	-17.41
335.541	41.98
335.754	113.66
335.966	54.27
336.179	11.26
336.392	-3.07
336.604	25.6
336.817	78.85
337.029	-15.36
337.242	-15.36
337.454	46.08
337.667	68.61
337.88	113.66
338.092	-1.02
338.305	29.7
338.517	-17.41
338.729	91.13
338.942	13.31
339.154	-11.26
339.367	50.18
339.579	-15.36
339.792	-5.12
340.004	48.13
340.217	66.56
340.429	37.89
340.641	37.89
340.854	-11.26
341.066	31.74
341.278	54.27
341.491	68.61
341.703	37.89
341.915	9.22
342.128	-19.46
342.34	89.09
342.552	3.07
342.764	-1.02
342.977	13.31
343.189	70.65
343.401	58.37
343.613	-25.6
343.826	84.99
344.038	-41.98
344.25	-72.7
344.462	-17.41
344.674	152.57
344.886	-27.65
345.099	21.5
345.311	74.75
345.523	17.41
345.735	44.03
345.947	-3.07
346.159	23.55
346.371	91.13
346.583	-1.02
346.795	97.28
347.007	50.18
347.219	37.89
347.431	9.22
347.643	140.29
347.855	17.41
348.067	123.9
348.279	-19.46
348.491	39.94
348.703	72.7
348.915	29.7
349.127	-25.6
349.339	15.36
349.551	-1.02
349.763	37.89
349.975	-1.02
350.187	89.09
350.399	70.65
350.61	72.7
350.822	101.37
351.034	54.27
351.246	-70.65
351.458	23.55
351.669	54.27
351.881	15.36
352.093	-7.17
352.305	50.18
352.517	72.7
352.728	82.94
352.94	19.46
353.152	-11.26
353.363	-93.18
353.575	17.41
353.787	23.55
353.999	-1.02
354.21	62.46
354.422	27.65
354.633	62.46
354.845	-3.07
355.057	70.65
355.268	21.5
355.48	109.57
355.692	27.65
355.903	70.65
356.115	97.28
356.326	-23.55
356.538	80.89
356.749	39.94
356.961	33.79
357.172	15.36
357.384	-3.07
357.595	97.28
357.807	41.98
358.018	1.02
358.23	82.94
358.441	25.6
358.653	41.98
358.864	13.31
359.075	37.89
359.287	70.65
359.498	13.31
359.709	74.75
359.921	17.41
360.132	58.37
360.344	15.36
360.555	-3.07
360.766	23.55
360.977	-19.46
361.189	27.65
361.4	-1.02
361.611	54.27
361.823	54.27
362.034	107.52
362.245	37.89
362.456	15.36
362.667	103.42
362.879	-3.07
363.09	-41.98
363.301	54.27
363.512	62.46
363.723	70.65
363.935	13.31
364.146	33.79
364.357	54.27
364.568	72.7
364.779	-52.22
364.99	27.65
365.201	13.31
365.412	95.23
365.623	15.36
365.834	15.36
366.045	1.02
366.256	21.5
366.467	62.46
366.678	-1.02
366.889	37.89
367.1	25.6
367.311	80.89
367.522	15.36
367.733	31.74
367.944	78.85
368.155	17.41
368.366	107.52
368.577	39.94
368.788	56.32
368.999	17.41
369.209	5.12
369.42	105.47
369.631	99.33
369.842	21.5
370.053	62.46
370.264	31.74
370.474	-17.41
370.685	80.89
370.896	95.23
371.107	95.23
371.317	91.13
371.528	-23.55
371.739	29.7
371.95	9.22
372.16	23.55
372.371	9.22
372.582	41.98
372.792	64.51
373.003	41.98
373.214	-31.74
373.424	13.31
373.635	21.5
373.846	97.28
374.056	15.36
374.267	70.65
374.477	-11.26
374.688	25.6
374.898	46.08
375.109	37.89
375.319	89.09
375.53	103.42
375.74	48.13
375.951	-19.46
376.161	44.03
376.372	99.33
376.582	56.32
376.793	-9.22
377.003	29.7
377.214	-7.17
377.424	46.08
377.635	50.18
377.845	5.12
378.055	93.18
378.266	13.31
378.476	37.89
378.686	-27.65
378.897	13.31
379.107	78.85
379.317	33.79
379.528	-19.46
379.738	-41.98
379.948	23.55
380.158	-5.12
380.369	78.85
380.579	54.27
380.789	62.46
380.999	62.46
381.21	-7.17
381.42	107.52
381.63	-35.84
381.84	78.85
382.05	48.13
382.261	74.75
382.471	-1.02
382.681	46.08
382.891	62.46
383.101	9.22
383.311	-11.26
383.521	11.26
383.731	7.17
383.941	64.51
384.151	33.79
384.361	-17.41
384.571	60.42
384.781	56.32
384.991	66.56
385.201	56.32
385.411	76.8
385.621	50.18
385.831	31.74
386.041	46.08
386.251	7.17
386.461	-3.07
386.671	64.51
386.881	39.94
387.091	-46.08
387.301	125.95
387.511	-7.17
387.72	89.09
387.93	50.18
388.14	-35.84
388.35	46.08
388.56	95.23
388.769	117.76
388.979	-41.98
389.189	9.22
389.399	46.08
389.609	99.33
389.818	21.5
390.028	56.32
390.238	138.24
390.447	13.31
390.657	29.7
390.867	7.17
391.076	17.41
391.286	37.89
391.496	41.98
391.705	-17.41
391.915	111.61
392.125	-19.46
392.334	62.46
392.544	166.91
392.753	1.02
392.963	1.02
393.172	78.85
393.382	80.89
393.591	35.84
393.801	-23.55
394.01	97.28
394.22	23.55
394.429	48.13
394.639	84.99
394.848	60.42
395.058	21.5
395.267	13.31
395.477	21.5
395.686	87.04
395.895	11.26
396.105	99.33
396.314	119.81
396.524	91.13
396.733	48.13
396.942	140.29
397.152	76.8
397.361	142.33
397.57	113.66
397.78	37.89
397.989	111.61
398.198	148.48
398.407	46.08
398.617	62.46
398.826	62.46
399.035	37.89
399.244	211.96
399.453	93.18
399.663	39.94
399.872	87.04
400.081	46.08
400.29	107.52
400.499	21.5
400.708	95.23
400.917	29.7
401.127	5.12
401.336	76.8
401.545	138.24
401.754	72.7
401.963	164.86
402.172	113.66
402.381	39.94
402.59	128
402.799	87.04
403.008	136.19
403.217	156.67
403.426	121.85
403.635	152.57
403.844	115.71
404.053	177.15
404.262	121.85
404.471	261.12
404.68	146.43
404.888	103.42
405.097	146.43
405.306	89.09
405.515	146.43
405.724	164.86
405.933	136.19
406.142	160.77
406.35	265.21
406.559	154.62
406.768	193.53
406.977	160.77
407.185	181.25
407.394	234.49
407.603	95.23
407.812	185.34
408.02	211.96
408.229	187.39
408.438	228.35
408.646	234.49
408.855	197.63
409.064	281.6
409.272	203.77
409.481	228.35
409.69	234.49
409.898	279.55
410.107	316.41
410.315	336.89
410.524	283.64
410.733	332.79
410.941	361.47
411.15	422.91
411.358	367.61
411.567	375.8
411.775	396.28
411.984	414.71
412.192	513.02
412.401	441.34
412.609	517.11
412.818	537.59
413.026	527.35
413.234	545.78
413.443	431.1
413.651	502.78
413.86	490.49
414.068	676.85
414.276	668.66
414.485	607.22
414.693	691.19
414.901	742.39
415.11	635.89
415.318	832.5
415.526	676.85
415.734	807.92
415.943	881.65
416.151	879.6
416.359	824.31
416.567	879.6
416.776	904.18
416.984	996.34
417.192	1053.68
417.4	1057.78
417.608	938.99
417.817	1037.3
418.025	1080.3
418.233	1158.13
418.441	1176.56
418.649	1170.41
418.857	1338.35
419.065	1309.68
419.273	1375.21
419.481	1403.88
419.689	1410.03
419.897	1438.7
420.105	1496.04
420.313	1555.43
420.521	1655.78
420.729	1711.08
420.937	1688.55
421.145	1807.33
421.353	1854.44
421.561	2069.47
421.769	2085.86
421.977	2085.86
422.185	2083.81
422.393	2194.4
422.601	2348
422.809	2241.5
423.017	2356.19
423.224	2524.12
423.432	2468.83
423.64	2577.37
423.848	2653.14
424.056	2599.9
424.263	2972.63
424.471	2888.66
424.679	2929.62
424.887	3118.03
425.094	3218.38
425.302	3234.77
425.51	3462.09
425.718	3367.88
425.925	3490.76
426.133	3746.76
426.341	3896.26
426.548	3838.92
426.756	3996.61
426.964	3980.23
427.171	4232.13
427.379	4428.73
427.586	4363.2
427.794	4621.24
428.001	4942.77
428.209	4985.78
428.417	4830.13
428.624	5184.43
428.832	5262.26
429.039	5321.65
429.247	5125.04
429.454	5688.23
429.662	6081.44
429.869	5600.17
430.076	6140.83
430.284	5944.23
430.491	6067.11
430.699	6552.48
430.906	6558.62
431.114	6636.44
431.321	6871.96
431.528	6874.01
431.736	7295.89
431.943	7639.95
432.15	7515.02
432.358	7594.89
432.565	8180.61
432.772	7828.36
432.979	8487.81
433.187	8594.3
433.394	8575.87
433.601	9122.68
433.808	9210.74
434.016	8940.41
434.223	9511.79
434.43	10140.52
434.637	9671.53
434.844	10345.31
435.052	10566.49
435.259	10699.61
435.466	10511.2
435.673	10498.91
435.88	11107.16
436.087	11670.35
436.294	11778.89
436.501	11596.62
436.708	11604.81
436.915	12323.65
437.122	12768.06
437.329	12421.95
437.537	13105.98
437.743	13286.2
437.95	13191.99
438.157	14119.72
438.364	14263.08
438.571	14142.25
438.778	14388
438.985	15850.25
439.192	15151.9
439.399	15495.96
439.606	15143.7
439.813	15987.47
440.02	16986.88
440.227	16558.85
440.433	16470.79
440.64	17056.51
440.847	16935.68
441.054	17259.26
441.261	18356.97
441.467	18164.46
441.674	18735.84
441.881	19178.2
442.088	19231.45
442.294	18848.48
442.501	19624.66
442.708	19802.83
442.914	20507.34
443.121	21322.43
443.328	20751.04
443.534	22438.57
443.741	21807.8
443.948	21613.24
444.154	23179.93
444.361	23042.72
444.568	22895.27
444.774	23204.51
444.981	23337.63
445.187	23833.24
445.394	24945.28
445.6	24322.7
445.807	27236.96
446.013	25778.81
446.22	26581.61
446.426	27490.91
446.633	27564.64
446.839	28301.9
447.046	27421.28
447.252	28842.57
447.459	28940.87
447.665	28596.81
447.871	29870.65
448.078	31408.67
448.284	29962.81
448.491	30798.38
448.697	31801.88
448.903	32182.8
449.11	32604.69
449.316	32053.78
449.522	32547.34
449.728	33370.63
449.935	33425.92
450.141	33190.41
450.347	33946.11
450.553	33415.68
450.76	33425.92
450.966	34968.04
451.172	34198.01
451.378	34990.57
451.584	34460.15
451.791	35312.1
451.997	35162.6
452.203	35764.7
452.409	35856.86
452.615	35277.29
452.821	33968.63
453.027	33782.27
453.233	36088.28
453.44	34351.6
453.646	34916.84
453.852	34576.88
454.058	35494.37
454.264	34146.81
454.47	35011.05
454.676	33534.46
454.882	35117.54
455.088	32057.88
455.294	32152.09
455.5	32817.68
455.705	33311.24
455.911	31986.2
456.117	31330.85
456.323	31191.59
456.529	29295.17
456.735	30313.01
456.941	30159.41
457.147	29213.25
457.352	28422.73
457.558	28007
457.764	28195.41
457.97	27353.69
458.176	26704.49
458.381	26825.32
458.587	25387.64
458.793	25514.62
458.999	24068.75
459.204	25981.56
459.41	25199.23
459.616	23466.65
459.821	23411.35
460.027	23153.31
460.233	22848.16
460.438	21756.6
460.644	22051.5
460.85	20947.65
461.055	20531.91
461.261	20394.7
461.466	18926.3
461.672	18334.44
461.878	19606.23
462.083	18322.15
462.289	18008.81
462.494	17654.51
462.7	17031.93
462.905	16773.89
463.111	17228.54
463.316	17361.66
463.522	16913.15
463.727	16943.87
463.932	16810.75
464.138	16429.83
464.343	16796.42
464.549	16200.46
464.754	16642.82
464.959	16417.54
465.165	16341.77
465.37	15772.43
465.575	15336.21
465.781	15821.58
465.986	16048.91
466.191	15121.18
466.397	14754.59
466.602	14299.94
466.807	14859.04
467.012	14879.52
