Data from USB4F104151__245__14-34-12-485.txt Node

Date: Thu Mar 13 14:34:12 EDT 2025
User: louis
Spectrometer: USB4F10415
Trigger mode: 4
Integration Time (sec): 2.500000E-2
Scans to average: 1
Electric dark correction enabled: true
Nonlinearity correction enabled: false
Boxcar width: 0
XAxis mode: Wavelengths
Number of Pixels in Spectrum: 3648
>>>>>Begin Spectral Data<<<<<
178.204	-169.98
178.424	-169.98
178.644	-169.98
178.864	-137.21
179.084	-165.89
179.304	-6.14
179.524	51.2
179.744	6.14
179.964	30.72
180.184	-30.72
180.404	-63.49
180.624	18.43
180.844	14.34
181.064	-24.58
181.283	-20.48
181.503	14.34
181.723	10.24
181.943	-43.01
182.163	6.14
182.383	28.67
182.602	30.72
182.822	83.97
183.042	4.1
183.262	40.96
183.482	69.63
183.701	18.43
183.921	10.24
184.141	8.19
184.361	28.67
184.58	77.82
184.8	18.43
185.02	-28.67
185.239	71.68
185.459	-8.19
185.679	77.82
185.898	34.82
186.118	124.93
186.338	116.73
186.557	67.58
186.777	-34.82
186.997	-22.53
187.216	43.01
187.436	92.16
187.655	145.41
187.875	59.39
188.095	53.25
188.314	36.86
188.534	75.77
188.753	-10.24
188.973	83.97
189.192	28.67
189.412	-63.49
189.631	77.82
189.851	106.49
190.07	77.82
190.29	-6.14
190.509	38.91
190.729	69.63
190.948	10.24
191.168	126.97
191.387	55.3
191.607	-2.05
191.826	116.73
192.045	55.3
192.265	2.05
192.484	-8.19
192.704	34.82
192.923	26.62
193.142	86.01
193.362	18.43
193.581	67.58
193.8	-20.48
194.02	67.58
194.239	108.54
194.458	77.82
194.678	20.48
194.897	-26.62
195.116	16.38
195.335	43.01
195.555	77.82
195.774	18.43
195.993	24.58
196.212	-16.38
196.432	55.3
196.651	77.82
196.87	-47.1
197.089	131.07
197.308	-6.14
197.528	16.38
197.747	-10.24
197.966	-6.14
198.185	51.2
198.404	34.82
198.623	26.62
198.842	96.25
199.062	61.44
199.281	-14.34
199.5	67.58
199.719	59.39
199.938	96.25
200.157	67.58
200.376	47.1
200.595	102.4
200.814	26.62
201.033	-2.05
201.252	20.48
201.471	-6.14
201.69	75.77
201.909	83.97
202.128	18.43
202.347	83.97
202.566	53.25
202.785	14.34
203.004	-12.29
203.223	161.79
203.442	53.25
203.661	43.01
203.879	43.01
204.098	18.43
204.317	51.2
204.536	88.06
204.755	59.39
204.974	18.43
205.193	6.14
205.411	145.41
205.63	6.14
205.849	38.91
206.068	43.01
206.287	14.34
206.505	133.12
206.724	57.34
206.943	-18.43
207.162	51.2
207.381	34.82
207.599	12.29
207.818	34.82
208.037	98.3
208.255	16.38
208.474	-10.24
208.693	47.1
208.911	6.14
209.13	47.1
209.349	67.58
209.567	36.86
209.786	20.48
210.005	69.63
210.223	26.62
210.442	51.2
210.661	10.24
210.879	61.44
211.098	88.06
211.316	67.58
211.535	112.64
211.753	43.01
211.972	43.01
212.191	12.29
212.409	34.82
212.628	53.25
212.846	-16.38
213.065	36.86
213.283	98.3
213.502	-8.19
213.72	6.14
213.938	-8.19
214.157	71.68
214.375	4.1
214.594	-22.53
214.812	108.54
215.031	-38.91
215.249	-53.25
215.467	75.77
215.686	43.01
215.904	153.6
216.122	38.91
216.341	118.78
216.559	4.1
216.778	14.34
216.996	59.39
217.214	-10.24
217.432	-4.1
217.651	18.43
217.869	43.01
218.087	47.1
218.306	0
218.524	57.34
218.742	36.86
218.96	43.01
219.179	4.1
219.397	36.86
219.615	77.82
219.833	26.62
220.051	55.3
220.27	92.16
220.488	86.01
220.706	-20.48
220.924	-16.38
221.142	-45.06
221.36	26.62
221.578	69.63
221.796	55.3
222.015	61.44
222.233	55.3
222.451	126.97
222.669	-22.53
222.887	77.82
223.105	55.3
223.323	-18.43
223.541	-6.14
223.759	24.58
223.977	-61.44
224.195	51.2
224.413	81.92
224.631	81.92
224.849	4.1
225.067	151.55
225.285	-6.14
225.503	-47.1
225.721	24.58
225.939	32.77
226.157	-16.38
226.375	141.31
226.592	20.48
226.81	12.29
227.028	75.77
227.246	73.73
227.464	79.87
227.682	32.77
227.9	34.82
228.117	51.2
228.335	-34.82
228.553	53.25
228.771	-2.05
228.989	45.06
229.206	30.72
229.424	-71.68
229.642	18.43
229.86	14.34
230.077	10.24
230.295	75.77
230.513	20.48
230.731	18.43
230.948	12.29
231.166	100.35
231.384	61.44
231.601	-4.1
231.819	63.49
232.037	12.29
232.254	28.67
232.472	20.48
232.689	-16.38
232.907	106.49
233.125	75.77
233.342	30.72
233.56	-4.1
233.777	55.3
233.995	2.05
234.213	71.68
234.43	53.25
234.648	-28.67
234.865	0
235.083	10.24
235.3	79.87
235.518	59.39
235.735	43.01
235.953	65.54
236.17	45.06
236.388	-8.19
236.605	-22.53
236.822	-12.29
237.04	-4.1
237.257	45.06
237.475	2.05
237.692	83.97
237.909	2.05
238.127	53.25
238.344	34.82
238.562	34.82
238.779	-96.25
238.996	63.49
239.214	61.44
239.431	120.83
239.648	-55.3
239.865	14.34
240.083	88.06
240.3	55.3
240.517	-26.62
240.735	-12.29
240.952	20.48
241.169	45.06
241.386	65.54
241.603	100.35
241.821	63.49
242.038	116.73
242.255	51.2
242.472	-2.05
242.689	34.82
242.907	16.38
243.124	63.49
243.341	18.43
243.558	0
243.775	36.86
243.992	-20.48
244.209	63.49
244.426	43.01
244.643	-59.39
244.86	40.96
245.078	57.34
245.295	20.48
245.512	135.17
245.729	34.82
245.946	10.24
246.163	-6.14
246.38	4.1
246.597	-6.14
246.814	-14.34
247.031	22.53
247.248	43.01
247.464	38.91
247.681	43.01
247.898	124.93
248.115	18.43
248.332	-47.1
248.549	155.65
248.766	45.06
248.983	26.62
249.2	59.39
249.417	57.34
249.633	79.87
249.85	38.91
250.067	8.19
250.284	55.3
250.501	2.05
250.717	55.3
250.934	-55.3
251.151	75.77
251.368	34.82
251.585	88.06
251.801	4.1
252.018	49.15
252.235	45.06
252.451	-14.34
252.668	2.05
252.885	6.14
253.102	18.43
253.318	28.67
253.535	10.24
253.752	69.63
253.968	-51.2
254.185	-43.01
254.401	28.67
254.618	124.93
254.835	36.86
255.051	34.82
255.268	92.16
255.484	-22.53
255.701	38.91
255.917	59.39
256.134	-4.1
256.351	6.14
256.567	-10.24
256.784	124.93
257	20.48
257.217	67.58
257.433	108.54
257.65	94.21
257.866	-14.34
258.082	8.19
258.299	-14.34
258.515	108.54
258.732	34.82
258.948	43.01
259.165	53.25
259.381	-12.29
259.597	47.1
259.814	28.67
260.03	-26.62
260.246	126.97
260.463	104.45
260.679	-28.67
260.895	69.63
261.112	55.3
261.328	43.01
261.544	6.14
261.761	129.02
261.977	-4.1
262.193	77.82
262.409	75.77
262.626	83.97
262.842	-8.19
263.058	12.29
263.274	10.24
263.49	51.2
263.707	67.58
263.923	65.54
264.139	34.82
264.355	28.67
264.571	38.91
264.787	47.1
265.004	88.06
265.22	47.1
265.436	45.06
265.652	-26.62
265.868	57.34
266.084	-2.05
266.3	-34.82
266.516	0
266.732	73.73
266.948	79.87
267.164	-2.05
267.38	-10.24
267.596	79.87
267.812	34.82
268.028	86.01
268.244	4.1
268.46	28.67
268.676	-4.1
268.892	2.05
269.108	-22.53
269.324	-18.43
269.54	6.14
269.756	26.62
269.972	-36.86
270.188	-8.19
270.403	-22.53
270.619	83.97
270.835	-2.05
271.051	26.62
271.267	-24.58
271.483	-45.06
271.698	30.72
271.914	88.06
272.13	38.91
272.346	67.58
272.562	20.48
272.777	51.2
272.993	-55.3
273.209	38.91
273.425	22.53
273.64	-10.24
273.856	104.45
274.072	18.43
274.287	-16.38
274.503	53.25
274.719	83.97
274.934	67.58
275.15	-16.38
275.366	67.58
275.581	22.53
275.797	34.82
276.012	24.58
276.228	75.77
276.444	63.49
276.659	75.77
276.875	20.48
277.09	-20.48
277.306	43.01
277.521	75.77
277.737	43.01
277.952	18.43
278.168	34.82
278.383	90.11
278.599	38.91
278.814	4.1
279.03	-6.14
279.245	92.16
279.461	34.82
279.676	110.59
279.892	53.25
280.107	-38.91
280.322	-18.43
280.538	69.63
280.753	38.91
280.969	14.34
281.184	-34.82
281.399	38.91
281.615	34.82
281.83	-8.19
282.045	-38.91
282.26	26.62
282.476	59.39
282.691	47.1
282.906	57.34
283.122	79.87
283.337	2.05
283.552	40.96
283.767	59.39
283.983	67.58
284.198	-55.3
284.413	36.86
284.628	-2.05
284.843	-2.05
285.058	14.34
285.274	38.91
285.489	10.24
285.704	26.62
285.919	28.67
286.134	126.97
286.349	20.48
286.564	-86.01
286.779	2.05
286.995	-61.44
287.21	-26.62
287.425	-22.53
287.64	12.29
287.855	69.63
288.07	10.24
288.285	153.6
288.5	20.48
288.715	126.97
288.93	4.1
289.145	-34.82
289.36	36.86
289.575	-4.1
289.79	61.44
290.004	22.53
290.219	75.77
290.434	22.53
290.649	57.34
290.864	75.77
291.079	26.62
291.294	10.24
291.509	2.05
291.724	28.67
291.938	34.82
292.153	83.97
292.368	40.96
292.583	69.63
292.798	61.44
293.012	94.21
293.227	22.53
293.442	6.14
293.657	-14.34
293.871	108.54
294.086	106.49
294.301	51.2
294.516	98.3
294.73	102.4
294.945	-6.14
295.16	18.43
295.374	40.96
295.589	18.43
295.804	63.49
296.018	4.1
296.233	71.68
296.447	-10.24
296.662	26.62
296.877	26.62
297.091	77.82
297.306	6.14
297.52	51.2
297.735	38.91
297.949	34.82
298.164	59.39
298.378	-4.1
298.593	2.05
298.807	-28.67
299.022	24.58
299.236	34.82
299.451	12.29
299.665	4.1
299.88	34.82
300.094	47.1
300.309	14.34
300.523	61.44
300.737	26.62
300.952	126.97
301.166	51.2
301.381	-45.06
301.595	12.29
301.809	4.1
302.024	92.16
302.238	36.86
302.452	94.21
302.667	-38.91
302.881	36.86
303.095	43.01
303.309	10.24
303.524	43.01
303.738	10.24
303.952	-30.72
304.166	88.06
304.381	-38.91
304.595	83.97
304.809	102.4
305.023	-14.34
305.237	-22.53
305.452	18.43
305.666	26.62
305.88	43.01
306.094	45.06
306.308	83.97
306.522	110.59
306.736	38.91
306.95	77.82
307.164	-12.29
307.379	53.25
307.593	149.5
307.807	51.2
308.021	-65.54
308.235	190.46
308.449	6.14
308.663	57.34
308.877	98.3
309.091	30.72
309.305	-12.29
309.519	-30.72
309.733	114.69
309.947	-14.34
310.161	169.98
310.374	47.1
310.588	43.01
310.802	6.14
311.016	-20.48
311.23	77.82
311.444	51.2
311.658	45.06
311.872	30.72
312.085	59.39
312.299	79.87
312.513	126.97
312.727	59.39
312.941	14.34
313.154	59.39
313.368	59.39
313.582	24.58
313.796	61.44
314.009	43.01
314.223	10.24
314.437	69.63
314.651	112.64
314.864	10.24
315.078	94.21
315.292	67.58
315.505	10.24
315.719	59.39
315.933	20.48
316.146	4.1
316.36	45.06
316.573	92.16
316.787	-30.72
317.001	94.21
317.214	-14.34
317.428	-2.05
317.641	-4.1
317.855	-6.14
318.068	4.1
318.282	10.24
318.495	16.38
318.709	100.35
318.922	-26.62
319.136	83.97
319.349	100.35
319.563	49.15
319.776	26.62
319.99	-14.34
320.203	18.43
320.417	45.06
320.63	69.63
320.843	75.77
321.057	-26.62
321.27	59.39
321.483	92.16
321.697	75.77
321.91	26.62
322.124	36.86
322.337	16.38
322.55	34.82
322.763	47.1
322.977	92.16
323.19	-12.29
323.403	69.63
323.617	51.2
323.83	-20.48
324.043	59.39
324.256	-14.34
324.469	16.38
324.683	47.1
324.896	28.67
325.109	55.3
325.322	-8.19
325.535	92.16
325.748	57.34
325.962	-34.82
326.175	-30.72
326.388	61.44
326.601	59.39
326.814	10.24
327.027	-4.1
327.24	18.43
327.453	81.92
327.666	59.39
327.879	51.2
328.092	38.91
328.305	30.72
328.518	34.82
328.731	-32.77
328.944	28.67
329.157	4.1
329.37	47.1
329.583	55.3
329.796	34.82
330.009	63.49
330.222	75.77
330.435	67.58
330.648	57.34
330.861	59.39
331.073	59.39
331.286	45.06
331.499	26.62
331.712	14.34
331.925	63.49
332.138	100.35
332.35	79.87
332.563	49.15
332.776	106.49
332.989	-40.96
333.202	65.54
333.414	-40.96
333.627	-28.67
333.84	69.63
334.053	43.01
334.265	96.25
334.478	77.82
334.691	53.25
334.903	77.82
335.116	-47.1
335.329	36.86
335.541	100.35
335.754	88.06
335.966	120.83
336.179	38.91
336.392	18.43
336.604	-28.67
336.817	124.93
337.029	98.3
337.242	61.44
337.454	26.62
337.667	61.44
337.88	83.97
338.092	63.49
338.305	-18.43
338.517	-20.48
338.729	108.54
338.942	63.49
339.154	38.91
339.367	-6.14
339.579	38.91
339.792	73.73
340.004	92.16
340.217	45.06
340.429	38.91
340.641	-2.05
340.854	-30.72
341.066	38.91
341.278	108.54
341.491	63.49
341.703	43.01
341.915	26.62
342.128	88.06
342.34	71.68
342.552	28.67
342.764	83.97
342.977	20.48
343.189	71.68
343.401	38.91
343.613	16.38
343.826	98.3
344.038	-12.29
344.25	45.06
344.462	10.24
344.674	55.3
344.886	90.11
345.099	75.77
345.311	34.82
345.523	16.38
345.735	22.53
345.947	65.54
346.159	30.72
346.371	-10.24
346.583	26.62
346.795	30.72
347.007	86.01
347.219	32.77
347.431	-55.3
347.643	96.25
347.855	61.44
348.067	100.35
348.279	47.1
348.491	-34.82
348.703	92.16
348.915	57.34
349.127	-45.06
349.339	43.01
349.551	65.54
349.763	-47.1
349.975	16.38
350.187	16.38
350.399	75.77
350.61	38.91
350.822	34.82
351.034	55.3
351.246	14.34
351.458	40.96
351.669	53.25
351.881	53.25
352.093	124.93
352.305	71.68
352.517	67.58
352.728	43.01
352.94	45.06
353.152	92.16
353.363	59.39
353.575	83.97
353.787	79.87
353.999	47.1
354.21	73.73
354.422	36.86
354.633	83.97
354.845	67.58
355.057	79.87
355.268	49.15
355.48	73.73
355.692	-51.2
355.903	36.86
356.115	34.82
356.326	-67.58
356.538	129.02
356.749	96.25
356.961	120.83
357.172	122.88
357.384	30.72
357.595	167.93
357.807	18.43
358.018	-4.1
358.23	-28.67
358.441	77.82
358.653	145.41
358.864	59.39
359.075	34.82
359.287	51.2
359.498	10.24
359.709	-20.48
359.921	108.54
360.132	26.62
360.344	88.06
360.555	-22.53
360.766	63.49
360.977	24.58
361.189	55.3
361.4	26.62
361.611	92.16
361.823	69.63
362.034	57.34
362.245	-6.14
362.456	20.48
362.667	45.06
362.879	45.06
363.09	57.34
363.301	61.44
363.512	-36.86
363.723	71.68
363.935	-22.53
364.146	83.97
364.357	51.2
364.568	28.67
364.779	26.62
364.99	51.2
365.201	59.39
365.412	34.82
365.623	-22.53
365.834	100.35
366.045	59.39
366.256	133.12
366.467	34.82
366.678	-30.72
366.889	88.06
367.1	77.82
367.311	98.3
367.522	26.62
367.733	49.15
367.944	18.43
368.155	24.58
368.366	116.73
368.577	83.97
368.788	26.62
368.999	55.3
369.209	26.62
369.42	131.07
369.631	174.08
369.842	129.02
370.053	-38.91
370.264	90.11
370.474	59.39
370.685	106.49
370.896	2.05
371.107	92.16
371.317	59.39
371.528	141.31
371.739	18.43
371.95	67.58
372.16	51.2
372.371	-30.72
372.582	102.4
372.792	92.16
373.003	-30.72
373.214	59.39
373.424	63.49
373.635	28.67
373.846	174.08
374.056	55.3
374.267	26.62
374.477	24.58
374.688	-20.48
374.898	108.54
375.109	6.14
375.319	57.34
375.53	69.63
375.74	32.77
375.951	10.24
376.161	36.86
376.372	108.54
376.582	43.01
376.793	53.25
377.003	-14.34
377.214	55.3
377.424	67.58
377.635	102.4
377.845	51.2
378.055	141.31
378.266	8.19
378.476	67.58
378.686	88.06
378.897	86.01
379.107	22.53
379.317	10.24
379.528	-6.14
379.738	83.97
379.948	4.1
380.158	67.58
380.369	36.86
380.579	69.63
380.789	63.49
380.999	67.58
381.21	137.21
381.42	71.68
381.63	57.34
381.84	88.06
382.05	100.35
382.261	124.93
382.471	141.31
382.681	124.93
382.891	67.58
383.101	67.58
383.311	30.72
383.521	-4.1
383.731	43.01
383.941	79.87
384.151	77.82
384.361	69.63
384.571	32.77
384.781	88.06
384.991	133.12
385.201	126.97
385.411	36.86
385.621	69.63
385.831	126.97
386.041	94.21
386.251	71.68
386.461	118.78
386.671	59.39
386.881	34.82
387.091	75.77
387.301	55.3
387.511	51.2
387.72	47.1
387.93	104.45
388.14	73.73
388.35	55.3
388.56	92.16
388.769	108.54
388.979	137.21
389.189	69.63
389.399	116.73
389.609	137.21
389.818	110.59
390.028	34.82
390.238	34.82
390.447	36.86
390.657	-12.29
390.867	75.77
391.076	22.53
391.286	108.54
391.496	67.58
391.705	143.36
391.915	6.14
392.125	71.68
392.334	118.78
392.544	116.73
392.753	83.97
392.963	69.63
393.172	75.77
393.382	-12.29
393.591	141.31
393.801	71.68
394.01	149.5
394.22	51.2
394.429	8.19
394.639	61.44
394.848	141.31
395.058	86.01
395.267	59.39
395.477	188.41
395.686	61.44
395.895	141.31
396.105	137.21
396.314	61.44
396.524	69.63
396.733	88.06
396.942	100.35
397.152	110.59
397.361	122.88
397.57	122.88
397.78	83.97
397.989	86.01
398.198	182.27
398.407	100.35
398.617	94.21
398.826	53.25
399.035	178.17
399.244	104.45
399.453	120.83
399.663	108.54
399.872	153.6
400.081	88.06
400.29	167.93
400.499	100.35
400.708	116.73
400.917	161.79
401.127	100.35
401.336	116.73
401.545	174.08
401.754	77.82
401.963	215.04
402.172	71.68
402.381	141.31
402.59	129.02
402.799	79.87
403.008	63.49
403.217	186.37
403.426	83.97
403.635	55.3
403.844	61.44
404.053	157.69
404.262	104.45
404.471	235.52
404.68	145.41
404.888	202.75
405.097	149.5
405.306	157.69
405.515	176.13
405.724	217.08
405.933	227.32
406.142	215.04
406.35	188.41
406.559	172.03
406.768	192.51
406.977	251.9
407.185	223.23
407.394	174.08
407.603	249.85
407.812	237.56
408.02	235.52
408.229	303.1
408.438	323.58
408.646	176.13
408.855	333.82
409.064	251.9
409.272	305.15
409.481	378.87
409.69	301.05
409.898	325.63
410.107	346.11
410.315	321.53
410.524	370.68
410.733	417.79
410.941	405.5
411.15	487.42
411.358	419.83
411.567	421.88
411.775	403.45
411.984	378.87
412.192	444.41
412.401	567.29
412.609	550.9
412.818	614.39
413.026	450.55
413.234	585.72
413.443	571.38
413.651	579.58
413.86	632.82
414.068	667.64
414.276	749.56
414.485	673.78
414.693	796.66
414.901	886.77
415.11	745.46
415.318	784.37
415.526	831.48
415.734	817.14
415.943	886.77
416.151	952.31
416.359	1036.27
416.567	878.58
416.776	1056.75
416.984	1093.62
417.192	1140.72
417.4	1126.38
417.608	1169.39
417.817	1230.83
418.025	1284.08
418.233	1398.76
418.441	1271.79
418.649	1329.13
418.857	1495.02
419.065	1404.91
419.273	1546.22
419.481	1566.7
419.689	1607.66
419.897	1716.2
420.105	1697.77
420.313	1695.72
420.521	1822.69
420.729	1927.14
420.937	1902.56
421.145	2041.82
421.353	2156.51
421.561	2271.2
421.769	2197.47
421.977	2340.83
422.185	2328.54
422.393	2488.28
422.601	2572.25
422.809	2543.58
423.017	2576.34
423.224	2785.24
423.432	2738.13
423.64	2775
423.848	3114.96
424.056	2979.79
424.263	3299.28
424.471	3180.5
424.679	3393.48
424.887	3379.15
425.094	3667.91
425.302	3622.86
425.51	3651.53
425.718	3860.42
425.925	3794.89
426.133	4130.75
426.341	4241.34
426.548	4403.13
426.756	4335.55
426.964	4448.19
427.171	4657.08
427.379	4927.41
427.586	4976.56
427.794	5142.45
428.001	5281.71
428.209	5765.03
428.417	5529.52
428.624	5910.44
428.832	5765.03
429.039	5822.38
429.247	5793.7
429.454	6406.05
429.662	6799.26
429.869	6277.02
430.076	6948.76
430.284	6518.68
430.491	6956.95
430.699	7067.54
430.906	7290.77
431.114	7436.17
431.321	7698.31
431.528	7923.59
431.736	8150.92
431.943	8849.27
432.15	8421.25
432.358	8521.6
432.565	9076.6
432.772	9045.88
432.979	9217.91
433.187	9535.34
433.394	9494.38
433.601	10282.85
433.808	10303.33
434.016	10348.39
434.223	10579.81
434.43	11292.5
434.637	11116.37
434.844	11659.09
435.052	11878.22
435.259	11626.32
435.466	12072.78
435.673	11798.35
435.88	12644.16
436.087	13373.24
436.294	13158.2
436.501	12871.48
436.708	13285.17
436.915	13725.49
437.122	14206.76
437.329	14151.46
437.537	14808.86
437.743	14778.14
437.95	14782.24
438.157	15664.91
438.364	16185.1
438.571	15912.72
438.778	15965.96
438.985	17596.15
439.192	16832.26
439.399	17440.5
439.606	17096.44
439.813	18114.28
440.02	18953.95
440.227	18527.97
440.433	18302.7
440.64	19111.64
440.847	18837.22
441.054	19592.92
441.261	20659.91
441.467	20655.81
441.674	20993.73
441.881	21747.38
442.088	21284.54
442.294	21403.32
442.501	21741.24
442.708	22558.38
442.914	23320.22
443.121	24110.74
443.328	23432.86
443.534	25245.31
443.741	24495.75
443.948	23981.71
444.154	25958
444.361	25706.1
444.568	25652.86
444.774	25732.73
444.981	26152.56
445.187	26721.9
445.394	27887.19
445.6	27956.82
445.807	30293.55
446.013	28911.17
446.22	29390.4
446.426	30608.94
446.633	31084.07
446.839	32237.08
447.046	30510.64
447.252	32073.24
447.459	32398.87
447.665	32138.77
447.871	33758.72
448.078	35202.53
448.284	33472
448.491	34256.37
448.697	35927.52
448.903	36197.85
449.11	36273.62
449.316	35933.66
449.522	36507.09
449.728	37234.12
449.935	37664.19
450.141	37725.63
450.347	38469.04
450.553	37193.16
450.76	37692.86
450.966	38923.69
451.172	38374.84
451.378	39749.03
451.584	39210.41
451.791	39777.7
451.997	39490.98
452.203	40000.93
452.409	40367.51
452.615	40129.95
452.821	38227.38
453.027	38290.87
453.233	39886.24
453.44	38630.83
453.646	38976.94
453.852	39056.81
454.058	40015.26
454.264	38471.09
454.47	39261.61
454.676	38645.17
454.882	39923.1
455.088	36199.9
455.294	37021.13
455.5	37764.54
455.705	37518.79
455.911	35970.52
456.117	35618.27
456.323	35259.88
456.529	33201.67
456.735	35255.78
456.941	33711.61
457.147	33281.54
457.352	32194.07
457.558	32009.75
457.764	32054.81
457.97	31591.97
458.176	30783.02
458.381	30598.7
458.587	29169.22
458.793	29046.34
458.999	27586.14
459.204	29722.17
459.41	28630.6
459.616	26838.63
459.821	27002.47
460.027	26801.77
460.233	26558.06
460.438	25257.6
460.644	25120.38
460.85	23989.91
461.055	23412.38
461.261	23602.84
461.466	22077.1
461.672	21063.36
461.878	22699.69
462.083	21214.91
462.289	20817.6
462.494	20702.92
462.7	19590.87
462.905	19146.46
463.111	19797.71
463.316	19865.3
463.522	19156.7
463.727	19238.62
463.932	19314.39
464.138	18929.38
464.343	19232.47
464.549	18712.29
464.754	19177.18
464.959	19080.92
465.165	18577.12
465.37	17780.46
465.575	17690.35
465.781	18351.85
465.986	18446.05
466.191	17802.99
466.397	17106.68
466.602	16404.23
466.807	16920.32
467.012	17094.4
