Data from USB4F104151__62__14-30-10-604.txt Node

Date: Thu Mar 13 14:30:10 EDT 2025
User: louis
Spectrometer: USB4F10415
Trigger mode: 4
Integration Time (sec): 2.500000E-2
Scans to average: 1
Electric dark correction enabled: true
Nonlinearity correction enabled: false
Boxcar width: 0
XAxis mode: Wavelengths
Number of Pixels in Spectrum: 3648
>>>>>Begin Spectral Data<<<<<
178.204	-99.84
178.424	-99.84
178.644	-99.84
178.864	-169.47
179.084	-189.95
179.304	25.09
179.524	-34.3
179.744	8.7
179.964	37.38
180.184	2.56
180.404	-5.63
180.624	4.61
180.844	25.09
181.064	-97.79
181.283	8.7
181.503	16.9
181.723	8.7
181.943	-108.03
182.163	47.62
182.383	6.66
182.602	-15.87
182.822	35.33
183.042	-11.78
183.262	41.47
183.482	-9.73
183.701	35.33
183.921	14.85
184.141	-58.88
184.361	72.19
184.58	-1.54
184.8	53.76
185.02	47.62
185.239	16.9
185.459	45.57
185.679	55.81
185.898	12.8
186.118	12.8
186.338	-30.21
186.557	57.86
186.777	14.85
186.997	57.86
187.216	14.85
187.436	113.15
187.655	6.66
187.875	18.94
188.095	57.86
188.314	94.72
188.534	55.81
188.753	51.71
188.973	100.86
189.192	80.38
189.412	-1.54
189.631	23.04
189.851	16.9
190.07	25.09
190.29	-3.58
190.509	-22.02
190.729	14.85
190.948	66.05
191.168	182.78
191.387	-34.3
191.607	49.66
191.826	41.47
192.045	18.94
192.265	74.24
192.484	6.66
192.704	39.42
192.923	-13.82
193.142	88.57
193.362	55.81
193.581	98.81
193.8	82.43
194.02	47.62
194.239	25.09
194.458	59.9
194.678	16.9
194.897	80.38
195.116	70.14
195.335	80.38
195.555	23.04
195.774	37.38
195.993	74.24
196.212	31.23
196.432	0.51
196.651	14.85
196.87	-71.17
197.089	80.38
197.308	72.19
197.528	41.47
197.747	-91.65
197.966	-9.73
198.185	25.09
198.404	-32.26
198.623	66.05
198.842	-34.3
199.062	74.24
199.281	-1.54
199.5	-26.11
199.719	0.51
199.938	-26.11
200.157	33.28
200.376	80.38
200.595	23.04
200.814	68.09
201.033	68.09
201.252	43.52
201.471	-17.92
201.69	49.66
201.909	31.23
202.128	88.57
202.347	23.04
202.566	47.62
202.785	-15.87
203.004	78.33
203.223	53.76
203.442	4.61
203.661	35.33
203.879	-22.02
204.098	74.24
204.317	14.85
204.536	8.7
204.755	39.42
204.974	41.47
205.193	-9.73
205.411	131.58
205.63	47.62
205.849	16.9
206.068	-26.11
206.287	-50.69
206.505	27.14
206.724	-30.21
206.943	-17.92
207.162	-24.06
207.381	-67.07
207.599	49.66
207.818	-40.45
208.037	-50.69
208.255	-42.5
208.474	31.23
208.693	88.57
208.911	8.7
209.13	10.75
209.349	39.42
209.567	14.85
209.786	31.23
210.005	47.62
210.223	-60.93
210.442	-13.82
210.661	-1.54
210.879	6.66
211.098	59.9
211.316	10.75
211.535	96.77
211.753	25.09
211.972	27.14
212.191	-7.68
212.409	-1.54
212.628	53.76
212.846	43.52
213.065	23.04
213.283	55.81
213.502	0.51
213.72	-15.87
213.938	-11.78
214.157	72.19
214.375	-42.5
214.594	37.38
214.812	72.19
215.031	53.76
215.249	25.09
215.467	33.28
215.686	14.85
215.904	76.29
216.122	27.14
216.341	76.29
216.559	78.33
216.778	2.56
216.996	117.25
217.214	25.09
217.432	49.66
217.651	-9.73
217.869	6.66
218.087	-50.69
218.306	-50.69
218.524	55.81
218.742	16.9
218.96	20.99
219.179	43.52
219.397	35.33
219.615	92.67
219.833	16.9
220.051	-26.11
220.27	64
220.488	2.56
220.706	6.66
220.924	-3.58
221.142	-19.97
221.36	25.09
221.578	41.47
221.796	68.09
222.015	-9.73
222.233	-15.87
222.451	59.9
222.669	31.23
222.887	55.81
223.105	49.66
223.323	23.04
223.541	-50.69
223.759	72.19
223.977	-11.78
224.195	41.47
224.413	2.56
224.631	20.99
224.849	6.66
225.067	29.18
225.285	82.43
225.503	37.38
225.721	-34.3
225.939	100.86
226.157	-34.3
226.375	129.53
226.592	-28.16
226.81	49.66
227.028	59.9
227.246	41.47
227.464	51.71
227.682	6.66
227.9	117.25
228.117	20.99
228.335	-22.02
228.553	12.8
228.771	-26.11
228.989	10.75
229.206	82.43
229.424	80.38
229.642	49.66
229.86	39.42
230.077	72.19
230.295	-32.26
230.513	47.62
230.731	51.71
230.948	55.81
231.166	72.19
231.384	14.85
231.601	-26.11
231.819	18.94
232.037	12.8
232.254	-42.5
232.472	80.38
232.689	66.05
232.907	16.9
233.125	43.52
233.342	14.85
233.56	-34.3
233.777	74.24
233.995	4.61
234.213	55.81
234.43	20.99
234.648	39.42
234.865	-17.92
235.083	23.04
235.3	-19.97
235.518	82.43
235.735	47.62
235.953	53.76
236.17	-13.82
236.388	-9.73
236.605	39.42
236.822	109.05
237.04	88.57
237.257	94.72
237.475	47.62
237.692	39.42
237.909	0.51
238.127	41.47
238.344	96.77
238.562	61.95
238.779	14.85
238.996	-13.82
239.214	37.38
239.431	76.29
239.648	-5.63
239.865	-1.54
240.083	23.04
240.3	-40.45
240.517	-24.06
240.735	-40.45
240.952	74.24
241.169	45.57
241.386	55.81
241.603	84.48
241.821	-26.11
242.038	123.39
242.255	64
242.472	20.99
242.689	57.86
242.907	23.04
243.124	14.85
243.341	55.81
243.558	-9.73
243.775	-17.92
243.992	-17.92
244.209	31.23
244.426	123.39
244.643	6.66
244.86	-44.54
245.078	111.1
245.295	61.95
245.512	-3.58
245.729	39.42
245.946	25.09
246.163	37.38
246.38	-1.54
246.597	53.76
246.814	43.52
247.031	14.85
247.248	-15.87
247.464	-19.97
247.681	14.85
247.898	49.66
248.115	76.29
248.332	-28.16
248.549	-48.64
248.766	70.14
248.983	76.29
249.2	33.28
249.417	115.2
249.633	6.66
249.85	16.9
250.067	27.14
250.284	14.85
250.501	51.71
250.717	-1.54
250.934	47.62
251.151	-1.54
251.368	6.66
251.585	55.81
251.801	6.66
252.018	66.05
252.235	66.05
252.451	18.94
252.668	70.14
252.885	64
253.102	39.42
253.318	23.04
253.535	64
253.752	-7.68
253.968	86.53
254.185	31.23
254.401	41.47
254.618	-1.54
254.835	-5.63
255.051	90.62
255.268	-34.3
255.484	96.77
255.701	31.23
255.917	55.81
256.134	14.85
256.351	37.38
256.567	31.23
256.784	27.14
257	14.85
257.217	23.04
257.433	78.33
257.65	113.15
257.866	-11.78
258.082	0.51
258.299	37.38
258.515	33.28
258.732	14.85
258.948	-26.11
259.165	-42.5
259.381	27.14
259.597	47.62
259.814	16.9
260.03	10.75
260.246	113.15
260.463	29.18
260.679	14.85
260.895	39.42
261.112	47.62
261.328	64
261.544	29.18
261.761	55.81
261.977	76.29
262.193	10.75
262.409	8.7
262.626	43.52
262.842	66.05
263.058	18.94
263.274	-75.26
263.49	-15.87
263.707	55.81
263.923	66.05
264.139	-46.59
264.355	33.28
264.571	72.19
264.787	-9.73
265.004	43.52
265.22	55.81
265.436	8.7
265.652	33.28
265.868	45.57
266.084	25.09
266.3	57.86
266.516	6.66
266.732	-42.5
266.948	57.86
267.164	-7.68
267.38	39.42
267.596	14.85
267.812	137.73
268.028	39.42
268.244	41.47
268.46	-38.4
268.676	-28.16
268.892	61.95
269.108	-7.68
269.324	-24.06
269.54	-7.68
269.756	104.96
269.972	-5.63
270.188	125.44
270.403	2.56
270.619	-75.26
270.835	31.23
271.051	57.86
271.267	70.14
271.483	-58.88
271.698	0.51
271.914	39.42
272.13	80.38
272.346	-5.63
272.562	25.09
272.777	80.38
272.993	23.04
273.209	18.94
273.425	45.57
273.64	41.47
273.856	72.19
274.072	25.09
274.287	18.94
274.503	66.05
274.719	72.19
274.934	47.62
275.15	-30.21
275.366	6.66
275.581	96.77
275.797	64
276.012	53.76
276.228	33.28
276.444	43.52
276.659	55.81
276.875	35.33
277.09	104.96
277.306	4.61
277.521	51.71
277.737	0.51
277.952	72.19
278.168	-9.73
278.383	113.15
278.599	43.52
278.814	31.23
279.03	16.9
279.245	47.62
279.461	29.18
279.676	90.62
279.892	-30.21
280.107	-65.02
280.322	2.56
280.538	20.99
280.753	51.71
280.969	47.62
281.184	16.9
281.399	147.97
281.615	16.9
281.83	64
282.045	2.56
282.26	20.99
282.476	-26.11
282.691	33.28
282.906	59.9
283.122	31.23
283.337	4.61
283.552	74.24
283.767	41.47
283.983	33.28
284.198	35.33
284.413	-34.3
284.628	-44.54
284.843	47.62
285.058	39.42
285.274	49.66
285.489	25.09
285.704	-9.73
285.919	10.75
286.134	47.62
286.349	80.38
286.564	55.81
286.779	145.92
286.995	-26.11
287.21	4.61
287.425	80.38
287.64	33.28
287.855	68.09
288.07	-36.35
288.285	6.66
288.5	57.86
288.715	72.19
288.93	18.94
289.145	14.85
289.36	129.53
289.575	-15.87
289.79	84.48
290.004	-30.21
290.219	72.19
290.434	-50.69
290.649	23.04
290.864	80.38
291.079	33.28
291.294	47.62
291.509	-5.63
291.724	6.66
291.938	33.28
292.153	74.24
292.368	18.94
292.583	74.24
292.798	96.77
293.012	39.42
293.227	18.94
293.442	68.09
293.657	125.44
293.871	47.62
294.086	82.43
294.301	127.49
294.516	64
294.73	-1.54
294.945	8.7
295.16	2.56
295.374	41.47
295.589	104.96
295.804	14.85
296.018	82.43
296.233	27.14
296.447	82.43
296.662	-24.06
296.877	23.04
297.091	-9.73
297.306	64
297.52	-17.92
297.735	10.75
297.949	78.33
298.164	107.01
298.378	-58.88
298.593	-67.07
298.807	33.28
299.022	41.47
299.236	55.81
299.451	51.71
299.665	-15.87
299.88	14.85
300.094	25.09
300.309	59.9
300.523	39.42
300.737	4.61
300.952	47.62
301.166	35.33
301.381	80.38
301.595	-17.92
301.809	39.42
302.024	-9.73
302.238	6.66
302.452	74.24
302.667	12.8
302.881	96.77
303.095	78.33
303.309	27.14
303.524	39.42
303.738	23.04
303.952	-22.02
304.166	16.9
304.381	-75.26
304.595	61.95
304.809	-1.54
305.023	31.23
305.237	47.62
305.452	88.57
305.666	27.14
305.88	33.28
306.094	70.14
306.308	74.24
306.522	86.53
306.736	31.23
306.95	49.66
307.164	39.42
307.379	2.56
307.593	72.19
307.807	64
308.021	29.18
308.235	43.52
308.449	47.62
308.663	88.57
308.877	170.49
309.091	39.42
309.305	92.67
309.519	31.23
309.733	43.52
309.947	2.56
310.161	102.91
310.374	64
310.588	39.42
310.802	6.66
311.016	55.81
311.23	31.23
311.444	20.99
311.658	0.51
311.872	57.86
312.085	-9.73
312.299	64
312.513	6.66
312.727	51.71
312.941	6.66
313.154	35.33
313.368	-17.92
313.582	74.24
313.796	78.33
314.009	31.23
314.223	68.09
314.437	-7.68
314.651	35.33
314.864	-13.82
315.078	-1.54
315.292	31.23
315.505	49.66
315.719	39.42
315.933	41.47
316.146	25.09
316.36	-17.92
316.573	55.81
316.787	80.38
317.001	49.66
317.214	-50.69
317.428	2.56
317.641	47.62
317.855	53.76
318.068	68.09
318.282	68.09
318.495	133.63
318.709	14.85
318.922	31.23
319.136	74.24
319.349	96.77
319.563	51.71
319.776	8.7
319.99	39.42
320.203	72.19
320.417	-11.78
320.63	14.85
320.843	84.48
321.057	100.86
321.27	47.62
321.483	129.53
321.697	51.71
321.91	12.8
322.124	-7.68
322.337	82.43
322.55	76.29
322.763	18.94
322.977	35.33
323.19	-73.21
323.403	23.04
323.617	-42.5
323.83	100.86
324.043	80.38
324.256	84.48
324.469	-17.92
324.683	80.38
324.896	-46.59
325.109	31.23
325.322	25.09
325.535	59.9
325.748	76.29
325.962	-5.63
326.175	-26.11
326.388	113.15
326.601	68.09
326.814	80.38
327.027	55.81
327.24	23.04
327.453	-75.26
327.666	55.81
327.879	33.28
328.092	41.47
328.305	29.18
328.518	31.23
328.731	55.81
328.944	72.19
329.157	96.77
329.37	10.75
329.583	64
329.796	96.77
330.009	-32.26
330.222	31.23
330.435	47.62
330.648	51.71
330.861	115.2
331.073	84.48
331.286	113.15
331.499	10.75
331.712	14.85
331.925	14.85
332.138	74.24
332.35	61.95
332.563	47.62
332.776	90.62
332.989	4.61
333.202	41.47
333.414	6.66
333.627	41.47
333.84	49.66
334.053	88.57
334.265	10.75
334.478	-1.54
334.691	23.04
334.903	31.23
335.116	-38.4
335.329	70.14
335.541	29.18
335.754	70.14
335.966	41.47
336.179	-22.02
336.392	59.9
336.604	-7.68
336.817	59.9
337.029	31.23
337.242	18.94
337.454	14.85
337.667	92.67
337.88	131.58
338.092	39.42
338.305	-13.82
338.517	0.51
338.729	14.85
338.942	64
339.154	-26.11
339.367	20.99
339.579	57.86
339.792	31.23
340.004	61.95
340.217	-15.87
340.429	55.81
340.641	-1.54
340.854	66.05
341.066	88.57
341.278	-22.02
341.491	137.73
341.703	80.38
341.915	6.66
342.128	96.77
342.34	0.51
342.552	68.09
342.764	84.48
342.977	41.47
343.189	14.85
343.401	74.24
343.613	2.56
343.826	64
344.038	31.23
344.25	23.04
344.462	10.75
344.674	2.56
344.886	31.23
345.099	96.77
345.311	98.81
345.523	27.14
345.735	12.8
345.947	39.42
346.159	88.57
346.371	25.09
346.583	96.77
346.795	121.34
347.007	8.7
347.219	66.05
347.431	-9.73
347.643	76.29
347.855	18.94
348.067	96.77
348.279	25.09
348.491	43.52
348.703	27.14
348.915	6.66
349.127	18.94
349.339	39.42
349.551	-15.87
349.763	121.34
349.975	76.29
350.187	119.29
350.399	10.75
350.61	88.57
350.822	35.33
351.034	25.09
351.246	72.19
351.458	98.81
351.669	20.99
351.881	117.25
352.093	145.92
352.305	88.57
352.517	100.86
352.728	14.85
352.94	4.61
353.152	-26.11
353.363	-7.68
353.575	88.57
353.787	96.77
353.999	55.81
354.21	80.38
354.422	121.34
354.633	-5.63
354.845	14.85
355.057	23.04
355.268	51.71
355.48	55.81
355.692	57.86
355.903	47.62
356.115	100.86
356.326	51.71
356.538	102.91
356.749	80.38
356.961	96.77
357.172	6.66
357.384	49.66
357.595	88.57
357.807	27.14
358.018	55.81
358.23	-17.92
358.441	66.05
358.653	113.15
358.864	-7.68
359.075	-65.02
359.287	88.57
359.498	72.19
359.709	-11.78
359.921	70.14
360.132	6.66
360.344	41.47
360.555	78.33
360.766	88.57
360.977	59.9
361.189	82.43
361.4	33.28
361.611	47.62
361.823	186.88
362.034	129.53
362.245	74.24
362.456	59.9
362.667	39.42
362.879	-7.68
363.09	0.51
363.301	92.67
363.512	39.42
363.723	8.7
363.935	33.28
364.146	47.62
364.357	-7.68
364.568	64
364.779	33.28
364.99	82.43
365.201	-22.02
365.412	72.19
365.623	-7.68
365.834	39.42
366.045	39.42
366.256	131.58
366.467	90.62
366.678	57.86
366.889	25.09
367.1	31.23
367.311	74.24
367.522	64
367.733	29.18
367.944	80.38
368.155	39.42
368.366	29.18
368.577	131.58
368.788	96.77
368.999	27.14
369.209	57.86
369.42	115.2
369.631	51.71
369.842	66.05
370.053	41.47
370.264	68.09
370.474	117.25
370.685	33.28
370.896	31.23
371.107	113.15
371.317	129.53
371.528	25.09
371.739	88.57
371.95	61.95
372.16	6.66
372.371	10.75
372.582	47.62
372.792	72.19
373.003	145.92
373.214	20.99
373.424	51.71
373.635	-40.45
373.846	100.86
374.056	49.66
374.267	37.38
374.477	51.71
374.688	14.85
374.898	-7.68
375.109	18.94
375.319	92.67
375.53	188.93
375.74	49.66
375.951	27.14
376.161	49.66
376.372	72.19
376.582	39.42
376.793	96.77
377.003	68.09
377.214	16.9
377.424	41.47
377.635	33.28
377.845	61.95
378.055	123.39
378.266	27.14
378.476	35.33
378.686	82.43
378.897	104.96
379.107	18.94
379.317	76.29
379.528	45.57
379.738	139.77
379.948	-42.5
380.158	174.59
380.369	66.05
380.579	39.42
380.789	14.85
380.999	80.38
381.21	23.04
381.42	98.81
381.63	25.09
381.84	55.81
382.05	41.47
382.261	59.9
382.471	27.14
382.681	74.24
382.891	27.14
383.101	57.86
383.311	-22.02
383.521	14.85
383.731	86.53
383.941	133.63
384.151	18.94
384.361	76.29
384.571	145.92
384.781	70.14
384.991	139.77
385.201	107.01
385.411	119.29
385.621	27.14
385.831	-19.97
386.041	27.14
386.251	12.8
386.461	74.24
386.671	80.38
386.881	55.81
387.091	33.28
387.301	61.95
387.511	104.96
387.72	88.57
387.93	39.42
388.14	-5.63
388.35	25.09
388.56	84.48
388.769	113.15
388.979	76.29
389.189	39.42
389.399	72.19
389.609	98.81
389.818	129.53
390.028	109.05
390.238	90.62
390.447	-9.73
390.657	131.58
390.867	92.67
391.076	47.62
391.286	102.91
391.496	104.96
391.705	33.28
391.915	115.2
392.125	80.38
392.334	80.38
392.544	109.05
392.753	117.25
392.963	104.96
393.172	125.44
393.382	39.42
393.591	137.73
393.801	31.23
394.01	98.81
394.22	107.01
394.429	61.95
394.639	80.38
394.848	158.21
395.058	6.66
395.267	119.29
395.477	82.43
395.686	88.57
395.895	137.73
396.105	186.88
396.314	80.38
396.524	113.15
396.733	-7.68
396.942	64
397.152	109.05
397.361	98.81
397.57	139.77
397.78	47.62
397.989	82.43
398.198	121.34
398.407	104.96
398.617	47.62
398.826	74.24
399.035	84.48
399.244	190.97
399.453	104.96
399.663	107.01
399.872	182.78
400.081	164.35
400.29	182.78
400.499	150.01
400.708	104.96
400.917	84.48
401.127	156.16
401.336	137.73
401.545	164.35
401.754	133.63
401.963	104.96
402.172	84.48
402.381	119.29
402.59	133.63
402.799	117.25
403.008	145.92
403.217	158.21
403.426	104.96
403.635	96.77
403.844	162.3
404.053	139.77
404.262	137.73
404.471	279.04
404.68	174.59
404.888	190.97
405.097	129.53
405.306	150.01
405.515	100.86
405.724	195.07
405.933	305.66
406.142	236.03
406.35	299.52
406.559	178.69
406.768	190.97
406.977	207.36
407.185	256.51
407.394	236.03
407.603	221.69
407.812	276.99
408.02	270.84
408.229	276.99
408.438	276.99
408.646	256.51
408.855	340.47
409.064	358.91
409.272	311.8
409.481	295.42
409.69	297.47
409.898	342.52
410.107	379.39
410.315	387.58
410.524	412.15
410.733	455.16
410.941	451.07
411.15	467.45
411.358	514.55
411.567	498.17
411.775	492.02
411.984	436.73
412.192	506.36
412.401	469.5
412.609	494.07
412.818	596.47
413.026	600.57
413.234	600.57
413.443	594.42
413.651	629.24
413.86	748.02
414.068	752.12
414.276	715.25
414.485	760.31
414.693	840.18
414.901	879.09
415.11	895.47
415.318	948.72
415.526	885.23
415.734	860.66
415.943	913.91
416.151	1008.11
416.359	1014.26
416.567	1055.22
416.776	1124.85
416.984	1227.25
417.192	1217.01
417.4	1182.19
417.608	1235.44
417.817	1169.9
418.025	1268.2
418.233	1444.33
418.441	1376.75
418.649	1407.47
418.857	1528.3
419.065	1624.55
419.273	1462.76
419.481	1612.26
419.689	1851.88
419.897	1780.2
420.105	1815.01
420.313	1890.79
420.521	1962.47
420.729	1995.23
420.937	2054.62
421.145	2179.55
421.353	2144.74
421.561	2370.01
421.769	2343.39
421.977	2449.88
422.185	2417.12
422.393	2669.02
422.601	2744.79
422.809	2728.41
423.017	2689.49
423.224	2957.78
423.432	2941.4
423.64	2990.55
423.848	3234.25
424.056	3172.82
424.263	3402.19
424.471	3451.34
424.679	3561.93
424.887	3674.57
425.094	3850.69
425.302	3883.46
425.51	3805.64
425.718	4037.06
425.925	4172.22
426.133	4303.29
426.341	4594.11
426.548	4659.64
426.756	4710.84
426.964	4798.9
427.171	4942.26
427.379	5124.53
427.586	5071.28
427.794	5398.96
428.001	5515.69
428.209	5730.73
428.417	5874.09
428.624	6125.99
428.832	6277.54
429.039	6187.43
429.247	6320.54
429.454	6785.43
429.662	7178.64
429.869	6715.8
430.076	7301.52
430.284	6959.51
430.491	7330.19
430.699	7674.25
430.906	7764.36
431.114	7872.9
431.321	8292.74
431.528	8350.08
431.736	8808.83
431.943	9173.36
432.15	8966.52
432.358	9056.63
432.565	9601.39
432.772	9316.72
432.979	9908.58
433.187	10152.29
433.394	10303.84
433.601	10836.31
433.808	10942.81
434.016	10785.12
434.223	11014.49
434.43	11745.61
434.637	11778.38
434.844	12353.86
435.052	12470.59
435.259	12548.42
435.466	12583.23
435.673	12577.09
435.88	13340.98
436.087	13850.92
436.294	14018.86
436.501	13781.29
436.708	14084.39
436.915	14426.4
437.122	15026.46
437.329	15055.13
437.537	15378.71
437.743	15767.82
437.95	15558.93
438.157	16699.65
438.364	16935.17
438.571	16931.07
438.778	17150.2
438.985	18462.95
439.192	17752.31
439.399	18305.26
439.606	17903.85
439.813	18925.79
440.02	20211.92
440.227	19902.67
440.433	19548.37
440.64	20508.87
440.847	20037.84
441.054	20486.34
441.261	21807.28
441.467	21725.36
441.674	22137.01
441.881	22888.61
442.088	22864.04
442.294	22618.28
442.501	23128.22
442.708	23632.02
442.914	24494.22
443.121	25368.7
443.328	24625.29
443.534	26620.01
443.741	26054.77
443.948	25272.45
444.154	27267.17
444.361	27326.56
444.568	27353.18
444.774	27697.24
444.981	27844.7
445.187	28393.55
445.394	29855.8
445.6	29491.26
445.807	32464.91
446.013	30629.93
446.22	31287.33
446.426	32090.13
446.633	32880.65
446.839	33701.89
447.046	32444.43
447.252	34314.23
447.459	33927.16
447.665	33736.7
447.871	35551.2
448.078	37146.57
448.284	35246.05
448.491	36104.15
448.697	37521.35
448.903	38295.48
449.11	38291.38
449.316	37724.1
449.522	38897.58
449.728	39870.37
449.935	40167.32
450.141	39815.07
450.347	40621.97
450.553	39425.96
450.76	39806.88
450.966	41152.4
451.172	40456.09
451.378	41760.64
451.584	40963.98
451.791	42094.46
451.997	41750.4
452.203	42733.43
452.409	42678.13
452.615	41967.49
452.821	40724.37
453.027	40193.95
453.233	42680.18
453.44	40654.74
453.646	41129.87
453.852	41291.66
454.058	42536.82
454.264	40732.56
454.47	41799.55
454.676	40734.61
454.882	42229.63
455.088	38404.02
455.294	38983.6
455.5	39718.82
455.705	39972.77
455.911	38557.62
456.117	37476.29
456.323	36751.31
456.529	35016.68
456.735	36712.4
456.941	36022.23
457.147	35293.16
457.352	34267.13
457.558	33656.83
457.764	33337.35
457.97	32804.88
458.176	32145.43
458.381	32262.16
458.587	30681.13
458.793	30718
458.999	29237.31
459.204	31578.14
459.41	30568.49
459.616	28403.79
459.821	28536.91
460.027	28395.6
460.233	27592.79
460.438	26142.83
460.644	26630.25
460.85	25114.75
461.055	24924.29
461.261	24866.95
461.466	22968.48
461.672	22345.9
461.878	23709.85
462.083	22354.09
462.289	21901.49
462.494	21723.32
462.7	20738.24
462.905	19894.48
463.111	20889.79
463.316	20961.47
463.522	20314.31
463.727	20302.03
463.932	20531.4
464.138	20205.77
464.343	20302.03
464.549	19716.31
464.754	20338.89
464.959	20203.72
465.165	19724.5
465.37	18979.04
465.575	18657.51
465.781	19362.01
465.986	19316.95
466.191	18544.87
466.397	17959.15
466.602	17254.65
466.807	17889.52
467.012	17823.98
467.218	17836.27
467.423	17643.76
