Data from USB4F104151__246__14-34-12-835.txt Node

Date: Thu Mar 13 14:34:12 EDT 2025
User: louis
Spectrometer: USB4F10415
Trigger mode: 4
Integration Time (sec): 2.500000E-2
Scans to average: 1
Electric dark correction enabled: true
Nonlinearity correction enabled: false
Boxcar width: 0
XAxis mode: Wavelengths
Number of Pixels in Spectrum: 3648
>>>>>Begin Spectral Data<<<<<
178.204	-125.27
178.424	-125.27
178.644	-125.27
178.864	-127.32
179.084	-123.22
179.304	-22.87
179.524	-4.44
179.744	44.71
179.964	59.05
180.184	-22.87
180.404	22.19
180.624	-2.39
180.844	-22.87
181.064	-53.59
181.283	26.28
181.503	-61.78
181.723	38.57
181.943	-57.68
182.163	104.11
182.383	30.38
182.602	126.63
182.822	32.43
183.042	-6.49
183.262	48.81
183.482	89.77
183.701	110.25
183.921	75.43
184.141	87.72
184.361	118.44
184.58	50.86
184.8	42.67
185.02	-18.77
185.239	102.06
185.459	63.15
185.679	128.68
185.898	-63.83
186.118	26.28
186.338	26.28
186.557	11.95
186.777	28.33
186.997	97.96
187.216	40.62
187.436	173.74
187.655	28.33
187.875	61.1
188.095	50.86
188.314	38.57
188.534	136.87
188.753	50.86
188.973	34.47
189.192	120.49
189.412	36.52
189.631	13.99
189.851	44.71
190.07	151.21
190.29	28.33
190.509	42.67
190.729	22.19
190.948	149.16
191.168	177.83
191.387	71.34
191.607	59.05
191.826	42.67
192.045	-69.97
192.265	79.53
192.484	20.14
192.704	52.91
192.923	-63.83
193.142	181.93
193.362	5.8
193.581	91.82
193.8	97.96
194.02	104.11
194.239	-41.3
194.458	59.05
194.678	102.06
194.897	75.43
195.116	34.47
195.335	52.91
195.555	77.48
195.774	28.33
195.993	44.71
196.212	30.38
196.432	100.01
196.651	-26.96
196.87	11.95
197.089	134.82
197.308	52.91
197.528	71.34
197.747	-18.77
197.966	36.52
198.185	57
198.404	46.76
198.623	34.47
198.842	79.53
199.062	104.11
199.281	57
199.5	120.49
199.719	83.63
199.938	71.34
200.157	87.72
200.376	100.01
200.595	126.63
200.814	167.59
201.033	61.1
201.252	44.71
201.471	9.9
201.69	54.95
201.909	77.48
202.128	95.91
202.347	54.95
202.566	42.67
202.785	-26.96
203.004	50.86
203.223	173.74
203.442	106.15
203.661	54.95
203.879	106.15
204.098	87.72
204.317	63.15
204.536	91.82
204.755	97.96
204.974	44.71
205.193	63.15
205.411	126.63
205.63	11.95
205.849	75.43
206.068	44.71
206.287	18.09
206.505	91.82
206.724	44.71
206.943	-4.44
207.162	93.87
207.381	50.86
207.599	77.48
207.818	67.24
208.037	61.1
208.255	67.24
208.474	126.63
208.693	106.15
208.911	7.85
209.13	20.14
209.349	102.06
209.567	1.71
209.786	83.63
210.005	85.67
210.223	18.09
210.442	24.23
210.661	26.28
210.879	130.73
211.098	20.14
211.316	38.57
211.535	79.53
211.753	5.8
211.972	100.01
212.191	3.75
212.409	24.23
212.628	28.33
212.846	79.53
213.065	59.05
213.283	118.44
213.502	-12.63
213.72	48.81
213.938	81.58
214.157	67.24
214.375	54.95
214.594	54.95
214.812	44.71
215.031	11.95
215.249	34.47
215.467	-12.63
215.686	-4.44
215.904	59.05
216.122	34.47
216.341	44.71
216.559	52.91
216.778	52.91
216.996	77.48
217.214	104.11
217.432	59.05
217.651	61.1
217.869	71.34
218.087	30.38
218.306	87.72
218.524	42.67
218.742	100.01
218.96	-6.49
219.179	16.04
219.397	116.39
219.615	134.82
219.833	44.71
220.051	63.15
220.27	22.19
220.488	54.95
220.706	95.91
220.924	67.24
221.142	114.34
221.36	50.86
221.578	46.76
221.796	26.28
222.015	75.43
222.233	75.43
222.451	93.87
222.669	-47.44
222.887	128.68
223.105	-33.11
223.323	61.1
223.541	-6.49
223.759	75.43
223.977	26.28
224.195	128.68
224.413	34.47
224.631	-22.87
224.849	-31.06
225.067	102.06
225.285	50.86
225.503	67.24
225.721	36.52
225.939	52.91
226.157	9.9
226.375	71.34
226.592	-18.77
226.81	34.47
227.028	69.29
227.246	71.34
227.464	26.28
227.682	85.67
227.9	71.34
228.117	26.28
228.335	79.53
228.553	97.96
228.771	26.28
228.989	32.43
229.206	75.43
229.424	26.28
229.642	5.8
229.86	-39.25
230.077	-39.25
230.295	26.28
230.513	140.97
230.731	61.1
230.948	93.87
231.166	30.38
231.384	28.33
231.601	34.47
231.819	63.15
232.037	16.04
232.254	1.71
232.472	110.25
232.689	44.71
232.907	108.2
233.125	91.82
233.342	63.15
233.56	26.28
233.777	16.04
233.995	28.33
234.213	18.09
234.43	63.15
234.648	38.57
234.865	-10.58
235.083	79.53
235.3	108.2
235.518	52.91
235.735	145.06
235.953	71.34
236.17	-18.77
236.388	22.19
236.605	79.53
236.822	5.8
237.04	71.34
237.257	-14.68
237.475	22.19
237.692	42.67
237.909	69.29
238.127	38.57
238.344	118.44
238.562	143.02
238.779	26.28
238.996	50.86
239.214	-0.34
239.431	69.29
239.648	-10.58
239.865	42.67
240.083	91.82
240.3	40.62
240.517	-29.01
240.735	50.86
240.952	16.04
241.169	67.24
241.386	18.09
241.603	28.33
241.821	93.87
242.038	136.87
242.255	59.05
242.472	1.71
242.689	81.58
242.907	34.47
243.124	-10.58
243.341	9.9
243.558	71.34
243.775	1.71
243.992	-80.21
244.209	63.15
244.426	71.34
244.643	118.44
244.86	87.72
245.078	22.19
245.295	13.99
245.512	-4.44
245.729	-14.68
245.946	75.43
246.163	13.99
246.38	34.47
246.597	-31.06
246.814	34.47
247.031	59.05
247.248	85.67
247.464	34.47
247.681	59.05
247.898	46.76
248.115	28.33
248.332	1.71
248.549	50.86
248.766	132.78
248.983	91.82
249.2	122.54
249.417	132.78
249.633	63.15
249.85	50.86
250.067	100.01
250.284	79.53
250.501	83.63
250.717	77.48
250.934	7.85
251.151	28.33
251.368	79.53
251.585	71.34
251.801	36.52
252.018	7.85
252.235	134.82
252.451	-72.02
252.668	-26.96
252.885	77.48
253.102	77.48
253.318	1.71
253.535	36.52
253.752	22.19
253.968	50.86
254.185	18.09
254.401	42.67
254.618	89.77
254.835	50.86
255.051	161.45
255.268	116.39
255.484	67.24
255.701	28.33
255.917	75.43
256.134	-47.44
256.351	32.43
256.567	-24.92
256.784	36.52
257	-14.68
257.217	79.53
257.433	44.71
257.65	-4.44
257.866	93.87
258.082	-39.25
258.299	-18.77
258.515	61.1
258.732	5.8
258.948	18.09
259.165	30.38
259.381	-14.68
259.597	-12.63
259.814	93.87
260.03	5.8
260.246	44.71
260.463	140.97
260.679	42.67
260.895	63.15
261.112	93.87
261.328	71.34
261.544	50.86
261.761	147.11
261.977	-4.44
262.193	112.3
262.409	69.29
262.626	79.53
262.842	77.48
263.058	22.19
263.274	120.49
263.49	5.8
263.707	1.71
263.923	34.47
264.139	20.14
264.355	38.57
264.571	97.96
264.787	42.67
265.004	104.11
265.22	5.8
265.436	-20.82
265.652	42.67
265.868	132.78
266.084	-45.4
266.3	-14.68
266.516	-6.49
266.732	32.43
266.948	30.38
267.164	61.1
267.38	85.67
267.596	85.67
267.812	87.72
268.028	79.53
268.244	22.19
268.46	110.25
268.676	63.15
268.892	54.95
269.108	69.29
269.324	59.05
269.54	-31.06
269.756	126.63
269.972	26.28
270.188	42.67
270.403	42.67
270.619	50.86
270.835	91.82
271.051	116.39
271.267	57
271.483	9.9
271.698	5.8
271.914	93.87
272.13	149.16
272.346	73.39
272.562	-4.44
272.777	77.48
272.993	132.78
273.209	26.28
273.425	61.1
273.64	1.71
273.856	85.67
274.072	50.86
274.287	28.33
274.503	52.91
274.719	91.82
274.934	65.19
275.15	30.38
275.366	36.52
275.581	-31.06
275.797	71.34
276.012	91.82
276.228	91.82
276.444	52.91
276.659	140.97
276.875	1.71
277.09	36.52
277.306	-55.64
277.521	44.71
277.737	-14.68
277.952	91.82
278.168	-0.34
278.383	63.15
278.599	18.09
278.814	-18.77
279.03	1.71
279.245	118.44
279.461	73.39
279.676	38.57
279.892	1.71
280.107	1.71
280.322	-14.68
280.538	-33.11
280.753	-10.58
280.969	61.1
281.184	65.19
281.399	97.96
281.615	93.87
281.83	65.19
282.045	-80.21
282.26	-39.25
282.476	52.91
282.691	63.15
282.906	65.19
283.122	71.34
283.337	-29.01
283.552	89.77
283.767	61.1
283.983	169.64
284.198	36.52
284.413	59.05
284.628	-14.68
284.843	67.24
285.058	54.95
285.274	1.71
285.489	18.09
285.704	134.82
285.919	-12.63
286.134	22.19
286.349	3.75
286.564	91.82
286.779	122.54
286.995	26.28
287.21	20.14
287.425	104.11
287.64	5.8
287.855	118.44
288.07	77.48
288.285	1.71
288.5	120.49
288.715	22.19
288.93	-31.06
289.145	69.29
289.36	100.01
289.575	59.05
289.79	42.67
290.004	-2.39
290.219	91.82
290.434	-10.58
290.649	42.67
290.864	71.34
291.079	26.28
291.294	85.67
291.509	40.62
291.724	34.47
291.938	52.91
292.153	63.15
292.368	20.14
292.583	38.57
292.798	124.58
293.012	108.2
293.227	69.29
293.442	-31.06
293.657	100.01
293.871	124.58
294.086	87.72
294.301	85.67
294.516	52.91
294.73	3.75
294.945	1.71
295.16	30.38
295.374	126.63
295.589	89.77
295.804	59.05
296.018	67.24
296.233	116.39
296.447	124.58
296.662	26.28
296.877	108.2
297.091	11.95
297.306	95.91
297.52	22.19
297.735	16.04
297.949	81.58
298.164	18.09
298.378	104.11
298.593	42.67
298.807	48.81
299.022	36.52
299.236	114.34
299.451	-4.44
299.665	9.9
299.88	22.19
300.094	57
300.309	112.3
300.523	102.06
300.737	50.86
300.952	75.43
301.166	69.29
301.381	42.67
301.595	13.99
301.809	42.67
302.024	67.24
302.238	50.86
302.452	118.44
302.667	75.43
302.881	42.67
303.095	71.34
303.309	108.2
303.524	-6.49
303.738	87.72
303.952	-0.34
304.166	42.67
304.381	22.19
304.595	95.91
304.809	32.43
305.023	108.2
305.237	44.71
305.452	22.19
305.666	18.09
305.88	83.63
306.094	1.71
306.308	132.78
306.522	61.1
306.736	30.38
306.95	93.87
307.164	46.76
307.379	83.63
307.593	116.39
307.807	59.05
308.021	42.67
308.235	85.67
308.449	9.9
308.663	46.76
308.877	100.01
309.091	69.29
309.305	118.44
309.519	13.99
309.733	-26.96
309.947	-53.59
310.161	95.91
310.374	89.77
310.588	71.34
310.802	67.24
311.016	30.38
311.23	102.06
311.444	-45.4
311.658	9.9
311.872	110.25
312.085	50.86
312.299	83.63
312.513	91.82
312.727	67.24
312.941	48.81
313.154	-39.25
313.368	-14.68
313.582	5.8
313.796	1.71
314.009	9.9
314.223	79.53
314.437	42.67
314.651	102.06
314.864	79.53
315.078	13.99
315.292	38.57
315.505	-10.58
315.719	79.53
315.933	44.71
316.146	18.09
316.36	9.9
316.573	112.3
316.787	50.86
317.001	110.25
317.214	1.71
317.428	63.15
317.641	71.34
317.855	104.11
318.068	75.43
318.282	50.86
318.495	153.26
318.709	59.05
318.922	44.71
319.136	214.7
319.349	20.14
319.563	-4.44
319.776	61.1
319.99	-14.68
320.203	42.67
320.417	28.33
320.63	46.76
320.843	114.34
321.057	75.43
321.27	52.91
321.483	112.3
321.697	116.39
321.91	87.72
322.124	140.97
322.337	69.29
322.55	-39.25
322.763	26.28
322.977	38.57
323.19	132.78
323.403	140.97
323.617	11.95
323.83	59.05
324.043	44.71
324.256	128.68
324.469	13.99
324.683	124.58
324.896	48.81
325.109	71.34
325.322	-26.96
325.535	71.34
325.748	95.91
325.962	77.48
326.175	38.57
326.388	75.43
326.601	91.82
326.814	11.95
327.027	93.87
327.24	79.53
327.453	1.71
327.666	77.48
327.879	42.67
328.092	75.43
328.305	50.86
328.518	77.48
328.731	-18.77
328.944	83.63
329.157	122.54
329.37	50.86
329.583	69.29
329.796	46.76
330.009	-24.92
330.222	11.95
330.435	11.95
330.648	22.19
330.861	36.52
331.073	151.21
331.286	75.43
331.499	-4.44
331.712	71.34
331.925	36.52
332.138	75.43
332.35	46.76
332.563	-12.63
332.776	149.16
332.989	34.47
333.202	46.76
333.414	83.63
333.627	67.24
333.84	42.67
334.053	9.9
334.265	44.71
334.478	26.28
334.691	93.87
334.903	59.05
335.116	13.99
335.329	30.38
335.541	108.2
335.754	83.63
335.966	48.81
336.179	40.62
336.392	18.09
336.604	44.71
336.817	28.33
337.029	116.39
337.242	75.43
337.454	11.95
337.667	34.47
337.88	140.97
338.092	18.09
338.305	91.82
338.517	85.67
338.729	116.39
338.942	126.63
339.154	20.14
339.367	26.28
339.579	61.1
339.792	59.05
340.004	165.54
340.217	1.71
340.429	63.15
340.641	128.68
340.854	91.82
341.066	42.67
341.278	75.43
341.491	93.87
341.703	-2.39
341.915	81.58
342.128	42.67
342.34	67.24
342.552	61.1
342.764	22.19
342.977	20.14
343.189	1.71
343.401	38.57
343.613	9.9
343.826	-35.16
344.038	18.09
344.25	100.01
344.462	30.38
344.674	34.47
344.886	83.63
345.099	34.47
345.311	77.48
345.523	1.71
345.735	11.95
345.947	120.49
346.159	44.71
346.371	48.81
346.583	85.67
346.795	151.21
347.007	112.3
347.219	54.95
347.431	69.29
347.643	100.01
347.855	79.53
348.067	93.87
348.279	-2.39
348.491	52.91
348.703	87.72
348.915	67.24
349.127	30.38
349.339	128.68
349.551	50.86
349.763	63.15
349.975	59.05
350.187	128.68
350.399	24.23
350.61	30.38
350.822	71.34
351.034	-2.39
351.246	54.95
351.458	57
351.669	126.63
351.881	71.34
352.093	67.24
352.305	42.67
352.517	112.3
352.728	95.91
352.94	132.78
353.152	63.15
353.363	5.8
353.575	-6.49
353.787	147.11
353.999	108.2
354.21	102.06
354.422	32.43
354.633	71.34
354.845	77.48
355.057	67.24
355.268	149.16
355.48	126.63
355.692	-26.96
355.903	9.9
356.115	104.11
356.326	11.95
356.538	91.82
356.749	63.15
356.961	110.25
357.172	40.62
357.384	87.72
357.595	120.49
357.807	79.53
358.018	87.72
358.23	52.91
358.441	110.25
358.653	26.28
358.864	108.2
359.075	16.04
359.287	9.9
359.498	114.34
359.709	83.63
359.921	71.34
360.132	87.72
360.344	59.05
360.555	75.43
360.766	79.53
360.977	75.43
361.189	75.43
361.4	52.91
361.611	108.2
361.823	124.58
362.034	75.43
362.245	28.33
362.456	77.48
362.667	38.57
362.879	42.67
363.09	24.23
363.301	134.82
363.512	30.38
363.723	59.05
363.935	59.05
364.146	100.01
364.357	44.71
364.568	116.39
364.779	67.24
364.99	75.43
365.201	46.76
365.412	165.54
365.623	18.09
365.834	69.29
366.045	83.63
366.256	95.91
366.467	24.23
366.678	-4.44
366.889	50.86
367.1	67.24
367.311	89.77
367.522	-8.53
367.733	73.39
367.944	75.43
368.155	22.19
368.366	85.67
368.577	120.49
368.788	89.77
368.999	22.19
369.209	97.96
369.42	54.95
369.631	122.54
369.842	85.67
370.053	28.33
370.264	114.34
370.474	71.34
370.685	71.34
370.896	69.29
371.107	130.73
371.317	87.72
371.528	83.63
371.739	132.78
371.95	61.1
372.16	108.2
372.371	-14.68
372.582	22.19
372.792	112.3
373.003	61.1
373.214	61.1
373.424	102.06
373.635	20.14
373.846	67.24
374.056	42.67
374.267	26.28
374.477	124.58
374.688	57
374.898	67.24
375.109	54.95
375.319	120.49
375.53	83.63
375.74	42.67
375.951	75.43
376.161	87.72
376.372	132.78
376.582	42.67
376.793	69.29
377.003	30.38
377.214	50.86
377.424	124.58
377.635	42.67
377.845	-53.59
378.055	89.77
378.266	36.52
378.476	128.68
378.686	83.63
378.897	57
379.107	104.11
379.317	67.24
379.528	18.09
379.738	36.52
379.948	38.57
380.158	50.86
380.369	67.24
380.579	22.19
380.789	93.87
380.999	87.72
381.21	36.52
381.42	163.5
381.63	26.28
381.84	149.16
382.05	100.01
382.261	140.97
382.471	102.06
382.681	34.47
382.891	100.01
383.101	75.43
383.311	24.23
383.521	54.95
383.731	149.16
383.941	104.11
384.151	9.9
384.361	116.39
384.571	87.72
384.781	9.9
384.991	120.49
385.201	165.54
385.411	102.06
385.621	138.92
385.831	124.58
386.041	18.09
386.251	26.28
386.461	210.6
386.671	67.24
386.881	75.43
387.091	40.62
387.301	138.92
387.511	69.29
387.72	50.86
387.93	93.87
388.14	36.52
388.35	9.9
388.56	120.49
388.769	89.77
388.979	57
389.189	36.52
389.399	106.15
389.609	116.39
389.818	77.48
390.028	128.68
390.238	132.78
390.447	18.09
390.657	26.28
390.867	26.28
391.076	59.05
391.286	116.39
391.496	100.01
391.705	75.43
391.915	165.54
392.125	108.2
392.334	7.85
392.544	130.73
392.753	61.1
392.963	-10.58
393.172	100.01
393.382	75.43
393.591	157.35
393.801	54.95
394.01	159.4
394.22	57
394.429	42.67
394.639	71.34
394.848	110.25
395.058	120.49
395.267	91.82
395.477	87.72
395.686	52.91
395.895	173.74
396.105	143.02
396.314	147.11
396.524	157.35
396.733	175.78
396.942	71.34
397.152	120.49
397.361	235.18
397.57	116.39
397.78	126.63
397.989	126.63
398.198	159.4
398.407	134.82
398.617	175.78
398.826	136.87
399.035	122.54
399.244	177.83
399.453	126.63
399.663	63.15
399.872	112.3
400.081	108.2
400.29	190.12
400.499	126.63
400.708	151.21
400.917	194.22
401.127	186.02
401.336	165.54
401.545	175.78
401.754	149.16
401.963	83.63
402.172	87.72
402.381	102.06
402.59	116.39
402.799	198.31
403.008	157.35
403.217	149.16
403.426	104.11
403.635	136.87
403.844	231.08
404.053	183.98
404.262	175.78
404.471	224.94
404.68	220.84
404.888	173.74
405.097	143.02
405.306	190.12
405.515	190.12
405.724	169.64
405.933	263.85
406.142	222.89
406.35	233.13
406.559	190.12
406.768	167.59
406.977	302.76
407.185	267.94
407.394	186.02
407.603	255.65
407.812	306.85
408.02	386.72
408.229	267.94
408.438	317.09
408.646	317.09
408.855	356.01
409.064	337.57
409.272	235.18
409.481	331.43
409.69	353.96
409.898	274.09
410.107	380.58
410.315	255.65
410.524	448.16
410.733	376.48
410.941	419.49
411.15	435.88
411.358	480.93
411.567	476.84
411.775	382.63
411.984	476.84
412.192	485.03
412.401	427.68
412.609	599.71
412.818	593.57
413.026	609.95
413.234	671.39
413.443	640.67
413.651	657.06
413.86	673.44
414.068	732.83
414.276	677.54
414.485	698.02
414.693	790.17
414.901	818.85
415.11	734.88
415.318	835.23
415.526	812.7
415.734	937.63
415.943	886.43
416.151	1035.93
416.359	992.92
416.567	1132.19
416.776	1001.12
416.984	1123.99
417.192	1181.34
417.4	1164.95
417.608	1136.28
417.817	1263.26
418.025	1273.5
418.233	1386.13
418.441	1316.5
418.649	1312.41
418.857	1588.88
419.065	1568.4
419.273	1527.44
419.481	1527.44
419.689	1611.41
419.897	1681.04
420.105	1750.67
420.313	1701.52
420.521	1846.93
420.729	1873.55
420.937	1934.99
421.145	2010.76
421.353	2084.49
421.561	2180.75
421.769	2211.46
421.977	2424.45
422.185	2236.04
422.393	2467.46
422.601	2625.15
422.809	2653.83
423.017	2729.6
423.224	2766.46
423.432	2852.48
423.64	2922.11
423.848	3055.23
424.056	3090.04
424.263	3180.15
424.471	3305.08
424.679	3384.95
424.887	3589.75
425.094	3581.56
425.302	3720.82
425.51	3790.45
425.718	3909.23
425.925	3896.94
426.133	4064.88
426.341	4255.34
426.548	4359.78
426.756	4572.77
426.964	4517.48
427.171	4992.61
427.379	4998.75
427.586	4916.83
427.794	5072.48
428.001	5353.05
428.209	5539.41
428.417	5533.27
428.624	5998.16
428.832	5803.6
429.039	5752.4
429.247	5924.43
429.454	6448.71
429.662	6741.57
429.869	6374.99
430.076	6751.81
430.284	6760
430.491	6915.65
430.699	7329.34
430.906	7257.66
431.114	7374.39
431.321	7718.45
431.528	7874.1
431.736	8420.91
431.943	8695.33
432.15	8322.6
432.358	8619.56
432.565	9004.58
432.772	8840.74
432.979	9432.6
433.187	9571.86
433.394	9635.35
433.601	10212.88
433.808	10284.56
434.016	10235.41
434.223	10690.06
434.43	11425.28
434.637	11138.56
434.844	11759.1
435.052	11912.69
435.259	11896.31
435.466	12080.63
435.673	11830.77
435.88	12609
436.087	13317.6
436.294	13166.05
436.501	13057.51
436.708	13340.13
436.915	13567.45
437.122	14134.74
437.329	14132.69
437.537	14861.77
437.743	14894.54
437.95	14833.1
438.157	15566.27
438.364	15988.15
438.571	16074.17
438.778	16188.85
438.985	17620.38
439.192	16666.03
439.399	17360.29
439.606	16924.07
439.813	17995.16
440.02	19017.1
440.227	18634.13
440.433	18640.27
440.64	19264.9
440.847	19031.43
441.054	19395.97
441.261	21083.5
441.467	20346.23
441.674	21046.63
441.881	21658.98
442.088	21503.33
442.294	21146.98
442.501	21908.83
442.708	22424.92
442.914	23354.69
443.121	24059.2
443.328	23543.11
443.534	25074.99
443.741	24519.99
443.948	24280.38
444.154	25898.27
444.361	25849.12
444.568	26055.97
444.774	25763.11
444.981	26176.8
445.187	26705.17
445.394	28148.99
445.6	27725.06
445.807	30610.65
446.013	29103.34
446.22	29758.69
446.426	31046.86
446.633	30708.95
446.839	31663.3
447.046	30549.21
447.252	32443.58
447.459	32191.68
447.665	32029.89
447.871	33612.97
448.078	35071.12
448.284	33510.57
448.491	34071.71
448.697	35697.8
448.903	36084.87
449.11	36170.88
449.316	35662.99
449.522	36578.43
449.728	37557.36
449.935	38186.08
450.141	37880.94
450.347	38524
450.553	37194.87
450.76	38165.6
450.966	39177.3
451.172	38816.86
451.378	39904.33
451.584	38767.71
451.791	39545.94
451.997	39697.48
452.203	40336.45
452.409	40369.22
452.615	40195.14
452.821	38440.03
453.027	38036.58
453.233	40365.12
453.44	38378.59
453.646	39269.46
453.852	39050.33
454.058	39955.53
454.264	38657.12
454.47	39273.56
454.676	38673.5
454.882	39658.57
455.088	36146.31
455.294	36766.84
455.5	37690.48
455.705	38286.43
455.911	36129.92
456.117	35947.65
456.323	35101.84
456.529	33420.46
456.735	35026.07
456.941	34055.33
457.147	33096.88
457.352	32218.3
457.558	31868.1
457.764	32038.08
457.97	31464.65
458.176	30641.37
458.381	30977.23
458.587	29519.08
458.793	29291.76
458.999	27479.3
459.204	29498.6
459.41	28753.14
459.616	27198.73
459.821	27260.17
460.027	26699.03
460.233	26256.67
460.438	25099.56
460.644	25312.55
460.85	24016.19
461.055	23557.44
461.261	23676.23
461.466	21902.68
461.672	21083.5
461.878	22754.64
462.083	21159.27
462.289	20721.01
462.494	20741.49
462.7	19676.54
462.905	19139.97
463.111	19553.66
463.316	19950.97
463.522	19262.85
463.727	19400.07
463.932	19332.48
464.138	18998.66
464.343	19207.56
464.549	18705.81
464.754	19117.45
464.959	19133.83
465.165	18845.07
465.37	18042.26
465.575	17618.33
465.781	18019.74
465.986	18126.23
466.191	17499.55
