Data from USB4F104151__244__14-34-10-335.txt Node

Date: Thu Mar 13 14:34:10 EDT 2025
User: louis
Spectrometer: USB4F10415
Trigger mode: 4
Integration Time (sec): 2.500000E-2
Scans to average: 1
Electric dark correction enabled: true
Nonlinearity correction enabled: false
Boxcar width: 0
XAxis mode: Wavelengths
Number of Pixels in Spectrum: 3648
>>>>>Begin Spectral Data<<<<<
178.204	-161.96
178.424	-161.96
178.644	-161.96
178.864	-106.67
179.084	-155.82
179.304	-45.23
179.524	-20.65
179.744	-14.51
179.964	-2.22
180.184	40.79
180.404	-41.13
180.624	-28.84
180.844	3.93
181.064	-49.32
181.283	81.75
181.503	-0.17
181.723	75.6
181.943	-32.94
182.163	81.75
182.383	48.98
182.602	96.08
182.822	71.51
183.042	-45.23
183.262	40.79
183.482	59.22
183.701	24.4
183.921	42.84
184.141	1.88
184.361	26.45
184.58	-16.55
184.8	100.18
185.02	81.75
185.239	59.22
185.459	57.17
185.679	69.46
185.898	8.02
186.118	100.18
186.338	98.13
186.557	149.33
186.777	-45.23
186.997	-14.51
187.216	24.4
187.436	89.94
187.655	81.75
187.875	65.36
188.095	16.21
188.314	-12.46
188.534	51.03
188.753	-10.41
188.973	81.75
189.192	83.8
189.412	83.8
189.631	-0.17
189.851	1.88
190.07	94.04
190.29	32.6
190.509	51.03
190.729	28.5
190.948	89.94
191.168	223.06
191.387	73.56
191.607	-45.23
191.826	40.79
192.045	-69.8
192.265	10.07
192.484	28.5
192.704	51.03
192.923	-20.65
193.142	206.67
193.362	48.98
193.581	108.37
193.8	24.4
194.02	106.32
194.239	20.31
194.458	65.36
194.678	69.46
194.897	44.88
195.116	28.5
195.335	34.64
195.555	69.46
195.774	-16.55
195.993	75.6
196.212	71.51
196.432	-6.31
196.651	59.22
196.87	5.97
197.089	157.52
197.308	48.98
197.528	28.5
197.747	28.5
197.966	10.07
198.185	79.7
198.404	18.26
198.623	18.26
198.842	28.5
199.062	94.04
199.281	3.93
199.5	69.46
199.719	69.46
199.938	32.6
200.157	75.6
200.376	40.79
200.595	63.32
200.814	36.69
201.033	8.02
201.252	28.5
201.471	57.17
201.69	155.47
201.909	20.31
202.128	73.56
202.347	96.08
202.566	-4.27
202.785	20.31
203.004	24.4
203.223	100.18
203.442	106.32
203.661	-30.89
203.879	34.64
204.098	108.37
204.317	77.65
204.536	100.18
204.755	36.69
204.974	89.94
205.193	94.04
205.411	147.28
205.63	40.79
205.849	36.69
206.068	57.17
206.287	-0.17
206.505	89.94
206.724	-22.7
206.943	40.79
207.162	81.75
207.381	42.84
207.599	36.69
207.818	-8.36
208.037	34.64
208.255	1.88
208.474	40.79
208.693	48.98
208.911	-73.9
209.13	89.94
209.349	51.03
209.567	32.6
209.786	40.79
210.005	24.4
210.223	40.79
210.442	24.4
210.661	94.04
210.879	77.65
211.098	42.84
211.316	87.89
211.535	48.98
211.753	67.41
211.972	65.36
212.191	16.21
212.409	-12.46
212.628	128.85
212.846	16.21
213.065	75.6
213.283	57.17
213.502	83.8
213.72	20.31
213.938	67.41
214.157	32.6
214.375	81.75
214.594	55.12
214.812	139.09
215.031	89.94
215.249	-8.36
215.467	-37.03
215.686	65.36
215.904	106.32
216.122	34.64
216.341	42.84
216.559	26.45
216.778	16.21
216.996	102.23
217.214	51.03
217.432	30.55
217.651	-8.36
217.869	-30.89
218.087	-8.36
218.306	3.93
218.524	87.89
218.742	20.31
218.96	100.18
219.179	-22.7
219.397	87.89
219.615	67.41
219.833	73.56
220.051	71.51
220.27	59.22
220.488	-32.94
220.706	61.27
220.924	42.84
221.142	100.18
221.36	32.6
221.578	81.75
221.796	42.84
222.015	40.79
222.233	63.32
222.451	126.8
222.669	28.5
222.887	65.36
223.105	40.79
223.323	20.31
223.541	128.85
223.759	26.45
223.977	-71.85
224.195	81.75
224.413	63.32
224.631	73.56
224.849	51.03
225.067	135
225.285	61.27
225.503	18.26
225.721	46.93
225.939	69.46
226.157	124.76
226.375	89.94
226.592	61.27
226.81	53.08
227.028	61.27
227.246	83.8
227.464	24.4
227.682	67.41
227.9	135
228.117	83.8
228.335	63.32
228.553	-32.94
228.771	63.32
228.989	75.6
229.206	20.31
229.424	-24.75
229.642	102.23
229.86	28.5
230.077	126.8
230.295	-4.27
230.513	102.23
230.731	51.03
230.948	81.75
231.166	108.37
231.384	26.45
231.601	40.79
231.819	85.84
232.037	67.41
232.254	34.64
232.472	40.79
232.689	40.79
232.907	81.75
233.125	-16.55
233.342	-30.89
233.56	32.6
233.777	59.22
233.995	-14.51
234.213	91.99
234.43	91.99
234.648	28.5
234.865	-0.17
235.083	8.02
235.3	1.88
235.518	16.21
235.735	73.56
235.953	91.99
236.17	-6.31
236.388	34.64
236.605	48.98
236.822	98.13
237.04	85.84
237.257	122.71
237.475	26.45
237.692	53.08
237.909	57.17
238.127	48.98
238.344	53.08
238.562	22.36
238.779	44.88
238.996	20.31
239.214	32.6
239.431	77.65
239.648	1.88
239.865	98.13
240.083	42.84
240.3	83.8
240.517	22.36
240.735	98.13
240.952	51.03
241.169	65.36
241.386	8.02
241.603	94.04
241.821	-61.61
242.038	40.79
242.255	26.45
242.472	34.64
242.689	91.99
242.907	57.17
243.124	44.88
243.341	69.46
243.558	73.56
243.775	-73.9
243.992	14.17
244.209	110.42
244.426	98.13
244.643	46.93
244.86	-45.23
245.078	63.32
245.295	8.02
245.512	-4.27
245.729	26.45
245.946	73.56
246.163	12.12
246.38	12.12
246.597	57.17
246.814	106.32
247.031	48.98
247.248	24.4
247.464	26.45
247.681	12.12
247.898	14.17
248.115	98.13
248.332	-30.89
248.549	67.41
248.766	118.61
248.983	91.99
249.2	81.75
249.417	40.79
249.633	-6.31
249.85	79.7
250.067	30.55
250.284	73.56
250.501	75.6
250.717	5.97
250.934	46.93
251.151	112.47
251.368	81.75
251.585	124.76
251.801	-6.31
252.018	10.07
252.235	32.6
252.451	26.45
252.668	-14.51
252.885	102.23
253.102	100.18
253.318	104.28
253.535	26.45
253.752	-67.75
253.968	14.17
254.185	18.26
254.401	18.26
254.618	75.6
254.835	10.07
255.051	91.99
255.268	63.32
255.484	51.03
255.701	-30.89
255.917	139.09
256.134	-28.84
256.351	48.98
256.567	-16.55
256.784	85.84
257	3.93
257.217	98.13
257.433	83.8
257.65	46.93
257.866	87.89
258.082	-18.6
258.299	32.6
258.515	3.93
258.732	55.12
258.948	73.56
259.165	-0.17
259.381	16.21
259.597	73.56
259.814	3.93
260.03	57.17
260.246	-0.17
260.463	188.24
260.679	57.17
260.895	112.47
261.112	75.6
261.328	8.02
261.544	71.51
261.761	98.13
261.977	53.08
262.193	5.97
262.409	79.7
262.626	32.6
262.842	38.74
263.058	81.75
263.274	57.17
263.49	94.04
263.707	57.17
263.923	100.18
264.139	-26.79
264.355	69.46
264.571	48.98
264.787	100.18
265.004	108.37
265.22	67.41
265.436	32.6
265.652	-0.17
265.868	108.37
266.084	42.84
266.3	104.28
266.516	48.98
266.732	65.36
266.948	57.17
267.164	65.36
267.38	124.76
267.596	69.46
267.812	149.33
268.028	36.69
268.244	55.12
268.46	20.31
268.676	48.98
268.892	53.08
269.108	-41.13
269.324	16.21
269.54	-37.03
269.756	73.56
269.972	40.79
270.188	42.84
270.403	36.69
270.619	73.56
270.835	81.75
271.051	38.74
271.267	40.79
271.483	-4.27
271.698	32.6
271.914	69.46
272.13	106.32
272.346	94.04
272.562	61.27
272.777	42.84
272.993	104.28
273.209	30.55
273.425	71.51
273.64	-55.47
273.856	77.65
274.072	8.02
274.287	-8.36
274.503	16.21
274.719	61.27
274.934	18.26
275.15	-32.94
275.366	59.22
275.581	59.22
275.797	51.03
276.012	28.5
276.228	3.93
276.444	89.94
276.659	36.69
276.875	3.93
277.09	89.94
277.306	20.31
277.521	139.09
277.737	32.6
277.952	118.61
278.168	38.74
278.383	51.03
278.599	61.27
278.814	14.17
279.03	12.12
279.245	36.69
279.461	53.08
279.676	108.37
279.892	32.6
280.107	-43.18
280.322	-6.31
280.538	122.71
280.753	18.26
280.969	77.65
281.184	12.12
281.399	116.56
281.615	12.12
281.83	53.08
282.045	-59.56
282.26	24.4
282.476	51.03
282.691	44.88
282.906	-30.89
283.122	91.99
283.337	16.21
283.552	126.8
283.767	16.21
283.983	141.14
284.198	-0.17
284.413	114.52
284.628	-20.65
284.843	40.79
285.058	73.56
285.274	71.51
285.489	67.41
285.704	114.52
285.919	51.03
286.134	-20.65
286.349	32.6
286.564	-6.31
286.779	32.6
286.995	83.8
287.21	12.12
287.425	89.94
287.64	30.55
287.855	51.03
288.07	57.17
288.285	73.56
288.5	139.09
288.715	81.75
288.93	-2.22
289.145	-57.51
289.36	38.74
289.575	34.64
289.79	128.85
290.004	55.12
290.219	100.18
290.434	71.51
290.649	81.75
290.864	73.56
291.079	16.21
291.294	98.13
291.509	100.18
291.724	46.93
291.938	73.56
292.153	65.36
292.368	69.46
292.583	32.6
292.798	94.04
293.012	89.94
293.227	53.08
293.442	77.65
293.657	91.99
293.871	65.36
294.086	65.36
294.301	122.71
294.516	83.8
294.73	10.07
294.945	44.88
295.16	-20.65
295.374	85.84
295.589	79.7
295.804	59.22
296.018	1.88
296.233	147.28
296.447	85.84
296.662	28.5
296.877	44.88
297.091	141.14
297.306	16.21
297.52	26.45
297.735	122.71
297.949	71.51
298.164	75.6
298.378	3.93
298.593	83.8
298.807	1.88
299.022	100.18
299.236	128.85
299.451	-6.31
299.665	53.08
299.88	40.79
300.094	38.74
300.309	61.27
300.523	40.79
300.737	114.52
300.952	67.41
301.166	130.9
301.381	67.41
301.595	42.84
301.809	55.12
302.024	102.23
302.238	10.07
302.452	235.35
302.667	-16.55
302.881	73.56
303.095	65.36
303.309	-6.31
303.524	-0.17
303.738	53.08
303.952	3.93
304.166	65.36
304.381	10.07
304.595	83.8
304.809	-10.41
305.023	81.75
305.237	69.46
305.452	71.51
305.666	83.8
305.88	1.88
306.094	12.12
306.308	28.5
306.522	89.94
306.736	81.75
306.95	91.99
307.164	12.12
307.379	48.98
307.593	83.8
307.807	48.98
308.021	69.46
308.235	77.65
308.449	65.36
308.663	42.84
308.877	98.13
309.091	12.12
309.305	98.13
309.519	20.31
309.733	40.79
309.947	89.94
310.161	22.36
310.374	98.13
310.588	48.98
310.802	51.03
311.016	24.4
311.23	18.26
311.444	61.27
311.658	20.31
311.872	73.56
312.085	61.27
312.299	98.13
312.513	48.98
312.727	112.47
312.941	36.69
313.154	12.12
313.368	85.84
313.582	126.8
313.796	94.04
314.009	32.6
314.223	40.79
314.437	48.98
314.651	46.93
314.864	102.23
315.078	122.71
315.292	-55.47
315.505	36.69
315.719	85.84
315.933	18.26
316.146	132.95
316.36	75.6
316.573	155.47
316.787	18.26
317.001	122.71
317.214	-12.46
317.428	89.94
317.641	53.08
317.855	30.55
318.068	22.36
318.282	100.18
318.495	91.99
318.709	73.56
318.922	79.7
319.136	147.28
319.349	65.36
319.563	94.04
319.776	143.19
319.99	40.79
320.203	118.61
320.417	16.21
320.63	116.56
320.843	120.66
321.057	24.4
321.27	42.84
321.483	12.12
321.697	59.22
321.91	85.84
322.124	79.7
322.337	98.13
322.55	36.69
322.763	79.7
322.977	108.37
323.19	1.88
323.403	16.21
323.617	16.21
323.83	65.36
324.043	-20.65
324.256	65.36
324.469	12.12
324.683	36.69
324.896	89.94
325.109	67.41
325.322	24.4
325.535	32.6
325.748	57.17
325.962	73.56
326.175	106.32
326.388	106.32
326.601	85.84
326.814	34.64
327.027	85.84
327.24	89.94
327.453	48.98
327.666	65.36
327.879	85.84
328.092	-4.27
328.305	44.88
328.518	67.41
328.731	-0.17
328.944	32.6
329.157	98.13
329.37	40.79
329.583	122.71
329.796	81.75
330.009	42.84
330.222	44.88
330.435	114.52
330.648	89.94
330.861	53.08
331.073	112.47
331.286	81.75
331.499	77.65
331.712	-32.94
331.925	22.36
332.138	48.98
332.35	100.18
332.563	-0.17
332.776	110.42
332.989	16.21
333.202	30.55
333.414	-16.55
333.627	18.26
333.84	51.03
334.053	83.8
334.265	8.02
334.478	16.21
334.691	51.03
334.903	91.99
335.116	3.93
335.329	42.84
335.541	73.56
335.754	171.86
335.966	1.88
336.179	130.9
336.392	-32.94
336.604	106.32
336.817	102.23
337.029	42.84
337.242	-12.46
337.454	10.07
337.667	85.84
337.88	14.17
338.092	18.26
338.305	65.36
338.517	61.27
338.729	73.56
338.942	98.13
339.154	-10.41
339.367	69.46
339.579	51.03
339.792	1.88
340.004	102.23
340.217	42.84
340.429	36.69
340.641	53.08
340.854	83.8
341.066	63.32
341.278	57.17
341.491	126.8
341.703	65.36
341.915	65.36
342.128	94.04
342.34	91.99
342.552	12.12
342.764	100.18
342.977	116.56
343.189	40.79
343.401	94.04
343.613	-41.13
343.826	126.8
344.038	28.5
344.25	48.98
344.462	-0.17
344.674	-6.31
344.886	65.36
345.099	126.8
345.311	100.18
345.523	67.41
345.735	28.5
345.947	130.9
346.159	-28.84
346.371	-8.36
346.583	75.6
346.795	104.28
347.007	106.32
347.219	73.56
347.431	98.13
347.643	151.38
347.855	32.6
348.067	40.79
348.279	-16.55
348.491	24.4
348.703	10.07
348.915	-32.94
349.127	69.46
349.339	75.6
349.551	3.93
349.763	114.52
349.975	89.94
350.187	53.08
350.399	98.13
350.61	106.32
350.822	57.17
351.034	120.66
351.246	32.6
351.458	130.9
351.669	77.65
351.881	48.98
352.093	137.04
352.305	55.12
352.517	89.94
352.728	124.76
352.94	59.22
353.152	130.9
353.363	57.17
353.575	102.23
353.787	81.75
353.999	48.98
354.21	53.08
354.422	26.45
354.633	18.26
354.845	59.22
355.057	18.26
355.268	12.12
355.48	40.79
355.692	-14.51
355.903	87.89
356.115	18.26
356.326	18.26
356.538	132.95
356.749	61.27
356.961	57.17
357.172	28.5
357.384	44.88
357.595	143.19
357.807	57.17
358.018	73.56
358.23	67.41
358.441	141.14
358.653	73.56
358.864	65.36
359.075	26.45
359.287	98.13
359.498	122.71
359.709	65.36
359.921	65.36
360.132	69.46
360.344	98.13
360.555	26.45
360.766	83.8
360.977	42.84
361.189	-6.31
361.4	-12.46
361.611	44.88
361.823	20.31
362.034	106.32
362.245	36.69
362.456	48.98
362.667	89.94
362.879	65.36
363.09	10.07
363.301	110.42
363.512	108.37
363.723	48.98
363.935	24.4
364.146	69.46
364.357	81.75
364.568	44.88
364.779	-49.32
364.99	40.79
365.201	67.41
365.412	155.47
365.623	34.64
365.834	42.84
366.045	75.6
366.256	61.27
366.467	-0.17
366.678	69.46
366.889	98.13
367.1	38.74
367.311	67.41
367.522	106.32
367.733	83.8
367.944	130.9
368.155	106.32
368.366	85.84
368.577	69.46
368.788	139.09
368.999	-20.65
369.209	100.18
369.42	89.94
369.631	102.23
369.842	114.52
370.053	81.75
370.264	38.74
370.474	34.64
370.685	34.64
370.896	65.36
371.107	141.14
371.317	89.94
371.528	73.56
371.739	40.79
371.95	67.41
372.16	118.61
372.371	69.46
372.582	135
372.792	44.88
373.003	137.04
373.214	61.27
373.424	79.7
373.635	135
373.846	26.45
374.056	89.94
374.267	34.64
374.477	61.27
374.688	89.94
374.898	67.41
375.109	143.19
375.319	73.56
375.53	8.02
375.74	51.03
375.951	75.6
376.161	32.6
376.372	108.37
376.582	32.6
376.793	-0.17
377.003	73.56
377.214	48.98
377.424	155.47
377.635	61.27
377.845	59.22
378.055	98.13
378.266	-4.27
378.476	18.26
378.686	53.08
378.897	102.23
379.107	106.32
379.317	57.17
379.528	61.27
379.738	48.98
379.948	34.64
380.158	67.41
380.369	34.64
380.579	69.46
380.789	77.65
380.999	139.09
381.21	61.27
381.42	106.32
381.63	57.17
381.84	67.41
382.05	141.14
382.261	75.6
382.471	100.18
382.681	89.94
382.891	67.41
383.101	77.65
383.311	-14.51
383.521	-20.65
383.731	169.81
383.941	100.18
384.151	94.04
384.361	34.64
384.571	77.65
384.781	38.74
384.991	141.14
385.201	122.71
385.411	28.5
385.621	102.23
385.831	42.84
386.041	94.04
386.251	110.42
386.461	190.29
386.671	59.22
386.881	106.32
387.091	77.65
387.301	98.13
387.511	5.97
387.72	163.67
387.93	155.47
388.14	85.84
388.35	57.17
388.56	114.52
388.769	87.89
388.979	132.95
389.189	40.79
389.399	83.8
389.609	61.27
389.818	32.6
390.028	157.52
390.238	73.56
390.447	-30.89
390.657	116.56
390.867	40.79
391.076	51.03
391.286	81.75
391.496	61.27
391.705	89.94
391.915	116.56
392.125	155.47
392.334	65.36
392.544	141.14
392.753	98.13
392.963	16.21
393.172	59.22
393.382	61.27
393.591	128.85
393.801	126.8
394.01	153.43
394.22	112.47
394.429	122.71
394.639	20.31
394.848	175.95
395.058	75.6
395.267	114.52
395.477	81.75
395.686	165.71
395.895	143.19
396.105	206.67
396.314	135
396.524	116.56
396.733	120.66
396.942	116.56
397.152	112.47
397.361	145.24
397.57	69.46
397.78	116.56
397.989	118.61
398.198	190.29
398.407	61.27
398.617	135
398.826	118.61
399.035	130.9
399.244	59.22
399.453	106.32
399.663	114.52
399.872	108.37
400.081	110.42
400.29	212.82
400.499	81.75
400.708	114.52
400.917	139.09
401.127	141.14
401.336	59.22
401.545	190.29
401.754	147.28
401.963	206.67
402.172	139.09
402.381	73.56
402.59	126.8
402.799	171.86
403.008	182.1
403.217	237.39
403.426	206.67
403.635	108.37
403.844	130.9
404.053	151.38
404.262	135
404.471	245.59
404.68	175.95
404.888	192.34
405.097	159.57
405.306	130.9
405.515	261.97
405.724	188.24
405.933	135
406.142	231.25
406.35	257.87
406.559	186.19
406.768	196.43
406.977	307.02
407.185	225.11
407.394	206.67
407.603	282.45
407.812	270.16
408.02	319.31
408.229	278.35
408.438	216.91
408.646	257.87
408.855	329.55
409.064	302.93
409.272	298.83
409.481	421.71
409.69	405.33
409.898	280.4
410.107	272.21
410.315	393.04
410.524	321.36
410.733	501.58
410.941	425.81
411.15	483.15
411.358	442.19
411.567	474.96
411.775	477.01
411.984	534.35
412.192	544.59
412.401	575.31
412.609	624.46
412.818	567.12
413.026	534.35
413.234	560.97
413.443	606.03
413.651	675.66
413.86	618.32
414.068	843.59
414.276	794.44
414.485	679.75
414.693	784.2
414.901	933.7
415.11	931.66
415.318	823.11
415.526	874.31
415.734	933.7
415.943	892.74
416.151	1068.87
416.359	1011.53
416.567	1064.77
416.776	1070.92
416.984	1148.74
417.192	1146.69
417.4	1154.88
417.608	1232.71
417.817	1193.8
418.025	1304.39
418.233	1462.08
418.441	1378.11
418.649	1414.98
418.857	1517.37
419.065	1617.72
419.273	1607.48
419.481	1601.34
419.689	1736.51
419.897	1777.47
420.105	1900.34
420.313	1933.11
420.521	1967.93
420.729	1828.67
420.937	1988.41
421.145	2191.16
421.353	2156.34
421.561	2295.6
421.769	2350.9
421.977	2385.71
422.185	2369.33
422.393	2670.38
422.601	2598.7
422.809	2686.76
423.017	2729.77
423.224	2893.61
423.432	2981.67
423.64	2909.99
423.848	3247.91
424.056	3172.13
424.263	3475.23
424.471	3278.63
424.679	3530.53
424.887	3610.4
425.094	3770.14
425.302	3809.05
425.51	4009.75
425.718	4048.66
425.925	4067.1
426.133	4142.87
426.341	4407.06
426.548	4599.57
426.756	4423.44
426.964	4665.1
427.171	4996.87
427.379	5107.46
427.586	5134.09
427.794	5277.44
428.001	5453.57
428.209	5670.65
428.417	5711.61
428.624	6045.43
428.832	6045.43
429.039	6090.49
429.247	5969.66
429.454	6627.06
429.662	7073.51
429.869	6659.82
430.076	7085.8
430.284	7022.31
430.491	7208.68
430.699	7671.52
430.906	7534.31
431.114	7692
431.321	8034.01
431.528	8242.9
431.736	8464.08
431.943	9137.87
432.15	8842.96
432.358	9068.23
432.565	9453.25
432.772	9426.63
432.979	9846.46
433.187	9848.51
433.394	9877.18
433.601	10563.25
433.808	10569.4
434.016	10657.46
434.223	10933.93
434.43	11495.08
434.637	11380.39
434.844	12166.81
435.052	12275.35
435.259	12572.31
435.466	12377.75
435.673	12431
435.88	13178.51
436.087	13919.87
436.294	13688.45
436.501	13536.9
436.708	13794.95
436.915	14188.16
437.122	14829.17
437.329	14962.29
437.537	15122.03
437.743	15386.22
437.95	15271.53
438.157	16021.09
438.364	16754.26
438.571	16610.9
438.778	16660.06
438.985	18255.42
439.192	17565.26
439.399	17972.8
439.606	17569.35
439.813	18652.73
440.02	19811.88
440.227	19430.96
440.433	19242.54
440.64	20203.04
440.847	19834.41
441.054	20301.34
441.261	21546.51
441.467	21409.29
441.674	22072.84
441.881	22623.74
442.088	22685.18
442.294	22601.21
442.501	22896.12
442.708	23215.6
442.914	24100.33
443.121	25079.25
443.328	24640.99
443.534	26150.34
443.741	25265.62
443.948	25159.13
444.154	26957.24
444.361	26783.16
444.568	26805.69
444.774	26721.73
444.981	27383.22
445.187	28157.35
445.394	29193.62
445.6	29142.42
445.807	31681.91
446.013	30403.97
446.22	30956.92
446.426	32124.27
446.633	32449.89
446.839	33533.27
447.046	32144.75
447.252	34012.49
447.459	33992.01
447.665	34084.17
447.871	35104.06
448.078	36500.78
448.284	34911.55
448.491	35902.77
448.697	37039.39
448.903	38030.61
449.11	38204.69
449.316	37270.81
449.522	38249.74
449.728	39171.33
449.935	39212.29
450.141	39613.69
450.347	40039.67
450.553	39007.49
450.76	39640.31
450.966	40660.2
451.172	40402.16
451.378	41704.66
451.584	40365.29
451.791	41739.48
451.997	41245.92
452.203	41915.61
452.409	42015.96
452.615	41782.49
452.821	40533.23
453.027	39793.91
453.233	42276.05
453.44	40295.66
453.646	40363.25
453.852	40824.04
454.058	41637.08
454.264	40359.15
454.47	41346.27
454.676	40187.12
454.882	41594.07
455.088	37969.17
455.294	38259.98
455.5	39034.11
455.705	39718.14
455.911	37754.13
456.117	37600.54
456.323	36750.63
456.529	34659.65
456.735	36425
456.941	35343.67
457.147	34831.68
457.352	33770.83
457.558	33518.93
457.764	33826.13
457.97	32927.07
458.176	32384.36
458.381	32011.63
458.587	30616.96
458.793	30649.73
458.999	29390.23
459.204	30657.92
459.41	30350.73
459.616	28446.12
459.821	28274.09
460.027	28325.29
460.233	27573.68
460.438	26449.35
460.644	26383.81
460.85	25202.13
461.055	24546.78
461.261	24559.07
461.466	23045.62
461.672	22205.95
461.878	23823.85
462.083	22160.9
462.289	21921.29
462.494	21392.91
462.7	20518.43
462.905	20221.47
463.111	20682.27
463.316	20844.06
463.522	20393.5
463.727	20364.83
463.932	20250.14
464.138	19891.75
464.343	20194.85
464.549	19473.96
464.754	20260.38
464.959	19920.42
465.165	20016.68
465.37	18697.78
465.575	18390.59
465.781	19320.37
465.986	19342.89
466.191	18583.1
466.397	18226.75
466.602	17135.18
466.807	17997.38
