Data from USB4F104151__130__14-31-41-553.txt Node

Date: Thu Mar 13 14:31:41 EDT 2025
User: louis
Spectrometer: USB4F10415
Trigger mode: 4
Integration Time (sec): 2.500000E-2
Scans to average: 1
Electric dark correction enabled: true
Nonlinearity correction enabled: false
Boxcar width: 0
XAxis mode: Wavelengths
Number of Pixels in Spectrum: 3648
>>>>>Begin Spectral Data<<<<<
178.204	-68.78
178.424	-68.78
178.644	-68.78
178.864	-93.35
179.084	-140.46
179.304	-3.24
179.524	31.57
179.744	2.9
179.964	-7.34
180.184	-7.34
180.404	21.33
180.624	-25.77
180.844	15.19
181.064	-5.29
181.283	-17.58
181.503	-89.26
181.723	84.82
181.943	13.14
182.163	105.3
182.383	-11.43
182.602	88.92
182.822	93.01
183.042	21.33
183.262	0.85
183.482	95.06
183.701	23.38
183.921	27.48
184.141	41.81
184.361	70.48
184.58	90.96
184.8	15.19
185.02	70.48
185.239	95.06
185.459	90.96
185.679	105.3
185.898	-136.36
186.118	52.05
186.338	-27.82
186.557	29.52
186.777	-11.43
186.997	86.87
187.216	25.43
187.436	-46.25
187.655	50
187.875	37.72
188.095	88.92
188.314	60.24
188.534	93.01
188.753	99.16
188.973	21.33
189.192	66.39
189.412	84.82
189.631	113.49
189.851	15.19
190.07	70.48
190.29	23.38
190.509	39.76
190.729	17.24
190.948	66.39
191.168	258.9
191.387	50
191.607	86.87
191.826	45.91
192.045	11.09
192.265	84.82
192.484	80.72
192.704	-1.19
192.923	70.48
193.142	172.88
193.362	-9.39
193.581	0.85
193.8	-1.19
194.02	66.39
194.239	62.29
194.458	95.06
194.678	50
194.897	64.34
195.116	66.39
195.335	-11.43
195.555	115.54
195.774	45.91
195.993	37.72
196.212	31.57
196.432	82.77
196.651	21.33
196.87	62.29
197.089	162.64
197.308	39.76
197.528	95.06
197.747	78.68
197.966	50
198.185	154.45
198.404	9.05
198.623	113.49
198.842	29.52
199.062	58.2
199.281	29.52
199.5	15.19
199.719	64.34
199.938	93.01
200.157	64.34
200.376	56.15
200.595	154.45
200.814	99.16
201.033	54.1
201.252	160.59
201.471	103.25
201.69	138.07
201.909	47.96
202.128	66.39
202.347	29.52
202.566	21.33
202.785	-11.43
203.004	21.33
203.223	-5.29
203.442	-17.58
203.661	29.52
203.879	86.87
204.098	131.92
204.317	15.19
204.536	47.96
204.755	74.58
204.974	4.95
205.193	-1.19
205.411	117.59
205.63	9.05
205.849	21.33
206.068	43.86
206.287	95.06
206.505	19.29
206.724	138.07
206.943	39.76
207.162	45.91
207.381	60.24
207.599	-52.39
207.818	-70.83
208.037	-19.63
208.255	7
208.474	70.48
208.693	47.96
208.911	33.62
209.13	90.96
209.349	66.39
209.567	74.58
209.786	82.77
210.005	9.05
210.223	19.29
210.442	-3.24
210.661	93.01
210.879	13.14
211.098	72.53
211.316	60.24
211.535	136.02
211.753	54.1
211.972	-17.58
212.191	-1.19
212.409	29.52
212.628	64.34
212.846	86.87
213.065	25.43
213.283	97.11
213.502	-105.64
213.72	86.87
213.938	29.52
214.157	88.92
214.375	86.87
214.594	66.39
214.812	47.96
215.031	54.1
215.249	9.05
215.467	-1.19
215.686	70.48
215.904	127.83
216.122	-42.15
216.341	103.25
216.559	62.29
216.778	50
216.996	136.02
217.214	99.16
217.432	70.48
217.651	-15.53
217.869	-36.01
218.087	-17.58
218.306	41.81
218.524	119.64
218.742	58.2
218.96	82.77
219.179	103.25
219.397	148.31
219.615	152.4
219.833	95.06
220.051	84.82
220.27	62.29
220.488	156.5
220.706	117.59
220.924	45.91
221.142	70.48
221.36	111.44
221.578	37.72
221.796	23.38
222.015	54.1
222.233	39.76
222.451	4.95
222.669	9.05
222.887	56.15
223.105	-50.35
223.323	140.12
223.541	-21.67
223.759	-1.19
223.977	37.72
224.195	62.29
224.413	50
224.631	70.48
224.849	50
225.067	105.3
225.285	7
225.503	37.72
225.721	19.29
225.939	7
226.157	121.68
226.375	66.39
226.592	45.91
226.81	56.15
227.028	119.64
227.246	62.29
227.464	0.85
227.682	107.35
227.9	-7.34
228.117	62.29
228.335	39.76
228.553	74.58
228.771	60.24
228.989	72.53
229.206	21.33
229.424	29.52
229.642	82.77
229.86	-33.96
230.077	72.53
230.295	86.87
230.513	62.29
230.731	123.73
230.948	90.96
231.166	43.86
231.384	15.19
231.601	-23.72
231.819	127.83
232.037	31.57
232.254	35.67
232.472	95.06
232.689	23.38
232.907	70.48
233.125	66.39
233.342	-36.01
233.56	56.15
233.777	66.39
233.995	90.96
234.213	25.43
234.43	27.48
234.648	39.76
234.865	35.67
235.083	70.48
235.3	76.63
235.518	58.2
235.735	78.68
235.953	78.68
236.17	97.11
236.388	-15.53
236.605	78.68
236.822	37.72
237.04	105.3
237.257	107.35
237.475	15.19
237.692	45.91
237.909	70.48
238.127	119.64
238.344	7
238.562	105.3
238.779	-1.19
238.996	111.44
239.214	41.81
239.431	111.44
239.648	-7.34
239.865	56.15
240.083	107.35
240.3	50
240.517	31.57
240.735	25.43
240.952	111.44
241.169	148.31
241.386	41.81
241.603	78.68
241.821	-36.01
242.038	144.21
242.255	70.48
242.472	41.81
242.689	33.62
242.907	95.06
243.124	84.82
243.341	107.35
243.558	21.33
243.775	-27.82
243.992	43.86
244.209	54.1
244.426	129.88
244.643	58.2
244.86	52.05
245.078	90.96
245.295	25.43
245.512	52.05
245.729	4.95
245.946	33.62
246.163	23.38
246.38	17.24
246.597	78.68
246.814	90.96
247.031	64.34
247.248	109.4
247.464	74.58
247.681	78.68
247.898	103.25
248.115	-9.39
248.332	27.48
248.549	119.64
248.766	95.06
248.983	19.29
249.2	54.1
249.417	72.53
249.633	-5.29
249.85	64.34
250.067	72.53
250.284	-3.24
250.501	119.64
250.717	54.1
250.934	29.52
251.151	45.91
251.368	21.33
251.585	121.68
251.801	70.48
252.018	66.39
252.235	103.25
252.451	76.63
252.668	54.1
252.885	86.87
253.102	62.29
253.318	72.53
253.535	74.58
253.752	-1.19
253.968	29.52
254.185	45.91
254.401	58.2
254.618	54.1
254.835	13.14
255.051	70.48
255.268	35.67
255.484	95.06
255.701	43.86
255.917	88.92
256.134	90.96
256.351	33.62
256.567	31.57
256.784	-19.63
257	54.1
257.217	64.34
257.433	37.72
257.65	78.68
257.866	66.39
258.082	9.05
258.299	-66.73
258.515	78.68
258.732	33.62
258.948	95.06
259.165	70.48
259.381	95.06
259.597	82.77
259.814	4.95
260.03	39.76
260.246	80.72
260.463	43.86
260.679	111.44
260.895	86.87
261.112	64.34
261.328	95.06
261.544	37.72
261.761	162.64
261.977	31.57
262.193	-33.96
262.409	88.92
262.626	41.81
262.842	70.48
263.058	86.87
263.274	35.67
263.49	62.29
263.707	115.54
263.923	66.39
264.139	33.62
264.355	21.33
264.571	93.01
264.787	111.44
265.004	86.87
265.22	29.52
265.436	86.87
265.652	76.63
265.868	111.44
266.084	7
266.3	103.25
266.516	70.48
266.732	29.52
266.948	138.07
267.164	111.44
267.38	2.9
267.596	66.39
267.812	123.73
268.028	82.77
268.244	148.31
268.46	86.87
268.676	27.48
268.892	103.25
269.108	45.91
269.324	64.34
269.54	31.57
269.756	47.96
269.972	37.72
270.188	86.87
270.403	86.87
270.619	25.43
270.835	72.53
271.051	45.91
271.267	-7.34
271.483	23.38
271.698	80.72
271.914	-38.06
272.13	37.72
272.346	107.35
272.562	31.57
272.777	47.96
272.993	99.16
273.209	66.39
273.425	62.29
273.64	21.33
273.856	168.79
274.072	64.34
274.287	25.43
274.503	115.54
274.719	136.02
274.934	29.52
275.15	21.33
275.366	70.48
275.581	-52.39
275.797	72.53
276.012	-25.77
276.228	-9.39
276.444	37.72
276.659	58.2
276.875	7
277.09	56.15
277.306	54.1
277.521	97.11
277.737	37.72
277.952	107.35
278.168	45.91
278.383	119.64
278.599	84.82
278.814	99.16
279.03	86.87
279.245	99.16
279.461	70.48
279.676	70.48
279.892	45.91
280.107	66.39
280.322	-3.24
280.538	50
280.753	17.24
280.969	131.92
281.184	64.34
281.399	162.64
281.615	33.62
281.83	66.39
282.045	15.19
282.26	11.09
282.476	7
282.691	84.82
282.906	54.1
283.122	56.15
283.337	58.2
283.552	80.72
283.767	21.33
283.983	-17.58
284.198	-7.34
284.413	146.26
284.628	62.29
284.843	4.95
285.058	21.33
285.274	39.76
285.489	41.81
285.704	-9.39
285.919	56.15
286.134	64.34
286.349	39.76
286.564	64.34
286.779	127.83
286.995	86.87
287.21	64.34
287.425	97.11
287.64	54.1
287.855	56.15
288.07	99.16
288.285	66.39
288.5	129.88
288.715	0.85
288.93	111.44
289.145	13.14
289.36	136.02
289.575	86.87
289.79	33.62
290.004	47.96
290.219	90.96
290.434	25.43
290.649	19.29
290.864	56.15
291.079	-5.29
291.294	13.14
291.509	119.64
291.724	127.83
291.938	82.77
292.153	27.48
292.368	70.48
292.583	103.25
292.798	-17.58
293.012	72.53
293.227	105.3
293.442	95.06
293.657	52.05
293.871	107.35
294.086	99.16
294.301	103.25
294.516	70.48
294.73	58.2
294.945	-1.19
295.16	74.58
295.374	146.26
295.589	107.35
295.804	-33.96
296.018	54.1
296.233	99.16
296.447	86.87
296.662	17.24
296.877	111.44
297.091	129.88
297.306	54.1
297.52	-42.15
297.735	-27.82
297.949	123.73
298.164	117.59
298.378	41.81
298.593	-11.43
298.807	62.29
299.022	54.1
299.236	41.81
299.451	82.77
299.665	17.24
299.88	45.91
300.094	41.81
300.309	-13.48
300.523	2.9
300.737	-27.82
300.952	95.06
301.166	103.25
301.381	-23.72
301.595	4.95
301.809	37.72
302.024	88.92
302.238	-3.24
302.452	103.25
302.667	78.68
302.881	105.3
303.095	86.87
303.309	156.5
303.524	7
303.738	25.43
303.952	50
304.166	107.35
304.381	7
304.595	152.4
304.809	9.05
305.023	58.2
305.237	78.68
305.452	29.52
305.666	103.25
305.88	45.91
306.094	31.57
306.308	27.48
306.522	62.29
306.736	66.39
306.95	78.68
307.164	80.72
307.379	140.12
307.593	111.44
307.807	101.2
308.021	90.96
308.235	15.19
308.449	-25.77
308.663	41.81
308.877	103.25
309.091	64.34
309.305	95.06
309.519	-27.82
309.733	88.92
309.947	13.14
310.161	127.83
310.374	82.77
310.588	105.3
310.802	21.33
311.016	119.64
311.23	84.82
311.444	37.72
311.658	58.2
311.872	76.63
312.085	45.91
312.299	160.59
312.513	123.73
312.727	70.48
312.941	60.24
313.154	56.15
313.368	17.24
313.582	66.39
313.796	21.33
314.009	45.91
314.223	66.39
314.437	115.54
314.651	140.12
314.864	37.72
315.078	43.86
315.292	-5.29
315.505	84.82
315.719	66.39
315.933	54.1
316.146	54.1
316.36	-11.43
316.573	64.34
316.787	117.59
317.001	13.14
317.214	13.14
317.428	45.91
317.641	41.81
317.855	66.39
318.068	66.39
318.282	86.87
318.495	111.44
318.709	54.1
318.922	37.72
319.136	119.64
319.349	107.35
319.563	111.44
319.776	138.07
319.99	7
320.203	52.05
320.417	56.15
320.63	103.25
320.843	136.02
321.057	56.15
321.27	58.2
321.483	107.35
321.697	27.48
321.91	41.81
322.124	95.06
322.337	11.09
322.55	82.77
322.763	80.72
322.977	37.72
323.19	21.33
323.403	86.87
323.617	93.01
323.83	33.62
324.043	-9.39
324.256	115.54
324.469	56.15
324.683	39.76
324.896	9.05
325.109	86.87
325.322	39.76
325.535	136.02
325.748	99.16
325.962	62.29
326.175	74.58
326.388	103.25
326.601	119.64
326.814	7
327.027	62.29
327.24	119.64
327.453	31.57
327.666	136.02
327.879	97.11
328.092	119.64
328.305	60.24
328.518	74.58
328.731	56.15
328.944	72.53
329.157	66.39
329.37	11.09
329.583	37.72
329.796	39.76
330.009	-68.78
330.222	127.83
330.435	74.58
330.648	88.92
330.861	68.44
331.073	99.16
331.286	90.96
331.499	74.58
331.712	21.33
331.925	37.72
332.138	72.53
332.35	70.48
332.563	43.86
332.776	86.87
332.989	47.96
333.202	66.39
333.414	54.1
333.627	56.15
333.84	27.48
334.053	31.57
334.265	45.91
334.478	72.53
334.691	21.33
334.903	72.53
335.116	-1.19
335.329	70.48
335.541	82.77
335.754	105.3
335.966	13.14
336.179	76.63
336.392	29.52
336.604	66.39
336.817	70.48
337.029	70.48
337.242	25.43
337.454	144.21
337.667	56.15
337.88	66.39
338.092	25.43
338.305	123.73
338.517	84.82
338.729	138.07
338.942	88.92
339.154	62.29
339.367	86.87
339.579	62.29
339.792	39.76
340.004	154.45
340.217	31.57
340.429	0.85
340.641	-11.43
340.854	70.48
341.066	27.48
341.278	129.88
341.491	54.1
341.703	72.53
341.915	2.9
342.128	70.48
342.34	123.73
342.552	17.24
342.764	74.58
342.977	119.64
343.189	113.49
343.401	13.14
343.613	-68.78
343.826	86.87
344.038	15.19
344.25	54.1
344.462	-42.15
344.674	107.35
344.886	70.48
345.099	70.48
345.311	37.72
345.523	37.72
345.735	33.62
345.947	31.57
346.159	133.97
346.371	80.72
346.583	68.44
346.795	195.41
347.007	70.48
347.219	103.25
347.431	37.72
347.643	88.92
347.855	136.02
348.067	140.12
348.279	50
348.491	131.92
348.703	70.48
348.915	52.05
349.127	27.48
349.339	86.87
349.551	54.1
349.763	86.87
349.975	76.63
350.187	129.88
350.399	127.83
350.61	99.16
350.822	70.48
351.034	95.06
351.246	88.92
351.458	111.44
351.669	47.96
351.881	125.78
352.093	66.39
352.305	80.72
352.517	47.96
352.728	172.88
352.94	17.24
353.152	39.76
353.363	29.52
353.575	115.54
353.787	146.26
353.999	43.86
354.21	117.59
354.422	29.52
354.633	70.48
354.845	95.06
355.057	66.39
355.268	78.68
355.48	105.3
355.692	58.2
355.903	41.81
356.115	58.2
356.326	41.81
356.538	181.07
356.749	103.25
356.961	78.68
357.172	103.25
357.384	52.05
357.595	119.64
357.807	64.34
358.018	-11.43
358.23	115.54
358.441	154.45
358.653	103.25
358.864	70.48
359.075	70.48
359.287	4.95
359.498	35.67
359.709	136.02
359.921	70.48
360.132	162.64
360.344	70.48
360.555	-48.3
360.766	97.11
360.977	58.2
361.189	164.69
361.4	15.19
361.611	-15.53
361.823	84.82
362.034	160.59
362.245	21.33
362.456	54.1
362.667	138.07
362.879	113.49
363.09	37.72
363.301	127.83
363.512	41.81
363.723	95.06
363.935	111.44
364.146	168.79
364.357	37.72
364.568	97.11
364.779	45.91
364.99	76.63
365.201	74.58
365.412	121.68
365.623	23.38
365.834	127.83
366.045	25.43
366.256	154.45
366.467	105.3
366.678	97.11
366.889	86.87
367.1	33.62
367.311	76.63
367.522	78.68
367.733	84.82
367.944	86.87
368.155	64.34
368.366	86.87
368.577	70.48
368.788	115.54
368.999	-11.43
369.209	47.96
369.42	138.07
369.631	144.21
369.842	86.87
370.053	45.91
370.264	103.25
370.474	80.72
370.685	111.44
370.896	31.57
371.107	121.68
371.317	101.2
371.528	11.09
371.739	136.02
371.95	97.11
372.16	23.38
372.371	66.39
372.582	74.58
372.792	60.24
373.003	74.58
373.214	140.12
373.424	101.2
373.635	56.15
373.846	111.44
374.056	95.06
374.267	95.06
374.477	72.53
374.688	86.87
374.898	101.2
375.109	78.68
375.319	107.35
375.53	93.01
375.74	142.16
375.951	86.87
376.161	27.48
376.372	88.92
376.582	107.35
376.793	140.12
377.003	82.77
377.214	2.9
377.424	103.25
377.635	111.44
377.845	45.91
378.055	78.68
378.266	43.86
378.476	78.68
378.686	164.69
378.897	64.34
379.107	107.35
379.317	70.48
379.528	23.38
379.738	72.53
379.948	37.72
380.158	29.52
380.369	76.63
380.579	111.44
380.789	45.91
380.999	90.96
381.21	103.25
381.42	105.3
381.63	58.2
381.84	105.3
382.05	43.86
382.261	113.49
382.471	47.96
382.681	56.15
382.891	115.54
383.101	111.44
383.311	86.87
383.521	45.91
383.731	109.4
383.941	47.96
384.151	123.73
384.361	99.16
384.571	80.72
384.781	86.87
384.991	162.64
385.201	115.54
385.411	148.31
385.621	119.64
385.831	74.58
386.041	35.67
386.251	70.48
386.461	86.87
386.671	74.58
386.881	86.87
387.091	54.1
387.301	78.68
387.511	95.06
387.72	64.34
387.93	148.31
388.14	86.87
388.35	125.78
388.56	127.83
388.769	103.25
388.979	29.52
389.189	138.07
389.399	170.83
389.609	131.92
389.818	174.93
390.028	72.53
390.238	119.64
390.447	60.24
390.657	103.25
390.867	78.68
391.076	45.91
391.286	133.97
391.496	86.87
391.705	115.54
391.915	95.06
392.125	127.83
392.334	80.72
392.544	107.35
392.753	86.87
392.963	123.73
393.172	78.68
393.382	80.72
393.591	103.25
393.801	82.77
394.01	123.73
394.22	162.64
394.429	115.54
394.639	119.64
394.848	88.92
395.058	111.44
395.267	80.72
395.477	95.06
395.686	127.83
395.895	160.59
396.105	111.44
396.314	99.16
396.524	97.11
396.733	80.72
396.942	78.68
397.152	80.72
397.361	201.55
397.57	148.31
397.78	103.25
397.989	185.17
398.198	133.97
398.407	166.74
398.617	72.53
398.826	162.64
399.035	78.68
399.244	72.53
399.453	172.88
399.663	144.21
399.872	166.74
400.081	70.48
400.29	152.4
400.499	131.92
400.708	78.68
400.917	179.03
401.127	213.84
401.336	80.72
401.545	242.51
401.754	154.45
401.963	176.98
402.172	166.74
402.381	131.92
402.59	127.83
402.799	234.32
403.008	97.11
403.217	160.59
403.426	211.79
403.635	219.99
403.844	131.92
404.053	121.68
404.262	181.07
404.471	183.12
404.68	150.36
404.888	146.26
405.097	215.89
405.306	162.64
405.515	152.4
405.724	242.51
405.933	127.83
406.142	181.07
406.35	197.46
406.559	179.03
406.768	211.79
406.977	293.71
407.185	254.8
407.394	277.33
407.603	164.69
407.812	273.23
408.02	258.9
408.229	262.99
408.438	191.31
408.646	201.55
408.855	242.51
409.064	226.13
409.272	303.95
409.481	351.06
409.69	342.86
409.898	285.52
410.107	439.12
410.315	365.39
410.524	326.48
410.733	373.58
410.941	484.17
411.15	525.13
411.358	443.21
411.567	426.83
411.775	435.02
411.984	418.64
412.192	506.7
412.401	443.21
412.609	541.52
412.818	615.24
413.026	566.09
413.234	578.38
413.443	672.59
413.651	523.09
413.86	648.01
414.068	719.69
414.276	680.78
414.485	672.59
414.693	742.22
414.901	817.99
415.11	746.31
415.318	867.14
415.526	803.66
415.734	824.14
415.943	881.48
416.151	856.9
416.359	930.63
416.567	897.86
416.776	973.64
416.984	996.17
417.192	1119.04
417.4	1096.52
417.608	1057.61
417.817	1145.67
418.025	1157.96
418.233	1254.21
418.441	1127.24
418.649	1217.35
418.857	1284.93
419.065	1487.68
419.273	1440.58
419.481	1563.45
419.689	1520.45
419.897	1620.8
420.105	1735.48
420.313	1571.65
420.521	1700.67
420.729	1805.11
420.937	1747.77
421.145	1835.83
421.353	2007.86
421.561	2143.03
421.769	2126.64
421.977	2257.71
422.185	2122.55
422.393	2360.11
422.601	2511.66
422.809	2480.94
423.017	2456.37
423.224	2544.43
423.432	2659.12
423.64	2724.65
423.848	3058.47
424.056	2908.97
424.263	3203.88
424.471	3035.94
424.679	3212.07
424.887	3369.76
425.094	3384.1
425.302	3404.58
425.51	3519.26
425.718	3785.5
425.925	3728.16
426.133	3742.49
426.341	4035.35
426.548	4129.56
426.756	4160.28
426.964	4199.19
427.171	4573.97
427.379	4573.97
427.586	4530.96
427.794	4862.73
428.001	5014.28
428.209	5198.6
428.417	5135.11
428.624	5602.05
428.832	5440.26
429.039	5526.27
429.247	5522.18
429.454	5976.83
429.662	6269.69
429.869	5899
430.076	6372.08
430.284	6236.92
430.491	6470.39
430.699	6865.64
430.906	6771.44
431.114	6900.46
431.321	7174.89
431.528	7422.69
431.736	7709.41
431.943	8192.73
432.15	7889.63
432.358	8035.03
432.565	8659.67
432.772	8213.21
432.979	8590.03
433.187	8852.17
433.394	8985.29
433.601	9370.31
433.808	9700.03
434.016	9732.8
434.223	9966.27
434.43	10441.4
434.637	10334.9
434.844	10859.18
435.052	11225.77
435.259	10857.14
435.466	11295.4
435.673	11254.44
435.88	11588.26
436.087	12120.73
436.294	12384.92
436.501	12081.82
436.708	12319.39
436.915	12710.55
437.122	13306.51
437.329	13101.71
437.537	13593.22
437.743	13791.87
437.95	13726.34
438.157	14695.03
438.364	14979.7
438.571	14834.29
438.778	15217.26
438.985	16411.23
439.192	15585.9
439.399	16394.84
439.606	15901.28
439.813	16884.31
440.02	17666.63
440.227	17484.36
440.433	17211.98
440.64	17994.31
440.847	17855.04
441.054	18084.42
441.261	19419.69
441.467	19165.74
441.674	19200.56
441.881	20275.74
442.088	20144.67
442.294	19886.63
442.501	20564.51
442.708	20910.61
442.914	21467.66
443.121	22516.22
443.328	21563.92
443.534	23370.22
443.741	22718.97
443.948	22016.52
444.154	24519.14
444.361	24068.58
444.568	24013.29
444.774	24003.05
444.981	24429.02
445.187	24793.56
445.394	25983.43
445.6	25831.88
445.807	28324.26
446.013	27068.86
446.22	27677.1
446.426	28875.16
446.633	28676.51
446.839	29811.09
447.046	28653.98
447.252	29974.92
447.459	29968.78
447.665	30243.21
447.871	31224.18
448.078	32811.36
448.284	31213.95
448.491	31826.29
448.697	32891.23
448.903	33726.8
449.11	33718.61
449.316	33538.39
449.522	33794.39
449.728	34771.27
449.935	34928.96
450.141	34920.77
450.347	35647.8
450.553	34779.46
450.76	35129.66
450.966	36430.12
451.172	35823.92
451.378	37200.16
451.584	36135.21
451.791	37112.1
451.997	36725.03
452.203	37437.72
452.409	37851.41
452.615	37206.3
452.821	35610.93
453.027	35430.71
453.233	37341.47
453.44	35830.07
453.646	36020.53
453.852	35977.52
454.058	37128.48
454.264	35672.37
454.47	36331.82
454.676	35707.19
454.882	36743.46
455.088	33646.93
455.294	34175.31
455.5	34195.79
455.705	34857.28
455.911	33546.58
456.117	32659.81
456.323	32545.12
456.529	30288.26
456.735	32061.8
456.941	31467.89
457.147	30466.44
457.352	29434.26
457.558	29362.58
457.764	29630.87
457.97	28879.26
458.176	28354.98
458.381	28070.31
458.587	26780.09
458.793	26657.21
458.999	25346.51
459.204	27287.99
459.41	26393.03
459.616	24545.76
459.821	24461.79
460.027	24324.58
460.233	23863.79
460.438	22667.77
460.644	22794.75
460.85	21961.22
461.055	21471.76
461.261	21621.26
461.466	19888.68
461.672	19124.79
461.878	20689.43
462.083	19274.29
462.289	18819.64
462.494	18594.36
462.7	17769.03
462.905	17488.46
463.111	18051.65
463.316	18158.14
463.522	17521.23
463.727	17783.37
463.932	17640.01
464.138	17240.65
464.343	17365.58
464.549	17029.71
464.754	17678.92
464.959	17373.77
465.165	17345.1
465.37	16388.7
465.575	16071.26
465.781	16587.35
465.986	16855.64
466.191	16120.42
466.397	15802.98
