Data from USB4F104151__29__14-29-02-949.txt Node

Date: Thu Mar 13 14:29:02 EDT 2025
User: louis
Spectrometer: USB4F10415
Trigger mode: 4
Integration Time (sec): 2.500000E-2
Scans to average: 1
Electric dark correction enabled: true
Nonlinearity correction enabled: false
Boxcar width: 0
XAxis mode: Wavelengths
Number of Pixels in Spectrum: 3648
>>>>>Begin Spectral Data<<<<<
178.204	-149.33
178.424	-149.33
178.644	-149.33
178.864	-161.62
179.084	-173.91
179.304	-24.4
179.524	41.13
179.744	34.99
179.964	47.27
180.184	32.94
180.404	6.31
180.624	0.17
180.844	-40.79
181.064	34.99
181.283	-38.74
181.503	-53.08
181.723	-40.79
181.943	-81.75
182.163	73.9
182.383	24.75
182.602	34.99
182.822	73.9
183.042	8.36
183.262	55.47
183.482	-30.55
183.701	-14.17
183.921	0.17
184.141	-18.26
184.361	84.14
184.58	135.34
184.8	-48.98
185.02	20.65
185.239	6.31
185.459	-10.07
185.679	63.66
185.898	-55.12
186.118	98.47
186.338	6.31
186.557	59.56
186.777	26.79
186.997	14.51
187.216	121
187.436	61.61
187.655	14.51
187.875	82.09
188.095	-8.02
188.314	92.33
188.534	-38.74
188.753	-10.07
188.973	-14.17
189.192	30.89
189.412	22.7
189.631	63.66
189.851	98.47
190.07	10.41
190.29	-77.65
190.509	0.17
190.729	-114.52
190.948	51.37
191.168	80.04
191.387	-10.07
191.607	-81.75
191.826	-24.4
192.045	22.7
192.265	-67.41
192.484	-14.17
192.704	-24.4
192.923	-14.17
193.142	121
193.362	39.08
193.581	4.27
193.8	96.43
194.02	-38.74
194.239	-59.22
194.458	-16.21
194.678	22.7
194.897	18.6
195.116	114.86
195.335	39.08
195.555	-26.45
195.774	30.89
195.993	69.8
196.212	-1.88
196.432	-24.4
196.651	10.41
196.87	-32.6
197.089	129.19
197.308	30.89
197.528	-18.26
197.747	-34.64
197.966	88.23
198.185	96.43
198.404	-1.88
198.623	26.79
198.842	-8.02
199.062	106.67
199.281	45.23
199.5	-26.45
199.719	37.03
199.938	18.6
200.157	2.22
200.376	14.51
200.595	170.15
200.814	-5.97
201.033	-16.21
201.252	22.7
201.471	116.9
201.69	55.47
201.909	30.89
202.128	-34.64
202.347	18.6
202.566	22.7
202.785	-34.64
203.004	32.94
203.223	63.66
203.442	55.47
203.661	8.36
203.879	59.56
204.098	-10.07
204.317	51.37
204.536	30.89
204.755	30.89
204.974	-30.55
205.193	112.81
205.411	69.8
205.63	26.79
205.849	-83.8
206.068	-18.26
206.287	2.22
206.505	-1.88
206.724	63.66
206.943	71.85
207.162	-16.21
207.381	22.7
207.599	41.13
207.818	65.71
208.037	30.89
208.255	51.37
208.474	-8.02
208.693	43.18
208.911	14.51
209.13	22.7
209.349	90.28
209.567	-3.93
209.786	65.71
210.005	16.55
210.223	-16.21
210.442	-32.6
210.661	26.79
210.879	28.84
211.098	32.94
211.316	6.31
211.535	0.17
211.753	14.51
211.972	26.79
212.191	39.08
212.409	24.75
212.628	6.31
212.846	4.27
213.065	30.89
213.283	8.36
213.502	88.23
213.72	6.31
213.938	39.08
214.157	4.27
214.375	82.09
214.594	-26.45
214.812	57.51
215.031	-5.97
215.249	22.7
215.467	94.38
215.686	39.08
215.904	100.52
216.122	-14.17
216.341	-24.4
216.559	32.94
216.778	43.18
216.996	37.03
217.214	-28.5
217.432	-30.55
217.651	-34.64
217.869	4.27
218.087	-20.31
218.306	63.66
218.524	6.31
218.742	2.22
218.96	80.04
219.179	-10.07
219.397	55.47
219.615	16.55
219.833	96.43
220.051	-8.02
220.27	63.66
220.488	51.37
220.706	-5.97
220.924	-1.88
221.142	43.18
221.36	22.7
221.578	22.7
221.796	45.23
222.015	26.79
222.233	121
222.451	34.99
222.669	47.27
222.887	98.47
223.105	-28.5
223.323	-51.03
223.541	-18.26
223.759	-42.84
223.977	-5.97
224.195	34.99
224.413	30.89
224.631	18.6
224.849	6.31
225.067	57.51
225.285	-14.17
225.503	32.94
225.721	-10.07
225.939	-22.36
226.157	0.17
226.375	106.67
226.592	-48.98
226.81	10.41
227.028	41.13
227.246	80.04
227.464	-1.88
227.682	55.47
227.9	-18.26
228.117	2.22
228.335	-10.07
228.553	34.99
228.771	65.71
228.989	-1.88
229.206	43.18
229.424	24.75
229.642	82.09
229.86	73.9
230.077	67.75
230.295	0.17
230.513	14.51
230.731	32.94
230.948	59.56
231.166	88.23
231.384	-57.17
231.601	22.7
231.819	69.8
232.037	10.41
232.254	0.17
232.472	22.7
232.689	-8.02
232.907	24.75
233.125	-53.08
233.342	49.32
233.56	4.27
233.777	-18.26
233.995	0.17
234.213	14.51
234.43	39.08
234.648	-1.88
234.865	-22.36
235.083	-18.26
235.3	34.99
235.518	47.27
235.735	139.43
235.953	82.09
236.17	39.08
236.388	41.13
236.605	-12.12
236.822	41.13
237.04	34.99
237.257	104.62
237.475	63.66
237.692	0.17
237.909	96.43
238.127	22.7
238.344	39.08
238.562	34.99
238.779	37.03
238.996	24.75
239.214	30.89
239.431	39.08
239.648	0.17
239.865	63.66
240.083	18.6
240.3	-18.26
240.517	26.79
240.735	-16.21
240.952	110.76
241.169	6.31
241.386	30.89
241.603	18.6
241.821	10.41
242.038	84.14
242.255	-32.6
242.472	28.84
242.689	22.7
242.907	106.67
243.124	86.19
243.341	47.27
243.558	49.32
243.775	-32.6
243.992	-32.6
244.209	34.99
244.426	114.86
244.643	55.47
244.86	112.81
245.078	-5.97
245.295	-40.79
245.512	57.51
245.729	47.27
245.946	8.36
246.163	71.85
246.38	22.7
246.597	-30.55
246.814	59.56
247.031	39.08
247.248	0.17
247.464	14.51
247.681	41.13
247.898	12.46
248.115	6.31
248.332	8.36
248.549	39.08
248.766	45.23
248.983	-32.6
249.2	-22.36
249.417	6.31
249.633	16.55
249.85	22.7
250.067	30.89
250.284	-10.07
250.501	30.89
250.717	-42.84
250.934	-1.88
251.151	-24.4
251.368	-8.02
251.585	67.75
251.801	2.22
252.018	6.31
252.235	63.66
252.451	-24.4
252.668	2.22
252.885	-10.07
253.102	8.36
253.318	26.79
253.535	-18.26
253.752	20.65
253.968	-79.7
254.185	-34.64
254.401	82.09
254.618	80.04
254.835	-1.88
255.051	82.09
255.268	30.89
255.484	88.23
255.701	-10.07
255.917	73.9
256.134	30.89
256.351	-1.88
256.567	22.7
256.784	-18.26
257	34.99
257.217	6.31
257.433	94.38
257.65	57.51
257.866	43.18
258.082	-42.84
258.299	-34.64
258.515	65.71
258.732	-1.88
258.948	30.89
259.165	49.32
259.381	47.27
259.597	-42.84
259.814	-14.17
260.03	-36.69
260.246	53.42
260.463	84.14
260.679	71.85
260.895	77.99
261.112	28.84
261.328	39.08
261.544	55.47
261.761	80.04
261.977	47.27
262.193	-1.88
262.409	14.51
262.626	26.79
262.842	30.89
263.058	-30.55
263.274	-1.88
263.49	16.55
263.707	51.37
263.923	84.14
264.139	30.89
264.355	34.99
264.571	71.85
264.787	18.6
265.004	73.9
265.22	47.27
265.436	77.99
265.652	55.47
265.868	-10.07
266.084	-20.31
266.3	6.31
266.516	-44.88
266.732	39.08
266.948	-46.93
267.164	55.47
267.38	-1.88
267.596	92.33
267.812	53.42
268.028	32.94
268.244	-1.88
268.46	6.31
268.676	-1.88
268.892	2.22
269.108	69.8
269.324	-28.5
269.54	-42.84
269.756	-1.88
269.972	-30.55
270.188	-1.88
270.403	-34.64
270.619	47.27
270.835	43.18
271.051	-42.84
271.267	61.61
271.483	57.51
271.698	57.51
271.914	145.58
272.13	71.85
272.346	32.94
272.562	-10.07
272.777	77.99
272.993	34.99
273.209	112.81
273.425	26.79
273.64	-59.22
273.856	10.41
274.072	-5.97
274.287	-1.88
274.503	-14.17
274.719	32.94
274.934	-53.08
275.15	-1.88
275.366	8.36
275.581	30.89
275.797	14.51
276.012	-16.21
276.228	82.09
276.444	10.41
276.659	34.99
276.875	84.14
277.09	-3.93
277.306	-48.98
277.521	80.04
277.737	-46.93
277.952	41.13
278.168	43.18
278.383	47.27
278.599	55.47
278.814	63.66
279.03	22.7
279.245	82.09
279.461	6.31
279.676	114.86
279.892	-8.02
280.107	-8.02
280.322	14.51
280.538	-1.88
280.753	37.03
280.969	41.13
281.184	-40.79
281.399	73.9
281.615	-5.97
281.83	22.7
282.045	-32.6
282.26	39.08
282.476	55.47
282.691	57.51
282.906	-8.02
283.122	100.52
283.337	-5.97
283.552	6.31
283.767	47.27
283.983	22.7
284.198	47.27
284.413	-18.26
284.628	10.41
284.843	92.33
285.058	129.19
285.274	-42.84
285.489	-42.84
285.704	102.57
285.919	-40.79
286.134	80.04
286.349	32.94
286.564	10.41
286.779	94.38
286.995	63.66
287.21	-63.32
287.425	6.31
287.64	8.36
287.855	-12.12
288.07	26.79
288.285	92.33
288.5	34.99
288.715	39.08
288.93	-34.64
289.145	-26.45
289.36	47.27
289.575	2.22
289.79	43.18
290.004	59.56
290.219	47.27
290.434	-8.02
290.649	14.51
290.864	-32.6
291.079	24.75
291.294	12.46
291.509	55.47
291.724	2.22
291.938	51.37
292.153	57.51
292.368	37.03
292.583	8.36
292.798	63.66
293.012	112.81
293.227	32.94
293.442	55.47
293.657	16.55
293.871	16.55
294.086	20.65
294.301	41.13
294.516	-14.17
294.73	18.6
294.945	-34.64
295.16	55.47
295.374	129.19
295.589	125.1
295.804	-32.6
296.018	12.46
296.233	73.9
296.447	75.95
296.662	39.08
296.877	8.36
297.091	88.23
297.306	-1.88
297.52	-36.69
297.735	71.85
297.949	30.89
298.164	96.43
298.378	90.28
298.593	32.94
298.807	2.22
299.022	24.75
299.236	30.89
299.451	-8.02
299.665	10.41
299.88	18.6
300.094	22.7
300.309	22.7
300.523	-38.74
300.737	-14.17
300.952	14.51
301.166	32.94
301.381	-73.56
301.595	49.32
301.809	-14.17
302.024	32.94
302.238	-46.93
302.452	88.23
302.667	18.6
302.881	149.67
303.095	100.52
303.309	24.75
303.524	-38.74
303.738	-22.36
303.952	-30.55
304.166	18.6
304.381	12.46
304.595	41.13
304.809	-55.12
305.023	32.94
305.237	129.19
305.452	-1.88
305.666	-1.88
305.88	18.6
306.094	57.51
306.308	24.75
306.522	63.66
306.736	2.22
306.95	18.6
307.164	73.9
307.379	-22.36
307.593	20.65
307.807	63.66
308.021	-5.97
308.235	84.14
308.449	-34.64
308.663	-94.04
308.877	92.33
309.091	30.89
309.305	30.89
309.519	34.99
309.733	43.18
309.947	6.31
310.161	14.51
310.374	-30.55
310.588	67.75
310.802	-10.07
311.016	-53.08
311.23	63.66
311.444	47.27
311.658	-16.21
311.872	39.08
312.085	-1.88
312.299	100.52
312.513	-26.45
312.727	18.6
312.941	-61.27
313.154	6.31
313.368	-10.07
313.582	-14.17
313.796	80.04
314.009	57.51
314.223	121
314.437	32.94
314.651	0.17
314.864	47.27
315.078	59.56
315.292	-79.7
315.505	-22.36
315.719	65.71
315.933	14.51
316.146	30.89
316.36	10.41
316.573	37.03
316.787	30.89
317.001	80.04
317.214	10.41
317.428	129.19
317.641	-8.02
317.855	30.89
318.068	43.18
318.282	57.51
318.495	96.43
318.709	121
318.922	-1.88
319.136	59.56
319.349	18.6
319.563	47.27
319.776	51.37
319.99	22.7
320.203	6.31
320.417	55.47
320.63	39.08
320.843	73.9
321.057	82.09
321.27	-8.02
321.483	24.75
321.697	139.43
321.91	12.46
322.124	71.85
322.337	4.27
322.55	30.89
322.763	18.6
322.977	63.66
323.19	-22.36
323.403	57.51
323.617	43.18
323.83	73.9
324.043	69.8
324.256	30.89
324.469	10.41
324.683	55.47
324.896	-5.97
325.109	24.75
325.322	47.27
325.535	16.55
325.748	16.55
325.962	82.09
326.175	51.37
326.388	80.04
326.601	-44.88
326.814	114.86
327.027	71.85
327.24	151.72
327.453	-24.4
327.666	82.09
327.879	-42.84
328.092	47.27
328.305	59.56
328.518	71.85
328.731	-40.79
328.944	-55.12
329.157	-5.97
329.37	-5.97
329.583	104.62
329.796	104.62
330.009	26.79
330.222	28.84
330.435	92.33
330.648	43.18
330.861	55.47
331.073	65.71
331.286	34.99
331.499	6.31
331.712	28.84
331.925	63.66
332.138	75.95
332.35	63.66
332.563	-59.22
332.776	45.23
332.989	-14.17
333.202	-8.02
333.414	57.51
333.627	6.31
333.84	16.55
334.053	26.79
334.265	4.27
334.478	39.08
334.691	18.6
334.903	88.23
335.116	14.51
335.329	18.6
335.541	49.32
335.754	24.75
335.966	-32.6
336.179	30.89
336.392	26.79
336.604	24.75
336.817	39.08
337.029	51.37
337.242	112.81
337.454	98.47
337.667	34.99
337.88	71.85
338.092	28.84
338.305	-38.74
338.517	18.6
338.729	65.71
338.942	98.47
339.154	-22.36
339.367	57.51
339.579	53.42
339.792	-24.4
340.004	92.33
340.217	53.42
340.429	-1.88
340.641	8.36
340.854	-26.45
341.066	-22.36
341.278	80.04
341.491	65.71
341.703	18.6
341.915	49.32
342.128	51.37
342.34	82.09
342.552	41.13
342.764	45.23
342.977	14.51
343.189	-32.6
343.401	51.37
343.613	-20.31
343.826	8.36
344.038	-22.36
344.25	53.42
344.462	39.08
344.674	47.27
344.886	-18.26
345.099	100.52
345.311	28.84
345.523	6.31
345.735	20.65
345.947	-10.07
346.159	-14.17
346.371	-3.93
346.583	47.27
346.795	112.81
347.007	14.51
347.219	55.47
347.431	18.6
347.643	110.76
347.855	-32.6
348.067	34.99
348.279	-69.46
348.491	63.66
348.703	90.28
348.915	51.37
349.127	-75.6
349.339	30.89
349.551	10.41
349.763	-34.64
349.975	-40.79
350.187	112.81
350.399	41.13
350.61	-24.4
350.822	88.23
351.034	32.94
351.246	14.51
351.458	59.56
351.669	129.19
351.881	82.09
352.093	88.23
352.305	59.56
352.517	34.99
352.728	39.08
352.94	37.03
353.152	41.13
353.363	-79.7
353.575	39.08
353.787	39.08
353.999	41.13
354.21	30.89
354.422	30.89
354.633	32.94
354.845	0.17
355.057	6.31
355.268	75.95
355.48	71.85
355.692	16.55
355.903	0.17
356.115	57.51
356.326	22.7
356.538	104.62
356.749	55.47
356.961	63.66
357.172	129.19
357.384	88.23
357.595	80.04
357.807	47.27
358.018	65.71
358.23	22.7
358.441	80.04
358.653	96.43
358.864	-5.97
359.075	30.89
359.287	47.27
359.498	10.41
359.709	-3.93
359.921	39.08
360.132	114.86
360.344	67.75
360.555	55.47
360.766	90.28
360.977	-34.64
361.189	88.23
361.4	39.08
361.611	92.33
361.823	63.66
362.034	14.51
362.245	-26.45
362.456	67.75
362.667	32.94
362.879	39.08
363.09	55.47
363.301	139.43
363.512	18.6
363.723	51.37
363.935	-40.79
364.146	98.47
364.357	100.52
364.568	57.51
364.779	8.36
364.99	108.71
365.201	-10.07
365.412	47.27
365.623	-1.88
365.834	14.51
366.045	-22.36
366.256	123.05
366.467	55.47
366.678	37.03
366.889	45.23
367.1	32.94
367.311	88.23
367.522	-5.97
367.733	47.27
367.944	71.85
368.155	6.31
368.366	73.9
368.577	88.23
368.788	82.09
368.999	-5.97
369.209	98.47
369.42	143.53
369.631	80.04
369.842	41.13
370.053	6.31
370.264	96.43
370.474	39.08
370.685	32.94
370.896	41.13
371.107	63.66
371.317	-18.26
371.528	6.31
371.739	63.66
371.95	30.89
372.16	94.38
372.371	20.65
372.582	-1.88
372.792	22.7
373.003	88.23
373.214	80.04
373.424	57.51
373.635	-75.6
373.846	18.6
374.056	-10.07
374.267	4.27
374.477	16.55
374.688	-8.02
374.898	96.43
375.109	114.86
375.319	57.51
375.53	131.24
375.74	45.23
375.951	26.79
376.161	8.36
376.372	129.19
376.582	-1.88
376.793	14.51
377.003	-22.36
377.214	14.51
377.424	39.08
377.635	-8.02
377.845	75.95
378.055	61.61
378.266	-18.26
378.476	69.8
378.686	69.8
378.897	98.47
379.107	53.42
379.317	98.47
379.528	-1.88
379.738	100.52
379.948	73.9
380.158	55.47
380.369	47.27
380.579	96.43
380.789	84.14
380.999	137.38
381.21	26.79
381.42	131.24
381.63	63.66
381.84	-5.97
382.05	71.85
382.261	6.31
382.471	67.75
382.681	41.13
382.891	69.8
383.101	18.6
383.311	108.71
383.521	30.89
383.731	137.38
383.941	75.95
384.151	82.09
384.361	65.71
384.571	30.89
384.781	-1.88
384.991	57.51
385.201	139.43
385.411	84.14
385.621	127.14
385.831	47.27
386.041	41.13
386.251	65.71
386.461	108.71
386.671	-22.36
386.881	39.08
387.091	80.04
387.301	55.47
387.511	39.08
387.72	149.67
387.93	30.89
388.14	80.04
388.35	121
388.56	41.13
388.769	63.66
388.979	96.43
389.189	75.95
389.399	170.15
389.609	30.89
389.818	12.46
390.028	104.62
390.238	125.1
390.447	80.04
390.657	90.28
390.867	6.31
391.076	96.43
391.286	-75.6
391.496	155.82
391.705	67.75
391.915	55.47
392.125	53.42
392.334	84.14
392.544	47.27
392.753	30.89
392.963	-22.36
393.172	123.05
393.382	57.51
393.591	106.67
393.801	92.33
394.01	153.77
394.22	145.58
394.429	16.55
394.639	90.28
394.848	123.05
395.058	73.9
395.267	90.28
395.477	125.1
395.686	112.81
395.895	75.95
396.105	182.44
396.314	127.14
396.524	104.62
396.733	14.51
396.942	141.48
397.152	121
397.361	174.25
397.57	166.06
397.78	80.04
397.989	100.52
398.198	178.34
398.407	102.57
398.617	106.67
398.826	153.77
399.035	59.56
399.244	118.95
399.453	106.67
399.663	106.67
399.872	131.24
400.081	28.84
400.29	188.58
400.499	73.9
400.708	172.2
400.917	127.14
401.127	63.66
401.336	129.19
401.545	137.38
401.754	123.05
401.963	55.47
402.172	139.43
402.381	100.52
402.59	141.48
402.799	129.19
403.008	217.26
403.217	106.67
403.426	188.58
403.635	137.38
403.844	229.54
404.053	200.87
404.262	75.95
404.471	284.84
404.68	121
404.888	166.06
405.097	129.19
405.306	219.3
405.515	202.92
405.724	202.92
405.933	198.82
406.142	186.54
406.35	237.74
406.559	245.93
406.768	211.11
406.977	307.37
407.185	229.54
407.394	311.46
407.603	182.44
407.812	284.84
408.02	290.98
408.229	280.74
408.438	301.22
408.646	254.12
408.855	325.8
409.064	284.84
409.272	237.74
409.481	321.7
409.69	295.08
409.898	338.09
410.107	321.7
410.315	420
410.524	317.61
410.733	442.53
410.941	397.48
411.15	452.77
411.358	452.77
411.567	506.02
411.775	440.48
411.984	557.22
412.192	524.45
412.401	477.35
412.609	530.59
412.818	608.42
413.026	563.36
413.234	581.79
413.443	596.13
413.651	632.99
413.86	743.58
414.068	719.01
414.276	719.01
414.485	813.21
414.693	776.35
414.901	827.55
415.11	860.32
415.318	827.55
415.526	932
415.734	921.76
415.943	991.39
416.151	1001.63
416.359	993.44
416.567	1071.26
416.776	1030.3
416.984	1198.23
417.192	1179.8
417.4	1165.46
417.608	1210.52
417.817	1247.38
418.025	1251.48
418.233	1419.41
418.441	1321.11
418.649	1341.59
418.857	1607.83
419.065	1517.72
419.273	1616.02
419.481	1652.88
419.689	1771.66
419.897	1742.99
420.105	1943.69
420.313	1824.91
420.521	1974.41
420.729	1927.31
420.937	1980.56
421.145	2156.68
421.353	2261.13
421.561	2390.15
421.769	2406.53
421.977	2597
422.185	2508.93
422.393	2547.84
422.601	2771.07
422.809	2717.83
423.017	2900.09
423.224	2857.09
423.432	2932.86
423.64	3221.63
423.848	3360.89
424.056	3184.76
424.263	3457.14
424.471	3553.4
424.679	3618.93
424.887	3700.85
425.094	3819.63
425.302	3872.88
425.51	4022.38
425.718	4204.65
425.925	4212.84
426.133	4382.82
426.341	4429.93
426.548	4827.23
426.756	4790.37
426.964	4909.15
427.171	5109.85
427.379	5156.96
427.586	5337.18
427.794	5488.73
428.001	5666.9
428.209	5988.43
428.417	5765.2
428.624	6334.54
428.832	6375.5
429.039	6170.7
429.247	6387.79
429.454	6731.84
429.662	7370.81
429.869	6838.34
430.076	7231.55
430.284	6996.03
430.491	7485.5
430.699	7929.91
430.906	7923.76
431.114	7854.13
431.321	8345.64
431.528	8503.34
431.736	8853.54
431.943	9445.4
432.15	9127.97
432.358	9033.76
432.565	9521.18
432.772	9822.23
432.979	10178.58
433.187	10221.58
433.394	10403.85
433.601	11112.45
433.808	10934.28
434.016	11018.24
434.223	11243.52
434.43	12206.06
434.637	11890.68
434.844	12584.94
435.052	12939.24
435.259	12771.3
435.466	12851.17
435.673	12799.98
435.88	13789.14
436.087	14333.9
436.294	14258.13
436.501	13959.13
436.708	14114.77
436.915	14817.22
437.122	15388.61
437.329	15218.63
437.537	15839.16
437.743	16082.87
437.95	15974.33
438.157	16852.91
438.364	17199.01
438.571	17323.94
438.778	17493.92
438.985	18958.22
439.192	18335.63
439.399	18821
439.606	18339.73
439.813	19419.01
440.02	20686.7
440.227	20000.63
440.433	20164.47
440.64	20666.22
440.847	20492.15
441.054	20764.53
441.261	22302.55
441.467	21964.64
441.674	22308.69
441.881	23582.53
442.088	23093.07
442.294	22814.54
442.501	23441.22
442.708	24088.38
442.914	24962.86
443.121	26050.33
443.328	25444.13
443.534	27197.2
443.741	26603.28
443.948	26001.18
444.154	28126.97
444.361	27490.06
444.568	28155.65
444.774	27686.66
444.981	28434.17
445.187	29040.37
445.394	29943.52
445.6	30101.22
445.807	32855.73
446.013	31250.13
446.22	31952.58
446.426	33425.07
446.633	33732.26
446.839	34645.66
447.046	33322.67
447.252	35102.36
447.459	34999.96
447.665	34432.67
447.871	36771.45
448.078	37797.48
448.284	36191.87
448.491	37090.93
448.697	38549.09
448.903	39370.32
449.11	39681.61
449.316	39167.57
449.522	39652.94
449.728	40296
449.935	40375.87
450.141	41322.04
450.347	41430.58
450.553	40394.31
450.76	41229.88
450.966	41975.34
451.172	41952.81
451.378	42884.64
451.584	41694.77
451.791	43001.37
451.997	42780.19
452.203	43779.6
452.409	43869.71
452.615	43621.91
452.821	41729.58
453.027	41401.91
453.233	43599.38
453.44	42004.01
453.646	42399.27
453.852	42882.59
454.058	43044.38
454.264	41985.58
454.47	42673.7
454.676	41872.94
454.882	42786.33
455.088	39407.19
455.294	40422.98
455.5	40871.48
455.705	41487.92
455.911	39597.65
456.117	38655.58
456.323	38291.04
456.529	36740.73
456.735	38073.96
456.941	36679.29
457.147	36030.08
457.352	35219.09
457.558	34954.9
457.764	35118.74
457.97	34428.57
458.176	33496.75
458.381	33607.34
458.587	31882.95
458.793	31854.28
458.999	30355.16
459.204	32337.6
459.41	31409.87
459.616	29124.33
459.821	29595.37
460.027	29069.04
460.233	28946.16
460.438	27383.56
460.644	27606.79
460.85	26179.36
461.055	26017.57
461.261	25675.55
461.466	24076.09
461.672	23525.19
461.878	24719.15
462.083	23390.02
462.289	22706
462.494	22593.36
462.7	21509.99
462.905	20834.16
463.111	21981.02
463.316	21802.85
463.522	21069.67
463.727	21215.08
463.932	21233.51
464.138	20975.47
464.343	21088.1
464.549	20238.2
464.754	21135.21
464.959	20838.25
465.165	20645.74
465.37	19967.87
465.575	19580.8
465.781	20191.09
465.986	20354.93
466.191	19629.95
466.397	19216.26
466.602	18433.94
466.807	18747.28
467.012	19025.8
