Data from USB4F104151__92__14-30-42-995.txt Node

Date: Thu Mar 13 14:30:42 EDT 2025
User: louis
Spectrometer: USB4F10415
Trigger mode: 4
Integration Time (sec): 2.500000E-2
Scans to average: 1
Electric dark correction enabled: true
Nonlinearity correction enabled: false
Boxcar width: 0
XAxis mode: Wavelengths
Number of Pixels in Spectrum: 3648
>>>>>Begin Spectral Data<<<<<
178.204	-190.97
178.424	-190.97
178.644	-190.97
178.864	-211.45
179.084	-98.81
179.304	-78.33
179.524	7.68
179.744	15.87
179.964	-43.52
180.184	65.02
180.404	44.54
180.624	-6.66
180.844	73.21
181.064	-111.1
181.283	48.64
181.503	-14.85
181.723	-0.51
181.943	-92.67
182.163	-2.56
182.383	44.54
182.602	69.12
182.822	73.21
183.042	97.79
183.262	19.97
183.482	36.35
183.701	11.78
183.921	11.78
184.141	9.73
184.361	89.6
184.58	-37.38
184.8	60.93
185.02	-25.09
185.239	17.92
185.459	65.02
185.679	13.82
185.898	-4.61
186.118	50.69
186.338	44.54
186.557	42.5
186.777	-31.23
186.997	-14.85
187.216	5.63
187.436	56.83
187.655	71.17
187.875	7.68
188.095	-25.09
188.314	13.82
188.534	36.35
188.753	-78.33
188.973	-25.09
189.192	122.37
189.412	-8.7
189.631	15.87
189.851	24.06
190.07	65.02
190.29	-41.47
190.509	40.45
190.729	58.88
190.948	99.84
191.168	151.04
191.387	73.21
191.607	17.92
191.826	40.45
192.045	-55.81
192.265	11.78
192.484	24.06
192.704	-0.51
192.923	17.92
193.142	87.55
193.362	50.69
193.581	56.83
193.8	17.92
194.02	50.69
194.239	77.31
194.458	89.6
194.678	24.06
194.897	1.54
195.116	19.97
195.335	56.83
195.555	26.11
195.774	50.69
195.993	110.08
196.212	-23.04
196.432	-0.51
196.651	42.5
196.87	-33.28
197.089	71.17
197.308	69.12
197.528	42.5
197.747	-80.38
197.966	24.06
198.185	93.69
198.404	19.97
198.623	-39.42
198.842	65.02
199.062	1.54
199.281	69.12
199.5	1.54
199.719	34.3
199.938	11.78
200.157	44.54
200.376	32.26
200.595	9.73
200.814	71.17
201.033	-86.53
201.252	7.68
201.471	15.87
201.69	118.27
201.909	-23.04
202.128	50.69
202.347	56.83
202.566	65.02
202.785	-12.8
203.004	32.26
203.223	65.02
203.442	32.26
203.661	-82.43
203.879	24.06
204.098	136.7
204.317	-8.7
204.536	97.79
204.755	67.07
204.974	110.08
205.193	1.54
205.411	85.5
205.63	15.87
205.849	75.26
206.068	-6.66
206.287	-4.61
206.505	-20.99
206.724	24.06
206.943	24.06
207.162	60.93
207.381	-37.38
207.599	-33.28
207.818	7.68
208.037	-18.94
208.255	58.88
208.474	34.3
208.693	19.97
208.911	15.87
209.13	91.65
209.349	19.97
209.567	-8.7
209.786	56.83
210.005	13.82
210.223	5.63
210.442	-55.81
210.661	-31.23
210.879	1.54
211.098	-0.51
211.316	81.41
211.535	48.64
211.753	56.83
211.972	81.41
212.191	75.26
212.409	83.45
212.628	65.02
212.846	-18.94
213.065	81.41
213.283	40.45
213.502	-27.14
213.72	-16.9
213.938	50.69
214.157	83.45
214.375	56.83
214.594	30.21
214.812	91.65
215.031	65.02
215.249	54.78
215.467	118.27
215.686	101.89
215.904	144.89
216.122	-25.09
216.341	81.41
216.559	13.82
216.778	34.3
216.996	108.03
217.214	48.64
217.432	32.26
217.651	58.88
217.869	-0.51
218.087	40.45
218.306	-18.94
218.524	40.45
218.742	38.4
218.96	-0.51
219.179	-6.66
219.397	32.26
219.615	17.92
219.833	112.13
220.051	9.73
220.27	62.98
220.488	60.93
220.706	52.74
220.924	-16.9
221.142	32.26
221.36	81.41
221.578	89.6
221.796	-0.51
222.015	44.54
222.233	-33.28
222.451	24.06
222.669	50.69
222.887	65.02
223.105	77.31
223.323	15.87
223.541	-4.61
223.759	15.87
223.977	-0.51
224.195	44.54
224.413	56.83
224.631	103.93
224.849	17.92
225.067	105.98
225.285	15.87
225.503	124.41
225.721	50.69
225.939	9.73
226.157	15.87
226.375	200.19
226.592	65.02
226.81	-16.9
227.028	75.26
227.246	44.54
227.464	-27.14
227.682	60.93
227.9	110.08
228.117	89.6
228.335	81.41
228.553	-39.42
228.771	24.06
228.989	28.16
229.206	50.69
229.424	5.63
229.642	9.73
229.86	40.45
230.077	87.55
230.295	40.45
230.513	97.79
230.731	42.5
230.948	81.41
231.166	128.51
231.384	19.97
231.601	15.87
231.819	40.45
232.037	19.97
232.254	11.78
232.472	9.73
232.689	58.88
232.907	5.63
233.125	-25.09
233.342	-33.28
233.56	19.97
233.777	48.64
233.995	54.78
234.213	144.89
234.43	9.73
234.648	81.41
234.865	26.11
235.083	36.35
235.3	7.68
235.518	83.45
235.735	50.69
235.953	42.5
236.17	7.68
236.388	1.54
236.605	22.02
236.822	116.22
237.04	71.17
237.257	38.4
237.475	3.58
237.692	32.26
237.909	15.87
238.127	40.45
238.344	-14.85
238.562	-51.71
238.779	19.97
238.996	-70.14
239.214	-12.8
239.431	36.35
239.648	-43.52
239.865	22.02
240.083	13.82
240.3	34.3
240.517	-8.7
240.735	69.12
240.952	24.06
241.169	108.03
241.386	56.83
241.603	7.68
241.821	11.78
242.038	17.92
242.255	108.03
242.472	15.87
242.689	36.35
242.907	89.6
243.124	24.06
243.341	11.78
243.558	-90.62
243.775	-14.85
243.992	71.17
244.209	40.45
244.426	85.5
244.643	40.45
244.86	-4.61
245.078	13.82
245.295	81.41
245.512	11.78
245.729	-27.14
245.946	-12.8
246.163	7.68
246.38	40.45
246.597	40.45
246.814	24.06
247.031	7.68
247.248	24.06
247.464	46.59
247.681	30.21
247.898	-16.9
248.115	95.74
248.332	48.64
248.549	48.64
248.766	93.69
248.983	42.5
249.2	52.74
249.417	85.5
249.633	-49.66
249.85	116.22
250.067	-31.23
250.284	19.97
250.501	118.27
250.717	71.17
250.934	-25.09
251.151	26.11
251.368	42.5
251.585	54.78
251.801	-2.56
252.018	65.02
252.235	79.36
252.451	56.83
252.668	-12.8
252.885	3.58
253.102	99.84
253.318	-39.42
253.535	11.78
253.752	34.3
253.968	-57.86
254.185	28.16
254.401	-33.28
254.618	60.93
254.835	-33.28
255.051	44.54
255.268	153.09
255.484	9.73
255.701	75.26
255.917	-12.8
256.134	-4.61
256.351	44.54
256.567	26.11
256.784	-31.23
257	-57.86
257.217	42.5
257.433	40.45
257.65	60.93
257.866	65.02
258.082	56.83
258.299	40.45
258.515	7.68
258.732	-2.56
258.948	65.02
259.165	19.97
259.381	-41.47
259.597	48.64
259.814	24.06
260.03	24.06
260.246	42.5
260.463	32.26
260.679	67.07
260.895	-14.85
261.112	7.68
261.328	22.02
261.544	7.68
261.761	108.03
261.977	-45.57
262.193	30.21
262.409	79.36
262.626	146.94
262.842	44.54
263.058	-4.61
263.274	46.59
263.49	-14.85
263.707	69.12
263.923	77.31
264.139	13.82
264.355	79.36
264.571	34.3
264.787	7.68
265.004	67.07
265.22	36.35
265.436	15.87
265.652	-86.53
265.868	46.59
266.084	36.35
266.3	17.92
266.516	-14.85
266.732	48.64
266.948	-16.9
267.164	-8.7
267.38	-47.62
267.596	24.06
267.812	187.9
268.028	28.16
268.244	-6.66
268.46	15.87
268.676	89.6
268.892	-8.7
269.108	-37.38
269.324	-20.99
269.54	52.74
269.756	34.3
269.972	-10.75
270.188	26.11
270.403	73.21
270.619	-0.51
270.835	40.45
271.051	32.26
271.267	32.26
271.483	-2.56
271.698	99.84
271.914	110.08
272.13	48.64
272.346	-25.09
272.562	77.31
272.777	81.41
272.993	-4.61
273.209	65.02
273.425	101.89
273.64	-14.85
273.856	-37.38
274.072	-6.66
274.287	-27.14
274.503	1.54
274.719	26.11
274.934	58.88
275.15	15.87
275.366	28.16
275.581	-20.99
275.797	81.41
276.012	44.54
276.228	-12.8
276.444	77.31
276.659	73.21
276.875	7.68
277.09	32.26
277.306	73.21
277.521	30.21
277.737	24.06
277.952	99.84
278.168	32.26
278.383	3.58
278.599	-35.33
278.814	44.54
279.03	1.54
279.245	56.83
279.461	69.12
279.676	26.11
279.892	-16.9
280.107	-23.04
280.322	-66.05
280.538	-4.61
280.753	32.26
280.969	65.02
281.184	34.3
281.399	73.21
281.615	89.6
281.83	7.68
282.045	-31.23
282.26	-33.28
282.476	48.64
282.691	144.89
282.906	1.54
283.122	56.83
283.337	-33.28
283.552	34.3
283.767	-53.76
283.983	30.21
284.198	75.26
284.413	7.68
284.628	-25.09
284.843	56.83
285.058	114.17
285.274	28.16
285.489	-20.99
285.704	65.02
285.919	13.82
286.134	15.87
286.349	11.78
286.564	58.88
286.779	69.12
286.995	-12.8
287.21	60.93
287.425	40.45
287.64	93.69
287.855	42.5
288.07	48.64
288.285	11.78
288.5	56.83
288.715	126.46
288.93	-8.7
289.145	120.32
289.36	17.92
289.575	-20.99
289.79	15.87
290.004	75.26
290.219	46.59
290.434	-12.8
290.649	-27.14
290.864	48.64
291.079	46.59
291.294	36.35
291.509	71.17
291.724	-31.23
291.938	65.02
292.153	122.37
292.368	-53.76
292.583	7.68
292.798	-43.52
293.012	26.11
293.227	56.83
293.442	-23.04
293.657	118.27
293.871	17.92
294.086	24.06
294.301	110.08
294.516	9.73
294.73	34.3
294.945	9.73
295.16	58.88
295.374	99.84
295.589	40.45
295.804	48.64
296.018	36.35
296.233	81.41
296.447	1.54
296.662	32.26
296.877	77.31
297.091	-0.51
297.306	69.12
297.52	62.98
297.735	48.64
297.949	32.26
298.164	65.02
298.378	44.54
298.593	9.73
298.807	-29.18
299.022	26.11
299.236	-35.33
299.451	-12.8
299.665	15.87
299.88	17.92
300.094	-6.66
300.309	-4.61
300.523	114.17
300.737	40.45
300.952	56.83
301.166	73.21
301.381	-6.66
301.595	81.41
301.809	9.73
302.024	-8.7
302.238	-8.7
302.452	67.07
302.667	15.87
302.881	85.5
303.095	30.21
303.309	40.45
303.524	-0.51
303.738	-14.85
303.952	-20.99
304.166	56.83
304.381	22.02
304.595	81.41
304.809	-39.42
305.023	17.92
305.237	32.26
305.452	112.13
305.666	126.46
305.88	124.41
306.094	114.17
306.308	22.02
306.522	7.68
306.736	-18.94
306.95	28.16
307.164	44.54
307.379	-0.51
307.593	173.57
307.807	-41.47
308.021	50.69
308.235	105.98
308.449	-20.99
308.663	36.35
308.877	44.54
309.091	11.78
309.305	95.74
309.519	-27.14
309.733	67.07
309.947	-55.81
310.161	7.68
310.374	58.88
310.588	48.64
310.802	-2.56
311.016	7.68
311.23	114.17
311.444	-25.09
311.658	79.36
311.872	73.21
312.085	-6.66
312.299	1.54
312.513	91.65
312.727	130.56
312.941	13.82
313.154	32.26
313.368	48.64
313.582	-6.66
313.796	-16.9
314.009	17.92
314.223	69.12
314.437	97.79
314.651	24.06
314.864	81.41
315.078	54.78
315.292	89.6
315.505	56.83
315.719	85.5
315.933	-20.99
316.146	-16.9
316.36	56.83
316.573	32.26
316.787	30.21
317.001	114.17
317.214	3.58
317.428	89.6
317.641	32.26
317.855	-6.66
318.068	67.07
318.282	56.83
318.495	144.89
318.709	48.64
318.922	122.37
319.136	62.98
319.349	62.98
319.563	46.59
319.776	83.45
319.99	52.74
320.203	24.06
320.417	36.35
320.63	40.45
320.843	32.26
321.057	24.06
321.27	-14.85
321.483	73.21
321.697	99.84
321.91	99.84
322.124	60.93
322.337	48.64
322.55	56.83
322.763	32.26
322.977	30.21
323.19	22.02
323.403	81.41
323.617	32.26
323.83	42.5
324.043	9.73
324.256	73.21
324.469	-23.04
324.683	105.98
324.896	-16.9
325.109	54.78
325.322	3.58
325.535	44.54
325.748	77.31
325.962	-14.85
326.175	-47.62
326.388	28.16
326.601	32.26
326.814	30.21
327.027	56.83
327.24	40.45
327.453	-25.09
327.666	7.68
327.879	40.45
328.092	50.69
328.305	32.26
328.518	-14.85
328.731	-33.28
328.944	-0.51
329.157	73.21
329.37	65.02
329.583	136.7
329.796	132.61
330.009	42.5
330.222	69.12
330.435	40.45
330.648	105.98
330.861	50.69
331.073	24.06
331.286	17.92
331.499	17.92
331.712	40.45
331.925	24.06
332.138	-25.09
332.35	118.27
332.563	34.3
332.776	110.08
332.989	22.02
333.202	-0.51
333.414	34.3
333.627	60.93
333.84	85.5
334.053	36.35
334.265	-10.75
334.478	1.54
334.691	26.11
334.903	155.13
335.116	34.3
335.329	-20.99
335.541	-8.7
335.754	44.54
335.966	38.4
336.179	-16.9
336.392	36.35
336.604	77.31
336.817	28.16
337.029	13.82
337.242	65.02
337.454	54.78
337.667	28.16
337.88	67.07
338.092	48.64
338.305	28.16
338.517	77.31
338.729	112.13
338.942	110.08
339.154	-0.51
339.367	-49.66
339.579	89.6
339.792	-41.47
340.004	89.6
340.217	75.26
340.429	40.45
340.641	26.11
340.854	7.68
341.066	-12.8
341.278	9.73
341.491	75.26
341.703	99.84
341.915	26.11
342.128	46.59
342.34	-8.7
342.552	7.68
342.764	13.82
342.977	48.64
343.189	99.84
343.401	65.02
343.613	1.54
343.826	67.07
344.038	40.45
344.25	50.69
344.462	60.93
344.674	81.41
344.886	11.78
345.099	34.3
345.311	81.41
345.523	-2.56
345.735	7.68
345.947	56.83
346.159	118.27
346.371	17.92
346.583	15.87
346.795	85.5
347.007	9.73
347.219	116.22
347.431	-16.9
347.643	1.54
347.855	-43.52
348.067	42.5
348.279	-2.56
348.491	9.73
348.703	56.83
348.915	75.26
349.127	-16.9
349.339	1.54
349.551	34.3
349.763	46.59
349.975	9.73
350.187	83.45
350.399	122.37
350.61	28.16
350.822	-0.51
351.034	32.26
351.246	93.69
351.458	-29.18
351.669	83.45
351.881	60.93
352.093	15.87
352.305	73.21
352.517	65.02
352.728	50.69
352.94	67.07
353.152	89.6
353.363	30.21
353.575	62.98
353.787	65.02
353.999	105.98
354.21	122.37
354.422	-20.99
354.633	-33.28
354.845	44.54
355.057	-12.8
355.268	105.98
355.48	48.64
355.692	56.83
355.903	56.83
356.115	-25.09
356.326	-6.66
356.538	42.5
356.749	105.98
356.961	83.45
357.172	85.5
357.384	15.87
357.595	24.06
357.807	11.78
358.018	42.5
358.23	65.02
358.441	126.46
358.653	73.21
358.864	67.07
359.075	40.45
359.287	67.07
359.498	-0.51
359.709	40.45
359.921	58.88
360.132	95.74
360.344	81.41
360.555	-10.75
360.766	97.79
360.977	87.55
361.189	73.21
361.4	1.54
361.611	13.82
361.823	56.83
362.034	32.26
362.245	19.97
362.456	52.74
362.667	56.83
362.879	54.78
363.09	56.83
363.301	146.94
363.512	30.21
363.723	11.78
363.935	42.5
364.146	36.35
364.357	-0.51
364.568	17.92
364.779	15.87
364.99	36.35
365.201	65.02
365.412	108.03
365.623	9.73
365.834	65.02
366.045	52.74
366.256	44.54
366.467	83.45
366.678	77.31
366.889	114.17
367.1	87.55
367.311	171.52
367.522	85.5
367.733	89.6
367.944	69.12
368.155	-39.42
368.366	77.31
368.577	103.93
368.788	83.45
368.999	69.12
369.209	-6.66
369.42	42.5
369.631	146.94
369.842	-12.8
370.053	44.54
370.264	62.98
370.474	81.41
370.685	75.26
370.896	36.35
371.107	124.41
371.317	17.92
371.528	81.41
371.739	97.79
371.95	114.17
372.16	85.5
372.371	-12.8
372.582	-8.7
372.792	71.17
373.003	34.3
373.214	75.26
373.424	44.54
373.635	28.16
373.846	24.06
374.056	58.88
374.267	71.17
374.477	120.32
374.688	75.26
374.898	48.64
375.109	50.69
375.319	-0.51
375.53	62.98
375.74	56.83
375.951	-0.51
376.161	87.55
376.372	-10.75
376.582	60.93
376.793	56.83
377.003	83.45
377.214	-16.9
377.424	-8.7
377.635	13.82
377.845	48.64
378.055	89.6
378.266	62.98
378.476	19.97
378.686	32.26
378.897	42.5
379.107	56.83
379.317	83.45
379.528	-8.7
379.738	65.02
379.948	-41.47
380.158	75.26
380.369	67.07
380.579	42.5
380.789	-41.47
380.999	130.56
381.21	83.45
381.42	118.27
381.63	-6.66
381.84	32.26
382.05	36.35
382.261	48.64
382.471	103.93
382.681	17.92
382.891	108.03
383.101	32.26
383.311	-25.09
383.521	28.16
383.731	56.83
383.941	54.78
384.151	44.54
384.361	36.35
384.571	62.98
384.781	122.37
384.991	210.43
385.201	138.75
385.411	24.06
385.621	130.56
385.831	89.6
386.041	19.97
386.251	60.93
386.461	67.07
386.671	101.89
386.881	83.45
387.091	60.93
387.301	65.02
387.511	60.93
387.72	108.03
387.93	-0.51
388.14	48.64
388.35	75.26
388.56	58.88
388.769	97.79
388.979	40.45
389.189	-25.09
389.399	48.64
389.609	114.17
389.818	138.75
390.028	19.97
390.238	13.82
390.447	77.31
390.657	56.83
390.867	54.78
391.076	148.99
391.286	83.45
391.496	116.22
391.705	40.45
391.915	108.03
392.125	112.13
392.334	97.79
392.544	151.04
392.753	26.11
392.963	-6.66
393.172	24.06
393.382	40.45
393.591	95.74
393.801	26.11
394.01	122.37
394.22	114.17
394.429	81.41
394.639	108.03
394.848	77.31
395.058	140.8
395.267	101.89
395.477	108.03
395.686	128.51
395.895	148.99
396.105	167.42
396.314	7.68
396.524	93.69
396.733	52.74
396.942	126.46
397.152	120.32
397.361	46.59
397.57	95.74
397.78	142.85
397.989	146.94
398.198	173.57
398.407	69.12
398.617	212.48
398.826	67.07
399.035	114.17
399.244	79.36
399.453	151.04
399.663	120.32
399.872	159.23
400.081	40.45
400.29	196.09
400.499	181.76
400.708	114.17
400.917	97.79
401.127	304.64
401.336	153.09
401.545	165.37
401.754	175.61
401.963	187.9
402.172	134.65
402.381	101.89
402.59	210.43
402.799	146.94
403.008	183.81
403.217	163.33
403.426	171.52
403.635	171.52
403.844	101.89
404.053	214.52
404.262	91.65
404.471	228.86
404.68	130.56
404.888	140.8
405.097	196.09
405.306	146.94
405.515	220.67
405.724	187.9
405.933	325.12
406.142	237.05
406.35	235
406.559	245.24
406.768	278.01
406.977	368.12
407.185	241.15
407.394	196.09
407.603	271.87
407.812	247.29
408.02	306.68
408.229	257.53
408.438	337.4
408.646	306.68
408.855	376.31
409.064	361.98
409.272	392.7
409.481	427.51
409.69	327.16
409.898	429.56
410.107	345.59
410.315	413.18
410.524	355.83
410.733	491
410.941	460.28
411.15	468.47
411.358	472.57
411.567	673.27
411.775	488.95
411.984	536.06
412.192	558.58
412.401	531.96
412.609	550.39
412.818	622.07
413.026	728.56
413.234	695.8
413.443	798.2
413.651	699.89
413.86	790
414.068	794.1
414.276	863.73
414.485	839.16
414.693	900.59
414.901	966.13
415.11	880.11
415.318	990.7
415.526	1064.43
415.734	1095.15
415.943	1091.06
416.151	1146.35
416.359	1132.01
416.567	1156.59
416.776	1201.65
416.984	1246.7
417.192	1267.18
417.4	1306.09
417.608	1293.8
417.817	1291.76
418.025	1424.87
418.233	1598.95
418.441	1488.36
418.649	1629.67
418.857	1654.25
419.065	1744.36
419.273	1701.35
419.481	1760.74
419.689	1986.02
419.897	1936.87
420.105	1998.31
420.313	2004.45
420.521	2096.61
420.729	2301.4
420.937	2221.53
421.145	2325.98
421.353	2551.26
421.561	2665.94
421.769	2565.59
421.977	2629.08
422.185	2815.45
422.393	2866.64
422.601	3038.67
422.809	3081.68
423.017	3155.41
423.224	3128.78
423.432	3309.01
423.64	3390.92
423.848	3700.17
424.056	3573.19
424.263	3898.82
424.471	3767.75
424.679	3921.35
424.887	4046.27
425.094	4251.07
425.302	4335.04
425.51	4332.99
425.718	4449.72
425.925	4578.75
426.133	4754.87
426.341	5137.84
426.548	5299.63
426.756	5193.14
426.964	5299.63
427.171	5461.42
427.379	5684.65
427.586	5815.72
427.794	6086.05
428.001	6317.47
428.209	6491.55
428.417	6426.01
428.624	6985.11
428.832	6878.62
429.039	6897.05
429.247	6899.09
429.454	7728.52
429.662	8050.05
429.869	7652.75
430.076	8150.4
430.284	7941.51
430.491	8060.29
430.699	8732.03
430.906	8625.53
431.114	8920.44
431.321	9020.79
431.528	9211.25
431.736	9850.22
431.943	10347.87
432.15	9930.09
432.358	10003.82
432.565	10966.36
432.772	10626.4
432.979	11236.69
433.187	11371.86
433.394	11527.5
433.601	12057.93
433.808	12076.36
434.016	12033.35
434.223	12514.63
434.43	13466.93
434.637	13032.76
434.844	13810.99
435.052	14157.1
435.259	14169.38
435.466	14091.56
435.673	14058.79
435.88	14986.52
436.087	15930.64
436.294	15697.17
436.501	15351.06
436.708	15600.91
436.915	16280.84
437.122	16696.58
437.329	16846.08
437.537	17712.37
437.743	17401.08
437.95	17433.85
438.157	18566.37
438.364	19156.19
438.571	19029.21
438.778	19322.07
438.985	20710.6
439.192	20151.5
439.399	20528.33
439.606	20102.35
439.813	21296.32
440.02	22666.41
440.227	22271.15
440.433	21834.93
440.64	22641.83
440.847	22518.95
441.054	23061.66
441.261	24603.78
441.467	24482.95
441.674	24777.86
441.881	25820.28
442.088	25607.29
442.294	25566.33
442.501	26004.6
442.708	26618.99
442.914	27327.58
443.121	28892.23
443.328	27978.84
443.534	29396.03
443.741	29176.9
443.948	28802.12
444.154	31140.9
444.361	30733.36
444.568	30987.3
444.774	30575.66
444.981	31159.33
445.187	32050.2
445.394	33487.87
445.6	32660.49
445.807	36219.86
446.013	34651.12
446.22	35404.77
446.426	36471.76
446.633	36637.65
446.839	37989.31
447.046	36430.8
447.252	38720.43
447.459	38456.25
447.665	38417.33
447.871	39861.15
448.078	41704.32
448.284	39863.2
448.491	40858.51
448.697	42619.77
448.903	43189.1
449.11	43713.38
449.316	42578.81
449.522	43608.93
449.728	44446.55
449.935	44436.31
450.141	44774.23
450.347	45450.06
450.553	44227.42
450.76	44813.14
450.966	46613.3
451.172	46123.84
451.378	46883.64
451.584	45736.77
451.791	46996.27
451.997	47004.47
452.203	47870.76
452.409	47579.95
452.615	47270.7
452.821	45638.47
453.027	45241.17
453.233	47817.51
453.44	45818.69
453.646	46629.69
453.852	46443.32
454.058	46840.63
454.264	45847.36
454.47	47078.19
454.676	45550.41
454.882	46986.04
455.088	43103.09
455.294	43387.75
455.5	44331.87
455.705	44774.23
455.911	43299.69
456.117	42253.18
456.323	41536.39
456.529	39570.34
456.735	40989.58
456.941	40080.28
457.147	39533.48
457.352	38534.07
457.558	37788.61
457.764	38200.25
457.97	36795.34
458.176	36162.52
458.381	36316.12
458.587	34665.46
458.793	34919.4
458.999	32949.26
459.204	34943.98
459.41	34073.59
459.616	31927.32
459.821	32152.6
460.027	31890.46
460.233	31110.18
460.438	29994.04
460.644	30252.08
460.85	28470.35
461.055	28312.66
461.261	27833.43
461.466	25760.89
461.672	25199.74
461.878	27065.44
462.083	25287.81
462.289	24779.91
462.494	24153.23
462.7	23362.72
462.905	22906.02
463.111	23178.4
463.316	23612.57
463.522	23227.55
463.727	23248.03
463.932	23112.86
464.138	22946.98
464.343	23037.09
464.549	22385.83
464.754	23166.11
464.959	22664.36
465.165	22602.92
465.37	21619.89
465.575	21359.8
465.781	22062.26
465.986	22303.92
466.191	21380.28
466.397	20894.91
466.602	20034.77
466.807	20698.31
