Data from USB4F104151__104__14-30-53-117.txt Node

Date: Thu Mar 13 14:30:53 EDT 2025
User: louis
Spectrometer: USB4F10415
Trigger mode: 4
Integration Time (sec): 2.500000E-2
Scans to average: 1
Electric dark correction enabled: true
Nonlinearity correction enabled: false
Boxcar width: 0
XAxis mode: Wavelengths
Number of Pixels in Spectrum: 3648
>>>>>Begin Spectral Data<<<<<
178.204	-136.87
178.424	-136.87
178.644	-136.87
178.864	-147.11
179.084	-159.4
179.304	-30.38
179.524	-34.47
179.744	-75.43
179.964	61.78
180.184	12.63
180.404	51.54
180.624	-38.57
180.844	53.59
181.064	-32.43
181.283	26.96
181.503	-40.62
181.723	45.4
181.943	-114.34
182.163	47.44
182.383	-16.04
182.602	47.44
182.822	69.97
183.042	29.01
183.262	-20.14
183.482	94.55
183.701	0.34
183.921	-67.24
184.141	-20.14
184.361	18.77
184.58	-11.95
184.8	53.59
185.02	6.49
185.239	4.44
185.459	-13.99
185.679	61.78
185.898	-87.72
186.118	51.54
186.338	35.16
186.557	80.21
186.777	-48.81
186.997	4.44
187.216	-73.39
187.436	4.44
187.655	-3.75
187.875	29.01
188.095	18.77
188.314	-9.9
188.534	18.77
188.753	-28.33
188.973	-38.57
189.192	90.45
189.412	-11.95
189.631	8.53
189.851	72.02
190.07	84.31
190.29	2.39
190.509	-5.8
190.729	10.58
190.948	-26.28
191.168	115.03
191.387	65.88
191.607	6.49
191.826	86.36
192.045	16.73
192.265	-5.8
192.484	-44.71
192.704	-5.8
192.923	-3.75
193.142	94.55
193.362	57.68
193.581	72.02
193.8	6.49
194.02	-36.52
194.239	59.73
194.458	51.54
194.678	29.01
194.897	74.07
195.116	43.35
195.335	14.68
195.555	35.16
195.774	18.77
195.993	29.01
196.212	43.35
196.432	2.39
196.651	55.64
196.87	-28.33
197.089	123.22
197.308	51.54
197.528	67.92
197.747	-46.76
197.966	-28.33
198.185	80.21
198.404	-20.14
198.623	108.88
198.842	29.01
199.062	76.12
199.281	69.97
199.5	-52.91
199.719	100.69
199.938	-36.52
200.157	59.73
200.376	53.59
200.595	74.07
200.814	-20.14
201.033	-18.09
201.252	45.4
201.471	2.39
201.69	26.96
201.909	49.49
202.128	-13.99
202.347	-38.57
202.566	2.39
202.785	6.49
203.004	26.96
203.223	174.42
203.442	22.87
203.661	-30.38
203.879	35.16
204.098	31.06
204.317	-11.95
204.536	-38.57
204.755	55.64
204.974	72.02
205.193	-52.91
205.411	53.59
205.63	-5.8
205.849	-5.8
206.068	10.58
206.287	59.73
206.505	76.12
206.724	6.49
206.943	45.4
207.162	-20.14
207.381	78.16
207.599	10.58
207.818	2.39
208.037	29.01
208.255	45.4
208.474	-3.75
208.693	39.25
208.911	4.44
209.13	84.31
209.349	26.96
209.567	-42.67
209.786	39.25
210.005	45.4
210.223	84.31
210.442	-46.76
210.661	-3.75
210.879	53.59
211.098	2.39
211.316	18.77
211.535	31.06
211.753	-3.75
211.972	51.54
212.191	-48.81
212.409	-11.95
212.628	2.39
212.846	-22.19
213.065	29.01
213.283	6.49
213.502	63.83
213.72	0.34
213.938	26.96
214.157	-44.71
214.375	43.35
214.594	18.77
214.812	14.68
215.031	12.63
215.249	84.31
215.467	84.31
215.686	-38.57
215.904	-63.15
216.122	0.34
216.341	37.2
216.559	-34.47
216.778	-5.8
216.996	72.02
217.214	51.54
217.432	41.3
217.651	-24.23
217.869	76.12
218.087	-69.29
218.306	88.4
218.524	55.64
218.742	-13.99
218.96	51.54
219.179	18.77
219.397	41.3
219.615	63.83
219.833	59.73
220.051	-13.99
220.27	59.73
220.488	16.73
220.706	53.59
220.924	-5.8
221.142	2.39
221.36	-16.04
221.578	20.82
221.796	33.11
222.015	4.44
222.233	39.25
222.451	-5.8
222.669	45.4
222.887	24.92
223.105	29.01
223.323	31.06
223.541	-44.71
223.759	80.21
223.977	-48.81
224.195	84.31
224.413	29.01
224.631	-13.99
224.849	2.39
225.067	94.55
225.285	-1.71
225.503	26.96
225.721	-46.76
225.939	-13.99
226.157	-28.33
226.375	86.36
226.592	67.92
226.81	2.39
227.028	35.16
227.246	63.83
227.464	35.16
227.682	53.59
227.9	67.92
228.117	-11.95
228.335	10.58
228.553	39.25
228.771	12.63
228.989	-59.05
229.206	43.35
229.424	18.77
229.642	33.11
229.86	20.82
230.077	92.5
230.295	-18.09
230.513	67.92
230.731	63.83
230.948	-18.09
231.166	80.21
231.384	-34.47
231.601	59.73
231.819	43.35
232.037	41.3
232.254	-24.23
232.472	53.59
232.689	31.06
232.907	72.02
233.125	123.22
233.342	-30.38
233.56	-87.72
233.777	35.16
233.995	2.39
234.213	59.73
234.43	96.6
234.648	80.21
234.865	59.73
235.083	37.2
235.3	-1.71
235.518	94.55
235.735	26.96
235.953	59.73
236.17	-11.95
236.388	-69.29
236.605	14.68
236.822	143.7
237.04	14.68
237.257	65.88
237.475	-57
237.692	-1.71
237.909	8.53
238.127	10.58
238.344	8.53
238.562	82.26
238.779	4.44
238.996	-28.33
239.214	12.63
239.431	-13.99
239.648	26.96
239.865	29.01
240.083	43.35
240.3	-52.91
240.517	-36.52
240.735	41.3
240.952	29.01
241.169	43.35
241.386	39.25
241.603	74.07
241.821	45.4
242.038	63.83
242.255	59.73
242.472	-11.95
242.689	35.16
242.907	22.87
243.124	59.73
243.341	-11.95
243.558	-20.14
243.775	-11.95
243.992	-46.76
244.209	45.4
244.426	24.92
244.643	86.36
244.86	51.54
245.078	-24.23
245.295	20.82
245.512	4.44
245.729	6.49
245.946	84.31
246.163	-5.8
246.38	26.96
246.597	-22.19
246.814	78.16
247.031	-30.38
247.248	35.16
247.464	80.21
247.681	78.16
247.898	57.68
248.115	31.06
248.332	-28.33
248.549	69.97
248.766	117.08
248.983	67.92
249.2	2.39
249.417	76.12
249.633	-26.28
249.85	10.58
250.067	55.64
250.284	-20.14
250.501	-13.99
250.717	96.6
250.934	-63.15
251.151	55.64
251.368	69.97
251.585	45.4
251.801	-18.09
252.018	26.96
252.235	84.31
252.451	35.16
252.668	26.96
252.885	35.16
253.102	29.01
253.318	24.92
253.535	-1.71
253.752	-75.43
253.968	0.34
254.185	10.58
254.401	67.92
254.618	-5.8
254.835	-18.09
255.051	35.16
255.268	-16.04
255.484	8.53
255.701	29.01
255.917	-20.14
256.134	26.96
256.351	-42.67
256.567	43.35
256.784	-26.28
257	-28.33
257.217	35.16
257.433	-28.33
257.65	-36.52
257.866	14.68
258.082	-13.99
258.299	-38.57
258.515	4.44
258.732	37.2
258.948	-54.95
259.165	88.4
259.381	31.06
259.597	67.92
259.814	-36.52
260.03	63.83
260.246	10.58
260.463	84.31
260.679	39.25
260.895	20.82
261.112	-63.15
261.328	10.58
261.544	29.01
261.761	100.69
261.977	26.96
262.193	16.73
262.409	84.31
262.626	43.35
262.842	2.39
263.058	-46.76
263.274	10.58
263.49	168.27
263.707	20.82
263.923	51.54
264.139	18.77
264.355	2.39
264.571	76.12
264.787	69.97
265.004	84.31
265.22	20.82
265.436	10.58
265.652	4.44
265.868	37.2
266.084	-85.67
266.3	59.73
266.516	-7.85
266.732	10.58
266.948	74.07
267.164	-36.52
267.38	-48.81
267.596	61.78
267.812	125.27
268.028	55.64
268.244	4.44
268.46	14.68
268.676	-20.14
268.892	26.96
269.108	-26.28
269.324	29.01
269.54	-38.57
269.756	35.16
269.972	2.39
270.188	-22.19
270.403	-1.71
270.619	6.49
270.835	29.01
271.051	2.39
271.267	-30.38
271.483	-11.95
271.698	108.88
271.914	61.78
272.13	-20.14
272.346	49.49
272.562	90.45
272.777	108.88
272.993	45.4
273.209	-65.19
273.425	-5.8
273.64	-30.38
273.856	72.02
274.072	22.87
274.287	33.11
274.503	26.96
274.719	12.63
274.934	-30.38
275.15	-79.53
275.366	39.25
275.581	-57
275.797	-28.33
276.012	20.82
276.228	61.78
276.444	-16.04
276.659	67.92
276.875	22.87
277.09	-11.95
277.306	-5.8
277.521	22.87
277.737	78.16
277.952	78.16
278.168	31.06
278.383	67.92
278.599	59.73
278.814	72.02
279.03	29.01
279.245	92.5
279.461	-54.95
279.676	-30.38
279.892	-5.8
280.107	-54.95
280.322	39.25
280.538	69.97
280.753	-1.71
280.969	106.84
281.184	2.39
281.399	96.6
281.615	22.87
281.83	108.88
282.045	-5.8
282.26	24.92
282.476	6.49
282.691	31.06
282.906	24.92
283.122	0.34
283.337	51.54
283.552	-9.9
283.767	22.87
283.983	51.54
284.198	80.21
284.413	88.4
284.628	-36.52
284.843	2.39
285.058	78.16
285.274	-44.71
285.489	26.96
285.704	22.87
285.919	45.4
286.134	26.96
286.349	31.06
286.564	51.54
286.779	4.44
286.995	51.54
287.21	2.39
287.425	26.96
287.64	67.92
287.855	135.51
288.07	39.25
288.285	76.12
288.5	24.92
288.715	31.06
288.93	2.39
289.145	-13.99
289.36	-18.09
289.575	35.16
289.79	78.16
290.004	53.59
290.219	35.16
290.434	-20.14
290.649	-13.99
290.864	-54.95
291.079	51.54
291.294	39.25
291.509	-34.47
291.724	22.87
291.938	84.31
292.153	51.54
292.368	51.54
292.583	84.31
292.798	-38.57
293.012	57.68
293.227	43.35
293.442	65.88
293.657	-5.8
293.871	72.02
294.086	88.4
294.301	67.92
294.516	94.55
294.73	49.49
294.945	-1.71
295.16	-42.67
295.374	76.12
295.589	-22.19
295.804	6.49
296.018	-5.8
296.233	123.22
296.447	63.83
296.662	-50.86
296.877	37.2
297.091	26.96
297.306	65.88
297.52	43.35
297.735	29.01
297.949	80.21
298.164	43.35
298.378	29.01
298.593	-18.09
298.807	-11.95
299.022	94.55
299.236	108.88
299.451	22.87
299.665	-22.19
299.88	45.4
300.094	20.82
300.309	80.21
300.523	10.58
300.737	39.25
300.952	86.36
301.166	-16.04
301.381	6.49
301.595	76.12
301.809	-7.85
302.024	-22.19
302.238	59.73
302.452	59.73
302.667	45.4
302.881	-13.99
303.095	51.54
303.309	39.25
303.524	-20.14
303.738	102.74
303.952	49.49
304.166	90.45
304.381	-95.91
304.595	57.68
304.809	26.96
305.023	-3.75
305.237	39.25
305.452	84.31
305.666	35.16
305.88	104.79
306.094	67.92
306.308	31.06
306.522	45.4
306.736	-9.9
306.95	100.69
307.164	92.5
307.379	76.12
307.593	90.45
307.807	72.02
308.021	43.35
308.235	53.59
308.449	-26.28
308.663	51.54
308.877	84.31
309.091	72.02
309.305	63.83
309.519	-38.57
309.733	45.4
309.947	35.16
310.161	35.16
310.374	155.99
310.588	92.5
310.802	37.2
311.016	29.01
311.23	35.16
311.444	8.53
311.658	39.25
311.872	59.73
312.085	108.88
312.299	45.4
312.513	94.55
312.727	4.44
312.941	4.44
313.154	41.3
313.368	135.51
313.582	37.2
313.796	61.78
314.009	-3.75
314.223	33.11
314.437	20.82
314.651	39.25
314.864	55.64
315.078	-32.43
315.292	-13.99
315.505	76.12
315.719	45.4
315.933	39.25
316.146	76.12
316.36	-22.19
316.573	63.83
316.787	112.98
317.001	125.27
317.214	-1.71
317.428	20.82
317.641	4.44
317.855	29.01
318.068	55.64
318.282	18.77
318.495	72.02
318.709	65.88
318.922	-1.71
319.136	47.44
319.349	14.68
319.563	26.96
319.776	43.35
319.99	35.16
320.203	100.69
320.417	26.96
320.63	76.12
320.843	4.44
321.057	84.31
321.27	29.01
321.483	45.4
321.697	53.59
321.91	10.58
322.124	53.59
322.337	55.64
322.55	-48.81
322.763	-34.47
322.977	72.02
323.19	-7.85
323.403	61.78
323.617	22.87
323.83	10.58
324.043	53.59
324.256	84.31
324.469	-34.47
324.683	67.92
324.896	-30.38
325.109	-65.19
325.322	-30.38
325.535	110.93
325.748	90.45
325.962	-13.99
326.175	45.4
326.388	29.01
326.601	86.36
326.814	57.68
327.027	-30.38
327.24	53.59
327.453	-20.14
327.666	4.44
327.879	112.98
328.092	61.78
328.305	67.92
328.518	10.58
328.731	43.35
328.944	86.36
329.157	94.55
329.37	47.44
329.583	76.12
329.796	59.73
330.009	61.78
330.222	106.84
330.435	45.4
330.648	-18.09
330.861	20.82
331.073	53.59
331.286	67.92
331.499	-5.8
331.712	22.87
331.925	100.69
332.138	67.92
332.35	63.83
332.563	-1.71
332.776	67.92
332.989	41.3
333.202	18.77
333.414	18.77
333.627	47.44
333.84	69.97
334.053	35.16
334.265	-40.62
334.478	55.64
334.691	47.44
334.903	67.92
335.116	61.78
335.329	35.16
335.541	51.54
335.754	59.73
335.966	26.96
336.179	41.3
336.392	-38.57
336.604	18.77
336.817	67.92
337.029	51.54
337.242	35.16
337.454	39.25
337.667	72.02
337.88	65.88
338.092	67.92
338.305	-67.24
338.517	59.73
338.729	84.31
338.942	112.98
339.154	-26.28
339.367	-26.28
339.579	8.53
339.792	53.59
340.004	43.35
340.217	2.39
340.429	67.92
340.641	-59.05
340.854	22.87
341.066	41.3
341.278	51.54
341.491	86.36
341.703	-30.38
341.915	-3.75
342.128	76.12
342.34	57.68
342.552	-11.95
342.764	43.35
342.977	67.92
343.189	18.77
343.401	94.55
343.613	20.82
343.826	4.44
344.038	-18.09
344.25	67.92
344.462	43.35
344.674	125.27
344.886	43.35
345.099	-46.76
345.311	22.87
345.523	55.64
345.735	43.35
345.947	69.97
346.159	18.77
346.371	6.49
346.583	18.77
346.795	67.92
347.007	37.2
347.219	47.44
347.431	0.34
347.643	12.63
347.855	8.53
348.067	72.02
348.279	-46.76
348.491	59.73
348.703	108.88
348.915	39.25
349.127	37.2
349.339	61.78
349.551	45.4
349.763	76.12
349.975	72.02
350.187	76.12
350.399	117.08
350.61	51.54
350.822	-20.14
351.034	31.06
351.246	20.82
351.458	20.82
351.669	63.83
351.881	141.65
352.093	59.73
352.305	2.39
352.517	26.96
352.728	151.89
352.94	61.78
353.152	-9.9
353.363	18.77
353.575	96.6
353.787	86.36
353.999	61.78
354.21	117.08
354.422	133.46
354.633	-9.9
354.845	84.31
355.057	55.64
355.268	20.82
355.48	133.46
355.692	14.68
355.903	53.59
356.115	55.64
356.326	-48.81
356.538	59.73
356.749	18.77
356.961	14.68
357.172	37.2
357.384	0.34
357.595	166.23
357.807	98.64
358.018	18.77
358.23	33.11
358.441	72.02
358.653	78.16
358.864	6.49
359.075	20.82
359.287	24.92
359.498	115.03
359.709	135.51
359.921	8.53
360.132	-1.71
360.344	67.92
360.555	-38.57
360.766	102.74
360.977	6.49
361.189	127.32
361.4	10.58
361.611	84.31
361.823	82.26
362.034	53.59
362.245	59.73
362.456	67.92
362.667	4.44
362.879	160.08
363.09	90.45
363.301	51.54
363.512	67.92
363.723	117.08
363.935	55.64
364.146	24.92
364.357	53.59
364.568	-46.76
364.779	-24.23
364.99	59.73
365.201	39.25
365.412	67.92
365.623	-38.57
365.834	47.44
366.045	51.54
366.256	16.73
366.467	37.2
366.678	102.74
366.889	63.83
367.1	-5.8
367.311	121.17
367.522	43.35
367.733	35.16
367.944	57.68
368.155	6.49
368.366	35.16
368.577	59.73
368.788	49.49
368.999	39.25
369.209	10.58
369.42	143.7
369.631	98.64
369.842	92.5
370.053	-11.95
370.264	117.08
370.474	61.78
370.685	18.77
370.896	76.12
371.107	119.12
371.317	76.12
371.528	-44.71
371.739	39.25
371.95	43.35
372.16	12.63
372.371	53.59
372.582	20.82
372.792	-9.9
373.003	59.73
373.214	61.78
373.424	16.73
373.635	-50.86
373.846	108.88
374.056	76.12
374.267	-13.99
374.477	69.97
374.688	-3.75
374.898	10.58
375.109	92.5
375.319	2.39
375.53	84.31
375.74	47.44
375.951	94.55
376.161	35.16
376.372	72.02
376.582	29.01
376.793	14.68
377.003	72.02
377.214	18.77
377.424	45.4
377.635	35.16
377.845	37.2
378.055	125.27
378.266	24.92
378.476	14.68
378.686	55.64
378.897	45.4
379.107	-40.62
379.317	39.25
379.528	69.97
379.738	37.2
379.948	96.6
380.158	100.69
380.369	14.68
380.579	47.44
380.789	51.54
380.999	67.92
381.21	67.92
381.42	112.98
381.63	-9.9
381.84	6.49
382.05	57.68
382.261	33.11
382.471	51.54
382.681	22.87
382.891	112.98
383.101	55.64
383.311	45.4
383.521	100.69
383.731	205.14
383.941	96.6
384.151	59.73
384.361	-38.57
384.571	35.16
384.781	137.56
384.991	119.12
385.201	108.88
385.411	67.92
385.621	162.13
385.831	59.73
386.041	35.16
386.251	-9.9
386.461	100.69
386.671	-42.67
386.881	37.2
387.091	6.49
387.301	125.27
387.511	108.88
387.72	162.13
387.93	84.31
388.14	-54.95
388.35	43.35
388.56	78.16
388.769	117.08
388.979	108.88
389.189	-5.8
389.399	119.12
389.609	94.55
389.818	92.5
390.028	67.92
390.238	92.5
390.447	-3.75
390.657	74.07
390.867	82.26
391.076	22.87
391.286	2.39
391.496	100.69
391.705	82.26
391.915	96.6
392.125	76.12
392.334	43.35
392.544	110.93
392.753	61.78
392.963	67.92
393.172	18.77
393.382	35.16
393.591	215.38
393.801	53.59
394.01	121.17
394.22	141.65
394.429	61.78
394.639	6.49
394.848	135.51
395.058	143.7
395.267	104.79
395.477	108.88
395.686	59.73
395.895	125.27
396.105	176.47
396.314	86.36
396.524	119.12
396.733	112.98
396.942	149.84
397.152	80.21
397.361	108.88
397.57	117.08
397.78	166.23
397.989	43.35
398.198	242
398.407	102.74
398.617	92.5
398.826	76.12
399.035	178.51
399.244	51.54
399.453	145.75
399.663	61.78
399.872	141.65
400.081	137.56
400.29	149.84
400.499	102.74
400.708	133.46
400.917	100.69
401.127	127.32
401.336	135.51
401.545	186.71
401.754	201.04
401.963	133.46
402.172	153.94
402.381	92.5
402.59	153.94
402.799	162.13
403.008	153.94
403.217	158.03
403.426	149.84
403.635	174.42
403.844	184.66
404.053	92.5
404.262	170.32
404.471	268.63
404.68	160.08
404.888	129.36
405.097	162.13
405.306	141.65
405.515	250.19
405.724	160.08
405.933	285.01
406.142	192.85
406.35	211.28
406.559	289.1
406.768	219.47
406.977	225.62
407.185	272.72
407.394	282.96
407.603	239.95
407.812	321.87
408.02	364.88
408.229	252.24
408.438	340.3
408.646	356.69
408.855	362.83
409.064	289.1
409.272	340.3
409.481	432.46
409.69	297.3
409.898	389.46
410.107	467.28
410.315	407.89
410.524	436.56
410.733	461.13
410.941	424.27
411.15	469.33
411.358	448.85
411.567	575.82
411.775	545.1
411.984	594.25
412.192	596.3
412.401	575.82
412.609	692.55
412.818	579.92
413.026	727.37
413.234	706.89
413.443	764.23
413.651	643.4
413.86	680.27
414.068	887.11
414.276	784.71
414.485	870.73
414.693	952.65
414.901	895.3
415.11	1009.99
415.318	985.41
415.526	1036.61
415.734	1036.61
415.943	1081.67
416.151	1081.67
416.359	1126.72
416.567	1153.35
416.776	1225.03
416.984	1288.51
417.192	1417.54
417.4	1243.46
417.608	1323.33
417.817	1431.87
418.025	1526.08
418.233	1575.23
418.441	1526.08
418.649	1667.39
418.857	1749.31
419.065	1814.84
419.273	1732.92
419.481	1839.42
419.689	2025.78
419.897	2036.02
420.105	2076.98
420.313	2107.7
420.521	2193.72
420.729	2320.69
420.937	2289.97
421.145	2349.36
421.353	2459.95
421.561	2617.65
421.769	2664.75
421.977	2742.57
422.185	2869.55
422.393	2967.85
422.601	3168.55
422.809	3189.03
423.017	3295.52
423.224	3270.95
423.432	3457.31
423.64	3418.4
423.848	3866.91
424.056	3602.72
424.263	3844.38
424.471	3993.88
424.679	4090.13
424.887	4237.59
425.094	4235.54
425.302	4352.27
425.51	4583.7
425.718	4573.46
425.925	4737.29
426.133	4821.26
426.341	5187.85
426.548	5335.3
426.756	5404.93
426.964	5345.54
427.171	5847.29
427.379	5888.25
427.586	6064.38
427.794	6187.25
428.001	6469.87
428.209	6689.01
428.417	6785.26
428.624	7282.92
428.832	7170.28
429.039	7071.98
429.247	7074.03
429.454	7702.75
429.662	8286.42
429.869	7530.72
430.076	8294.61
430.284	8112.35
430.491	8290.52
430.699	8843.47
430.906	8661.2
431.114	9132.23
431.321	9210.06
431.528	9470.15
431.736	10086.59
431.943	10344.63
432.15	10260.66
432.358	10012.86
432.565	10860.72
432.772	10840.24
432.979	11401.38
433.187	11604.13
433.394	11548.84
433.601	12345.5
433.808	12415.13
434.016	12400.79
434.223	12871.82
434.43	13813.89
434.637	13494.41
434.844	14153.85
435.052	14344.31
435.259	14418.04
435.466	14657.65
435.673	14370.94
435.88	15233.13
436.087	15958.11
436.294	16115.81
436.501	15698.02
436.708	16025.7
436.915	16590.94
437.122	17309.77
437.329	17127.5
437.537	17944.64
437.743	17883.2
437.95	17907.78
438.157	18888.76
438.364	19447.85
438.571	19460.14
438.778	19376.17
438.985	21342.22
439.192	20523.04
439.399	21172.24
439.606	20715.55
439.813	21827.59
440.02	22943.74
440.227	22837.24
440.433	22470.65
440.64	23586.8
440.847	22986.74
441.054	23709.68
441.261	24649.69
441.467	24872.92
441.674	25339.86
441.881	26222.53
442.088	26001.35
442.294	25759.69
442.501	26775.48
442.708	27279.29
442.914	28491.68
443.121	29648.78
443.328	28321.7
443.534	30707.58
443.741	29790.09
443.948	29603.73
444.154	31625.07
444.361	31080.32
444.568	31410.04
444.774	31455.09
444.981	32018.28
445.187	32925.53
445.394	34056.01
445.6	33556.31
445.807	37240.61
446.013	35546.93
446.22	36058.93
446.426	37424.92
446.633	37549.85
446.839	38991.62
447.046	37336.86
447.252	39163.65
447.459	39536.38
447.665	39229.18
447.871	41111.27
448.078	42927.81
448.284	40531.69
448.491	41860.82
448.697	43345.6
448.903	44203.7
449.11	44308.15
449.316	43263.68
449.522	44539.57
449.728	45657.76
449.935	45887.13
450.141	45801.11
450.347	47101.57
450.553	45268.64
450.76	46077.59
450.966	47507.07
451.172	46802.57
451.378	48346.74
451.584	46947.98
451.791	48162.42
451.997	48486
452.203	48848.49
452.409	48572.02
452.615	48782.96
452.821	46724.75
453.027	46493.33
453.233	48664.17
453.44	46923.4
453.646	47677.05
453.852	47459.97
454.058	48344.69
454.264	46808.72
454.47	47672.96
454.676	46562.96
454.882	48332.4
455.088	43716.28
455.294	44834.47
455.5	45565.6
455.705	46169.75
455.911	43816.63
456.117	43306.69
456.323	42534.6
456.529	40691.43
456.735	42194.64
456.941	41279.2
457.147	40498.92
457.352	39309.05
457.558	38858.5
457.764	39173.89
457.97	37955.35
458.176	37084.96
458.381	37586.71
458.587	35436.34
458.793	35776.31
458.999	33883.98
459.204	36271.92
459.41	35266.36
459.616	32816.99
459.821	33097.56
460.027	32935.77
460.233	32087.92
460.438	30517.12
460.644	30764.93
460.85	29759.38
461.055	28979.1
461.261	29151.13
461.466	26879.93
461.672	25894.86
461.878	27856.81
462.083	26038.22
462.289	25538.51
462.494	25180.12
462.7	23971.82
462.905	23449.58
463.111	24231.91
463.316	24326.11
463.522	24111.08
463.727	23758.83
463.932	23830.51
464.138	23521.26
464.343	23484.4
464.549	22837.24
464.754	23783.4
464.959	23369.71
465.165	23091.19
465.37	22251.52
465.575	21262.35
465.781	22515.71
465.986	22624.25
466.191	21575.69
466.397	21370.9
