Data from USB4F104151__163__14-32-16-693.txt Node

Date: Thu Mar 13 14:32:16 EDT 2025
User: louis
Spectrometer: USB4F10415
Trigger mode: 4
Integration Time (sec): 2.500000E-2
Scans to average: 1
Electric dark correction enabled: true
Nonlinearity correction enabled: false
Boxcar width: 0
XAxis mode: Wavelengths
Number of Pixels in Spectrum: 3648
>>>>>Begin Spectral Data<<<<<
178.204	-172.03
178.424	-172.03
178.644	-172.03
178.864	-157.69
179.084	-86.01
179.304	-102.4
179.524	-69.63
179.744	-20.48
179.964	81.92
180.184	14.34
180.404	34.82
180.624	12.29
180.844	-16.38
181.064	-4.1
181.283	-26.62
181.503	14.34
181.723	81.92
181.943	-77.82
182.163	167.93
182.383	-14.34
182.602	106.49
182.822	47.1
183.042	90.11
183.262	24.58
183.482	16.38
183.701	40.96
183.921	18.43
184.141	-36.86
184.361	61.44
184.58	8.19
184.8	79.87
185.02	-43.01
185.239	14.34
185.459	4.1
185.679	47.1
185.898	-36.86
186.118	94.21
186.338	90.11
186.557	61.44
186.777	-49.15
186.997	30.72
187.216	45.06
187.436	104.45
187.655	65.53
187.875	102.4
188.095	45.06
188.314	110.59
188.534	69.63
188.753	-4.1
188.973	65.53
189.192	49.15
189.412	-4.1
189.631	96.25
189.851	73.73
190.07	55.3
190.29	-12.29
190.509	61.44
190.729	86.01
190.948	102.4
191.168	161.79
191.387	112.64
191.607	-24.58
191.826	6.14
192.045	-8.19
192.265	30.72
192.484	28.67
192.704	24.58
192.923	-69.63
193.142	34.82
193.362	16.38
193.581	14.34
193.8	69.63
194.02	69.63
194.239	30.72
194.458	65.53
194.678	-4.1
194.897	-8.19
195.116	20.48
195.335	-12.29
195.555	77.82
195.774	135.17
195.993	53.25
196.212	22.53
196.432	14.34
196.651	-51.2
196.87	-36.86
197.089	114.69
197.308	75.77
197.528	61.44
197.747	-34.82
197.966	81.92
198.185	53.25
198.404	53.25
198.623	86.01
198.842	38.91
199.062	94.21
199.281	112.64
199.5	-75.77
199.719	73.73
199.938	14.34
200.157	63.49
200.376	71.68
200.595	40.96
200.814	45.06
201.033	-2.05
201.252	34.82
201.471	75.77
201.69	61.44
201.909	88.06
202.128	-28.67
202.347	63.49
202.566	-45.06
202.785	55.3
203.004	-12.29
203.223	47.1
203.442	61.44
203.661	-12.29
203.879	53.25
204.098	61.44
204.317	-22.53
204.536	12.29
204.755	4.1
204.974	86.01
205.193	57.34
205.411	135.17
205.63	57.34
205.849	69.63
206.068	61.44
206.287	30.72
206.505	108.54
206.724	53.25
206.943	-18.43
207.162	-20.48
207.381	18.43
207.599	30.72
207.818	112.64
208.037	8.19
208.255	28.67
208.474	32.77
208.693	28.67
208.911	57.34
209.13	45.06
209.349	30.72
209.567	77.82
209.786	10.24
210.005	63.49
210.223	28.67
210.442	-4.1
210.661	-22.53
210.879	-4.1
211.098	47.1
211.316	65.53
211.535	110.59
211.753	69.63
211.972	-4.1
212.191	45.06
212.409	86.01
212.628	40.96
212.846	38.91
213.065	79.87
213.283	118.78
213.502	20.48
213.72	38.91
213.938	102.4
214.157	73.73
214.375	151.55
214.594	-0
214.812	28.67
215.031	45.06
215.249	55.3
215.467	30.72
215.686	63.49
215.904	61.44
216.122	20.48
216.341	149.5
216.559	-12.29
216.778	45.06
216.996	83.97
217.214	24.58
217.432	102.4
217.651	12.29
217.869	-4.1
218.087	61.44
218.306	63.49
218.524	77.82
218.742	40.96
218.96	92.16
219.179	-16.38
219.397	-2.05
219.615	73.73
219.833	43.01
220.051	-30.72
220.27	110.59
220.488	43.01
220.706	8.19
220.924	43.01
221.142	14.34
221.36	90.11
221.578	77.82
221.796	-20.48
222.015	102.4
222.233	22.53
222.451	36.86
222.669	-28.67
222.887	28.67
223.105	63.49
223.323	88.06
223.541	12.29
223.759	143.36
223.977	59.39
224.195	55.3
224.413	38.91
224.631	24.58
224.849	12.29
225.067	120.83
225.285	-34.82
225.503	88.06
225.721	-10.24
225.939	32.77
226.157	28.67
226.375	114.69
226.592	-20.48
226.81	36.86
227.028	61.44
227.246	102.4
227.464	2.05
227.682	55.3
227.9	102.4
228.117	30.72
228.335	83.97
228.553	28.67
228.771	45.06
228.989	77.82
229.206	57.34
229.424	88.06
229.642	14.34
229.86	4.1
230.077	88.06
230.295	63.49
230.513	86.01
230.731	63.49
230.948	67.58
231.166	96.25
231.384	69.63
231.601	6.14
231.819	86.01
232.037	69.63
232.254	2.05
232.472	32.77
232.689	90.11
232.907	49.15
233.125	22.53
233.342	81.92
233.56	-4.1
233.777	53.25
233.995	36.86
234.213	51.2
234.43	-18.43
234.648	102.4
234.865	4.1
235.083	86.01
235.3	30.72
235.518	63.49
235.735	145.41
235.953	75.77
236.17	49.15
236.388	53.25
236.605	92.16
236.822	73.73
237.04	63.49
237.257	67.58
237.475	47.1
237.692	43.01
237.909	40.96
238.127	61.44
238.344	79.87
238.562	116.73
238.779	-20.48
238.996	-8.19
239.214	-10.24
239.431	112.64
239.648	32.77
239.865	108.54
240.083	45.06
240.3	-43.01
240.517	-10.24
240.735	-4.1
240.952	49.15
241.169	4.1
241.386	6.14
241.603	-18.43
241.821	22.53
242.038	94.21
242.255	59.39
242.472	-65.54
242.689	45.06
242.907	55.3
243.124	34.82
243.341	22.53
243.558	-4.1
243.775	-12.29
243.992	-36.86
244.209	79.87
244.426	129.02
244.643	57.34
244.86	-18.43
245.078	45.06
245.295	28.67
245.512	34.82
245.729	-6.14
245.946	86.01
246.163	90.11
246.38	69.63
246.597	22.53
246.814	38.91
247.031	-61.44
247.248	28.67
247.464	77.82
247.681	-18.43
247.898	28.67
248.115	36.86
248.332	-26.62
248.549	14.34
248.766	36.86
248.983	47.1
249.2	36.86
249.417	47.1
249.633	-26.62
249.85	69.63
250.067	77.82
250.284	8.19
250.501	-22.53
250.717	110.59
250.934	45.06
251.151	-26.62
251.368	24.58
251.585	92.16
251.801	28.67
252.018	20.48
252.235	45.06
252.451	-6.14
252.668	-38.91
252.885	102.4
253.102	47.1
253.318	28.67
253.535	12.29
253.752	-4.1
253.968	-16.38
254.185	18.43
254.401	12.29
254.618	77.82
254.835	4.1
255.051	86.01
255.268	36.86
255.484	49.15
255.701	53.25
255.917	104.45
256.134	14.34
256.351	14.34
256.567	-24.58
256.784	-16.38
257	-73.73
257.217	94.21
257.433	24.58
257.65	53.25
257.866	36.86
258.082	67.58
258.299	-12.29
258.515	36.86
258.732	4.1
258.948	6.14
259.165	34.82
259.381	24.58
259.597	69.63
259.814	-20.48
260.03	-8.19
260.246	22.53
260.463	102.4
260.679	86.01
260.895	-18.43
261.112	32.77
261.328	43.01
261.544	28.67
261.761	145.41
261.977	-10.24
262.193	-6.14
262.409	20.48
262.626	106.49
262.842	61.44
263.058	86.01
263.274	79.87
263.49	96.25
263.707	4.1
263.923	45.06
264.139	-28.67
264.355	77.82
264.571	65.53
264.787	49.15
265.004	94.21
265.22	-32.77
265.436	-20.48
265.652	12.29
265.868	38.91
266.084	45.06
266.3	55.3
266.516	36.86
266.732	51.2
266.948	118.78
267.164	30.72
267.38	36.86
267.596	12.29
267.812	131.07
268.028	30.72
268.244	-12.29
268.46	4.1
268.676	65.53
268.892	63.49
269.108	-10.24
269.324	45.06
269.54	-28.67
269.756	34.82
269.972	-24.58
270.188	69.63
270.403	-59.39
270.619	4.1
270.835	122.88
271.051	86.01
271.267	-14.34
271.483	45.06
271.698	45.06
271.914	71.68
272.13	114.69
272.346	14.34
272.562	45.06
272.777	112.64
272.993	-36.86
273.209	28.67
273.425	-14.34
273.64	-24.58
273.856	49.15
274.072	45.06
274.287	12.29
274.503	8.19
274.719	49.15
274.934	45.06
275.15	-16.38
275.366	-0
275.581	12.29
275.797	4.1
276.012	77.82
276.228	20.48
276.444	36.86
276.659	57.34
276.875	55.3
277.09	-0
277.306	65.53
277.521	110.59
277.737	30.72
277.952	79.87
278.168	-16.38
278.383	71.68
278.599	-18.43
278.814	65.53
279.03	104.45
279.245	69.63
279.461	26.62
279.676	26.62
279.892	24.58
280.107	-18.43
280.322	49.15
280.538	22.53
280.753	-4.1
280.969	88.06
281.184	118.78
281.399	104.45
281.615	22.53
281.83	-12.29
282.045	4.1
282.26	30.72
282.476	77.82
282.691	47.1
282.906	-16.38
283.122	22.53
283.337	-0
283.552	77.82
283.767	47.1
283.983	61.44
284.198	-22.53
284.413	55.3
284.628	32.77
284.843	-10.24
285.058	-2.05
285.274	24.58
285.489	-12.29
285.704	-2.05
285.919	-10.24
286.134	-24.58
286.349	14.34
286.564	28.67
286.779	137.21
286.995	-0
287.21	16.38
287.425	110.59
287.64	34.82
287.855	86.01
288.07	-61.44
288.285	94.21
288.5	57.34
288.715	61.44
288.93	-0
289.145	34.82
289.36	86.01
289.575	16.38
289.79	165.89
290.004	8.19
290.219	53.25
290.434	6.14
290.649	-45.06
290.864	4.1
291.079	-0
291.294	65.53
291.509	-8.19
291.724	20.48
291.938	47.1
292.153	45.06
292.368	-24.58
292.583	71.68
292.798	45.06
293.012	4.1
293.227	122.88
293.442	-24.58
293.657	133.12
293.871	-36.86
294.086	8.19
294.301	28.67
294.516	77.82
294.73	53.25
294.945	6.14
295.16	-28.67
295.374	61.44
295.589	79.87
295.804	22.53
296.018	86.01
296.233	96.25
296.447	45.06
296.662	28.67
296.877	129.02
297.091	94.21
297.306	26.62
297.52	-0
297.735	110.59
297.949	79.87
298.164	86.01
298.378	45.06
298.593	-8.19
298.807	75.77
299.022	77.82
299.236	122.88
299.451	-51.2
299.665	36.86
299.88	53.25
300.094	28.67
300.309	16.38
300.523	20.48
300.737	100.35
300.952	90.11
301.166	69.63
301.381	40.96
301.595	53.25
301.809	90.11
302.024	-28.67
302.238	-40.96
302.452	96.25
302.667	38.91
302.881	-2.05
303.095	69.63
303.309	67.58
303.524	-4.1
303.738	22.53
303.952	45.06
304.166	73.73
304.381	-18.43
304.595	106.49
304.809	71.68
305.023	49.15
305.237	71.68
305.452	24.58
305.666	63.49
305.88	94.21
306.094	129.02
306.308	22.53
306.522	86.01
306.736	-14.34
306.95	75.77
307.164	40.96
307.379	36.86
307.593	57.34
307.807	28.67
308.021	71.68
308.235	43.01
308.449	-61.44
308.663	36.86
308.877	88.06
309.091	53.25
309.305	8.19
309.519	-45.06
309.733	6.14
309.947	63.49
310.161	22.53
310.374	38.91
310.588	65.53
310.802	53.25
311.016	110.59
311.23	24.58
311.444	-4.1
311.658	-18.43
311.872	59.39
312.085	69.63
312.299	30.72
312.513	86.01
312.727	90.11
312.941	59.39
313.154	-10.24
313.368	53.25
313.582	40.96
313.796	22.53
314.009	28.67
314.223	86.01
314.437	73.73
314.651	-0
314.864	-45.06
315.078	-43.01
315.292	18.43
315.505	-12.29
315.719	47.1
315.933	47.1
316.146	36.86
316.36	4.1
316.573	126.97
316.787	100.35
317.001	-40.96
317.214	45.06
317.428	61.44
317.641	-4.1
317.855	67.58
318.068	94.21
318.282	20.48
318.495	4.1
318.709	53.25
318.922	10.24
319.136	61.44
319.349	100.35
319.563	40.96
319.776	94.21
319.99	8.19
320.203	18.43
320.417	112.64
320.63	75.77
320.843	137.21
321.057	34.82
321.27	-18.43
321.483	90.11
321.697	86.01
321.91	114.69
322.124	38.91
322.337	24.58
322.55	73.73
322.763	30.72
322.977	12.29
323.19	-12.29
323.403	20.48
323.617	4.1
323.83	77.82
324.043	34.82
324.256	40.96
324.469	-12.29
324.683	43.01
324.896	-24.58
325.109	-73.73
325.322	-47.1
325.535	96.25
325.748	69.63
325.962	-36.86
326.175	34.82
326.388	20.48
326.601	116.73
326.814	-47.1
327.027	38.91
327.24	57.34
327.453	-51.2
327.666	112.64
327.879	94.21
328.092	100.35
328.305	86.01
328.518	22.53
328.731	-6.14
328.944	69.63
329.157	69.63
329.37	12.29
329.583	12.29
329.796	102.4
330.009	49.15
330.222	73.73
330.435	96.25
330.648	61.44
330.861	79.87
331.073	-8.19
331.286	77.82
331.499	55.3
331.712	-22.53
331.925	-4.1
332.138	79.87
332.35	71.68
332.563	49.15
332.776	63.49
332.989	22.53
333.202	77.82
333.414	-8.19
333.627	26.62
333.84	38.91
334.053	32.77
334.265	-20.48
334.478	40.96
334.691	24.58
334.903	30.72
335.116	-12.29
335.329	126.97
335.541	63.49
335.754	114.69
335.966	71.68
336.179	32.77
336.392	59.39
336.604	96.25
336.817	4.1
337.029	38.91
337.242	86.01
337.454	30.72
337.667	61.44
337.88	69.63
338.092	47.1
338.305	55.3
338.517	88.06
338.729	30.72
338.942	69.63
339.154	47.1
339.367	32.77
339.579	61.44
339.792	-16.38
340.004	169.98
340.217	83.97
340.429	47.1
340.641	112.64
340.854	32.77
341.066	28.67
341.278	51.2
341.491	53.25
341.703	69.63
341.915	116.73
342.128	102.4
342.34	4.1
342.552	12.29
342.764	57.34
342.977	59.39
343.189	24.58
343.401	53.25
343.613	32.77
343.826	38.91
344.038	-28.67
344.25	-18.43
344.462	94.21
344.674	45.06
344.886	69.63
345.099	77.82
345.311	4.1
345.523	61.44
345.735	-12.29
345.947	20.48
346.159	88.06
346.371	-10.24
346.583	-18.43
346.795	110.59
347.007	-28.67
347.219	40.96
347.431	-32.77
347.643	77.82
347.855	-20.48
348.067	135.17
348.279	38.91
348.491	57.34
348.703	94.21
348.915	-61.44
349.127	22.53
349.339	-28.67
349.551	-2.05
349.763	36.86
349.975	49.15
350.187	75.77
350.399	71.68
350.61	49.15
350.822	86.01
351.034	-4.1
351.246	34.82
351.458	71.68
351.669	20.48
351.881	53.25
352.093	106.49
352.305	86.01
352.517	53.25
352.728	90.11
352.94	75.77
353.152	49.15
353.363	24.58
353.575	69.63
353.787	88.06
353.999	-8.19
354.21	57.34
354.422	102.4
354.633	34.82
354.845	22.53
355.057	22.53
355.268	40.96
355.48	38.91
355.692	28.67
355.903	94.21
356.115	-32.77
356.326	-88.06
356.538	151.55
356.749	-0
356.961	69.63
357.172	-2.05
357.384	30.72
357.595	167.93
357.807	73.73
358.018	38.91
358.23	65.53
358.441	65.53
358.653	104.45
358.864	28.67
359.075	12.29
359.287	-14.34
359.498	108.54
359.709	14.34
359.921	110.59
360.132	75.77
360.344	8.19
360.555	38.91
360.766	24.58
360.977	18.43
361.189	94.21
361.4	40.96
361.611	55.3
361.823	61.44
362.034	14.34
362.245	30.72
362.456	98.3
362.667	8.19
362.879	83.97
363.09	53.25
363.301	116.73
363.512	30.72
363.723	-16.38
363.935	114.69
364.146	38.91
364.357	-16.38
364.568	102.4
364.779	36.86
364.99	53.25
365.201	36.86
365.412	63.49
365.623	14.34
365.834	6.14
366.045	79.87
366.256	-10.24
366.467	110.59
366.678	65.53
366.889	90.11
367.1	69.63
367.311	-10.24
367.522	-8.19
367.733	53.25
367.944	77.82
368.155	24.58
368.366	110.59
368.577	118.78
368.788	122.88
368.999	38.91
369.209	22.53
369.42	169.98
369.631	94.21
369.842	55.3
370.053	36.86
370.264	75.77
370.474	-32.77
370.685	45.06
370.896	135.17
371.107	90.11
371.317	77.82
371.528	79.87
371.739	71.68
371.95	6.14
372.16	69.63
372.371	61.44
372.582	79.87
372.792	126.97
373.003	83.97
373.214	32.77
373.424	118.78
373.635	32.77
373.846	73.73
374.056	32.77
374.267	6.14
374.477	16.38
374.688	53.25
374.898	100.35
375.109	36.86
375.319	65.53
375.53	112.64
375.74	69.63
375.951	12.29
376.161	40.96
376.372	176.13
376.582	106.49
376.793	83.97
377.003	61.44
377.214	12.29
377.424	71.68
377.635	20.48
377.845	-10.24
378.055	55.3
378.266	-53.25
378.476	57.34
378.686	79.87
378.897	12.29
379.107	135.17
379.317	61.44
379.528	-16.38
379.738	167.93
379.948	-12.29
380.158	40.96
380.369	36.86
380.579	137.21
380.789	79.87
380.999	63.49
381.21	28.67
381.42	106.49
381.63	6.14
381.84	65.53
382.05	98.3
382.261	88.06
382.471	88.06
382.681	36.86
382.891	63.49
383.101	28.67
383.311	12.29
383.521	77.82
383.731	28.67
383.941	102.4
384.151	102.4
384.361	88.06
384.571	51.2
384.781	47.1
384.991	143.36
385.201	126.97
385.411	36.86
385.621	100.35
385.831	65.53
386.041	71.68
386.251	47.1
386.461	47.1
386.671	10.24
386.881	104.45
387.091	43.01
387.301	110.59
387.511	38.91
387.72	151.55
387.93	112.64
388.14	20.48
388.35	28.67
388.56	94.21
388.769	81.92
388.979	45.06
389.189	6.14
389.399	45.06
389.609	141.31
389.818	45.06
390.028	77.82
390.238	65.53
390.447	55.3
390.657	4.1
390.867	61.44
391.076	102.4
391.286	96.25
391.496	112.64
391.705	126.97
391.915	63.49
392.125	73.73
392.334	32.77
392.544	118.78
392.753	34.82
392.963	40.96
393.172	53.25
393.382	108.54
393.591	77.82
393.801	47.1
394.01	169.98
394.22	137.21
394.429	57.34
394.639	75.77
394.848	96.25
395.058	112.64
395.267	90.11
395.477	63.49
395.686	63.49
395.895	139.26
396.105	186.37
396.314	32.77
396.524	88.06
396.733	61.44
396.942	96.25
397.152	118.78
397.361	71.68
397.57	88.06
397.78	71.68
397.989	114.69
398.198	167.93
398.407	22.53
398.617	77.82
398.826	143.36
399.035	55.3
399.244	122.88
399.453	112.64
399.663	96.25
399.872	180.22
400.081	63.49
400.29	114.69
400.499	53.25
400.708	186.37
400.917	122.88
401.127	100.35
401.336	28.67
401.545	147.45
401.754	81.92
401.963	135.17
402.172	151.55
402.381	88.06
402.59	69.63
402.799	71.68
403.008	90.11
403.217	126.97
403.426	98.3
403.635	96.25
403.844	139.26
404.053	139.26
404.262	69.63
404.471	147.45
404.68	174.08
404.888	96.25
405.097	102.4
405.306	114.69
405.515	112.64
405.724	53.25
405.933	210.94
406.142	167.93
406.35	176.13
406.559	208.89
406.768	86.01
406.977	176.13
407.185	159.74
407.394	198.65
407.603	69.63
407.812	196.6
408.02	192.51
408.229	169.98
408.438	204.8
408.646	227.32
408.855	208.89
409.064	178.17
409.272	243.71
409.481	274.43
409.69	210.94
409.898	161.79
410.107	215.04
410.315	243.71
410.524	217.08
410.733	303.1
410.941	303.1
411.15	317.44
411.358	335.87
411.567	380.92
411.775	364.54
411.984	339.96
412.192	335.87
412.401	294.91
412.609	450.55
412.818	407.55
413.026	415.74
413.234	423.93
413.443	405.5
413.651	446.46
413.86	419.83
414.068	524.28
414.276	462.84
414.485	477.18
414.693	507.9
414.901	511.99
415.11	487.42
415.318	552.95
415.526	579.58
415.734	659.45
415.943	694.26
416.151	667.64
416.359	634.87
416.567	759.8
416.776	806.9
416.984	704.5
417.192	825.33
417.4	761.84
417.608	839.67
417.817	862.19
418.025	921.59
418.233	1048.56
418.441	964.59
418.649	974.83
418.857	1066.99
419.065	1105.9
419.273	995.31
419.481	1103.86
419.689	1216.49
419.897	1130.48
420.105	1161.2
420.313	1298.41
420.521	1298.41
420.729	1275.88
420.937	1366
421.145	1376.23
421.353	1466.35
421.561	1564.65
421.769	1585.13
421.977	1638.37
422.185	1658.85
422.393	1693.67
422.601	1945.57
422.809	1810.4
423.017	1855.46
423.224	1869.8
423.432	1859.56
423.64	1957.86
423.848	2070.5
424.056	2215.9
424.263	2205.66
424.471	2220
424.679	2408.41
424.887	2553.82
425.094	2486.23
425.302	2572.25
425.51	2588.63
425.718	2588.63
425.925	2768.85
426.133	2740.18
426.341	3074
426.548	3086.29
426.756	3049.43
426.964	3125.2
427.171	3383.24
427.379	3416.01
427.586	3512.27
427.794	3649.48
428.001	3858.37
428.209	3952.58
428.417	3862.47
428.624	4165.57
428.832	4114.37
429.039	4163.52
429.247	4028.35
429.454	4435.9
429.662	4849.59
429.869	4335.55
430.076	4691.9
430.284	4667.32
430.491	4894.65
430.699	5160.88
430.906	5210.03
431.114	5253.04
431.321	5402.54
431.528	5463.98
431.736	5631.91
431.943	6229.92
432.15	5914.53
432.358	5896.1
432.565	6244.26
432.772	6240.16
432.979	6490.01
433.187	6637.47
433.394	6750.11
433.601	7165.84
433.808	7319.44
434.016	7186.32
434.223	7485.33
434.43	7823.24
434.637	7690.12
434.844	8296.32
435.052	8355.71
435.259	8335.23
435.466	8525.69
435.673	8288.13
435.88	8738.68
436.087	9420.66
436.294	9185.14
436.501	9142.13
436.708	9238.39
436.915	9637.74
437.122	9942.89
437.329	9828.2
437.537	10207.08
437.743	10368.87
437.95	10444.64
438.157	10813.27
438.364	11409.23
438.571	11204.44
438.778	11206.48
438.985	12222.28
439.192	11751.24
439.399	12142.41
439.606	12062.54
439.813	12670.78
440.02	13082.42
440.227	12894.01
440.433	12865.34
440.64	13473.59
440.847	13346.61
441.054	13244.21
441.261	14438.18
441.467	14266.15
441.674	14528.29
441.881	15306.52
442.088	15189.78
442.294	14915.36
442.501	15152.92
442.708	15542.03
442.914	16185.1
443.121	16865.02
443.328	16449.28
443.534	17542.9
443.741	16897.79
443.948	16879.36
444.154	18151.15
444.361	17784.56
444.568	18200.3
444.774	18046.7
444.981	18253.55
445.187	18853.6
445.394	19867.34
445.6	19508.95
445.807	21378.75
446.013	20217.55
446.22	20524.74
446.426	21470.9
446.633	21853.87
446.839	22410.92
447.046	21536.44
447.252	22795.94
447.459	22646.44
447.665	22513.32
447.871	23670.42
448.078	24456.84
448.284	23432.86
448.491	24104.59
448.697	24805
448.903	25341.57
449.11	25624.18
449.316	25060.99
449.522	25396.86
449.728	26134.13
449.935	26316.4
450.141	26521.2
450.347	26992.23
450.553	26013.3
450.76	26855.01
450.966	27403.87
451.172	27186.79
451.378	27932.25
451.584	27049.57
451.791	28053.08
451.997	27926.1
452.203	28180.05
452.409	28603.98
452.615	28077.65
452.821	27059.81
453.027	26777.19
453.233	28290.64
453.44	26947.17
453.646	26941.03
453.852	27324
454.058	27719.26
454.264	26513
454.47	27618.91
454.676	26566.25
454.882	27549.28
455.088	25386.62
455.294	25534.07
455.5	26015.35
455.705	26035.83
455.911	25183.87
456.117	24594.06
456.323	24612.49
456.529	23213.73
456.735	24354.44
456.941	23457.43
457.147	23262.88
457.352	22429.35
457.558	22238.89
457.764	22384.3
457.97	21812.92
458.176	21575.35
458.381	21477.05
458.587	20227.79
458.793	20389.58
458.999	19166.94
459.204	20465.35
459.41	20170.44
459.616	18810.59
459.821	18618.08
460.027	18659.04
460.233	18444.01
460.438	17139.45
460.644	17616.63
460.85	16785.15
461.055	16279.3
461.261	16348.93
461.466	15052.57
461.672	14798.62
461.878	15826.7
462.083	14876.44
462.289	14466.85
462.494	14423.84
462.7	13762.35
462.905	13344.56
463.111	13831.98
463.316	13762.35
463.522	13524.79
463.727	13383.48
463.932	13516.59
464.138	13043.51
464.343	13530.93
464.549	12988.22
464.754	13383.48
464.959	13463.35
465.165	13127.48
465.37	12529.47
465.575	12078.92
465.781	12713.79
465.986	12726.08
466.191	12244.81
466.397	12140.36
466.602	11564.88
466.807	11874.12
467.012	11757.39
467.218	11693.9
467.423	11736.91
