Data from USB4F104151__33__14-29-40-762.txt Node

Date: Thu Mar 13 14:29:40 EDT 2025
User: louis
Spectrometer: USB4F10415
Trigger mode: 4
Integration Time (sec): 2.500000E-2
Scans to average: 1
Electric dark correction enabled: true
Nonlinearity correction enabled: false
Boxcar width: 0
XAxis mode: Wavelengths
Number of Pixels in Spectrum: 3648
>>>>>Begin Spectral Data<<<<<
178.204	-87.38
178.424	-87.38
178.644	-87.38
178.864	-144.72
179.084	-46.42
179.304	72.36
179.524	-13.65
179.744	6.83
179.964	51.88
180.184	-21.85
180.404	15.02
180.624	-30.04
180.844	-42.32
181.064	19.11
181.283	51.88
181.503	-81.24
181.723	-27.99
181.943	-60.76
182.163	88.75
182.383	-3.41
182.602	23.21
182.822	84.65
183.042	53.93
183.262	39.59
183.482	-23.89
183.701	92.84
183.921	27.31
184.141	2.73
184.361	-66.9
184.58	51.88
184.8	-13.65
185.02	27.31
185.239	35.5
185.459	-13.65
185.679	29.35
185.898	8.87
186.118	72.36
186.338	19.11
186.557	35.5
186.777	-27.99
186.997	27.31
187.216	31.4
187.436	-34.13
187.655	101.03
187.875	117.42
188.095	-13.65
188.314	6.83
188.534	37.55
188.753	51.88
188.973	19.11
189.192	68.27
189.412	82.6
189.631	60.07
189.851	55.98
190.07	80.55
190.29	-19.8
190.509	47.79
190.729	35.5
190.948	35.5
191.168	94.89
191.387	27.31
191.607	51.88
191.826	10.92
192.045	-3.41
192.265	19.11
192.484	98.99
192.704	96.94
192.923	23.21
193.142	162.47
193.362	51.88
193.581	35.5
193.8	25.26
194.02	105.13
194.239	10.92
194.458	82.6
194.678	105.13
194.897	-27.99
195.116	0.68
195.335	-19.8
195.555	76.46
195.774	12.97
195.993	35.5
196.212	0.68
196.432	-71
196.651	49.83
196.87	8.87
197.089	86.7
197.308	17.07
197.528	60.07
197.747	-46.42
197.966	21.16
198.185	6.83
198.404	-7.51
198.623	8.87
198.842	33.45
199.062	51.88
199.281	21.16
199.5	10.92
199.719	17.07
199.938	94.89
200.157	92.84
200.376	-13.65
200.595	19.11
200.814	72.36
201.033	41.64
201.252	35.5
201.471	23.21
201.69	84.65
201.909	23.21
202.128	72.36
202.347	29.35
202.566	47.79
202.785	68.27
203.004	-5.46
203.223	53.93
203.442	4.78
203.661	-32.08
203.879	-23.89
204.098	94.89
204.317	29.35
204.536	119.46
204.755	27.31
204.974	58.03
205.193	-1.37
205.411	64.17
205.63	39.59
205.849	92.84
206.068	53.93
206.287	60.07
206.505	31.4
206.724	21.16
206.943	31.4
207.162	53.93
207.381	94.89
207.599	-30.04
207.818	68.27
208.037	55.98
208.255	39.59
208.474	10.92
208.693	12.97
208.911	10.92
209.13	37.55
209.349	41.64
209.567	78.51
209.786	21.16
210.005	39.59
210.223	37.55
210.442	-30.04
210.661	105.13
210.879	10.92
211.098	45.74
211.316	-30.04
211.535	-9.56
211.753	35.5
211.972	51.88
212.191	-17.75
212.409	-30.04
212.628	45.74
212.846	21.16
213.065	53.93
213.283	101.03
213.502	-1.37
213.72	10.92
213.938	64.17
214.157	31.4
214.375	53.93
214.594	-46.42
214.812	58.03
215.031	92.84
215.249	43.69
215.467	72.36
215.686	31.4
215.904	125.61
216.122	-1.37
216.341	43.69
216.559	31.4
216.778	78.51
216.996	84.65
217.214	101.03
217.432	2.73
217.651	-34.13
217.869	45.74
218.087	-3.41
218.306	-25.94
218.524	86.7
218.742	45.74
218.96	90.79
219.179	-46.42
219.397	45.74
219.615	80.55
219.833	68.27
220.051	19.11
220.27	94.89
220.488	135.85
220.706	35.5
220.924	19.11
221.142	35.5
221.36	113.32
221.578	43.69
221.796	2.73
222.015	-1.37
222.233	27.31
222.451	94.89
222.669	-19.8
222.887	15.02
223.105	31.4
223.323	-19.8
223.541	-30.04
223.759	29.35
223.977	12.97
224.195	125.61
224.413	27.31
224.631	78.51
224.849	27.31
225.067	141.99
225.285	6.83
225.503	58.03
225.721	-3.41
225.939	51.88
226.157	47.79
226.375	156.33
226.592	33.45
226.81	35.5
227.028	68.27
227.246	70.31
227.464	51.88
227.682	35.5
227.9	35.5
228.117	12.97
228.335	-36.18
228.553	51.88
228.771	60.07
228.989	12.97
229.206	35.5
229.424	2.73
229.642	84.65
229.86	12.97
230.077	129.7
230.295	-21.85
230.513	35.5
230.731	29.35
230.948	76.46
231.166	2.73
231.384	29.35
231.601	10.92
231.819	119.46
232.037	35.5
232.254	-54.61
232.472	19.11
232.689	51.88
232.907	60.07
233.125	31.4
233.342	-66.9
233.56	37.55
233.777	129.7
233.995	47.79
234.213	66.22
234.43	27.31
234.648	-3.41
234.865	-46.42
235.083	51.88
235.3	27.31
235.518	19.11
235.735	84.65
235.953	41.64
236.17	27.31
236.388	33.45
236.605	47.79
236.822	58.03
237.04	15.02
237.257	88.75
237.475	-11.61
237.692	-11.61
237.909	60.07
238.127	-13.65
238.344	10.92
238.562	31.4
238.779	15.02
238.996	-3.41
239.214	-21.85
239.431	35.5
239.648	-46.42
239.865	47.79
240.083	62.12
240.3	55.98
240.517	6.83
240.735	113.32
240.952	72.36
241.169	109.22
241.386	60.07
241.603	80.55
241.821	2.73
242.038	39.59
242.255	70.31
242.472	27.31
242.689	92.84
242.907	92.84
243.124	68.27
243.341	60.07
243.558	15.02
243.775	19.11
243.992	53.93
244.209	76.46
244.426	55.98
244.643	51.88
244.86	55.98
245.078	68.27
245.295	55.98
245.512	68.27
245.729	43.69
245.946	43.69
246.163	35.5
246.38	-3.41
246.597	94.89
246.814	43.69
247.031	2.73
247.248	37.55
247.464	-17.75
247.681	68.27
247.898	62.12
248.115	60.07
248.332	-62.8
248.549	70.31
248.766	72.36
248.983	23.21
249.2	10.92
249.417	31.4
249.633	-21.85
249.85	51.88
250.067	23.21
250.284	31.4
250.501	2.73
250.717	37.55
250.934	17.07
251.151	49.83
251.368	-3.41
251.585	105.13
251.801	39.59
252.018	35.5
252.235	-9.56
252.451	27.31
252.668	25.26
252.885	80.55
253.102	51.88
253.318	10.92
253.535	31.4
253.752	101.03
253.968	-9.56
254.185	-13.65
254.401	4.78
254.618	84.65
254.835	43.69
255.051	45.74
255.268	25.26
255.484	92.84
255.701	12.97
255.917	27.31
256.134	-15.7
256.351	27.31
256.567	-1.37
256.784	43.69
257	25.26
257.217	92.84
257.433	37.55
257.65	10.92
257.866	62.12
258.082	-19.8
258.299	-25.94
258.515	-21.85
258.732	29.35
258.948	-5.46
259.165	76.46
259.381	-3.41
259.597	-34.13
259.814	10.92
260.03	117.42
260.246	45.74
260.463	72.36
260.679	109.22
260.895	72.36
261.112	66.22
261.328	12.97
261.544	-1.37
261.761	105.13
261.977	43.69
262.193	2.73
262.409	39.59
262.626	27.31
262.842	109.22
263.058	2.73
263.274	10.92
263.49	27.31
263.707	-25.94
263.923	29.35
264.139	119.46
264.355	47.79
264.571	51.88
264.787	2.73
265.004	-30.04
265.22	-17.75
265.436	12.97
265.652	-5.46
265.868	-25.94
266.084	27.31
266.3	-32.08
266.516	60.07
266.732	-60.76
266.948	2.73
267.164	43.69
267.38	17.07
267.596	-34.13
267.812	72.36
268.028	62.12
268.244	35.5
268.46	84.65
268.676	23.21
268.892	-9.56
269.108	88.75
269.324	27.31
269.54	43.69
269.756	29.35
269.972	103.08
270.188	68.27
270.403	-79.19
270.619	6.83
270.835	-11.61
271.051	29.35
271.267	-62.8
271.483	12.97
271.698	70.31
271.914	19.11
272.13	-36.18
272.346	35.5
272.562	47.79
272.777	94.89
272.993	19.11
273.209	-19.8
273.425	129.7
273.64	-54.61
273.856	6.83
274.072	27.31
274.287	19.11
274.503	-13.65
274.719	64.17
274.934	45.74
275.15	-32.08
275.366	23.21
275.581	-46.42
275.797	2.73
276.012	35.5
276.228	60.07
276.444	-46.42
276.659	23.21
276.875	10.92
277.09	-34.13
277.306	37.55
277.521	-21.85
277.737	35.5
277.952	27.31
278.168	10.92
278.383	90.79
278.599	29.35
278.814	53.93
279.03	23.21
279.245	92.84
279.461	43.69
279.676	62.12
279.892	-5.46
280.107	-44.37
280.322	66.22
280.538	37.55
280.753	10.92
280.969	12.97
281.184	60.07
281.399	62.12
281.615	4.78
281.83	19.11
282.045	-11.61
282.26	12.97
282.476	41.64
282.691	49.83
282.906	84.65
283.122	68.27
283.337	51.88
283.552	62.12
283.767	10.92
283.983	51.88
284.198	-3.41
284.413	55.98
284.628	-9.56
284.843	31.4
285.058	17.07
285.274	55.98
285.489	-13.65
285.704	4.78
285.919	15.02
286.134	-9.56
286.349	47.79
286.564	-13.65
286.779	146.09
286.995	90.79
287.21	10.92
287.425	-11.61
287.64	17.07
287.855	53.93
288.07	-48.47
288.285	90.79
288.5	51.88
288.715	35.5
288.93	66.22
289.145	21.16
289.36	8.87
289.575	53.93
289.79	78.51
290.004	27.31
290.219	39.59
290.434	43.69
290.649	60.07
290.864	8.87
291.079	37.55
291.294	86.7
291.509	68.27
291.724	10.92
291.938	60.07
292.153	72.36
292.368	10.92
292.583	23.21
292.798	78.51
293.012	19.11
293.227	12.97
293.442	21.16
293.657	84.65
293.871	41.64
294.086	60.07
294.301	125.61
294.516	45.74
294.73	-36.18
294.945	4.78
295.16	-17.75
295.374	33.45
295.589	12.97
295.804	2.73
296.018	43.69
296.233	19.11
296.447	-5.46
296.662	37.55
296.877	105.13
297.091	98.99
297.306	-11.61
297.52	45.74
297.735	19.11
297.949	76.46
298.164	-19.8
298.378	10.92
298.593	19.11
298.807	51.88
299.022	74.41
299.236	-11.61
299.451	39.59
299.665	31.4
299.88	68.27
300.094	55.98
300.309	39.59
300.523	-46.42
300.737	-17.75
300.952	25.26
301.166	103.08
301.381	49.83
301.595	0.68
301.809	-30.04
302.024	10.92
302.238	37.55
302.452	55.98
302.667	27.31
302.881	70.31
303.095	2.73
303.309	6.83
303.524	-1.37
303.738	80.55
303.952	4.78
304.166	60.07
304.381	-27.99
304.595	86.7
304.809	47.79
305.023	101.03
305.237	45.74
305.452	41.64
305.666	64.17
305.88	-5.46
306.094	55.98
306.308	35.5
306.522	39.59
306.736	-11.61
306.95	60.07
307.164	15.02
307.379	105.13
307.593	135.85
307.807	21.16
308.021	35.5
308.235	84.65
308.449	-44.37
308.663	78.51
308.877	51.88
309.091	68.27
309.305	19.11
309.519	45.74
309.733	55.98
309.947	-38.23
310.161	43.69
310.374	78.51
310.588	139.94
310.802	68.27
311.016	2.73
311.23	68.27
311.444	29.35
311.658	10.92
311.872	68.27
312.085	74.41
312.299	78.51
312.513	88.75
312.727	19.11
312.941	10.92
313.154	105.13
313.368	19.11
313.582	-11.61
313.796	55.98
314.009	51.88
314.223	31.4
314.437	4.78
314.651	86.7
314.864	12.97
315.078	60.07
315.292	-58.71
315.505	55.98
315.719	-3.41
315.933	68.27
316.146	53.93
316.36	70.31
316.573	21.16
316.787	80.55
317.001	-3.41
317.214	33.45
317.428	101.03
317.641	51.88
317.855	17.07
318.068	-21.85
318.282	90.79
318.495	125.61
318.709	51.88
318.922	-25.94
319.136	72.36
319.349	27.31
319.563	64.17
319.776	2.73
319.99	-13.65
320.203	12.97
320.417	62.12
320.63	-30.04
320.843	84.65
321.057	76.46
321.27	35.5
321.483	94.89
321.697	74.41
321.91	49.83
322.124	76.46
322.337	60.07
322.55	53.93
322.763	2.73
322.977	23.21
323.19	23.21
323.403	43.69
323.617	35.5
323.83	109.22
324.043	25.26
324.256	4.78
324.469	-19.8
324.683	86.7
324.896	60.07
325.109	43.69
325.322	78.51
325.535	68.27
325.748	76.46
325.962	19.11
326.175	94.89
326.388	86.7
326.601	60.07
326.814	21.16
327.027	84.65
327.24	29.35
327.453	-46.42
327.666	27.31
327.879	80.55
328.092	27.31
328.305	92.84
328.518	92.84
328.731	-56.66
328.944	58.03
329.157	15.02
329.37	60.07
329.583	125.61
329.796	92.84
330.009	10.92
330.222	51.88
330.435	84.65
330.648	23.21
330.861	15.02
331.073	-38.23
331.286	21.16
331.499	43.69
331.712	-13.65
331.925	144.04
332.138	53.93
332.35	2.73
332.563	12.97
332.776	117.42
332.989	-7.51
333.202	113.32
333.414	-3.41
333.627	64.17
333.84	45.74
334.053	51.88
334.265	-62.8
334.478	-30.04
334.691	-46.42
334.903	45.74
335.116	25.26
335.329	-36.18
335.541	-21.85
335.754	60.07
335.966	51.88
336.179	-34.13
336.392	-9.56
336.604	103.08
336.817	43.69
337.029	2.73
337.242	10.92
337.454	19.11
337.667	-34.13
337.88	88.75
338.092	76.46
338.305	96.94
338.517	-38.23
338.729	80.55
338.942	74.41
339.154	-5.46
339.367	-9.56
339.579	70.31
339.792	19.11
340.004	68.27
340.217	76.46
340.429	-9.56
340.641	25.26
340.854	15.02
341.066	17.07
341.278	74.41
341.491	84.65
341.703	53.93
341.915	23.21
342.128	45.74
342.34	96.94
342.552	-52.56
342.764	6.83
342.977	21.16
343.189	88.75
343.401	35.5
343.613	-3.41
343.826	21.16
344.038	-5.46
344.25	45.74
344.462	10.92
344.674	47.79
344.886	-13.65
345.099	37.55
345.311	80.55
345.523	43.69
345.735	-34.13
345.947	68.27
346.159	12.97
346.371	27.31
346.583	-32.08
346.795	121.51
347.007	43.69
347.219	53.93
347.431	60.07
347.643	133.8
347.855	6.83
348.067	-27.99
348.279	43.69
348.491	10.92
348.703	94.89
348.915	4.78
349.127	27.31
349.339	68.27
349.551	39.59
349.763	19.11
349.975	62.12
350.187	35.5
350.399	-5.46
350.61	158.38
350.822	47.79
351.034	39.59
351.246	-1.37
351.458	60.07
351.669	60.07
351.881	121.51
352.093	123.56
352.305	88.75
352.517	43.69
352.728	51.88
352.94	-46.42
353.152	101.03
353.363	15.02
353.575	55.98
353.787	117.42
353.999	84.65
354.21	51.88
354.422	60.07
354.633	60.07
354.845	35.5
355.057	49.83
355.268	119.46
355.48	-25.94
355.692	39.59
355.903	4.78
356.115	17.07
356.326	51.88
356.538	35.5
356.749	105.13
356.961	70.31
357.172	27.31
357.384	15.02
357.595	154.28
357.807	19.11
358.018	6.83
358.23	33.45
358.441	113.32
358.653	47.79
358.864	-38.23
359.075	-9.56
359.287	68.27
359.498	94.89
359.709	103.08
359.921	51.88
360.132	8.87
360.344	43.69
360.555	10.92
360.766	105.13
360.977	78.51
361.189	121.51
361.4	15.02
361.611	86.7
361.823	111.27
362.034	76.46
362.245	27.31
362.456	92.84
362.667	29.35
362.879	111.27
363.09	37.55
363.301	74.41
363.512	23.21
363.723	51.88
363.935	25.26
364.146	92.84
364.357	35.5
364.568	113.32
364.779	27.31
364.99	117.42
365.201	2.73
365.412	27.31
365.623	-21.85
365.834	119.46
366.045	21.16
366.256	60.07
366.467	84.65
366.678	105.13
366.889	8.87
367.1	-13.65
367.311	72.36
367.522	39.59
367.733	86.7
367.944	45.74
368.155	-11.61
368.366	58.03
368.577	15.02
368.788	37.55
368.999	62.12
369.209	45.74
369.42	166.57
369.631	47.79
369.842	-5.46
370.053	66.22
370.264	2.73
370.474	-34.13
370.685	33.45
370.896	27.31
371.107	39.59
371.317	45.74
371.528	33.45
371.739	64.17
371.95	53.93
372.16	125.61
372.371	-15.7
372.582	86.7
372.792	-27.99
373.003	115.37
373.214	47.79
373.424	123.56
373.635	41.64
373.846	68.27
374.056	47.79
374.267	-5.46
374.477	111.27
374.688	-1.37
374.898	43.69
375.109	76.46
375.319	51.88
375.53	47.79
375.74	43.69
375.951	119.46
376.161	43.69
376.372	37.55
376.582	51.88
376.793	-11.61
377.003	-9.56
377.214	10.92
377.424	43.69
377.635	94.89
377.845	-38.23
378.055	111.27
378.266	-19.8
378.476	41.64
378.686	60.07
378.897	35.5
379.107	121.51
379.317	96.94
379.528	53.93
379.738	78.51
379.948	-66.9
380.158	80.55
380.369	127.66
380.579	92.84
380.789	15.02
380.999	76.46
381.21	60.07
381.42	182.95
381.63	-17.75
381.84	68.27
382.05	72.36
382.261	45.74
382.471	78.51
382.681	74.41
382.891	29.35
383.101	37.55
383.311	27.31
383.521	101.03
383.731	107.18
383.941	43.69
384.151	0.68
384.361	60.07
384.571	84.65
384.781	51.88
384.991	141.99
385.201	154.28
385.411	133.8
385.621	103.08
385.831	62.12
386.041	27.31
386.251	2.73
386.461	2.73
386.671	76.46
386.881	84.65
387.091	27.31
387.301	90.79
387.511	37.55
387.72	121.51
387.93	70.31
388.14	12.97
388.35	45.74
388.56	105.13
388.769	117.42
388.979	-5.46
389.189	90.79
389.399	58.03
389.609	60.07
389.818	68.27
390.028	76.46
390.238	68.27
390.447	23.21
390.657	76.46
390.867	88.75
391.076	62.12
391.286	25.26
391.496	115.37
391.705	37.55
391.915	133.8
392.125	103.08
392.334	41.64
392.544	62.12
392.753	-19.8
392.963	51.88
393.172	101.03
393.382	10.92
393.591	127.66
393.801	101.03
394.01	78.51
394.22	111.27
394.429	166.57
394.639	127.66
394.848	92.84
395.058	127.66
395.267	47.79
395.477	92.84
395.686	74.41
395.895	174.76
396.105	185
396.314	29.35
396.524	92.84
396.733	68.27
396.942	141.99
397.152	23.21
397.361	103.08
397.57	123.56
397.78	117.42
397.989	185
398.198	185
398.407	166.57
398.617	123.56
398.826	64.17
399.035	51.88
399.244	103.08
399.453	60.07
399.663	121.51
399.872	139.94
400.081	162.47
400.29	103.08
400.499	123.56
400.708	197.29
400.917	53.93
401.127	131.75
401.336	31.4
401.545	94.89
401.754	197.29
401.963	68.27
402.172	68.27
402.381	150.18
402.59	109.22
402.799	174.76
403.008	119.46
403.217	107.18
403.426	170.66
403.635	103.08
403.844	37.55
404.053	148.14
404.262	96.94
404.471	180.9
404.68	127.66
404.888	211.62
405.097	129.7
405.306	193.19
405.515	182.95
405.724	164.52
405.933	223.91
406.142	258.73
406.35	182.95
406.559	162.47
406.768	199.34
406.977	225.96
407.185	174.76
407.394	201.38
407.603	160.42
407.812	268.97
408.02	268.97
408.229	295.59
408.438	266.92
408.646	207.53
408.855	328.36
409.064	256.68
409.272	250.53
409.481	305.83
409.69	242.34
409.898	248.49
410.107	266.92
410.315	334.5
410.524	291.49
410.733	361.13
410.941	303.78
411.15	363.17
411.358	412.32
411.567	391.84
411.775	408.23
411.984	455.33
412.192	543.39
412.401	432.8
412.609	543.39
412.818	555.68
413.026	484
413.234	533.15
413.443	535.2
413.651	551.59
413.86	629.41
414.068	715.42
414.276	688.8
414.485	658.08
414.693	676.51
414.901	832.16
415.11	832.16
415.318	731.81
415.526	817.82
415.734	817.82
415.943	809.63
416.151	1006.24
416.359	948.89
416.567	963.23
416.776	1147.55
416.984	1020.57
417.192	1028.76
417.4	1063.58
417.608	1028.76
417.817	1141.4
418.025	1155.74
418.233	1329.81
418.441	1237.66
418.649	1198.74
418.857	1389.21
419.065	1395.35
419.273	1389.21
419.481	1585.81
419.689	1485.46
419.897	1567.38
420.105	1594
420.313	1788.56
420.521	1747.6
420.729	1784.46
420.937	1854.09
421.145	1929.87
421.353	2009.74
421.561	2177.67
421.769	2054.8
421.977	2165.39
422.185	2214.54
422.393	2255.5
422.601	2527.88
422.809	2529.92
423.017	2497.16
423.224	2747.01
423.432	2738.82
423.64	2722.43
423.848	2994.81
424.056	2800.26
424.263	3080.83
424.471	3134.07
424.679	3089.02
424.887	3263.1
425.094	3553.91
425.302	3437.17
425.51	3478.13
425.718	3617.4
425.925	3803.76
426.133	3867.25
426.341	3926.64
426.548	4139.63
426.756	4141.68
426.964	4209.26
427.171	4610.66
427.379	4614.76
427.586	4739.68
427.794	4778.59
428.001	5106.27
428.209	5446.23
428.417	5251.67
428.624	5628.5
428.832	5691.99
429.039	5618.26
429.247	5659.22
429.454	5986.9
429.662	6498.89
429.869	6081.1
430.076	6482.5
430.284	6330.95
430.491	6816.32
430.699	6863.43
430.906	6834.75
431.114	6877.76
431.321	7414.33
431.528	7457.34
431.736	7998
431.943	8374.83
432.15	7895.6
432.358	8235.56
432.565	8641.06
432.772	8534.57
432.979	9034.27
433.187	9237.02
433.394	9046.56
433.601	9869.84
433.808	9861.65
434.016	9687.57
434.223	10209.81
434.43	10940.93
434.637	10369.55
434.844	11311.61
435.052	11178.5
435.259	11299.33
435.466	11479.55
435.673	11229.7
435.88	12005.88
436.087	12497.39
436.294	12691.94
436.501	12188.14
436.708	12528.11
436.915	12929.51
437.122	13611.48
437.329	13621.72
437.537	13842.9
437.743	14019.03
437.95	13969.88
438.157	14891.46
438.364	15210.95
438.571	15016.39
438.778	15512
438.985	16697.77
439.192	15958.46
439.399	16861.61
439.606	16157.11
439.813	16796.07
440.02	17957.27
440.227	17803.67
440.433	17727.9
440.64	18233.75
440.847	18108.82
441.054	18450.83
441.261	19802.49
441.467	19263.88
441.674	19675.52
441.881	20664.69
442.088	20234.61
442.294	20261.24
442.501	20644.21
442.708	21221.73
442.914	22151.51
443.121	23079.24
443.328	22497.62
443.534	24002.88
443.741	22995.28
443.948	22950.22
444.154	24848.69
444.361	24500.53
444.568	24469.81
444.774	24455.48
444.981	24916.27
445.187	25714.98
445.394	26497.3
445.6	26044.7
445.807	28766.45
446.013	27392.26
446.22	28031.23
446.426	29462.76
446.633	29485.29
446.839	30441.69
447.046	29268.2
447.252	30849.24
447.459	31119.57
447.665	30703.83
447.871	32217.28
448.078	33159.34
448.284	31989.95
448.491	32807.09
448.697	34037.92
448.903	34484.38
449.11	35039.38
449.316	33792.17
449.522	34361.5
449.728	35510.41
449.935	35942.53
450.141	35672.2
450.347	36876.41
450.553	35549.32
450.76	35868.81
450.966	37189.75
451.172	36665.47
451.378	37677.16
451.584	36636.8
451.791	37572.72
451.997	37621.87
452.203	38260.83
452.409	38379.62
452.615	37699.69
452.821	36634.75
453.027	36315.26
453.233	38338.66
453.44	36452.48
453.646	36847.74
453.852	36958.33
454.058	37666.92
454.264	36290.69
454.47	37183.6
454.676	35942.53
454.882	37505.13
455.088	33939.62
455.294	34742.42
455.5	35059.86
455.705	35537.04
455.911	33949.86
456.117	33300.65
456.323	33005.75
456.529	31408.33
456.735	32551.1
456.941	31975.62
457.147	31437
457.352	30642.39
457.558	29743.33
457.764	29927.65
457.97	29423.85
458.176	28856.56
458.381	28690.68
458.587	27234.57
458.793	27197.71
458.999	25987.36
459.204	27726.08
459.41	27087.12
459.616	25227.56
459.821	25123.12
460.027	24895.79
460.233	24705.33
460.438	23521.6
460.644	23306.57
460.85	22448.47
461.055	21938.52
461.261	22047.07
461.466	20474.23
461.672	19755.39
461.878	21393.76
462.083	19698.05
462.289	19345.8
462.494	19165.57
462.7	18162.07
462.905	17748.38
463.111	18463.12
463.316	18647.44
463.522	18102.68
463.727	18002.33
463.932	17865.11
464.138	17983.9
464.343	17838.49
464.549	17289.63
464.754	17891.74
464.959	17525.15
465.165	17680.8
465.37	16796.07
465.575	16568.75
465.781	17062.31
465.986	17009.06
466.191	16605.61
466.397	16413.1
466.602	15399.36
466.807	15962.55
467.012	15886.78
