Data from USB4F104151__6__14-28-25-160.txt Node

Date: Thu Mar 13 14:28:25 EDT 2025
User: louis
Spectrometer: USB4F10415
Trigger mode: 4
Integration Time (sec): 2.500000E-2
Scans to average: 1
Electric dark correction enabled: true
Nonlinearity correction enabled: false
Boxcar width: 0
XAxis mode: Wavelengths
Number of Pixels in Spectrum: 3648
>>>>>Begin Spectral Data<<<<<
178.204	-140.8
178.424	-140.8
178.644	-140.8
178.864	-165.37
179.084	-165.37
179.304	18.94
179.524	-28.16
179.744	25.09
179.964	35.33
180.184	-32.26
180.404	53.76
180.624	-40.45
180.844	-34.3
181.064	-56.83
181.283	53.76
181.503	-22.02
181.723	27.14
181.943	35.33
182.163	78.33
182.383	29.18
182.602	117.25
182.822	86.53
183.042	16.9
183.262	31.23
183.482	-19.97
183.701	49.66
183.921	2.56
184.141	18.94
184.361	47.62
184.58	10.75
184.8	45.57
185.02	53.76
185.239	51.71
185.459	37.38
185.679	70.14
185.898	-46.59
186.118	94.72
186.338	59.9
186.557	64
186.777	23.04
186.997	78.33
187.216	35.33
187.436	84.48
187.655	37.38
187.875	37.38
188.095	41.47
188.314	27.14
188.534	135.68
188.753	-11.78
188.973	20.99
189.192	53.76
189.412	39.42
189.631	-1.54
189.851	-1.54
190.07	53.76
190.29	27.14
190.509	4.61
190.729	-28.16
190.948	55.81
191.168	137.73
191.387	61.95
191.607	-34.3
191.826	18.94
192.045	57.86
192.265	-11.78
192.484	51.71
192.704	59.9
192.923	76.29
193.142	160.25
193.362	100.86
193.581	125.44
193.8	107.01
194.02	6.66
194.239	35.33
194.458	68.09
194.678	64
194.897	57.86
195.116	18.94
195.335	29.18
195.555	45.57
195.774	59.9
195.993	23.04
196.212	-17.92
196.432	18.94
196.651	78.33
196.87	10.75
197.089	92.67
197.308	-5.63
197.528	72.19
197.747	-30.21
197.966	51.71
198.185	90.62
198.404	-46.59
198.623	10.75
198.842	51.71
199.062	76.29
199.281	80.38
199.5	35.33
199.719	16.9
199.938	92.67
200.157	76.29
200.376	109.05
200.595	109.05
200.814	-1.54
201.033	55.81
201.252	70.14
201.471	43.52
201.69	10.75
201.909	94.72
202.128	20.99
202.347	-22.02
202.566	-36.35
202.785	51.71
203.004	0.51
203.223	10.75
203.442	35.33
203.661	-32.26
203.879	53.76
204.098	35.33
204.317	59.9
204.536	14.85
204.755	41.47
204.974	70.14
205.193	27.14
205.411	117.25
205.63	94.72
205.849	64
206.068	70.14
206.287	27.14
206.505	113.15
206.724	-13.82
206.943	-5.63
207.162	53.76
207.381	51.71
207.599	78.33
207.818	12.8
208.037	49.66
208.255	4.61
208.474	4.61
208.693	51.71
208.911	35.33
209.13	76.29
209.349	88.57
209.567	68.09
209.786	-38.4
210.005	27.14
210.223	43.52
210.442	-77.31
210.661	39.42
210.879	23.04
211.098	104.96
211.316	29.18
211.535	102.91
211.753	-42.5
211.972	74.24
212.191	23.04
212.409	10.75
212.628	31.23
212.846	80.38
213.065	53.76
213.283	35.33
213.502	80.38
213.72	64
213.938	35.33
214.157	96.77
214.375	84.48
214.594	-15.87
214.812	68.09
215.031	33.28
215.249	6.66
215.467	-13.82
215.686	51.71
215.904	78.33
216.122	-7.68
216.341	109.05
216.559	53.76
216.778	78.33
216.996	113.15
217.214	51.71
217.432	61.95
217.651	18.94
217.869	55.81
218.087	51.71
218.306	31.23
218.524	109.05
218.742	64
218.96	37.38
219.179	18.94
219.397	2.56
219.615	43.52
219.833	127.49
220.051	-38.4
220.27	150.01
220.488	94.72
220.706	133.63
220.924	84.48
221.142	47.62
221.36	6.66
221.578	27.14
221.796	-5.63
222.015	47.62
222.233	-30.21
222.451	133.63
222.669	-11.78
222.887	59.9
223.105	18.94
223.323	41.47
223.541	39.42
223.759	10.75
223.977	37.38
224.195	68.09
224.413	35.33
224.631	55.81
224.849	76.29
225.067	176.64
225.285	8.7
225.503	-7.68
225.721	-50.69
225.939	-3.58
226.157	10.75
226.375	78.33
226.592	51.71
226.81	68.09
227.028	43.52
227.246	94.72
227.464	84.48
227.682	76.29
227.9	61.95
228.117	39.42
228.335	10.75
228.553	84.48
228.771	-24.06
228.989	113.15
229.206	70.14
229.424	51.71
229.642	-22.02
229.86	57.86
230.077	111.1
230.295	-11.78
230.513	53.76
230.731	82.43
230.948	68.09
231.166	68.09
231.384	84.48
231.601	53.76
231.819	96.77
232.037	29.18
232.254	47.62
232.472	8.7
232.689	18.94
232.907	51.71
233.125	33.28
233.342	25.09
233.56	96.77
233.777	-30.21
233.995	6.66
234.213	31.23
234.43	27.14
234.648	16.9
234.865	45.57
235.083	43.52
235.3	137.73
235.518	45.57
235.735	131.58
235.953	113.15
236.17	-13.82
236.388	37.38
236.605	82.43
236.822	92.67
237.04	113.15
237.257	74.24
237.475	-5.63
237.692	20.99
237.909	68.09
238.127	12.8
238.344	23.04
238.562	57.86
238.779	-1.54
238.996	2.56
239.214	31.23
239.431	37.38
239.648	51.71
239.865	10.75
240.083	18.94
240.3	55.81
240.517	0.51
240.735	90.62
240.952	59.9
241.169	4.61
241.386	-30.21
241.603	64
241.821	-3.58
242.038	51.71
242.255	47.62
242.472	43.52
242.689	31.23
242.907	86.53
243.124	45.57
243.341	8.7
243.558	-15.87
243.775	-22.02
243.992	0.51
244.209	-65.02
244.426	96.77
244.643	94.72
244.86	49.66
245.078	-1.54
245.295	43.52
245.512	43.52
245.729	2.56
245.946	92.67
246.163	121.34
246.38	57.86
246.597	27.14
246.814	35.33
247.031	35.33
247.248	51.71
247.464	102.91
247.681	90.62
247.898	8.7
248.115	-42.5
248.332	-28.16
248.549	53.76
248.766	96.77
248.983	27.14
249.2	59.9
249.417	27.14
249.633	59.9
249.85	51.71
250.067	-13.82
250.284	68.09
250.501	31.23
250.717	135.68
250.934	29.18
251.151	57.86
251.368	37.38
251.585	47.62
251.801	78.33
252.018	86.53
252.235	61.95
252.451	100.86
252.668	45.57
252.885	2.56
253.102	94.72
253.318	51.71
253.535	2.56
253.752	80.38
253.968	35.33
254.185	35.33
254.401	-22.02
254.618	49.66
254.835	39.42
255.051	94.72
255.268	47.62
255.484	-15.87
255.701	84.48
255.917	-9.73
256.134	-7.68
256.351	70.14
256.567	-19.97
256.784	-3.58
257	8.7
257.217	51.71
257.433	94.72
257.65	-22.02
257.866	92.67
258.082	-17.92
258.299	10.75
258.515	84.48
258.732	18.94
258.948	55.81
259.165	49.66
259.381	53.76
259.597	10.75
259.814	-3.58
260.03	35.33
260.246	43.52
260.463	94.72
260.679	90.62
260.895	68.09
261.112	18.94
261.328	51.71
261.544	43.52
261.761	117.25
261.977	-5.63
262.193	10.75
262.409	100.86
262.626	72.19
262.842	72.19
263.058	-7.68
263.274	41.47
263.49	35.33
263.707	76.29
263.923	84.48
264.139	-5.63
264.355	-3.58
264.571	76.29
264.787	68.09
265.004	68.09
265.22	84.48
265.436	68.09
265.652	47.62
265.868	94.72
266.084	-22.02
266.3	68.09
266.516	55.81
266.732	64
266.948	33.28
267.164	12.8
267.38	168.45
267.596	-13.82
267.812	119.29
268.028	84.48
268.244	-13.82
268.46	111.1
268.676	92.67
268.892	70.14
269.108	-42.5
269.324	14.85
269.54	6.66
269.756	84.48
269.972	-30.21
270.188	45.57
270.403	-13.82
270.619	-9.73
270.835	51.71
271.051	92.67
271.267	84.48
271.483	-11.78
271.698	31.23
271.914	55.81
272.13	68.09
272.346	35.33
272.562	84.48
272.777	74.24
272.993	8.7
273.209	86.53
273.425	10.75
273.64	20.99
273.856	6.66
274.072	39.42
274.287	27.14
274.503	68.09
274.719	37.38
274.934	37.38
275.15	0.51
275.366	68.09
275.581	23.04
275.797	-9.73
276.012	51.71
276.228	-13.82
276.444	111.1
276.659	35.33
276.875	64
277.09	33.28
277.306	45.57
277.521	10.75
277.737	12.8
277.952	68.09
278.168	2.56
278.383	35.33
278.599	23.04
278.814	68.09
279.03	29.18
279.245	115.2
279.461	43.52
279.676	109.05
279.892	-19.97
280.107	4.61
280.322	35.33
280.538	39.42
280.753	-24.06
280.969	141.82
281.184	61.95
281.399	98.81
281.615	84.48
281.83	111.1
282.045	76.29
282.26	-5.63
282.476	35.33
282.691	70.14
282.906	80.38
283.122	-5.63
283.337	27.14
283.552	133.63
283.767	-1.54
283.983	59.9
284.198	64
284.413	-13.82
284.628	-9.73
284.843	10.75
285.058	119.29
285.274	27.14
285.489	45.57
285.704	117.25
285.919	35.33
286.134	43.52
286.349	-22.02
286.564	10.75
286.779	80.38
286.995	82.43
287.21	-36.35
287.425	119.29
287.64	18.94
287.855	-44.54
288.07	10.75
288.285	100.86
288.5	51.71
288.715	100.86
288.93	111.1
289.145	-5.63
289.36	68.09
289.575	-1.54
289.79	55.81
290.004	35.33
290.219	68.09
290.434	-1.54
290.649	80.38
290.864	-38.4
291.079	66.05
291.294	14.85
291.509	68.09
291.724	100.86
291.938	18.94
292.153	18.94
292.368	39.42
292.583	92.67
292.798	119.29
293.012	109.05
293.227	-1.54
293.442	182.78
293.657	109.05
293.871	125.44
294.086	43.52
294.301	145.92
294.516	61.95
294.73	82.43
294.945	55.81
295.16	6.66
295.374	66.05
295.589	113.15
295.804	12.8
296.018	74.24
296.233	76.29
296.447	12.8
296.662	76.29
296.877	68.09
297.091	64
297.306	20.99
297.52	53.76
297.735	20.99
297.949	96.77
298.164	78.33
298.378	59.9
298.593	10.75
298.807	-26.11
299.022	117.25
299.236	76.29
299.451	53.76
299.665	76.29
299.88	-36.35
300.094	59.9
300.309	45.57
300.523	119.29
300.737	43.52
300.952	10.75
301.166	6.66
301.381	4.61
301.595	41.47
301.809	35.33
302.024	137.73
302.238	61.95
302.452	92.67
302.667	47.62
302.881	96.77
303.095	107.01
303.309	102.91
303.524	59.9
303.738	-11.78
303.952	59.9
304.166	2.56
304.381	45.57
304.595	94.72
304.809	61.95
305.023	113.15
305.237	-36.35
305.452	141.82
305.666	109.05
305.88	37.38
306.094	23.04
306.308	35.33
306.522	129.53
306.736	88.57
306.95	74.24
307.164	10.75
307.379	23.04
307.593	61.95
307.807	166.4
308.021	133.63
308.235	174.59
308.449	96.77
308.663	84.48
308.877	53.76
309.091	72.19
309.305	59.9
309.519	31.23
309.733	100.86
309.947	2.56
310.161	94.72
310.374	78.33
310.588	113.15
310.802	-11.78
311.016	88.57
311.23	29.18
311.444	111.1
311.658	88.57
311.872	96.77
312.085	107.01
312.299	182.78
312.513	68.09
312.727	59.9
312.941	20.99
313.154	29.18
313.368	59.9
313.582	72.19
313.796	82.43
314.009	94.72
314.223	88.57
314.437	70.14
314.651	31.23
314.864	16.9
315.078	68.09
315.292	35.33
315.505	-13.82
315.719	35.33
315.933	35.33
316.146	39.42
316.36	10.75
316.573	90.62
316.787	37.38
317.001	12.8
317.214	18.94
317.428	2.56
317.641	61.95
317.855	43.52
318.068	59.9
318.282	104.96
318.495	109.05
318.709	74.24
318.922	35.33
319.136	59.9
319.349	152.06
319.563	84.48
319.776	117.25
319.99	10.75
320.203	68.09
320.417	18.94
320.63	166.4
320.843	96.77
321.057	80.38
321.27	49.66
321.483	2.56
321.697	45.57
321.91	12.8
322.124	20.99
322.337	43.52
322.55	51.71
322.763	10.75
322.977	51.71
323.19	76.29
323.403	68.09
323.617	133.63
323.83	68.09
324.043	23.04
324.256	76.29
324.469	45.57
324.683	117.25
324.896	55.81
325.109	111.1
325.322	-38.4
325.535	29.18
325.748	139.77
325.962	82.43
326.175	82.43
326.388	141.82
326.601	12.8
326.814	45.57
327.027	107.01
327.24	109.05
327.453	4.61
327.666	59.9
327.879	109.05
328.092	80.38
328.305	-11.78
328.518	10.75
328.731	27.14
328.944	-3.58
329.157	84.48
329.37	59.9
329.583	129.53
329.796	119.29
330.009	51.71
330.222	45.57
330.435	27.14
330.648	-1.54
330.861	51.71
331.073	20.99
331.286	70.14
331.499	100.86
331.712	43.52
331.925	-22.02
332.138	57.86
332.35	88.57
332.563	-1.54
332.776	100.86
332.989	51.71
333.202	57.86
333.414	51.71
333.627	12.8
333.84	78.33
334.053	18.94
334.265	-17.92
334.478	100.86
334.691	29.18
334.903	109.05
335.116	2.56
335.329	-3.58
335.541	-15.87
335.754	102.91
335.966	-52.74
336.179	117.25
336.392	4.61
336.604	64
336.817	92.67
337.029	35.33
337.242	-11.78
337.454	61.95
337.667	-7.68
337.88	92.67
338.092	90.62
338.305	49.66
338.517	8.7
338.729	78.33
338.942	111.1
339.154	2.56
339.367	2.56
339.579	47.62
339.792	45.57
340.004	86.53
340.217	39.42
340.429	70.14
340.641	35.33
340.854	14.85
341.066	12.8
341.278	119.29
341.491	84.48
341.703	68.09
341.915	80.38
342.128	129.53
342.34	94.72
342.552	70.14
342.764	111.1
342.977	158.21
343.189	61.95
343.401	64
343.613	59.9
343.826	39.42
344.038	-13.82
344.25	137.73
344.462	2.56
344.674	61.95
344.886	43.52
345.099	150.01
345.311	14.85
345.523	55.81
345.735	68.09
345.947	86.53
346.159	37.38
346.371	35.33
346.583	51.71
346.795	102.91
347.007	64
347.219	12.8
347.431	-17.92
347.643	35.33
347.855	72.19
348.067	174.59
348.279	84.48
348.491	68.09
348.703	88.57
348.915	104.96
349.127	12.8
349.339	70.14
349.551	-17.92
349.763	117.25
349.975	45.57
350.187	147.97
350.399	137.73
350.61	49.66
350.822	55.81
351.034	96.77
351.246	117.25
351.458	43.52
351.669	119.29
351.881	68.09
352.093	133.63
352.305	70.14
352.517	92.67
352.728	176.64
352.94	92.67
353.152	92.67
353.363	74.24
353.575	59.9
353.787	64
353.999	23.04
354.21	137.73
354.422	10.75
354.633	-30.21
354.845	53.76
355.057	43.52
355.268	86.53
355.48	57.86
355.692	43.52
355.903	-11.78
356.115	29.18
356.326	70.14
356.538	80.38
356.749	74.24
356.961	100.86
357.172	150.01
357.384	39.42
357.595	145.92
357.807	84.48
358.018	37.38
358.23	82.43
358.441	123.39
358.653	107.01
358.864	64
359.075	35.33
359.287	-9.73
359.498	125.44
359.709	76.29
359.921	10.75
360.132	35.33
360.344	76.29
360.555	64
360.766	-9.73
360.977	8.7
361.189	147.97
361.4	-3.58
361.611	80.38
361.823	147.97
362.034	51.71
362.245	43.52
362.456	-19.97
362.667	10.75
362.879	68.09
363.09	43.52
363.301	43.52
363.512	76.29
363.723	31.23
363.935	72.19
364.146	119.29
364.357	-1.54
364.568	174.59
364.779	-19.97
364.99	113.15
365.201	29.18
365.412	111.1
365.623	100.86
365.834	64
366.045	129.53
366.256	64
366.467	61.95
366.678	20.99
366.889	33.28
367.1	31.23
367.311	109.05
367.522	51.71
367.733	35.33
367.944	121.34
368.155	96.77
368.366	86.53
368.577	61.95
368.788	59.9
368.999	59.9
369.209	100.86
369.42	84.48
369.631	174.59
369.842	51.71
370.053	68.09
370.264	78.33
370.474	-3.58
370.685	27.14
370.896	35.33
371.107	104.96
371.317	102.91
371.528	76.29
371.739	109.05
371.95	82.43
372.16	29.18
372.371	31.23
372.582	25.09
372.792	98.81
373.003	88.57
373.214	51.71
373.424	111.1
373.635	68.09
373.846	43.52
374.056	66.05
374.267	92.67
374.477	70.14
374.688	27.14
374.898	51.71
375.109	80.38
375.319	43.52
375.53	96.77
375.74	121.34
375.951	-3.58
376.161	61.95
376.372	147.97
376.582	39.42
376.793	117.25
377.003	94.72
377.214	109.05
377.424	86.53
377.635	84.48
377.845	12.8
378.055	141.82
378.266	84.48
378.476	37.38
378.686	86.53
378.897	47.62
379.107	35.33
379.317	102.91
379.528	27.14
379.738	102.91
379.948	109.05
380.158	80.38
380.369	10.75
380.579	53.76
380.789	51.71
380.999	37.38
381.21	80.38
381.42	84.48
381.63	76.29
381.84	78.33
382.05	43.52
382.261	139.77
382.471	88.57
382.681	31.23
382.891	66.05
383.101	113.15
383.311	31.23
383.521	92.67
383.731	61.95
383.941	125.44
384.151	59.9
384.361	27.14
384.571	45.57
384.781	109.05
384.991	143.87
385.201	86.53
385.411	39.42
385.621	78.33
385.831	51.71
386.041	94.72
386.251	57.86
386.461	88.57
386.671	37.38
386.881	154.11
387.091	96.77
387.301	104.96
387.511	86.53
387.72	80.38
387.93	127.49
388.14	14.85
388.35	78.33
388.56	113.15
388.769	143.87
388.979	94.72
389.189	35.33
389.399	141.82
389.609	2.56
389.818	92.67
390.028	98.81
390.238	133.63
390.447	45.57
390.657	141.82
390.867	82.43
391.076	43.52
391.286	100.86
391.496	72.19
391.705	55.81
391.915	123.39
392.125	164.35
392.334	35.33
392.544	176.64
392.753	90.62
392.963	27.14
393.172	92.67
393.382	92.67
393.591	150.01
393.801	109.05
394.01	133.63
394.22	64
394.429	84.48
394.639	100.86
394.848	154.11
395.058	125.44
395.267	115.2
395.477	84.48
395.686	72.19
395.895	121.34
396.105	166.4
396.314	74.24
396.524	129.53
396.733	111.1
396.942	166.4
397.152	160.25
397.361	117.25
397.57	82.43
397.78	117.25
397.989	115.2
398.198	150.01
398.407	45.57
398.617	102.91
398.826	115.2
399.035	100.86
399.244	182.78
399.453	143.87
399.663	199.16
399.872	166.4
400.081	133.63
400.29	121.34
400.499	137.73
400.708	178.69
400.917	150.01
401.127	207.36
401.336	190.97
401.545	227.84
401.754	199.16
401.963	141.82
402.172	158.21
402.381	129.53
402.59	223.74
402.799	190.97
403.008	203.26
403.217	133.63
403.426	201.21
403.635	174.59
403.844	193.02
404.053	119.29
404.262	227.84
404.471	221.69
404.68	225.79
404.888	252.41
405.097	211.45
405.306	207.36
405.515	215.55
405.724	209.4
405.933	158.21
406.142	248.32
406.35	268.8
406.559	283.13
406.768	322.04
406.977	311.8
407.185	268.8
407.394	238.08
407.603	291.32
407.812	317.95
408.02	375.29
408.229	334.33
408.438	336.38
408.646	313.85
408.855	313.85
409.064	346.62
409.272	363
409.481	373.24
409.69	379.39
409.898	412.15
410.107	418.3
410.315	381.43
410.524	420.35
410.733	479.74
410.941	461.3
411.15	573.94
411.358	463.35
411.567	569.85
411.775	545.27
411.984	575.99
412.192	584.18
412.401	537.08
412.609	641.53
412.818	645.62
413.026	696.82
413.234	649.72
413.443	698.87
413.651	653.81
413.86	758.26
414.068	780.79
414.276	932.34
414.485	815.6
414.693	874.99
414.901	938.48
415.11	885.23
415.318	938.48
415.526	1044.98
415.734	1061.36
415.943	1022.45
416.151	1190.38
416.359	1061.36
416.567	1167.85
416.776	1190.38
416.984	1249.77
417.192	1296.88
417.4	1333.74
417.608	1393.13
417.817	1434.09
418.025	1487.34
418.233	1624.55
418.441	1511.91
418.649	1681.89
418.857	1815.01
419.065	1774.05
419.273	1714.66
419.481	1765.86
419.689	1925.6
419.897	2091.49
420.105	1982.95
420.313	2148.83
420.521	2294.24
420.729	2273.76
420.937	2185.69
421.145	2370.01
421.353	2492.89
421.561	2640.34
421.769	2646.49
421.977	2724.31
422.185	2779.61
422.393	2904.53
422.601	3078.61
422.809	3209.68
423.017	3144.14
423.224	3160.53
423.432	3328.46
423.64	3267.02
423.848	3680.71
424.056	3600.84
424.263	3781.06
424.471	3699.14
424.679	3992
424.887	4133.31
425.094	4186.56
425.302	4301.25
425.51	4454.84
425.718	4610.49
425.925	4643.26
426.133	4796.85
426.341	5026.23
426.548	5274.03
426.756	5282.22
426.964	5401.01
427.171	5491.12
427.379	5710.25
427.586	5818.79
427.794	6115.75
428.001	6244.77
428.209	6633.88
428.417	6408.61
428.624	6973.85
428.832	6963.61
429.039	6928.79
429.247	6789.53
429.454	7666.06
429.662	8059.27
429.869	7528.85
430.076	7981.45
430.284	7881.1
430.491	8063.36
430.699	8499.58
430.906	8659.32
431.114	8536.45
431.321	8939.9
431.528	9261.43
431.736	9853.29
431.943	10275.17
432.15	9906.54
432.358	10015.08
432.565	10592.61
432.772	10680.67
432.979	11032.92
433.187	11266.39
433.394	11176.28
433.601	11977.03
433.808	12056.9
434.016	12196.17
434.223	12423.49
434.43	13062.46
434.637	13285.69
434.844	13785.39
435.052	14055.72
435.259	14039.34
435.466	14252.33
435.673	14119.21
435.88	14702.88
436.087	15544.59
436.294	15405.33
436.501	15300.89
436.708	15401.24
436.915	16288.01
437.122	16765.18
437.329	16816.38
437.537	17369.33
437.743	17694.96
437.95	17441.01
438.157	18274.54
438.364	18733.28
438.571	18981.09
438.778	18950.37
438.985	20842.69
439.192	20218.06
439.399	20357.32
439.606	20156.62
439.813	21203.13
440.02	22581.42
440.227	22139.05
440.433	21723.32
440.64	22745.25
440.847	22565.03
441.054	23128.22
441.261	24475.79
441.467	24270.99
441.674	24674.44
441.881	25716.86
442.088	25550.97
442.294	25546.87
442.501	25968.76
442.708	25995.38
442.914	27435.1
443.121	28743.75
443.328	27664.47
443.534	29737.02
443.741	29038.66
443.948	28242
444.154	30603.31
444.361	30029.88
444.568	30064.69
444.774	30431.28
444.981	30707.76
445.187	31672.35
445.394	33454.08
445.6	32817.16
445.807	35594.21
446.013	33945.59
446.22	34822.12
446.426	36290.52
446.633	36349.91
446.839	37838.78
447.046	35889.12
447.252	38199.23
447.459	38430.65
447.665	37529.54
447.871	39753.63
448.078	41383.82
448.284	39387.05
448.491	40574.87
448.697	41983.87
448.903	42704.76
449.11	42794.87
449.316	42157.95
449.522	43038.58
449.728	44210.01
449.935	44644.18
450.141	44117.85
450.347	45195.09
450.553	44001.12
450.76	44359.52
450.966	46088
451.172	44951.38
451.378	46614.33
451.584	45832
451.791	46942
451.997	46899
452.203	46978.87
452.409	47357.74
452.615	47136.56
452.821	45227.85
453.027	44951.38
453.233	47300.4
453.44	45600.58
453.646	46206.78
453.852	45987.65
454.058	47202.1
454.264	45281.1
454.47	46323.52
454.676	45066.06
454.882	46806.84
455.088	42876.79
455.294	43399.02
455.5	44130.14
455.705	44728.15
455.911	42653.56
456.117	41813.89
456.323	41334.67
456.529	39417.77
456.735	41160.59
456.941	39976.86
457.147	39622.56
457.352	38285.24
457.558	38016.96
457.764	37769.15
457.97	37085.13
458.176	36405.2
458.381	36515.79
458.587	34586.61
458.793	34678.77
458.999	32858.12
459.204	35323.88
459.41	34213.88
459.616	31899.67
459.821	32184.34
460.027	31684.64
460.233	30939.18
460.438	29571.13
460.644	29704.25
460.85	28485.71
461.055	28049.49
461.261	28016.72
461.466	25968.76
461.672	25313.41
461.878	27019.36
462.083	25143.42
462.289	24645.77
462.494	24367.24
462.7	23023.78
462.905	22890.66
463.111	23486.62
463.316	23646.36
463.522	22683.81
463.727	22786.21
463.932	23156.89
464.138	22892.71
464.343	22845.6
464.549	21811.38
464.754	23066.78
464.959	22837.41
465.165	22519.98
465.37	21547.19
465.575	20990.14
465.781	21751.99
465.986	21821.62
466.191	20814.02
466.397	20615.37
466.602	19591.38
