Data from USB4F104151__216__14-33-48-914.txt Node

Date: Thu Mar 13 14:33:48 EDT 2025
User: louis
Spectrometer: USB4F10415
Trigger mode: 4
Integration Time (sec): 2.500000E-2
Scans to average: 1
Electric dark correction enabled: true
Nonlinearity correction enabled: false
Boxcar width: 0
XAxis mode: Wavelengths
Number of Pixels in Spectrum: 3648
>>>>>Begin Spectral Data<<<<<
178.204	-110.59
178.424	-110.59
178.644	-110.59
178.864	-126.97
179.084	-151.55
179.304	-6.14
179.524	-14.34
179.744	-18.43
179.964	59.39
180.184	-18.43
180.404	6.14
180.624	18.43
180.844	-14.34
181.064	-20.48
181.283	49.15
181.503	-18.43
181.723	-22.53
181.943	-63.49
182.163	157.69
182.383	20.48
182.602	104.45
182.822	26.62
183.042	83.97
183.262	-30.72
183.482	36.86
183.701	61.44
183.921	30.72
184.141	26.62
184.361	55.3
184.58	51.2
184.8	18.43
185.02	47.1
185.239	110.59
185.459	81.92
185.679	124.93
185.898	-14.34
186.118	86.01
186.338	43.01
186.557	77.82
186.777	-22.53
186.997	65.54
187.216	18.43
187.436	116.73
187.655	12.29
187.875	20.48
188.095	122.88
188.314	100.35
188.534	67.58
188.753	43.01
188.973	102.4
189.192	90.11
189.412	75.77
189.631	73.73
189.851	45.06
190.07	116.73
190.29	-8.19
190.509	110.59
190.729	92.16
190.948	94.21
191.168	153.6
191.387	77.82
191.607	53.25
191.826	114.69
192.045	53.25
192.265	75.77
192.484	92.16
192.704	55.3
192.923	6.14
193.142	188.41
193.362	126.97
193.581	104.45
193.8	38.91
194.02	114.69
194.239	49.15
194.458	83.97
194.678	18.43
194.897	61.44
195.116	-24.58
195.335	40.96
195.555	38.91
195.774	-20.48
195.993	118.78
196.212	49.15
196.432	51.2
196.651	83.97
196.87	57.34
197.089	157.69
197.308	106.49
197.528	129.02
197.747	57.34
197.966	116.73
198.185	139.26
198.404	22.53
198.623	120.83
198.842	102.4
199.062	71.68
199.281	67.58
199.5	51.2
199.719	14.34
199.938	135.17
200.157	90.11
200.376	88.06
200.595	51.2
200.814	71.68
201.033	-28.67
201.252	69.63
201.471	2.05
201.69	88.06
201.909	67.58
202.128	108.54
202.347	55.3
202.566	61.44
202.785	100.35
203.004	67.58
203.223	157.69
203.442	96.25
203.661	4.1
203.879	2.05
204.098	141.31
204.317	59.39
204.536	38.91
204.755	116.73
204.974	124.93
205.193	102.4
205.411	221.18
205.63	65.54
205.849	79.87
206.068	69.63
206.287	61.44
206.505	86.01
206.724	28.67
206.943	-18.43
207.162	120.83
207.381	69.63
207.599	24.58
207.818	88.06
208.037	28.67
208.255	22.53
208.474	28.67
208.693	135.17
208.911	108.54
209.13	69.63
209.349	116.73
209.567	104.45
209.786	133.12
210.005	96.25
210.223	94.21
210.442	83.97
210.661	43.01
210.879	-10.24
211.098	94.21
211.316	88.06
211.535	75.77
211.753	135.17
211.972	30.72
212.191	30.72
212.409	79.87
212.628	63.49
212.846	10.24
213.065	59.39
213.283	126.97
213.502	86.01
213.72	120.83
213.938	24.58
214.157	102.4
214.375	163.84
214.594	36.86
214.812	100.35
215.031	116.73
215.249	-26.62
215.467	59.39
215.686	57.34
215.904	102.4
216.122	83.97
216.341	2.05
216.559	79.87
216.778	126.97
216.996	73.73
217.214	65.54
217.432	36.86
217.651	100.35
217.869	86.01
218.087	108.54
218.306	28.67
218.524	43.01
218.742	71.68
218.96	47.1
219.179	75.77
219.397	79.87
219.615	149.5
219.833	59.39
220.051	-4.1
220.27	116.73
220.488	75.77
220.706	94.21
220.924	83.97
221.142	96.25
221.36	32.77
221.578	14.34
221.796	83.97
222.015	129.02
222.233	71.68
222.451	100.35
222.669	-40.96
222.887	92.16
223.105	51.2
223.323	108.54
223.541	63.49
223.759	131.07
223.977	110.59
224.195	114.69
224.413	53.25
224.631	32.77
224.849	77.82
225.067	88.06
225.285	14.34
225.503	67.58
225.721	6.14
225.939	28.67
226.157	71.68
226.375	102.4
226.592	10.24
226.81	67.58
227.028	88.06
227.246	129.02
227.464	149.5
227.682	45.06
227.9	65.54
228.117	36.86
228.335	51.2
228.553	69.63
228.771	59.39
228.989	100.35
229.206	53.25
229.424	18.43
229.642	18.43
229.86	47.1
230.077	67.58
230.295	57.34
230.513	102.4
230.731	96.25
230.948	26.62
231.166	112.64
231.384	120.83
231.601	126.97
231.819	30.72
232.037	-6.14
232.254	28.67
232.472	-45.06
232.689	49.15
232.907	141.31
233.125	124.93
233.342	69.63
233.56	59.39
233.777	110.59
233.995	18.43
234.213	30.72
234.43	92.16
234.648	22.53
234.865	-6.14
235.083	45.06
235.3	63.49
235.518	43.01
235.735	43.01
235.953	83.97
236.17	96.25
236.388	120.83
236.605	98.3
236.822	75.77
237.04	75.77
237.257	22.53
237.475	96.25
237.692	43.01
237.909	24.58
238.127	83.97
238.344	108.54
238.562	67.58
238.779	10.24
238.996	55.3
239.214	28.67
239.431	206.84
239.648	-45.06
239.865	149.5
240.083	88.06
240.3	51.2
240.517	116.73
240.735	88.06
240.952	112.64
241.169	126.97
241.386	53.25
241.603	43.01
241.821	30.72
242.038	51.2
242.255	53.25
242.472	2.05
242.689	47.1
242.907	102.4
243.124	139.26
243.341	61.44
243.558	28.67
243.775	86.01
243.992	63.49
244.209	53.25
244.426	149.5
244.643	36.86
244.86	22.53
245.078	159.74
245.295	120.83
245.512	75.77
245.729	100.35
245.946	155.65
246.163	59.39
246.38	61.44
246.597	67.58
246.814	153.6
247.031	38.91
247.248	120.83
247.464	43.01
247.681	86.01
247.898	65.54
248.115	16.38
248.332	90.11
248.549	137.21
248.766	174.08
248.983	102.4
249.2	61.44
249.417	71.68
249.633	28.67
249.85	110.59
250.067	100.35
250.284	2.05
250.501	96.25
250.717	71.68
250.934	-14.34
251.151	77.82
251.368	167.93
251.585	59.39
251.801	51.2
252.018	69.63
252.235	59.39
252.451	86.01
252.668	6.14
252.885	75.77
253.102	86.01
253.318	100.35
253.535	-26.62
253.752	51.2
253.968	67.58
254.185	59.39
254.401	122.88
254.618	28.67
254.835	133.12
255.051	137.21
255.268	100.35
255.484	83.97
255.701	90.11
255.917	61.44
256.134	67.58
256.351	77.82
256.567	67.58
256.784	98.3
257	-22.53
257.217	53.25
257.433	129.02
257.65	75.77
257.866	106.49
258.082	38.91
258.299	16.38
258.515	51.2
258.732	135.17
258.948	49.15
259.165	126.97
259.381	100.35
259.597	24.58
259.814	16.38
260.03	26.62
260.246	59.39
260.463	77.82
260.679	133.12
260.895	100.35
261.112	102.4
261.328	43.01
261.544	45.06
261.761	104.45
261.977	10.24
262.193	22.53
262.409	182.27
262.626	100.35
262.842	133.12
263.058	110.59
263.274	104.45
263.49	-14.34
263.707	133.12
263.923	59.39
264.139	145.41
264.355	59.39
264.571	106.49
264.787	34.82
265.004	110.59
265.22	34.82
265.436	32.77
265.652	51.2
265.868	94.21
266.084	59.39
266.3	51.2
266.516	43.01
266.732	108.54
266.948	75.77
267.164	106.49
267.38	135.17
267.596	94.21
267.812	137.21
268.028	83.97
268.244	-14.34
268.46	106.49
268.676	126.97
268.892	94.21
269.108	59.39
269.324	-14.34
269.54	14.34
269.756	120.83
269.972	40.96
270.188	43.01
270.403	67.58
270.619	51.2
270.835	133.12
271.051	92.16
271.267	63.49
271.483	112.64
271.698	124.93
271.914	81.92
272.13	16.38
272.346	75.77
272.562	92.16
272.777	149.5
272.993	-6.14
273.209	38.91
273.425	88.06
273.64	124.93
273.856	51.2
274.072	86.01
274.287	16.38
274.503	116.73
274.719	38.91
274.934	129.02
275.15	51.2
275.366	49.15
275.581	-12.29
275.797	77.82
276.012	135.17
276.228	-2.05
276.444	43.01
276.659	124.93
276.875	18.43
277.09	6.14
277.306	59.39
277.521	40.96
277.737	16.38
277.952	129.02
278.168	83.97
278.383	118.78
278.599	69.63
278.814	120.83
279.03	126.97
279.245	172.03
279.461	92.16
279.676	161.79
279.892	-47.1
280.107	86.01
280.322	116.73
280.538	45.06
280.753	75.77
280.969	100.35
281.184	71.68
281.399	83.97
281.615	63.49
281.83	143.36
282.045	55.3
282.26	51.2
282.476	88.06
282.691	108.54
282.906	83.97
283.122	126.97
283.337	20.48
283.552	165.89
283.767	18.43
283.983	141.31
284.198	69.63
284.413	86.01
284.628	59.39
284.843	110.59
285.058	110.59
285.274	59.39
285.489	47.1
285.704	149.5
285.919	75.77
286.134	169.98
286.349	18.43
286.564	43.01
286.779	135.17
286.995	28.67
287.21	38.91
287.425	145.41
287.64	43.01
287.855	102.4
288.07	-18.43
288.285	34.82
288.5	75.77
288.715	94.21
288.93	63.49
289.145	59.39
289.36	157.69
289.575	94.21
289.79	145.41
290.004	53.25
290.219	169.98
290.434	83.97
290.649	-2.05
290.864	18.43
291.079	28.67
291.294	75.77
291.509	90.11
291.724	26.62
291.938	49.15
292.153	67.58
292.368	108.54
292.583	83.97
292.798	100.35
293.012	73.73
293.227	219.13
293.442	55.3
293.657	-12.29
293.871	71.68
294.086	167.93
294.301	167.93
294.516	86.01
294.73	71.68
294.945	30.72
295.16	100.35
295.374	106.49
295.589	86.01
295.804	102.4
296.018	10.24
296.233	100.35
296.447	88.06
296.662	102.4
296.877	86.01
297.091	108.54
297.306	53.25
297.52	108.54
297.735	96.25
297.949	53.25
298.164	69.63
298.378	28.67
298.593	63.49
298.807	100.35
299.022	77.82
299.236	104.45
299.451	83.97
299.665	133.12
299.88	59.39
300.094	59.39
300.309	75.77
300.523	94.21
300.737	59.39
300.952	104.45
301.166	176.13
301.381	18.43
301.595	129.02
301.809	57.34
302.024	34.82
302.238	92.16
302.452	108.54
302.667	40.96
302.881	116.73
303.095	143.36
303.309	69.63
303.524	57.34
303.738	81.92
303.952	43.01
304.166	75.77
304.381	-22.53
304.595	118.78
304.809	118.78
305.023	133.12
305.237	55.3
305.452	86.01
305.666	133.12
305.88	63.49
306.094	133.12
306.308	100.35
306.522	63.49
306.736	71.68
306.95	77.82
307.164	116.73
307.379	36.86
307.593	45.06
307.807	126.97
308.021	153.6
308.235	30.72
308.449	47.1
308.663	32.77
308.877	108.54
309.091	92.16
309.305	137.21
309.519	-71.68
309.733	75.77
309.947	12.29
310.161	114.69
310.374	94.21
310.588	73.73
310.802	63.49
311.016	96.25
311.23	124.93
311.444	28.67
311.658	36.86
311.872	83.97
312.085	43.01
312.299	75.77
312.513	88.06
312.727	55.3
312.941	45.06
313.154	51.2
313.368	104.45
313.582	30.72
313.796	92.16
314.009	83.97
314.223	32.77
314.437	61.44
314.651	124.93
314.864	124.93
315.078	-16.38
315.292	65.54
315.505	124.93
315.719	108.54
315.933	94.21
316.146	90.11
316.36	96.25
316.573	112.64
316.787	143.36
317.001	102.4
317.214	88.06
317.428	92.16
317.641	75.77
317.855	90.11
318.068	30.72
318.282	83.97
318.495	133.12
318.709	61.44
318.922	79.87
319.136	186.37
319.349	100.35
319.563	43.01
319.776	163.84
319.99	57.34
320.203	86.01
320.417	145.41
320.63	30.72
320.843	147.45
321.057	71.68
321.27	71.68
321.483	126.97
321.697	77.82
321.91	124.93
322.124	57.34
322.337	30.72
322.55	67.58
322.763	116.73
322.977	47.1
323.19	14.34
323.403	92.16
323.617	135.17
323.83	188.41
324.043	94.21
324.256	71.68
324.469	75.77
324.683	110.59
324.896	63.49
325.109	90.11
325.322	20.48
325.535	116.73
325.748	100.35
325.962	96.25
326.175	116.73
326.388	98.3
326.601	100.35
326.814	75.77
327.027	83.97
327.24	100.35
327.453	40.96
327.666	131.07
327.879	124.93
328.092	116.73
328.305	67.58
328.518	94.21
328.731	110.59
328.944	83.97
329.157	155.65
329.37	90.11
329.583	169.98
329.796	129.02
330.009	-38.91
330.222	110.59
330.435	92.16
330.648	96.25
330.861	116.73
331.073	67.58
331.286	116.73
331.499	59.39
331.712	12.29
331.925	81.92
332.138	98.3
332.35	124.93
332.563	34.82
332.776	176.13
332.989	-18.43
333.202	71.68
333.414	118.78
333.627	96.25
333.84	71.68
334.053	71.68
334.265	67.58
334.478	108.54
334.691	124.93
334.903	79.87
335.116	145.41
335.329	96.25
335.541	124.93
335.754	174.08
335.966	2.05
336.179	55.3
336.392	12.29
336.604	24.58
336.817	147.45
337.029	94.21
337.242	22.53
337.454	112.64
337.667	135.17
337.88	147.45
338.092	51.2
338.305	141.31
338.517	110.59
338.729	133.12
338.942	86.01
339.154	47.1
339.367	24.58
339.579	69.63
339.792	69.63
340.004	86.01
340.217	110.59
340.429	116.73
340.641	53.25
340.854	118.78
341.066	59.39
341.278	116.73
341.491	86.01
341.703	73.73
341.915	30.72
342.128	69.63
342.34	86.01
342.552	0
342.764	34.82
342.977	92.16
343.189	169.98
343.401	124.93
343.613	67.58
343.826	155.65
344.038	22.53
344.25	83.97
344.462	75.77
344.674	139.26
344.886	81.92
345.099	110.59
345.311	108.54
345.523	61.44
345.735	53.25
345.947	55.3
346.159	36.86
346.371	100.35
346.583	36.86
346.795	149.5
347.007	100.35
347.219	110.59
347.431	149.5
347.643	112.64
347.855	94.21
348.067	118.78
348.279	59.39
348.491	75.77
348.703	26.62
348.915	18.43
349.127	40.96
349.339	83.97
349.551	34.82
349.763	122.88
349.975	86.01
350.187	141.31
350.399	133.12
350.61	139.26
350.822	12.29
351.034	133.12
351.246	161.79
351.458	118.78
351.669	118.78
351.881	83.97
352.093	92.16
352.305	149.5
352.517	149.5
352.728	165.89
352.94	120.83
353.152	143.36
353.363	75.77
353.575	59.39
353.787	116.73
353.999	143.36
354.21	167.93
354.422	67.58
354.633	26.62
354.845	71.68
355.057	59.39
355.268	124.93
355.48	92.16
355.692	43.01
355.903	61.44
356.115	67.58
356.326	65.54
356.538	88.06
356.749	159.74
356.961	51.2
357.172	71.68
357.384	149.5
357.595	159.74
357.807	79.87
358.018	161.79
358.23	116.73
358.441	141.31
358.653	114.69
358.864	139.26
359.075	30.72
359.287	145.41
359.498	124.93
359.709	69.63
359.921	133.12
360.132	100.35
360.344	100.35
360.555	83.97
360.766	167.93
360.977	106.49
361.189	149.5
361.4	92.16
361.611	124.93
361.823	141.31
362.034	143.36
362.245	71.68
362.456	57.34
362.667	110.59
362.879	20.48
363.09	94.21
363.301	79.87
363.512	178.17
363.723	94.21
363.935	61.44
364.146	151.55
364.357	131.07
364.568	92.16
364.779	40.96
364.99	92.16
365.201	69.63
365.412	110.59
365.623	22.53
365.834	69.63
366.045	104.45
366.256	86.01
366.467	104.45
366.678	126.97
366.889	81.92
367.1	124.93
367.311	110.59
367.522	36.86
367.733	67.58
367.944	100.35
368.155	79.87
368.366	192.51
368.577	110.59
368.788	118.78
368.999	22.53
369.209	108.54
369.42	135.17
369.631	256
369.842	118.78
370.053	69.63
370.264	200.7
370.474	67.58
370.685	143.36
370.896	71.68
371.107	139.26
371.317	83.97
371.528	96.25
371.739	124.93
371.95	116.73
372.16	94.21
372.371	10.24
372.582	92.16
372.792	129.02
373.003	61.44
373.214	83.97
373.424	88.06
373.635	75.77
373.846	149.5
374.056	126.97
374.267	69.63
374.477	98.3
374.688	22.53
374.898	204.8
375.109	126.97
375.319	65.54
375.53	161.79
375.74	79.87
375.951	161.79
376.161	102.4
376.372	124.93
376.582	22.53
376.793	165.89
377.003	133.12
377.214	104.45
377.424	169.98
377.635	126.97
377.845	88.06
378.055	182.27
378.266	92.16
378.476	53.25
378.686	126.97
378.897	92.16
379.107	120.83
379.317	71.68
379.528	110.59
379.738	79.87
379.948	71.68
380.158	75.77
380.369	73.73
380.579	92.16
380.789	59.39
380.999	98.3
381.21	225.28
381.42	165.89
381.63	53.25
381.84	137.21
382.05	118.78
382.261	176.13
382.471	159.74
382.681	20.48
382.891	131.07
383.101	190.46
383.311	79.87
383.521	12.29
383.731	94.21
383.941	159.74
384.151	176.13
384.361	92.16
384.571	86.01
384.781	108.54
384.991	139.26
385.201	200.7
385.411	141.31
385.621	-14.34
385.831	188.41
386.041	161.79
386.251	104.45
386.461	141.31
386.671	92.16
386.881	198.65
387.091	86.01
387.301	143.36
387.511	88.06
387.72	151.55
387.93	178.17
388.14	126.97
388.35	88.06
388.56	112.64
388.769	94.21
388.979	102.4
389.189	114.69
389.399	108.54
389.609	120.83
389.818	88.06
390.028	165.89
390.238	79.87
390.447	139.26
390.657	163.84
390.867	120.83
391.076	53.25
391.286	104.45
391.496	172.03
391.705	108.54
391.915	192.51
392.125	153.6
392.334	102.4
392.544	161.79
392.753	120.83
392.963	157.69
393.172	102.4
393.382	92.16
393.591	190.46
393.801	124.93
394.01	174.08
394.22	83.97
394.429	141.31
394.639	145.41
394.848	169.98
395.058	206.84
395.267	126.97
395.477	153.6
395.686	149.5
395.895	202.75
396.105	176.13
396.314	94.21
396.524	116.73
396.733	112.64
396.942	151.55
397.152	196.61
397.361	192.51
397.57	118.78
397.78	145.41
397.989	157.69
398.198	159.74
398.407	112.64
398.617	184.32
398.826	182.27
399.035	118.78
399.244	202.75
399.453	233.47
399.663	192.51
399.872	176.13
400.081	159.74
400.29	118.78
400.499	169.98
400.708	260.09
400.917	247.8
401.127	223.23
401.336	208.89
401.545	286.72
401.754	241.66
401.963	241.66
402.172	241.66
402.381	184.32
402.59	241.66
402.799	165.89
403.008	235.52
403.217	206.84
403.426	258.04
403.635	249.85
403.844	337.91
404.053	208.89
404.262	169.98
404.471	337.91
404.68	221.18
404.888	323.58
405.097	184.32
405.306	235.52
405.515	321.53
405.724	268.28
405.933	276.48
406.142	288.76
406.35	339.96
406.559	352.25
406.768	290.81
406.977	337.91
407.185	346.11
407.394	370.68
407.603	335.87
407.812	405.5
408.02	337.91
408.229	460.79
408.438	401.4
408.646	460.79
408.855	387.07
409.064	395.26
409.272	446.46
409.481	501.75
409.69	405.5
409.898	518.14
410.107	534.52
410.315	518.14
410.524	466.94
410.733	550.9
410.941	448.51
411.15	632.82
411.358	511.99
411.567	694.26
411.775	645.11
411.984	657.4
412.192	706.55
412.401	708.6
412.609	747.51
412.818	792.56
413.026	854
413.234	837.62
413.443	782.32
413.651	888.82
413.86	923.63
414.068	913.39
414.276	1030.13
414.485	985.07
414.693	903.15
414.901	1103.86
415.11	1101.81
415.318	1069.04
415.526	1093.62
415.734	1243.12
415.943	1222.64
416.151	1308.65
416.359	1310.7
416.567	1288.17
416.776	1390.57
416.984	1505.26
417.192	1529.83
417.4	1615.85
417.608	1562.6
417.817	1597.42
418.025	1708.01
418.233	1859.56
418.441	1824.74
418.649	1888.23
418.857	2101.22
419.065	1968.1
419.273	1931.23
419.481	2136.03
419.689	2260.96
419.897	2232.29
420.105	2371.55
420.313	2363.36
420.521	2453.47
420.729	2625.5
420.937	2707.41
421.145	2721.75
421.353	2770.9
421.561	2977.75
421.769	3033.04
421.977	3135.44
422.185	3180.5
422.393	3272.65
422.601	3520.46
422.809	3428.3
423.017	3493.83
423.224	3704.78
423.432	3928
423.64	3868.61
423.848	4140.99
424.056	4247.49
424.263	4351.93
424.471	4556.73
424.679	4569.02
424.887	4765.62
425.094	4927.41
425.302	4927.41
425.51	5097.39
425.718	5334.96
425.925	5271.47
426.133	5535.66
426.341	5826.47
426.548	6000.55
426.756	6080.42
426.964	6160.29
427.171	6467.49
427.379	6629.27
427.586	6735.77
427.794	7081.88
428.001	7407.5
428.209	7716.75
428.417	7530.38
428.624	7995.27
428.832	8114.05
429.039	7976.84
429.247	8044.42
429.454	8746.87
429.662	9408.37
429.869	8591.23
430.076	9377.65
430.284	9099.13
430.491	9385.84
430.699	9885.55
430.906	9926.5
431.114	10186.6
431.321	10514.27
431.528	10817.37
431.736	11347.79
431.943	11794.25
432.15	11646.8
432.358	11601.74
432.565	12289.86
432.772	12422.98
432.979	12896.06
433.187	13004.6
433.394	13207.35
433.601	13678.38
433.808	14227.24
434.016	13922.09
434.223	14620.45
434.43	15232.79
434.637	15423.25
434.844	16164.62
435.052	16420.61
435.259	16338.69
435.466	16418.57
435.673	16389.89
435.88	17374.97
436.087	18304.74
436.294	18337.51
436.501	17968.88
436.708	17981.17
436.915	18599.65
437.122	19773.14
437.329	19695.32
437.537	20307.66
437.743	20651.72
437.95	20182.73
438.157	21464.76
438.364	22095.53
438.571	21997.23
438.778	21962.42
438.985	23996.05
439.192	23158.43
439.399	24166.03
439.606	23209.63
439.813	24845.96
440.02	26183.28
440.227	25568.89
440.433	25529.98
440.64	26269.3
440.847	25947.76
441.054	26521.2
441.261	28614.22
441.467	28321.36
441.674	28851.78
441.881	30002.74
442.088	29836.86
442.294	29343.3
442.501	29853.24
442.708	30766.63
442.914	32173.59
443.121	33068.55
443.328	32212.5
443.534	34602.48
443.741	33797.63
443.948	33107.46
444.154	35786.21
444.361	35542.5
444.568	35415.52
444.774	35880.41
444.981	36169.18
445.187	36933.07
445.394	38591.92
445.6	38526.39
445.807	41639.3
446.013	39898.53
446.22	40699.28
446.426	42265.98
446.633	42368.38
446.839	43289.96
447.046	42067.33
447.252	44072.29
447.459	44281.18
447.665	44332.38
447.871	46265.66
448.078	47887.65
448.284	45960.51
448.491	47090.99
448.697	48588.06
448.903	49607.95
449.11	49493.26
449.316	49263.89
449.522	49831.18
449.728	51143.92
449.935	51291.38
450.141	51156.21
450.347	52075.75
450.553	50386.18
450.76	51547.37
450.966	52579.55
451.172	52288.74
451.378	53873.87
451.584	52819.16
451.791	54111.43
451.997	53750.99
452.203	54557.89
452.409	54582.46
452.615	54373.57
452.821	52428
453.027	51975.4
453.233	54381.76
453.44	52165.86
453.646	53005.53
453.852	52935.9
454.058	53599.44
454.264	52722.91
454.47	53425.36
454.676	52131.04
454.882	53972.17
455.088	49249.55
455.294	49870.09
455.5	50742.52
455.705	50740.47
455.911	49110.29
456.117	48278.82
456.323	47815.97
456.529	45495.63
456.735	47275.31
456.941	45669.7
457.147	45227.34
457.352	43441.51
457.558	43261.29
457.764	43371.88
457.97	42651
458.176	41905.54
458.381	41590.15
458.587	39589.28
458.793	39507.37
458.999	37592.51
459.204	40220.06
459.41	39249.32
459.616	36814.29
459.821	36603.35
460.027	36498.9
460.233	35524.07
460.438	34106.87
460.644	34211.32
460.85	32824.84
461.055	32581.13
461.261	32269.84
461.466	29922.87
461.672	28970.57
461.878	31186.47
462.083	29146.69
462.289	28522.06
462.494	28051.03
462.7	26850.92
462.905	26349.17
463.111	27178.59
463.316	27063.91
463.522	26687.08
