Data from USB4F104151__191__14-33-05-358.txt Node

Date: Thu Mar 13 14:33:05 EDT 2025
User: louis
Spectrometer: USB4F10415
Trigger mode: 4
Integration Time (sec): 2.500000E-2
Scans to average: 1
Electric dark correction enabled: true
Nonlinearity correction enabled: false
Boxcar width: 0
XAxis mode: Wavelengths
Number of Pixels in Spectrum: 3648
>>>>>Begin Spectral Data<<<<<
178.204	-126.29
178.424	-126.29
178.644	-126.29
178.864	-107.86
179.084	-165.2
179.304	-1.37
179.524	-36.18
179.744	-54.61
179.964	72.36
180.184	-1.37
180.404	45.74
180.624	72.36
180.844	-11.61
181.064	-73.04
181.283	55.98
181.503	-52.56
181.723	-15.7
181.943	-1.37
182.163	17.07
182.383	-3.41
182.602	94.89
182.822	131.75
183.042	-36.18
183.262	53.93
183.482	-13.65
183.701	105.13
183.921	-11.61
184.141	12.97
184.361	21.16
184.58	70.31
184.8	72.36
185.02	-50.52
185.239	0.68
185.459	39.59
185.679	94.89
185.898	29.35
186.118	98.99
186.338	-9.56
186.557	62.12
186.777	-11.61
186.997	39.59
187.216	47.79
187.436	64.17
187.655	-11.61
187.875	62.12
188.095	4.78
188.314	23.21
188.534	19.11
188.753	146.09
188.973	-85.33
189.192	39.59
189.412	29.35
189.631	49.83
189.851	70.31
190.07	80.55
190.29	-75.09
190.509	-36.18
190.729	-19.8
190.948	37.55
191.168	119.46
191.387	37.55
191.607	-15.7
191.826	19.11
192.045	8.87
192.265	45.74
192.484	-3.41
192.704	6.83
192.923	27.31
193.142	25.26
193.362	84.65
193.581	25.26
193.8	90.79
194.02	15.02
194.239	94.89
194.458	27.31
194.678	-56.66
194.897	31.4
195.116	15.02
195.335	37.55
195.555	45.74
195.774	-19.8
195.993	86.7
196.212	51.88
196.432	17.07
196.651	49.83
196.87	-1.37
197.089	49.83
197.308	72.36
197.528	-5.46
197.747	-91.48
197.966	78.51
198.185	37.55
198.404	4.78
198.623	23.21
198.842	41.64
199.062	51.88
199.281	10.92
199.5	-19.8
199.719	60.07
199.938	-52.56
200.157	58.03
200.376	62.12
200.595	12.97
200.814	35.5
201.033	-60.76
201.252	45.74
201.471	-32.08
201.69	121.51
201.909	29.35
202.128	21.16
202.347	25.26
202.566	47.79
202.785	-9.56
203.004	33.45
203.223	84.65
203.442	-9.56
203.661	-17.75
203.879	2.73
204.098	35.5
204.317	-40.28
204.536	55.98
204.755	25.26
204.974	39.59
205.193	111.27
205.411	4.78
205.63	27.31
205.849	15.02
206.068	-9.56
206.287	-25.94
206.505	96.94
206.724	31.4
206.943	-7.51
207.162	-23.89
207.381	-38.23
207.599	-36.18
207.818	25.26
208.037	37.55
208.255	-11.61
208.474	31.4
208.693	21.16
208.911	-5.46
209.13	41.64
209.349	6.83
209.567	-3.41
209.786	103.08
210.005	4.78
210.223	-36.18
210.442	-3.41
210.661	62.12
210.879	31.4
211.098	-9.56
211.316	-1.37
211.535	70.31
211.753	37.55
211.972	55.98
212.191	-1.37
212.409	45.74
212.628	6.83
212.846	15.02
213.065	55.98
213.283	72.36
213.502	-52.56
213.72	-52.56
213.938	21.16
214.157	94.89
214.375	45.74
214.594	45.74
214.812	-19.8
215.031	-56.66
215.249	66.22
215.467	-1.37
215.686	31.4
215.904	58.03
216.122	25.26
216.341	33.45
216.559	23.21
216.778	23.21
216.996	55.98
217.214	21.16
217.432	31.4
217.651	-11.61
217.869	-7.51
218.087	47.79
218.306	31.4
218.524	31.4
218.742	-60.76
218.96	31.4
219.179	-38.23
219.397	-9.56
219.615	15.02
219.833	80.55
220.051	-25.94
220.27	68.27
220.488	29.35
220.706	6.83
220.924	21.16
221.142	-75.09
221.36	90.79
221.578	62.12
221.796	0.68
222.015	27.31
222.233	29.35
222.451	4.78
222.669	-15.7
222.887	96.94
223.105	12.97
223.323	-19.8
223.541	-34.13
223.759	39.59
223.977	-38.23
224.195	94.89
224.413	78.51
224.631	8.87
224.849	-36.18
225.067	103.08
225.285	-15.7
225.503	-27.99
225.721	-52.56
225.939	12.97
226.157	78.51
226.375	49.83
226.592	-23.89
226.81	47.79
227.028	86.7
227.246	-7.51
227.464	33.45
227.682	45.74
227.9	88.75
228.117	-1.37
228.335	41.64
228.553	-19.8
228.771	47.79
228.989	49.83
229.206	45.74
229.424	15.02
229.642	6.83
229.86	-19.8
230.077	33.45
230.295	17.07
230.513	6.83
230.731	45.74
230.948	41.64
231.166	37.55
231.384	-44.37
231.601	25.26
231.819	88.75
232.037	-32.08
232.254	27.31
232.472	-1.37
232.689	37.55
232.907	25.26
233.125	-7.51
233.342	-3.41
233.56	8.87
233.777	64.17
233.995	-9.56
234.213	23.21
234.43	-3.41
234.648	-23.89
234.865	-15.7
235.083	101.03
235.3	-25.94
235.518	-11.61
235.735	25.26
235.953	137.9
236.17	45.74
236.388	55.98
236.605	51.88
236.822	64.17
237.04	-23.89
237.257	43.69
237.475	0.68
237.692	39.59
237.909	55.98
238.127	82.6
238.344	23.21
238.562	94.89
238.779	-42.32
238.996	-83.28
239.214	23.21
239.431	31.4
239.648	-3.41
239.865	27.31
240.083	6.83
240.3	21.16
240.517	-50.52
240.735	-9.56
240.952	84.65
241.169	55.98
241.386	15.02
241.603	31.4
241.821	-34.13
242.038	82.6
242.255	0.68
242.472	6.83
242.689	47.79
242.907	10.92
243.124	-7.51
243.341	29.35
243.558	-9.56
243.775	-3.41
243.992	-3.41
244.209	23.21
244.426	82.6
244.643	31.4
244.86	12.97
245.078	53.93
245.295	55.98
245.512	43.69
245.729	-48.47
245.946	23.21
246.163	62.12
246.38	29.35
246.597	72.36
246.814	-9.56
247.031	53.93
247.248	37.55
247.464	19.11
247.681	-66.9
247.898	37.55
248.115	-1.37
248.332	-11.61
248.549	-25.94
248.766	41.64
248.983	-3.41
249.2	-7.51
249.417	82.6
249.633	4.78
249.85	-3.41
250.067	-36.18
250.284	8.87
250.501	25.26
250.717	12.97
250.934	-17.75
251.151	72.36
251.368	-23.89
251.585	29.35
251.801	82.6
252.018	-40.28
252.235	64.17
252.451	12.97
252.668	-19.8
252.885	27.31
253.102	10.92
253.318	-87.38
253.535	55.98
253.752	-7.51
253.968	37.55
254.185	-15.7
254.401	29.35
254.618	66.22
254.835	6.83
255.051	33.45
255.268	82.6
255.484	0.68
255.701	35.5
255.917	88.75
256.134	0.68
256.351	53.93
256.567	27.31
256.784	-23.89
257	10.92
257.217	-19.8
257.433	78.51
257.65	92.84
257.866	43.69
258.082	-62.8
258.299	-3.41
258.515	37.55
258.732	47.79
258.948	-77.14
259.165	-15.7
259.381	41.64
259.597	33.45
259.814	64.17
260.03	-15.7
260.246	27.31
260.463	21.16
260.679	82.6
260.895	15.02
261.112	74.41
261.328	10.92
261.544	-3.41
261.761	107.18
261.977	-44.37
262.193	-52.56
262.409	66.22
262.626	-17.75
262.842	70.31
263.058	17.07
263.274	6.83
263.49	-15.7
263.707	33.45
263.923	31.4
264.139	31.4
264.355	0.68
264.571	29.35
264.787	21.16
265.004	41.64
265.22	-9.56
265.436	66.22
265.652	-44.37
265.868	-48.47
266.084	51.88
266.3	47.79
266.516	-11.61
266.732	129.7
266.948	64.17
267.164	17.07
267.38	-9.56
267.596	-7.51
267.812	90.79
268.028	53.93
268.244	0.68
268.46	4.78
268.676	4.78
268.892	0.68
269.108	-21.85
269.324	-27.99
269.54	62.12
269.756	29.35
269.972	21.16
270.188	21.16
270.403	0.68
270.619	15.02
270.835	-25.94
271.051	10.92
271.267	29.35
271.483	-11.61
271.698	33.45
271.914	72.36
272.13	31.4
272.346	-1.37
272.562	-25.94
272.777	-17.75
272.993	4.78
273.209	-19.8
273.425	10.92
273.64	-27.99
273.856	86.7
274.072	-27.99
274.287	37.55
274.503	-50.52
274.719	15.02
274.934	4.78
275.15	8.87
275.366	70.31
275.581	-27.99
275.797	90.79
276.012	17.07
276.228	53.93
276.444	58.03
276.659	37.55
276.875	-3.41
277.09	-34.13
277.306	62.12
277.521	55.98
277.737	-17.75
277.952	62.12
278.168	80.55
278.383	21.16
278.599	49.83
278.814	45.74
279.03	53.93
279.245	37.55
279.461	-27.99
279.676	29.35
279.892	6.83
280.107	12.97
280.322	-25.94
280.538	31.4
280.753	-21.85
280.969	29.35
281.184	78.51
281.399	45.74
281.615	17.07
281.83	21.16
282.045	2.73
282.26	-36.18
282.476	-15.7
282.691	80.55
282.906	-23.89
283.122	29.35
283.337	-17.75
283.552	39.59
283.767	-11.61
283.983	37.55
284.198	55.98
284.413	47.79
284.628	-36.18
284.843	45.74
285.058	-68.95
285.274	-36.18
285.489	0.68
285.704	94.89
285.919	-17.75
286.134	-13.65
286.349	0.68
286.564	-17.75
286.779	47.79
286.995	66.22
287.21	29.35
287.425	29.35
287.64	-1.37
287.855	8.87
288.07	25.26
288.285	39.59
288.5	29.35
288.715	41.64
288.93	-32.08
289.145	-36.18
289.36	98.99
289.575	25.26
289.79	19.11
290.004	53.93
290.219	64.17
290.434	-7.51
290.649	37.55
290.864	-7.51
291.079	29.35
291.294	17.07
291.509	33.45
291.724	0.68
291.938	6.83
292.153	53.93
292.368	25.26
292.583	45.74
292.798	115.37
293.012	-15.7
293.227	6.83
293.442	-36.18
293.657	49.83
293.871	-13.65
294.086	4.78
294.301	98.99
294.516	53.93
294.73	31.4
294.945	-7.51
295.16	29.35
295.374	12.97
295.589	-19.8
295.804	-32.08
296.018	76.46
296.233	8.87
296.447	23.21
296.662	-23.89
296.877	37.55
297.091	-1.37
297.306	-19.8
297.52	45.74
297.735	62.12
297.949	23.21
298.164	15.02
298.378	29.35
298.593	-36.18
298.807	-25.94
299.022	-36.18
299.236	25.26
299.451	58.03
299.665	74.41
299.88	10.92
300.094	41.64
300.309	70.31
300.523	21.16
300.737	49.83
300.952	55.98
301.166	31.4
301.381	0.68
301.595	23.21
301.809	103.08
302.024	-17.75
302.238	-25.94
302.452	29.35
302.667	27.31
302.881	55.98
303.095	47.79
303.309	82.6
303.524	49.83
303.738	88.75
303.952	-3.41
304.166	62.12
304.381	-77.14
304.595	45.74
304.809	74.41
305.023	41.64
305.237	-9.56
305.452	78.51
305.666	-19.8
305.88	-3.41
306.094	41.64
306.308	27.31
306.522	43.69
306.736	23.21
306.95	39.59
307.164	41.64
307.379	80.55
307.593	37.55
307.807	84.65
308.021	53.93
308.235	47.79
308.449	-19.8
308.663	58.03
308.877	45.74
309.091	62.12
309.305	-23.89
309.519	-66.9
309.733	35.5
309.947	-77.14
310.161	4.78
310.374	19.11
310.588	94.89
310.802	29.35
311.016	45.74
311.23	21.16
311.444	53.93
311.658	-11.61
311.872	19.11
312.085	90.79
312.299	37.55
312.513	53.93
312.727	-38.23
312.941	6.83
313.154	49.83
313.368	23.21
313.582	-52.56
313.796	31.4
314.009	12.97
314.223	23.21
314.437	25.26
314.651	0.68
314.864	45.74
315.078	19.11
315.292	6.83
315.505	33.45
315.719	86.7
315.933	-13.65
316.146	-5.46
316.36	-44.37
316.573	88.75
316.787	47.79
317.001	105.13
317.214	-36.18
317.428	-15.7
317.641	-27.99
317.855	37.55
318.068	-1.37
318.282	10.92
318.495	45.74
318.709	84.65
318.922	39.59
319.136	127.66
319.349	21.16
319.563	4.78
319.776	45.74
319.99	21.16
320.203	62.12
320.417	72.36
320.63	37.55
320.843	94.89
321.057	53.93
321.27	70.31
321.483	-19.8
321.697	105.13
321.91	70.31
322.124	12.97
322.337	21.16
322.55	0.68
322.763	86.7
322.977	12.97
323.19	82.6
323.403	-32.08
323.617	33.45
323.83	98.99
324.043	-44.37
324.256	37.55
324.469	21.16
324.683	107.18
324.896	21.16
325.109	39.59
325.322	-58.71
325.535	-1.37
325.748	39.59
325.962	17.07
326.175	113.32
326.388	45.74
326.601	70.31
326.814	37.55
327.027	70.31
327.24	78.51
327.453	15.02
327.666	72.36
327.879	47.79
328.092	86.7
328.305	6.83
328.518	-34.13
328.731	41.64
328.944	8.87
329.157	96.94
329.37	10.92
329.583	45.74
329.796	164.52
330.009	-25.94
330.222	37.55
330.435	12.97
330.648	29.35
330.861	47.79
331.073	37.55
331.286	105.13
331.499	47.79
331.712	35.5
331.925	17.07
332.138	-7.51
332.35	29.35
332.563	41.64
332.776	80.55
332.989	33.45
333.202	72.36
333.414	49.83
333.627	37.55
333.84	-11.61
334.053	8.87
334.265	33.45
334.478	58.03
334.691	55.98
334.903	49.83
335.116	103.08
335.329	21.16
335.541	60.07
335.754	0.68
335.966	23.21
336.179	12.97
336.392	55.98
336.604	6.83
336.817	101.03
337.029	31.4
337.242	-15.7
337.454	4.78
337.667	-1.37
337.88	23.21
338.092	29.35
338.305	37.55
338.517	15.02
338.729	53.93
338.942	74.41
339.154	27.31
339.367	47.79
339.579	64.17
339.792	-68.95
340.004	70.31
340.217	-19.8
340.429	70.31
340.641	4.78
340.854	-17.75
341.066	53.93
341.278	80.55
341.491	105.13
341.703	-42.32
341.915	8.87
342.128	78.51
342.34	25.26
342.552	-25.94
342.764	33.45
342.977	6.83
343.189	12.97
343.401	19.11
343.613	4.78
343.826	8.87
344.038	23.21
344.25	66.22
344.462	41.64
344.674	31.4
344.886	-50.52
345.099	-21.85
345.311	37.55
345.523	66.22
345.735	-97.62
345.947	33.45
346.159	8.87
346.371	-3.41
346.583	51.88
346.795	119.46
347.007	23.21
347.219	-17.75
347.431	90.79
347.643	47.79
347.855	19.11
348.067	62.12
348.279	6.83
348.491	27.31
348.703	62.12
348.915	49.83
349.127	33.45
349.339	62.12
349.551	-25.94
349.763	31.4
349.975	-58.71
350.187	70.31
350.399	127.66
350.61	6.83
350.822	68.27
351.034	41.64
351.246	72.36
351.458	88.75
351.669	107.18
351.881	86.7
352.093	17.07
352.305	15.02
352.517	8.87
352.728	172.71
352.94	64.17
353.152	-11.61
353.363	31.4
353.575	68.27
353.787	64.17
353.999	105.13
354.21	131.75
354.422	0.68
354.633	-3.41
354.845	45.74
355.057	-15.7
355.268	12.97
355.48	25.26
355.692	-25.94
355.903	23.21
356.115	15.02
356.326	-17.75
356.538	62.12
356.749	78.51
356.961	90.79
357.172	-27.99
357.384	0.68
357.595	78.51
357.807	45.74
358.018	-3.41
358.23	74.41
358.441	66.22
358.653	47.79
358.864	-34.13
359.075	4.78
359.287	51.88
359.498	62.12
359.709	94.89
359.921	72.36
360.132	-3.41
360.344	-17.75
360.555	-5.46
360.766	29.35
360.977	72.36
361.189	78.51
361.4	12.97
361.611	94.89
361.823	45.74
362.034	45.74
362.245	-15.7
362.456	82.6
362.667	27.31
362.879	37.55
363.09	21.16
363.301	12.97
363.512	66.22
363.723	45.74
363.935	17.07
364.146	72.36
364.357	-34.13
364.568	21.16
364.779	8.87
364.99	70.31
365.201	-7.51
365.412	76.46
365.623	8.87
365.834	-19.8
366.045	62.12
366.256	17.07
366.467	86.7
366.678	33.45
366.889	0.68
367.1	39.59
367.311	39.59
367.522	29.35
367.733	-30.04
367.944	64.17
368.155	45.74
368.366	49.83
368.577	43.69
368.788	127.66
368.999	49.83
369.209	84.65
369.42	133.8
369.631	109.22
369.842	55.98
370.053	55.98
370.264	33.45
370.474	-11.61
370.685	31.4
370.896	82.6
371.107	101.03
371.317	152.23
371.528	12.97
371.739	-44.37
371.95	51.88
372.16	94.89
372.371	-89.43
372.582	25.26
372.792	0.68
373.003	64.17
373.214	68.27
373.424	64.17
373.635	-13.65
373.846	88.75
374.056	47.79
374.267	21.16
374.477	21.16
374.688	94.89
374.898	23.21
375.109	21.16
375.319	62.12
375.53	33.45
375.74	49.83
375.951	55.98
376.161	49.83
376.372	25.26
376.582	17.07
376.793	66.22
377.003	4.78
377.214	45.74
377.424	72.36
377.635	139.94
377.845	41.64
378.055	144.04
378.266	55.98
378.476	31.4
378.686	41.64
378.897	53.93
379.107	107.18
379.317	66.22
379.528	47.79
379.738	78.51
379.948	58.03
380.158	119.46
380.369	31.4
380.579	103.08
380.789	10.92
380.999	60.07
381.21	51.88
381.42	72.36
381.63	39.59
381.84	78.51
382.05	80.55
382.261	45.74
382.471	37.55
382.681	45.74
382.891	107.18
383.101	45.74
383.311	-38.23
383.521	4.78
383.731	74.41
383.941	111.27
384.151	107.18
384.361	64.17
384.571	94.89
384.781	62.12
384.991	82.6
385.201	76.46
385.411	27.31
385.621	103.08
385.831	45.74
386.041	45.74
386.251	76.46
386.461	72.36
386.671	25.26
386.881	64.17
387.091	-23.89
387.301	94.89
387.511	-15.7
387.72	74.41
387.93	70.31
388.14	4.78
388.35	47.79
388.56	72.36
388.769	29.35
388.979	39.59
389.189	-7.51
389.399	33.45
389.609	115.37
389.818	31.4
390.028	-44.37
390.238	115.37
390.447	33.45
390.657	72.36
390.867	70.31
391.076	37.55
391.286	86.7
391.496	-25.94
391.705	62.12
391.915	62.12
392.125	152.23
392.334	55.98
392.544	88.75
392.753	2.73
392.963	53.93
393.172	37.55
393.382	47.79
393.591	178.86
393.801	119.46
394.01	86.7
394.22	55.98
394.429	70.31
394.639	125.61
394.848	41.64
395.058	103.08
395.267	72.36
395.477	66.22
395.686	139.94
395.895	131.75
396.105	117.42
396.314	43.69
396.524	78.51
396.733	33.45
396.942	121.51
397.152	105.13
397.361	70.31
397.57	107.18
397.78	-9.56
397.989	144.04
398.198	185
398.407	82.6
398.617	41.64
398.826	103.08
399.035	137.9
399.244	53.93
399.453	49.83
399.663	82.6
399.872	123.56
400.081	45.74
400.29	201.38
400.499	109.22
400.708	90.79
400.917	144.04
401.127	31.4
401.336	146.09
401.545	203.43
401.754	144.04
401.963	144.04
402.172	141.99
402.381	152.23
402.59	86.7
402.799	90.79
403.008	115.37
403.217	127.66
403.426	133.8
403.635	113.32
403.844	129.7
404.053	170.66
404.262	131.75
404.471	221.86
404.68	160.42
404.888	127.66
405.097	158.38
405.306	178.86
405.515	152.23
405.724	152.23
405.933	152.23
406.142	244.39
406.35	219.82
406.559	146.09
406.768	176.81
406.977	189.1
407.185	199.34
407.394	234.15
407.603	154.28
407.812	234.15
408.02	283.3
408.229	275.11
408.438	199.34
408.646	299.69
408.855	232.1
409.064	271.01
409.272	328.36
409.481	279.21
409.69	283.3
409.898	316.07
410.107	377.51
410.315	318.12
410.524	379.56
410.733	369.32
410.941	414.37
411.15	365.22
411.358	469.67
411.567	447.14
411.775	365.22
411.984	438.95
412.192	545.44
412.401	555.68
412.609	520.87
412.818	500.39
413.026	498.34
413.234	516.77
413.443	502.43
413.651	545.44
413.86	627.36
414.068	690.85
414.276	651.94
414.485	629.41
414.693	676.51
414.901	762.53
415.11	686.75
415.318	791.2
415.526	842.4
415.734	897.69
415.943	948.89
416.151	926.36
416.359	922.27
416.567	928.41
416.776	977.56
416.984	1051.29
417.192	1065.63
417.4	1053.34
417.608	965.28
417.817	1184.41
418.025	1200.79
418.233	1358.49
418.441	1282.71
418.649	1397.4
418.857	1362.58
419.065	1485.46
419.273	1534.61
419.481	1473.17
419.689	1587.86
419.897	1659.54
420.105	1735.31
420.313	1741.46
420.521	1841.81
420.729	1770.13
420.937	1983.12
421.145	1954.44
421.353	1954.44
421.561	2271.88
421.769	2273.93
421.977	2316.94
422.185	2302.6
422.393	2364.04
422.601	2474.63
422.809	2581.12
423.017	2503.3
423.224	2642.56
423.432	2884.22
423.64	2749.06
423.848	3078.78
424.056	3015.29
424.263	3228.28
424.471	3099.26
424.679	3322.49
424.887	3357.3
425.094	3537.52
425.302	3555.96
425.51	3748.47
425.718	3928.69
425.925	3871.34
426.133	3891.82
426.341	4319.85
426.548	4414.06
426.756	4321.9
426.964	4528.74
427.171	4819.55
427.379	4903.52
427.586	4825.7
427.794	5020.25
428.001	5272.15
428.209	5636.69
428.417	5411.42
428.624	5847.63
428.832	5960.27
429.039	5804.63
429.247	5870.16
429.454	6298.19
429.662	6775.36
429.869	6341.19
430.076	6873.67
430.284	6648.39
430.491	6783.56
430.699	7387.71
430.906	7041.6
431.114	7410.23
431.321	7674.42
431.528	8002.1
431.736	8163.89
431.943	8401.45
432.15	8161.84
432.358	8446.51
432.565	8811.04
432.772	8987.17
432.979	9284.12
433.187	9482.78
433.394	9679.38
433.601	10125.84
433.808	10117.65
434.016	10015.25
434.223	10476.04
434.43	11102.72
434.637	10942.98
434.844	11588.09
435.052	11887.09
435.259	11684.34
435.466	11723.26
435.673	11786.74
435.88	12589.55
436.087	13099.49
436.294	13066.72
436.501	12904.93
436.708	13236.7
436.915	13689.31
437.122	14154.19
437.329	14037.46
437.537	14682.57
437.743	14973.38
437.95	14725.58
438.157	15667.64
438.364	15661.5
438.571	15847.86
438.778	15978.93
438.985	17295.78
439.192	16822.7
439.399	17312.16
439.606	16894.38
439.813	17996.18
440.02	18755.98
440.227	18491.79
440.433	18481.55
440.64	19198.34
440.847	18694.54
441.054	19644.8
441.261	20570.48
441.467	20218.23
441.674	20674.93
441.881	21666.14
442.088	21346.66
442.294	21119.34
442.501	21670.24
442.708	22352.21
442.914	22776.14
443.121	23951.68
443.328	23302.47
443.534	25211.18
443.741	24310.07
443.948	23642.43
444.154	25727.27
444.361	25651.49
444.568	25610.53
444.774	25872.67
444.981	26005.79
445.187	26837.27
445.394	27916.54
445.6	27554.05
445.807	29984.99
446.013	28756.21
446.22	29309.16
446.426	30275.8
446.633	30578.9
446.839	32186.56
447.046	30626.01
447.252	32272.57
447.459	32489.66
447.665	32133.31
447.871	33298.61
448.078	34910.36
448.284	33030.32
448.491	34007.2
448.697	35326.1
448.903	35850.38
449.11	36192.39
449.316	35264.66
449.522	36124.8
449.728	36931.7
449.935	37363.82
450.141	37343.34
450.347	38320.23
450.553	36958.33
450.76	37521.52
450.966	38850.65
451.172	37924.97
451.378	39024.73
451.584	38330.47
451.791	39411.79
451.997	39303.25
452.203	39798.86
452.409	39632.97
452.615	39389.27
452.821	38117.48
453.027	37400.69
453.233	39774.28
453.44	38379.62
453.646	38355.04
453.852	38322.27
454.058	39282.77
454.264	37843.05
454.47	39217.24
454.676	37945.45
454.882	39010.39
455.088	35739.79
455.294	36184.19
455.5	36890.74
455.705	36665.47
455.911	35158.16
456.117	34758.81
456.323	34255.01
456.529	32544.95
456.735	33822.89
456.941	33224.88
457.147	32397.5
457.352	31475.91
457.558	31191.25
457.764	31289.55
457.97	30468.31
458.176	30169.31
458.381	30286.04
458.587	28283.13
458.793	28291.32
458.999	26874.13
459.204	28903.67
459.41	28567.8
459.616	26364.18
459.821	26536.21
460.027	26347.8
460.233	25284.9
460.438	24340.79
460.644	24518.96
460.85	23615.81
461.055	22982.99
461.261	23279.94
461.466	21361
461.672	20619.63
461.878	21967.2
462.083	20920.68
462.289	20269.43
462.494	19868.03
462.7	19132.81
462.905	18721.17
463.111	19233.16
463.316	19495.3
463.522	18993.54
463.727	19071.37
463.932	19009.93
464.138	18444.69
464.343	19009.93
464.549	18532.75
464.754	18774.41
464.959	18690.45
465.165	18493.84
465.37	17772.96
465.575	17383.84
465.781	18078.1
465.986	17924.51
466.191	17447.33
466.397	17318.31
466.602	16419.25
466.807	16867.75
467.012	16820.65
