Data from USB4F104151__272__14-34-39-152.txt Node

Date: Thu Mar 13 14:34:39 EDT 2025
User: louis
Spectrometer: USB4F10415
Trigger mode: 4
Integration Time (sec): 2.500000E-2
Scans to average: 1
Electric dark correction enabled: true
Nonlinearity correction enabled: false
Boxcar width: 0
XAxis mode: Wavelengths
Number of Pixels in Spectrum: 3648
>>>>>Begin Spectral Data<<<<<
178.204	-127.49
178.424	-127.49
178.644	-127.49
178.864	-109.05
179.084	-117.25
179.304	28.16
179.524	-8.7
179.744	-2.56
179.964	81.41
180.184	-66.05
180.404	54.78
180.624	-53.76
180.844	-14.85
181.064	7.68
181.283	-59.9
181.503	48.64
181.723	-14.85
181.943	13.82
182.163	105.98
182.383	91.65
182.602	34.3
182.822	99.84
183.042	71.17
183.262	-88.57
183.482	-68.09
183.701	56.83
183.921	73.21
184.141	54.78
184.361	87.55
184.58	24.06
184.8	38.4
185.02	-0.51
185.239	13.82
185.459	62.98
185.679	38.4
185.898	62.98
186.118	-4.61
186.338	40.45
186.557	118.27
186.777	-31.23
186.997	-16.9
187.216	87.55
187.436	58.88
187.655	46.59
187.875	58.88
188.095	24.06
188.314	73.21
188.534	15.87
188.753	34.3
188.973	144.89
189.192	79.36
189.412	60.93
189.631	40.45
189.851	46.59
190.07	71.17
190.29	69.12
190.509	-33.28
190.729	87.55
190.948	22.02
191.168	136.7
191.387	54.78
191.607	9.73
191.826	-49.66
192.045	1.54
192.265	13.82
192.484	62.98
192.704	46.59
192.923	1.54
193.142	148.99
193.362	32.26
193.581	26.11
193.8	65.02
194.02	71.17
194.239	34.3
194.458	22.02
194.678	1.54
194.897	58.88
195.116	5.63
195.335	83.45
195.555	110.08
195.774	75.26
195.993	110.08
196.212	34.3
196.432	38.4
196.651	89.6
196.87	89.6
197.089	71.17
197.308	122.37
197.528	56.83
197.747	-8.7
197.966	22.02
198.185	65.02
198.404	9.73
198.623	95.74
198.842	48.64
199.062	95.74
199.281	138.75
199.5	-27.14
199.719	38.4
199.938	48.64
200.157	124.41
200.376	13.82
200.595	54.78
200.814	5.63
201.033	9.73
201.252	81.41
201.471	40.45
201.69	62.98
201.909	24.06
202.128	81.41
202.347	5.63
202.566	99.84
202.785	54.78
203.004	13.82
203.223	132.61
203.442	26.11
203.661	-35.33
203.879	1.54
204.098	81.41
204.317	38.4
204.536	22.02
204.755	87.55
204.974	50.69
205.193	38.4
205.411	105.98
205.63	62.98
205.849	36.35
206.068	30.21
206.287	58.88
206.505	54.78
206.724	30.21
206.943	46.59
207.162	73.21
207.381	103.93
207.599	22.02
207.818	54.78
208.037	22.02
208.255	140.8
208.474	19.97
208.693	83.45
208.911	-33.28
209.13	30.21
209.349	48.64
209.567	-10.75
209.786	5.63
210.005	5.63
210.223	7.68
210.442	-25.09
210.661	89.6
210.879	30.21
211.098	-12.8
211.316	46.59
211.535	69.12
211.753	103.93
211.972	95.74
212.191	22.02
212.409	73.21
212.628	71.17
212.846	-57.86
213.065	46.59
213.283	120.32
213.502	60.93
213.72	103.93
213.938	58.88
214.157	32.26
214.375	126.46
214.594	48.64
214.812	62.98
215.031	9.73
215.249	26.11
215.467	103.93
215.686	9.73
215.904	87.55
216.122	54.78
216.341	105.98
216.559	5.63
216.778	95.74
216.996	112.13
217.214	-0.51
217.432	26.11
217.651	112.13
217.869	81.41
218.087	24.06
218.306	62.98
218.524	-2.56
218.742	-10.75
218.96	95.74
219.179	50.69
219.397	5.63
219.615	151.04
219.833	38.4
220.051	-35.33
220.27	75.26
220.488	87.55
220.706	103.93
220.924	-6.66
221.142	9.73
221.36	77.31
221.578	58.88
221.796	48.64
222.015	91.65
222.233	32.26
222.451	30.21
222.669	5.63
222.887	99.84
223.105	54.78
223.323	17.92
223.541	-53.76
223.759	93.69
223.977	30.21
224.195	118.27
224.413	89.6
224.631	56.83
224.849	42.5
225.067	62.98
225.285	9.73
225.503	32.26
225.721	5.63
225.939	65.02
226.157	81.41
226.375	130.56
226.592	9.73
226.81	71.17
227.028	62.98
227.246	108.03
227.464	42.5
227.682	73.21
227.9	116.22
228.117	-27.14
228.335	-14.85
228.553	54.78
228.771	95.74
228.989	5.63
229.206	148.99
229.424	22.02
229.642	44.54
229.86	56.83
230.077	103.93
230.295	85.5
230.513	-33.28
230.731	9.73
230.948	40.45
231.166	87.55
231.384	15.87
231.601	-8.7
231.819	136.7
232.037	56.83
232.254	-2.56
232.472	91.65
232.689	1.54
232.907	81.41
233.125	26.11
233.342	79.36
233.56	30.21
233.777	13.82
233.995	48.64
234.213	54.78
234.43	9.73
234.648	-33.28
234.865	-59.9
235.083	-2.56
235.3	-2.56
235.518	112.13
235.735	87.55
235.953	73.21
236.17	28.16
236.388	34.3
236.605	44.54
236.822	95.74
237.04	71.17
237.257	22.02
237.475	13.82
237.692	81.41
237.909	-2.56
238.127	46.59
238.344	17.92
238.562	95.74
238.779	-16.9
238.996	-35.33
239.214	30.21
239.431	95.74
239.648	81.41
239.865	114.17
240.083	50.69
240.3	1.54
240.517	7.68
240.735	54.78
240.952	26.11
241.169	17.92
241.386	103.93
241.603	46.59
241.821	38.4
242.038	38.4
242.255	54.78
242.472	34.3
242.689	50.69
242.907	67.07
243.124	32.26
243.341	46.59
243.558	38.4
243.775	1.54
243.992	-18.94
244.209	7.68
244.426	108.03
244.643	32.26
244.86	58.88
245.078	28.16
245.295	-8.7
245.512	-35.33
245.729	46.59
245.946	103.93
246.163	-18.94
246.38	48.64
246.597	22.02
246.814	32.26
247.031	1.54
247.248	103.93
247.464	81.41
247.681	58.88
247.898	54.78
248.115	132.61
248.332	-39.42
248.549	-10.75
248.766	122.37
248.983	120.32
249.2	95.74
249.417	108.03
249.633	52.74
249.85	56.83
250.067	42.5
250.284	79.36
250.501	124.41
250.717	87.55
250.934	-41.47
251.151	-2.56
251.368	48.64
251.585	58.88
251.801	83.45
252.018	40.45
252.235	13.82
252.451	32.26
252.668	36.35
252.885	110.08
253.102	83.45
253.318	-2.56
253.535	13.82
253.752	-8.7
253.968	11.78
254.185	-35.33
254.401	32.26
254.618	-6.66
254.835	112.13
255.051	126.46
255.268	26.11
255.484	38.4
255.701	52.74
255.917	56.83
256.134	42.5
256.351	81.41
256.567	15.87
256.784	34.3
257	13.82
257.217	30.21
257.433	110.08
257.65	73.21
257.866	62.98
258.082	5.63
258.299	103.93
258.515	52.74
258.732	46.59
258.948	30.21
259.165	30.21
259.381	65.02
259.597	44.54
259.814	93.69
260.03	69.12
260.246	-0.51
260.463	116.22
260.679	75.26
260.895	24.06
261.112	46.59
261.328	22.02
261.544	54.78
261.761	105.98
261.977	95.74
262.193	56.83
262.409	93.69
262.626	79.36
262.842	32.26
263.058	-16.9
263.274	30.21
263.49	65.02
263.707	81.41
263.923	48.64
264.139	28.16
264.355	52.74
264.571	120.32
264.787	46.59
265.004	67.07
265.22	89.6
265.436	-0.51
265.652	24.06
265.868	99.84
266.084	24.06
266.3	110.08
266.516	-25.09
266.732	75.26
266.948	46.59
267.164	97.79
267.38	71.17
267.596	112.13
267.812	95.74
268.028	40.45
268.244	56.83
268.46	-18.94
268.676	-41.47
268.892	73.21
269.108	42.5
269.324	71.17
269.54	-18.94
269.756	83.45
269.972	-80.38
270.188	15.87
270.403	-66.05
270.619	48.64
270.835	-14.85
271.051	46.59
271.267	15.87
271.483	1.54
271.698	65.02
271.914	-18.94
272.13	95.74
272.346	50.69
272.562	13.82
272.777	11.78
272.993	60.93
273.209	50.69
273.425	73.21
273.64	-55.81
273.856	87.55
274.072	-25.09
274.287	32.26
274.503	136.7
274.719	89.6
274.934	22.02
275.15	48.64
275.366	67.07
275.581	46.59
275.797	65.02
276.012	9.73
276.228	30.21
276.444	40.45
276.659	132.61
276.875	9.73
277.09	67.07
277.306	-18.94
277.521	99.84
277.737	95.74
277.952	62.98
278.168	11.78
278.383	83.45
278.599	95.74
278.814	103.93
279.03	48.64
279.245	38.4
279.461	54.78
279.676	58.88
279.892	-41.47
280.107	58.88
280.322	46.59
280.538	7.68
280.753	38.4
280.969	165.37
281.184	-14.85
281.399	62.98
281.615	13.82
281.83	-0.51
282.045	7.68
282.26	32.26
282.476	32.26
282.691	48.64
282.906	103.93
283.122	9.73
283.337	9.73
283.552	114.17
283.767	7.68
283.983	112.13
284.198	-6.66
284.413	83.45
284.628	56.83
284.843	-6.66
285.058	99.84
285.274	79.36
285.489	22.02
285.704	60.93
285.919	9.73
286.134	-10.75
286.349	1.54
286.564	-10.75
286.779	101.89
286.995	-0.51
287.21	-51.71
287.425	95.74
287.64	22.02
287.855	30.21
288.07	26.11
288.285	81.41
288.5	48.64
288.715	46.59
288.93	-55.81
289.145	73.21
289.36	30.21
289.575	38.4
289.79	34.3
290.004	22.02
290.219	83.45
290.434	-10.75
290.649	-0.51
290.864	99.84
291.079	-12.8
291.294	67.07
291.509	79.36
291.724	67.07
291.938	28.16
292.153	79.36
292.368	38.4
292.583	89.6
292.798	38.4
293.012	54.78
293.227	-10.75
293.442	-14.85
293.657	42.5
293.871	46.59
294.086	46.59
294.301	99.84
294.516	62.98
294.73	73.21
294.945	-0.51
295.16	34.3
295.374	99.84
295.589	34.3
295.804	73.21
296.018	-14.85
296.233	67.07
296.447	73.21
296.662	97.79
296.877	95.74
297.091	112.13
297.306	54.78
297.52	-0.51
297.735	71.17
297.949	-51.71
298.164	75.26
298.378	19.97
298.593	9.73
298.807	40.45
299.022	71.17
299.236	130.56
299.451	42.5
299.665	9.73
299.88	36.35
300.094	54.78
300.309	50.69
300.523	85.5
300.737	9.73
300.952	81.41
301.166	36.35
301.381	46.59
301.595	36.35
301.809	71.17
302.024	91.65
302.238	1.54
302.452	5.63
302.667	54.78
302.881	79.36
303.095	97.79
303.309	65.02
303.524	40.45
303.738	65.02
303.952	13.82
304.166	-14.85
304.381	-100.86
304.595	136.7
304.809	5.63
305.023	108.03
305.237	62.98
305.452	81.41
305.666	13.82
305.88	75.26
306.094	5.63
306.308	67.07
306.522	60.93
306.736	65.02
306.95	71.17
307.164	32.26
307.379	26.11
307.593	103.93
307.807	116.22
308.021	38.4
308.235	116.22
308.449	50.69
308.663	5.63
308.877	81.41
309.091	58.88
309.305	95.74
309.519	-43.52
309.733	103.93
309.947	-16.9
310.161	7.68
310.374	28.16
310.588	5.63
310.802	-43.52
311.016	-14.85
311.23	40.45
311.444	91.65
311.658	54.78
311.872	56.83
312.085	75.26
312.299	62.98
312.513	101.89
312.727	30.21
312.941	13.82
313.154	52.74
313.368	5.63
313.582	79.36
313.796	26.11
314.009	-16.9
314.223	67.07
314.437	26.11
314.651	67.07
314.864	-14.85
315.078	24.06
315.292	-35.33
315.505	13.82
315.719	62.98
315.933	65.02
316.146	103.93
316.36	1.54
316.573	87.55
316.787	22.02
317.001	67.07
317.214	-0.51
317.428	1.54
317.641	-10.75
317.855	32.26
318.068	26.11
318.282	38.4
318.495	89.6
318.709	13.82
318.922	38.4
319.136	48.64
319.349	87.55
319.563	50.69
319.776	50.69
319.99	5.63
320.203	89.6
320.417	54.78
320.63	73.21
320.843	24.06
321.057	-31.23
321.27	-16.9
321.483	22.02
321.697	165.37
321.91	24.06
322.124	71.17
322.337	79.36
322.55	73.21
322.763	58.88
322.977	-2.56
323.19	26.11
323.403	15.87
323.617	-2.56
323.83	87.55
324.043	19.97
324.256	-25.09
324.469	34.3
324.683	105.98
324.896	34.3
325.109	34.3
325.322	-16.9
325.535	71.17
325.748	71.17
325.962	3.58
326.175	34.3
326.388	54.78
326.601	13.82
326.814	112.13
327.027	5.63
327.24	128.51
327.453	3.58
327.666	122.37
327.879	26.11
328.092	32.26
328.305	71.17
328.518	5.63
328.731	-27.14
328.944	30.21
329.157	34.3
329.37	17.92
329.583	130.56
329.796	54.78
330.009	-76.29
330.222	202.24
330.435	30.21
330.648	99.84
330.861	1.54
331.073	36.35
331.286	62.98
331.499	62.98
331.712	24.06
331.925	1.54
332.138	56.83
332.35	116.22
332.563	19.97
332.776	95.74
332.989	26.11
333.202	65.02
333.414	87.55
333.627	48.64
333.84	46.59
334.053	30.21
334.265	42.5
334.478	40.45
334.691	58.88
334.903	42.5
335.116	17.92
335.329	-16.9
335.541	36.35
335.754	79.36
335.966	17.92
336.179	3.58
336.392	58.88
336.604	112.13
336.817	89.6
337.029	62.98
337.242	75.26
337.454	7.68
337.667	58.88
337.88	114.17
338.092	62.98
338.305	134.65
338.517	-31.23
338.729	44.54
338.942	32.26
339.154	-35.33
339.367	17.92
339.579	62.98
339.792	-6.66
340.004	79.36
340.217	48.64
340.429	73.21
340.641	7.68
340.854	65.02
341.066	17.92
341.278	124.41
341.491	69.12
341.703	71.17
341.915	54.78
342.128	128.51
342.34	87.55
342.552	5.63
342.764	5.63
342.977	58.88
343.189	58.88
343.401	120.32
343.613	9.73
343.826	87.55
344.038	32.26
344.25	62.98
344.462	24.06
344.674	58.88
344.886	34.3
345.099	-18.94
345.311	-0.51
345.523	99.84
345.735	5.63
345.947	79.36
346.159	71.17
346.371	38.4
346.583	-84.48
346.795	75.26
347.007	-45.57
347.219	65.02
347.431	24.06
347.643	71.17
347.855	7.68
348.067	144.89
348.279	-51.71
348.491	5.63
348.703	110.08
348.915	81.41
349.127	81.41
349.339	105.98
349.551	17.92
349.763	105.98
349.975	65.02
350.187	65.02
350.399	71.17
350.61	73.21
350.822	71.17
351.034	17.92
351.246	32.26
351.458	87.55
351.669	46.59
351.881	75.26
352.093	17.92
352.305	89.6
352.517	38.4
352.728	26.11
352.94	65.02
353.152	87.55
353.363	58.88
353.575	128.51
353.787	54.78
353.999	11.78
354.21	101.89
354.422	95.74
354.633	11.78
354.845	58.88
355.057	79.36
355.268	46.59
355.48	13.82
355.692	30.21
355.903	58.88
356.115	89.6
356.326	30.21
356.538	93.69
356.749	87.55
356.961	87.55
357.172	79.36
357.384	95.74
357.595	97.79
357.807	48.64
358.018	28.16
358.23	79.36
358.441	210.43
358.653	-2.56
358.864	65.02
359.075	71.17
359.287	79.36
359.498	71.17
359.709	40.45
359.921	136.7
360.132	5.63
360.344	62.98
360.555	-2.56
360.766	97.79
360.977	77.31
361.189	-2.56
361.4	89.6
361.611	71.17
361.823	105.98
362.034	69.12
362.245	-33.28
362.456	87.55
362.667	54.78
362.879	42.5
363.09	130.56
363.301	83.45
363.512	87.55
363.723	30.21
363.935	67.07
364.146	46.59
364.357	60.93
364.568	99.84
364.779	9.73
364.99	71.17
365.201	1.54
365.412	71.17
365.623	73.21
365.834	60.93
366.045	99.84
366.256	91.65
366.467	75.26
366.678	46.59
366.889	56.83
367.1	69.12
367.311	22.02
367.522	15.87
367.733	-16.9
367.944	128.51
368.155	5.63
368.366	148.99
368.577	91.65
368.788	97.79
368.999	50.69
369.209	24.06
369.42	128.51
369.631	120.32
369.842	50.69
370.053	62.98
370.264	30.21
370.474	36.35
370.685	71.17
370.896	136.7
371.107	79.36
371.317	-18.94
371.528	58.88
371.739	89.6
371.95	54.78
372.16	108.03
372.371	17.92
372.582	46.59
372.792	7.68
373.003	108.03
373.214	26.11
373.424	91.65
373.635	34.3
373.846	79.36
374.056	-0.51
374.267	30.21
374.477	54.78
374.688	5.63
374.898	62.98
375.109	81.41
375.319	46.59
375.53	122.37
375.74	120.32
375.951	5.63
376.161	126.46
376.372	79.36
376.582	56.83
376.793	112.13
377.003	15.87
377.214	34.3
377.424	50.69
377.635	95.74
377.845	13.82
378.055	87.55
378.266	73.21
378.476	17.92
378.686	56.83
378.897	73.21
379.107	38.4
379.317	11.78
379.528	26.11
379.738	130.56
379.948	40.45
380.158	99.84
380.369	120.32
380.579	71.17
380.789	30.21
380.999	79.36
381.21	136.7
381.42	62.98
381.63	62.98
381.84	116.22
382.05	69.12
382.261	95.74
382.471	50.69
382.681	56.83
382.891	112.13
383.101	28.16
383.311	71.17
383.521	89.6
383.731	138.75
383.941	60.93
384.151	-0.51
384.361	38.4
384.571	67.07
384.781	46.59
384.991	105.98
385.201	120.32
385.411	155.13
385.621	95.74
385.831	38.4
386.041	28.16
386.251	-14.85
386.461	153.09
386.671	103.93
386.881	15.87
387.091	38.4
387.301	99.84
387.511	95.74
387.72	112.13
387.93	13.82
388.14	-33.28
388.35	38.4
388.56	130.56
388.769	95.74
388.979	32.26
389.189	54.78
389.399	73.21
389.609	120.32
389.818	58.88
390.028	99.84
390.238	95.74
390.447	89.6
390.657	62.98
390.867	85.5
391.076	46.59
391.286	85.5
391.496	54.78
391.705	128.51
391.915	67.07
392.125	122.37
392.334	46.59
392.544	97.79
392.753	103.93
392.963	112.13
393.172	54.78
393.382	62.98
393.591	103.93
393.801	30.21
394.01	130.56
394.22	87.55
394.429	40.45
394.639	89.6
394.848	56.83
395.058	56.83
395.267	153.09
395.477	140.8
395.686	93.69
395.895	97.79
396.105	146.94
396.314	91.65
396.524	144.89
396.733	204.28
396.942	81.41
397.152	95.74
397.361	185.85
397.57	87.55
397.78	120.32
397.989	103.93
398.198	130.56
398.407	173.57
398.617	130.56
398.826	128.51
399.035	157.18
399.244	99.84
399.453	136.7
399.663	105.98
399.872	153.09
400.081	42.5
400.29	120.32
400.499	54.78
400.708	103.93
400.917	65.02
401.127	161.28
401.336	73.21
401.545	185.85
401.754	163.33
401.963	165.37
402.172	114.17
402.381	130.56
402.59	148.99
402.799	71.17
403.008	169.47
403.217	60.93
403.426	126.46
403.635	114.17
403.844	187.9
404.053	124.41
404.262	159.23
404.471	208.38
404.68	214.52
404.888	144.89
405.097	89.6
405.306	95.74
405.515	144.89
405.724	177.66
405.933	171.52
406.142	144.89
406.35	95.74
406.559	230.91
406.768	163.33
406.977	218.62
407.185	230.91
407.394	255.48
407.603	138.75
407.812	267.77
408.02	269.82
408.229	165.37
408.438	144.89
408.646	280.06
408.855	269.82
409.064	245.24
409.272	300.54
409.481	316.92
409.69	214.52
409.898	267.77
410.107	310.78
410.315	349.69
410.524	282.11
410.733	345.59
410.941	296.44
411.15	333.31
411.358	361.98
411.567	366.07
411.775	435.71
411.984	364.03
412.192	464.38
412.401	458.23
412.609	562.68
412.818	499.19
413.026	517.62
413.234	472.57
413.443	488.95
413.651	460.28
413.86	583.16
414.068	599.54
414.276	587.26
414.485	597.49
414.693	663.03
414.901	626.17
415.11	605.69
415.318	677.37
415.526	646.65
415.734	769.52
415.943	730.61
416.151	783.86
416.359	767.48
416.567	873.97
416.776	761.33
416.984	990.7
417.192	931.31
417.4	916.98
417.608	853.49
417.817	972.27
418.025	1035.76
418.233	1160.69
418.441	1048.05
418.649	1058.29
418.857	1205.74
419.065	1336.81
419.273	1222.13
419.481	1201.65
419.689	1277.42
419.897	1449.45
420.105	1445.35
420.313	1441.26
420.521	1451.5
420.729	1504.75
420.937	1545.7
421.145	1529.32
421.353	1777.12
421.561	1783.27
421.769	1811.94
421.977	1832.42
422.185	1861.09
422.393	2004.45
422.601	2139.62
422.809	2080.22
423.017	2143.71
423.224	2227.68
423.432	2248.16
423.64	2293.21
423.848	2495.96
424.056	2508.25
424.263	2756.05
424.471	2706.9
424.679	2717.14
424.887	2940.37
425.094	2985.43
425.302	2823.64
425.51	3020.24
425.718	3061.2
425.925	3208.66
426.133	3261.9
426.341	3364.3
426.548	3366.35
426.756	3634.63
426.964	3784.13
427.171	3845.57
427.379	4038.08
427.586	4052.42
427.794	4128.19
428.001	4234.69
428.209	4621.75
428.417	4408.76
428.624	4818.36
428.832	4896.18
429.039	4531.64
429.247	4689.34
429.454	5264.82
429.662	5383.6
429.869	5281.2
430.076	5438.89
430.284	5371.31
430.491	5604.78
430.699	5860.77
430.906	5985.7
431.114	5866.92
431.321	6260.13
431.528	6313.38
431.736	6610.33
431.943	6911.38
432.15	6743.45
432.358	6854.04
432.565	7208.34
432.772	7325.07
432.979	7464.33
433.187	7677.32
433.394	7824.78
433.601	8060.29
433.808	8207.75
434.016	8084.87
434.223	8574.33
434.43	9053.56
434.637	8889.72
434.844	9526.64
435.052	9430.38
435.259	9485.68
435.466	9536.88
435.673	9510.25
435.88	10155.37
436.087	10749.28
436.294	10505.57
436.501	10444.13
436.708	10601.82
436.915	11064.66
437.122	11339.09
437.329	11425.11
437.537	11801.93
437.743	11830.6
437.95	11734.35
438.157	12508.48
438.364	12950.84
438.571	12981.56
438.778	12856.64
438.985	14081.32
439.192	13610.29
439.399	13929.77
439.606	13638.96
439.813	14660.9
440.02	15312.15
440.227	14982.43
440.433	15148.31
440.64	15238.42
440.847	15058.2
441.054	15867.15
441.261	16702.72
441.467	16459.01
441.674	16817.41
441.881	17251.58
442.088	17423.61
442.294	17095.93
442.501	17446.13
442.708	17831.15
442.914	18765.03
443.121	19211.48
443.328	18799.84
443.534	20313.29
443.741	19789.01
443.948	19363.03
444.154	20772.04
444.361	21030.08
444.568	20788.42
444.774	20683.97
444.981	21175.48
445.187	21675.19
445.394	22469.8
445.6	22242.48
445.807	24501.39
446.013	23045.28
446.22	23352.48
446.426	24878.21
446.633	25195.65
446.839	25638.01
447.046	24802.44
447.252	26158.19
447.459	25877.62
447.665	25797.75
447.871	26879.08
448.078	28216.4
448.284	26934.37
448.491	27765.85
448.697	28777.54
448.903	29570.11
449.11	29187.14
449.316	28558.41
449.522	29611.07
449.728	30108.72
449.935	30342.19
450.141	30403.63
450.347	30950.44
450.553	30301.23
450.76	30798.89
450.966	31536.16
451.172	31114.28
451.378	32580.62
451.584	31220.77
451.791	32357.39
451.997	32066.58
452.203	32396.31
452.409	32451.6
452.615	32541.71
452.821	31114.28
453.027	30934.06
453.233	32154.65
453.44	31007.78
453.646	31372.32
453.852	31444
454.058	31878.17
454.264	31173.67
454.47	31992.86
454.676	30884.9
454.882	31642.65
455.088	29396.03
455.294	29684.8
455.5	29609.02
455.705	30401.58
455.911	29410.37
456.117	28621.9
456.323	28089.43
456.529	26766.44
456.735	27966.55
456.941	27079.78
457.147	27014.24
457.352	25654.39
457.558	25642.1
457.764	25371.77
457.97	25070.72
458.176	24614.02
458.381	24663.18
458.587	23348.38
458.793	23508.12
458.999	22088.88
459.204	23700.63
459.41	22957.22
459.616	21454.01
459.821	21408.95
460.027	21247.16
460.233	20800.71
460.438	19907.79
460.644	20075.73
460.85	19201.24
461.055	18560.23
461.261	18810.08
461.466	17276.15
461.672	16903.42
461.878	17962.22
462.083	16614.66
462.289	16624.9
462.494	16157.96
462.7	15699.22
462.905	15176.98
463.111	15467.8
463.316	15740.18
463.522	15265.05
463.727	15523.09
463.932	15234.33
464.138	14990.62
464.343	15142.17
464.549	14693.66
464.754	15486.23
464.959	15240.47
465.165	14789.92
465.37	14124.33
465.575	14200.1
465.781	14218.54
465.986	14433.57
466.191	14136.62
466.397	13395.25
466.602	13104.44
466.807	13493.55
467.012	13354.29
467.218	13579.57
467.423	13165.88
