Data from USB4F104151__219__14-33-50-216.txt Node

Date: Thu Mar 13 14:33:50 EDT 2025
User: louis
Spectrometer: USB4F10415
Trigger mode: 4
Integration Time (sec): 2.500000E-2
Scans to average: 1
Electric dark correction enabled: true
Nonlinearity correction enabled: false
Boxcar width: 0
XAxis mode: Wavelengths
Number of Pixels in Spectrum: 3648
>>>>>Begin Spectral Data<<<<<
178.204	-167.25
178.424	-167.25
178.644	-167.25
178.864	-138.58
179.084	-97.62
179.304	4.78
179.524	12.97
179.744	-44.37
179.964	74.41
180.184	-25.94
180.404	55.98
180.624	-48.47
180.844	-44.37
181.064	-15.7
181.283	-3.41
181.503	25.26
181.723	8.87
181.943	-9.56
182.163	94.89
182.383	12.97
182.602	86.7
182.822	43.69
183.042	33.45
183.262	-105.81
183.482	68.27
183.701	37.55
183.921	-15.7
184.141	-9.56
184.361	33.45
184.58	86.7
184.8	31.4
185.02	-52.56
185.239	78.51
185.459	98.99
185.679	86.7
185.898	15.02
186.118	43.69
186.338	-36.18
186.557	31.4
186.777	17.07
186.997	70.31
187.216	-27.99
187.436	25.26
187.655	49.83
187.875	119.46
188.095	53.93
188.314	103.08
188.534	68.27
188.753	31.4
188.973	76.46
189.192	62.12
189.412	6.83
189.631	23.21
189.851	88.75
190.07	127.66
190.29	-7.51
190.509	0.68
190.729	31.4
190.948	119.46
191.168	203.43
191.387	53.93
191.607	12.97
191.826	31.4
192.045	45.74
192.265	-44.37
192.484	-13.65
192.704	21.16
192.923	-68.95
193.142	119.46
193.362	29.35
193.581	96.94
193.8	-3.41
194.02	41.64
194.239	23.21
194.458	68.27
194.678	12.97
194.897	47.79
195.116	103.08
195.335	45.74
195.555	53.93
195.774	6.83
195.993	94.89
196.212	23.21
196.432	-34.13
196.651	12.97
196.87	47.79
197.089	80.55
197.308	49.83
197.528	53.93
197.747	-34.13
197.966	-21.84
198.185	62.12
198.404	29.35
198.623	113.32
198.842	84.65
199.062	2.73
199.281	4.78
199.5	86.7
199.719	86.7
199.938	58.03
200.157	113.32
200.376	53.93
200.595	47.79
200.814	45.74
201.033	80.55
201.252	62.12
201.471	72.36
201.69	82.6
201.909	88.75
202.128	-3.41
202.347	78.51
202.566	-36.18
202.785	-13.65
203.004	-27.99
203.223	76.46
203.442	64.17
203.661	37.55
203.879	74.41
204.098	49.83
204.317	78.51
204.536	64.17
204.755	4.78
204.974	105.13
205.193	58.03
205.411	103.08
205.63	21.16
205.849	10.92
206.068	17.07
206.287	12.97
206.505	0.68
206.724	45.74
206.943	31.4
207.162	64.17
207.381	-34.13
207.599	-36.18
207.818	49.83
208.037	10.92
208.255	-1.37
208.474	64.17
208.693	60.07
208.911	39.59
209.13	101.03
209.349	21.16
209.567	105.13
209.786	88.75
210.005	-44.37
210.223	117.42
210.442	-44.37
210.661	125.61
210.879	15.02
211.098	-34.13
211.316	21.16
211.535	90.79
211.753	33.45
211.972	55.98
212.191	43.69
212.409	49.83
212.628	66.22
212.846	-44.37
213.065	27.31
213.283	62.12
213.502	-23.89
213.72	12.97
213.938	21.16
214.157	47.79
214.375	53.93
214.594	6.83
214.812	19.11
215.031	62.12
215.249	31.4
215.467	-32.08
215.686	-77.14
215.904	64.17
216.122	86.7
216.341	68.27
216.559	58.03
216.778	94.89
216.996	25.26
217.214	21.16
217.432	78.51
217.651	88.75
217.869	53.93
218.087	70.31
218.306	4.78
218.524	70.31
218.742	2.73
218.96	23.21
219.179	0.68
219.397	60.07
219.615	29.35
219.833	6.83
220.051	29.35
220.27	41.64
220.488	39.59
220.706	-17.75
220.924	33.45
221.142	62.12
221.36	51.88
221.578	37.55
221.796	29.35
222.015	23.21
222.233	21.16
222.451	53.93
222.669	6.83
222.887	86.7
223.105	-7.51
223.323	25.26
223.541	-23.89
223.759	62.12
223.977	0.68
224.195	146.09
224.413	35.5
224.631	64.17
224.849	17.07
225.067	74.41
225.285	-15.7
225.503	58.03
225.721	-19.8
225.939	111.27
226.157	47.79
226.375	176.81
226.592	29.35
226.81	23.21
227.028	53.93
227.246	107.18
227.464	58.03
227.682	92.84
227.9	23.21
228.117	86.7
228.335	6.83
228.553	37.55
228.771	-42.32
228.989	29.35
229.206	53.93
229.424	119.46
229.642	-19.8
229.86	29.35
230.077	25.26
230.295	53.93
230.513	62.12
230.731	15.02
230.948	115.37
231.166	135.85
231.384	45.74
231.601	60.07
231.819	115.37
232.037	-64.85
232.254	-11.61
232.472	21.16
232.689	-25.94
232.907	43.69
233.125	45.74
233.342	72.36
233.56	-3.41
233.777	37.55
233.995	-27.99
234.213	68.27
234.43	37.55
234.648	-13.65
234.865	-19.8
235.083	62.12
235.3	-11.61
235.518	29.35
235.735	119.46
235.953	72.36
236.17	37.55
236.388	94.89
236.605	80.55
236.822	86.7
237.04	-11.61
237.257	25.26
237.475	86.7
237.692	0.68
237.909	45.74
238.127	33.45
238.344	96.94
238.562	60.07
238.779	-11.61
238.996	-17.75
239.214	17.07
239.431	139.94
239.648	58.03
239.865	43.69
240.083	60.07
240.3	8.87
240.517	70.31
240.735	-1.37
240.952	88.75
241.169	19.11
241.386	2.73
241.603	-21.84
241.821	70.31
242.038	86.7
242.255	115.37
242.472	29.35
242.689	64.17
242.907	41.64
243.124	15.02
243.341	55.98
243.558	141.99
243.775	23.21
243.992	25.26
244.209	51.88
244.426	115.37
244.643	82.6
244.86	0.68
245.078	53.93
245.295	-23.89
245.512	70.31
245.729	47.79
245.946	80.55
246.163	135.85
246.38	17.07
246.597	53.93
246.814	96.94
247.031	47.79
247.248	94.89
247.464	-17.75
247.681	96.94
247.898	4.78
248.115	53.93
248.332	51.88
248.549	64.17
248.766	53.93
248.983	127.66
249.2	39.59
249.417	45.74
249.633	29.35
249.85	37.55
250.067	31.4
250.284	41.64
250.501	78.51
250.717	113.32
250.934	4.78
251.151	51.88
251.368	80.55
251.585	33.45
251.801	29.35
252.018	15.02
252.235	80.55
252.451	43.69
252.668	37.55
252.885	39.59
253.102	33.45
253.318	66.22
253.535	31.4
253.752	4.78
253.968	6.83
254.185	12.97
254.401	-21.84
254.618	60.07
254.835	-3.41
255.051	74.41
255.268	4.78
255.484	-19.8
255.701	-54.61
255.917	51.88
256.134	-44.37
256.351	51.88
256.567	27.31
256.784	62.12
257	29.35
257.217	78.51
257.433	53.93
257.65	29.35
257.866	53.93
258.082	-9.56
258.299	25.26
258.515	53.93
258.732	12.97
258.948	-9.56
259.165	29.35
259.381	29.35
259.597	88.75
259.814	-11.61
260.03	29.35
260.246	37.55
260.463	74.41
260.679	133.8
260.895	70.31
261.112	8.87
261.328	62.12
261.544	-17.75
261.761	29.35
261.977	33.45
262.193	10.92
262.409	6.83
262.626	70.31
262.842	64.17
263.058	23.21
263.274	45.74
263.49	53.93
263.707	37.55
263.923	62.12
264.139	58.03
264.355	45.74
264.571	90.79
264.787	25.26
265.004	146.09
265.22	80.55
265.436	-3.41
265.652	23.21
265.868	0.68
266.084	41.64
266.3	4.78
266.516	31.4
266.732	47.79
266.948	4.78
267.164	64.17
267.38	80.55
267.596	37.55
267.812	139.94
268.028	129.7
268.244	43.69
268.46	12.97
268.676	37.55
268.892	115.37
269.108	45.74
269.324	74.41
269.54	35.5
269.756	8.87
269.972	-3.41
270.188	78.51
270.403	-1.37
270.619	74.41
270.835	33.45
271.051	-60.76
271.267	62.12
271.483	37.55
271.698	21.16
271.914	41.64
272.13	31.4
272.346	49.83
272.562	94.89
272.777	21.16
272.993	-11.61
273.209	70.31
273.425	31.4
273.64	47.79
273.856	53.93
274.072	19.11
274.287	25.26
274.503	72.36
274.719	41.64
274.934	78.51
275.15	-60.76
275.366	47.79
275.581	-40.28
275.797	82.6
276.012	96.94
276.228	39.59
276.444	41.64
276.659	55.98
276.875	60.07
277.09	31.4
277.306	23.21
277.521	127.66
277.737	53.93
277.952	29.35
278.168	12.97
278.383	55.98
278.599	45.74
278.814	123.56
279.03	70.31
279.245	72.36
279.461	29.35
279.676	58.03
279.892	4.78
280.107	-3.41
280.322	-15.7
280.538	72.36
280.753	4.78
280.969	72.36
281.184	80.55
281.399	90.79
281.615	64.17
281.83	90.79
282.045	25.26
282.26	4.78
282.476	-3.41
282.691	96.94
282.906	-11.61
283.122	58.03
283.337	72.36
283.552	187.05
283.767	-25.94
283.983	64.17
284.198	-27.99
284.413	-15.7
284.628	53.93
284.843	70.31
285.058	25.26
285.274	21.16
285.489	45.74
285.704	41.64
285.919	12.97
286.134	74.41
286.349	17.07
286.564	12.97
286.779	64.17
286.995	47.79
287.21	66.22
287.425	53.93
287.64	-44.37
287.855	60.07
288.07	-46.42
288.285	49.83
288.5	94.89
288.715	88.75
288.93	37.55
289.145	49.83
289.36	107.18
289.575	33.45
289.79	41.64
290.004	23.21
290.219	12.97
290.434	0.68
290.649	10.92
290.864	86.7
291.079	45.74
291.294	-27.99
291.509	45.74
291.724	45.74
291.938	88.75
292.153	123.56
292.368	74.41
292.583	86.7
292.798	33.45
293.012	49.83
293.227	-21.84
293.442	37.55
293.657	58.03
293.871	62.12
294.086	53.93
294.301	103.08
294.516	-19.8
294.73	51.88
294.945	8.87
295.16	103.08
295.374	47.79
295.589	137.9
295.804	21.16
296.018	6.83
296.233	51.88
296.447	113.32
296.662	82.6
296.877	94.89
297.091	66.22
297.306	53.93
297.52	27.31
297.735	64.17
297.949	113.32
298.164	6.83
298.378	37.55
298.593	94.89
298.807	37.55
299.022	4.78
299.236	37.55
299.451	-19.8
299.665	8.87
299.88	53.93
300.094	-15.7
300.309	62.12
300.523	10.92
300.737	21.16
300.952	150.18
301.166	78.51
301.381	21.16
301.595	10.92
301.809	33.45
302.024	53.93
302.238	-17.75
302.452	103.08
302.667	45.74
302.881	107.18
303.095	33.45
303.309	96.94
303.524	82.6
303.738	62.12
303.952	12.97
304.166	94.89
304.381	-56.66
304.595	31.4
304.809	127.66
305.023	47.79
305.237	33.45
305.452	0.68
305.666	62.12
305.88	29.35
306.094	105.13
306.308	27.31
306.522	41.64
306.736	80.55
306.95	72.36
307.164	-44.37
307.379	53.93
307.593	86.7
307.807	111.27
308.021	-1.37
308.235	53.93
308.449	55.98
308.663	8.87
308.877	111.27
309.091	31.4
309.305	51.88
309.519	-19.8
309.733	-5.46
309.947	2.73
310.161	25.26
310.374	74.41
310.588	62.12
310.802	41.64
311.016	45.74
311.23	49.83
311.444	78.51
311.658	39.59
311.872	70.31
312.085	70.31
312.299	117.42
312.513	33.45
312.727	47.79
312.941	-19.8
313.154	66.22
313.368	31.4
313.582	21.16
313.796	17.07
314.009	47.79
314.223	115.37
314.437	70.31
314.651	109.23
314.864	37.55
315.078	103.08
315.292	58.03
315.505	-1.37
315.719	64.17
315.933	12.97
316.146	25.26
316.36	-17.75
316.573	64.17
316.787	31.4
317.001	121.51
317.214	82.6
317.428	53.93
317.641	64.17
317.855	37.55
318.068	53.93
318.282	31.4
318.495	53.93
318.709	113.32
318.922	-11.61
319.136	86.7
319.349	123.56
319.563	96.94
319.776	82.6
319.99	45.74
320.203	58.03
320.417	66.22
320.63	37.55
320.843	31.4
321.057	45.74
321.27	12.97
321.483	64.17
321.697	41.64
321.91	12.97
322.124	51.88
322.337	74.41
322.55	78.51
322.763	72.36
322.977	74.41
323.19	29.35
323.403	-11.61
323.617	74.41
323.83	129.7
324.043	29.35
324.256	72.36
324.469	12.97
324.683	103.08
324.896	29.35
325.109	66.22
325.322	8.87
325.535	76.46
325.748	74.41
325.962	119.46
326.175	29.35
326.388	-7.51
326.601	33.45
326.814	66.22
327.027	74.41
327.24	119.46
327.453	23.21
327.666	90.79
327.879	88.75
328.092	86.7
328.305	8.87
328.518	4.78
328.731	21.16
328.944	-42.32
329.157	74.41
329.37	66.22
329.583	47.79
329.796	96.94
330.009	-32.08
330.222	78.51
330.435	90.79
330.648	96.94
330.861	41.64
331.073	45.74
331.286	105.13
331.499	103.08
331.712	55.98
331.925	82.6
332.138	53.93
332.35	168.62
332.563	47.79
332.776	23.21
332.989	53.93
333.202	74.41
333.414	64.17
333.627	23.21
333.84	66.22
334.053	58.03
334.265	119.46
334.478	33.45
334.691	80.55
334.903	111.27
335.116	-36.18
335.329	78.51
335.541	37.55
335.754	133.8
335.966	12.97
336.179	119.46
336.392	35.5
336.604	72.36
336.817	78.51
337.029	62.12
337.242	88.75
337.454	121.51
337.667	86.7
337.88	162.47
338.092	39.59
338.305	98.99
338.517	78.51
338.729	45.74
338.942	70.31
339.154	17.07
339.367	-58.71
339.579	164.52
339.792	33.45
340.004	31.4
340.217	27.31
340.429	33.45
340.641	21.16
340.854	80.55
341.066	-9.56
341.278	109.23
341.491	96.94
341.703	47.79
341.915	10.92
342.128	41.64
342.34	66.22
342.552	-11.61
342.764	25.26
342.977	37.55
343.189	21.16
343.401	90.79
343.613	-56.66
343.826	62.12
344.038	-1.37
344.25	0.68
344.462	-9.56
344.674	74.41
344.886	66.22
345.099	-27.99
345.311	96.94
345.523	6.83
345.735	45.74
345.947	37.55
346.159	92.84
346.371	45.74
346.583	0.68
346.795	94.89
347.007	74.41
347.219	80.55
347.431	86.7
347.643	96.94
347.855	86.7
348.067	86.7
348.279	72.36
348.491	62.12
348.703	45.74
348.915	-17.75
349.127	101.03
349.339	86.7
349.551	-17.75
349.763	19.11
349.975	70.31
350.187	96.94
350.399	105.13
350.61	78.51
350.822	78.51
351.034	64.17
351.246	12.97
351.458	78.51
351.669	90.79
351.881	51.88
352.093	39.59
352.305	131.75
352.517	80.55
352.728	121.51
352.94	-9.56
353.152	90.79
353.363	23.21
353.575	58.03
353.787	96.94
353.999	31.4
354.21	8.87
354.422	-23.89
354.633	90.79
354.845	74.41
355.057	29.35
355.268	35.5
355.48	60.07
355.692	121.51
355.903	33.45
356.115	62.12
356.326	21.16
356.538	53.93
356.749	78.51
356.961	86.7
357.172	31.4
357.384	25.26
357.595	129.7
357.807	39.59
358.018	23.21
358.23	49.83
358.441	119.46
358.653	62.12
358.864	117.42
359.075	37.55
359.287	78.51
359.498	64.17
359.709	45.74
359.921	78.51
360.132	98.99
360.344	101.03
360.555	115.37
360.766	117.42
360.977	21.16
361.189	41.64
361.4	37.55
361.611	66.22
361.823	94.89
362.034	31.4
362.245	12.97
362.456	21.16
362.667	109.23
362.879	66.22
363.09	8.87
363.301	115.37
363.512	74.41
363.723	98.99
363.935	47.79
364.146	115.37
364.357	-52.56
364.568	78.51
364.779	25.26
364.99	86.7
365.201	146.09
365.412	111.27
365.623	-27.99
365.834	101.03
366.045	31.4
366.256	70.31
366.467	98.99
366.678	127.66
366.889	10.92
367.1	47.79
367.311	109.23
367.522	23.21
367.733	64.17
367.944	82.6
368.155	45.74
368.366	82.6
368.577	170.66
368.788	78.51
368.999	141.99
369.209	39.59
369.42	139.94
369.631	164.52
369.842	55.98
370.053	58.03
370.264	58.03
370.474	86.7
370.685	92.84
370.896	-3.41
371.107	103.08
371.317	29.35
371.528	29.35
371.739	88.75
371.95	88.75
372.16	135.85
372.371	62.12
372.582	82.6
372.792	66.22
373.003	133.8
373.214	10.92
373.424	94.89
373.635	-17.75
373.846	96.94
374.056	23.21
374.267	55.98
374.477	39.59
374.688	29.35
374.898	-15.7
375.109	78.51
375.319	82.6
375.53	113.32
375.74	176.81
375.951	187.05
376.161	121.51
376.372	60.07
376.582	135.85
376.793	47.79
377.003	103.08
377.214	33.45
377.424	49.83
377.635	98.99
377.845	88.75
378.055	45.74
378.266	8.87
378.476	113.32
378.686	78.51
378.897	109.23
379.107	144.04
379.317	141.99
379.528	78.51
379.738	103.08
379.948	76.46
380.158	103.08
380.369	84.65
380.579	37.55
380.789	111.27
380.999	119.46
381.21	25.26
381.42	123.56
381.63	45.74
381.84	80.55
382.05	139.94
382.261	86.7
382.471	137.9
382.681	53.93
382.891	111.27
383.101	105.13
383.311	10.92
383.521	-15.7
383.731	90.79
383.941	111.27
384.151	103.08
384.361	72.36
384.571	121.51
384.781	111.27
384.991	182.95
385.201	180.9
385.411	-7.51
385.621	135.85
385.831	115.37
386.041	107.18
386.251	96.94
386.461	135.85
386.671	78.51
386.881	109.23
387.091	29.35
387.301	74.41
387.511	98.99
387.72	131.75
387.93	94.89
388.14	70.31
388.35	74.41
388.56	21.16
388.769	103.08
388.979	37.55
389.189	105.13
389.399	144.04
389.609	156.33
389.818	139.94
390.028	88.75
390.238	80.55
390.447	72.36
390.657	47.79
390.867	150.18
391.076	72.36
391.286	45.74
391.496	107.18
391.705	51.88
391.915	213.67
392.125	172.71
392.334	111.27
392.544	209.58
392.753	158.38
392.963	90.79
393.172	94.89
393.382	76.46
393.591	189.1
393.801	129.7
394.01	160.42
394.22	127.66
394.429	137.9
394.639	70.31
394.848	86.7
395.058	129.7
395.267	123.56
395.477	82.6
395.686	144.04
395.895	211.62
396.105	178.86
396.314	160.42
396.524	74.41
396.733	129.7
396.942	156.33
397.152	219.82
397.361	168.62
397.57	62.12
397.78	135.85
397.989	144.04
398.198	148.14
398.407	121.51
398.617	185
398.826	182.95
399.035	150.18
399.244	113.32
399.453	111.27
399.663	144.04
399.872	160.42
400.081	121.51
400.29	154.28
400.499	55.98
400.708	187.05
400.917	203.43
401.127	168.62
401.336	156.33
401.545	160.42
401.754	172.71
401.963	127.66
402.172	115.37
402.381	55.98
402.59	207.53
402.799	135.85
403.008	203.43
403.217	225.96
403.426	201.38
403.635	135.85
403.844	113.32
404.053	314.02
404.262	172.71
404.471	242.34
404.68	246.44
404.888	234.15
405.097	221.86
405.306	219.82
405.515	305.83
405.724	250.53
405.933	268.97
406.142	303.78
406.35	324.26
406.559	328.36
406.768	250.53
406.977	365.22
407.185	316.07
407.394	340.65
407.603	230.06
407.812	406.18
408.02	357.03
408.229	324.26
408.438	271.01
408.646	402.08
408.855	414.37
409.064	430.76
409.272	463.52
409.481	397.99
409.69	447.14
409.898	447.14
410.107	416.42
410.315	496.29
410.524	481.96
410.733	481.96
410.941	565.92
411.15	649.89
411.358	533.15
411.567	662.18
411.775	539.3
411.984	522.91
412.192	668.32
412.401	631.46
412.609	610.98
412.818	711.33
413.026	727.71
413.234	799.39
413.443	842.4
413.651	819.87
413.86	887.45
414.068	918.17
414.276	926.36
414.485	1000.09
414.693	1051.29
414.901	998.04
415.11	1122.97
415.318	1024.67
415.526	1163.93
415.734	1192.6
415.943	1110.68
416.151	1282.71
416.359	1233.56
416.567	1350.29
416.776	1397.4
416.984	1495.7
417.192	1481.36
417.4	1522.32
417.608	1561.23
417.817	1637.01
418.025	1616.53
418.233	1817.23
418.441	1731.22
418.649	1833.61
418.857	1944.21
419.065	2085.51
419.273	2022.03
419.481	2097.8
419.689	2300.55
419.897	2333.32
420.105	2409.09
420.313	2376.33
420.521	2497.16
420.729	2546.31
420.937	2564.74
421.145	2675.33
421.353	2980.48
421.561	3080.83
421.769	2982.53
421.977	3179.13
422.185	3103.36
422.393	3469.94
422.601	3601.01
422.809	3715.7
423.017	3521.14
423.224	3707.51
423.432	3897.97
423.64	3797.62
423.848	4299.37
424.056	4002.41
424.263	4584.04
424.471	4352.62
424.679	4469.35
424.887	4719.2
425.094	4946.53
425.302	4956.77
425.51	5124.7
425.718	5257.82
425.925	5446.23
426.133	5491.29
426.341	5962.32
426.548	6013.52
426.756	6195.79
426.964	5988.94
427.171	6523.46
427.379	6732.36
427.586	6738.5
427.794	6984.26
428.001	7385.66
428.209	7606.84
428.417	7479.86
428.624	7987.76
428.832	7961.14
429.039	7977.52
429.247	7961.14
429.454	8790.56
429.662	9228.83
429.869	8735.27
430.076	9077.28
430.284	9087.52
430.491	9486.87
430.699	9953.81
430.906	9910.8
431.114	10267.15
431.321	10451.47
431.528	10660.36
431.736	11287.04
431.943	11885.05
432.15	11645.43
432.358	11450.88
432.565	12466.67
432.772	12186.1
432.979	12693.99
433.187	12997.09
433.394	13089.25
433.601	14064.08
433.808	13982.17
434.016	14096.85
434.223	14680.52
434.43	15514.05
434.637	15339.97
434.844	16271.79
435.052	16511.41
435.259	16466.35
435.466	16685.48
435.673	16347.57
435.88	17281.44
436.087	18272.66
436.294	17824.15
436.501	17977.75
436.708	18241.94
436.915	18745.74
437.122	19509.63
437.329	19749.25
437.537	20386.16
437.743	20617.58
437.95	20179.32
438.157	21707.1
438.364	22092.12
438.571	22171.99
438.778	22522.19
438.985	24232.25
439.192	23492.93
439.399	24430.9
439.606	23560.52
439.813	24891.69
440.02	26208.54
440.227	25792.8
440.433	25702.69
440.64	26538.26
440.847	26347.8
441.054	26724.63
441.261	28823.79
441.467	28117.25
441.674	29124.85
441.881	29921.51
442.088	30075.1
442.294	30056.67
442.501	30095.58
442.708	30871.76
442.914	32358.59
443.121	33515.69
443.328	32217.28
443.534	34664.6
443.741	34125.99
443.948	33380.53
444.154	35766.41
444.361	35510.41
444.568	35790.98
444.774	35827.85
444.981	36018.31
445.187	37300.34
445.394	39139.41
445.6	38410.34
445.807	41951.27
446.013	40093.77
446.22	40833.08
446.426	42516.51
446.633	42874.91
446.839	44038.15
447.046	42326.05
447.252	44716.03
447.459	44908.54
447.665	44150.79
447.871	46352.36
448.078	48367.56
448.284	46299.11
448.491	47210.46
448.697	49072.06
448.903	49799.09
449.11	49887.15
449.316	49383.35
449.522	50612.13
449.728	51371.93
449.935	51423.13
450.141	51937.17
450.347	52268.94
450.553	50554.79
450.76	51914.64
450.966	52828.04
451.172	52934.53
451.378	54124.4
451.584	52598.66
451.791	54284.14
451.997	53919.6
452.203	54802.28
452.409	54871.91
452.615	53946.23
452.821	52795.27
453.027	52602.76
453.233	54925.16
453.44	52320.14
453.646	53077.89
453.852	53063.55
454.058	53985.14
454.264	52576.14
454.47	53544.83
454.676	52682.63
454.882	53974.9
455.088	49715.12
455.294	50186.16
455.5	50882.47
455.705	50728.87
455.911	48998.33
456.117	48508.87
456.323	48367.56
456.529	45664.24
456.735	47646.68
456.941	46016.49
457.147	45416.44
457.352	43595.79
457.558	43503.63
457.764	43816.97
457.97	42647.58
458.176	41713.71
458.381	42082.34
458.587	39368.79
458.793	40030.28
458.999	37472.37
459.204	40536.13
459.41	39530.58
459.616	37021.81
459.821	37183.6
460.027	36706.43
460.233	35936.39
460.438	34330.78
460.644	34834.58
460.85	32620.73
461.055	32641.21
461.261	32393.4
461.466	30038.24
461.672	29251.82
461.878	31170.77
462.083	29053.17
462.289	28616.95
462.494	28457.21
462.7	26902.8
462.905	26243.35
463.111	27218.19
463.316	27539.72
463.522	26755.35
463.727	26949.9
463.932	26947.86
464.138	26276.12
464.343	26642.71
464.549	25798.94
464.754	26644.76
464.959	26587.41
465.165	26396.95
465.37	24881.45
465.575	24641.84
465.781	25549.09
465.986	25624.87
