Data from USB4F104151__252__14-34-16-259.txt Node

Date: Thu Mar 13 14:34:16 EDT 2025
User: louis
Spectrometer: USB4F10415
Trigger mode: 4
Integration Time (sec): 2.500000E-2
Scans to average: 1
Electric dark correction enabled: true
Nonlinearity correction enabled: false
Boxcar width: 0
XAxis mode: Wavelengths
Number of Pixels in Spectrum: 3648
>>>>>Begin Spectral Data<<<<<
178.204	-78.68
178.424	-78.68
178.644	-78.68
178.864	-123.73
179.084	-172.88
179.304	23.72
179.524	19.63
179.744	-17.24
179.964	27.82
180.184	-13.14
180.404	-21.33
180.624	15.53
180.844	-2.9
181.064	-4.95
181.283	19.63
181.503	-41.81
181.723	-4.95
181.943	3.24
182.163	29.87
182.383	-29.52
182.602	7.34
182.822	68.78
183.042	23.72
183.262	-11.09
183.482	27.82
183.701	44.2
183.921	23.72
184.141	-68.44
184.361	44.2
184.58	1.19
184.8	70.83
185.02	11.43
185.239	68.78
185.459	11.43
185.679	64.68
185.898	5.29
186.118	68.78
186.338	-37.72
186.557	64.68
186.777	11.43
186.997	52.39
187.216	44.2
187.436	113.83
187.655	74.92
187.875	54.44
188.095	21.67
188.314	38.06
188.534	62.63
188.753	31.91
188.973	54.44
189.192	66.73
189.412	21.67
189.631	-11.09
189.851	40.11
190.07	87.21
190.29	-13.14
190.509	1.19
190.729	21.67
190.948	-13.14
191.168	130.22
191.387	91.31
191.607	-19.29
191.826	62.63
192.045	46.25
192.265	-45.91
192.484	136.36
192.704	17.58
192.923	46.25
193.142	36.01
193.362	11.43
193.581	52.39
193.8	76.97
194.02	138.41
194.239	44.2
194.458	15.53
194.678	27.82
194.897	40.11
195.116	48.3
195.335	76.97
195.555	76.97
195.774	11.43
195.993	21.67
196.212	29.87
196.432	-15.19
196.651	11.43
196.87	54.44
197.089	46.25
197.308	-45.91
197.528	17.58
197.747	-17.24
197.966	9.39
198.185	126.12
198.404	-9.05
198.623	85.16
198.842	126.12
199.062	19.63
199.281	40.11
199.5	15.53
199.719	46.25
199.938	46.25
200.157	56.49
200.376	44.2
200.595	66.73
200.814	3.24
201.033	-25.43
201.252	52.39
201.471	-70.48
201.69	36.01
201.909	95.4
202.128	50.35
202.347	93.35
202.566	44.2
202.785	3.24
203.004	7.34
203.223	101.55
203.442	70.83
203.661	19.63
203.879	27.82
204.098	38.06
204.317	-2.9
204.536	5.29
204.755	7.34
204.974	58.54
205.193	36.01
205.411	117.93
205.63	44.2
205.849	76.97
206.068	5.29
206.287	-13.14
206.505	119.98
206.724	33.96
206.943	36.01
207.162	-4.95
207.381	44.2
207.599	27.82
207.818	117.93
208.037	85.16
208.255	25.77
208.474	68.78
208.693	31.91
208.911	5.29
209.13	-7
209.349	40.11
209.567	27.82
209.786	62.63
210.005	101.55
210.223	15.53
210.442	-70.48
210.661	29.87
210.879	13.48
211.098	5.29
211.316	85.16
211.535	19.63
211.753	60.59
211.972	21.67
212.191	60.59
212.409	68.78
212.628	40.11
212.846	46.25
213.065	-21.33
213.283	38.06
213.502	31.91
213.72	38.06
213.938	60.59
214.157	5.29
214.375	138.41
214.594	-60.24
214.812	42.15
215.031	27.82
215.249	-27.48
215.467	62.63
215.686	76.97
215.904	64.68
216.122	64.68
216.341	93.35
216.559	15.53
216.778	52.39
216.996	54.44
217.214	50.35
217.432	56.49
217.651	11.43
217.869	87.21
218.087	31.91
218.306	3.24
218.524	70.83
218.742	33.96
218.96	36.01
219.179	66.73
219.397	85.16
219.615	72.87
219.833	68.78
220.051	-45.91
220.27	128.17
220.488	138.41
220.706	31.91
220.924	52.39
221.142	48.3
221.36	60.59
221.578	111.78
221.796	-4.95
222.015	62.63
222.233	-29.52
222.451	11.43
222.669	81.07
222.887	130.22
223.105	-15.19
223.323	19.63
223.541	-64.34
223.759	-0.85
223.977	-13.14
224.195	5.29
224.413	-2.9
224.631	40.11
224.849	29.87
225.067	113.83
225.285	11.43
225.503	-4.95
225.721	-33.62
225.939	-2.9
226.157	-25.43
226.375	93.35
226.592	36.01
226.81	11.43
227.028	54.44
227.246	36.01
227.464	21.67
227.682	7.34
227.9	68.78
228.117	56.49
228.335	40.11
228.553	19.63
228.771	27.82
228.989	52.39
229.206	54.44
229.424	-11.09
229.642	-4.95
229.86	-19.29
230.077	111.78
230.295	60.59
230.513	72.87
230.731	52.39
230.948	64.68
231.166	101.55
231.384	-21.33
231.601	117.93
231.819	38.06
232.037	27.82
232.254	7.34
232.472	60.59
232.689	48.3
232.907	36.01
233.125	36.01
233.342	56.49
233.56	-0.85
233.777	11.43
233.995	11.43
234.213	156.84
234.43	52.39
234.648	70.83
234.865	-25.43
235.083	46.25
235.3	33.96
235.518	-0.85
235.735	85.16
235.953	38.06
236.17	-43.86
236.388	-25.43
236.605	46.25
236.822	68.78
237.04	95.4
237.257	-27.48
237.475	48.3
237.692	79.02
237.909	-25.43
238.127	-17.24
238.344	89.26
238.562	29.87
238.779	54.44
238.996	-9.05
239.214	19.63
239.431	64.68
239.648	3.24
239.865	38.06
240.083	83.11
240.3	36.01
240.517	13.48
240.735	-21.33
240.952	64.68
241.169	64.68
241.386	27.82
241.603	-37.72
241.821	-31.57
242.038	15.53
242.255	52.39
242.472	9.39
242.689	46.25
242.907	68.78
243.124	15.53
243.341	27.82
243.558	50.35
243.775	74.92
243.992	-101.2
244.209	5.29
244.426	109.74
244.643	64.68
244.86	1.19
245.078	-0.85
245.295	54.44
245.512	87.21
245.729	-31.57
245.946	7.34
246.163	95.4
246.38	52.39
246.597	68.78
246.814	68.78
247.031	5.29
247.248	60.59
247.464	93.35
247.681	101.55
247.898	68.78
248.115	85.16
248.332	11.43
248.549	50.35
248.766	105.64
248.983	31.91
249.2	87.21
249.417	44.2
249.633	13.48
249.85	54.44
250.067	44.2
250.284	54.44
250.501	1.19
250.717	101.55
250.934	-2.9
251.151	105.64
251.368	44.2
251.585	76.97
251.801	3.24
252.018	7.34
252.235	93.35
252.451	-19.29
252.668	64.68
252.885	36.01
253.102	-2.9
253.318	56.49
253.535	23.72
253.752	79.02
253.968	27.82
254.185	-29.52
254.401	60.59
254.618	19.63
254.835	54.44
255.051	85.16
255.268	21.67
255.484	64.68
255.701	87.21
255.917	103.59
256.134	-52.05
256.351	-23.38
256.567	-29.52
256.784	38.06
257	-37.72
257.217	76.97
257.433	60.59
257.65	52.39
257.866	72.87
258.082	31.91
258.299	-2.9
258.515	27.82
258.732	29.87
258.948	17.58
259.165	11.43
259.381	79.02
259.597	81.07
259.814	36.01
260.03	60.59
260.246	54.44
260.463	95.4
260.679	19.63
260.895	15.53
261.112	56.49
261.328	-2.9
261.544	-2.9
261.761	140.46
261.977	60.59
262.193	-23.38
262.409	44.2
262.626	38.06
262.842	27.82
263.058	40.11
263.274	62.63
263.49	7.34
263.707	21.67
263.923	70.83
264.139	54.44
264.355	17.58
264.571	-41.81
264.787	85.16
265.004	119.98
265.22	-25.43
265.436	36.01
265.652	81.07
265.868	99.5
266.084	-4.95
266.3	-21.33
266.516	-19.29
266.732	11.43
266.948	-43.86
267.164	38.06
267.38	72.87
267.596	58.54
267.812	79.02
268.028	36.01
268.244	36.01
268.46	21.67
268.676	36.01
268.892	60.59
269.108	-35.67
269.324	27.82
269.54	-9.05
269.756	9.39
269.972	3.24
270.188	44.2
270.403	-70.48
270.619	44.2
270.835	97.45
271.051	11.43
271.267	83.11
271.483	13.48
271.698	-2.9
271.914	68.78
272.13	3.24
272.346	54.44
272.562	132.26
272.777	38.06
272.993	29.87
273.209	3.24
273.425	74.92
273.64	19.63
273.856	89.26
274.072	19.63
274.287	-52.05
274.503	27.82
274.719	48.3
274.934	31.91
275.15	-2.9
275.366	-21.33
275.581	-9.05
275.797	44.2
276.012	11.43
276.228	46.25
276.444	-29.52
276.659	36.01
276.875	-2.9
277.09	68.78
277.306	15.53
277.521	36.01
277.737	-25.43
277.952	54.44
278.168	89.26
278.383	52.39
278.599	25.77
278.814	29.87
279.03	44.2
279.245	70.83
279.461	-15.19
279.676	72.87
279.892	3.24
280.107	-50
280.322	11.43
280.538	76.97
280.753	-72.53
280.969	56.49
281.184	44.2
281.399	79.02
281.615	-4.95
281.83	103.59
282.045	-19.29
282.26	-15.19
282.476	-29.52
282.691	122.02
282.906	7.34
283.122	68.78
283.337	-21.33
283.552	72.87
283.767	52.39
283.983	66.73
284.198	38.06
284.413	76.97
284.628	15.53
284.843	117.93
285.058	126.12
285.274	46.25
285.489	23.72
285.704	89.26
285.919	11.43
286.134	11.43
286.349	44.2
286.564	19.63
286.779	101.55
286.995	62.63
287.21	60.59
287.425	70.83
287.64	21.67
287.855	29.87
288.07	-4.95
288.285	122.02
288.5	36.01
288.715	109.74
288.93	68.78
289.145	44.2
289.36	72.87
289.575	17.58
289.79	68.78
290.004	11.43
290.219	17.58
290.434	21.67
290.649	93.35
290.864	93.35
291.079	-68.44
291.294	46.25
291.509	48.3
291.724	46.25
291.938	54.44
292.153	68.78
292.368	29.87
292.583	11.43
292.798	81.07
293.012	13.48
293.227	148.65
293.442	-29.52
293.657	107.69
293.871	64.68
294.086	33.96
294.301	79.02
294.516	136.36
294.73	5.29
294.945	-13.14
295.16	81.07
295.374	21.67
295.589	56.49
295.804	15.53
296.018	-45.91
296.233	107.69
296.447	56.49
296.662	54.44
296.877	126.12
297.091	46.25
297.306	36.01
297.52	40.11
297.735	56.49
297.949	58.54
298.164	81.07
298.378	54.44
298.593	17.58
298.807	36.01
299.022	21.67
299.236	87.21
299.451	105.64
299.665	56.49
299.88	54.44
300.094	5.29
300.309	-43.86
300.523	76.97
300.737	81.07
300.952	-19.29
301.166	44.2
301.381	29.87
301.595	7.34
301.809	-45.91
302.024	44.2
302.238	15.53
302.452	109.74
302.667	52.39
302.881	76.97
303.095	64.68
303.309	44.2
303.524	36.01
303.738	64.68
303.952	23.72
304.166	46.25
304.381	-13.14
304.595	64.68
304.809	3.24
305.023	-19.29
305.237	-35.67
305.452	7.34
305.666	44.2
305.88	60.59
306.094	-62.29
306.308	52.39
306.522	134.31
306.736	36.01
306.95	74.92
307.164	76.97
307.379	-19.29
307.593	89.26
307.807	109.74
308.021	50.35
308.235	52.39
308.449	-35.67
308.663	13.48
308.877	58.54
309.091	48.3
309.305	60.59
309.519	-29.52
309.733	36.01
309.947	68.78
310.161	62.63
310.374	107.69
310.588	3.24
310.802	29.87
311.016	11.43
311.23	15.53
311.444	17.58
311.658	36.01
311.872	60.59
312.085	97.45
312.299	87.21
312.513	122.02
312.727	-23.38
312.941	44.2
313.154	48.3
313.368	60.59
313.582	-19.29
313.796	79.02
314.009	50.35
314.223	9.39
314.437	19.63
314.651	60.59
314.864	46.25
315.078	-15.19
315.292	13.48
315.505	60.59
315.719	76.97
315.933	52.39
316.146	13.48
316.36	9.39
316.573	64.68
316.787	81.07
317.001	38.06
317.214	25.77
317.428	79.02
317.641	42.15
317.855	76.97
318.068	-27.48
318.282	-17.24
318.495	132.26
318.709	40.11
318.922	29.87
319.136	105.64
319.349	70.83
319.563	87.21
319.776	36.01
319.99	-35.67
320.203	117.93
320.417	93.35
320.63	48.3
320.843	126.12
321.057	62.63
321.27	119.98
321.483	27.82
321.697	85.16
321.91	79.02
322.124	101.55
322.337	68.78
322.55	5.29
322.763	44.2
322.977	46.25
323.19	46.25
323.403	60.59
323.617	-4.95
323.83	52.39
324.043	44.2
324.256	52.39
324.469	3.24
324.683	23.72
324.896	76.97
325.109	13.48
325.322	7.34
325.535	70.83
325.748	64.68
325.962	15.53
326.175	5.29
326.388	7.34
326.601	124.07
326.814	111.78
327.027	54.44
327.24	93.35
327.453	-52.05
327.666	-0.85
327.879	27.82
328.092	44.2
328.305	99.5
328.518	-9.05
328.731	19.63
328.944	21.67
329.157	79.02
329.37	25.77
329.583	93.35
329.796	117.93
330.009	-2.9
330.222	56.49
330.435	103.59
330.648	101.55
330.861	-4.95
331.073	66.73
331.286	29.87
331.499	38.06
331.712	58.54
331.925	36.01
332.138	13.48
332.35	93.35
332.563	9.39
332.776	62.63
332.989	-13.14
333.202	144.55
333.414	19.63
333.627	62.63
333.84	46.25
334.053	54.44
334.265	56.49
334.478	7.34
334.691	23.72
334.903	81.07
335.116	-9.05
335.329	29.87
335.541	103.59
335.754	64.68
335.966	-13.14
336.179	117.93
336.392	5.29
336.604	36.01
336.817	93.35
337.029	21.67
337.242	81.07
337.454	97.45
337.667	15.53
337.88	111.78
338.092	58.54
338.305	19.63
338.517	3.24
338.729	64.68
338.942	68.78
339.154	-17.24
339.367	38.06
339.579	40.11
339.792	-45.91
340.004	81.07
340.217	-9.05
340.429	36.01
340.641	-13.14
340.854	-47.96
341.066	-19.29
341.278	79.02
341.491	144.55
341.703	23.72
341.915	85.16
342.128	79.02
342.34	1.19
342.552	19.63
342.764	15.53
342.977	38.06
343.189	64.68
343.401	-13.14
343.613	29.87
343.826	31.91
344.038	-2.9
344.25	27.82
344.462	-21.33
344.674	11.43
344.886	54.44
345.099	103.59
345.311	56.49
345.523	48.3
345.735	-33.62
345.947	95.4
346.159	21.67
346.371	60.59
346.583	48.3
346.795	36.01
347.007	-13.14
347.219	-4.95
347.431	52.39
347.643	79.02
347.855	27.82
348.067	52.39
348.279	50.35
348.491	23.72
348.703	68.78
348.915	54.44
349.127	60.59
349.339	46.25
349.551	33.96
349.763	46.25
349.975	40.11
350.187	101.55
350.399	150.7
350.61	15.53
350.822	-11.09
351.034	109.74
351.246	85.16
351.458	64.68
351.669	101.55
351.881	111.78
352.093	-41.81
352.305	169.13
352.517	-29.52
352.728	126.12
352.94	-86.87
353.152	134.31
353.363	72.87
353.575	79.02
353.787	62.63
353.999	76.97
354.21	97.45
354.422	-9.05
354.633	29.87
354.845	27.82
355.057	72.87
355.268	142.5
355.48	-13.14
355.692	-54.1
355.903	23.72
356.115	27.82
356.326	17.58
356.538	62.63
356.749	119.98
356.961	72.87
357.172	27.82
357.384	79.02
357.595	134.31
357.807	13.48
358.018	60.59
358.23	79.02
358.441	93.35
358.653	33.96
358.864	68.78
359.075	3.24
359.287	27.82
359.498	99.5
359.709	74.92
359.921	101.55
360.132	42.15
360.344	113.83
360.555	44.2
360.766	72.87
360.977	68.78
361.189	72.87
361.4	54.44
361.611	93.35
361.823	72.87
362.034	-29.52
362.245	40.11
362.456	29.87
362.667	19.63
362.879	7.34
363.09	89.26
363.301	60.59
363.512	64.68
363.723	54.44
363.935	-4.95
364.146	97.45
364.357	40.11
364.568	-11.09
364.779	68.78
364.99	144.55
365.201	-25.43
365.412	126.12
365.623	-4.95
365.834	62.63
366.045	46.25
366.256	46.25
366.467	89.26
366.678	44.2
366.889	142.5
367.1	101.55
367.311	140.46
367.522	-13.14
367.733	50.35
367.944	11.43
368.155	-11.09
368.366	113.83
368.577	79.02
368.788	76.97
368.999	15.53
369.209	76.97
369.42	249
369.631	70.83
369.842	46.25
370.053	95.4
370.264	44.2
370.474	44.2
370.685	76.97
370.896	19.63
371.107	85.16
371.317	48.3
371.528	81.07
371.739	72.87
371.95	109.74
372.16	62.63
372.371	13.48
372.582	58.54
372.792	117.93
373.003	54.44
373.214	93.35
373.424	134.31
373.635	46.25
373.846	140.46
374.056	48.3
374.267	70.83
374.477	117.93
374.688	9.39
374.898	60.59
375.109	48.3
375.319	136.36
375.53	113.83
375.74	54.44
375.951	44.2
376.161	76.97
376.372	52.39
376.582	-19.29
376.793	83.11
377.003	38.06
377.214	11.43
377.424	-17.24
377.635	58.54
377.845	70.83
378.055	36.01
378.266	68.78
378.476	62.63
378.686	52.39
378.897	44.2
379.107	158.89
379.317	68.78
379.528	13.48
379.738	60.59
379.948	33.96
380.158	89.26
380.369	-0.85
380.579	68.78
380.789	62.63
380.999	103.59
381.21	66.73
381.42	68.78
381.63	52.39
381.84	105.64
382.05	111.78
382.261	115.88
382.471	29.87
382.681	31.91
382.891	105.64
383.101	111.78
383.311	38.06
383.521	62.63
383.731	105.64
383.941	101.55
384.151	11.43
384.361	5.29
384.571	50.35
384.781	11.43
384.991	105.64
385.201	44.2
385.411	99.5
385.621	122.02
385.831	64.68
386.041	33.96
386.251	23.72
386.461	138.41
386.671	46.25
386.881	44.2
387.091	85.16
387.301	72.87
387.511	11.43
387.72	99.5
387.93	81.07
388.14	52.39
388.35	46.25
388.56	36.01
388.769	128.17
388.979	54.44
389.189	70.83
389.399	48.3
389.609	99.5
389.818	25.77
390.028	152.74
390.238	54.44
390.447	56.49
390.657	46.25
390.867	36.01
391.076	-9.05
391.286	40.11
391.496	76.97
391.705	44.2
391.915	146.6
392.125	171.18
392.334	25.77
392.544	79.02
392.753	3.24
392.963	64.68
393.172	54.44
393.382	-4.95
393.591	128.17
393.801	25.77
394.01	171.18
394.22	89.26
394.429	113.83
394.639	58.54
394.848	109.74
395.058	68.78
395.267	109.74
395.477	119.98
395.686	60.59
395.895	113.83
396.105	117.93
396.314	146.6
396.524	27.82
396.733	11.43
396.942	148.65
397.152	134.31
397.361	93.35
397.57	81.07
397.78	160.94
397.989	81.07
398.198	201.9
398.407	103.59
398.617	27.82
398.826	167.08
399.035	152.74
399.244	130.22
399.453	76.97
399.663	105.64
399.872	189.61
400.081	95.4
400.29	134.31
400.499	64.68
400.708	81.07
400.917	85.16
401.127	128.17
401.336	72.87
401.545	183.46
401.754	169.13
401.963	122.02
402.172	56.49
402.381	87.21
402.59	148.65
402.799	95.4
403.008	117.93
403.217	162.98
403.426	109.74
403.635	109.74
403.844	242.85
404.053	193.7
404.262	109.74
404.471	150.7
404.68	171.18
404.888	111.78
405.097	138.41
405.306	179.37
405.515	195.75
405.724	193.7
405.933	240.81
406.142	144.55
406.35	236.71
406.559	226.47
406.768	212.14
406.977	289.96
407.185	169.13
407.394	306.34
407.603	203.94
407.812	289.96
408.02	253.09
408.229	257.19
408.438	257.19
408.646	199.85
408.855	273.57
409.064	314.53
409.272	246.95
409.481	330.92
409.69	347.3
409.898	390.31
410.107	322.73
410.315	359.59
410.524	375.97
410.733	343.21
410.941	281.77
411.15	474.28
411.358	502.95
411.567	552.1
411.775	421.03
411.984	527.52
412.192	498.85
412.401	513.19
412.609	650.4
412.818	605.35
413.026	539.81
413.234	605.35
413.443	562.34
413.651	535.71
413.86	588.96
414.068	726.18
414.276	748.7
414.485	773.28
414.693	699.55
414.901	781.47
415.11	746.66
415.318	806.05
415.526	806.05
415.734	928.92
415.943	918.68
416.151	920.73
416.359	912.54
416.567	1029.27
416.776	1053.85
416.984	1035.42
417.192	1223.83
417.4	1146.01
417.608	1084.57
417.817	1072.28
418.025	1299.61
418.233	1383.57
418.441	1324.18
418.649	1315.99
418.857	1397.91
419.065	1436.82
419.273	1449.11
419.481	1459.35
419.689	1641.62
419.897	1690.77
420.105	1617.04
420.313	1780.88
420.521	1797.26
420.729	1916.05
420.937	1940.62
421.145	1981.58
421.353	2108.55
421.561	2163.85
421.769	2251.91
421.977	2419.85
422.185	2280.58
422.393	2485.38
422.601	2690.18
422.809	2493.57
423.017	2469
423.224	2641.03
423.432	2706.56
423.64	2763.9
423.848	3019.9
424.056	3083.39
424.263	3185.79
424.471	3271.8
424.679	3333.24
424.887	3431.54
425.094	3521.65
425.302	3632.24
425.51	3718.26
425.718	3878
425.925	3921.01
426.133	3888.24
426.341	4142.19
426.548	4279.4
426.756	4318.31
426.964	4527.21
427.171	4580.45
427.379	4633.7
427.586	4838.5
427.794	5102.68
428.001	5139.55
428.209	5467.22
428.417	5346.39
428.624	5868.63
428.832	5790.8
429.039	5977.17
429.247	5805.14
429.454	6272.07
429.662	6796.35
429.869	6282.31
430.076	6718.53
430.284	6609.99
430.491	6810.69
430.699	7232.57
430.906	7351.35
431.114	7375.93
431.321	7519.29
431.528	7799.86
431.736	8279.08
431.943	8670.25
432.15	8080.43
432.358	8571.94
432.565	9049.12
432.772	8746.02
432.979	9335.84
433.187	9440.28
433.394	9456.67
433.601	10136.59
433.808	10048.53
434.016	10161.17
434.223	10507.27
434.43	11064.32
434.637	10966.02
434.844	11525.11
435.052	11584.51
435.259	11693.05
435.466	11916.28
435.673	11777.01
435.88	12375.02
436.087	13102.05
436.294	12962.79
436.501	12901.35
436.708	12970.98
436.915	13298.66
437.122	14220.24
437.329	14255.06
437.537	14504.91
437.743	14771.15
437.95	14752.71
438.157	15442.88
438.364	15872.95
438.571	15918.01
438.778	15907.77
438.985	17349.54
439.192	16575.41
439.399	17372.07
439.606	16890.79
439.813	18013.08
440.02	19022.73
440.227	18486.16
440.433	18396.05
440.64	18951.05
440.847	18932.62
441.054	19264.39
441.261	20306.8
441.467	20190.07
441.674	20732.78
441.881	21791.58
442.088	21099.37
442.294	20956.01
442.501	21662.56
442.708	22006.62
442.914	23044.94
443.121	23655.23
443.328	23280.46
443.534	24849.2
443.741	24191.8
443.948	23962.43
444.154	25619.24
444.361	25451.3
444.568	25596.71
444.774	25570.08
444.981	26161.95
445.187	26403.61
445.394	27697.92
445.6	27374.34
445.807	29997.79
446.013	29012.72
446.22	29123.31
446.426	30085.86
446.633	30814.93
446.839	31646.41
447.046	30206.69
447.252	31969.99
447.459	32074.43
447.665	32182.98
447.871	33292.97
448.078	34675.35
448.284	33401.52
448.491	33880.74
448.697	35150.48
448.903	36166.27
449.11	35994.25
449.316	35234.45
449.522	36084.36
449.728	36940.41
449.935	37384.82
450.141	37358.19
450.347	38169.19
450.553	36917.88
450.76	37732.97
450.966	38599.26
451.172	38128.23
451.378	39457.36
451.584	38607.45
451.791	39494.22
451.997	39412.31
452.203	39664.21
452.409	40081.99
452.615	39653.97
452.821	38003.3
453.027	37878.38
453.233	40274.5
453.44	37966.44
453.646	38535.77
453.852	38832.73
454.058	39905.87
454.264	37726.83
454.47	39004.76
454.676	38191.72
454.882	39526.99
455.088	35947.14
455.294	36549.24
455.5	37018.23
455.705	37640.81
455.911	35949.19
456.117	35697.29
456.323	34935.45
456.529	33061.55
456.735	34454.17
456.941	33850.02
457.147	33032.88
457.352	32037.57
457.558	32023.23
457.764	31824.58
457.97	31355.6
458.176	30360.28
458.381	30653.14
458.587	29061.87
458.793	29213.42
458.999	27349.77
459.204	29283.05
459.41	28984.05
459.616	26905.36
459.821	26788.63
460.027	26561.3
460.233	25991.97
460.438	24890.16
460.644	24959.79
460.85	23837.5
461.055	23307.08
461.261	23423.81
461.466	21873.5
461.672	20749.17
461.878	22489.94
462.083	20939.63
462.289	20652.91
462.494	20306.8
462.7	19647.36
462.905	18977.67
463.111	19534.72
463.316	19485.57
463.522	19258.24
463.727	18955.15
463.932	19035.02
464.138	19063.69
464.343	18703.25
464.549	18125.72
464.754	19143.56
464.959	18918.28
465.165	18697.1
465.37	17871.77
465.575	17191.84
465.781	17853.34
465.986	18076.57
466.191	17525.66
466.397	17071.01
466.602	15922.1
466.807	16778.15
