Data from USB4F104151__166__14-32-21-916.txt Node

Date: Thu Mar 13 14:32:21 EDT 2025
User: louis
Spectrometer: USB4F10415
Trigger mode: 4
Integration Time (sec): 2.500000E-2
Scans to average: 1
Electric dark correction enabled: true
Nonlinearity correction enabled: false
Boxcar width: 0
XAxis mode: Wavelengths
Number of Pixels in Spectrum: 3648
>>>>>Begin Spectral Data<<<<<
178.204	-66.56
178.424	-66.56
178.644	-66.56
178.864	-142.33
179.084	-171.01
179.304	-21.5
179.524	11.26
179.744	25.6
179.964	50.18
180.184	103.42
180.404	-64.51
180.624	-50.18
180.844	44.03
181.064	-60.42
181.283	-7.17
181.503	-52.22
181.723	21.5
181.943	-72.7
182.163	44.03
182.383	-23.55
182.602	-7.17
182.822	9.22
183.042	35.84
183.262	-48.13
183.482	23.55
183.701	-39.94
183.921	5.12
184.141	-31.74
184.361	78.85
184.58	-78.85
184.8	25.6
185.02	-64.51
185.239	27.65
185.459	-35.84
185.679	9.22
185.898	-84.99
186.118	25.6
186.338	33.79
186.557	5.12
186.777	33.79
186.997	9.22
187.216	-7.17
187.436	19.46
187.655	29.7
187.875	35.84
188.095	50.18
188.314	56.32
188.534	3.07
188.753	-62.46
188.973	52.22
189.192	101.37
189.412	56.32
189.631	-17.41
189.851	52.22
190.07	60.42
190.29	-58.37
190.509	25.6
190.729	-48.13
190.948	27.65
191.168	130.05
191.387	-15.36
191.607	-48.13
191.826	52.22
192.045	-15.36
192.265	50.18
192.484	39.94
192.704	29.7
192.923	-3.07
193.142	-7.17
193.362	74.75
193.581	25.6
193.8	56.32
194.02	52.22
194.239	-15.36
194.458	33.79
194.678	-17.41
194.897	44.03
195.116	-80.89
195.335	9.22
195.555	-44.03
195.774	7.17
195.993	56.32
196.212	21.5
196.432	-76.8
196.651	13.31
196.87	82.94
197.089	125.95
197.308	99.33
197.528	-19.46
197.747	-72.7
197.966	-39.94
198.185	-31.74
198.404	-3.07
198.623	5.12
198.842	25.6
199.062	25.6
199.281	87.04
199.5	1.02
199.719	-31.74
199.938	17.41
200.157	19.46
200.376	-23.55
200.595	52.22
200.814	-7.17
201.033	5.12
201.252	37.89
201.471	-44.03
201.69	19.46
201.909	21.5
202.128	25.6
202.347	-19.46
202.566	21.5
202.785	11.26
203.004	9.22
203.223	140.29
203.442	-29.7
203.661	25.6
203.879	1.02
204.098	35.84
204.317	3.07
204.536	60.42
204.755	29.7
204.974	52.22
205.193	60.42
205.411	41.98
205.63	29.7
205.849	33.79
206.068	25.6
206.287	13.31
206.505	48.13
206.724	19.46
206.943	-29.7
207.162	13.31
207.381	-15.36
207.599	-54.27
207.818	11.26
208.037	-13.31
208.255	-15.36
208.474	58.37
208.693	97.28
208.911	48.13
209.13	13.31
209.349	52.22
209.567	-3.07
209.786	33.79
210.005	-21.5
210.223	11.26
210.442	-19.46
210.661	9.22
210.879	17.41
211.098	21.5
211.316	-39.94
211.535	74.75
211.753	-3.07
211.972	66.56
212.191	1.02
212.409	60.42
212.628	41.98
212.846	-56.32
213.065	82.94
213.283	70.65
213.502	-29.7
213.72	11.26
213.938	17.41
214.157	31.74
214.375	1.02
214.594	-29.7
214.812	35.84
215.031	9.22
215.249	-39.94
215.467	-50.18
215.686	1.02
215.904	-15.36
216.122	-13.31
216.341	50.18
216.559	-29.7
216.778	33.79
216.996	74.75
217.214	-44.03
217.432	-107.52
217.651	-13.31
217.869	33.79
218.087	-3.07
218.306	33.79
218.524	25.6
218.742	39.94
218.96	58.37
219.179	-23.55
219.397	-41.98
219.615	132.09
219.833	29.7
220.051	35.84
220.27	33.79
220.488	25.6
220.706	-7.17
220.924	50.18
221.142	52.22
221.36	-29.7
221.578	-9.22
221.796	23.55
222.015	21.5
222.233	-15.36
222.451	-11.26
222.669	3.07
222.887	41.98
223.105	19.46
223.323	27.65
223.541	-23.55
223.759	-7.17
223.977	-23.55
224.195	9.22
224.413	29.7
224.631	-3.07
224.849	-33.79
225.067	148.48
225.285	48.13
225.503	-84.99
225.721	-15.36
225.939	19.46
226.157	-1.02
226.375	132.09
226.592	25.6
226.81	23.55
227.028	17.41
227.246	95.23
227.464	78.85
227.682	3.07
227.9	-31.74
228.117	39.94
228.335	11.26
228.553	-27.65
228.771	21.5
228.989	33.79
229.206	-7.17
229.424	-11.26
229.642	-39.94
229.86	-23.55
230.077	1.02
230.295	31.74
230.513	91.13
230.731	19.46
230.948	23.55
231.166	117.76
231.384	13.31
231.601	-3.07
231.819	80.89
232.037	41.98
232.254	27.65
232.472	50.18
232.689	7.17
232.907	70.65
233.125	-35.84
233.342	-5.12
233.56	-11.26
233.777	-7.17
233.995	1.02
234.213	66.56
234.43	66.56
234.648	-68.61
234.865	41.98
235.083	-15.36
235.3	13.31
235.518	58.37
235.735	41.98
235.953	46.08
236.17	-62.46
236.388	58.37
236.605	29.7
236.822	-21.5
237.04	-89.09
237.257	-46.08
237.475	-23.55
237.692	58.37
237.909	-5.12
238.127	21.5
238.344	54.27
238.562	41.98
238.779	1.02
238.996	-23.55
239.214	54.27
239.431	29.7
239.648	29.7
239.865	35.84
240.083	11.26
240.3	-5.12
240.517	-68.61
240.735	29.7
240.952	91.13
241.169	-7.17
241.386	-35.84
241.603	11.26
241.821	-37.89
242.038	-23.55
242.255	37.89
242.472	-52.22
242.689	-5.12
242.907	29.7
243.124	-15.36
243.341	-15.36
243.558	19.46
243.775	5.12
243.992	-21.5
244.209	9.22
244.426	105.47
244.643	25.6
244.86	13.31
245.078	33.79
245.295	70.65
245.512	1.02
245.729	-7.17
245.946	35.84
246.163	78.85
246.38	17.41
246.597	-29.7
246.814	-13.31
247.031	91.13
247.248	29.7
247.464	33.79
247.681	-21.5
247.898	-48.13
248.115	9.22
248.332	-31.74
248.549	33.79
248.766	62.46
248.983	41.98
249.2	66.56
249.417	82.94
249.633	25.6
249.85	25.6
250.067	29.7
250.284	-31.74
250.501	9.22
250.717	-7.17
250.934	-19.46
251.151	41.98
251.368	66.56
251.585	107.52
251.801	-39.94
252.018	29.7
252.235	62.46
252.451	121.85
252.668	-56.32
252.885	1.02
253.102	-9.22
253.318	41.98
253.535	35.84
253.752	33.79
253.968	-21.5
254.185	-35.84
254.401	13.31
254.618	-15.36
254.835	-13.31
255.051	-54.27
255.268	9.22
255.484	5.12
255.701	-52.22
255.917	13.31
256.134	-13.31
256.351	-15.36
256.567	27.65
256.784	52.22
257	-37.89
257.217	-23.55
257.433	25.6
257.65	-62.46
257.866	27.65
258.082	-39.94
258.299	-13.31
258.515	9.22
258.732	-3.07
258.948	62.46
259.165	25.6
259.381	-19.46
259.597	27.65
259.814	-48.13
260.03	58.37
260.246	35.84
260.463	-15.36
260.679	74.75
260.895	-7.17
261.112	13.31
261.328	35.84
261.544	58.37
261.761	50.18
261.977	50.18
262.193	19.46
262.409	33.79
262.626	44.03
262.842	19.46
263.058	9.22
263.274	74.75
263.49	123.9
263.707	82.94
263.923	-5.12
264.139	-7.17
264.355	-68.61
264.571	37.89
264.787	-21.5
265.004	50.18
265.22	9.22
265.436	-19.46
265.652	-54.27
265.868	27.65
266.084	15.36
266.3	21.5
266.516	1.02
266.732	46.08
266.948	48.13
267.164	-9.22
267.38	68.61
267.596	64.51
267.812	117.76
268.028	48.13
268.244	11.26
268.46	84.99
268.676	46.08
268.892	-23.55
269.108	-7.17
269.324	-39.94
269.54	33.79
269.756	44.03
269.972	-113.66
270.188	93.18
270.403	23.55
270.619	-3.07
270.835	-9.22
271.051	-5.12
271.267	-60.42
271.483	-31.74
271.698	3.07
271.914	41.98
272.13	1.02
272.346	-3.07
272.562	39.94
272.777	21.5
272.993	25.6
273.209	74.75
273.425	52.22
273.64	-15.36
273.856	74.75
274.072	-5.12
274.287	-46.08
274.503	39.94
274.719	-21.5
274.934	3.07
275.15	58.37
275.366	-44.03
275.581	39.94
275.797	62.46
276.012	-15.36
276.228	-37.89
276.444	-7.17
276.659	58.37
276.875	-5.12
277.09	35.84
277.306	-31.74
277.521	-5.12
277.737	-21.5
277.952	3.07
278.168	50.18
278.383	19.46
278.599	-11.26
278.814	-1.02
279.03	33.79
279.245	74.75
279.461	-21.5
279.676	27.65
279.892	-54.27
280.107	-35.84
280.322	-78.85
280.538	-13.31
280.753	25.6
280.969	-17.41
281.184	27.65
281.399	109.57
281.615	31.74
281.83	35.84
282.045	21.5
282.26	17.41
282.476	-15.36
282.691	74.75
282.906	13.31
283.122	37.89
283.337	11.26
283.552	74.75
283.767	27.65
283.983	91.13
284.198	101.37
284.413	74.75
284.628	-56.32
284.843	41.98
285.058	-15.36
285.274	29.7
285.489	74.75
285.704	74.75
285.919	13.31
286.134	33.79
286.349	-5.12
286.564	19.46
286.779	72.7
286.995	84.99
287.21	-13.31
287.425	68.61
287.64	-29.7
287.855	17.41
288.07	-35.84
288.285	82.94
288.5	113.66
288.715	17.41
288.93	5.12
289.145	9.22
289.36	68.61
289.575	17.41
289.79	-23.55
290.004	-78.85
290.219	41.98
290.434	29.7
290.649	25.6
290.864	-15.36
291.079	-35.84
291.294	-15.36
291.509	-19.46
291.724	41.98
291.938	-15.36
292.153	66.56
292.368	-3.07
292.583	41.98
292.798	33.79
293.012	66.56
293.227	-35.84
293.442	50.18
293.657	33.79
293.871	37.89
294.086	37.89
294.301	60.42
294.516	17.41
294.73	89.09
294.945	-64.51
295.16	78.85
295.374	-48.13
295.589	44.03
295.804	-3.07
296.018	-11.26
296.233	62.46
296.447	44.03
296.662	3.07
296.877	-48.13
297.091	3.07
297.306	35.84
297.52	33.79
297.735	9.22
297.949	25.6
298.164	41.98
298.378	19.46
298.593	-15.36
298.807	-27.65
299.022	78.85
299.236	56.32
299.451	-76.8
299.665	-7.17
299.88	52.22
300.094	-13.31
300.309	60.42
300.523	50.18
300.737	46.08
300.952	58.37
301.166	23.55
301.381	17.41
301.595	3.07
301.809	21.5
302.024	9.22
302.238	-46.08
302.452	21.5
302.667	-13.31
302.881	58.37
303.095	29.7
303.309	74.75
303.524	5.12
303.738	-56.32
303.952	21.5
304.166	-19.46
304.381	-17.41
304.595	-27.65
304.809	-15.36
305.023	-56.32
305.237	41.98
305.452	21.5
305.666	-19.46
305.88	54.27
306.094	5.12
306.308	44.03
306.522	25.6
306.736	91.13
306.95	-15.36
307.164	11.26
307.379	9.22
307.593	37.89
307.807	93.18
308.021	25.6
308.235	11.26
308.449	17.41
308.663	35.84
308.877	74.75
309.091	37.89
309.305	-25.6
309.519	-68.61
309.733	5.12
309.947	-7.17
310.161	-39.94
310.374	21.5
310.588	66.56
310.802	-23.55
311.016	33.79
311.23	46.08
311.444	5.12
311.658	82.94
311.872	41.98
312.085	41.98
312.299	109.57
312.513	13.31
312.727	-13.31
312.941	1.02
313.154	15.36
313.368	-5.12
313.582	27.65
313.796	-7.17
314.009	-37.89
314.223	25.6
314.437	17.41
314.651	5.12
314.864	-7.17
315.078	-76.8
315.292	-29.7
315.505	-52.22
315.719	87.04
315.933	29.7
316.146	23.55
316.36	15.36
316.573	99.33
316.787	58.37
317.001	33.79
317.214	-72.7
317.428	1.02
317.641	-56.32
317.855	-11.26
318.068	-31.74
318.282	33.79
318.495	138.24
318.709	33.79
318.922	19.46
319.136	70.65
319.349	17.41
319.563	-37.89
319.776	41.98
319.99	-35.84
320.203	-27.65
320.417	23.55
320.63	91.13
320.843	103.42
321.057	-7.17
321.27	-46.08
321.483	11.26
321.697	27.65
321.91	-15.36
322.124	-39.94
322.337	17.41
322.55	41.98
322.763	41.98
322.977	19.46
323.19	-15.36
323.403	-21.5
323.617	62.46
323.83	74.75
324.043	37.89
324.256	91.13
324.469	-41.98
324.683	91.13
324.896	-48.13
325.109	-23.55
325.322	39.94
325.535	84.99
325.748	50.18
325.962	-35.84
326.175	37.89
326.388	50.18
326.601	35.84
326.814	-3.07
327.027	123.9
327.24	35.84
327.453	-7.17
327.666	1.02
327.879	-5.12
328.092	52.22
328.305	-5.12
328.518	87.04
328.731	19.46
328.944	-31.74
329.157	-1.02
329.37	-1.02
329.583	68.61
329.796	15.36
330.009	9.22
330.222	46.08
330.435	21.5
330.648	41.98
330.861	46.08
331.073	1.02
331.286	23.55
331.499	-3.07
331.712	-39.94
331.925	13.31
332.138	11.26
332.35	33.79
332.563	56.32
332.776	46.08
332.989	-54.27
333.202	44.03
333.414	19.46
333.627	-7.17
333.84	41.98
334.053	-48.13
334.265	-17.41
334.478	54.27
334.691	-44.03
334.903	66.56
335.116	41.98
335.329	46.08
335.541	50.18
335.754	58.37
335.966	35.84
336.179	44.03
336.392	84.99
336.604	3.07
336.817	54.27
337.029	44.03
337.242	1.02
337.454	17.41
337.667	54.27
337.88	35.84
338.092	33.79
338.305	50.18
338.517	9.22
338.729	1.02
338.942	44.03
339.154	-46.08
339.367	3.07
339.579	-60.42
339.792	3.07
340.004	60.42
340.217	56.32
340.429	-5.12
340.641	-46.08
340.854	-48.13
341.066	27.65
341.278	66.56
341.491	41.98
341.703	37.89
341.915	-15.36
342.128	5.12
342.34	17.41
342.552	95.23
342.764	-56.32
342.977	17.41
343.189	25.6
343.401	1.02
343.613	35.84
343.826	74.75
344.038	-35.84
344.25	17.41
344.462	-37.89
344.674	-15.36
344.886	-31.74
345.099	-11.26
345.311	19.46
345.523	9.22
345.735	11.26
345.947	29.7
346.159	-3.07
346.371	-7.17
346.583	-7.17
346.795	33.79
347.007	-19.46
347.219	82.94
347.431	25.6
347.643	52.22
347.855	-13.31
348.067	74.75
348.279	-50.18
348.491	50.18
348.703	-7.17
348.915	19.46
349.127	-39.94
349.339	17.41
349.551	52.22
349.763	17.41
349.975	25.6
350.187	64.51
350.399	35.84
350.61	41.98
350.822	-62.46
351.034	15.36
351.246	41.98
351.458	33.79
351.669	109.57
351.881	41.98
352.093	41.98
352.305	-13.31
352.517	52.22
352.728	74.75
352.94	25.6
353.152	56.32
353.363	33.79
353.575	25.6
353.787	68.61
353.999	-21.5
354.21	-1.02
354.422	-44.03
354.633	41.98
354.845	-15.36
355.057	78.85
355.268	48.13
355.48	37.89
355.692	-3.07
355.903	-15.36
356.115	-80.89
356.326	-33.79
356.538	78.85
356.749	74.75
356.961	107.52
357.172	41.98
357.384	5.12
357.595	140.29
357.807	70.65
358.018	-11.26
358.23	5.12
358.441	58.37
358.653	52.22
358.864	-29.7
359.075	-62.46
359.287	62.46
359.498	99.33
359.709	48.13
359.921	33.79
360.132	27.65
360.344	-60.42
360.555	-39.94
360.766	58.37
360.977	13.31
361.189	58.37
361.4	1.02
361.611	76.8
361.823	80.89
362.034	134.14
362.245	9.22
362.456	-15.36
362.667	1.02
362.879	68.61
363.09	50.18
363.301	111.61
363.512	3.07
363.723	11.26
363.935	68.61
364.146	46.08
364.357	17.41
364.568	-39.94
364.779	5.12
364.99	29.7
365.201	9.22
365.412	27.65
365.623	-48.13
365.834	41.98
366.045	5.12
366.256	-13.31
366.467	21.5
366.678	33.79
366.889	41.98
367.1	19.46
367.311	29.7
367.522	-23.55
367.733	60.42
367.944	37.89
368.155	39.94
368.366	76.8
368.577	33.79
368.788	91.13
368.999	-11.26
369.209	60.42
369.42	156.67
369.631	128
369.842	3.07
370.053	64.51
370.264	11.26
370.474	-15.36
370.685	-7.17
370.896	70.65
371.107	111.61
371.317	3.07
371.528	101.37
371.739	21.5
371.95	-9.22
372.16	35.84
372.371	-15.36
372.582	54.27
372.792	50.18
373.003	29.7
373.214	41.98
373.424	-7.17
373.635	-31.74
373.846	74.75
374.056	-29.7
374.267	66.56
374.477	-15.36
374.688	-23.55
374.898	52.22
375.109	64.51
375.319	-19.46
375.53	27.65
375.74	62.46
375.951	-15.36
376.161	44.03
376.372	3.07
376.582	-60.42
376.793	76.8
377.003	23.55
377.214	39.94
377.424	-39.94
377.635	50.18
377.845	-46.08
378.055	62.46
378.266	-60.42
378.476	13.31
378.686	-41.98
378.897	25.6
379.107	29.7
379.317	62.46
379.528	-15.36
379.738	31.74
379.948	-39.94
380.158	17.41
380.369	13.31
380.579	17.41
380.789	-29.7
380.999	54.27
381.21	91.13
381.42	132.09
381.63	27.65
381.84	82.94
382.05	82.94
382.261	117.76
382.471	95.23
382.681	-15.36
382.891	17.41
383.101	17.41
383.311	-29.7
383.521	-13.31
383.731	19.46
383.941	3.07
384.151	3.07
384.361	21.5
384.571	41.98
384.781	78.85
384.991	50.18
385.201	17.41
385.411	60.42
385.621	80.89
385.831	56.32
386.041	44.03
386.251	-3.07
386.461	105.47
386.671	54.27
386.881	13.31
387.091	-13.31
387.301	82.94
387.511	62.46
387.72	29.7
387.93	68.61
388.14	39.94
388.35	3.07
388.56	25.6
388.769	58.37
388.979	91.13
389.189	-91.13
389.399	9.22
389.609	35.84
389.818	82.94
390.028	19.46
390.238	17.41
390.447	-31.74
390.657	21.5
390.867	-29.7
391.076	-11.26
391.286	27.65
391.496	1.02
391.705	50.18
391.915	3.07
392.125	60.42
392.334	21.5
392.544	62.46
392.753	82.94
392.963	-23.55
393.172	1.02
393.382	66.56
393.591	68.61
393.801	-19.46
394.01	146.43
394.22	27.65
394.429	46.08
394.639	19.46
394.848	66.56
395.058	78.85
395.267	52.22
395.477	33.79
395.686	101.37
395.895	156.67
396.105	82.94
396.314	37.89
396.524	125.95
396.733	46.08
396.942	158.72
397.152	132.09
397.361	171.01
397.57	84.99
397.78	144.38
397.989	128
398.198	97.28
398.407	82.94
398.617	130.05
398.826	68.61
399.035	72.7
399.244	117.76
399.453	115.71
399.663	142.33
399.872	13.31
400.081	17.41
400.29	101.37
400.499	21.5
400.708	179.2
400.917	68.61
401.127	44.03
401.336	87.04
401.545	166.91
401.754	111.61
401.963	91.13
402.172	138.24
402.381	27.65
402.59	128
402.799	50.18
403.008	91.13
403.217	164.86
403.426	109.57
403.635	76.8
403.844	152.57
404.053	99.33
404.262	132.09
404.471	119.81
404.68	84.99
404.888	103.42
405.097	99.33
405.306	177.15
405.515	185.34
405.724	123.9
405.933	109.57
406.142	148.48
406.35	132.09
406.559	125.95
406.768	82.94
406.977	189.44
407.185	240.64
407.394	177.15
407.603	158.72
407.812	166.91
408.02	158.72
408.229	111.61
408.438	152.57
408.646	185.34
408.855	115.71
409.064	232.44
409.272	189.44
409.481	207.87
409.69	181.25
409.898	306.17
410.107	199.68
410.315	291.84
410.524	226.3
410.733	363.51
410.941	222.2
411.15	379.9
411.358	254.97
411.567	369.66
411.775	365.56
411.984	427
412.192	427
412.401	369.66
412.609	474.1
412.818	455.67
413.026	388.09
413.234	488.44
413.443	431.1
413.651	437.24
413.86	541.69
414.068	562.17
414.276	590.84
414.485	570.36
414.693	627.7
414.901	662.52
415.11	650.23
415.318	658.42
415.526	707.57
415.734	766.96
415.943	791.54
416.151	803.83
416.359	721.91
416.567	910.32
416.776	762.87
416.984	861.17
417.192	959.47
417.4	883.7
417.608	912.37
417.817	945.14
418.025	1041.39
418.233	1084.4
418.441	1080.3
418.649	1102.83
418.857	1137.65
419.065	1149.93
419.273	1283.05
419.481	1377.26
419.689	1334.25
419.897	1410.03
420.105	1385.45
420.313	1489.9
420.521	1573.86
420.729	1543.14
420.937	1557.48
421.145	1610.73
421.353	1655.78
421.561	1692.65
421.769	1745.89
421.977	1844.2
422.185	1928.16
422.393	1995.75
422.601	2229.21
422.809	2118.62
423.017	2188.25
423.224	2139.1
423.432	2319.32
423.64	2411.48
423.848	2454.49
424.056	2587.61
424.263	2755.54
424.471	2640.86
424.679	2632.66
424.887	2843.6
425.094	2960.34
425.302	2939.86
425.51	3027.92
425.718	2943.96
425.925	3158.99
426.133	3376.08
426.341	3376.08
426.548	3621.83
426.756	3638.22
426.964	3699.66
427.171	3730.38
427.379	4058.05
427.586	3961.8
427.794	4068.29
428.001	4416.44
428.209	4588.47
428.417	4434.88
428.624	4834.23
428.832	4807.61
429.039	4721.59
429.247	4719.54
429.454	5284.78
429.662	5471.15
429.869	5096.37
430.076	5634.99
430.284	5383.09
430.491	5563.31
430.699	6081.44
430.906	5958.57
431.114	6196.13
431.321	6220.71
431.528	6235.04
431.736	6753.18
431.943	6998.93
432.15	6906.77
432.358	7029.65
432.565	7248.79
432.772	7261.07
432.979	7687.05
433.187	7881.61
433.394	8012.68
433.601	8172.42
433.808	8457.09
434.016	8377.22
434.223	8758.14
434.43	9075.57
434.637	9137.01
434.844	9696.11
435.052	9878.38
435.259	9683.82
435.466	9927.53
435.673	9931.62
435.88	10087.27
436.087	11176.79
436.294	10740.57
436.501	10781.53
436.708	11023.19
436.915	11232.08
437.122	11742.03
437.329	11592.53
437.537	11885.39
437.743	12071.75
437.95	12221.25
438.157	12602.18
438.364	13017.91
438.571	13339.44
438.778	13290.29
438.985	14144.3
439.192	13673.26
439.399	14156.58
439.606	13988.65
439.813	14830.37
440.02	15729.42
440.227	15332.12
440.433	15090.46
440.64	15584.02
440.847	15749.9
441.054	15958.8
441.261	16878.33
441.467	16990.97
441.674	17117.95
441.881	18021.1
442.088	17505.01
442.294	17584.88
442.501	17810.16
442.708	18625.25
442.914	19026.65
443.121	19825.36
443.328	19301.08
443.534	20636.36
443.741	19958.48
443.948	19841.75
444.154	21289.66
444.361	21197.5
444.568	21115.58
444.774	21238.46
444.981	21488.31
445.187	22166.19
445.394	22995.62
445.6	22964.9
445.807	24689.29
446.013	23876.24
446.22	24285.84
446.426	25008.77
446.633	25561.72
446.839	26098.29
447.046	25084.55
447.252	26432.11
447.459	26514.03
447.665	26346.09
447.871	27523.68
448.078	28797.51
448.284	27370.08
448.491	28244.56
448.697	29286.98
448.903	29569.6
449.11	29991.48
449.316	29436.48
449.522	30265.91
449.728	30564.91
449.935	30743.08
450.141	30925.35
450.347	31760.92
450.553	30644.78
450.76	30886.44
450.966	31744.54
451.172	31498.78
451.378	32608.78
451.584	31744.54
451.791	32596.49
451.997	32524.82
452.203	33139.21
452.409	32985.61
452.615	33051.14
452.821	31636
453.027	30980.65
453.233	32750.09
453.44	31539.74
453.646	32084.5
453.852	31822.36
454.058	32752.14
454.264	31597.09
454.47	32090.65
454.676	30978.6
454.882	32467.47
455.088	29577.79
455.294	30097.97
455.5	30556.72
455.705	30771.75
455.911	29542.97
456.117	28899.91
456.323	28578.38
456.529	27130.47
456.735	28064.34
456.941	27468.38
457.147	27120.23
457.352	26139.25
457.558	26129.01
457.764	25924.21
457.97	25461.37
458.176	25219.71
458.381	24654.47
458.587	23732.89
458.793	23653.02
458.999	22299.31
459.204	23876.24
459.41	23384.73
459.616	21824.18
459.821	21938.87
460.027	21594.81
460.233	21058.24
460.438	20222.67
460.644	20513.48
460.85	19557.08
461.055	19278.55
461.261	19309.27
461.466	17709.81
461.672	17269.5
461.878	18313.96
462.083	17253.11
462.289	16982.78
462.494	16636.67
462.7	16192.26
462.905	15409.94
463.111	15942.41
463.316	15928.08
463.522	15661.84
463.727	15754
463.932	15764.24
464.138	15383.32
464.343	15469.33
464.549	15072.03
464.754	15555.35
464.959	15377.17
465.165	15246.1
465.37	14703.39
465.575	14402.34
465.781	15119.13
465.986	14807.84
466.191	14359.33
466.397	14140.2
466.602	13767.47
466.807	14058.28
467.012	14045.99
467.218	13878.06
