Data from USB4F104151__181__14-32-50-908.txt Node

Date: Thu Mar 13 14:32:50 EDT 2025
User: louis
Spectrometer: USB4F10415
Trigger mode: 4
Integration Time (sec): 2.500000E-2
Scans to average: 1
Electric dark correction enabled: true
Nonlinearity correction enabled: false
Boxcar width: 0
XAxis mode: Wavelengths
Number of Pixels in Spectrum: 3648
>>>>>Begin Spectral Data<<<<<
178.204	-54.61
178.424	-54.61
178.644	-54.61
178.864	-161.11
179.084	-95.57
179.304	74.41
179.524	-1.37
179.744	33.45
179.964	-32.08
180.184	-36.18
180.404	-17.75
180.624	-44.37
180.844	-9.56
181.064	-23.89
181.283	31.4
181.503	43.69
181.723	-17.75
181.943	-68.95
182.163	80.55
182.383	15.02
182.602	55.98
182.822	84.65
183.042	90.79
183.262	90.79
183.482	55.98
183.701	-32.08
183.921	10.92
184.141	-15.7
184.361	31.4
184.58	80.55
184.8	47.79
185.02	-7.51
185.239	45.74
185.459	6.83
185.679	101.03
185.898	15.02
186.118	8.87
186.338	37.55
186.557	-19.8
186.777	23.21
186.997	62.12
187.216	6.83
187.436	33.45
187.655	51.88
187.875	55.98
188.095	-15.7
188.314	37.55
188.534	27.31
188.753	49.83
188.973	76.46
189.192	60.07
189.412	-30.04
189.631	17.07
189.851	-5.46
190.07	62.12
190.29	0.68
190.509	-50.52
190.729	94.89
190.948	31.4
191.168	148.14
191.387	47.79
191.607	-9.56
191.826	49.83
192.045	137.9
192.265	23.21
192.484	10.92
192.704	29.35
192.923	-5.46
193.142	33.45
193.362	6.83
193.581	64.17
193.8	88.75
194.02	47.79
194.239	25.26
194.458	72.36
194.678	39.59
194.897	6.83
195.116	55.98
195.335	80.55
195.555	37.55
195.774	45.74
195.993	-7.51
196.212	66.22
196.432	-1.37
196.651	6.83
196.87	-30.04
197.089	129.7
197.308	23.21
197.528	80.55
197.747	6.83
197.966	-11.61
198.185	96.94
198.404	23.21
198.623	43.69
198.842	60.07
199.062	47.79
199.281	131.75
199.5	66.22
199.719	31.4
199.938	41.64
200.157	-11.61
200.376	10.92
200.595	58.03
200.814	-13.65
201.033	0.68
201.252	129.7
201.471	19.11
201.69	49.83
201.909	49.83
202.128	43.69
202.347	82.6
202.566	-19.8
202.785	35.5
203.004	25.26
203.223	98.99
203.442	31.4
203.661	-48.47
203.879	66.22
204.098	0.68
204.317	-42.32
204.536	15.02
204.755	-34.13
204.974	41.64
205.193	-17.75
205.411	64.17
205.63	107.18
205.849	60.07
206.068	4.78
206.287	29.35
206.505	15.02
206.724	33.45
206.943	47.79
207.162	0.68
207.381	72.36
207.599	29.35
207.818	-15.7
208.037	23.21
208.255	-17.75
208.474	-38.23
208.693	15.02
208.911	80.55
209.13	55.98
209.349	51.88
209.567	-5.46
209.786	80.55
210.005	78.51
210.223	43.69
210.442	6.83
210.661	-5.46
210.879	-7.51
211.098	25.26
211.316	68.27
211.535	43.69
211.753	64.17
211.972	33.45
212.191	15.02
212.409	-32.08
212.628	72.36
212.846	17.07
213.065	64.17
213.283	25.26
213.502	64.17
213.72	68.27
213.938	47.79
214.157	10.92
214.375	-11.61
214.594	41.64
214.812	66.22
215.031	39.59
215.249	10.92
215.467	-15.7
215.686	-38.23
215.904	6.83
216.122	6.83
216.341	164.52
216.559	-1.37
216.778	58.03
216.996	55.98
217.214	64.17
217.432	41.64
217.651	-17.75
217.869	-5.46
218.087	-52.56
218.306	25.26
218.524	23.21
218.742	15.02
218.96	88.75
219.179	35.5
219.397	19.11
219.615	49.83
219.833	66.22
220.051	-71
220.27	8.87
220.488	60.07
220.706	25.26
220.924	17.07
221.142	68.27
221.36	88.75
221.578	15.02
221.796	-11.61
222.015	23.21
222.233	-15.7
222.451	98.99
222.669	-38.23
222.887	53.93
223.105	12.97
223.323	72.36
223.541	-15.7
223.759	41.64
223.977	55.98
224.195	70.31
224.413	115.37
224.631	51.88
224.849	51.88
225.067	111.27
225.285	10.92
225.503	6.83
225.721	-79.19
225.939	0.68
226.157	90.79
226.375	105.13
226.592	25.26
226.81	96.94
227.028	35.5
227.246	17.07
227.464	-13.65
227.682	41.64
227.9	49.83
228.117	51.88
228.335	39.59
228.553	-1.37
228.771	25.26
228.989	92.84
229.206	64.17
229.424	-34.13
229.642	6.83
229.86	76.46
230.077	8.87
230.295	39.59
230.513	41.64
230.731	23.21
230.948	78.51
231.166	125.61
231.384	-21.85
231.601	23.21
231.819	35.5
232.037	10.92
232.254	-42.32
232.472	80.55
232.689	2.73
232.907	68.27
233.125	58.03
233.342	76.46
233.56	76.46
233.777	60.07
233.995	-38.23
234.213	23.21
234.43	-13.65
234.648	10.92
234.865	55.98
235.083	80.55
235.3	51.88
235.518	19.11
235.735	101.03
235.953	-25.94
236.17	-9.56
236.388	-36.18
236.605	-13.65
236.822	92.84
237.04	39.59
237.257	31.4
237.475	15.02
237.692	-34.13
237.909	117.42
238.127	15.02
238.344	55.98
238.562	64.17
238.779	-56.66
238.996	19.11
239.214	35.5
239.431	64.17
239.648	15.02
239.865	47.79
240.083	64.17
240.3	60.07
240.517	10.92
240.735	31.4
240.952	27.31
241.169	31.4
241.386	-3.41
241.603	23.21
241.821	12.97
242.038	148.14
242.255	55.98
242.472	-64.85
242.689	21.16
242.907	76.46
243.124	47.79
243.341	39.59
243.558	-15.7
243.775	47.79
243.992	35.5
244.209	39.59
244.426	17.07
244.643	-38.23
244.86	31.4
245.078	6.83
245.295	23.21
245.512	-32.08
245.729	64.17
245.946	10.92
246.163	-15.7
246.38	47.79
246.597	-13.65
246.814	0.68
247.031	35.5
247.248	19.11
247.464	55.98
247.681	-25.94
247.898	60.07
248.115	15.02
248.332	-73.04
248.549	74.41
248.766	55.98
248.983	-17.75
249.2	66.22
249.417	15.02
249.633	-23.89
249.85	64.17
250.067	-13.65
250.284	-1.37
250.501	19.11
250.717	19.11
250.934	39.59
251.151	23.21
251.368	-30.04
251.585	80.55
251.801	-7.51
252.018	45.74
252.235	25.26
252.451	-15.7
252.668	39.59
252.885	25.26
253.102	10.92
253.318	-34.13
253.535	15.02
253.752	-50.52
253.968	6.83
254.185	19.11
254.401	55.98
254.618	39.59
254.835	47.79
255.051	96.94
255.268	-21.85
255.484	55.98
255.701	51.88
255.917	6.83
256.134	-52.56
256.351	39.59
256.567	51.88
256.784	0.68
257	-21.85
257.217	80.55
257.433	76.46
257.65	23.21
257.866	31.4
258.082	47.79
258.299	-9.56
258.515	39.59
258.732	15.02
258.948	64.17
259.165	39.59
259.381	2.73
259.597	47.79
259.814	10.92
260.03	31.4
260.246	17.07
260.463	10.92
260.679	88.75
260.895	0.68
261.112	66.22
261.328	53.93
261.544	12.97
261.761	127.66
261.977	43.69
262.193	82.6
262.409	49.83
262.626	6.83
262.842	123.56
263.058	-66.9
263.274	80.55
263.49	60.07
263.707	47.79
263.923	47.79
264.139	-46.42
264.355	55.98
264.571	74.41
264.787	121.51
265.004	41.64
265.22	-1.37
265.436	29.35
265.652	-1.37
265.868	72.36
266.084	-42.32
266.3	8.87
266.516	-3.41
266.732	25.26
266.948	2.73
267.164	6.83
267.38	27.31
267.596	121.51
267.812	64.17
268.028	94.89
268.244	-1.37
268.46	39.59
268.676	2.73
268.892	-23.89
269.108	17.07
269.324	15.02
269.54	53.93
269.756	21.16
269.972	-32.08
270.188	-23.89
270.403	-9.56
270.619	6.83
270.835	70.31
271.051	96.94
271.267	39.59
271.483	-56.66
271.698	55.98
271.914	35.5
272.13	55.98
272.346	19.11
272.562	64.17
272.777	84.65
272.993	90.79
273.209	80.55
273.425	33.45
273.64	49.83
273.856	55.98
274.072	27.31
274.287	43.69
274.503	31.4
274.719	113.32
274.934	12.97
275.15	-50.52
275.366	64.17
275.581	23.21
275.797	25.26
276.012	6.83
276.228	-9.56
276.444	-1.37
276.659	6.83
276.875	-15.7
277.09	-21.85
277.306	12.97
277.521	74.41
277.737	92.84
277.952	94.89
278.168	47.79
278.383	31.4
278.599	35.5
278.814	23.21
279.03	6.83
279.245	17.07
279.461	64.17
279.676	117.42
279.892	-5.46
280.107	-30.04
280.322	23.21
280.538	72.36
280.753	35.5
280.969	-13.65
281.184	113.32
281.399	78.51
281.615	58.03
281.83	88.75
282.045	-116.05
282.26	0.68
282.476	33.45
282.691	-42.32
282.906	31.4
283.122	41.64
283.337	-38.23
283.552	43.69
283.767	23.21
283.983	39.59
284.198	19.11
284.413	68.27
284.628	-1.37
284.843	47.79
285.058	23.21
285.274	41.64
285.489	33.45
285.704	55.98
285.919	-3.41
286.134	-5.46
286.349	6.83
286.564	98.99
286.779	31.4
286.995	35.5
287.21	-5.46
287.425	96.94
287.64	-1.37
287.855	39.59
288.07	64.17
288.285	49.83
288.5	47.79
288.715	58.03
288.93	109.23
289.145	-15.7
289.36	58.03
289.575	25.26
289.79	15.02
290.004	62.12
290.219	33.45
290.434	47.79
290.649	-1.37
290.864	-21.85
291.079	-1.37
291.294	35.5
291.509	-32.08
291.724	8.87
291.938	88.75
292.153	43.69
292.368	82.6
292.583	76.46
292.798	92.84
293.012	17.07
293.227	64.17
293.442	-5.46
293.657	127.66
293.871	74.41
294.086	6.83
294.301	76.46
294.516	72.36
294.73	6.83
294.945	-1.37
295.16	-5.46
295.374	47.79
295.589	10.92
295.804	12.97
296.018	35.5
296.233	64.17
296.447	12.97
296.662	31.4
296.877	33.45
297.091	88.75
297.306	55.98
297.52	15.02
297.735	-15.7
297.949	43.69
298.164	-23.89
298.378	72.36
298.593	2.73
298.807	15.02
299.022	33.45
299.236	-1.37
299.451	2.73
299.665	-21.85
299.88	-17.75
300.094	-11.61
300.309	8.87
300.523	27.31
300.737	80.55
300.952	0.68
301.166	43.69
301.381	51.88
301.595	23.21
301.809	53.93
302.024	-66.9
302.238	27.31
302.452	31.4
302.667	70.31
302.881	98.99
303.095	49.83
303.309	105.13
303.524	29.35
303.738	17.07
303.952	12.97
304.166	-42.32
304.381	-19.8
304.595	96.94
304.809	-68.95
305.023	66.22
305.237	-3.41
305.452	96.94
305.666	43.69
305.88	39.59
306.094	27.31
306.308	98.99
306.522	39.59
306.736	88.75
306.95	49.83
307.164	88.75
307.379	35.5
307.593	64.17
307.807	90.79
308.021	12.97
308.235	74.41
308.449	-42.32
308.663	-56.66
308.877	84.65
309.091	-9.56
309.305	-3.41
309.519	-5.46
309.733	74.41
309.947	19.11
310.161	64.17
310.374	-13.65
310.588	74.41
310.802	-17.75
311.016	49.83
311.23	45.74
311.444	41.64
311.658	47.79
311.872	84.65
312.085	123.56
312.299	58.03
312.513	8.87
312.727	23.21
312.941	29.35
313.154	70.31
313.368	58.03
313.582	25.26
313.796	6.83
314.009	0.68
314.223	27.31
314.437	49.83
314.651	55.98
314.864	4.78
315.078	43.69
315.292	39.59
315.505	-5.46
315.719	27.31
315.933	31.4
316.146	8.87
316.36	10.92
316.573	84.65
316.787	55.98
317.001	27.31
317.214	64.17
317.428	-27.99
317.641	21.16
317.855	-5.46
318.068	80.55
318.282	45.74
318.495	101.03
318.709	49.83
318.922	31.4
319.136	162.47
319.349	86.7
319.563	33.45
319.776	23.21
319.99	39.59
320.203	76.46
320.417	6.83
320.63	0.68
320.843	76.46
321.057	-30.04
321.27	17.07
321.483	-23.89
321.697	105.13
321.91	66.22
322.124	-11.61
322.337	72.36
322.55	64.17
322.763	47.79
322.977	-17.75
323.19	10.92
323.403	45.74
323.617	68.27
323.83	51.88
324.043	-3.41
324.256	33.45
324.469	58.03
324.683	105.13
324.896	15.02
325.109	23.21
325.322	4.78
325.535	47.79
325.748	60.07
325.962	92.84
326.175	-36.18
326.388	74.41
326.601	-1.37
326.814	2.73
327.027	27.31
327.24	133.8
327.453	21.16
327.666	88.75
327.879	131.75
328.092	-34.13
328.305	49.83
328.518	55.98
328.731	101.03
328.944	72.36
329.157	39.59
329.37	23.21
329.583	82.6
329.796	58.03
330.009	84.65
330.222	68.27
330.435	137.9
330.648	119.46
330.861	41.64
331.073	105.13
331.286	117.42
331.499	33.45
331.712	2.73
331.925	82.6
332.138	2.73
332.35	47.79
332.563	15.02
332.776	53.93
332.989	-9.56
333.202	39.59
333.414	-3.41
333.627	17.07
333.84	23.21
334.053	43.69
334.265	-1.37
334.478	60.07
334.691	6.83
334.903	76.46
335.116	35.5
335.329	45.74
335.541	58.03
335.754	92.84
335.966	-13.65
336.179	64.17
336.392	60.07
336.604	64.17
336.817	107.18
337.029	62.12
337.242	39.59
337.454	127.66
337.667	31.4
337.88	-15.7
338.092	31.4
338.305	23.21
338.517	60.07
338.729	55.98
338.942	98.99
339.154	-30.04
339.367	31.4
339.579	105.13
339.792	12.97
340.004	51.88
340.217	51.88
340.429	76.46
340.641	25.26
340.854	-11.61
341.066	-30.04
341.278	129.7
341.491	133.8
341.703	23.21
341.915	47.79
342.128	-9.56
342.34	68.27
342.552	113.32
342.764	60.07
342.977	74.41
343.189	41.64
343.401	-42.32
343.613	10.92
343.826	41.64
344.038	-7.51
344.25	-25.94
344.462	10.92
344.674	47.79
344.886	0.68
345.099	47.79
345.311	152.23
345.523	-7.51
345.735	-5.46
345.947	84.65
346.159	29.35
346.371	8.87
346.583	10.92
346.795	115.37
347.007	33.45
347.219	113.32
347.431	58.03
347.643	72.36
347.855	-1.37
348.067	74.41
348.279	-52.56
348.491	15.02
348.703	92.84
348.915	121.51
349.127	4.78
349.339	47.79
349.551	-25.94
349.763	66.22
349.975	6.83
350.187	74.41
350.399	68.27
350.61	51.88
350.822	96.94
351.034	84.65
351.246	-25.94
351.458	47.79
351.669	45.74
351.881	-1.37
352.093	15.02
352.305	-9.56
352.517	58.03
352.728	82.6
352.94	-21.85
353.152	72.36
353.363	33.45
353.575	82.6
353.787	98.99
353.999	96.94
354.21	133.8
354.422	-54.61
354.633	15.02
354.845	72.36
355.057	15.02
355.268	27.31
355.48	88.75
355.692	-27.99
355.903	10.92
356.115	98.99
356.326	-25.94
356.538	55.98
356.749	6.83
356.961	105.13
357.172	-19.8
357.384	15.02
357.595	88.75
357.807	68.27
358.018	60.07
358.23	55.98
358.441	72.36
358.653	141.99
358.864	60.07
359.075	19.11
359.287	82.6
359.498	68.27
359.709	96.94
359.921	49.83
360.132	33.45
360.344	15.02
360.555	-30.04
360.766	68.27
360.977	53.93
361.189	80.55
361.4	47.79
361.611	10.92
361.823	-7.51
362.034	129.7
362.245	-13.65
362.456	90.79
362.667	10.92
362.879	8.87
363.09	31.4
363.301	74.41
363.512	72.36
363.723	-13.65
363.935	23.21
364.146	15.02
364.357	31.4
364.568	60.07
364.779	80.55
364.99	60.07
365.201	37.55
365.412	6.83
365.623	35.5
365.834	94.89
366.045	55.98
366.256	103.08
366.467	47.79
366.678	60.07
366.889	27.31
367.1	96.94
367.311	47.79
367.522	25.26
367.733	105.13
367.944	60.07
368.155	39.59
368.366	-9.56
368.577	51.88
368.788	133.8
368.999	41.64
369.209	58.03
369.42	129.7
369.631	141.99
369.842	15.02
370.053	109.23
370.264	41.64
370.474	-13.65
370.685	90.79
370.896	10.92
371.107	82.6
371.317	98.99
371.528	58.03
371.739	117.42
371.95	84.65
372.16	-34.13
372.371	21.16
372.582	43.69
372.792	88.75
373.003	80.55
373.214	27.31
373.424	-21.85
373.635	-7.51
373.846	98.99
374.056	23.21
374.267	21.16
374.477	60.07
374.688	6.83
374.898	33.45
375.109	109.23
375.319	-21.85
375.53	60.07
375.74	47.79
375.951	84.65
376.161	27.31
376.372	62.12
376.582	-50.52
376.793	80.55
377.003	117.42
377.214	15.02
377.424	43.69
377.635	84.65
377.845	47.79
378.055	148.14
378.266	17.07
378.476	27.31
378.686	76.46
378.897	58.03
379.107	84.65
379.317	25.26
379.528	31.4
379.738	39.59
379.948	4.78
380.158	90.79
380.369	33.45
380.579	68.27
380.789	-23.89
380.999	49.83
381.21	53.93
381.42	94.89
381.63	21.16
381.84	66.22
382.05	55.98
382.261	92.84
382.471	-25.94
382.681	25.26
382.891	64.17
383.101	101.03
383.311	-21.85
383.521	27.31
383.731	-5.46
383.941	74.41
384.151	23.21
384.361	35.5
384.571	105.13
384.781	72.36
384.991	90.79
385.201	31.4
385.411	82.6
385.621	90.79
385.831	55.98
386.041	96.94
386.251	31.4
386.461	23.21
386.671	66.22
386.881	39.59
387.091	66.22
387.301	35.5
387.511	49.83
387.72	43.69
387.93	58.03
388.14	82.6
388.35	60.07
388.56	72.36
388.769	47.79
388.979	94.89
389.189	4.78
389.399	68.27
389.609	74.41
389.818	131.75
390.028	23.21
390.238	39.59
390.447	23.21
390.657	47.79
390.867	10.92
391.076	33.45
391.286	-1.37
391.496	117.42
391.705	31.4
391.915	107.18
392.125	31.4
392.334	121.51
392.544	129.7
392.753	74.41
392.963	55.98
393.172	41.64
393.382	17.07
393.591	131.75
393.801	6.83
394.01	146.09
394.22	51.88
394.429	156.33
394.639	123.56
394.848	131.75
395.058	90.79
395.267	133.8
395.477	101.03
395.686	70.31
395.895	148.14
396.105	107.18
396.314	33.45
396.524	90.79
396.733	88.75
396.942	31.4
397.152	139.94
397.361	113.32
397.57	105.13
397.78	25.26
397.989	105.13
398.198	252.58
398.407	78.51
398.617	115.37
398.826	55.98
399.035	109.23
399.244	141.99
399.453	164.52
399.663	141.99
399.872	205.48
400.081	49.83
400.29	131.75
400.499	72.36
400.708	94.89
400.917	76.46
401.127	158.38
401.336	82.6
401.545	129.7
401.754	178.86
401.963	129.7
402.172	88.75
402.381	129.7
402.59	123.56
402.799	123.56
403.008	137.9
403.217	88.75
403.426	117.42
403.635	55.98
403.844	156.33
404.053	154.28
404.262	119.46
404.471	174.76
404.68	150.18
404.888	162.47
405.097	150.18
405.306	205.48
405.515	162.47
405.724	127.66
405.933	129.7
406.142	180.9
406.35	105.13
406.559	88.75
406.768	137.9
406.977	180.9
407.185	195.24
407.394	244.39
407.603	199.34
407.812	273.06
408.02	291.49
408.229	236.2
408.438	193.19
408.646	191.14
408.855	309.93
409.064	244.39
409.272	219.82
409.481	344.74
409.69	252.58
409.898	256.68
410.107	301.73
410.315	348.84
410.524	291.49
410.733	400.04
410.941	383.65
411.15	303.78
411.358	271.01
411.567	346.79
411.775	416.42
411.984	416.42
412.192	494.24
412.401	410.28
412.609	522.91
412.818	459.43
413.026	535.2
413.234	494.24
413.443	584.35
413.651	441
413.86	572.07
414.068	641.7
414.276	678.56
414.485	615.07
414.693	610.98
414.901	795.29
415.11	682.66
415.318	744.1
415.526	785.05
415.734	832.16
415.943	756.38
416.151	852.64
416.359	830.11
416.567	778.91
416.776	934.56
416.984	989.85
417.192	987.8
417.4	1090.2
417.608	948.89
417.817	1065.63
418.025	1139.35
418.233	1100.44
418.441	1122.97
418.649	1227.42
418.857	1321.62
419.065	1335.96
419.273	1333.91
419.481	1415.83
419.689	1378.97
419.897	1542.8
420.105	1591.95
420.313	1571.47
420.521	1684.11
420.729	1651.35
420.937	1661.59
421.145	1776.27
421.353	1866.38
421.561	2071.18
421.769	2022.03
421.977	2114.19
422.185	2054.8
422.393	2214.54
422.601	2310.79
422.809	2390.66
423.017	2341.51
423.224	2441.86
423.432	2595.46
423.64	2589.32
423.848	2835.07
424.056	2558.6
424.263	2804.35
424.471	2976.38
424.679	2931.33
424.887	3259
425.094	3271.29
425.302	3205.75
425.51	3418.74
425.718	3496.57
425.925	3480.18
426.133	3549.81
426.341	3889.78
426.548	3938.93
426.756	4151.92
426.964	3971.69
427.171	4295.27
427.379	4383.34
427.586	4319.85
427.794	4610.66
428.001	4809.31
428.209	4924
428.417	4889.18
428.624	5243.48
428.832	5298.78
429.039	5280.35
429.247	5216.86
429.454	5669.46
429.662	6101.58
429.869	5610.07
430.076	6203.98
430.284	5923.41
430.491	5954.13
430.699	6425.16
430.906	6584.9
431.114	6699.59
431.321	6820.42
431.528	6818.37
431.736	7412.28
431.943	7684.66
432.15	7422.52
432.358	7619.13
432.565	8002.1
432.772	8010.29
432.979	8405.55
433.187	8557.1
433.394	8675.88
433.601	9333.28
433.808	9159.2
434.016	9232.93
434.223	9484.83
434.43	9927.19
434.637	9875.99
434.844	10680.84
435.052	10500.62
435.259	10473.99
435.466	10828.29
435.673	10605.06
435.88	11145.73
436.087	11973.11
436.294	11674.1
436.501	11606.52
436.708	11778.55
436.915	12233.2
437.122	12700.14
437.329	12980.71
437.537	12863.97
437.743	13205.99
437.95	13242.85
438.157	13941.21
438.364	14498.25
438.571	14193.11
438.778	14422.48
438.985	15847.86
439.192	15043.01
439.399	15595.96
439.606	15348.16
439.813	16394.67
440.02	17152.42
440.227	16538.03
440.433	16529.84
440.64	17170.85
440.847	16984.49
441.054	17535.39
441.261	18479.5
441.467	18325.91
441.674	18712.97
441.881	19282.31
442.088	19202.44
442.294	19208.58
442.501	19540.35
442.708	20109.69
442.914	20666.74
443.121	21549.41
443.328	21113.19
443.534	22610.26
443.741	22239.58
443.948	21600.61
444.154	23394.63
444.361	23034.19
444.568	23193.93
444.774	22931.79
444.981	23699.78
445.187	23851.33
445.394	25049.39
445.6	25035.05
445.807	27156.75
446.013	25899.3
446.22	26423.58
446.426	27584.77
446.633	27814.15
446.839	28709.11
447.046	27201.8
447.252	29016.3
447.459	29090.03
447.665	28700.92
447.871	30183.65
448.078	31578.31
448.284	29841.64
448.491	30677.21
448.697	31785.16
448.903	32237.76
449.11	32415.93
449.316	31836.36
449.522	32829.62
449.728	33491.12
449.935	33869.99
450.141	33820.84
450.347	34613.4
450.553	33562.79
450.76	33921.19
450.966	34900.12
451.172	34666.65
451.378	35549.32
451.584	34476.19
451.791	35702.92
451.997	35553.42
452.203	35768.46
452.409	36167.81
452.615	35723.4
452.821	34386.08
453.027	34044.07
453.233	35578
453.44	34087.07
453.646	34648.22
453.852	34930.84
454.058	35698.83
454.264	34273.44
454.47	35313.81
454.676	34078.88
454.882	35334.29
455.088	32458.94
455.294	32551.1
455.5	33196.21
455.705	33142.96
455.911	32268.48
456.117	31635.66
456.323	31275.21
456.529	29409.51
456.735	30605.53
456.941	29827.3
457.147	29520.1
457.352	28756.21
457.558	28168.44
457.764	28455.16
457.97	27754.76
458.176	27109.64
458.381	26976.53
458.587	25796.9
458.793	26102.04
458.999	24422.71
459.204	26161.44
459.41	25622.82
459.616	23845.18
459.821	23677.25
460.027	23722.3
460.233	23304.52
460.438	22436.18
460.644	21952.86
460.85	21219.69
461.055	21043.56
461.261	20769.13
461.466	19218.82
461.672	18719.12
461.878	19964.28
462.083	18727.31
462.289	18225.56
462.494	18282.9
462.7	17301.92
462.905	16925.1
463.111	17490.34
463.316	17486.24
463.522	17047.97
463.727	17310.11
463.932	17172.9
464.138	16769.45
464.343	16888.23
464.549	16380.34
464.754	16970.15
464.959	16642.48
465.165	16773.55
465.37	15968.69
465.575	15514.05
465.781	16472.5
465.986	16304.56
466.191	15727.03
466.397	15552.96
466.602	14664.14
466.807	15307.2
467.012	15210.95
467.218	15116.74
467.423	14838.22
467.628	15034.82
