Data from USB4F104151__152__14-31-58-648.txt Node

Date: Thu Mar 13 14:31:58 EDT 2025
User: louis
Spectrometer: USB4F10415
Trigger mode: 4
Integration Time (sec): 2.500000E-2
Scans to average: 1
Electric dark correction enabled: true
Nonlinearity correction enabled: false
Boxcar width: 0
XAxis mode: Wavelengths
Number of Pixels in Spectrum: 3648
>>>>>Begin Spectral Data<<<<<
178.204	-163.33
178.424	-163.33
178.644	-163.33
178.864	-189.95
179.084	-120.32
179.304	-7.68
179.524	-62.98
179.744	8.7
179.964	-30.21
180.184	25.09
180.404	0.51
180.624	-9.73
180.844	-17.92
181.064	18.94
181.283	-19.97
181.503	53.76
181.723	41.47
181.943	-7.68
182.163	25.09
182.383	-17.92
182.602	84.48
182.822	64
183.042	41.47
183.262	-58.88
183.482	-22.02
183.701	-7.68
183.921	-65.02
184.141	0.51
184.361	39.42
184.58	92.67
184.8	111.1
185.02	-7.68
185.239	66.05
185.459	0.51
185.679	41.47
185.898	66.05
186.118	123.39
186.338	70.14
186.557	82.43
186.777	16.9
186.997	-24.06
187.216	29.18
187.436	45.57
187.655	29.18
187.875	43.52
188.095	25.09
188.314	45.57
188.534	8.7
188.753	8.7
188.973	8.7
189.192	41.47
189.412	-28.16
189.631	4.61
189.851	-7.68
190.07	16.9
190.29	-22.02
190.509	14.85
190.729	35.33
190.948	111.1
191.168	156.16
191.387	-5.63
191.607	-40.45
191.826	49.66
192.045	35.33
192.265	35.33
192.484	57.86
192.704	12.8
192.923	25.09
193.142	111.1
193.362	61.95
193.581	57.86
193.8	53.76
194.02	45.57
194.239	-9.73
194.458	-7.68
194.678	68.09
194.897	84.48
195.116	23.04
195.335	12.8
195.555	8.7
195.774	-9.73
195.993	29.18
196.212	-7.68
196.432	-22.02
196.651	59.9
196.87	27.14
197.089	49.66
197.308	20.99
197.528	16.9
197.747	-28.16
197.966	-32.26
198.185	98.81
198.404	-9.73
198.623	37.38
198.842	53.76
199.062	-24.06
199.281	27.14
199.5	35.33
199.719	119.29
199.938	29.18
200.157	61.95
200.376	16.9
200.595	25.09
200.814	-24.06
201.033	-73.21
201.252	14.85
201.471	57.86
201.69	41.47
201.909	102.91
202.128	68.09
202.347	27.14
202.566	47.62
202.785	0.51
203.004	-28.16
203.223	156.16
203.442	33.28
203.661	78.33
203.879	33.28
204.098	57.86
204.317	-22.02
204.536	33.28
204.755	12.8
204.974	51.71
205.193	49.66
205.411	12.8
205.63	57.86
205.849	-7.68
206.068	-7.68
206.287	-11.78
206.505	94.72
206.724	37.38
206.943	4.61
207.162	0.51
207.381	64
207.599	-32.26
207.818	37.38
208.037	49.66
208.255	-54.78
208.474	2.56
208.693	51.71
208.911	-3.58
209.13	76.29
209.349	55.81
209.567	53.76
209.786	45.57
210.005	20.99
210.223	-30.21
210.442	10.75
210.661	37.38
210.879	-5.63
211.098	82.43
211.316	37.38
211.535	61.95
211.753	-15.87
211.972	2.56
212.191	0.51
212.409	0.51
212.628	-46.59
212.846	-40.45
213.065	18.94
213.283	66.05
213.502	33.28
213.72	4.61
213.938	68.09
214.157	4.61
214.375	33.28
214.594	90.62
214.812	61.95
215.031	57.86
215.249	41.47
215.467	59.9
215.686	6.66
215.904	59.9
216.122	29.18
216.341	-3.58
216.559	2.56
216.778	55.81
216.996	76.29
217.214	35.33
217.432	18.94
217.651	-95.74
217.869	-11.78
218.087	16.9
218.306	-26.11
218.524	86.53
218.742	2.56
218.96	2.56
219.179	33.28
219.397	33.28
219.615	72.19
219.833	25.09
220.051	37.38
220.27	55.81
220.488	66.05
220.706	4.61
220.924	-5.63
221.142	8.7
221.36	49.66
221.578	29.18
221.796	43.52
222.015	33.28
222.233	-32.26
222.451	10.75
222.669	-50.69
222.887	33.28
223.105	-58.88
223.323	18.94
223.541	-24.06
223.759	74.24
223.977	68.09
224.195	35.33
224.413	41.47
224.631	33.28
224.849	66.05
225.067	53.76
225.285	45.57
225.503	70.14
225.721	-40.45
225.939	-7.68
226.157	16.9
226.375	27.14
226.592	8.7
226.81	29.18
227.028	-3.58
227.246	141.82
227.464	4.61
227.682	-19.97
227.9	27.14
228.117	-19.97
228.335	10.75
228.553	55.81
228.771	80.38
228.989	16.9
229.206	27.14
229.424	-7.68
229.642	-26.11
229.86	16.9
230.077	35.33
230.295	4.61
230.513	57.86
230.731	49.66
230.948	41.47
231.166	43.52
231.384	14.85
231.601	66.05
231.819	49.66
232.037	10.75
232.254	-40.45
232.472	20.99
232.689	-44.54
232.907	47.62
233.125	-40.45
233.342	-19.97
233.56	27.14
233.777	-28.16
233.995	82.43
234.213	10.75
234.43	-89.6
234.648	-3.58
234.865	-38.4
235.083	-5.63
235.3	8.7
235.518	-13.82
235.735	29.18
235.953	86.53
236.17	18.94
236.388	37.38
236.605	-34.3
236.822	53.76
237.04	41.47
237.257	143.87
237.475	18.94
237.692	16.9
237.909	35.33
238.127	-46.59
238.344	20.99
238.562	8.7
238.779	-7.68
238.996	2.56
239.214	16.9
239.431	39.42
239.648	16.9
239.865	16.9
240.083	-7.68
240.3	78.33
240.517	-5.63
240.735	-24.06
240.952	49.66
241.169	135.68
241.386	-30.21
241.603	16.9
241.821	-22.02
242.038	82.43
242.255	-38.4
242.472	0.51
242.689	76.29
242.907	51.71
243.124	25.09
243.341	4.61
243.558	-13.82
243.775	-15.87
243.992	-85.5
244.209	14.85
244.426	78.33
244.643	-38.4
244.86	12.8
245.078	98.81
245.295	37.38
245.512	74.24
245.729	-46.59
245.946	74.24
246.163	25.09
246.38	8.7
246.597	33.28
246.814	123.39
247.031	35.33
247.248	49.66
247.464	25.09
247.681	-5.63
247.898	-7.68
248.115	-38.4
248.332	-22.02
248.549	61.95
248.766	115.2
248.983	41.47
249.2	90.62
249.417	10.75
249.633	47.62
249.85	12.8
250.067	20.99
250.284	12.8
250.501	53.76
250.717	0.51
250.934	-1.54
251.151	-9.73
251.368	8.7
251.585	90.62
251.801	-7.68
252.018	-15.87
252.235	-3.58
252.451	-7.68
252.668	12.8
252.885	37.38
253.102	25.09
253.318	53.76
253.535	-52.74
253.752	-7.68
253.968	49.66
254.185	23.04
254.401	41.47
254.618	98.81
254.835	4.61
255.051	29.18
255.268	-28.16
255.484	27.14
255.701	-5.63
255.917	37.38
256.134	-22.02
256.351	-26.11
256.567	-15.87
256.784	49.66
257	-40.45
257.217	18.94
257.433	57.86
257.65	49.66
257.866	27.14
258.082	-32.26
258.299	72.19
258.515	4.61
258.732	-3.58
258.948	43.52
259.165	-9.73
259.381	8.7
259.597	41.47
259.814	-40.45
260.03	94.72
260.246	10.75
260.463	16.9
260.679	64
260.895	-48.64
261.112	41.47
261.328	61.95
261.544	-15.87
261.761	139.77
261.977	16.9
262.193	-32.26
262.409	82.43
262.626	-7.68
262.842	49.66
263.058	33.28
263.274	10.75
263.49	18.94
263.707	66.05
263.923	12.8
264.139	-50.69
264.355	-1.54
264.571	33.28
264.787	59.9
265.004	43.52
265.22	61.95
265.436	35.33
265.652	-48.64
265.868	76.29
266.084	-22.02
266.3	-22.02
266.516	107.01
266.732	18.94
266.948	12.8
267.164	57.86
267.38	37.38
267.596	41.47
267.812	115.2
268.028	37.38
268.244	33.28
268.46	14.85
268.676	18.94
268.892	12.8
269.108	-83.45
269.324	37.38
269.54	12.8
269.756	18.94
269.972	-56.83
270.188	-13.82
270.403	-42.5
270.619	41.47
270.835	-5.63
271.051	94.72
271.267	-19.97
271.483	4.61
271.698	70.14
271.914	74.24
272.13	57.86
272.346	-32.26
272.562	51.71
272.777	49.66
272.993	25.09
273.209	10.75
273.425	33.28
273.64	43.52
273.856	107.01
274.072	16.9
274.287	35.33
274.503	94.72
274.719	113.15
274.934	-11.78
275.15	8.7
275.366	0.51
275.581	14.85
275.797	86.53
276.012	-9.73
276.228	-32.26
276.444	16.9
276.659	115.2
276.875	51.71
277.09	35.33
277.306	-24.06
277.521	23.04
277.737	82.43
277.952	-22.02
278.168	41.47
278.383	-19.97
278.599	37.38
278.814	51.71
279.03	-48.64
279.245	53.76
279.461	33.28
279.676	0.51
279.892	-56.83
280.107	-42.5
280.322	8.7
280.538	10.75
280.753	12.8
280.969	74.24
281.184	0.51
281.399	111.1
281.615	43.52
281.83	29.18
282.045	-38.4
282.26	78.33
282.476	49.66
282.691	16.9
282.906	66.05
283.122	98.81
283.337	51.71
283.552	74.24
283.767	18.94
283.983	41.47
284.198	37.38
284.413	10.75
284.628	-93.69
284.843	16.9
285.058	55.81
285.274	82.43
285.489	-79.36
285.704	-5.63
285.919	-40.45
286.134	68.09
286.349	20.99
286.564	-19.97
286.779	92.67
286.995	-5.63
287.21	-34.3
287.425	59.9
287.64	33.28
287.855	61.95
288.07	35.33
288.285	82.43
288.5	51.71
288.715	94.72
288.93	27.14
289.145	-44.54
289.36	37.38
289.575	45.57
289.79	84.48
290.004	-15.87
290.219	78.33
290.434	-32.26
290.649	-9.73
290.864	100.86
291.079	23.04
291.294	23.04
291.509	68.09
291.724	88.57
291.938	35.33
292.153	-7.68
292.368	98.81
292.583	59.9
292.798	6.66
293.012	-1.54
293.227	66.05
293.442	16.9
293.657	-3.58
293.871	53.76
294.086	53.76
294.301	74.24
294.516	88.57
294.73	86.53
294.945	10.75
295.16	-5.63
295.374	57.86
295.589	27.14
295.804	-5.63
296.018	41.47
296.233	43.52
296.447	2.56
296.662	-22.02
296.877	119.29
297.091	-22.02
297.306	12.8
297.52	-26.11
297.735	33.28
297.949	-32.26
298.164	-3.58
298.378	8.7
298.593	31.23
298.807	-24.06
299.022	-40.45
299.236	125.44
299.451	33.28
299.665	-30.21
299.88	70.14
300.094	12.8
300.309	39.42
300.523	18.94
300.737	98.81
300.952	-11.78
301.166	-11.78
301.381	25.09
301.595	-44.54
301.809	-5.63
302.024	-36.35
302.238	-52.74
302.452	-34.3
302.667	68.09
302.881	59.9
303.095	-17.92
303.309	66.05
303.524	72.19
303.738	25.09
303.952	66.05
304.166	18.94
304.381	-28.16
304.595	84.48
304.809	-15.87
305.023	82.43
305.237	16.9
305.452	59.9
305.666	-5.63
305.88	12.8
306.094	107.01
306.308	72.19
306.522	41.47
306.736	29.18
306.95	27.14
307.164	76.29
307.379	100.86
307.593	119.29
307.807	-7.68
308.021	57.86
308.235	12.8
308.449	-5.63
308.663	-44.54
308.877	70.14
309.091	-22.02
309.305	39.42
309.519	-15.87
309.733	49.66
309.947	-5.63
310.161	92.67
310.374	12.8
310.588	90.62
310.802	-3.58
311.016	-22.02
311.23	-15.87
311.444	55.81
311.658	-7.68
311.872	41.47
312.085	41.47
312.299	-13.82
312.513	4.61
312.727	131.58
312.941	-3.58
313.154	-58.88
313.368	-30.21
313.582	18.94
313.796	35.33
314.009	-24.06
314.223	55.81
314.437	43.52
314.651	55.81
314.864	-3.58
315.078	0.51
315.292	47.62
315.505	-7.68
315.719	16.9
315.933	-3.58
316.146	-38.4
316.36	20.99
316.573	78.33
316.787	51.71
317.001	16.9
317.214	-48.64
317.428	12.8
317.641	16.9
317.855	12.8
318.068	2.56
318.282	4.61
318.495	90.62
318.709	57.86
318.922	16.9
319.136	53.76
319.349	162.3
319.563	18.94
319.776	-40.45
319.99	-22.02
320.203	33.28
320.417	72.19
320.63	43.52
320.843	74.24
321.057	8.7
321.27	4.61
321.483	-24.06
321.697	59.9
321.91	-46.59
322.124	53.76
322.337	100.86
322.55	-11.78
322.763	16.9
322.977	10.75
323.19	16.9
323.403	-13.82
323.617	33.28
323.83	53.76
324.043	23.04
324.256	66.05
324.469	-1.54
324.683	43.52
324.896	16.9
325.109	45.57
325.322	47.62
325.535	74.24
325.748	20.99
325.962	25.09
326.175	45.57
326.388	16.9
326.601	-40.45
326.814	23.04
327.027	107.01
327.24	100.86
327.453	-7.68
327.666	37.38
327.879	88.57
328.092	12.8
328.305	37.38
328.518	-5.63
328.731	-26.11
328.944	-24.06
329.157	51.71
329.37	27.14
329.583	78.33
329.796	51.71
330.009	-56.83
330.222	111.1
330.435	51.71
330.648	41.47
330.861	61.95
331.073	18.94
331.286	98.81
331.499	-13.82
331.712	-48.64
331.925	41.47
332.138	0.51
332.35	57.86
332.563	-38.4
332.776	66.05
332.989	-26.11
333.202	27.14
333.414	-19.97
333.627	25.09
333.84	-13.82
334.053	86.53
334.265	49.66
334.478	37.38
334.691	59.9
334.903	41.47
335.116	4.61
335.329	-24.06
335.541	57.86
335.754	51.71
335.966	-24.06
336.179	-24.06
336.392	-42.5
336.604	59.9
336.817	-38.4
337.029	12.8
337.242	25.09
337.454	41.47
337.667	33.28
337.88	133.63
338.092	-19.97
338.305	78.33
338.517	-19.97
338.729	70.14
338.942	18.94
339.154	43.52
339.367	23.04
339.579	94.72
339.792	-32.26
340.004	49.66
340.217	68.09
340.429	37.38
340.641	-40.45
340.854	27.14
341.066	27.14
341.278	115.2
341.491	160.25
341.703	57.86
341.915	-3.58
342.128	70.14
342.34	14.85
342.552	2.56
342.764	64
342.977	-48.64
343.189	12.8
343.401	37.38
343.613	29.18
343.826	0.51
344.038	14.85
344.25	43.52
344.462	121.34
344.674	61.95
344.886	76.29
345.099	29.18
345.311	37.38
345.523	20.99
345.735	-15.87
345.947	37.38
346.159	33.28
346.371	18.94
346.583	84.48
346.795	49.66
347.007	43.52
347.219	117.25
347.431	18.94
347.643	90.62
347.855	57.86
348.067	127.49
348.279	-5.63
348.491	-22.02
348.703	-9.73
348.915	4.61
349.127	0.51
349.339	82.43
349.551	12.8
349.763	27.14
349.975	70.14
350.187	0.51
350.399	94.72
350.61	90.62
350.822	33.28
351.034	49.66
351.246	43.52
351.458	43.52
351.669	-22.02
351.881	45.57
352.093	-19.97
352.305	25.09
352.517	61.95
352.728	80.38
352.94	70.14
353.152	49.66
353.363	25.09
353.575	35.33
353.787	88.57
353.999	49.66
354.21	90.62
354.422	49.66
354.633	57.86
354.845	45.57
355.057	-13.82
355.268	-7.68
355.48	109.05
355.692	-62.98
355.903	55.81
356.115	29.18
356.326	-34.3
356.538	74.24
356.749	33.28
356.961	90.62
357.172	10.75
357.384	-38.4
357.595	74.24
357.807	6.66
358.018	-58.88
358.23	27.14
358.441	139.77
358.653	49.66
358.864	-1.54
359.075	16.9
359.287	33.28
359.498	41.47
359.709	-32.26
359.921	25.09
360.132	107.01
360.344	27.14
360.555	8.7
360.766	-75.26
360.977	31.23
361.189	45.57
361.4	2.56
361.611	12.8
361.823	49.66
362.034	-34.3
362.245	-5.63
362.456	41.47
362.667	18.94
362.879	8.7
363.09	43.52
363.301	33.28
363.512	154.11
363.723	-19.97
363.935	25.09
364.146	123.39
364.357	10.75
364.568	33.28
364.779	-13.82
364.99	123.39
365.201	59.9
365.412	25.09
365.623	-22.02
365.834	72.19
366.045	45.57
366.256	43.52
366.467	-15.87
366.678	25.09
366.889	51.71
367.1	-13.82
367.311	51.71
367.522	-17.92
367.733	113.15
367.944	29.18
368.155	57.86
368.366	107.01
368.577	143.87
368.788	98.81
368.999	51.71
369.209	-13.82
369.42	147.97
369.631	86.53
369.842	78.33
370.053	76.29
370.264	29.18
370.474	-13.82
370.685	51.71
370.896	0.51
371.107	49.66
371.317	123.39
371.528	41.47
371.739	31.23
371.95	39.42
372.16	41.47
372.371	66.05
372.582	-32.26
372.792	33.28
373.003	100.86
373.214	55.81
373.424	41.47
373.635	25.09
373.846	141.82
374.056	82.43
374.267	49.66
374.477	104.96
374.688	-7.68
374.898	33.28
375.109	100.86
375.319	16.9
375.53	70.14
375.74	66.05
375.951	66.05
376.161	29.18
376.372	88.57
376.582	12.8
376.793	37.38
377.003	57.86
377.214	33.28
377.424	98.81
377.635	57.86
377.845	-5.63
378.055	123.39
378.266	8.7
378.476	-1.54
378.686	70.14
378.897	10.75
379.107	123.39
379.317	41.47
379.528	74.24
379.738	127.49
379.948	8.7
380.158	82.43
380.369	-7.68
380.579	70.14
380.789	72.19
380.999	102.91
381.21	94.72
381.42	64
381.63	-28.16
381.84	109.05
382.05	115.2
382.261	111.1
382.471	33.28
382.681	57.86
382.891	29.18
383.101	18.94
383.311	-38.4
383.521	41.47
383.731	90.62
383.941	92.67
384.151	12.8
384.361	98.81
384.571	35.33
384.781	41.47
384.991	107.01
385.201	90.62
385.411	68.09
385.621	47.62
385.831	90.62
386.041	90.62
386.251	12.8
386.461	74.24
386.671	61.95
386.881	82.43
387.091	4.61
387.301	35.33
387.511	53.76
387.72	51.71
387.93	127.49
388.14	25.09
388.35	51.71
388.56	8.7
388.769	27.14
388.979	16.9
389.189	-3.58
389.399	18.94
389.609	57.86
389.818	47.62
390.028	141.82
390.238	139.77
390.447	41.47
390.657	100.86
390.867	76.29
391.076	35.33
391.286	94.72
391.496	29.18
391.705	-36.35
391.915	92.67
392.125	76.29
392.334	76.29
392.544	27.14
392.753	82.43
392.963	115.2
393.172	45.57
393.382	10.75
393.591	131.58
393.801	72.19
394.01	170.49
394.22	109.05
394.429	51.71
394.639	100.86
394.848	150.01
395.058	-48.64
395.267	41.47
395.477	123.39
395.686	80.38
395.895	129.53
396.105	113.15
396.314	20.99
396.524	90.62
396.733	90.62
396.942	92.67
397.152	115.2
397.361	74.24
397.57	53.76
397.78	41.47
397.989	119.29
398.198	66.05
398.407	10.75
398.617	70.14
398.826	53.76
399.035	119.29
399.244	143.87
399.453	139.77
399.663	123.39
399.872	162.3
400.081	31.23
400.29	158.21
400.499	23.04
400.708	90.62
400.917	25.09
401.127	57.86
401.336	53.76
401.545	180.73
401.754	98.81
401.963	86.53
402.172	129.53
402.381	59.9
402.59	141.82
402.799	152.06
403.008	127.49
403.217	180.73
403.426	68.09
403.635	109.05
403.844	125.44
404.053	190.97
404.262	115.2
404.471	152.06
404.68	82.43
404.888	156.16
405.097	166.4
405.306	115.2
405.515	172.54
405.724	154.11
405.933	197.12
406.142	150.01
406.35	215.55
406.559	115.2
406.768	231.93
406.977	270.84
407.185	217.6
407.394	238.08
407.603	158.21
407.812	215.55
408.02	313.85
408.229	262.65
408.438	279.04
408.646	207.36
408.855	238.08
409.064	221.69
409.272	295.42
409.481	272.89
409.69	279.04
409.898	262.65
410.107	403.96
410.315	363
410.524	320
410.733	332.28
410.941	303.61
411.15	471.54
411.358	442.87
411.567	508.41
411.775	393.72
411.984	487.93
412.192	492.02
412.401	412.15
412.609	551.42
412.818	557.56
413.026	573.94
413.234	592.37
413.443	492.02
413.651	631.29
413.86	541.18
414.068	625.14
414.276	653.81
414.485	696.82
414.693	664.05
414.901	739.83
415.11	770.55
415.318	780.79
415.526	754.16
415.734	864.75
415.943	893.43
416.151	838.13
416.359	928.24
416.567	993.78
416.776	1028.59
416.984	977.39
417.192	1065.46
417.4	981.49
417.608	1028.59
417.817	1092.08
418.025	1214.96
418.233	1386.99
418.441	1280.49
418.649	1268.2
418.857	1440.23
419.065	1438.19
419.273	1493.48
419.481	1466.86
419.689	1565.16
419.897	1554.92
420.105	1583.59
420.313	1638.89
420.521	1788.39
420.729	1745.38
420.937	1882.6
421.145	1837.54
421.353	1976.8
421.561	2173.41
421.769	2140.64
421.977	2232.8
422.185	2165.21
422.393	2404.83
422.601	2578.9
422.809	2310.62
423.017	2466.27
423.224	2687.45
423.432	2673.11
423.64	2746.84
423.848	3011.03
424.056	2795.99
424.263	3215.82
424.471	3035.6
424.679	3215.82
424.887	3346.89
425.094	3353.04
425.302	3590.6
425.51	3584.46
425.718	3662.28
425.925	3723.72
426.133	3926.47
426.341	4067.78
426.548	4280.77
426.756	4268.48
426.964	4360.64
427.171	4551.1
427.379	4676.02
427.586	4852.15
427.794	4850.1
428.001	5251.5
428.209	5484.97
428.417	5312.94
428.624	5583.27
428.832	5695.91
429.039	5499.31
429.247	5708.2
429.454	6095.27
429.662	6701.47
429.869	6152.61
430.076	6650.27
430.284	6283.68
430.491	6719.9
430.699	7053.72
430.906	6998.42
431.114	7018.9
431.321	7510.41
431.528	7537.04
431.736	7991.69
431.943	8259.97
432.15	7983.49
432.358	8241.54
432.565	8706.43
432.772	8616.32
432.979	9118.07
433.187	9378.16
433.394	9355.63
433.601	10017.13
433.808	9736.56
434.016	9740.65
434.223	10092.9
434.43	10871.13
434.637	10727.77
434.844	11297.11
435.052	11442.51
435.259	11493.71
435.466	11731.28
435.673	11667.79
435.88	12061
436.087	12796.22
436.294	12939.58
436.501	12636.48
436.708	12677.44
436.915	13084.98
437.122	13746.48
437.329	13594.93
437.537	14231.85
437.743	14307.62
437.95	14233.89
438.157	14858.53
438.364	15472.92
438.571	15321.37
438.778	15327.51
438.985	16695.55
439.192	16218.38
439.399	16644.35
439.606	16333.06
439.813	17717.49
440.02	18483.43
440.227	17936.62
440.433	17811.7
440.64	18438.37
440.847	18235.63
441.054	18598.12
441.261	20230.35
441.467	19628.24
441.674	20091.09
441.881	21055.68
442.088	20701.38
442.294	20609.22
442.501	20975.81
442.708	21330.11
442.914	22294.7
443.121	23206.05
443.328	22519.98
443.534	24125.58
443.741	23535.77
443.948	23163.04
444.154	25018.5
444.361	24766.6
444.568	24869
444.774	25092.23
444.981	25118.85
445.187	25909.36
445.394	27070.56
445.6	26523.76
445.807	28993.61
446.013	28076.12
446.22	28407.89
446.426	29698.11
446.633	29915.19
446.839	30668.84
447.046	29521.98
447.252	31258.66
447.459	31383.59
447.665	31232.04
447.871	32704.52
448.078	33677.31
448.284	32329.75
448.491	33200.13
448.697	34252.79
448.903	34791.41
449.11	34834.41
449.316	34637.81
449.522	35461.09
449.728	36048.86
449.935	36577.23
450.141	36177.88
450.347	37377.99
450.553	36130.78
450.76	36636.62
450.966	37443.52
451.172	37492.68
451.378	38098.87
451.584	37199.82
451.791	38379.45
451.997	38502.32
452.203	39098.28
452.409	39296.94
452.615	39172.01
452.821	37662.66
453.027	37162.95
453.233	39063.47
453.44	37083.08
453.646	37736.38
453.852	37898.17
454.058	38608.82
454.264	37318.6
454.47	38170.55
454.676	37148.62
454.882	38227.9
455.088	35129.32
455.294	35545.06
455.5	36077.53
455.705	36550.61
455.911	35074.02
456.117	34639.86
456.323	33955.83
456.529	32118.81
456.735	33951.74
456.941	32806.92
457.147	32143.38
457.352	31408.16
457.558	30853.16
457.764	31002.66
457.97	30259.25
458.176	29786.17
458.381	29978.68
458.587	28082.26
458.793	28424.27
458.999	27177.06
459.204	28545.1
459.41	28143.7
459.616	26165.36
459.821	26114.16
460.027	25962.61
460.233	25473.15
460.438	24152.21
460.644	24402.06
460.85	23373.98
461.055	22698.15
461.261	22937.76
461.466	21166.27
461.672	20631.75
461.878	21815.48
462.083	20254.92
462.289	20113.61
462.494	20072.65
462.7	18987.23
462.905	18608.36
463.111	19431.64
463.316	19167.45
463.522	18933.98
463.727	18890.98
463.932	18548.96
464.138	18512.1
464.343	18532.58
464.549	18178.28
464.754	18579.68
464.959	18755.81
465.165	18399.46
465.37	17291.51
465.575	16826.62
465.781	17633.52
465.986	17776.88
466.191	17334.52
466.397	16656.64
466.602	15776.02
466.807	16433.41
467.012	16511.24
467.218	16386.31
467.423	16333.06
