Data from USB4F104151__159__14-32-02-897.txt Node

Date: Thu Mar 13 14:32:02 EDT 2025
User: louis
Spectrometer: USB4F10415
Trigger mode: 4
Integration Time (sec): 2.500000E-2
Scans to average: 1
Electric dark correction enabled: true
Nonlinearity correction enabled: false
Boxcar width: 0
XAxis mode: Wavelengths
Number of Pixels in Spectrum: 3648
>>>>>Begin Spectral Data<<<<<
178.204	-111.44
178.424	-111.44
178.644	-111.44
178.864	-123.73
179.084	-82.77
179.304	-29.52
179.524	-2.9
179.744	-19.29
179.964	33.96
180.184	1.19
180.404	13.48
180.624	56.49
180.844	-2.9
181.064	-43.86
181.283	-25.43
181.503	-11.09
181.723	29.87
181.943	-9.05
182.163	87.21
182.383	70.83
182.602	101.55
182.822	81.07
183.042	72.87
183.262	56.49
183.482	58.54
183.701	15.53
183.921	1.19
184.141	54.44
184.361	95.4
184.58	60.59
184.8	7.34
185.02	-27.48
185.239	79.02
185.459	-19.29
185.679	25.77
185.898	7.34
186.118	70.83
186.338	103.59
186.557	111.78
186.777	46.25
186.997	76.97
187.216	-25.43
187.436	169.13
187.655	50.35
187.875	58.54
188.095	5.29
188.314	144.55
188.534	160.94
188.753	27.82
188.973	70.83
189.192	107.69
189.412	54.44
189.631	95.4
189.851	46.25
190.07	40.11
190.29	46.25
190.509	79.02
190.729	66.73
190.948	99.5
191.168	205.99
191.387	79.02
191.607	21.67
191.826	17.58
192.045	33.96
192.265	66.73
192.484	9.39
192.704	76.97
192.923	29.87
193.142	46.25
193.362	87.21
193.581	15.53
193.8	93.35
194.02	81.07
194.239	95.4
194.458	54.44
194.678	107.69
194.897	19.63
195.116	74.92
195.335	79.02
195.555	54.44
195.774	50.35
195.993	105.64
196.212	48.3
196.432	31.91
196.651	7.34
196.87	-41.81
197.089	115.88
197.308	113.83
197.528	124.07
197.747	19.63
197.966	-2.9
198.185	138.41
198.404	38.06
198.623	3.24
198.842	42.15
199.062	48.3
199.281	64.68
199.5	42.15
199.719	107.69
199.938	50.35
200.157	50.35
200.376	109.74
200.595	111.78
200.814	70.83
201.033	29.87
201.252	36.01
201.471	56.49
201.69	87.21
201.909	46.25
202.128	113.83
202.347	62.63
202.566	31.91
202.785	48.3
203.004	74.92
203.223	144.55
203.442	54.44
203.661	119.98
203.879	-7
204.098	173.22
204.317	134.31
204.536	62.63
204.755	1.19
204.974	36.01
205.193	81.07
205.411	173.22
205.63	44.2
205.849	54.44
206.068	-27.48
206.287	50.35
206.505	42.15
206.724	79.02
206.943	36.01
207.162	7.34
207.381	83.11
207.599	17.58
207.818	109.74
208.037	-7
208.255	19.63
208.474	113.83
208.693	62.63
208.911	-13.14
209.13	111.78
209.349	64.68
209.567	97.45
209.786	105.64
210.005	33.96
210.223	17.58
210.442	17.58
210.661	103.59
210.879	56.49
211.098	13.48
211.316	66.73
211.535	70.83
211.753	52.39
211.972	38.06
212.191	54.44
212.409	64.68
212.628	130.22
212.846	40.11
213.065	117.93
213.283	54.44
213.502	5.29
213.72	-9.05
213.938	42.15
214.157	-17.24
214.375	62.63
214.594	97.45
214.812	83.11
215.031	13.48
215.249	29.87
215.467	70.83
215.686	62.63
215.904	62.63
216.122	38.06
216.341	169.13
216.559	64.68
216.778	70.83
216.996	38.06
217.214	19.63
217.432	23.72
217.651	48.3
217.869	62.63
218.087	52.39
218.306	70.83
218.524	33.96
218.742	111.78
218.96	103.59
219.179	56.49
219.397	25.77
219.615	130.22
219.833	-17.24
220.051	25.77
220.27	183.46
220.488	46.25
220.706	58.54
220.924	9.39
221.142	27.82
221.36	66.73
221.578	122.02
221.796	54.44
222.015	19.63
222.233	93.35
222.451	154.79
222.669	70.83
222.887	89.26
223.105	31.91
223.323	1.19
223.541	23.72
223.759	91.31
223.977	7.34
224.195	70.83
224.413	54.44
224.631	95.4
224.849	134.31
225.067	115.88
225.285	46.25
225.503	91.31
225.721	58.54
225.939	38.06
226.157	-0.85
226.375	140.46
226.592	3.24
226.81	101.55
227.028	64.68
227.246	83.11
227.464	117.93
227.682	128.17
227.9	101.55
228.117	171.18
228.335	95.4
228.553	70.83
228.771	42.15
228.989	70.83
229.206	50.35
229.424	56.49
229.642	60.59
229.86	27.82
230.077	128.17
230.295	111.78
230.513	105.64
230.731	87.21
230.948	124.07
231.166	124.07
231.384	27.82
231.601	-11.09
231.819	58.54
232.037	-56.15
232.254	56.49
232.472	64.68
232.689	95.4
232.907	46.25
233.125	119.98
233.342	70.83
233.56	-4.95
233.777	23.72
233.995	17.58
234.213	54.44
234.43	91.31
234.648	56.49
234.865	-68.44
235.083	1.19
235.3	13.48
235.518	79.02
235.735	162.98
235.953	79.02
236.17	74.92
236.388	68.78
236.605	42.15
236.822	21.67
237.04	148.65
237.257	126.12
237.475	38.06
237.692	46.25
237.909	66.73
238.127	56.49
238.344	54.44
238.562	54.44
238.779	-39.76
238.996	-11.09
239.214	119.98
239.431	128.17
239.648	42.15
239.865	46.25
240.083	54.44
240.3	81.07
240.517	-2.9
240.735	89.26
240.952	128.17
241.169	97.45
241.386	7.34
241.603	13.48
241.821	83.11
242.038	111.78
242.255	11.43
242.472	48.3
242.689	87.21
242.907	38.06
243.124	33.96
243.341	42.15
243.558	107.69
243.775	46.25
243.992	-0.85
244.209	29.87
244.426	101.55
244.643	119.98
244.86	64.68
245.078	87.21
245.295	126.12
245.512	56.49
245.729	9.39
245.946	58.54
246.163	83.11
246.38	54.44
246.597	50.35
246.814	54.44
247.031	124.07
247.248	95.4
247.464	54.44
247.681	74.92
247.898	40.11
248.115	62.63
248.332	29.87
248.549	56.49
248.766	105.64
248.983	72.87
249.2	99.5
249.417	87.21
249.633	107.69
249.85	128.17
250.067	-19.29
250.284	56.49
250.501	15.53
250.717	66.73
250.934	15.53
251.151	74.92
251.368	33.96
251.585	97.45
251.801	25.77
252.018	-25.43
252.235	132.26
252.451	79.02
252.668	23.72
252.885	103.59
253.102	99.5
253.318	66.73
253.535	31.91
253.752	79.02
253.968	-19.29
254.185	7.34
254.401	70.83
254.618	72.87
254.835	23.72
255.051	138.41
255.268	62.63
255.484	72.87
255.701	29.87
255.917	148.65
256.134	25.77
256.351	42.15
256.567	38.06
256.784	124.07
257	-9.05
257.217	87.21
257.433	122.02
257.65	72.87
257.866	134.31
258.082	64.68
258.299	66.73
258.515	83.11
258.732	27.82
258.948	95.4
259.165	33.96
259.381	-78.68
259.597	52.39
259.814	70.83
260.03	50.35
260.246	1.19
260.463	111.78
260.679	97.45
260.895	23.72
261.112	46.25
261.328	95.4
261.544	54.44
261.761	148.65
261.977	95.4
262.193	74.92
262.409	89.26
262.626	54.44
262.842	81.07
263.058	76.97
263.274	68.78
263.49	103.59
263.707	62.63
263.923	58.54
264.139	3.24
264.355	56.49
264.571	87.21
264.787	95.4
265.004	62.63
265.22	60.59
265.436	79.02
265.652	87.21
265.868	83.11
266.084	-11.09
266.3	169.13
266.516	60.59
266.732	91.31
266.948	103.59
267.164	95.4
267.38	103.59
267.596	136.36
267.812	146.6
268.028	83.11
268.244	70.83
268.46	15.53
268.676	66.73
268.892	72.87
269.108	54.44
269.324	31.91
269.54	-15.19
269.756	87.21
269.972	40.11
270.188	76.97
270.403	62.63
270.619	81.07
270.835	103.59
271.051	95.4
271.267	25.77
271.483	29.87
271.698	89.26
271.914	74.92
272.13	93.35
272.346	48.3
272.562	46.25
272.777	62.63
272.993	93.35
273.209	31.91
273.425	62.63
273.64	7.34
273.856	62.63
274.072	23.72
274.287	5.29
274.503	95.4
274.719	95.4
274.934	148.65
275.15	21.67
275.366	56.49
275.581	5.29
275.797	169.13
276.012	91.31
276.228	87.21
276.444	31.91
276.659	128.17
276.875	-68.44
277.09	52.39
277.306	17.58
277.521	54.44
277.737	-11.09
277.952	83.11
278.168	58.54
278.383	66.73
278.599	76.97
278.814	113.83
279.03	111.78
279.245	111.78
279.461	13.48
279.676	89.26
279.892	58.54
280.107	7.34
280.322	60.59
280.538	124.07
280.753	-0.85
280.969	66.73
281.184	40.11
281.399	87.21
281.615	48.3
281.83	27.82
282.045	-11.09
282.26	31.91
282.476	97.45
282.691	40.11
282.906	87.21
283.122	38.06
283.337	93.35
283.552	54.44
283.767	70.83
283.983	56.49
284.198	103.59
284.413	128.17
284.628	56.49
284.843	81.07
285.058	130.22
285.274	109.74
285.489	44.2
285.704	177.32
285.919	-0.85
286.134	-11.09
286.349	54.44
286.564	111.78
286.779	152.74
286.995	54.44
287.21	-31.57
287.425	91.31
287.64	76.97
287.855	87.21
288.07	46.25
288.285	76.97
288.5	91.31
288.715	-11.09
288.93	79.02
289.145	56.49
289.36	62.63
289.575	115.88
289.79	134.31
290.004	25.77
290.219	29.87
290.434	87.21
290.649	-25.43
290.864	50.35
291.079	-0.85
291.294	91.31
291.509	105.64
291.724	83.11
291.938	17.58
292.153	87.21
292.368	13.48
292.583	48.3
292.798	46.25
293.012	103.59
293.227	58.54
293.442	56.49
293.657	42.15
293.871	117.93
294.086	87.21
294.301	146.6
294.516	144.55
294.73	60.59
294.945	5.29
295.16	40.11
295.374	50.35
295.589	79.02
295.804	13.48
296.018	5.29
296.233	148.65
296.447	54.44
296.662	27.82
296.877	31.91
297.091	148.65
297.306	58.54
297.52	79.02
297.735	87.21
297.949	105.64
298.164	97.45
298.378	136.36
298.593	105.64
298.807	29.87
299.022	95.4
299.236	113.83
299.451	119.98
299.665	54.44
299.88	83.11
300.094	21.67
300.309	-9.05
300.523	111.78
300.737	29.87
300.952	103.59
301.166	21.67
301.381	50.35
301.595	115.88
301.809	29.87
302.024	-19.29
302.238	113.83
302.452	105.64
302.667	66.73
302.881	119.98
303.095	83.11
303.309	124.07
303.524	83.11
303.738	79.02
303.952	54.44
304.166	13.48
304.381	13.48
304.595	89.26
304.809	87.21
305.023	97.45
305.237	5.29
305.452	17.58
305.666	150.7
305.88	66.73
306.094	56.49
306.308	56.49
306.522	29.87
306.736	54.44
306.95	72.87
307.164	46.25
307.379	13.48
307.593	38.06
307.807	62.63
308.021	122.02
308.235	85.16
308.449	9.39
308.663	74.92
308.877	119.98
309.091	46.25
309.305	31.91
309.519	-9.05
309.733	31.91
309.947	21.67
310.161	76.97
310.374	95.4
310.588	150.7
310.802	5.29
311.016	79.02
311.23	97.45
311.444	66.73
311.658	-2.9
311.872	85.16
312.085	79.02
312.299	119.98
312.513	128.17
312.727	97.45
312.941	21.67
313.154	54.44
313.368	74.92
313.582	95.4
313.796	64.68
314.009	40.11
314.223	97.45
314.437	48.3
314.651	64.68
314.864	81.07
315.078	54.44
315.292	-11.09
315.505	62.63
315.719	29.87
315.933	72.87
316.146	46.25
316.36	21.67
316.573	115.88
316.787	109.74
317.001	111.78
317.214	-11.09
317.428	62.63
317.641	-17.24
317.855	95.4
318.068	124.07
318.282	62.63
318.495	160.94
318.709	27.82
318.922	117.93
319.136	58.54
319.349	68.78
319.563	21.67
319.776	99.5
319.99	50.35
320.203	162.98
320.417	58.54
320.63	89.26
320.843	201.9
321.057	40.11
321.27	119.98
321.483	33.96
321.697	152.74
321.91	54.44
322.124	48.3
322.337	29.87
322.55	-56.15
322.763	72.87
322.977	138.41
323.19	31.91
323.403	95.4
323.617	38.06
323.83	132.26
324.043	19.63
324.256	64.68
324.469	33.96
324.683	62.63
324.896	85.16
325.109	-17.24
325.322	54.44
325.535	29.87
325.748	89.26
325.962	7.34
326.175	19.63
326.388	64.68
326.601	107.69
326.814	126.12
327.027	79.02
327.24	99.5
327.453	85.16
327.666	136.36
327.879	23.72
328.092	119.98
328.305	50.35
328.518	70.83
328.731	119.98
328.944	7.34
329.157	64.68
329.37	48.3
329.583	124.07
329.796	105.64
330.009	-17.24
330.222	95.4
330.435	62.63
330.648	46.25
330.861	119.98
331.073	62.63
331.286	89.26
331.499	150.7
331.712	-52.05
331.925	21.67
332.138	50.35
332.35	113.83
332.563	13.48
332.776	95.4
332.989	31.91
333.202	95.4
333.414	154.79
333.627	48.3
333.84	17.58
334.053	40.11
334.265	38.06
334.478	29.87
334.691	46.25
334.903	7.34
335.116	44.2
335.329	66.73
335.541	66.73
335.754	119.98
335.966	62.63
336.179	56.49
336.392	64.68
336.604	95.4
336.817	21.67
337.029	46.25
337.242	79.02
337.454	31.91
337.667	19.63
337.88	132.26
338.092	46.25
338.305	56.49
338.517	119.98
338.729	95.4
338.942	177.32
339.154	25.77
339.367	38.06
339.579	83.11
339.792	25.77
340.004	62.63
340.217	64.68
340.429	79.02
340.641	52.39
340.854	107.69
341.066	66.73
341.278	105.64
341.491	87.21
341.703	48.3
341.915	46.25
342.128	97.45
342.34	5.29
342.552	66.73
342.764	105.64
342.977	70.83
343.189	105.64
343.401	115.88
343.613	72.87
343.826	103.59
344.038	64.68
344.25	31.91
344.462	68.78
344.674	54.44
344.886	29.87
345.099	95.4
345.311	87.21
345.523	42.15
345.735	15.53
345.947	97.45
346.159	101.55
346.371	113.83
346.583	122.02
346.795	160.94
347.007	72.87
347.219	87.21
347.431	93.35
347.643	128.17
347.855	48.3
348.067	113.83
348.279	68.78
348.491	58.54
348.703	183.46
348.915	113.83
349.127	107.69
349.339	62.63
349.551	83.11
349.763	48.3
349.975	46.25
350.187	87.21
350.399	124.07
350.61	111.78
350.822	79.02
351.034	56.49
351.246	70.83
351.458	130.22
351.669	54.44
351.881	119.98
352.093	85.16
352.305	72.87
352.517	68.78
352.728	111.78
352.94	64.68
353.152	87.21
353.363	50.35
353.575	79.02
353.787	148.65
353.999	124.07
354.21	154.79
354.422	46.25
354.633	64.68
354.845	109.74
355.057	48.3
355.268	62.63
355.48	187.56
355.692	42.15
355.903	62.63
356.115	72.87
356.326	38.06
356.538	103.59
356.749	87.21
356.961	218.28
357.172	-11.09
357.384	79.02
357.595	136.36
357.807	66.73
358.018	29.87
358.23	107.69
358.441	150.7
358.653	93.35
358.864	117.93
359.075	91.31
359.287	136.36
359.498	72.87
359.709	25.77
359.921	50.35
360.132	70.83
360.344	113.83
360.555	58.54
360.766	115.88
360.977	46.25
361.189	107.69
361.4	46.25
361.611	107.69
361.823	97.45
362.034	140.46
362.245	13.48
362.456	54.44
362.667	74.92
362.879	-11.09
363.09	97.45
363.301	152.74
363.512	62.63
363.723	91.31
363.935	79.02
364.146	81.07
364.357	148.65
364.568	62.63
364.779	54.44
364.99	97.45
365.201	52.39
365.412	122.02
365.623	140.46
365.834	210.09
366.045	152.74
366.256	146.6
366.467	128.17
366.678	58.54
366.889	111.78
367.1	21.67
367.311	113.83
367.522	111.78
367.733	130.22
367.944	142.5
368.155	95.4
368.366	140.46
368.577	91.31
368.788	48.3
368.999	70.83
369.209	148.65
369.42	138.41
369.631	138.41
369.842	187.56
370.053	148.65
370.264	68.78
370.474	-9.05
370.685	91.31
370.896	68.78
371.107	160.94
371.317	85.16
371.528	113.83
371.739	91.31
371.95	128.17
372.16	38.06
372.371	19.63
372.582	56.49
372.792	122.02
373.003	128.17
373.214	74.92
373.424	105.64
373.635	9.39
373.846	89.26
374.056	117.93
374.267	103.59
374.477	107.69
374.688	72.87
374.898	134.31
375.109	40.11
375.319	128.17
375.53	105.64
375.74	68.78
375.951	72.87
376.161	93.35
376.372	119.98
376.582	62.63
376.793	76.97
377.003	-25.43
377.214	109.74
377.424	79.02
377.635	17.58
377.845	128.17
378.055	99.5
378.266	42.15
378.476	38.06
378.686	38.06
378.897	91.31
379.107	72.87
379.317	79.02
379.528	87.21
379.738	85.16
379.948	103.59
380.158	138.41
380.369	38.06
380.579	99.5
380.789	66.73
380.999	128.17
381.21	144.55
381.42	171.18
381.63	93.35
381.84	99.5
382.05	81.07
382.261	111.78
382.471	160.94
382.681	56.49
382.891	103.59
383.101	152.74
383.311	95.4
383.521	113.83
383.731	128.17
383.941	130.22
384.151	79.02
384.361	130.22
384.571	46.25
384.781	124.07
384.991	138.41
385.201	103.59
385.411	58.54
385.621	72.87
385.831	109.74
386.041	124.07
386.251	97.45
386.461	195.75
386.671	107.69
386.881	79.02
387.091	97.45
387.301	105.64
387.511	60.59
387.72	107.69
387.93	62.63
388.14	87.21
388.35	132.26
388.56	70.83
388.769	103.59
388.979	95.4
389.189	81.07
389.399	19.63
389.609	99.5
389.818	122.02
390.028	70.83
390.238	115.88
390.447	42.15
390.657	130.22
390.867	124.07
391.076	58.54
391.286	91.31
391.496	128.17
391.705	119.98
391.915	210.09
392.125	105.64
392.334	81.07
392.544	160.94
392.753	111.78
392.963	136.36
393.172	162.98
393.382	79.02
393.591	109.74
393.801	42.15
394.01	138.41
394.22	91.31
394.429	46.25
394.639	46.25
394.848	128.17
395.058	79.02
395.267	64.68
395.477	216.23
395.686	160.94
395.895	210.09
396.105	193.7
396.314	95.4
396.524	99.5
396.733	152.74
396.942	160.94
397.152	144.55
397.361	162.98
397.57	140.46
397.78	175.27
397.989	103.59
398.198	156.84
398.407	144.55
398.617	146.6
398.826	158.89
399.035	54.44
399.244	87.21
399.453	111.78
399.663	181.42
399.872	74.92
400.081	122.02
400.29	142.5
400.499	146.6
400.708	216.23
400.917	107.69
401.127	201.9
401.336	154.79
401.545	154.79
401.754	173.22
401.963	259.24
402.172	173.22
402.381	105.64
402.59	199.85
402.799	169.13
403.008	179.37
403.217	171.18
403.426	167.08
403.635	154.79
403.844	185.51
404.053	130.22
404.262	179.37
404.471	251.05
404.68	208.04
404.888	171.18
405.097	208.04
405.306	205.99
405.515	277.67
405.724	179.37
405.933	316.58
406.142	222.38
406.35	296.1
406.559	232.62
406.768	234.66
406.977	265.38
407.185	224.42
407.394	304.29
407.603	261.29
407.812	386.21
408.02	375.97
408.229	302.25
408.438	316.58
408.646	267.43
408.855	300.2
409.064	435.36
409.272	390.31
409.481	373.92
409.69	361.64
409.898	367.78
410.107	392.36
410.315	406.69
410.524	435.36
410.733	427.17
410.941	394.4
411.15	545.95
411.358	488.61
411.567	566.43
411.775	572.58
411.984	535.71
412.192	435.36
412.401	541.86
412.609	523.43
412.818	582.82
413.026	636.06
413.234	677.02
413.443	623.78
413.651	595.11
413.86	644.26
414.068	722.08
414.276	767.13
414.485	769.18
414.693	769.18
414.901	832.67
415.11	799.9
415.318	875.68
415.526	832.67
415.734	943.26
415.943	1021.08
416.151	885.92
416.359	1004.7
416.567	1012.89
416.776	1039.51
416.984	1119.39
417.192	1092.76
417.4	1170.58
417.608	998.56
417.817	1170.58
418.025	1313.94
418.233	1447.06
418.441	1324.18
418.649	1332.37
418.857	1471.64
419.065	1537.17
419.273	1422.48
419.481	1533.08
419.689	1516.69
419.897	1727.63
420.105	1735.82
420.313	1776.78
420.521	1838.22
420.729	1922.19
420.937	1899.66
421.145	2086.03
421.353	2057.36
421.561	2260.1
421.769	2172.04
421.977	2292.87
422.185	2165.9
422.393	2442.37
422.601	2565.25
422.809	2550.92
423.017	2563.2
423.224	2577.54
423.432	2712.71
423.64	2802.82
423.848	2974.85
424.056	2987.13
424.263	3181.69
424.471	3150.97
424.679	3241.08
424.887	3339.38
425.094	3519.6
425.302	3554.42
425.51	3626.1
425.718	3820.66
425.925	3658.87
426.133	4037.74
426.341	4070.51
426.548	4371.56
426.756	4277.35
426.964	4365.42
427.171	4723.81
427.379	4654.18
427.586	4818.02
427.794	4996.19
428.001	5067.87
428.209	5526.61
428.417	5258.33
428.624	5751.89
428.832	5794.9
429.039	5645.4
429.247	5643.35
429.454	6304.84
429.662	6671.43
429.869	6141
430.076	6681.67
430.284	6321.23
430.491	6581.32
430.699	7113.79
430.906	7099.45
431.114	7263.29
431.321	7603.25
431.528	7527.48
431.736	8092.72
431.943	8348.72
432.15	8148.01
432.358	8199.21
432.565	8447.02
432.772	8621.1
432.979	9176.09
433.187	9040.93
433.394	9290.78
433.601	9849.88
433.808	10152.98
434.016	9939.99
434.223	10257.42
434.43	10884.1
434.637	10595.34
434.844	11197.44
435.052	11559.93
435.259	11367.42
435.466	11752.44
435.673	11576.31
435.88	12260.34
436.087	12499.95
436.294	12837.86
436.501	12604.39
436.708	12837.86
436.915	13097.95
437.122	13992.92
437.329	13786.07
437.537	14302.16
437.743	14384.08
437.95	14347.22
438.157	15064
438.364	15446.97
438.571	15567.81
438.778	15549.37
438.985	16851.88
439.192	15995.83
439.399	16757.67
439.606	16436.14
439.813	17925.02
440.02	18459.54
440.227	18070.42
440.433	17978.26
440.64	18682.77
440.847	18545.55
441.054	18881.42
441.261	20157.3
441.467	19766.14
441.674	20663.15
441.881	21013.35
442.088	20874.09
442.294	20853.61
442.501	21142.38
442.708	21705.57
442.914	22582.1
443.121	23350.09
443.328	22889.29
443.534	24281.91
443.741	23538.5
443.948	23341.89
444.154	25129.77
444.361	24884.01
444.568	25068.33
444.774	24879.92
444.981	25465.64
445.187	26112.8
445.394	27388.68
445.6	26792.72
445.807	29393.64
446.013	28093.18
446.22	28633.85
446.426	29672.17
446.633	30055.14
446.839	30816.98
447.046	29645.54
447.252	31390.41
447.459	31412.94
447.665	31277.77
447.871	33032.88
448.078	33995.43
448.284	32400.06
448.491	33422
448.697	34542.24
448.903	35259.02
449.11	35506.83
449.316	34749.08
449.522	35474.06
449.728	36264.58
449.935	36498.05
450.141	37171.83
450.347	37089.91
450.553	36252.29
450.76	36954.74
450.966	37702.25
451.172	37538.41
451.378	38568.54
451.584	37923.43
451.791	38685.28
451.997	38220.39
452.203	39170.64
452.409	39023.19
452.615	38931.03
452.821	37667.44
453.027	37208.69
453.233	39027.29
453.44	37485.17
453.646	37900.9
453.852	38003.3
454.058	38836.83
454.264	37317.23
454.47	38470.24
454.676	37104.24
454.882	38627.93
455.088	35285.65
455.294	35859.08
455.5	36674.17
455.705	36455.04
455.911	35431.05
456.117	35076.76
456.323	34411.17
456.529	32412.35
456.735	33804.97
456.941	33166
457.147	32348.86
457.352	31378.12
457.558	30835.41
457.764	31027.92
457.97	30464.73
458.176	29850.34
458.381	29473.51
458.587	28277.5
458.793	28570.36
458.999	27015.95
459.204	28707.57
459.41	28254.97
459.616	26299.16
459.821	26106.65
460.027	25910.05
460.233	25903.9
460.438	24386.36
460.644	24845.1
460.85	23483.2
461.055	22983.5
461.261	22905.68
461.466	21607.26
461.672	20614
461.878	22203.22
462.083	20808.56
462.289	20255.61
462.494	20085.62
462.7	19311.49
462.905	18822.03
463.111	19362.69
463.316	19620.74
463.522	18895.75
463.727	18811.79
463.932	18996.1
464.138	18641.81
464.343	18662.29
464.549	18146.2
464.754	18703.25
464.959	18768.78
465.165	18457.49
465.37	17857.43
