Data from USB4F104151__51__14-29-59-107.txt Node

Date: Thu Mar 13 14:29:59 EDT 2025
User: louis
Spectrometer: USB4F10415
Trigger mode: 4
Integration Time (sec): 2.500000E-2
Scans to average: 1
Electric dark correction enabled: true
Nonlinearity correction enabled: false
Boxcar width: 0
XAxis mode: Wavelengths
Number of Pixels in Spectrum: 3648
>>>>>Begin Spectral Data<<<<<
178.204	-200.36
178.424	-200.36
178.644	-200.36
178.864	-143.02
179.084	-194.22
179.304	-3.75
179.524	14.68
179.744	-26.28
179.964	53.59
180.184	33.11
180.404	-69.29
180.624	-16.04
180.844	37.2
181.064	-52.91
181.283	-61.1
181.503	53.59
181.723	37.2
181.943	-44.71
182.163	90.45
182.383	12.63
182.602	37.2
182.822	112.98
183.042	8.53
183.262	-67.24
183.482	-20.14
183.701	22.87
183.921	12.63
184.141	20.82
184.361	55.64
184.58	-26.28
184.8	-9.9
185.02	31.06
185.239	135.51
185.459	37.2
185.679	45.4
185.898	-20.14
186.118	98.64
186.338	-3.75
186.557	78.16
186.777	41.3
186.997	-32.43
187.216	33.11
187.436	-69.29
187.655	31.06
187.875	45.4
188.095	29.01
188.314	-5.8
188.534	-9.9
188.753	16.73
188.973	61.78
189.192	76.12
189.412	0.34
189.631	-28.33
189.851	20.82
190.07	45.4
190.29	-52.91
190.509	57.68
190.729	55.64
190.948	20.82
191.168	188.75
191.387	24.92
191.607	53.59
191.826	14.68
192.045	57.68
192.265	-11.95
192.484	12.63
192.704	-1.71
192.923	-44.71
193.142	110.93
193.362	-32.43
193.581	31.06
193.8	16.73
194.02	63.83
194.239	-40.62
194.458	20.82
194.678	33.11
194.897	65.88
195.116	-1.71
195.335	20.82
195.555	33.11
195.774	-3.75
195.993	12.63
196.212	-69.29
196.432	20.82
196.651	10.58
196.87	98.64
197.089	168.27
197.308	4.44
197.528	4.44
197.747	12.63
197.966	12.63
198.185	-18.09
198.404	-24.23
198.623	12.63
198.842	37.2
199.062	0.34
199.281	104.79
199.5	18.77
199.719	41.3
199.938	12.63
200.157	31.06
200.376	69.97
200.595	92.5
200.814	33.11
201.033	51.54
201.252	53.59
201.471	78.16
201.69	29.01
201.909	86.36
202.128	29.01
202.347	61.78
202.566	16.73
202.785	78.16
203.004	-38.57
203.223	98.64
203.442	61.78
203.661	33.11
203.879	-3.75
204.098	-9.9
204.317	-48.81
204.536	16.73
204.755	12.63
204.974	80.21
205.193	6.49
205.411	176.47
205.63	20.82
205.849	24.92
206.068	2.39
206.287	10.58
206.505	41.3
206.724	33.11
206.943	14.68
207.162	4.44
207.381	-9.9
207.599	12.63
207.818	10.58
208.037	-28.33
208.255	49.49
208.474	67.92
208.693	31.06
208.911	-1.71
209.13	-42.67
209.349	0.34
209.567	74.07
209.786	74.07
210.005	106.84
210.223	92.5
210.442	-26.28
210.661	55.64
210.879	55.64
211.098	4.44
211.316	-9.9
211.535	82.26
211.753	4.44
211.972	74.07
212.191	37.2
212.409	57.68
212.628	-3.75
212.846	33.11
213.065	55.64
213.283	37.2
213.502	94.55
213.72	31.06
213.938	-3.75
214.157	24.92
214.375	43.35
214.594	29.01
214.812	65.88
215.031	47.44
215.249	45.4
215.467	4.44
215.686	51.54
215.904	-16.04
216.122	31.06
216.341	69.97
216.559	14.68
216.778	88.4
216.996	80.21
217.214	47.44
217.432	8.53
217.651	-3.75
217.869	59.73
218.087	31.06
218.306	53.59
218.524	-11.95
218.742	41.3
218.96	61.78
219.179	53.59
219.397	0.34
219.615	69.97
219.833	78.16
220.051	63.83
220.27	47.44
220.488	76.12
220.706	-36.52
220.924	-3.75
221.142	53.59
221.36	0.34
221.578	37.2
221.796	-26.28
222.015	31.06
222.233	20.82
222.451	69.97
222.669	55.64
222.887	12.63
223.105	-9.9
223.323	65.88
223.541	57.68
223.759	-42.67
223.977	-11.95
224.195	45.4
224.413	88.4
224.631	55.64
224.849	37.2
225.067	16.73
225.285	47.44
225.503	10.58
225.721	-28.33
225.939	-28.33
226.157	29.01
226.375	119.12
226.592	31.06
226.81	10.58
227.028	24.92
227.246	96.6
227.464	-20.14
227.682	-9.9
227.9	88.4
228.117	4.44
228.335	31.06
228.553	0.34
228.771	2.39
228.989	-16.04
229.206	80.21
229.424	10.58
229.642	-13.99
229.86	12.63
230.077	-16.04
230.295	84.31
230.513	20.82
230.731	78.16
230.948	31.06
231.166	100.69
231.384	53.59
231.601	106.84
231.819	29.01
232.037	29.01
232.254	16.73
232.472	41.3
232.689	-46.76
232.907	57.68
233.125	12.63
233.342	-11.95
233.56	49.49
233.777	14.68
233.995	63.83
234.213	78.16
234.43	37.2
234.648	-20.14
234.865	4.44
235.083	55.64
235.3	65.88
235.518	55.64
235.735	51.54
235.953	29.01
236.17	43.35
236.388	80.21
236.605	20.82
236.822	61.78
237.04	18.77
237.257	29.01
237.475	57.68
237.692	29.01
237.909	29.01
238.127	43.35
238.344	20.82
238.562	39.25
238.779	-44.71
238.996	-40.62
239.214	-54.95
239.431	51.54
239.648	-16.04
239.865	33.11
240.083	24.92
240.3	6.49
240.517	47.44
240.735	45.4
240.952	90.45
241.169	4.44
241.386	-30.38
241.603	2.39
241.821	14.68
242.038	29.01
242.255	41.3
242.472	-46.76
242.689	57.68
242.907	16.73
243.124	31.06
243.341	53.59
243.558	-11.95
243.775	29.01
243.992	-32.43
244.209	24.92
244.426	127.32
244.643	45.4
244.86	-3.75
245.078	33.11
245.295	4.44
245.512	37.2
245.729	-28.33
245.946	12.63
246.163	39.25
246.38	47.44
246.597	69.97
246.814	63.83
247.031	12.63
247.248	12.63
247.464	29.01
247.681	59.73
247.898	2.39
248.115	59.73
248.332	53.59
248.549	29.01
248.766	22.87
248.983	53.59
249.2	-28.33
249.417	14.68
249.633	35.16
249.85	8.53
250.067	-18.09
250.284	31.06
250.501	39.25
250.717	106.84
250.934	18.77
251.151	86.36
251.368	31.06
251.585	37.2
251.801	43.35
252.018	-40.62
252.235	88.4
252.451	-20.14
252.668	-13.99
252.885	20.82
253.102	20.82
253.318	14.68
253.535	39.25
253.752	-11.95
253.968	-1.71
254.185	-50.86
254.401	53.59
254.618	29.01
254.835	-11.95
255.051	147.8
255.268	0.34
255.484	10.58
255.701	-65.19
255.917	57.68
256.134	31.06
256.351	31.06
256.567	16.73
256.784	4.44
257	-7.85
257.217	80.21
257.433	10.58
257.65	78.16
257.866	112.98
258.082	-42.67
258.299	6.49
258.515	0.34
258.732	18.77
258.948	-32.43
259.165	78.16
259.381	2.39
259.597	35.16
259.814	-11.95
260.03	78.16
260.246	49.49
260.463	43.35
260.679	20.82
260.895	41.3
261.112	20.82
261.328	6.49
261.544	-65.19
261.761	35.16
261.977	-20.14
262.193	-18.09
262.409	43.35
262.626	39.25
262.842	35.16
263.058	29.01
263.274	-7.85
263.49	61.78
263.707	47.44
263.923	16.73
264.139	29.01
264.355	49.49
264.571	12.63
264.787	69.97
265.004	45.4
265.22	53.59
265.436	49.49
265.652	14.68
265.868	37.2
266.084	43.35
266.3	-18.09
266.516	-11.95
266.732	96.6
266.948	20.82
267.164	45.4
267.38	-1.71
267.596	135.51
267.812	45.4
268.028	94.55
268.244	41.3
268.46	-44.71
268.676	61.78
268.892	12.63
269.108	20.82
269.324	-28.33
269.54	-24.23
269.756	12.63
269.972	-48.81
270.188	16.73
270.403	-20.14
270.619	61.78
270.835	33.11
271.051	-7.85
271.267	-3.75
271.483	-32.43
271.698	49.49
271.914	2.39
272.13	-28.33
272.346	6.49
272.562	45.4
272.777	12.63
272.993	12.63
273.209	31.06
273.425	-79.53
273.64	-1.71
273.856	-52.91
274.072	72.02
274.287	8.53
274.503	4.44
274.719	31.06
274.934	29.01
275.15	69.97
275.366	49.49
275.581	-28.33
275.797	65.88
276.012	31.06
276.228	-18.09
276.444	51.54
276.659	29.01
276.875	-32.43
277.09	82.26
277.306	18.77
277.521	45.4
277.737	41.3
277.952	10.58
278.168	72.02
278.383	12.63
278.599	-24.23
278.814	22.87
279.03	4.44
279.245	61.78
279.461	-9.9
279.676	104.79
279.892	-9.9
280.107	-28.33
280.322	57.68
280.538	-57
280.753	8.53
280.969	-18.09
281.184	-30.38
281.399	47.44
281.615	33.11
281.83	-24.23
282.045	20.82
282.26	39.25
282.476	2.39
282.691	12.63
282.906	2.39
283.122	16.73
283.337	8.53
283.552	-24.23
283.767	12.63
283.983	102.74
284.198	-32.43
284.413	88.4
284.628	14.68
284.843	57.68
285.058	-18.09
285.274	16.73
285.489	16.73
285.704	53.59
285.919	4.44
286.134	33.11
286.349	45.4
286.564	14.68
286.779	90.45
286.995	-3.75
287.21	-16.04
287.425	20.82
287.64	-61.1
287.855	37.2
288.07	4.44
288.285	37.2
288.5	45.4
288.715	53.59
288.93	-11.95
289.145	-65.19
289.36	63.83
289.575	53.59
289.79	92.5
290.004	57.68
290.219	49.49
290.434	12.63
290.649	-42.67
290.864	125.27
291.079	-11.95
291.294	4.44
291.509	26.96
291.724	-24.23
291.938	6.49
292.153	-7.85
292.368	20.82
292.583	35.16
292.798	76.12
293.012	20.82
293.227	80.21
293.442	53.59
293.657	115.03
293.871	127.32
294.086	41.3
294.301	63.83
294.516	61.78
294.73	-9.9
294.945	61.78
295.16	43.35
295.374	72.02
295.589	98.64
295.804	-50.86
296.018	-7.85
296.233	76.12
296.447	41.3
296.662	-30.38
296.877	98.64
297.091	-42.67
297.306	-3.75
297.52	78.16
297.735	55.64
297.949	-32.43
298.164	49.49
298.378	-26.28
298.593	8.53
298.807	-50.86
299.022	-11.95
299.236	127.32
299.451	53.59
299.665	-11.95
299.88	18.77
300.094	78.16
300.309	69.97
300.523	6.49
300.737	33.11
300.952	4.44
301.166	53.59
301.381	41.3
301.595	-9.9
301.809	80.21
302.024	4.44
302.238	-20.14
302.452	78.16
302.667	-5.8
302.881	74.07
303.095	29.01
303.309	88.4
303.524	-36.52
303.738	24.92
303.952	-75.43
304.166	65.88
304.381	-65.19
304.595	102.74
304.809	24.92
305.023	-13.99
305.237	18.77
305.452	6.49
305.666	-5.8
305.88	35.16
306.094	78.16
306.308	61.78
306.522	-20.14
306.736	-1.71
306.95	16.73
307.164	-3.75
307.379	33.11
307.593	121.17
307.807	119.12
308.021	41.3
308.235	20.82
308.449	-48.81
308.663	88.4
308.877	96.6
309.091	16.73
309.305	63.83
309.519	20.82
309.733	59.73
309.947	14.68
310.161	69.97
310.374	12.63
310.588	45.4
310.802	-36.52
311.016	37.2
311.23	-36.52
311.444	-1.71
311.658	33.11
311.872	110.93
312.085	10.58
312.299	141.65
312.513	78.16
312.727	22.87
312.941	-7.85
313.154	-34.47
313.368	29.01
313.582	0.34
313.796	20.82
314.009	-3.75
314.223	39.25
314.437	65.88
314.651	41.3
314.864	22.87
315.078	-48.81
315.292	-11.95
315.505	-28.33
315.719	45.4
315.933	51.54
316.146	4.44
316.36	4.44
316.573	-1.71
316.787	61.78
317.001	53.59
317.214	-1.71
317.428	31.06
317.641	-7.85
317.855	22.87
318.068	29.01
318.282	102.74
318.495	72.02
318.709	78.16
318.922	0.34
319.136	37.2
319.349	53.59
319.563	6.49
319.776	0.34
319.99	-32.43
320.203	72.02
320.417	31.06
320.63	20.82
320.843	12.63
321.057	-46.76
321.27	29.01
321.483	78.16
321.697	69.97
321.91	8.53
322.124	12.63
322.337	41.3
322.55	29.01
322.763	-3.75
322.977	65.88
323.19	35.16
323.403	45.4
323.617	76.12
323.83	55.64
324.043	-3.75
324.256	137.56
324.469	33.11
324.683	29.01
324.896	47.44
325.109	-3.75
325.322	-59.05
325.535	45.4
325.748	65.88
325.962	22.87
326.175	24.92
326.388	55.64
326.601	143.7
326.814	53.59
327.027	37.2
327.24	-7.85
327.453	45.4
327.666	39.25
327.879	127.32
328.092	20.82
328.305	153.94
328.518	4.44
328.731	18.77
328.944	22.87
329.157	74.07
329.37	-18.09
329.583	84.31
329.796	63.83
330.009	29.01
330.222	16.73
330.435	51.54
330.648	22.87
330.861	94.55
331.073	33.11
331.286	82.26
331.499	41.3
331.712	4.44
331.925	-1.71
332.138	51.54
332.35	129.36
332.563	-16.04
332.776	55.64
332.989	-18.09
333.202	16.73
333.414	74.07
333.627	2.39
333.84	10.58
334.053	29.01
334.265	29.01
334.478	49.49
334.691	33.11
334.903	74.07
335.116	78.16
335.329	39.25
335.541	51.54
335.754	53.59
335.966	41.3
336.179	110.93
336.392	94.55
336.604	86.36
336.817	39.25
337.029	55.64
337.242	45.4
337.454	49.49
337.667	-18.09
337.88	147.8
338.092	63.83
338.305	29.01
338.517	39.25
338.729	57.68
338.942	41.3
339.154	31.06
339.367	6.49
339.579	31.06
339.792	82.26
340.004	49.49
340.217	45.4
340.429	104.79
340.641	12.63
340.854	12.63
341.066	4.44
341.278	57.68
341.491	143.7
341.703	94.55
341.915	-52.91
342.128	45.4
342.34	8.53
342.552	39.25
342.764	29.01
342.977	-32.43
343.189	82.26
343.401	61.78
343.613	-18.09
343.826	49.49
344.038	18.77
344.25	51.54
344.462	31.06
344.674	37.2
344.886	10.58
345.099	90.45
345.311	45.4
345.523	78.16
345.735	8.53
345.947	80.21
346.159	69.97
346.371	57.68
346.583	-11.95
346.795	78.16
347.007	-16.04
347.219	2.39
347.431	16.73
347.643	67.92
347.855	-38.57
348.067	69.97
348.279	-20.14
348.491	49.49
348.703	61.78
348.915	-22.19
349.127	-20.14
349.339	166.23
349.551	65.88
349.763	94.55
349.975	-63.15
350.187	72.02
350.399	74.07
350.61	65.88
350.822	96.6
351.034	65.88
351.246	29.01
351.458	22.87
351.669	53.59
351.881	63.83
352.093	45.4
352.305	86.36
352.517	78.16
352.728	10.58
352.94	45.4
353.152	-11.95
353.363	-20.14
353.575	24.92
353.787	-3.75
353.999	37.2
354.21	37.2
354.422	6.49
354.633	-28.33
354.845	69.97
355.057	-11.95
355.268	0.34
355.48	-9.9
355.692	29.01
355.903	41.3
356.115	-61.1
356.326	-77.48
356.538	39.25
356.749	33.11
356.961	84.31
357.172	-7.85
357.384	72.02
357.595	69.97
357.807	41.3
358.018	33.11
358.23	-44.71
358.441	94.55
358.653	98.64
358.864	43.35
359.075	110.93
359.287	37.2
359.498	63.83
359.709	65.88
359.921	63.83
360.132	55.64
360.344	57.68
360.555	35.16
360.766	29.01
360.977	47.44
361.189	12.63
361.4	145.75
361.611	110.93
361.823	61.78
362.034	4.44
362.245	-11.95
362.456	45.4
362.667	16.73
362.879	16.73
363.09	82.26
363.301	102.74
363.512	80.21
363.723	29.01
363.935	67.92
364.146	45.4
364.357	29.01
364.568	24.92
364.779	72.02
364.99	82.26
365.201	22.87
365.412	57.68
365.623	-36.52
365.834	53.59
366.045	22.87
366.256	72.02
366.467	104.79
366.678	33.11
366.889	51.54
367.1	33.11
367.311	16.73
367.522	22.87
367.733	63.83
367.944	41.3
368.155	43.35
368.366	53.59
368.577	49.49
368.788	76.12
368.999	-7.85
369.209	76.12
369.42	96.6
369.631	123.22
369.842	61.78
370.053	53.59
370.264	47.44
370.474	45.4
370.685	53.59
370.896	86.36
371.107	14.68
371.317	39.25
371.528	45.4
371.739	86.36
371.95	31.06
372.16	45.4
372.371	-7.85
372.582	-26.28
372.792	29.01
373.003	-3.75
373.214	22.87
373.424	20.82
373.635	45.4
373.846	94.55
374.056	-28.33
374.267	41.3
374.477	84.31
374.688	-16.04
374.898	33.11
375.109	24.92
375.319	31.06
375.53	119.12
375.74	121.17
375.951	-20.14
376.161	16.73
376.372	108.88
376.582	45.4
376.793	76.12
377.003	49.49
377.214	67.92
377.424	29.01
377.635	61.78
377.845	12.63
378.055	102.74
378.266	31.06
378.476	61.78
378.686	86.36
378.897	63.83
379.107	80.21
379.317	59.73
379.528	8.53
379.738	35.16
379.948	76.12
380.158	131.41
380.369	16.73
380.579	115.03
380.789	88.4
380.999	106.84
381.21	98.64
381.42	84.31
381.63	-3.75
381.84	43.35
382.05	18.77
382.261	65.88
382.471	96.6
382.681	24.92
382.891	110.93
383.101	133.46
383.311	0.34
383.521	57.68
383.731	104.79
383.941	96.6
384.151	129.36
384.361	69.97
384.571	16.73
384.781	69.97
384.991	47.44
385.201	117.08
385.411	92.5
385.621	20.82
385.831	47.44
386.041	24.92
386.251	65.88
386.461	51.54
386.671	61.78
386.881	55.64
387.091	72.02
387.301	39.25
387.511	53.59
387.72	86.36
387.93	-5.8
388.14	-9.9
388.35	72.02
388.56	53.59
388.769	94.55
388.979	86.36
389.189	31.06
389.399	69.97
389.609	123.22
389.818	49.49
390.028	29.01
390.238	104.79
390.447	26.96
390.657	112.98
390.867	37.2
391.076	-11.95
391.286	59.73
391.496	86.36
391.705	47.44
391.915	45.4
392.125	31.06
392.334	37.2
392.544	94.55
392.753	24.92
392.963	8.53
393.172	108.88
393.382	49.49
393.591	119.12
393.801	6.49
394.01	115.03
394.22	72.02
394.429	22.87
394.639	88.4
394.848	102.74
395.058	86.36
395.267	14.68
395.477	149.84
395.686	123.22
395.895	139.6
396.105	170.32
396.314	151.89
396.524	106.84
396.733	24.92
396.942	149.84
397.152	112.98
397.361	127.32
397.57	137.56
397.78	47.44
397.989	90.45
398.198	37.2
398.407	112.98
398.617	112.98
398.826	94.55
399.035	16.73
399.244	112.98
399.453	166.23
399.663	45.4
399.872	106.84
400.081	61.78
400.29	76.12
400.499	80.21
400.708	117.08
400.917	164.18
401.127	69.97
401.336	61.78
401.545	162.13
401.754	106.84
401.963	106.84
402.172	108.88
402.381	74.07
402.59	90.45
402.799	45.4
403.008	160.08
403.217	104.79
403.426	108.88
403.635	129.36
403.844	108.88
404.053	86.36
404.262	104.79
404.471	227.67
404.68	147.8
404.888	102.74
405.097	110.93
405.306	225.62
405.515	119.12
405.724	176.47
405.933	194.9
406.142	229.71
406.35	217.43
406.559	155.99
406.768	246.1
406.977	258.39
407.185	178.51
407.394	178.51
407.603	151.89
407.812	260.43
408.02	274.77
408.229	244.05
408.438	258.39
408.646	235.86
408.855	260.43
409.064	235.86
409.272	272.72
409.481	311.63
409.69	217.43
409.898	258.39
410.107	293.2
410.315	416.08
410.524	317.78
410.733	389.46
410.941	340.3
411.15	366.93
411.358	383.31
411.567	364.88
411.775	358.74
411.984	428.37
412.192	536.91
412.401	610.64
412.609	536.91
412.818	512.33
413.026	541.01
413.234	520.53
413.443	569.68
413.651	592.2
413.86	612.68
414.068	667.98
414.276	713.03
414.485	553.29
414.693	700.75
414.901	717.13
415.11	729.42
415.318	801.1
415.526	819.53
415.734	780.62
415.943	885.06
416.151	862.54
416.359	883.02
416.567	948.55
416.776	1071.43
416.984	995.65
417.192	1118.53
417.4	1032.52
417.608	1093.96
417.817	1141.06
418.025	1278.27
418.233	1349.95
418.441	1270.08
418.649	1265.99
418.857	1405.25
419.065	1438.02
419.273	1481.02
419.481	1423.68
419.689	1567.04
419.897	1638.72
420.105	1683.77
420.313	1628.48
420.521	1837.37
420.729	1696.06
420.937	1782.07
421.145	1880.38
421.353	2015.54
421.561	2124.08
421.769	2150.71
421.977	2292.02
422.185	2251.06
422.393	2273.59
422.601	2447.66
422.809	2339.12
423.017	2490.67
423.224	2572.59
423.432	2715.95
423.64	2687.28
423.848	3019.05
424.056	2822.44
424.263	3060.01
424.471	3084.58
424.679	3070.25
424.887	3326.24
425.094	3342.63
425.302	3453.22
425.51	3447.07
425.718	3580.19
425.925	3682.59
426.133	4026.65
426.341	3985.69
426.548	4274.45
426.756	4317.46
426.964	4235.54
427.171	4407.57
427.379	4788.49
427.586	4722.96
427.794	4690.19
428.001	5167.37
428.209	5243.14
428.417	5134.6
428.624	5589.25
428.832	5732.61
429.039	5525.76
429.247	5492.99
429.454	6148.34
429.662	6289.65
429.869	6050.04
430.076	6445.3
430.284	6185.21
430.491	6574.32
430.699	6932.72
430.906	6877.42
431.114	7186.66
431.321	7327.97
431.528	7375.08
431.736	7917.79
431.943	8132.83
432.15	8042.71
432.358	8089.82
432.565	8397.01
432.772	8390.87
432.979	8892.62
433.187	9089.23
433.394	9072.84
433.601	9724.1
433.808	9760.96
434.016	9709.76
434.223	10172.6
434.43	10612.92
434.637	10379.45
434.844	11047.08
435.052	11178.15
435.259	11161.77
435.466	11380.9
435.673	11210.92
435.88	11923.62
436.087	12505.24
436.294	12644.5
436.501	12329.11
436.708	12435.61
436.915	12957.84
437.122	13656.2
437.329	13516.94
437.537	13891.71
437.743	14106.75
437.95	14119.04
438.157	14815.35
438.364	15143.02
438.571	15333.48
438.778	15183.98
438.985	16801.88
439.192	16070.75
439.399	16506.97
439.606	16271.45
439.813	17027.15
440.02	17961.03
440.227	17807.43
440.433	17453.13
440.64	18206.78
440.847	17655.88
441.054	18405.44
441.261	19664.94
441.467	19644.46
441.674	19740.71
441.881	20580.38
442.088	20394.01
442.294	20351.01
442.501	20914.2
442.708	21108.76
442.914	21952.52
443.121	23072.76
443.328	22339.58
443.534	23967.72
443.741	23187.44
443.948	22964.21
444.154	24498.14
444.361	24057.83
444.568	24586.21
444.774	24745.95
444.981	25014.23
445.187	25825.23
445.394	26460.1
445.6	26507.2
445.807	28913.56
446.013	27463.6
446.22	28047.27
446.426	29034.39
446.633	29192.09
446.839	30580.61
447.046	29030.3
447.252	31197.05
447.459	30764.93
447.665	30646.15
447.871	31846.26
448.078	33427.29
448.284	31872.88
448.491	32735.07
448.697	33759.06
448.903	34080.59
449.11	34500.42
449.316	34043.73
449.522	34531.14
449.728	35313.47
449.935	35667.77
450.141	35776.31
450.347	36689.7
450.553	35362.62
450.76	35802.93
450.966	36828.96
451.172	36714.28
451.378	37418.78
451.584	36955.94
451.791	37748.5
451.997	37594.9
452.203	37953.3
452.409	38205.2
452.615	37609.24
452.821	36730.66
453.027	36120.37
453.233	38160.14
453.44	36445.99
453.646	36738.85
453.852	37459.74
454.058	37787.41
454.264	36546.34
454.47	36949.79
454.676	36312.88
454.882	37803.8
455.088	34205.52
455.294	35118.91
455.5	35237.69
455.705	35882.8
455.911	34156.36
456.117	33462.1
456.323	33087.32
456.529	31100.79
456.735	32700.26
456.941	31850.35
457.147	31170.43
457.352	30130.06
457.558	29968.27
457.764	29998.99
457.97	29536.15
458.176	28602.27
458.381	29015.96
458.587	27486.13
458.793	27522.99
458.999	25911.24
459.204	27998.12
459.41	26906.55
459.616	25114.58
459.821	25401.3
460.027	25212.88
460.233	24485.86
460.438	23599.09
460.644	23603.18
460.85	22665.21
461.055	22151.17
461.261	22132.74
461.466	20754.46
461.672	19615.79
461.878	21221.39
462.083	19656.75
462.289	19558.44
462.494	19206.19
462.7	18358.33
462.905	17805.38
463.111	18470.97
463.316	18280.51
463.522	18305.09
463.727	18253.89
463.932	18128.96
464.138	17987.65
464.343	17913.92
464.549	17457.23
464.754	17936.45
464.959	17883.2
465.165	17797.19
465.37	17004.63
465.575	16654.42
465.781	17324.11
465.986	17156.18
466.191	16560.22
466.397	16177.25
466.602	15564.9
466.807	16162.91
467.012	16093.28
467.218	15728.74
467.423	15767.65
467.628	15931.49
