Data from USB4F104151__120__14-31-16-960.txt Node

Date: Thu Mar 13 14:31:16 EDT 2025
User: louis
Spectrometer: USB4F10415
Trigger mode: 4
Integration Time (sec): 2.500000E-2
Scans to average: 1
Electric dark correction enabled: true
Nonlinearity correction enabled: false
Boxcar width: 0
XAxis mode: Wavelengths
Number of Pixels in Spectrum: 3648
>>>>>Begin Spectral Data<<<<<
178.204	-171.86
178.424	-171.86
178.644	-171.86
178.864	-178
179.084	-110.42
179.304	-16.21
179.524	-55.12
179.744	43.18
179.964	45.23
180.184	2.22
180.404	-5.97
180.624	-38.74
180.844	28.84
181.064	-24.4
181.283	-5.97
181.503	-28.5
181.723	55.47
181.943	-71.51
182.163	82.09
182.383	16.55
182.602	-32.6
182.822	51.37
183.042	73.9
183.262	-22.36
183.482	69.8
183.701	57.51
183.921	41.13
184.141	0.17
184.361	43.18
184.58	57.51
184.8	16.55
185.02	-55.12
185.239	53.42
185.459	63.66
185.679	84.14
185.898	-71.51
186.118	-8.02
186.338	53.42
186.557	139.43
186.777	-30.55
186.997	49.32
187.216	26.79
187.436	125.1
187.655	39.08
187.875	65.71
188.095	37.03
188.314	86.19
188.534	86.19
188.753	-8.02
188.973	94.38
189.192	45.23
189.412	2.22
189.631	-5.97
189.851	43.18
190.07	164.01
190.29	-36.69
190.509	-24.4
190.729	61.61
190.948	-3.93
191.168	73.9
191.387	108.71
191.607	57.51
191.826	45.23
192.045	61.61
192.265	69.8
192.484	20.65
192.704	8.36
192.923	98.47
193.142	96.43
193.362	94.38
193.581	41.13
193.8	28.84
194.02	75.95
194.239	-20.31
194.458	61.61
194.678	67.75
194.897	18.6
195.116	22.7
195.335	100.52
195.555	8.36
195.774	77.99
195.993	114.86
196.212	12.46
196.432	34.99
196.651	24.75
196.87	20.65
197.089	125.1
197.308	141.48
197.528	49.32
197.747	90.28
197.966	51.37
198.185	59.56
198.404	32.94
198.623	65.71
198.842	41.13
199.062	80.04
199.281	77.99
199.5	71.85
199.719	32.94
199.938	84.14
200.157	49.32
200.376	0.17
200.595	116.9
200.814	110.76
201.033	43.18
201.252	57.51
201.471	14.51
201.69	77.99
201.909	69.8
202.128	82.09
202.347	65.71
202.566	16.55
202.785	-3.93
203.004	43.18
203.223	145.58
203.442	53.42
203.661	0.17
203.879	63.66
204.098	63.66
204.317	26.79
204.536	12.46
204.755	12.46
204.974	53.42
205.193	34.99
205.411	102.57
205.63	65.71
205.849	67.75
206.068	-28.5
206.287	-12.12
206.505	28.84
206.724	-30.55
206.943	67.75
207.162	34.99
207.381	49.32
207.599	24.75
207.818	69.8
208.037	49.32
208.255	41.13
208.474	112.81
208.693	-16.21
208.911	32.94
209.13	-14.17
209.349	51.37
209.567	90.28
209.786	90.28
210.005	51.37
210.223	18.6
210.442	-61.27
210.661	14.51
210.879	-65.36
211.098	24.75
211.316	69.8
211.535	43.18
211.753	-20.31
211.972	47.27
212.191	20.65
212.409	8.36
212.628	53.42
212.846	28.84
213.065	123.05
213.283	-46.93
213.502	65.71
213.72	12.46
213.938	57.51
214.157	20.65
214.375	73.9
214.594	8.36
214.812	10.41
215.031	-44.88
215.249	77.99
215.467	24.75
215.686	-20.31
215.904	98.47
216.122	-42.84
216.341	100.52
216.559	32.94
216.778	82.09
216.996	41.13
217.214	-24.4
217.432	16.55
217.651	73.9
217.869	80.04
218.087	41.13
218.306	86.19
218.524	90.28
218.742	-38.74
218.96	82.09
219.179	4.27
219.397	43.18
219.615	82.09
219.833	84.14
220.051	-38.74
220.27	34.99
220.488	34.99
220.706	53.42
220.924	86.19
221.142	0.17
221.36	10.41
221.578	26.79
221.796	43.18
222.015	49.32
222.233	20.65
222.451	84.14
222.669	86.19
222.887	8.36
223.105	10.41
223.323	57.51
223.541	-12.12
223.759	141.48
223.977	12.46
224.195	65.71
224.413	61.61
224.631	63.66
224.849	49.32
225.067	151.72
225.285	30.89
225.503	-5.97
225.721	-8.02
225.939	102.57
226.157	24.75
226.375	213.16
226.592	0.17
226.81	-3.93
227.028	166.06
227.246	82.09
227.464	49.32
227.682	92.33
227.9	61.61
228.117	65.71
228.335	49.32
228.553	53.42
228.771	73.9
228.989	114.86
229.206	6.31
229.424	-16.21
229.642	-5.97
229.86	34.99
230.077	51.37
230.295	37.03
230.513	39.08
230.731	16.55
230.948	59.56
231.166	57.51
231.384	110.76
231.601	16.55
231.819	116.9
232.037	-3.93
232.254	49.32
232.472	65.71
232.689	4.27
232.907	-8.02
233.125	-14.17
233.342	100.52
233.56	-22.36
233.777	0.17
233.995	71.85
234.213	41.13
234.43	39.08
234.648	82.09
234.865	75.95
235.083	73.9
235.3	90.28
235.518	98.47
235.735	84.14
235.953	59.56
236.17	-5.97
236.388	65.71
236.605	41.13
236.822	86.19
237.04	49.32
237.257	10.41
237.475	-30.55
237.692	57.51
237.909	53.42
238.127	77.99
238.344	-10.07
238.562	41.13
238.779	-40.79
238.996	24.75
239.214	14.51
239.431	45.23
239.648	57.51
239.865	65.71
240.083	86.19
240.3	57.51
240.517	59.56
240.735	57.51
240.952	49.32
241.169	69.8
241.386	-10.07
241.603	34.99
241.821	-8.02
242.038	77.99
242.255	32.94
242.472	8.36
242.689	106.67
242.907	98.47
243.124	51.37
243.341	59.56
243.558	32.94
243.775	69.8
243.992	49.32
244.209	139.43
244.426	98.47
244.643	10.41
244.86	-83.8
245.078	75.95
245.295	84.14
245.512	-5.97
245.729	53.42
245.946	34.99
246.163	71.85
246.38	26.79
246.597	16.55
246.814	67.75
247.031	18.6
247.248	0.17
247.464	110.76
247.681	75.95
247.898	16.55
248.115	100.52
248.332	-28.5
248.549	8.36
248.766	96.43
248.983	73.9
249.2	16.55
249.417	61.61
249.633	22.7
249.85	104.62
250.067	86.19
250.284	-10.07
250.501	20.65
250.717	51.37
250.934	55.47
251.151	34.99
251.368	73.9
251.585	106.67
251.801	80.04
252.018	16.55
252.235	61.61
252.451	32.94
252.668	20.65
252.885	4.27
253.102	-3.93
253.318	26.79
253.535	39.08
253.752	12.46
253.968	127.14
254.185	-18.26
254.401	69.8
254.618	57.51
254.835	-40.79
255.051	92.33
255.268	-14.17
255.484	37.03
255.701	82.09
255.917	59.56
256.134	16.55
256.351	98.47
256.567	-5.97
256.784	51.37
257	67.75
257.217	49.32
257.433	90.28
257.65	18.6
257.866	123.05
258.082	-12.12
258.299	49.32
258.515	47.27
258.732	20.65
258.948	20.65
259.165	98.47
259.381	34.99
259.597	94.38
259.814	41.13
260.03	22.7
260.246	28.84
260.463	188.58
260.679	45.23
260.895	63.66
261.112	77.99
261.328	30.89
261.544	-16.21
261.761	73.9
261.977	37.03
262.193	-8.02
262.409	73.9
262.626	61.61
262.842	-32.6
263.058	77.99
263.274	-24.4
263.49	-24.4
263.707	106.67
263.923	26.79
264.139	-24.4
264.355	77.99
264.571	133.29
264.787	86.19
265.004	129.19
265.22	53.42
265.436	43.18
265.652	24.75
265.868	34.99
266.084	-18.26
266.3	32.94
266.516	-16.21
266.732	43.18
266.948	-12.12
267.164	-16.21
267.38	-12.12
267.596	57.51
267.812	84.14
268.028	10.41
268.244	45.23
268.46	49.32
268.676	65.71
268.892	16.55
269.108	63.66
269.324	2.22
269.54	-32.6
269.756	57.51
269.972	32.94
270.188	32.94
270.403	-44.88
270.619	45.23
270.835	71.85
271.051	73.9
271.267	4.27
271.483	-32.6
271.698	18.6
271.914	57.51
272.13	34.99
272.346	49.32
272.562	110.76
272.777	147.62
272.993	14.51
273.209	24.75
273.425	28.84
273.64	41.13
273.856	45.23
274.072	51.37
274.287	8.36
274.503	55.47
274.719	71.85
274.934	63.66
275.15	-8.02
275.366	-24.4
275.581	45.23
275.797	32.94
276.012	8.36
276.228	-5.97
276.444	0.17
276.659	53.42
276.875	24.75
277.09	84.14
277.306	47.27
277.521	61.61
277.737	69.8
277.952	49.32
278.168	77.99
278.383	53.42
278.599	65.71
278.814	77.99
279.03	39.08
279.245	123.05
279.461	24.75
279.676	57.51
279.892	24.75
280.107	18.6
280.322	30.89
280.538	98.47
280.753	77.99
280.969	37.03
281.184	61.61
281.399	77.99
281.615	16.55
281.83	41.13
282.045	53.42
282.26	-42.84
282.476	108.71
282.691	24.75
282.906	10.41
283.122	106.67
283.337	84.14
283.552	73.9
283.767	28.84
283.983	102.57
284.198	121
284.413	82.09
284.628	-14.17
284.843	24.75
285.058	71.85
285.274	20.65
285.489	20.65
285.704	67.75
285.919	75.95
286.134	73.9
286.349	73.9
286.564	24.75
286.779	155.82
286.995	49.32
287.21	14.51
287.425	65.71
287.64	53.42
287.855	20.65
288.07	45.23
288.285	147.62
288.5	43.18
288.715	59.56
288.93	59.56
289.145	16.55
289.36	147.62
289.575	43.18
289.79	67.75
290.004	82.09
290.219	49.32
290.434	94.38
290.649	-32.6
290.864	-5.97
291.079	133.29
291.294	32.94
291.509	77.99
291.724	26.79
291.938	32.94
292.153	67.75
292.368	65.71
292.583	39.08
292.798	57.51
293.012	22.7
293.227	149.67
293.442	8.36
293.657	59.56
293.871	84.14
294.086	34.99
294.301	125.1
294.516	69.8
294.73	118.95
294.945	24.75
295.16	2.22
295.374	51.37
295.589	77.99
295.804	18.6
296.018	116.9
296.233	141.48
296.447	86.19
296.662	0.17
296.877	75.95
297.091	61.61
297.306	57.51
297.52	133.29
297.735	16.55
297.949	51.37
298.164	82.09
298.378	41.13
298.593	59.56
298.807	32.94
299.022	73.9
299.236	49.32
299.451	98.47
299.665	49.32
299.88	59.56
300.094	24.75
300.309	49.32
300.523	28.84
300.737	57.51
300.952	86.19
301.166	-30.55
301.381	41.13
301.595	127.14
301.809	28.84
302.024	100.52
302.238	0.17
302.452	43.18
302.667	55.47
302.881	82.09
303.095	100.52
303.309	57.51
303.524	57.51
303.738	73.9
303.952	49.32
304.166	86.19
304.381	2.22
304.595	37.03
304.809	8.36
305.023	67.75
305.237	65.71
305.452	-8.02
305.666	51.37
305.88	57.51
306.094	94.38
306.308	75.95
306.522	98.47
306.736	22.7
306.95	106.67
307.164	67.75
307.379	24.75
307.593	127.14
307.807	100.52
308.021	71.85
308.235	88.23
308.449	-22.36
308.663	82.09
308.877	116.9
309.091	-42.84
309.305	57.51
309.519	-12.12
309.733	155.82
309.947	-8.02
310.161	8.36
310.374	30.89
310.588	92.33
310.802	69.8
311.016	34.99
311.23	98.47
311.444	75.95
311.658	114.86
311.872	116.9
312.085	114.86
312.299	116.9
312.513	90.28
312.727	22.7
312.941	20.65
313.154	94.38
313.368	69.8
313.582	90.28
313.796	26.79
314.009	20.65
314.223	75.95
314.437	131.24
314.651	116.9
314.864	0.17
315.078	20.65
315.292	49.32
315.505	0.17
315.719	82.09
315.933	108.71
316.146	24.75
316.36	26.79
316.573	92.33
316.787	59.56
317.001	16.55
317.214	37.03
317.428	57.51
317.641	112.81
317.855	57.51
318.068	82.09
318.282	8.36
318.495	98.47
318.709	110.76
318.922	98.47
319.136	123.05
319.349	2.22
319.563	94.38
319.776	8.36
319.99	-38.74
320.203	92.33
320.417	75.95
320.63	26.79
320.843	139.43
321.057	65.71
321.27	110.76
321.483	-8.02
321.697	24.75
321.91	32.94
322.124	123.05
322.337	69.8
322.55	106.67
322.763	41.13
322.977	-53.08
323.19	-3.93
323.403	98.47
323.617	0.17
323.83	75.95
324.043	92.33
324.256	-10.07
324.469	41.13
324.683	100.52
324.896	-75.6
325.109	2.22
325.322	-20.31
325.535	77.99
325.748	57.51
325.962	57.51
326.175	75.95
326.388	6.31
326.601	98.47
326.814	26.79
327.027	82.09
327.24	149.67
327.453	55.47
327.666	53.42
327.879	51.37
328.092	98.47
328.305	-34.64
328.518	37.03
328.731	49.32
328.944	67.75
329.157	77.99
329.37	28.84
329.583	125.1
329.796	77.99
330.009	-18.26
330.222	112.81
330.435	92.33
330.648	24.75
330.861	32.94
331.073	92.33
331.286	41.13
331.499	61.61
331.712	16.55
331.925	69.8
332.138	71.85
332.35	114.86
332.563	65.71
332.776	145.58
332.989	16.55
333.202	82.09
333.414	98.47
333.627	98.47
333.84	92.33
334.053	43.18
334.265	53.42
334.478	-3.93
334.691	86.19
334.903	88.23
335.116	24.75
335.329	41.13
335.541	28.84
335.754	118.95
335.966	123.05
336.179	47.27
336.392	41.13
336.604	24.75
336.817	133.29
337.029	67.75
337.242	65.71
337.454	32.94
337.667	77.99
337.88	180.39
338.092	73.9
338.305	77.99
338.517	41.13
338.729	4.27
338.942	77.99
339.154	32.94
339.367	92.33
339.579	84.14
339.792	24.75
340.004	123.05
340.217	-36.69
340.429	82.09
340.641	-5.97
340.854	6.31
341.066	49.32
341.278	61.61
341.491	16.55
341.703	102.57
341.915	-22.36
342.128	108.71
342.34	0.17
342.552	18.6
342.764	90.28
342.977	32.94
343.189	123.05
343.401	0.17
343.613	-28.5
343.826	90.28
344.038	102.57
344.25	86.19
344.462	12.46
344.674	114.86
344.886	14.51
345.099	57.51
345.311	98.47
345.523	73.9
345.735	-14.17
345.947	92.33
346.159	41.13
346.371	86.19
346.583	24.75
346.795	133.29
347.007	26.79
347.219	98.47
347.431	20.65
347.643	131.24
347.855	34.99
348.067	110.76
348.279	4.27
348.491	55.47
348.703	114.86
348.915	90.28
349.127	49.32
349.339	106.67
349.551	37.03
349.763	75.95
349.975	90.28
350.187	47.27
350.399	102.57
350.61	114.86
350.822	53.42
351.034	65.71
351.246	77.99
351.458	16.55
351.669	22.7
351.881	141.48
352.093	106.67
352.305	88.23
352.517	116.9
352.728	14.51
352.94	0.17
353.152	59.56
353.363	43.18
353.575	24.75
353.787	141.48
353.999	96.43
354.21	155.82
354.422	8.36
354.633	73.9
354.845	32.94
355.057	123.05
355.268	77.99
355.48	131.24
355.692	-12.12
355.903	100.52
356.115	28.84
356.326	6.31
356.538	123.05
356.749	57.51
356.961	94.38
357.172	59.56
357.384	84.14
357.595	98.47
357.807	59.56
358.018	55.47
358.23	73.9
358.441	127.14
358.653	57.51
358.864	110.76
359.075	41.13
359.287	59.56
359.498	67.75
359.709	108.71
359.921	77.99
360.132	94.38
360.344	71.85
360.555	116.9
360.766	57.51
360.977	104.62
361.189	8.36
361.4	43.18
361.611	82.09
361.823	57.51
362.034	73.9
362.245	-12.12
362.456	-32.6
362.667	149.67
362.879	90.28
363.09	-14.17
363.301	63.66
363.512	84.14
363.723	-12.12
363.935	47.27
364.146	65.71
364.357	61.61
364.568	94.38
364.779	51.37
364.99	108.71
365.201	24.75
365.412	125.1
365.623	28.84
365.834	57.51
366.045	28.84
366.256	67.75
366.467	53.42
366.678	143.53
366.889	125.1
367.1	69.8
367.311	67.75
367.522	49.32
367.733	108.71
367.944	41.13
368.155	118.95
368.366	57.51
368.577	114.86
368.788	84.14
368.999	41.13
369.209	12.46
369.42	143.53
369.631	57.51
369.842	82.09
370.053	28.84
370.264	69.8
370.474	96.43
370.685	84.14
370.896	24.75
371.107	147.62
371.317	88.23
371.528	51.37
371.739	82.09
371.95	108.71
372.16	202.92
372.371	2.22
372.582	53.42
372.792	92.33
373.003	114.86
373.214	59.56
373.424	37.03
373.635	43.18
373.846	90.28
374.056	77.99
374.267	96.43
374.477	137.38
374.688	16.55
374.898	57.51
375.109	53.42
375.319	151.72
375.53	149.67
375.74	-20.31
375.951	45.23
376.161	34.99
376.372	164.01
376.582	32.94
376.793	61.61
377.003	61.61
377.214	82.09
377.424	43.18
377.635	65.71
377.845	75.95
378.055	121
378.266	-20.31
378.476	63.66
378.686	104.62
378.897	102.57
379.107	51.37
379.317	37.03
379.528	69.8
379.738	53.42
379.948	59.56
380.158	110.76
380.369	73.9
380.579	108.71
380.789	65.71
380.999	86.19
381.21	57.51
381.42	90.28
381.63	65.71
381.84	98.47
382.05	147.62
382.261	73.9
382.471	98.47
382.681	6.31
382.891	57.51
383.101	65.71
383.311	100.52
383.521	82.09
383.731	127.14
383.941	157.86
384.151	100.52
384.361	102.57
384.571	37.03
384.781	45.23
384.991	188.58
385.201	73.9
385.411	10.41
385.621	-5.97
385.831	75.95
386.041	98.47
386.251	71.85
386.461	102.57
386.671	26.79
386.881	26.79
387.091	77.99
387.301	96.43
387.511	164.01
387.72	90.28
387.93	98.47
388.14	65.71
388.35	69.8
388.56	98.47
388.769	108.71
388.979	92.33
389.189	10.41
389.399	110.76
389.609	53.42
389.818	114.86
390.028	118.95
390.238	133.29
390.447	51.37
390.657	65.71
390.867	30.89
391.076	106.67
391.286	57.51
391.496	102.57
391.705	77.99
391.915	137.38
392.125	141.48
392.334	116.9
392.544	114.86
392.753	65.71
392.963	137.38
393.172	100.52
393.382	100.52
393.591	207.02
393.801	73.9
394.01	77.99
394.22	153.77
394.429	155.82
394.639	116.9
394.848	108.71
395.058	125.1
395.267	57.51
395.477	127.14
395.686	164.01
395.895	106.67
396.105	180.39
396.314	96.43
396.524	123.05
396.733	135.34
396.942	274.6
397.152	151.72
397.361	182.44
397.57	131.24
397.78	73.9
397.989	196.78
398.198	217.26
398.407	166.06
398.617	223.4
398.826	219.3
399.035	90.28
399.244	172.2
399.453	135.34
399.663	164.01
399.872	243.88
400.081	123.05
400.29	221.35
400.499	170.15
400.708	141.48
400.917	172.2
401.127	145.58
401.336	270.5
401.545	213.16
401.754	141.48
401.963	147.62
402.172	121
402.381	166.06
402.59	147.62
402.799	204.97
403.008	151.72
403.217	198.82
403.426	157.86
403.635	139.43
403.844	159.91
404.053	290.98
404.262	159.91
404.471	286.89
404.68	237.74
404.888	231.59
405.097	227.5
405.306	227.5
405.515	239.78
405.724	286.89
405.933	295.08
406.142	239.78
406.35	329.89
406.559	299.17
406.768	319.65
406.977	317.61
407.185	362.66
407.394	338.09
407.603	319.65
407.812	336.04
408.02	336.04
408.229	288.93
408.438	368.81
408.646	385.19
408.855	409.76
409.064	450.72
409.272	393.38
409.481	436.39
409.69	395.43
409.898	368.81
410.107	456.87
410.315	469.16
410.524	528.55
410.733	479.4
410.941	491.68
411.15	528.55
411.358	626.85
411.567	659.62
411.775	589.99
411.984	596.13
412.192	704.67
412.401	692.38
412.609	807.07
412.818	819.36
413.026	819.36
413.234	778.4
413.443	762.02
413.651	821.41
413.86	798.88
414.068	946.33
414.276	991.39
414.485	946.33
414.693	1089.69
414.901	1124.51
415.11	1015.96
415.318	1128.6
415.526	1126.55
415.734	1175.7
415.943	1288.34
416.151	1380.5
416.359	1357.97
416.567	1370.26
416.776	1372.31
416.984	1491.09
417.192	1671.31
417.4	1679.51
417.608	1613.97
417.817	1613.97
418.025	1779.86
418.233	1917.07
418.441	1857.68
418.649	1915.02
418.857	2019.47
419.065	2146.44
419.273	2017.42
419.481	2123.91
419.689	2310.28
419.897	2412.68
420.105	2396.29
420.313	2500.74
420.521	2605.19
420.729	2539.65
420.937	2631.81
421.145	2762.88
421.353	2859.14
421.561	2795.65
421.769	3172.47
421.977	3330.17
422.185	3260.54
422.393	3375.22
422.601	3573.88
422.809	3600.5
423.017	3711.09
423.224	3745.91
423.432	3924.08
423.64	3930.22
423.848	4358.25
424.056	4243.56
424.263	4630.63
424.471	4573.28
424.679	4698.21
424.887	4997.21
425.094	5079.13
425.302	5089.37
425.51	5382.23
425.718	5494.87
425.925	5458.01
426.133	5695.57
426.341	5881.94
426.548	6316.11
426.756	6275.15
426.964	6185.04
427.171	6580.29
427.379	6858.82
427.586	7106.62
427.794	7151.68
428.001	7401.53
428.209	7766.07
428.417	7565.37
428.624	8259.63
428.832	8355.88
429.039	8052.78
429.247	8235.05
429.454	8994.85
429.662	9439.26
429.869	8890.4
430.076	9642.01
430.284	9293.85
430.491	9590.81
430.699	10141.71
430.906	10332.17
431.114	10510.35
431.321	10594.31
431.528	10670.09
431.736	11321.34
431.943	12181.49
432.15	11796.47
432.358	11888.63
432.565	12531.69
432.772	12505.07
432.979	13148.13
433.187	13383.65
433.394	13225.95
433.601	14438.35
433.808	14141.39
434.016	14303.18
434.223	14741.45
434.43	15867.83
434.637	15345.6
434.844	16437.17
435.052	16547.76
435.259	16820.14
435.466	16725.93
435.673	16568.24
435.88	17764.25
436.087	18751.37
436.294	18554.77
436.501	18337.68
436.708	18571.15
436.915	19163.01
437.122	20014.97
437.329	19924.86
437.537	20533.11
437.743	20809.58
437.95	20717.42
438.157	21692.26
438.364	22648.66
438.571	22253.4
438.778	22572.88
438.985	24477.49
439.192	23537.48
439.399	24444.73
439.606	23965.5
439.813	25444.13
440.02	26963.73
440.227	26382.1
440.433	26240.79
440.64	27107.09
440.847	26613.52
441.054	27115.28
441.261	29212.4
441.467	28677.88
441.674	29409
441.881	30406.36
442.088	30176.99
442.294	29920.99
442.501	30445.27
442.708	31368.91
442.914	32753.33
443.121	33924.77
443.328	33013.43
443.534	34944.66
443.741	34555.55
443.948	33642.15
444.154	36204.16
444.361	35997.32
444.568	36138.63
444.774	36380.29
444.981	36771.45
445.187	37310.07
445.394	39331.41
445.6	38876.76
445.807	42255.91
446.013	40422.98
446.22	41168.44
446.426	43423.25
446.633	43042.33
446.839	44758.53
447.046	42753.57
447.252	45340.15
447.459	45475.32
447.665	45215.22
447.871	46634.47
448.078	48694.72
448.284	46781.92
448.491	47924.69
448.697	49319.35
448.903	50431.4
449.11	50640.29
449.316	49319.35
449.522	50845.09
449.728	52010.39
449.935	52202.89
450.141	52379.02
450.347	53366.14
450.553	51635.61
450.76	52399.5
450.966	53867.89
451.172	53497.21
451.378	55053.67
451.584	53628.28
451.791	54832.49
451.997	54699.37
452.203	55647.58
452.409	55536.99
452.615	55577.95
452.821	53312.89
453.027	52864.39
453.233	55362.91
453.44	53751.16
453.646	53941.62
453.852	54445.42
454.058	55027.04
454.264	53372.28
454.47	54570.35
454.676	53298.56
454.882	55133.54
455.088	50544.04
455.294	51056.03
455.5	52102.54
455.705	52508.04
455.911	50785.7
456.117	49874.35
456.323	49020.35
456.529	46876.13
456.735	48829.89
456.941	47291.87
457.147	47003.1
457.352	45612.53
457.558	44840.45
457.764	44824.06
457.97	43914.76
458.176	43288.09
458.381	42952.22
458.587	41238.07
458.793	40816.19
458.999	39075.41
459.204	41377.33
459.41	40754.75
459.616	37858.92
459.821	38295.14
460.027	38012.52
460.233	36963.96
460.438	35214.99
460.644	35546.76
460.85	33918.63
461.055	33113.78
461.261	33162.93
461.466	31092.43
461.672	29791.97
461.878	32345.79
462.083	30260.96
462.289	29531.88
462.494	29196.01
462.7	27535.11
462.905	27184.91
463.111	27445
463.316	28051.2
463.522	27936.51
463.727	27545.35
463.932	27262.73
464.138	27027.21
464.343	27178.76
464.549	26351.38
464.754	27113.23
464.959	26875.66
465.165	26961.68
465.37	25474.85
465.575	24940.33
465.781	25859.87
465.986	26175.26
466.191	25163.56
