Data from USB4F104151__147__14-31-54-999.txt Node

Date: Thu Mar 13 14:31:54 EDT 2025
User: louis
Spectrometer: USB4F10415
Trigger mode: 4
Integration Time (sec): 2.500000E-2
Scans to average: 1
Electric dark correction enabled: true
Nonlinearity correction enabled: false
Boxcar width: 0
XAxis mode: Wavelengths
Number of Pixels in Spectrum: 3648
>>>>>Begin Spectral Data<<<<<
178.204	-178.51
178.424	-178.51
178.644	-178.51
178.864	-119.12
179.084	-168.27
179.304	28.33
179.524	-6.49
179.744	42.67
179.964	-22.87
180.184	95.91
180.404	-14.68
180.624	-6.49
180.844	-26.96
181.064	13.99
181.283	1.71
181.503	-55.64
181.723	-49.49
181.943	-20.82
182.163	11.95
182.383	44.71
182.602	102.06
182.822	65.19
183.042	69.29
183.262	-37.2
183.482	30.38
183.701	-55.64
183.921	50.86
184.141	-72.02
184.361	110.25
184.58	9.9
184.8	42.67
185.02	-6.49
185.239	59.05
185.459	-10.58
185.679	63.15
185.898	-78.16
186.118	34.47
186.338	28.33
186.557	75.43
186.777	-4.44
186.997	-29.01
187.216	-39.25
187.436	5.8
187.655	42.67
187.875	36.52
188.095	3.75
188.314	83.63
188.534	-22.87
188.753	-4.44
188.973	7.85
189.192	-22.87
189.412	11.95
189.631	11.95
189.851	77.48
190.07	124.58
190.29	20.14
190.509	52.91
190.729	-4.44
190.948	71.34
191.168	108.2
191.387	106.15
191.607	26.28
191.826	-4.44
192.045	95.91
192.265	93.87
192.484	18.09
192.704	9.9
192.923	38.57
193.142	36.52
193.362	-26.96
193.581	42.67
193.8	3.75
194.02	28.33
194.239	24.23
194.458	3.75
194.678	-14.68
194.897	-47.44
195.116	50.86
195.335	11.95
195.555	48.81
195.774	5.8
195.993	114.34
196.212	36.52
196.432	-12.63
196.651	-49.49
196.87	1.71
197.089	83.63
197.308	13.99
197.528	9.9
197.747	-35.16
197.966	18.09
198.185	91.82
198.404	3.75
198.623	5.8
198.842	36.52
199.062	34.47
199.281	124.58
199.5	28.33
199.719	9.9
199.938	54.95
200.157	91.82
200.376	5.8
200.595	30.38
200.814	42.67
201.033	30.38
201.252	73.39
201.471	79.53
201.69	102.06
201.909	-4.44
202.128	38.57
202.347	71.34
202.566	38.57
202.785	-51.54
203.004	9.9
203.223	116.39
203.442	-37.2
203.661	63.15
203.879	36.52
204.098	46.76
204.317	9.9
204.536	95.91
204.755	20.14
204.974	59.05
205.193	44.71
205.411	108.2
205.63	67.24
205.849	22.19
206.068	42.67
206.287	-12.63
206.505	59.05
206.724	26.28
206.943	9.9
207.162	-63.83
207.381	59.05
207.599	-6.49
207.818	42.67
208.037	24.23
208.255	13.99
208.474	18.09
208.693	-12.63
208.911	1.71
209.13	-22.87
209.349	42.67
209.567	81.58
209.786	67.24
210.005	38.57
210.223	34.47
210.442	-63.83
210.661	-4.44
210.879	34.47
211.098	11.95
211.316	28.33
211.535	116.39
211.753	11.95
211.972	108.2
212.191	-8.53
212.409	34.47
212.628	110.25
212.846	42.67
213.065	22.19
213.283	83.63
213.502	26.28
213.72	1.71
213.938	1.71
214.157	-4.44
214.375	46.76
214.594	-10.58
214.812	100.01
215.031	-84.31
215.249	28.33
215.467	116.39
215.686	18.09
215.904	143.02
216.122	18.09
216.341	44.71
216.559	110.25
216.778	50.86
216.996	69.29
217.214	46.76
217.432	-72.02
217.651	5.8
217.869	22.19
218.087	77.48
218.306	110.25
218.524	100.01
218.742	-10.58
218.96	93.87
219.179	-4.44
219.397	42.67
219.615	134.82
219.833	-2.39
220.051	-31.06
220.27	97.96
220.488	87.72
220.706	-31.06
220.924	77.48
221.142	9.9
221.36	38.57
221.578	42.67
221.796	100.01
222.015	3.75
222.233	18.09
222.451	85.67
222.669	-12.63
222.887	38.57
223.105	22.19
223.323	-31.06
223.541	7.85
223.759	-8.53
223.977	32.43
224.195	91.82
224.413	130.73
224.631	9.9
224.849	36.52
225.067	91.82
225.285	-94.55
225.503	7.85
225.721	1.71
225.939	18.09
226.157	116.39
226.375	151.21
226.592	-4.44
226.81	40.62
227.028	77.48
227.246	34.47
227.464	32.43
227.682	104.11
227.9	93.87
228.117	13.99
228.335	24.23
228.553	30.38
228.771	1.71
228.989	-33.11
229.206	112.3
229.424	-18.77
229.642	22.19
229.86	-29.01
230.077	91.82
230.295	42.67
230.513	102.06
230.731	34.47
230.948	-2.39
231.166	95.91
231.384	36.52
231.601	-76.12
231.819	-0.34
232.037	-14.68
232.254	30.38
232.472	18.09
232.689	34.47
232.907	7.85
233.125	-43.35
233.342	3.75
233.56	-31.06
233.777	50.86
233.995	-61.78
234.213	42.67
234.43	-53.59
234.648	57
234.865	36.52
235.083	34.47
235.3	3.75
235.518	26.28
235.735	46.76
235.953	42.67
236.17	-18.77
236.388	18.09
236.605	9.9
236.822	100.01
237.04	3.75
237.257	1.71
237.475	-14.68
237.692	104.11
237.909	93.87
238.127	34.47
238.344	54.95
238.562	38.57
238.779	-6.49
238.996	-10.58
239.214	-69.97
239.431	28.33
239.648	104.11
239.865	22.19
240.083	20.14
240.3	30.38
240.517	75.43
240.735	93.87
240.952	40.62
241.169	42.67
241.386	26.28
241.603	24.23
241.821	9.9
242.038	57
242.255	44.71
242.472	-22.87
242.689	59.05
242.907	3.75
243.124	9.9
243.341	-4.44
243.558	-22.87
243.775	30.38
243.992	24.23
244.209	83.63
244.426	122.54
244.643	-6.49
244.86	-33.11
245.078	42.67
245.295	5.8
245.512	36.52
245.729	67.24
245.946	1.71
246.163	40.62
246.38	18.09
246.597	-26.96
246.814	44.71
247.031	-10.58
247.248	30.38
247.464	-39.25
247.681	34.47
247.898	134.82
248.115	20.14
248.332	-51.54
248.549	34.47
248.766	42.67
248.983	153.26
249.2	32.43
249.417	108.2
249.633	61.1
249.85	30.38
250.067	34.47
250.284	93.87
250.501	-2.39
250.717	57
250.934	-4.44
251.151	75.43
251.368	18.09
251.585	5.8
251.801	13.99
252.018	-84.31
252.235	20.14
252.451	3.75
252.668	18.09
252.885	61.1
253.102	95.91
253.318	28.33
253.535	-26.96
253.752	18.09
253.968	28.33
254.185	22.19
254.401	52.91
254.618	97.96
254.835	32.43
255.051	61.1
255.268	20.14
255.484	48.81
255.701	18.09
255.917	140.97
256.134	-4.44
256.351	36.52
256.567	24.23
256.784	63.15
257	-108.88
257.217	85.67
257.433	28.33
257.65	100.01
257.866	79.53
258.082	59.05
258.299	61.1
258.515	108.2
258.732	108.2
258.948	-18.77
259.165	102.06
259.381	26.28
259.597	59.05
259.814	9.9
260.03	1.71
260.246	95.91
260.463	83.63
260.679	-4.44
260.895	48.81
261.112	-6.49
261.328	46.76
261.544	9.9
261.761	124.58
261.977	16.04
262.193	1.71
262.409	11.95
262.626	83.63
262.842	20.14
263.058	-31.06
263.274	63.15
263.49	-2.39
263.707	95.91
263.923	59.05
264.139	20.14
264.355	-10.58
264.571	116.39
264.787	18.09
265.004	54.95
265.22	28.33
265.436	-39.25
265.652	1.71
265.868	118.44
266.084	11.95
266.3	18.09
266.516	-20.82
266.732	50.86
266.948	16.04
267.164	71.34
267.38	75.43
267.596	9.9
267.812	116.39
268.028	26.28
268.244	42.67
268.46	11.95
268.676	36.52
268.892	61.1
269.108	77.48
269.324	69.29
269.54	18.09
269.756	85.67
269.972	36.52
270.188	95.91
270.403	20.14
270.619	44.71
270.835	-20.82
271.051	38.57
271.267	26.28
271.483	104.11
271.698	36.52
271.914	-14.68
272.13	83.63
272.346	13.99
272.562	30.38
272.777	59.05
272.993	59.05
273.209	44.71
273.425	13.99
273.64	34.47
273.856	93.87
274.072	-22.87
274.287	20.14
274.503	59.05
274.719	83.63
274.934	102.06
275.15	-47.44
275.366	3.75
275.581	11.95
275.797	75.43
276.012	30.38
276.228	63.15
276.444	83.63
276.659	28.33
276.875	61.1
277.09	-14.68
277.306	9.9
277.521	110.25
277.737	50.86
277.952	59.05
278.168	77.48
278.383	46.76
278.599	24.23
278.814	100.01
279.03	95.91
279.245	102.06
279.461	-12.63
279.676	42.67
279.892	-18.77
280.107	63.15
280.322	-14.68
280.538	1.71
280.753	71.34
280.969	50.86
281.184	28.33
281.399	102.06
281.615	67.24
281.83	63.15
282.045	67.24
282.26	54.95
282.476	24.23
282.691	48.81
282.906	85.67
283.122	13.99
283.337	13.99
283.552	20.14
283.767	50.86
283.983	32.43
284.198	63.15
284.413	34.47
284.628	-43.35
284.843	54.95
285.058	42.67
285.274	5.8
285.489	59.05
285.704	63.15
285.919	52.91
286.134	44.71
286.349	11.95
286.564	11.95
286.779	20.14
286.995	-20.82
287.21	18.09
287.425	67.24
287.64	112.3
287.855	110.25
288.07	-59.73
288.285	46.76
288.5	26.28
288.715	36.52
288.93	20.14
289.145	-39.25
289.36	110.25
289.575	18.09
289.79	36.52
290.004	-14.68
290.219	32.43
290.434	57
290.649	-59.73
290.864	79.53
291.079	24.23
291.294	61.1
291.509	-4.44
291.724	26.28
291.938	5.8
292.153	83.63
292.368	-4.44
292.583	71.34
292.798	91.82
293.012	50.86
293.227	13.99
293.442	46.76
293.657	18.09
293.871	110.25
294.086	38.57
294.301	67.24
294.516	79.53
294.73	61.1
294.945	-10.58
295.16	11.95
295.374	38.57
295.589	61.1
295.804	50.86
296.018	42.67
296.233	87.72
296.447	-63.83
296.662	18.09
296.877	42.67
297.091	22.19
297.306	34.47
297.52	32.43
297.735	26.28
297.949	-10.58
298.164	20.14
298.378	-12.63
298.593	-35.16
298.807	-35.16
299.022	-47.44
299.236	71.34
299.451	28.33
299.665	18.09
299.88	63.15
300.094	48.81
300.309	5.8
300.523	-2.39
300.737	-10.58
300.952	52.91
301.166	50.86
301.381	83.63
301.595	67.24
301.809	108.2
302.024	26.28
302.238	22.19
302.452	-0.34
302.667	28.33
302.881	38.57
303.095	91.82
303.309	100.01
303.524	100.01
303.738	20.14
303.952	30.38
304.166	61.1
304.381	-10.58
304.595	-6.49
304.809	59.05
305.023	75.43
305.237	9.9
305.452	95.91
305.666	44.71
305.88	50.86
306.094	7.85
306.308	34.47
306.522	69.29
306.736	-10.58
306.95	36.52
307.164	63.15
307.379	34.47
307.593	77.48
307.807	116.39
308.021	102.06
308.235	100.01
308.449	-12.63
308.663	42.67
308.877	116.39
309.091	40.62
309.305	67.24
309.519	34.47
309.733	126.63
309.947	59.05
310.161	38.57
310.374	100.01
310.588	38.57
310.802	-69.97
311.016	5.8
311.23	83.63
311.444	5.8
311.658	18.09
311.872	108.2
312.085	38.57
312.299	48.81
312.513	126.63
312.727	52.91
312.941	18.09
313.154	89.77
313.368	36.52
313.582	22.19
313.796	11.95
314.009	20.14
314.223	61.1
314.437	71.34
314.651	26.28
314.864	50.86
315.078	50.86
315.292	85.67
315.505	34.47
315.719	42.67
315.933	93.87
316.146	5.8
316.36	5.8
316.573	63.15
316.787	71.34
317.001	100.01
317.214	20.14
317.428	61.1
317.641	-26.96
317.855	106.15
318.068	79.53
318.282	9.9
318.495	120.49
318.709	165.54
318.922	3.75
319.136	108.2
319.349	95.91
319.563	100.01
319.776	104.11
319.99	-31.06
320.203	26.28
320.417	26.28
320.63	26.28
320.843	83.63
321.057	69.29
321.27	9.9
321.483	67.24
321.697	50.86
321.91	67.24
322.124	75.43
322.337	83.63
322.55	44.71
322.763	140.97
322.977	38.57
323.19	69.29
323.403	65.19
323.617	1.71
323.83	83.63
324.043	26.28
324.256	-12.63
324.469	-10.58
324.683	34.47
324.896	132.78
325.109	22.19
325.322	83.63
325.535	9.9
325.748	110.25
325.962	61.1
326.175	32.43
326.388	100.01
326.601	116.39
326.814	44.71
327.027	93.87
327.24	75.43
327.453	-55.64
327.666	85.67
327.879	69.29
328.092	108.2
328.305	18.09
328.518	59.05
328.731	1.71
328.944	91.82
329.157	83.63
329.37	26.28
329.583	85.67
329.796	89.77
330.009	28.33
330.222	-31.06
330.435	34.47
330.648	-4.44
330.861	34.47
331.073	36.52
331.286	44.71
331.499	132.78
331.712	42.67
331.925	87.72
332.138	38.57
332.35	106.15
332.563	13.99
332.776	85.67
332.989	-26.96
333.202	44.71
333.414	63.15
333.627	54.95
333.84	-31.06
334.053	40.62
334.265	28.33
334.478	18.09
334.691	22.19
334.903	18.09
335.116	44.71
335.329	46.76
335.541	-10.58
335.754	52.91
335.966	38.57
336.179	48.81
336.392	9.9
336.604	132.78
336.817	100.01
337.029	44.71
337.242	65.19
337.454	136.87
337.667	28.33
337.88	18.09
338.092	5.8
338.305	1.71
338.517	-14.68
338.729	143.02
338.942	100.01
339.154	67.24
339.367	22.19
339.579	26.28
339.792	18.09
340.004	59.05
340.217	81.58
340.429	85.67
340.641	1.71
340.854	26.28
341.066	100.01
341.278	79.53
341.491	138.92
341.703	42.67
341.915	22.19
342.128	1.71
342.34	30.38
342.552	32.43
342.764	9.9
342.977	87.72
343.189	54.95
343.401	67.24
343.613	26.28
343.826	54.95
344.038	18.09
344.25	40.62
344.462	-29.01
344.674	102.06
344.886	-24.92
345.099	61.1
345.311	5.8
345.523	28.33
345.735	59.05
345.947	59.05
346.159	59.05
346.371	91.82
346.583	-22.87
346.795	93.87
347.007	61.1
347.219	91.82
347.431	59.05
347.643	89.77
347.855	59.05
348.067	140.97
348.279	34.47
348.491	18.09
348.703	87.72
348.915	97.96
349.127	11.95
349.339	93.87
349.551	-35.16
349.763	83.63
349.975	26.28
350.187	102.06
350.399	108.2
350.61	165.54
350.822	71.34
351.034	91.82
351.246	81.58
351.458	46.76
351.669	79.53
351.881	61.1
352.093	151.21
352.305	108.2
352.517	91.82
352.728	108.2
352.94	61.1
353.152	13.99
353.363	-63.83
353.575	75.43
353.787	106.15
353.999	44.71
354.21	132.78
354.422	57
354.633	126.63
354.845	46.76
355.057	102.06
355.268	34.47
355.48	112.3
355.692	46.76
355.903	32.43
356.115	57
356.326	1.71
356.538	69.29
356.749	83.63
356.961	95.91
357.172	20.14
357.384	77.48
357.595	173.74
357.807	22.19
358.018	69.29
358.23	83.63
358.441	140.97
358.653	34.47
358.864	-2.39
359.075	9.9
359.287	67.24
359.498	63.15
359.709	40.62
359.921	3.75
360.132	89.77
360.344	61.1
360.555	87.72
360.766	67.24
360.977	-4.44
361.189	108.2
361.4	73.39
361.611	93.87
361.823	83.63
362.034	108.2
362.245	67.24
362.456	-4.44
362.667	-10.58
362.879	87.72
363.09	50.86
363.301	83.63
363.512	59.05
363.723	50.86
363.935	13.99
364.146	52.91
364.357	36.52
364.568	91.82
364.779	-31.06
364.99	153.26
365.201	24.23
365.412	149.16
365.623	34.47
365.834	102.06
366.045	26.28
366.256	75.43
366.467	46.76
366.678	50.86
366.889	52.91
367.1	50.86
367.311	69.29
367.522	75.43
367.733	26.28
367.944	79.53
368.155	-6.49
368.366	59.05
368.577	97.96
368.788	157.35
368.999	67.24
369.209	104.11
369.42	116.39
369.631	104.11
369.842	75.43
370.053	77.48
370.264	108.2
370.474	-4.44
370.685	112.3
370.896	81.58
371.107	59.05
371.317	108.2
371.528	9.9
371.739	132.78
371.95	22.19
372.16	38.57
372.371	34.47
372.582	13.99
372.792	100.01
373.003	-10.58
373.214	52.91
373.424	110.25
373.635	-2.39
373.846	44.71
374.056	61.1
374.267	104.11
374.477	9.9
374.688	-14.68
374.898	-18.77
375.109	57
375.319	104.11
375.53	132.78
375.74	77.48
375.951	143.02
376.161	93.87
376.372	130.73
376.582	75.43
376.793	75.43
377.003	59.05
377.214	34.47
377.424	112.3
377.635	50.86
377.845	100.01
378.055	83.63
378.266	1.71
378.476	104.11
378.686	102.06
378.897	13.99
379.107	108.2
379.317	93.87
379.528	67.24
379.738	22.19
379.948	44.71
380.158	151.21
380.369	67.24
380.579	30.38
380.789	71.34
380.999	75.43
381.21	104.11
381.42	149.16
381.63	91.82
381.84	157.35
382.05	83.63
382.261	110.25
382.471	67.24
382.681	102.06
382.891	97.96
383.101	83.63
383.311	36.52
383.521	30.38
383.731	106.15
383.941	81.58
384.151	54.95
384.361	120.49
384.571	52.91
384.781	75.43
384.991	108.2
385.201	124.58
385.411	83.63
385.621	112.3
385.831	63.15
386.041	77.48
386.251	50.86
386.461	71.34
386.671	95.91
386.881	190.12
387.091	44.71
387.301	20.14
387.511	63.15
387.72	52.91
387.93	87.72
388.14	44.71
388.35	50.86
388.56	100.01
388.769	71.34
388.979	85.67
389.189	102.06
389.399	128.68
389.609	67.24
389.818	91.82
390.028	110.25
390.238	50.86
390.447	124.58
390.657	61.1
390.867	116.39
391.076	-2.39
391.286	108.2
391.496	110.25
391.705	75.43
391.915	108.2
392.125	136.87
392.334	20.14
392.544	100.01
392.753	95.91
392.963	91.82
393.172	75.43
393.382	5.8
393.591	104.11
393.801	81.58
394.01	173.74
394.22	114.34
394.429	149.16
394.639	59.05
394.848	93.87
395.058	153.26
395.267	116.39
395.477	100.01
395.686	145.06
395.895	159.4
396.105	183.98
396.314	165.54
396.524	149.16
396.733	194.22
396.942	108.2
397.152	75.43
397.361	165.54
397.57	93.87
397.78	159.4
397.989	165.54
398.198	181.93
398.407	75.43
398.617	46.76
398.826	128.68
399.035	161.45
399.244	124.58
399.453	116.39
399.663	226.98
399.872	218.79
400.081	132.78
400.29	196.26
400.499	147.11
400.708	157.35
400.917	190.12
401.127	100.01
401.336	181.93
401.545	263.85
401.754	243.37
401.963	110.25
402.172	188.07
402.381	108.2
402.59	200.36
402.799	145.06
403.008	284.33
403.217	198.31
403.426	272.04
403.635	224.94
403.844	284.33
404.053	224.94
404.262	210.6
404.471	259.75
404.68	200.36
404.888	251.56
405.097	222.89
405.306	204.46
405.515	220.84
405.724	288.42
405.933	274.09
406.142	194.22
406.35	306.85
406.559	259.75
406.768	278.18
406.977	366.25
407.185	288.42
407.394	329.38
407.603	290.47
407.812	353.96
408.02	415.4
408.229	356.01
408.438	386.72
408.646	323.24
408.855	317.09
409.064	315.05
409.272	386.72
409.481	462.5
409.69	380.58
409.898	493.22
410.107	501.41
410.315	554.66
410.524	464.55
410.733	519.84
410.941	487.08
411.15	568.99
411.358	589.47
411.567	706.21
411.775	575.14
411.984	568.99
412.192	681.63
412.401	695.97
412.609	743.07
412.818	784.03
413.026	722.59
413.234	882.33
413.443	876.19
413.651	894.62
413.86	892.57
414.068	1037.98
414.276	978.59
414.485	994.97
414.693	1056.41
414.901	1164.95
415.11	1070.75
415.318	1085.08
415.526	1150.62
415.734	1275.54
415.943	1314.45
416.151	1336.98
416.359	1246.87
416.567	1410.71
416.776	1449.62
416.984	1552.02
417.192	1779.34
417.4	1533.59
417.608	1681.04
417.817	1545.88
418.025	1816.21
418.233	1861.26
418.441	1885.84
418.649	1891.98
418.857	1973.9
419.065	2111.11
419.273	2141.83
419.481	2279.05
419.689	2365.06
419.897	2412.17
420.105	2328.2
420.313	2494.08
420.521	2541.19
420.729	2776.7
420.937	2770.56
421.145	2827.9
421.353	2977.41
421.561	3155.58
421.769	3157.63
421.977	3272.31
422.185	3251.83
422.393	3466.87
422.601	3755.63
422.809	3526.26
423.017	3663.47
423.224	3966.57
423.432	4056.68
423.64	4064.88
423.848	4374.12
424.056	4220.52
424.263	4732.51
424.471	4746.85
424.679	4730.47
424.887	4943.46
425.094	5064.29
425.302	5019.23
425.51	5305.95
425.718	5465.69
425.925	5525.08
426.133	5727.83
426.341	6137.42
426.548	6334.03
426.756	6303.31
426.964	6547.01
427.171	6891.07
427.379	6964.8
427.586	7093.82
427.794	7235.13
428.001	7685.69
428.209	7972.4
428.417	7820.85
428.624	8468.01
428.832	8457.77
429.039	8345.13
429.247	8439.34
429.454	9113.12
429.662	9793.05
429.869	9211.42
430.076	9889.3
430.284	9338.4
430.491	9956.88
430.699	10470.92
430.906	10857.99
431.114	10677.77
431.321	11032.07
431.528	11281.92
431.736	11957.75
431.943	12543.47
432.15	12152.31
432.358	12158.45
432.565	12891.62
432.772	12879.33
432.979	13508.06
433.187	13739.48
433.394	13942.23
433.601	15001.03
433.808	14861.77
434.016	14788.04
434.223	15472.06
434.43	16281.01
434.637	16211.38
434.844	17118.63
435.052	17102.25
435.259	17223.08
435.466	17450.4
435.673	17526.18
435.88	18032.02
436.087	19326.34
436.294	19008.9
436.501	18666.89
436.708	19023.24
436.915	20065.66
437.122	20766.06
437.329	20467.06
437.537	21501.28
437.743	21396.84
437.95	21353.83
438.157	22619.47
438.364	23420.23
438.571	23496
438.778	23268.68
438.985	25357.61
439.192	24495.41
439.399	25238.83
439.606	24892.72
439.813	26127.64
440.02	27669.76
440.227	27157.77
440.433	27022.61
440.64	28067.07
440.847	27751.68
441.054	28591.35
441.261	30170.33
441.467	30010.59
441.674	30551.26
441.881	31745.22
442.088	31218.89
442.294	31036.63
442.501	31851.72
442.708	32517.31
442.914	33512.62
443.121	35042.45
443.328	34368.67
443.534	36625.53
443.741	35787.91
443.948	35175.57
444.154	37784.68
444.361	37397.62
444.568	37502.06
444.774	37559.41
444.981	37815.4
445.187	39197.78
445.394	40827.96
445.6	40291.4
445.807	43836.43
446.013	42003.5
446.22	42951.71
446.426	44512.26
446.633	44758.02
446.839	46293.99
447.046	44385.29
447.252	46808.03
447.459	46814.18
447.665	46810.08
447.871	48696.26
448.078	50369.45
448.284	48182.22
448.491	49718.2
448.697	51067.81
448.903	51755.92
449.11	52401.04
449.316	51628.95
449.522	52450.19
449.728	53392.25
449.935	53926.77
450.141	54252.4
450.347	55432.03
450.553	53459.83
450.76	54115.18
450.966	55786.33
451.172	55384.93
451.378	56724.3
451.584	55401.31
451.791	56554.32
451.997	56539.98
452.203	57697.08
452.409	57269.06
452.615	56925
452.821	55149.41
453.027	54618.99
453.233	57633.6
453.44	55161.7
453.646	55427.93
453.852	55577.43
454.058	56802.12
454.264	55024.48
454.47	56132.43
454.676	54942.56
454.882	56390.48
455.088	52054.93
455.294	52530.06
455.5	53365.63
455.705	53427.07
455.911	51524.5
456.117	50951.07
456.323	50430.89
456.529	47616.98
456.735	49908.66
456.941	48133.07
457.147	47829.97
457.352	46461.93
457.558	45943.79
457.764	46242.79
457.97	45448.18
458.176	44108.81
458.381	44295.17
458.587	42081.32
458.793	41962.54
458.999	39588.94
459.204	42884.12
459.41	41720.88
459.616	38814.81
459.821	39144.53
460.027	38675.55
460.233	37907.56
460.438	36250.75
460.644	36525.18
460.85	34808.98
461.055	34108.58
461.261	34264.22
461.466	31751.37
461.672	30690.52
461.878	32687.29
462.083	30624.98
462.289	29951.2
462.494	29887.71
462.7	28742.9
462.905	28067.07
463.111	28742.9
463.316	29132.01
463.522	28388.6
463.727	28501.24
463.932	28316.92
464.138	27862.27
464.343	28273.92
464.549	27331.85
464.754	28232.96
464.959	28013.82
465.165	27809.03
465.37	26447.13
465.575	25949.47
465.781	27104.53
465.986	27211.02
466.191	26541.33
466.397	25799.97
