Data from USB4F104151__134__14-31-43-178.txt Node

Date: Thu Mar 13 14:31:43 EDT 2025
User: louis
Spectrometer: USB4F10415
Trigger mode: 4
Integration Time (sec): 2.500000E-2
Scans to average: 1
Electric dark correction enabled: true
Nonlinearity correction enabled: false
Boxcar width: 0
XAxis mode: Wavelengths
Number of Pixels in Spectrum: 3648
>>>>>Begin Spectral Data<<<<<
178.204	-86.01
178.424	-86.01
178.644	-86.01
178.864	-55.3
179.084	-90.11
179.304	4.1
179.524	-38.91
179.744	-30.72
179.964	43.01
180.184	-24.58
180.404	-40.96
180.624	-16.38
180.844	69.63
181.064	-40.96
181.283	20.48
181.503	2.05
181.723	53.25
181.943	-73.73
182.163	180.22
182.383	40.96
182.602	34.82
182.822	110.59
183.042	90.11
183.262	-57.34
183.482	57.34
183.701	98.3
183.921	49.15
184.141	28.67
184.361	106.49
184.58	-36.86
184.8	61.44
185.02	102.4
185.239	45.06
185.459	61.44
185.679	59.39
185.898	40.96
186.118	88.06
186.338	-6.14
186.557	53.25
186.777	2.05
186.997	0
187.216	65.54
187.436	118.78
187.655	98.3
187.875	49.15
188.095	77.82
188.314	75.77
188.534	110.59
188.753	28.67
188.973	75.77
189.192	81.92
189.412	75.77
189.631	-6.14
189.851	26.62
190.07	118.78
190.29	40.96
190.509	6.14
190.729	-53.25
190.948	53.25
191.168	215.04
191.387	112.64
191.607	8.19
191.826	-12.29
192.045	16.38
192.265	32.77
192.484	36.86
192.704	32.77
192.923	63.49
193.142	135.17
193.362	104.45
193.581	32.77
193.8	67.58
194.02	36.86
194.239	24.58
194.458	-36.86
194.678	100.35
194.897	22.53
195.116	36.86
195.335	75.77
195.555	79.87
195.774	69.63
195.993	32.77
196.212	57.34
196.432	32.77
196.651	34.82
196.87	26.62
197.089	98.3
197.308	40.96
197.528	26.62
197.747	-43.01
197.966	10.24
198.185	51.2
198.404	36.86
198.623	81.92
198.842	40.96
199.062	-2.05
199.281	83.97
199.5	-16.38
199.719	40.96
199.938	81.92
200.157	34.82
200.376	94.21
200.595	102.4
200.814	73.73
201.033	16.38
201.252	65.54
201.471	16.38
201.69	63.49
201.909	32.77
202.128	8.19
202.347	34.82
202.566	-14.34
202.785	16.38
203.004	-20.48
203.223	81.92
203.442	26.62
203.661	77.82
203.879	90.11
204.098	106.49
204.317	-2.05
204.536	118.78
204.755	51.2
204.974	-12.29
205.193	32.77
205.411	137.21
205.63	16.38
205.849	86.01
206.068	40.96
206.287	69.63
206.505	51.2
206.724	-4.1
206.943	16.38
207.162	34.82
207.381	24.58
207.599	36.86
207.818	53.25
208.037	-20.48
208.255	0
208.474	8.19
208.693	65.54
208.911	30.72
209.13	8.19
209.349	57.34
209.567	26.62
209.786	90.11
210.005	40.96
210.223	-8.19
210.442	40.96
210.661	49.15
210.879	94.21
211.098	0
211.316	36.86
211.535	122.88
211.753	-30.72
211.972	88.06
212.191	10.24
212.409	67.58
212.628	77.82
212.846	57.34
213.065	32.77
213.283	108.54
213.502	6.14
213.72	-16.38
213.938	32.77
214.157	69.63
214.375	57.34
214.594	-8.19
214.812	71.68
215.031	100.35
215.249	69.63
215.467	8.19
215.686	24.58
215.904	139.26
216.122	57.34
216.341	139.26
216.559	94.21
216.778	32.77
216.996	92.16
217.214	-6.14
217.432	53.25
217.651	32.77
217.869	71.68
218.087	124.93
218.306	-24.58
218.524	36.86
218.742	34.82
218.96	65.54
219.179	65.54
219.397	16.38
219.615	59.39
219.833	-8.19
220.051	67.58
220.27	67.58
220.488	194.56
220.706	139.26
220.924	-22.53
221.142	43.01
221.36	65.54
221.578	90.11
221.796	0
222.015	71.68
222.233	83.97
222.451	51.2
222.669	16.38
222.887	83.97
223.105	53.25
223.323	45.06
223.541	12.29
223.759	57.34
223.977	18.43
224.195	94.21
224.413	26.62
224.631	98.3
224.849	30.72
225.067	122.88
225.285	43.01
225.503	106.49
225.721	0
225.939	-16.38
226.157	4.1
226.375	67.58
226.592	36.86
226.81	20.48
227.028	36.86
227.246	83.97
227.464	4.1
227.682	26.62
227.9	34.82
228.117	24.58
228.335	-38.91
228.553	32.77
228.771	43.01
228.989	86.01
229.206	75.77
229.424	22.53
229.642	-28.67
229.86	83.97
230.077	90.11
230.295	45.06
230.513	63.49
230.731	16.38
230.948	92.16
231.166	92.16
231.384	43.01
231.601	20.48
231.819	124.93
232.037	61.44
232.254	32.77
232.472	26.62
232.689	57.34
232.907	81.92
233.125	102.4
233.342	-4.1
233.56	73.73
233.777	32.77
233.995	49.15
234.213	151.55
234.43	49.15
234.648	32.77
234.865	100.35
235.083	2.05
235.3	-57.34
235.518	34.82
235.735	92.16
235.953	57.34
236.17	6.14
236.388	-10.24
236.605	83.97
236.822	65.54
237.04	43.01
237.257	92.16
237.475	28.67
237.692	67.58
237.909	20.48
238.127	73.73
238.344	49.15
238.562	2.05
238.779	4.1
238.996	-40.96
239.214	57.34
239.431	157.69
239.648	0
239.865	90.11
240.083	100.35
240.3	83.97
240.517	51.2
240.735	102.4
240.952	49.15
241.169	16.38
241.386	75.77
241.603	40.96
241.821	24.58
242.038	57.34
242.255	-4.1
242.472	28.67
242.689	77.82
242.907	45.06
243.124	32.77
243.341	65.54
243.558	32.77
243.775	10.24
243.992	-14.34
244.209	104.45
244.426	92.16
244.643	38.91
244.86	-8.19
245.078	73.73
245.295	106.49
245.512	45.06
245.729	-38.91
245.946	40.96
246.163	10.24
246.38	83.97
246.597	20.48
246.814	24.58
247.031	24.58
247.248	8.19
247.464	18.43
247.681	-22.53
247.898	6.14
248.115	65.54
248.332	-26.62
248.549	71.68
248.766	94.21
248.983	67.58
249.2	57.34
249.417	40.96
249.633	-65.53
249.85	81.92
250.067	10.24
250.284	81.92
250.501	45.06
250.717	40.96
250.934	-18.43
251.151	61.44
251.368	-88.06
251.585	90.11
251.801	63.49
252.018	4.1
252.235	73.73
252.451	8.19
252.668	71.68
252.885	10.24
253.102	57.34
253.318	24.58
253.535	6.14
253.752	-38.91
253.968	28.67
254.185	32.77
254.401	26.62
254.618	67.58
254.835	65.54
255.051	51.2
255.268	20.48
255.484	90.11
255.701	20.48
255.917	8.19
256.134	40.96
256.351	79.87
256.567	-24.58
256.784	34.82
257	20.48
257.217	51.2
257.433	67.58
257.65	40.96
257.866	133.12
258.082	-8.19
258.299	18.43
258.515	61.44
258.732	65.54
258.948	-12.29
259.165	75.77
259.381	-43.01
259.597	18.43
259.814	-14.34
260.03	-14.34
260.246	43.01
260.463	34.82
260.679	94.21
260.895	-8.19
261.112	16.38
261.328	40.96
261.544	22.53
261.761	157.69
261.977	124.93
262.193	-6.14
262.409	57.34
262.626	59.39
262.842	-32.77
263.058	16.38
263.274	108.54
263.49	49.15
263.707	110.59
263.923	51.2
264.139	36.86
264.355	28.67
264.571	81.92
264.787	53.25
265.004	106.49
265.22	36.86
265.436	8.19
265.652	26.62
265.868	83.97
266.084	16.38
266.3	14.34
266.516	0
266.732	57.34
266.948	49.15
267.164	24.58
267.38	20.48
267.596	106.49
267.812	131.07
268.028	59.39
268.244	-51.2
268.46	116.73
268.676	45.06
268.892	-16.38
269.108	88.06
269.324	8.19
269.54	-14.34
269.756	90.11
269.972	-32.77
270.188	8.19
270.403	24.58
270.619	114.69
270.835	118.78
271.051	34.82
271.267	20.48
271.483	-6.14
271.698	32.77
271.914	77.82
272.13	-36.86
272.346	-8.19
272.562	53.25
272.777	73.73
272.993	63.49
273.209	67.58
273.425	38.91
273.64	77.82
273.856	83.97
274.072	24.58
274.287	16.38
274.503	100.35
274.719	53.25
274.934	24.58
275.15	75.77
275.366	45.06
275.581	10.24
275.797	73.73
276.012	8.19
276.228	-20.48
276.444	73.73
276.659	106.49
276.875	-10.24
277.09	-8.19
277.306	71.68
277.521	-14.34
277.737	-8.19
277.952	61.44
278.168	49.15
278.383	-8.19
278.599	110.59
278.814	57.34
279.03	-18.43
279.245	114.69
279.461	47.1
279.676	114.69
279.892	-22.53
280.107	-16.38
280.322	32.77
280.538	12.29
280.753	-12.29
280.969	120.83
281.184	92.16
281.399	73.73
281.615	94.21
281.83	83.97
282.045	55.3
282.26	49.15
282.476	-12.29
282.691	43.01
282.906	43.01
283.122	-20.48
283.337	-28.67
283.552	100.35
283.767	20.48
283.983	43.01
284.198	53.25
284.413	112.64
284.628	100.35
284.843	59.39
285.058	90.11
285.274	61.44
285.489	45.06
285.704	94.21
285.919	73.73
286.134	45.06
286.349	-20.48
286.564	43.01
286.779	14.34
286.995	26.62
287.21	36.86
287.425	88.06
287.64	-40.96
287.855	28.67
288.07	-36.86
288.285	71.68
288.5	81.92
288.715	26.62
288.93	47.1
289.145	0
289.36	67.58
289.575	51.2
289.79	18.43
290.004	-43.01
290.219	4.1
290.434	40.96
290.649	-20.48
290.864	75.77
291.079	34.82
291.294	49.15
291.509	0
291.724	116.73
291.938	98.3
292.153	59.39
292.368	43.01
292.583	79.87
292.798	65.54
293.012	40.96
293.227	51.2
293.442	-8.19
293.657	67.58
293.871	81.92
294.086	26.62
294.301	67.58
294.516	40.96
294.73	57.34
294.945	16.38
295.16	63.49
295.374	100.35
295.589	51.2
295.804	8.19
296.018	81.92
296.233	67.58
296.447	83.97
296.662	-24.58
296.877	69.63
297.091	49.15
297.306	106.49
297.52	30.72
297.735	49.15
297.949	24.58
298.164	75.77
298.378	75.77
298.593	4.1
298.807	2.05
299.022	-24.58
299.236	77.82
299.451	12.29
299.665	0
299.88	-40.96
300.094	-14.34
300.309	90.11
300.523	133.12
300.737	24.58
300.952	53.25
301.166	-14.34
301.381	75.77
301.595	-8.19
301.809	4.1
302.024	36.86
302.238	38.91
302.452	94.21
302.667	38.91
302.881	114.69
303.095	114.69
303.309	49.15
303.524	40.96
303.738	77.82
303.952	-6.14
304.166	71.68
304.381	49.15
304.595	4.1
304.809	79.87
305.023	34.82
305.237	43.01
305.452	-8.19
305.666	114.69
305.88	77.82
306.094	90.11
306.308	65.54
306.522	106.49
306.736	24.58
306.95	114.69
307.164	73.73
307.379	8.19
307.593	96.25
307.807	114.69
308.021	51.2
308.235	43.01
308.449	81.92
308.663	40.96
308.877	112.64
309.091	10.24
309.305	-22.53
309.519	-12.29
309.733	114.69
309.947	26.62
310.161	49.15
310.374	2.05
310.588	40.96
310.802	-36.86
311.016	45.06
311.23	22.53
311.444	151.55
311.658	63.49
311.872	98.3
312.085	26.62
312.299	81.92
312.513	65.54
312.727	36.86
312.941	14.34
313.154	73.73
313.368	73.73
313.582	2.05
313.796	57.34
314.009	49.15
314.223	108.54
314.437	47.1
314.651	151.55
314.864	22.53
315.078	92.16
315.292	6.14
315.505	28.67
315.719	118.78
315.933	-14.34
316.146	108.54
316.36	73.73
316.573	16.38
316.787	47.1
317.001	-30.72
317.214	24.58
317.428	32.77
317.641	2.05
317.855	-8.19
318.068	69.63
318.282	34.82
318.495	139.26
318.709	57.34
318.922	63.49
319.136	96.25
319.349	104.45
319.563	28.67
319.776	40.96
319.99	-40.96
320.203	133.12
320.417	77.82
320.63	57.34
320.843	34.82
321.057	53.25
321.27	81.92
321.483	63.49
321.697	77.82
321.91	100.35
322.124	45.06
322.337	77.82
322.55	83.97
322.763	65.54
322.977	65.54
323.19	4.1
323.403	40.96
323.617	65.54
323.83	-14.34
324.043	57.34
324.256	61.44
324.469	-4.1
324.683	45.06
324.896	65.54
325.109	65.54
325.322	-40.96
325.535	169.98
325.748	86.01
325.962	57.34
326.175	69.63
326.388	90.11
326.601	51.2
326.814	8.19
327.027	-30.72
327.24	110.59
327.453	8.19
327.666	139.26
327.879	118.78
328.092	32.77
328.305	45.06
328.518	28.67
328.731	114.69
328.944	49.15
329.157	90.11
329.37	40.96
329.583	90.11
329.796	28.67
330.009	26.62
330.222	100.35
330.435	69.63
330.648	114.69
330.861	18.43
331.073	43.01
331.286	43.01
331.499	40.96
331.712	53.25
331.925	-38.91
332.138	4.1
332.35	108.54
332.563	57.34
332.776	51.2
332.989	106.49
333.202	90.11
333.414	47.1
333.627	67.58
333.84	61.44
334.053	57.34
334.265	69.63
334.478	40.96
334.691	83.97
334.903	45.06
335.116	-6.14
335.329	16.38
335.541	20.48
335.754	141.31
335.966	24.58
336.179	38.91
336.392	32.77
336.604	57.34
336.817	24.58
337.029	57.34
337.242	10.24
337.454	67.58
337.667	57.34
337.88	65.54
338.092	77.82
338.305	141.31
338.517	2.05
338.729	110.59
338.942	116.73
339.154	8.19
339.367	57.34
339.579	73.73
339.792	75.77
340.004	83.97
340.217	-8.19
340.429	83.97
340.641	90.11
340.854	0
341.066	53.25
341.278	71.68
341.491	157.69
341.703	57.34
341.915	40.96
342.128	75.77
342.34	92.16
342.552	81.92
342.764	-6.14
342.977	-6.14
343.189	43.01
343.401	102.4
343.613	-40.96
343.826	149.5
344.038	90.11
344.25	22.53
344.462	2.05
344.674	-30.72
344.886	-67.58
345.099	75.77
345.311	40.96
345.523	45.06
345.735	18.43
345.947	77.82
346.159	30.72
346.371	75.77
346.583	-30.72
346.795	92.16
347.007	2.05
347.219	65.54
347.431	32.77
347.643	45.06
347.855	24.58
348.067	100.35
348.279	16.38
348.491	20.48
348.703	81.92
348.915	57.34
349.127	57.34
349.339	30.72
349.551	59.39
349.763	61.44
349.975	34.82
350.187	32.77
350.399	102.4
350.61	20.48
350.822	57.34
351.034	79.87
351.246	122.88
351.458	131.07
351.669	-16.38
351.881	139.26
352.093	4.1
352.305	8.19
352.517	57.34
352.728	122.88
352.94	73.73
353.152	69.63
353.363	-14.34
353.575	106.49
353.787	24.58
353.999	28.67
354.21	83.97
354.422	32.77
354.633	49.15
354.845	174.08
355.057	-8.19
355.268	135.17
355.48	61.44
355.692	0
355.903	114.69
356.115	73.73
356.326	8.19
356.538	86.01
356.749	24.58
356.961	75.77
357.172	26.62
357.384	55.3
357.595	149.5
357.807	90.11
358.018	81.92
358.23	40.96
358.441	106.49
358.653	-38.91
358.864	51.2
359.075	-38.91
359.287	43.01
359.498	67.58
359.709	-16.38
359.921	16.38
360.132	73.73
360.344	49.15
360.555	57.34
360.766	45.06
360.977	18.43
361.189	110.59
361.4	-4.1
361.611	83.97
361.823	61.44
362.034	38.91
362.245	77.82
362.456	155.65
362.667	81.92
362.879	53.25
363.09	73.73
363.301	34.82
363.512	0
363.723	8.19
363.935	100.35
364.146	106.49
364.357	61.44
364.568	34.82
364.779	-14.34
364.99	81.92
365.201	51.2
365.412	122.88
365.623	-12.29
365.834	45.06
366.045	59.39
366.256	122.88
366.467	43.01
366.678	43.01
366.889	49.15
367.1	18.43
367.311	106.49
367.522	-40.96
367.733	81.92
367.944	100.35
368.155	67.58
368.366	45.06
368.577	114.69
368.788	108.54
368.999	32.77
369.209	14.34
369.42	131.07
369.631	96.25
369.842	126.97
370.053	40.96
370.264	102.4
370.474	0
370.685	98.3
370.896	88.06
371.107	38.91
371.317	28.67
371.528	0
371.739	83.97
371.95	67.58
372.16	88.06
372.371	26.62
372.582	157.69
372.792	43.01
373.003	116.73
373.214	20.48
373.424	57.34
373.635	16.38
373.846	204.8
374.056	43.01
374.267	65.54
374.477	69.63
374.688	90.11
374.898	45.06
375.109	96.25
375.319	86.01
375.53	34.82
375.74	90.11
375.951	73.73
376.161	98.3
376.372	94.21
376.582	40.96
376.793	112.64
377.003	65.54
377.214	-6.14
377.424	38.91
377.635	34.82
377.845	63.49
378.055	77.82
378.266	49.15
378.476	8.19
378.686	67.58
378.897	69.63
379.107	73.73
379.317	114.69
379.528	90.11
379.738	118.78
379.948	-12.29
380.158	81.92
380.369	65.54
380.579	108.54
380.789	73.73
380.999	57.34
381.21	71.68
381.42	174.08
381.63	131.07
381.84	57.34
382.05	83.97
382.261	57.34
382.471	90.11
382.681	90.11
382.891	79.87
383.101	98.3
383.311	51.2
383.521	83.97
383.731	81.92
383.941	49.15
384.151	75.77
384.361	81.92
384.571	51.2
384.781	69.63
384.991	75.77
385.201	165.89
385.411	90.11
385.621	51.2
385.831	110.59
386.041	116.73
386.251	65.54
386.461	73.73
386.671	38.91
386.881	65.54
387.091	32.77
387.301	40.96
387.511	2.05
387.72	88.06
387.93	75.77
388.14	94.21
388.35	118.78
388.56	90.11
388.769	49.15
388.979	65.54
389.189	57.34
389.399	34.82
389.609	51.2
389.818	122.88
390.028	73.73
390.238	8.19
390.447	92.16
390.657	163.84
390.867	69.63
391.076	49.15
391.286	81.92
391.496	73.73
391.705	45.06
391.915	163.84
392.125	73.73
392.334	75.77
392.544	149.5
392.753	100.35
392.963	137.21
393.172	47.1
393.382	114.69
393.591	174.08
393.801	65.54
394.01	69.63
394.22	151.55
394.429	106.49
394.639	43.01
394.848	73.73
395.058	102.4
395.267	129.02
395.477	122.88
395.686	94.21
395.895	137.21
396.105	174.08
396.314	88.06
396.524	110.59
396.733	118.78
396.942	180.22
397.152	124.93
397.361	163.84
397.57	57.34
397.78	120.83
397.989	174.08
398.198	237.56
398.407	143.36
398.617	53.25
398.826	92.16
399.035	174.08
399.244	90.11
399.453	155.65
399.663	118.78
399.872	143.36
400.081	83.97
400.29	155.65
400.499	102.4
400.708	151.55
400.917	126.97
401.127	79.87
401.336	86.01
401.545	223.23
401.754	110.59
401.963	149.5
402.172	126.97
402.381	77.82
402.59	163.84
402.799	126.97
403.008	155.65
403.217	198.65
403.426	172.03
403.635	180.22
403.844	147.45
404.053	184.32
404.262	110.59
404.471	122.88
404.68	145.41
404.888	186.37
405.097	135.17
405.306	200.7
405.515	212.99
405.724	131.07
405.933	227.32
406.142	196.61
406.35	249.85
406.559	204.8
406.768	229.37
406.977	247.8
407.185	294.91
407.394	188.41
407.603	182.27
407.812	190.46
408.02	262.14
408.229	256
408.438	258.04
408.646	204.8
408.855	256
409.064	204.8
409.272	253.95
409.481	319.48
409.69	313.34
409.898	335.87
410.107	368.63
410.315	331.77
410.524	307.2
410.733	350.2
410.941	329.72
411.15	419.83
411.358	471.03
411.567	559.1
411.775	372.73
411.984	434.17
412.192	477.18
412.401	507.9
412.609	583.67
412.818	542.71
413.026	530.42
413.234	606.2
413.443	575.48
413.651	499.7
413.86	561.14
414.068	688.12
414.276	671.73
414.485	679.93
414.693	733.17
414.901	796.66
415.11	724.98
415.318	751.6
415.526	774.13
415.734	901.11
415.943	870.39
416.151	851.96
416.359	802.8
416.567	856.05
416.776	1007.6
416.984	1040.37
417.192	1015.79
417.4	1066.99
417.608	1120.24
417.817	1007.6
418.025	1255.4
418.233	1279.98
418.441	1191.92
418.649	1204.21
418.857	1378.28
419.065	1359.85
419.273	1355.76
419.481	1433.58
419.689	1560.55
419.897	1535.98
420.105	1687.53
420.313	1726.44
420.521	1837.03
420.729	1787.88
420.937	1810.4
421.145	1785.83
421.353	2015.2
421.561	2146.27
421.769	2146.27
421.977	2285.53
422.185	2220
422.393	2375.64
422.601	2312.16
422.809	2426.84
423.017	2490.33
423.224	2557.91
423.432	2707.41
423.64	2828.24
423.848	2869.2
424.056	2746.33
424.263	3010.51
424.471	3024.85
424.679	3192.78
424.887	3170.26
425.094	3274.7
425.302	3350.48
425.51	3481.55
425.718	3706.82
425.925	3753.93
426.133	3731.4
426.341	3964.87
426.548	4140.99
426.756	4147.14
426.964	4095.94
427.171	4399.04
427.379	4458.43
427.586	4681.66
427.794	4605.88
428.001	4966.32
428.209	5099.44
428.417	4900.79
428.624	5605.29
428.832	5476.27
429.039	5431.21
429.247	5416.88
429.454	5953.45
429.662	6399.9
429.869	6059.94
430.076	6418.33
430.284	6004.64
430.491	6459.29
430.699	6731.67
430.906	6676.38
431.114	6829.98
431.321	7151.51
431.528	7217.04
431.736	7751.56
431.943	8040.33
432.15	7718.79
432.358	7866.25
432.565	8253.31
432.772	8136.58
432.979	8679.29
433.187	8836.99
433.394	8638.33
433.601	9617.26
433.808	9416.56
434.016	9478
434.223	9879.4
434.43	10510.18
434.637	10379.11
434.844	11052.89
435.052	10956.63
435.259	11040.6
435.466	11081.56
435.673	10960.73
435.88	11657.04
436.087	12222.28
436.294	12175.17
436.501	11953.99
436.708	12285.76
436.915	12740.41
437.122	13217.59
437.329	13098.81
437.537	13696.81
437.743	13737.77
437.95	13559.6
438.157	14354.21
438.364	14774.05
438.571	14921.5
438.778	14997.28
438.985	16187.14
439.192	15589.14
439.399	16283.4
439.606	15744.78
439.813	16756.48
440.02	17467.13
440.227	17297.14
440.433	17264.38
440.64	17729.27
440.847	17491.7
441.054	18116.33
441.261	19185.37
441.467	18806.5
441.674	19416.79
441.881	20002.51
442.088	19746.51
442.294	20047.57
442.501	20246.22
442.708	20797.12
442.914	21399.23
443.121	22050.48
443.328	21620.41
443.534	23344.8
443.741	22894.24
443.948	22374.06
444.154	23846.55
444.361	23850.64
444.568	24231.57
444.774	23948.95
444.981	24176.27
445.187	24872.58
445.394	26095.22
445.6	25589.37
445.807	28048.98
446.013	26824.29
446.22	27412.06
446.426	28552.78
446.633	28597.84
446.839	29470.27
447.046	28276.3
447.252	30015.03
447.459	30021.17
447.665	29697.59
447.871	31434.27
448.078	32640.53
448.284	31225.38
448.491	31766.04
448.697	32988.68
448.903	33560.06
449.11	33791.48
449.316	33334.79
449.522	33682.94
449.728	34674.16
449.935	34706.93
450.141	34678.25
450.347	35712.48
450.553	34498.03
450.76	35059.18
450.966	36077.02
451.172	35941.85
451.378	36492.76
451.584	36050.39
451.791	36730.32
451.997	36703.7
452.203	37152.2
452.409	37373.38
452.615	36859.34
452.821	35788.25
453.027	35081.7
453.233	37367.24
453.44	35296.74
453.646	35972.57
453.852	35902.94
454.058	36615.63
454.264	35536.35
454.47	36171.22
454.676	35378.66
454.882	36679.12
455.088	33476.1
455.294	33887.74
455.5	34305.52
455.705	34665.97
455.911	33000.97
456.117	32722.44
456.323	31966.74
456.529	30586.41
456.735	31731.23
456.941	30721.58
457.147	30484.01
457.352	29304.38
457.558	29060.68
457.764	29226.56
457.97	28704.33
458.176	28323.41
458.381	28036.69
458.587	26719.85
458.793	26664.55
458.999	25190.02
459.204	26986.08
459.41	26300.01
459.616	24743.56
459.821	24620.68
460.027	24493.71
460.233	23547.54
460.438	22851.24
460.644	22855.33
460.85	21823.15
461.055	21384.89
461.261	21563.06
461.466	19896.02
461.672	19214.04
461.878	20543.17
462.083	19011.29
462.289	18628.32
462.494	18648.8
462.7	17755.89
462.905	17329.91
463.111	17735.41
463.316	17905.39
463.522	17700.59
463.727	17624.82
463.932	17596.15
464.138	17280.76
464.343	17344.25
464.549	16748.29
464.754	17587.96
464.959	17118.97
465.165	17168.12
465.37	16262.92
465.575	15763.22
465.781	16350.98
465.986	16549.64
466.191	15986.44
466.397	15640.34
466.602	14763.81
466.807	15582.99
467.012	15535.89
467.218	15357.72
