Data from USB4F104151__194__14-33-06-554.txt Node

Date: Thu Mar 13 14:33:06 EDT 2025
User: louis
Spectrometer: USB4F10415
Trigger mode: 4
Integration Time (sec): 2.500000E-2
Scans to average: 1
Electric dark correction enabled: true
Nonlinearity correction enabled: false
Boxcar width: 0
XAxis mode: Wavelengths
Number of Pixels in Spectrum: 3648
>>>>>Begin Spectral Data<<<<<
178.204	-142.5
178.424	-142.5
178.644	-142.5
178.864	-152.74
179.084	-136.36
179.304	21.33
179.524	-44.2
179.744	7
179.964	43.86
180.184	-54.44
180.404	-27.82
180.624	43.86
180.844	80.72
181.064	-60.59
181.283	23.38
181.503	-1.19
181.723	-31.91
181.943	-79.02
182.163	43.86
182.383	-15.53
182.602	97.11
182.822	27.48
183.042	-1.19
183.262	19.29
183.482	45.91
183.701	-9.39
183.921	-56.49
184.141	-36.01
184.361	21.33
184.58	-29.87
184.8	58.2
185.02	2.9
185.239	68.44
185.459	-38.06
185.679	39.76
185.898	19.29
186.118	-27.82
186.338	7
186.557	56.15
186.777	19.29
186.997	68.44
187.216	70.48
187.436	19.29
187.655	11.09
187.875	54.1
188.095	7
188.314	174.93
188.534	7
188.753	-21.67
188.973	-1.19
189.192	4.95
189.412	84.82
189.631	97.11
189.851	84.82
190.07	133.97
190.29	31.57
190.509	-17.58
190.729	50
190.948	9.05
191.168	72.53
191.387	136.02
191.607	60.24
191.826	62.29
192.045	-13.48
192.265	-5.29
192.484	35.67
192.704	21.33
192.923	43.86
193.142	101.2
193.362	29.52
193.581	15.19
193.8	-9.39
194.02	-3.24
194.239	-33.96
194.458	4.95
194.678	-1.19
194.897	29.52
195.116	50
195.335	13.14
195.555	99.16
195.774	11.09
195.993	29.52
196.212	19.29
196.432	-81.07
196.651	-1.19
196.87	13.14
197.089	60.24
197.308	43.86
197.528	90.96
197.747	11.09
197.966	27.48
198.185	84.82
198.404	-44.2
198.623	-13.48
198.842	-19.63
199.062	2.9
199.281	64.34
199.5	31.57
199.719	101.2
199.938	2.9
200.157	37.72
200.376	23.38
200.595	54.1
200.814	113.49
201.033	2.9
201.252	90.96
201.471	13.14
201.69	56.15
201.909	43.86
202.128	27.48
202.347	86.87
202.566	-5.29
202.785	-50.35
203.004	43.86
203.223	84.82
203.442	35.67
203.661	86.87
203.879	56.15
204.098	-74.92
204.317	52.05
204.536	52.05
204.755	-50.35
204.974	37.72
205.193	-1.19
205.411	-5.29
205.63	-11.43
205.849	-58.54
206.068	52.05
206.287	19.29
206.505	60.24
206.724	-21.67
206.943	35.67
207.162	27.48
207.381	39.76
207.599	19.29
207.818	31.57
208.037	43.86
208.255	27.48
208.474	68.44
208.693	37.72
208.911	-21.67
209.13	-7.34
209.349	19.29
209.567	35.67
209.786	27.48
210.005	-46.25
210.223	-36.01
210.442	-31.91
210.661	27.48
210.879	-21.67
211.098	37.72
211.316	-9.39
211.535	160.59
211.753	-13.48
211.972	-21.67
212.191	54.1
212.409	45.91
212.628	64.34
212.846	-52.39
213.065	103.25
213.283	72.53
213.502	43.86
213.72	72.53
213.938	35.67
214.157	62.29
214.375	-36.01
214.594	52.05
214.812	115.54
215.031	70.48
215.249	68.44
215.467	29.52
215.686	13.14
215.904	43.86
216.122	-17.58
216.341	107.35
216.559	-7.34
216.778	-17.58
216.996	35.67
217.214	-1.19
217.432	-5.29
217.651	9.05
217.869	-15.53
218.087	76.63
218.306	-9.39
218.524	4.95
218.742	25.43
218.96	-38.06
219.179	15.19
219.397	78.68
219.615	123.73
219.833	88.92
220.051	95.06
220.27	93.01
220.488	70.48
220.706	9.05
220.924	45.91
221.142	78.68
221.36	-1.19
221.578	109.4
221.796	-3.24
222.015	62.29
222.233	60.24
222.451	95.06
222.669	41.81
222.887	37.72
223.105	17.24
223.323	23.38
223.541	-33.96
223.759	17.24
223.977	-3.24
224.195	25.43
224.413	-21.67
224.631	11.09
224.849	0.85
225.067	43.86
225.285	4.95
225.503	15.19
225.721	-9.39
225.939	31.57
226.157	70.48
226.375	138.07
226.592	19.29
226.81	27.48
227.028	-17.58
227.246	121.68
227.464	31.57
227.682	62.29
227.9	43.86
228.117	7
228.335	15.19
228.553	50
228.771	37.72
228.989	76.63
229.206	93.01
229.424	0.85
229.642	-3.24
229.86	-44.2
230.077	-13.48
230.295	-3.24
230.513	-13.48
230.731	76.63
230.948	105.3
231.166	19.29
231.384	-58.54
231.601	35.67
231.819	62.29
232.037	15.19
232.254	15.19
232.472	11.09
232.689	7
232.907	-13.48
233.125	13.14
233.342	-1.19
233.56	13.14
233.777	-21.67
233.995	72.53
234.213	52.05
234.43	76.63
234.648	90.96
234.865	0.85
235.083	72.53
235.3	95.06
235.518	37.72
235.735	56.15
235.953	35.67
236.17	47.96
236.388	35.67
236.605	41.81
236.822	152.4
237.04	35.67
237.257	15.19
237.475	29.52
237.692	-29.87
237.909	-5.29
238.127	13.14
238.344	31.57
238.562	15.19
238.779	-36.01
238.996	-46.25
239.214	13.14
239.431	52.05
239.648	-44.2
239.865	19.29
240.083	64.34
240.3	52.05
240.517	-13.48
240.735	-42.15
240.952	54.1
241.169	19.29
241.386	15.19
241.603	19.29
241.821	19.29
242.038	50
242.255	-38.06
242.472	13.14
242.689	9.05
242.907	52.05
243.124	-27.82
243.341	43.86
243.558	-60.59
243.775	27.48
243.992	-70.83
244.209	-25.77
244.426	60.24
244.643	52.05
244.86	-5.29
245.078	35.67
245.295	-42.15
245.512	-58.54
245.729	74.58
245.946	4.95
246.163	56.15
246.38	15.19
246.597	60.24
246.814	-13.48
247.031	15.19
247.248	47.96
247.464	21.33
247.681	-83.11
247.898	31.57
248.115	37.72
248.332	-29.87
248.549	-25.77
248.766	52.05
248.983	109.4
249.2	21.33
249.417	43.86
249.633	88.92
249.85	-11.43
250.067	-9.39
250.284	-9.39
250.501	-1.19
250.717	27.48
250.934	0.85
251.151	23.38
251.368	-52.39
251.585	72.53
251.801	11.09
252.018	52.05
252.235	2.9
252.451	-25.77
252.668	-50.35
252.885	84.82
253.102	64.34
253.318	4.95
253.535	-36.01
253.752	19.29
253.968	27.48
254.185	-11.43
254.401	-3.24
254.618	11.09
254.835	11.09
255.051	80.72
255.268	-76.97
255.484	23.38
255.701	-111.78
255.917	27.48
256.134	13.14
256.351	11.09
256.567	19.29
256.784	31.57
257	4.95
257.217	11.09
257.433	45.91
257.65	39.76
257.866	50
258.082	17.24
258.299	13.14
258.515	13.14
258.732	60.24
258.948	-5.29
259.165	15.19
259.381	-19.63
259.597	-5.29
259.814	-27.82
260.03	-29.87
260.246	-27.82
260.463	80.72
260.679	58.2
260.895	-19.63
261.112	-23.72
261.328	9.05
261.544	-11.43
261.761	111.44
261.977	68.44
262.193	21.33
262.409	62.29
262.626	54.1
262.842	-11.43
263.058	37.72
263.274	84.82
263.49	23.38
263.707	133.97
263.923	37.72
264.139	-7.34
264.355	84.82
264.571	13.14
264.787	0.85
265.004	11.09
265.22	-21.67
265.436	76.63
265.652	43.86
265.868	37.72
266.084	-42.15
266.3	-48.3
266.516	-27.82
266.732	56.15
266.948	76.63
267.164	2.9
267.38	-76.97
267.596	58.2
267.812	76.63
268.028	35.67
268.244	2.9
268.46	2.9
268.676	70.48
268.892	64.34
269.108	47.96
269.324	13.14
269.54	25.43
269.756	72.53
269.972	-3.24
270.188	25.43
270.403	25.43
270.619	-68.78
270.835	21.33
271.051	105.3
271.267	41.81
271.483	37.72
271.698	-25.77
271.914	-40.11
272.13	13.14
272.346	-1.19
272.562	27.48
272.777	82.77
272.993	11.09
273.209	41.81
273.425	76.63
273.64	-13.48
273.856	52.05
274.072	2.9
274.287	74.58
274.503	29.52
274.719	54.1
274.934	70.48
275.15	-11.43
275.366	-11.43
275.581	27.48
275.797	64.34
276.012	-62.63
276.228	13.14
276.444	27.48
276.659	93.01
276.875	15.19
277.09	35.67
277.306	29.52
277.521	47.96
277.737	27.48
277.952	-19.63
278.168	19.29
278.383	19.29
278.599	45.91
278.814	13.14
279.03	97.11
279.245	23.38
279.461	35.67
279.676	70.48
279.892	27.48
280.107	37.72
280.322	-60.59
280.538	68.44
280.753	-11.43
280.969	93.01
281.184	74.58
281.399	2.9
281.615	35.67
281.83	35.67
282.045	-11.43
282.26	2.9
282.476	-1.19
282.691	43.86
282.906	52.05
283.122	60.24
283.337	-31.91
283.552	64.34
283.767	-13.48
283.983	4.95
284.198	60.24
284.413	68.44
284.628	2.9
284.843	-48.3
285.058	11.09
285.274	2.9
285.489	4.95
285.704	99.16
285.919	17.24
286.134	45.91
286.349	-11.43
286.564	-3.24
286.779	17.24
286.995	29.52
287.21	-13.48
287.425	17.24
287.64	-54.44
287.855	47.96
288.07	2.9
288.285	45.91
288.5	-25.77
288.715	47.96
288.93	-1.19
289.145	-52.39
289.36	-33.96
289.575	72.53
289.79	0.85
290.004	-38.06
290.219	84.82
290.434	-44.2
290.649	-13.48
290.864	41.81
291.079	0.85
291.294	19.29
291.509	62.29
291.724	4.95
291.938	-38.06
292.153	60.24
292.368	-9.39
292.583	64.34
292.798	-17.58
293.012	52.05
293.227	72.53
293.442	13.14
293.657	64.34
293.871	39.76
294.086	23.38
294.301	29.52
294.516	60.24
294.73	35.67
294.945	13.14
295.16	45.91
295.374	29.52
295.589	11.09
295.804	19.29
296.018	47.96
296.233	78.68
296.447	19.29
296.662	39.76
296.877	-3.24
297.091	43.86
297.306	31.57
297.52	11.09
297.735	-33.96
297.949	-5.29
298.164	84.82
298.378	4.95
298.593	-76.97
298.807	56.15
299.022	121.68
299.236	35.67
299.451	31.57
299.665	19.29
299.88	-17.58
300.094	-11.43
300.309	43.86
300.523	11.09
300.737	52.05
300.952	35.67
301.166	-23.72
301.381	-27.82
301.595	60.24
301.809	60.24
302.024	29.52
302.238	-70.83
302.452	41.81
302.667	21.33
302.881	31.57
303.095	23.38
303.309	84.82
303.524	-38.06
303.738	39.76
303.952	-5.29
304.166	60.24
304.381	4.95
304.595	60.24
304.809	101.2
305.023	68.44
305.237	-25.77
305.452	84.82
305.666	-13.48
305.88	50
306.094	60.24
306.308	119.64
306.522	125.78
306.736	39.76
306.95	-9.39
307.164	64.34
307.379	117.59
307.593	93.01
307.807	33.62
308.021	29.52
308.235	7
308.449	-62.63
308.663	52.05
308.877	127.83
309.091	41.81
309.305	76.63
309.519	-70.83
309.733	125.78
309.947	-54.44
310.161	68.44
310.374	60.24
310.588	152.4
310.802	-60.59
311.016	4.95
311.23	68.44
311.444	37.72
311.658	129.88
311.872	29.52
312.085	84.82
312.299	37.72
312.513	-13.48
312.727	56.15
312.941	-5.29
313.154	50
313.368	15.19
313.582	21.33
313.796	17.24
314.009	-17.58
314.223	66.39
314.437	9.05
314.651	35.67
314.864	19.29
315.078	4.95
315.292	-29.87
315.505	27.48
315.719	119.64
315.933	2.9
316.146	-21.67
316.36	19.29
316.573	119.64
316.787	35.67
317.001	66.39
317.214	11.09
317.428	76.63
317.641	-29.87
317.855	72.53
318.068	2.9
318.282	33.62
318.495	99.16
318.709	68.44
318.922	-29.87
319.136	97.11
319.349	70.48
319.563	33.62
319.776	105.3
319.99	68.44
320.203	52.05
320.417	7
320.63	-21.67
320.843	-3.24
321.057	45.91
321.27	11.09
321.483	70.48
321.697	0.85
321.91	76.63
322.124	39.76
322.337	27.48
322.55	11.09
322.763	68.44
322.977	84.82
323.19	-19.63
323.403	56.15
323.617	125.78
323.83	88.92
324.043	-5.29
324.256	11.09
324.469	15.19
324.683	25.43
324.896	-13.48
325.109	52.05
325.322	-44.2
325.535	15.19
325.748	47.96
325.962	52.05
326.175	84.82
326.388	-31.91
326.601	76.63
326.814	27.48
327.027	-13.48
327.24	127.83
327.453	15.19
327.666	78.68
327.879	27.48
328.092	19.29
328.305	23.38
328.518	62.29
328.731	68.44
328.944	68.44
329.157	-33.96
329.37	35.67
329.583	84.82
329.796	95.06
330.009	13.14
330.222	66.39
330.435	80.72
330.648	37.72
330.861	56.15
331.073	27.48
331.286	78.68
331.499	84.82
331.712	-29.87
331.925	19.29
332.138	70.48
332.35	45.91
332.563	-5.29
332.776	60.24
332.989	2.9
333.202	37.72
333.414	-3.24
333.627	35.67
333.84	43.86
334.053	60.24
334.265	19.29
334.478	17.24
334.691	11.09
334.903	31.57
335.116	27.48
335.329	9.05
335.541	93.01
335.754	93.01
335.966	4.95
336.179	70.48
336.392	33.62
336.604	47.96
336.817	-21.67
337.029	-5.29
337.242	93.01
337.454	52.05
337.667	35.67
337.88	66.39
338.092	86.87
338.305	54.1
338.517	-36.01
338.729	56.15
338.942	15.19
339.154	7
339.367	31.57
339.579	72.53
339.792	15.19
340.004	37.72
340.217	2.9
340.429	52.05
340.641	-38.06
340.854	68.44
341.066	84.82
341.278	105.3
341.491	82.77
341.703	60.24
341.915	-17.58
342.128	105.3
342.34	107.35
342.552	29.52
342.764	-1.19
342.977	-1.19
343.189	25.43
343.401	0.85
343.613	-9.39
343.826	47.96
344.038	54.1
344.25	27.48
344.462	-21.67
344.674	99.16
344.886	-25.77
345.099	-3.24
345.311	111.44
345.523	52.05
345.735	-46.25
345.947	95.06
346.159	64.34
346.371	140.12
346.583	-19.63
346.795	138.07
347.007	-21.67
347.219	-3.24
347.431	78.68
347.643	95.06
347.855	52.05
348.067	70.48
348.279	2.9
348.491	-29.87
348.703	-17.58
348.915	19.29
349.127	15.19
349.339	19.29
349.551	60.24
349.763	9.05
349.975	88.92
350.187	11.09
350.399	62.29
350.61	-29.87
350.822	-5.29
351.034	64.34
351.246	54.1
351.458	123.73
351.669	13.14
351.881	56.15
352.093	-23.72
352.305	76.63
352.517	-27.82
352.728	88.92
352.94	4.95
353.152	35.67
353.363	-3.24
353.575	4.95
353.787	64.34
353.999	19.29
354.21	117.59
354.422	74.58
354.633	60.24
354.845	115.54
355.057	19.29
355.268	62.29
355.48	72.53
355.692	-91.31
355.903	-1.19
356.115	7
356.326	11.09
356.538	119.64
356.749	76.63
356.961	93.01
357.172	31.57
357.384	-29.87
357.595	150.36
357.807	-3.24
358.018	27.48
358.23	0.85
358.441	72.53
358.653	76.63
358.864	43.86
359.075	-38.06
359.287	39.76
359.498	86.87
359.709	86.87
359.921	27.48
360.132	74.58
360.344	105.3
360.555	15.19
360.766	25.43
360.977	-9.39
361.189	88.92
361.4	7
361.611	29.52
361.823	72.53
362.034	58.2
362.245	39.76
362.456	21.33
362.667	68.44
362.879	35.67
363.09	50
363.301	23.38
363.512	54.1
363.723	15.19
363.935	-5.29
364.146	101.2
364.357	-52.39
364.568	27.48
364.779	-13.48
364.99	117.59
365.201	7
365.412	4.95
365.623	-5.29
365.834	39.76
366.045	72.53
366.256	47.96
366.467	-21.67
366.678	90.96
366.889	23.38
367.1	47.96
367.311	78.68
367.522	54.1
367.733	60.24
367.944	41.81
368.155	35.67
368.366	68.44
368.577	19.29
368.788	56.15
368.999	13.14
369.209	39.76
369.42	78.68
369.631	152.4
369.842	60.24
370.053	62.29
370.264	37.72
370.474	19.29
370.685	19.29
370.896	70.48
371.107	47.96
371.317	52.05
371.528	29.52
371.739	41.81
371.95	25.43
372.16	15.19
372.371	-46.25
372.582	43.86
372.792	76.63
373.003	76.63
373.214	113.49
373.424	60.24
373.635	23.38
373.846	109.4
374.056	-9.39
374.267	52.05
374.477	-11.43
374.688	45.91
374.898	4.95
375.109	52.05
375.319	66.39
375.53	-5.29
375.74	88.92
375.951	84.82
376.161	72.53
376.372	27.48
376.582	2.9
376.793	82.77
377.003	68.44
377.214	11.09
377.424	127.83
377.635	-5.29
377.845	7
378.055	33.62
378.266	-27.82
378.476	27.48
378.686	125.78
378.897	76.63
379.107	150.36
379.317	70.48
379.528	43.86
379.738	113.49
379.948	9.05
380.158	68.44
380.369	7
380.579	86.87
380.789	41.81
380.999	47.96
381.21	70.48
381.42	117.59
381.63	62.29
381.84	66.39
382.05	45.91
382.261	68.44
382.471	-17.58
382.681	47.96
382.891	105.3
383.101	2.9
383.311	29.52
383.521	60.24
383.731	84.82
383.941	109.4
384.151	68.44
384.361	76.63
384.571	31.57
384.781	50
384.991	101.2
385.201	174.93
385.411	68.44
385.621	109.4
385.831	58.2
386.041	109.4
386.251	45.91
386.461	50
386.671	47.96
386.881	52.05
387.091	76.63
387.301	68.44
387.511	43.86
387.72	76.63
387.93	39.76
388.14	56.15
388.35	29.52
388.56	127.83
388.769	64.34
388.979	15.19
389.189	-1.19
389.399	76.63
389.609	86.87
389.818	70.48
390.028	66.39
390.238	27.48
390.447	64.34
390.657	93.01
390.867	60.24
391.076	9.05
391.286	50
391.496	146.26
391.705	54.1
391.915	35.67
392.125	80.72
392.334	45.91
392.544	54.1
392.753	117.59
392.963	60.24
393.172	93.01
393.382	60.24
393.591	166.74
393.801	52.05
394.01	76.63
394.22	99.16
394.429	76.63
394.639	93.01
394.848	56.15
395.058	54.1
395.267	86.87
395.477	93.01
395.686	27.48
395.895	138.07
396.105	150.36
396.314	37.72
396.524	99.16
396.733	60.24
396.942	183.12
397.152	93.01
397.361	144.21
397.57	29.52
397.78	68.44
397.989	150.36
398.198	217.94
398.407	101.2
398.617	119.64
398.826	117.59
399.035	88.92
399.244	101.2
399.453	148.31
399.663	72.53
399.872	179.03
400.081	86.87
400.29	80.72
400.499	119.64
400.708	150.36
400.917	68.44
401.127	101.2
401.336	86.87
401.545	95.06
401.754	224.08
401.963	109.4
402.172	105.3
402.381	56.15
402.59	35.67
402.799	136.02
403.008	219.99
403.217	133.97
403.426	191.31
403.635	125.78
403.844	123.73
404.053	133.97
404.262	140.12
404.471	217.94
404.68	181.07
404.888	70.48
405.097	99.16
405.306	152.4
405.515	181.07
405.724	211.79
405.933	219.99
406.142	152.4
406.35	271.19
406.559	217.94
406.768	316.24
406.977	275.28
407.185	234.32
407.394	281.43
407.603	195.41
407.812	260.95
408.02	273.23
408.229	381.78
408.438	281.43
408.646	219.99
408.855	265.04
409.064	260.95
409.272	183.12
409.481	334.67
409.69	224.08
409.898	291.66
410.107	314.19
410.315	310.1
410.524	383.82
410.733	422.73
410.941	371.54
411.15	349.01
411.358	469.84
411.567	514.89
411.775	455.5
411.984	510.8
412.192	539.47
412.401	494.41
412.609	629.58
412.818	514.89
413.026	594.76
413.234	572.24
413.443	600.91
413.651	598.86
413.86	676.68
414.068	699.21
414.276	750.41
414.485	688.97
414.693	711.5
414.901	891.72
415.11	791.37
415.318	828.23
415.526	879.43
415.734	912.2
415.943	961.35
416.151	963.4
416.359	965.45
416.567	994.12
416.776	1035.08
416.984	1123.14
417.192	1198.92
417.4	1164.1
417.608	1340.22
417.817	1239.87
418.025	1344.32
418.233	1362.75
418.441	1305.41
418.649	1489.73
418.857	1479.49
419.065	1573.69
419.273	1551.17
419.481	1616.7
419.689	1723.2
419.897	1686.33
420.105	1803.07
420.313	1913.66
420.521	1979.19
420.729	1927.99
420.937	1884.98
421.145	2009.91
421.353	2173.75
421.561	2231.09
421.769	2206.52
421.977	2380.59
422.185	2339.63
422.393	2526
422.601	2720.56
422.809	2708.27
423.017	2607.92
423.224	2827.05
423.432	2976.55
423.64	2861.87
423.848	3197.73
424.056	3207.97
424.263	3480.35
424.471	3443.49
424.679	3478.3
424.887	3492.64
425.094	3773.21
425.302	3707.68
425.51	3828.51
425.718	3975.96
425.925	4123.41
426.133	4180.76
426.341	4549.39
426.548	4518.67
426.756	4487.95
426.964	4764.43
427.171	4958.99
427.379	4969.23
427.586	5149.45
427.794	5458.69
428.001	5583.62
428.209	5796.6
428.417	5782.27
428.624	6017.79
428.832	6144.76
429.039	6177.53
429.247	6200.05
429.454	6703.86
429.662	7090.92
429.869	6613.74
430.076	7121.64
430.284	6697.71
430.491	7252.71
430.699	7746.27
430.906	7756.51
431.114	7684.83
431.321	8194.78
431.528	8405.72
431.736	8518.36
431.943	9081.55
432.15	8792.78
432.358	8850.13
432.565	9663.17
432.772	9278.15
432.979	9847.49
433.187	9996.99
433.394	10025.66
433.601	10771.12
433.808	10750.64
434.016	10672.82
434.223	11166.38
434.43	11801.25
434.637	11528.87
434.844	12223.13
435.052	12448.41
435.259	12429.98
435.466	12536.47
435.673	12380.82
435.88	13064.85
436.087	13884.03
436.294	13808.26
436.501	13503.11
436.708	14043.78
436.915	14262.91
437.122	15186.54
437.329	14850.67
437.537	15446.63
437.743	15594.09
437.95	15422.06
438.157	16024.16
438.364	16773.72
438.571	16646.74
438.778	16697.94
438.985	18319.93
439.192	17623.62
439.399	18358.85
439.606	18002.5
439.813	18606.65
440.02	19915.3
440.227	19429.93
440.433	19294.77
440.64	20017.7
440.847	19874.34
441.054	20525.6
441.261	21910.02
441.467	21277.2
441.674	21656.07
441.881	22850.04
442.088	22667.77
442.294	22358.53
442.501	22909.43
442.708	23728.62
442.914	24091.11
443.121	25018.84
443.328	24588.77
443.534	26405.31
443.741	25848.27
443.948	25182.68
444.154	27091.38
444.361	27240.89
444.568	27113.91
444.774	27097.53
444.981	27421.11
445.187	28004.78
445.394	29430.16
445.6	29237.66
445.807	31887.73
446.013	30222.73
446.22	30896.51
446.426	32354.66
446.633	32500.07
446.839	33352.02
447.046	32199.02
447.252	33880.4
447.459	33653.08
447.665	33603.92
447.871	35174.72
448.078	36575.53
448.284	35178.81
448.491	35694.9
448.697	37019.94
448.903	37835.03
449.11	38287.63
449.316	37427.48
449.522	37978.39
449.728	39006.47
449.935	39532.79
450.141	39061.76
450.347	40024.31
450.553	38633.74
450.76	39379.2
450.966	40990.95
451.172	39921.91
451.378	41079.01
451.584	40429.8
451.791	41318.62
451.997	41007.33
452.203	42025.17
452.409	41861.33
452.615	41308.38
452.821	40278.25
453.027	39674.1
453.233	41791.7
453.44	40263.92
453.646	40253.68
453.852	40616.17
454.058	41289.95
454.264	39801.08
454.47	40882.41
454.676	39768.31
454.882	41316.57
455.088	37714.2
455.294	38312.2
455.5	39000.32
455.705	38949.12
455.911	37503.26
456.117	36720.93
456.323	36305.2
456.529	34421.06
456.735	35928.37
456.941	35361.08
457.147	34154.83
457.352	33253.72
457.558	33122.65
457.764	33292.63
457.97	32170.35
458.176	31699.31
458.381	31611.25
458.587	29981.07
458.793	30243.21
458.999	28490.15
459.204	30497.16
459.41	29604.24
459.616	27750.83
459.821	27822.51
460.027	27838.89
460.233	27038.14
460.438	25686.48
460.644	25823.69
460.85	24852.95
461.055	24457.7
461.261	24246.76
461.466	22577.66
461.672	22000.13
461.878	23351.79
462.083	21936.65
462.289	21359.12
462.494	21219.86
462.7	20056.61
462.905	19771.94
463.111	20509.21
463.316	20386.33
463.522	19999.27
463.727	20290.08
463.932	20009.51
464.138	19722.79
464.343	19976.74
464.549	19409.45
464.754	20017.7
464.959	19835.43
465.165	19806.76
465.37	18729.53
465.575	18590.27
465.781	18893.37
465.986	18967.09
466.191	18418.24
466.397	18135.62
466.602	17244.75
466.807	17693.26
467.012	17996.35
467.218	17746.5
467.423	17199.69
467.628	17467.98
