Data from USB4F104151__253__14-34-16-584.txt Node

Date: Thu Mar 13 14:34:16 EDT 2025
User: louis
Spectrometer: USB4F10415
Trigger mode: 4
Integration Time (sec): 2.500000E-2
Scans to average: 1
Electric dark correction enabled: true
Nonlinearity correction enabled: false
Boxcar width: 0
XAxis mode: Wavelengths
Number of Pixels in Spectrum: 3648
>>>>>Begin Spectral Data<<<<<
178.204	-128.51
178.424	-128.51
178.644	-128.51
178.864	-171.52
179.084	-122.37
179.304	-3.58
179.524	-15.87
179.744	-19.97
179.964	59.9
180.184	16.9
180.404	-5.63
180.624	-7.68
180.844	68.09
181.064	-52.74
181.283	-7.68
181.503	-62.98
181.723	31.23
181.943	8.7
182.163	88.57
182.383	-24.06
182.602	20.99
182.822	41.47
183.042	49.66
183.262	55.81
183.482	8.7
183.701	59.9
183.921	16.9
184.141	-48.64
184.361	-7.68
184.58	12.8
184.8	29.18
185.02	-44.54
185.239	156.16
185.459	66.05
185.679	35.33
185.898	-15.87
186.118	141.82
186.338	37.38
186.557	66.05
186.777	8.7
186.997	-3.58
187.216	25.09
187.436	68.09
187.655	27.14
187.875	49.66
188.095	-40.45
188.314	4.61
188.534	100.86
188.753	8.7
188.973	33.28
189.192	127.49
189.412	104.96
189.631	8.7
189.851	29.18
190.07	25.09
190.29	-28.16
190.509	-7.68
190.729	8.7
190.948	74.24
191.168	190.97
191.387	45.57
191.607	57.86
191.826	82.43
192.045	12.8
192.265	66.05
192.484	35.33
192.704	94.72
192.923	66.05
193.142	96.77
193.362	35.33
193.581	129.53
193.8	59.9
194.02	80.38
194.239	8.7
194.458	18.94
194.678	6.66
194.897	74.24
195.116	59.9
195.335	27.14
195.555	57.86
195.774	-13.82
195.993	43.52
196.212	41.47
196.432	8.7
196.651	41.47
196.87	61.95
197.089	133.63
197.308	8.7
197.528	76.29
197.747	18.94
197.966	57.86
198.185	84.48
198.404	86.53
198.623	49.66
198.842	25.09
199.062	49.66
199.281	8.7
199.5	-52.74
199.719	66.05
199.938	92.67
200.157	98.81
200.376	76.29
200.595	78.33
200.814	55.81
201.033	16.9
201.252	107.01
201.471	61.95
201.69	43.52
201.909	49.66
202.128	117.25
202.347	74.24
202.566	35.33
202.785	-24.06
203.004	-42.5
203.223	104.96
203.442	84.48
203.661	20.99
203.879	35.33
204.098	78.33
204.317	16.9
204.536	131.58
204.755	27.14
204.974	4.61
205.193	10.75
205.411	119.29
205.63	64
205.849	53.76
206.068	98.81
206.287	-3.58
206.505	84.48
206.724	35.33
206.943	37.38
207.162	66.05
207.381	25.09
207.599	-32.26
207.818	-15.87
208.037	-11.78
208.255	-40.45
208.474	25.09
208.693	33.28
208.911	61.95
209.13	49.66
209.349	16.9
209.567	41.47
209.786	84.48
210.005	18.94
210.223	-15.87
210.442	-7.68
210.661	25.09
210.879	37.38
211.098	20.99
211.316	152.06
211.535	59.9
211.753	-11.78
211.972	74.24
212.191	-54.78
212.409	94.72
212.628	92.67
212.846	16.9
213.065	57.86
213.283	131.58
213.502	20.99
213.72	115.2
213.938	18.94
214.157	66.05
214.375	74.24
214.594	33.28
214.812	72.19
215.031	16.9
215.249	86.53
215.467	98.81
215.686	0.51
215.904	33.28
216.122	-5.63
216.341	107.01
216.559	8.7
216.778	49.66
216.996	70.14
217.214	-3.58
217.432	-13.82
217.651	-19.97
217.869	8.7
218.087	57.86
218.306	41.47
218.524	115.2
218.742	23.04
218.96	92.67
219.179	57.86
219.397	16.9
219.615	84.48
219.833	16.9
220.051	-32.26
220.27	80.38
220.488	49.66
220.706	45.57
220.924	61.95
221.142	-19.97
221.36	82.43
221.578	49.66
221.796	16.9
222.015	16.9
222.233	-7.68
222.451	31.23
222.669	-5.63
222.887	6.66
223.105	-5.63
223.323	55.81
223.541	0.51
223.759	49.66
223.977	-7.68
224.195	139.77
224.413	-5.63
224.631	35.33
224.849	8.7
225.067	98.81
225.285	-9.73
225.503	74.24
225.721	2.56
225.939	27.14
226.157	51.71
226.375	117.25
226.592	-65.02
226.81	16.9
227.028	53.76
227.246	117.25
227.464	20.99
227.682	12.8
227.9	107.01
228.117	49.66
228.335	23.04
228.553	111.1
228.771	-9.73
228.989	51.71
229.206	53.76
229.424	49.66
229.642	29.18
229.86	35.33
230.077	80.38
230.295	25.09
230.513	0.51
230.731	20.99
230.948	76.29
231.166	121.34
231.384	-19.97
231.601	123.39
231.819	66.05
232.037	-52.74
232.254	33.28
232.472	-36.35
232.689	20.99
232.907	41.47
233.125	53.76
233.342	33.28
233.56	-46.59
233.777	66.05
233.995	57.86
234.213	131.58
234.43	84.48
234.648	66.05
234.865	-5.63
235.083	66.05
235.3	-73.21
235.518	16.9
235.735	84.48
235.953	-5.63
236.17	59.9
236.388	29.18
236.605	25.09
236.822	51.71
237.04	59.9
237.257	61.95
237.475	18.94
237.692	35.33
237.909	68.09
238.127	74.24
238.344	8.7
238.562	64
238.779	25.09
238.996	43.52
239.214	98.81
239.431	23.04
239.648	4.61
239.865	57.86
240.083	90.62
240.3	107.01
240.517	51.71
240.735	51.71
240.952	51.71
241.169	18.94
241.386	35.33
241.603	16.9
241.821	49.66
242.038	76.29
242.255	94.72
242.472	35.33
242.689	68.09
242.907	57.86
243.124	57.86
243.341	86.53
243.558	41.47
243.775	51.71
243.992	6.66
244.209	10.75
244.426	59.9
244.643	12.8
244.86	29.18
245.078	37.38
245.295	49.66
245.512	10.75
245.729	33.28
245.946	70.14
246.163	49.66
246.38	70.14
246.597	82.43
246.814	45.57
247.031	47.62
247.248	51.71
247.464	43.52
247.681	66.05
247.898	25.09
248.115	150.01
248.332	14.85
248.549	139.77
248.766	57.86
248.983	90.62
249.2	45.57
249.417	59.9
249.633	92.67
249.85	123.39
250.067	31.23
250.284	41.47
250.501	61.95
250.717	37.38
250.934	12.8
251.151	12.8
251.368	2.56
251.585	94.72
251.801	12.8
252.018	-24.06
252.235	107.01
252.451	55.81
252.668	70.14
252.885	57.86
253.102	25.09
253.318	-30.21
253.535	29.18
253.752	61.95
253.968	25.09
254.185	-38.4
254.401	72.19
254.618	4.61
254.835	25.09
255.051	35.33
255.268	25.09
255.484	49.66
255.701	-15.87
255.917	45.57
256.134	33.28
256.351	-1.54
256.567	-50.69
256.784	86.53
257	35.33
257.217	66.05
257.433	90.62
257.65	76.29
257.866	8.7
258.082	-22.02
258.299	23.04
258.515	0.51
258.732	-1.54
258.948	27.14
259.165	98.81
259.381	18.94
259.597	90.62
259.814	94.72
260.03	-44.54
260.246	86.53
260.463	90.62
260.679	111.1
260.895	27.14
261.112	125.44
261.328	57.86
261.544	-26.11
261.761	111.1
261.977	12.8
262.193	8.7
262.409	41.47
262.626	68.09
262.842	33.28
263.058	12.8
263.274	-7.68
263.49	27.14
263.707	57.86
263.923	53.76
264.139	57.86
264.355	16.9
264.571	109.05
264.787	76.29
265.004	109.05
265.22	37.38
265.436	49.66
265.652	98.81
265.868	47.62
266.084	29.18
266.3	57.86
266.516	-22.02
266.732	72.19
266.948	10.75
267.164	127.49
267.38	-32.26
267.596	0.51
267.812	131.58
268.028	84.48
268.244	-44.54
268.46	0.51
268.676	76.29
268.892	31.23
269.108	61.95
269.324	59.9
269.54	-5.63
269.756	16.9
269.972	-7.68
270.188	90.62
270.403	53.76
270.619	12.8
270.835	12.8
271.051	94.72
271.267	74.24
271.483	49.66
271.698	59.9
271.914	147.97
272.13	37.38
272.346	74.24
272.562	18.94
272.777	29.18
272.993	55.81
273.209	-15.87
273.425	102.91
273.64	90.62
273.856	0.51
274.072	43.52
274.287	-7.68
274.503	18.94
274.719	41.47
274.934	0.51
275.15	-48.64
275.366	115.2
275.581	18.94
275.797	64
276.012	74.24
276.228	31.23
276.444	-62.98
276.659	98.81
276.875	35.33
277.09	45.57
277.306	57.86
277.521	59.9
277.737	90.62
277.952	45.57
278.168	-28.16
278.383	29.18
278.599	53.76
278.814	61.95
279.03	-11.78
279.245	119.29
279.461	51.71
279.676	86.53
279.892	-26.11
280.107	-7.68
280.322	51.71
280.538	35.33
280.753	8.7
280.969	-7.68
281.184	57.86
281.399	23.04
281.615	88.57
281.83	57.86
282.045	0.51
282.26	0.51
282.476	0.51
282.691	88.57
282.906	98.81
283.122	27.14
283.337	-3.58
283.552	98.81
283.767	16.9
283.983	57.86
284.198	4.61
284.413	107.01
284.628	18.94
284.843	-3.58
285.058	59.9
285.274	39.42
285.489	2.56
285.704	-5.63
285.919	41.47
286.134	113.15
286.349	25.09
286.564	49.66
286.779	70.14
286.995	0.51
287.21	-36.35
287.425	92.67
287.64	33.28
287.855	-13.82
288.07	-22.02
288.285	41.47
288.5	90.62
288.715	98.81
288.93	-7.68
289.145	33.28
289.36	37.38
289.575	12.8
289.79	57.86
290.004	84.48
290.219	107.01
290.434	33.28
290.649	57.86
290.864	-7.68
291.079	57.86
291.294	61.95
291.509	76.29
291.724	20.99
291.938	20.99
292.153	16.9
292.368	8.7
292.583	115.2
292.798	23.04
293.012	88.57
293.227	66.05
293.442	12.8
293.657	61.95
293.871	131.58
294.086	92.67
294.301	8.7
294.516	57.86
294.73	20.99
294.945	23.04
295.16	2.56
295.374	82.43
295.589	107.01
295.804	98.81
296.018	14.85
296.233	78.33
296.447	86.53
296.662	16.9
296.877	35.33
297.091	35.33
297.306	123.39
297.52	41.47
297.735	49.66
297.949	43.52
298.164	109.05
298.378	94.72
298.593	20.99
298.807	-62.98
299.022	51.71
299.236	84.48
299.451	98.81
299.665	23.04
299.88	53.76
300.094	33.28
300.309	43.52
300.523	119.29
300.737	29.18
300.952	-26.11
301.166	57.86
301.381	0.51
301.595	31.23
301.809	41.47
302.024	92.67
302.238	-15.87
302.452	96.77
302.667	-1.54
302.881	82.43
303.095	49.66
303.309	47.62
303.524	29.18
303.738	20.99
303.952	-19.97
304.166	68.09
304.381	-46.59
304.595	49.66
304.809	10.75
305.023	78.33
305.237	57.86
305.452	-3.58
305.666	53.76
305.88	45.57
306.094	107.01
306.308	111.1
306.522	68.09
306.736	4.61
306.95	25.09
307.164	43.52
307.379	-1.54
307.593	117.25
307.807	20.99
308.021	80.38
308.235	43.52
308.449	-19.97
308.663	-22.02
308.877	107.01
309.091	74.24
309.305	102.91
309.519	-75.26
309.733	68.09
309.947	16.9
310.161	27.14
310.374	41.47
310.588	10.75
310.802	49.66
311.016	29.18
311.23	-24.06
311.444	2.56
311.658	0.51
311.872	90.62
312.085	96.77
312.299	80.38
312.513	86.53
312.727	90.62
312.941	-13.82
313.154	12.8
313.368	82.43
313.582	66.05
313.796	78.33
314.009	43.52
314.223	8.7
314.437	-32.26
314.651	66.05
314.864	27.14
315.078	33.28
315.292	12.8
315.505	51.71
315.719	68.09
315.933	16.9
316.146	74.24
316.36	0.51
316.573	117.25
316.787	113.15
317.001	33.28
317.214	12.8
317.428	82.43
317.641	23.04
317.855	68.09
318.068	-7.68
318.282	111.1
318.495	35.33
318.709	-15.87
318.922	47.62
319.136	115.2
319.349	121.34
319.563	-17.92
319.776	90.62
319.99	-5.63
320.203	10.75
320.417	6.66
320.63	41.47
320.843	127.49
321.057	125.44
321.27	25.09
321.483	43.52
321.697	16.9
321.91	86.53
322.124	55.81
322.337	45.57
322.55	78.33
322.763	86.53
322.977	100.86
323.19	53.76
323.403	4.61
323.617	4.61
323.83	68.09
324.043	98.81
324.256	82.43
324.469	-24.06
324.683	123.39
324.896	25.09
325.109	18.94
325.322	10.75
325.535	2.56
325.748	139.77
325.962	-7.68
326.175	41.47
326.388	94.72
326.601	82.43
326.814	64
327.027	76.29
327.24	115.2
327.453	-52.74
327.666	84.48
327.879	72.19
328.092	16.9
328.305	59.9
328.518	51.71
328.731	10.75
328.944	33.28
329.157	-7.68
329.37	0.51
329.583	94.72
329.796	156.16
330.009	82.43
330.222	127.49
330.435	102.91
330.648	41.47
330.861	-3.58
331.073	84.48
331.286	98.81
331.499	111.1
331.712	-32.26
331.925	4.61
332.138	47.62
332.35	94.72
332.563	68.09
332.776	41.47
332.989	6.66
333.202	12.8
333.414	55.81
333.627	82.43
333.84	74.24
334.053	82.43
334.265	43.52
334.478	33.28
334.691	43.52
334.903	90.62
335.116	92.67
335.329	-3.58
335.541	59.9
335.754	100.86
335.966	29.18
336.179	16.9
336.392	82.43
336.604	109.05
336.817	49.66
337.029	41.47
337.242	37.38
337.454	51.71
337.667	25.09
337.88	125.44
338.092	16.9
338.305	123.39
338.517	10.75
338.729	86.53
338.942	33.28
339.154	-46.59
339.367	2.56
339.579	107.01
339.792	70.14
340.004	27.14
340.217	20.99
340.429	57.86
340.641	68.09
340.854	10.75
341.066	-11.78
341.278	74.24
341.491	86.53
341.703	125.44
341.915	37.38
342.128	78.33
342.34	61.95
342.552	-32.26
342.764	57.86
342.977	98.81
343.189	20.99
343.401	53.76
343.613	-13.82
343.826	49.66
344.038	51.71
344.25	51.71
344.462	41.47
344.674	-28.16
344.886	29.18
345.099	61.95
345.311	33.28
345.523	33.28
345.735	33.28
345.947	74.24
346.159	43.52
346.371	131.58
346.583	41.47
346.795	100.86
347.007	27.14
347.219	49.66
347.431	18.94
347.643	178.69
347.855	37.38
348.067	92.67
348.279	-38.4
348.491	33.28
348.703	84.48
348.915	29.18
349.127	41.47
349.339	92.67
349.551	-24.06
349.763	127.49
349.975	20.99
350.187	98.81
350.399	133.63
350.61	98.81
350.822	37.38
351.034	98.81
351.246	88.57
351.458	57.86
351.669	31.23
351.881	115.2
352.093	78.33
352.305	82.43
352.517	10.75
352.728	68.09
352.94	57.86
353.152	80.38
353.363	49.66
353.575	8.7
353.787	129.53
353.999	64
354.21	92.67
354.422	78.33
354.633	70.14
354.845	41.47
355.057	12.8
355.268	104.96
355.48	33.28
355.692	27.14
355.903	27.14
356.115	18.94
356.326	45.57
356.538	119.29
356.749	57.86
356.961	160.25
357.172	55.81
357.384	8.7
357.595	68.09
357.807	90.62
358.018	-24.06
358.23	102.91
358.441	111.1
358.653	64
358.864	66.05
359.075	-5.63
359.287	27.14
359.498	76.29
359.709	29.18
359.921	18.94
360.132	20.99
360.344	41.47
360.555	70.14
360.766	43.52
360.977	-7.68
361.189	-7.68
361.4	141.82
361.611	98.81
361.823	41.47
362.034	61.95
362.245	-30.21
362.456	115.2
362.667	107.01
362.879	49.66
363.09	12.8
363.301	111.1
363.512	86.53
363.723	55.81
363.935	12.8
364.146	78.33
364.357	35.33
364.568	8.7
364.779	-54.78
364.99	125.44
365.201	25.09
365.412	147.97
365.623	-24.06
365.834	33.28
366.045	90.62
366.256	164.35
366.467	78.33
366.678	37.38
366.889	-32.26
367.1	57.86
367.311	4.61
367.522	-13.82
367.733	98.81
367.944	90.62
368.155	12.8
368.366	141.82
368.577	131.58
368.788	55.81
368.999	57.86
369.209	82.43
369.42	88.57
369.631	129.53
369.842	45.57
370.053	82.43
370.264	27.14
370.474	-7.68
370.685	8.7
370.896	172.54
371.107	23.04
371.317	59.9
371.528	35.33
371.739	92.67
371.95	82.43
372.16	107.01
372.371	55.81
372.582	6.66
372.792	25.09
373.003	86.53
373.214	90.62
373.424	41.47
373.635	55.81
373.846	72.19
374.056	8.7
374.267	70.14
374.477	23.04
374.688	90.62
374.898	111.1
375.109	10.75
375.319	16.9
375.53	131.58
375.74	35.33
375.951	49.66
376.161	121.34
376.372	102.91
376.582	16.9
376.793	94.72
377.003	51.71
377.214	78.33
377.424	18.94
377.635	45.57
377.845	78.33
378.055	115.2
378.266	57.86
378.476	27.14
378.686	25.09
378.897	115.2
379.107	82.43
379.317	29.18
379.528	61.95
379.738	86.53
379.948	-5.63
380.158	35.33
380.369	70.14
380.579	-26.11
380.789	49.66
380.999	74.24
381.21	111.1
381.42	174.59
381.63	33.28
381.84	100.86
382.05	117.25
382.261	131.58
382.471	111.1
382.681	-1.54
382.891	82.43
383.101	76.29
383.311	0.51
383.521	-13.82
383.731	141.82
383.941	123.39
384.151	123.39
384.361	12.8
384.571	102.91
384.781	82.43
384.991	88.57
385.201	70.14
385.411	66.05
385.621	109.05
385.831	98.81
386.041	107.01
386.251	96.77
386.461	135.68
386.671	57.86
386.881	12.8
387.091	53.76
387.301	115.2
387.511	37.38
387.72	102.91
387.93	68.09
388.14	16.9
388.35	66.05
388.56	102.91
388.769	115.2
388.979	125.44
389.189	86.53
389.399	10.75
389.609	39.42
389.818	98.81
390.028	131.58
390.238	82.43
390.447	47.62
390.657	107.01
390.867	86.53
391.076	49.66
391.286	68.09
391.496	84.48
391.705	37.38
391.915	115.2
392.125	129.53
392.334	37.38
392.544	49.66
392.753	33.28
392.963	16.9
393.172	115.2
393.382	109.05
393.591	184.83
393.801	92.67
394.01	178.69
394.22	98.81
394.429	127.49
394.639	92.67
394.848	109.05
395.058	23.04
395.267	86.53
395.477	139.77
395.686	51.71
395.895	229.88
396.105	254.46
396.314	109.05
396.524	109.05
396.733	139.77
396.942	141.82
397.152	139.77
397.361	193.02
397.57	84.48
397.78	107.01
397.989	25.09
398.198	172.54
398.407	45.57
398.617	133.63
398.826	94.72
399.035	117.25
399.244	139.77
399.453	147.97
399.663	133.63
399.872	115.2
400.081	57.86
400.29	115.2
400.499	102.91
400.708	125.44
400.917	68.09
401.127	117.25
401.336	96.77
401.545	188.93
401.754	147.97
401.963	152.06
402.172	90.62
402.381	115.2
402.59	119.29
402.799	78.33
403.008	172.54
403.217	172.54
403.426	168.45
403.635	76.29
403.844	166.4
404.053	147.97
404.262	147.97
404.471	168.45
404.68	133.63
404.888	221.69
405.097	133.63
405.306	182.78
405.515	139.77
405.724	201.21
405.933	217.6
406.142	131.58
406.35	164.35
406.559	317.95
406.768	172.54
406.977	221.69
407.185	221.69
407.394	299.52
407.603	254.46
407.812	215.55
408.02	281.08
408.229	295.42
408.438	229.88
408.646	236.03
408.855	285.18
409.064	270.84
409.272	320
409.481	365.05
409.69	352.76
409.898	336.38
410.107	334.33
410.315	401.91
410.524	406.01
410.733	344.57
410.941	342.52
411.15	397.82
411.358	442.87
411.567	446.97
411.775	389.63
411.984	469.5
412.192	555.51
412.401	528.89
412.609	561.66
412.818	582.14
413.026	569.85
413.234	586.23
413.443	543.22
413.651	633.33
413.86	625.14
414.068	721.4
414.276	692.73
414.485	655.86
414.693	727.54
414.901	764.4
415.11	862.71
415.318	811.51
415.526	887.28
415.734	877.04
415.943	784.88
416.151	909.81
416.359	868.85
416.567	981.49
416.776	1032.69
416.984	1133.04
417.192	1192.43
417.4	1110.51
417.608	1053.17
417.817	1151.47
418.025	1288.68
418.233	1352.17
418.441	1247.72
418.649	1329.64
418.857	1483.24
419.065	1577.45
419.273	1391.08
419.481	1565.16
419.689	1661.41
419.897	1655.27
420.105	1681.89
420.313	1831.4
420.521	1876.45
420.729	1925.6
420.937	1868.26
421.145	1917.41
421.353	2021.86
421.561	2345.44
421.769	2253.28
421.977	2236.89
422.185	2413.02
422.393	2439.64
422.601	2583
422.809	2613.72
423.017	2533.85
423.224	2703.83
423.432	2890.2
423.64	2843.09
423.848	3023.31
424.056	3045.84
424.263	3359.18
424.471	3228.11
424.679	3375.56
424.887	3326.41
425.094	3633.61
425.302	3729.86
425.51	3680.71
425.718	3860.93
425.925	3922.37
426.133	4049.35
426.341	4217.28
426.548	4403.64
426.756	4413.88
426.964	4530.62
427.171	4721.08
427.379	5067.19
427.586	4966.84
427.794	5024.18
428.001	5308.85
428.209	5689.77
428.417	5505.45
428.624	5915.05
428.832	5880.23
429.039	5833.13
429.247	5867.94
429.454	6453.66
429.662	6773.14
429.869	6234.53
430.076	6834.58
430.284	6656.41
430.491	7131.54
430.699	7365.01
430.906	7203.22
431.114	7238.03
431.321	7768.46
431.528	7653.77
431.736	8147.33
431.943	8696.19
432.15	8233.35
432.358	8380.8
432.565	8831.35
432.772	8886.65
432.979	9429.36
433.187	9443.7
433.394	9515.37
433.601	10158.44
433.808	10232.16
434.016	10226.02
434.223	10633.57
434.43	11133.27
434.637	11104.6
434.844	11512.14
435.052	11886.92
435.259	11716.94
435.466	11757.9
435.673	11725.13
435.88	12603.71
436.087	13263.16
436.294	13193.53
436.501	12908.86
436.708	13087.03
436.915	13617.46
437.122	13869.36
437.329	14094.63
437.537	14496.03
437.743	14659.87
437.95	14862.62
438.157	15675.66
438.364	15948.04
438.571	15804.69
438.778	16009.48
438.985	17303.8
439.192	16759.04
439.399	17275.13
439.606	16808.19
439.813	17979.63
440.02	18919.65
440.227	18596.07
440.433	18313.45
440.64	18901.22
440.847	18811.1
441.054	19288.28
441.261	20785.35
441.467	20291.79
441.674	20906.18
441.881	21614.77
442.088	21526.71
442.294	21031.1
442.501	21711.03
442.708	22030.51
442.914	23249.05
443.121	24000.66
443.328	23324.83
443.534	24821.89
443.741	24318.09
443.948	23939.22
444.154	25378.94
444.361	25475.2
444.568	25663.61
444.774	25546.87
444.981	26110.07
445.187	26628.2
445.394	27715.67
445.6	27641.95
445.807	30013.49
446.013	28479.57
446.22	29411.39
446.426	30787.63
446.633	30677.04
446.839	31688.73
447.046	30488.62
447.252	32376.85
447.459	31979.54
447.665	32305.17
447.871	33232.9
448.078	34897.9
448.284	33222.66
448.491	34494.45
448.697	35102.7
448.903	36214.74
449.11	36034.52
449.316	35536.87
449.522	36087.77
449.728	36853.71
449.935	37429.19
450.141	37425.09
450.347	38385.59
450.553	37175.24
450.76	37695.42
450.966	38426.55
451.172	38305.72
451.378	39462.82
451.584	38383.54
451.791	39765.92
451.997	39323.56
452.203	40327.06
452.409	40030.11
452.615	39804.83
452.821	38254.52
453.027	38094.78
453.233	39896.99
453.44	38250.42
453.646	38995.88
453.852	38778.8
454.058	39567.27
454.264	38596.53
454.47	39184.3
454.676	38361.01
454.882	39462.82
455.088	36095.96
455.294	36730.83
455.5	37334.98
455.705	37519.3
455.911	36216.79
456.117	35737.57
456.323	35129.32
456.529	33425.41
456.735	34789.36
456.941	33769.47
457.147	33306.63
457.352	32233.49
457.558	31938.58
457.764	32243.73
457.97	31307.81
458.176	30795.82
458.381	30375.98
458.587	29284.42
458.793	28960.84
458.999	27543.64
459.204	29726.78
459.41	28696.65
459.616	26806.37
459.821	26867.81
460.027	26927.21
460.233	26146.93
460.438	25172.1
460.644	25061.51
460.85	23996.56
461.055	23470.23
461.261	23558.3
461.466	21754.04
461.672	21219.52
461.878	22671.53
462.083	21031.1
462.289	20701.38
462.494	20269.26
462.7	19425.5
462.905	19048.67
463.111	19751.12
463.316	19933.39
463.522	19300.57
463.727	19474.65
463.932	19196.12
464.138	18870.5
464.343	19200.22
464.549	18399.46
464.754	18847.97
464.959	18815.2
465.165	18972.89
465.37	17879.28
465.575	17373.43
465.781	18129.13
465.986	18026.73
466.191	17342.71
466.397	17250.55
466.602	16140.55
466.807	17025.28
467.012	17000.7
467.218	16840.96
467.423	16470.28
