Data from USB4F104151__285__14-34-49-099.txt Node

Date: Thu Mar 13 14:34:49 EDT 2025
User: louis
Spectrometer: USB4F10415
Trigger mode: 4
Integration Time (sec): 2.500000E-2
Scans to average: 1
Electric dark correction enabled: true
Nonlinearity correction enabled: false
Boxcar width: 0
XAxis mode: Wavelengths
Number of Pixels in Spectrum: 3648
>>>>>Begin Spectral Data<<<<<
178.204	-106.84
178.424	-106.84
178.644	-106.84
178.864	-147.8
179.084	-188.75
179.304	-2.39
179.524	-10.58
179.744	5.8
179.964	24.23
180.184	-4.44
180.404	-49.49
180.624	57
180.844	-20.82
181.064	-139.6
181.283	106.15
181.503	38.57
181.723	-4.44
181.943	1.71
182.163	42.67
182.383	-0.34
182.602	24.23
182.822	-18.77
183.042	18.09
183.262	-24.92
183.482	-31.06
183.701	-8.53
183.921	32.43
184.141	-43.35
184.361	40.62
184.58	46.76
184.8	-8.53
185.02	30.38
185.239	28.33
185.459	57
185.679	11.95
185.898	-57.68
186.118	91.82
186.338	54.95
186.557	-39.25
186.777	-16.73
186.997	24.23
187.216	32.43
187.436	61.1
187.655	36.52
187.875	81.58
188.095	9.9
188.314	112.3
188.534	83.63
188.753	57
188.973	26.28
189.192	50.86
189.412	7.85
189.631	9.9
189.851	20.14
190.07	91.82
190.29	42.67
190.509	13.99
190.729	-26.96
190.948	57
191.168	155.3
191.387	97.96
191.607	108.2
191.826	32.43
192.045	-14.68
192.265	-22.87
192.484	11.95
192.704	-39.25
192.923	-98.64
193.142	87.72
193.362	-22.87
193.581	67.24
193.8	110.25
194.02	61.1
194.239	34.47
194.458	32.43
194.678	67.24
194.897	5.8
195.116	-63.83
195.335	57
195.555	34.47
195.774	26.28
195.993	69.29
196.212	-6.49
196.432	-41.3
196.651	52.91
196.87	-8.53
197.089	77.48
197.308	65.19
197.528	48.81
197.747	7.85
197.966	16.04
198.185	7.85
198.404	16.04
198.623	-18.77
198.842	28.33
199.062	40.62
199.281	-18.77
199.5	18.09
199.719	57
199.938	97.96
200.157	50.86
200.376	67.24
200.595	-20.82
200.814	65.19
201.033	7.85
201.252	48.81
201.471	57
201.69	54.95
201.909	104.11
202.128	9.9
202.347	1.71
202.566	40.62
202.785	59.05
203.004	1.71
203.223	34.47
203.442	-8.53
203.661	-47.44
203.879	93.87
204.098	16.04
204.317	28.33
204.536	7.85
204.755	54.95
204.974	89.77
205.193	91.82
205.411	169.64
205.63	20.14
205.849	73.39
206.068	50.86
206.287	32.43
206.505	20.14
206.724	42.67
206.943	-33.11
207.162	-53.59
207.381	75.43
207.599	18.09
207.818	11.95
208.037	32.43
208.255	38.57
208.474	3.75
208.693	-39.25
208.911	-29.01
209.13	130.73
209.349	16.04
209.567	-10.58
209.786	59.05
210.005	-31.06
210.223	3.75
210.442	-0.34
210.661	7.85
210.879	-4.44
211.098	30.38
211.316	59.05
211.535	-8.53
211.753	73.39
211.972	7.85
212.191	-10.58
212.409	24.23
212.628	110.25
212.846	-33.11
213.065	65.19
213.283	18.09
213.502	-6.49
213.72	48.81
213.938	11.95
214.157	-16.73
214.375	85.67
214.594	11.95
214.812	-37.2
215.031	-14.68
215.249	-14.68
215.467	59.05
215.686	11.95
215.904	48.81
216.122	24.23
216.341	59.05
216.559	32.43
216.778	108.2
216.996	61.1
217.214	-24.92
217.432	18.09
217.651	-24.92
217.869	24.23
218.087	-20.82
218.306	63.15
218.524	-4.44
218.742	52.91
218.96	40.62
219.179	-55.64
219.397	-41.3
219.615	112.3
219.833	59.05
220.051	7.85
220.27	16.04
220.488	-8.53
220.706	81.58
220.924	40.62
221.142	26.28
221.36	-12.63
221.578	46.76
221.796	28.33
222.015	38.57
222.233	50.86
222.451	87.72
222.669	-37.2
222.887	40.62
223.105	3.75
223.323	69.29
223.541	57
223.759	89.77
223.977	-0.34
224.195	122.54
224.413	34.47
224.631	93.87
224.849	67.24
225.067	32.43
225.285	-10.58
225.503	40.62
225.721	-57.68
225.939	-29.01
226.157	50.86
226.375	97.96
226.592	-41.3
226.81	40.62
227.028	52.91
227.246	116.39
227.464	-12.63
227.682	102.06
227.9	79.53
228.117	59.05
228.335	40.62
228.553	-14.68
228.771	18.09
228.989	75.43
229.206	32.43
229.424	9.9
229.642	-55.64
229.86	65.19
230.077	81.58
230.295	-16.73
230.513	89.77
230.731	48.81
230.948	63.15
231.166	85.67
231.384	-12.63
231.601	-12.63
231.819	108.2
232.037	28.33
232.254	11.95
232.472	48.81
232.689	40.62
232.907	40.62
233.125	40.62
233.342	-20.82
233.56	-69.97
233.777	81.58
233.995	26.28
234.213	83.63
234.43	81.58
234.648	-18.77
234.865	63.15
235.083	30.38
235.3	28.33
235.518	34.47
235.735	143.02
235.953	61.1
236.17	48.81
236.388	9.9
236.605	46.76
236.822	18.09
237.04	1.71
237.257	40.62
237.475	69.29
237.692	30.38
237.909	7.85
238.127	40.62
238.344	32.43
238.562	7.85
238.779	-88.4
238.996	-47.44
239.214	75.43
239.431	40.62
239.648	38.57
239.865	-12.63
240.083	75.43
240.3	-31.06
240.517	-49.49
240.735	40.62
240.952	-24.92
241.169	73.39
241.386	9.9
241.603	20.14
241.821	-53.59
242.038	57
242.255	32.43
242.472	-16.73
242.689	34.47
242.907	28.33
243.124	34.47
243.341	16.04
243.558	24.23
243.775	61.1
243.992	-16.73
244.209	52.91
244.426	124.58
244.643	-16.73
244.86	34.47
245.078	-0.34
245.295	77.48
245.512	57
245.729	-49.49
245.946	52.91
246.163	-6.49
246.38	-20.82
246.597	7.85
246.814	61.1
247.031	40.62
247.248	50.86
247.464	7.85
247.681	-6.49
247.898	46.76
248.115	34.47
248.332	3.75
248.549	81.58
248.766	97.96
248.983	116.39
249.2	112.3
249.417	50.86
249.633	79.53
249.85	116.39
250.067	36.52
250.284	34.47
250.501	-4.44
250.717	50.86
250.934	-39.25
251.151	-4.44
251.368	-6.49
251.585	65.19
251.801	40.62
252.018	24.23
252.235	-8.53
252.451	11.95
252.668	-51.54
252.885	24.23
253.102	1.71
253.318	-14.68
253.535	18.09
253.752	48.81
253.968	-4.44
254.185	50.86
254.401	40.62
254.618	20.14
254.835	44.71
255.051	149.16
255.268	24.23
255.484	34.47
255.701	61.1
255.917	26.28
256.134	-24.92
256.351	32.43
256.567	42.67
256.784	48.81
257	-8.53
257.217	67.24
257.433	87.72
257.65	-0.34
257.866	-6.49
258.082	30.38
258.299	20.14
258.515	16.04
258.732	-24.92
258.948	16.04
259.165	75.43
259.381	-31.06
259.597	100.01
259.814	9.9
260.03	42.67
260.246	32.43
260.463	9.9
260.679	34.47
260.895	93.87
261.112	-0.34
261.328	97.96
261.544	1.71
261.761	83.63
261.977	46.76
262.193	-8.53
262.409	73.39
262.626	65.19
262.842	65.19
263.058	-16.73
263.274	20.14
263.49	20.14
263.707	38.57
263.923	57
264.139	-20.82
264.355	-47.44
264.571	26.28
264.787	73.39
265.004	77.48
265.22	-10.58
265.436	20.14
265.652	-22.87
265.868	42.67
266.084	-4.44
266.3	100.01
266.516	30.38
266.732	48.81
266.948	16.04
267.164	-12.63
267.38	54.95
267.596	18.09
267.812	32.43
268.028	40.62
268.244	-6.49
268.46	18.09
268.676	-37.2
268.892	42.67
269.108	87.72
269.324	-0.34
269.54	32.43
269.756	93.87
269.972	-45.4
270.188	-24.92
270.403	-29.01
270.619	-33.11
270.835	61.1
271.051	7.85
271.267	-4.44
271.483	18.09
271.698	20.14
271.914	57
272.13	46.76
272.346	40.62
272.562	112.3
272.777	-8.53
272.993	52.91
273.209	118.44
273.425	83.63
273.64	-14.68
273.856	38.57
274.072	-8.53
274.287	20.14
274.503	59.05
274.719	-55.64
274.934	57
275.15	-22.87
275.366	26.28
275.581	-4.44
275.797	22.19
276.012	-0.34
276.228	-31.06
276.444	61.1
276.659	54.95
276.875	11.95
277.09	9.9
277.306	-35.16
277.521	40.62
277.737	28.33
277.952	48.81
278.168	20.14
278.383	3.75
278.599	-0.34
278.814	102.06
279.03	59.05
279.245	50.86
279.461	-0.34
279.676	110.25
279.892	44.71
280.107	124.58
280.322	-6.49
280.538	48.81
280.753	-20.82
280.969	7.85
281.184	57
281.399	26.28
281.615	32.43
281.83	48.81
282.045	32.43
282.26	36.52
282.476	75.43
282.691	130.73
282.906	1.71
283.122	28.33
283.337	-6.49
283.552	-2.39
283.767	-10.58
283.983	114.34
284.198	50.86
284.413	67.24
284.628	-47.44
284.843	-16.73
285.058	81.58
285.274	44.71
285.489	3.75
285.704	57
285.919	-37.2
286.134	42.67
286.349	-0.34
286.564	9.9
286.779	140.97
286.995	48.81
287.21	40.62
287.425	32.43
287.64	83.63
287.855	59.05
288.07	18.09
288.285	89.77
288.5	-24.92
288.715	104.11
288.93	69.29
289.145	20.14
289.36	20.14
289.575	-14.68
289.79	89.77
290.004	44.71
290.219	61.1
290.434	65.19
290.649	-8.53
290.864	52.91
291.079	26.28
291.294	77.48
291.509	83.63
291.724	32.43
291.938	-12.63
292.153	34.47
292.368	-0.34
292.583	16.04
292.798	20.14
293.012	18.09
293.227	48.81
293.442	-24.92
293.657	52.91
293.871	97.96
294.086	24.23
294.301	73.39
294.516	87.72
294.73	36.52
294.945	20.14
295.16	-49.49
295.374	69.29
295.589	67.24
295.804	-72.02
296.018	73.39
296.233	67.24
296.447	-0.34
296.662	18.09
296.877	63.15
297.091	79.53
297.306	-0.34
297.52	-61.78
297.735	32.43
297.949	38.57
298.164	138.92
298.378	61.1
298.593	16.04
298.807	-33.11
299.022	32.43
299.236	95.91
299.451	-16.73
299.665	-37.2
299.88	32.43
300.094	-41.3
300.309	24.23
300.523	42.67
300.737	-14.68
300.952	46.76
301.166	100.01
301.381	-104.79
301.595	26.28
301.809	40.62
302.024	1.71
302.238	57
302.452	83.63
302.667	16.04
302.881	57
303.095	24.23
303.309	87.72
303.524	40.62
303.738	-24.92
303.952	48.81
304.166	36.52
304.381	-16.73
304.595	126.63
304.809	20.14
305.023	34.47
305.237	-16.73
305.452	34.47
305.666	65.19
305.88	30.38
306.094	-12.63
306.308	67.24
306.522	67.24
306.736	44.71
306.95	32.43
307.164	124.58
307.379	40.62
307.593	110.25
307.807	40.62
308.021	87.72
308.235	48.81
308.449	5.8
308.663	32.43
308.877	81.58
309.091	18.09
309.305	36.52
309.519	-90.45
309.733	1.71
309.947	40.62
310.161	97.96
310.374	85.67
310.588	122.54
310.802	7.85
311.016	32.43
311.23	65.19
311.444	-4.44
311.658	9.9
311.872	69.29
312.085	30.38
312.299	122.54
312.513	75.43
312.727	65.19
312.941	-57.68
313.154	44.71
313.368	-12.63
313.582	89.77
313.796	24.23
314.009	26.28
314.223	108.2
314.437	-6.49
314.651	48.81
314.864	48.81
315.078	16.04
315.292	7.85
315.505	-47.44
315.719	24.23
315.933	26.28
316.146	38.57
316.36	-31.06
316.573	65.19
316.787	179.88
317.001	-16.73
317.214	32.43
317.428	16.04
317.641	34.47
317.855	67.24
318.068	106.15
318.282	9.9
318.495	67.24
318.709	-14.68
318.922	-10.58
319.136	65.19
319.349	30.38
319.563	1.71
319.776	57
319.99	75.43
320.203	-24.92
320.417	-8.53
320.63	65.19
320.843	83.63
321.057	7.85
321.27	24.23
321.483	71.34
321.697	77.48
321.91	42.67
322.124	67.24
322.337	40.62
322.55	38.57
322.763	59.05
322.977	52.91
323.19	13.99
323.403	48.81
323.617	89.77
323.83	57
324.043	-2.39
324.256	67.24
324.469	65.19
324.683	40.62
324.896	18.09
325.109	91.82
325.322	38.57
325.535	87.72
325.748	-4.44
325.962	9.9
326.175	3.75
326.388	59.05
326.601	13.99
326.814	44.71
327.027	-26.96
327.24	106.15
327.453	-22.87
327.666	61.1
327.879	40.62
328.092	91.82
328.305	24.23
328.518	-49.49
328.731	-6.49
328.944	22.19
329.157	3.75
329.37	50.86
329.583	81.58
329.796	83.63
330.009	-39.25
330.222	73.39
330.435	24.23
330.648	-14.68
330.861	-45.4
331.073	24.23
331.286	57
331.499	5.8
331.712	38.57
331.925	97.96
332.138	77.48
332.35	26.28
332.563	57
332.776	32.43
332.989	71.34
333.202	61.1
333.414	-26.96
333.627	5.8
333.84	26.28
334.053	32.43
334.265	-8.53
334.478	44.71
334.691	-10.58
334.903	-0.34
335.116	36.52
335.329	40.62
335.541	40.62
335.754	147.11
335.966	50.86
336.179	18.09
336.392	-10.58
336.604	24.23
336.817	73.39
337.029	-8.53
337.242	-57.68
337.454	16.04
337.667	48.81
337.88	85.67
338.092	57
338.305	91.82
338.517	22.19
338.729	28.33
338.942	65.19
339.154	20.14
339.367	16.04
339.579	42.67
339.792	104.11
340.004	7.85
340.217	40.62
340.429	89.77
340.641	-18.77
340.854	42.67
341.066	40.62
341.278	44.71
341.491	120.49
341.703	3.75
341.915	-14.68
342.128	61.1
342.34	50.86
342.552	1.71
342.764	40.62
342.977	24.23
343.189	1.71
343.401	48.81
343.613	42.67
343.826	-22.87
344.038	77.48
344.25	85.67
344.462	18.09
344.674	18.09
344.886	52.91
345.099	-6.49
345.311	44.71
345.523	-14.68
345.735	-16.73
345.947	75.43
346.159	122.54
346.371	7.85
346.583	44.71
346.795	75.43
347.007	11.95
347.219	-0.34
347.431	26.28
347.643	50.86
347.855	-35.16
348.067	36.52
348.279	48.81
348.491	28.33
348.703	-14.68
348.915	-8.53
349.127	67.24
349.339	34.47
349.551	155.3
349.763	52.91
349.975	44.71
350.187	97.96
350.399	42.67
350.61	42.67
350.822	73.39
351.034	81.58
351.246	34.47
351.458	67.24
351.669	3.75
351.881	79.53
352.093	24.23
352.305	106.15
352.517	46.76
352.728	73.39
352.94	-2.39
353.152	106.15
353.363	38.57
353.575	20.14
353.787	48.81
353.999	50.86
354.21	110.25
354.422	16.04
354.633	97.96
354.845	57
355.057	-10.58
355.268	20.14
355.48	59.05
355.692	50.86
355.903	-26.96
356.115	28.33
356.326	-16.73
356.538	91.82
356.749	28.33
356.961	52.91
357.172	61.1
357.384	-0.34
357.595	93.87
357.807	89.77
358.018	-4.44
358.23	61.1
358.441	102.06
358.653	20.14
358.864	20.14
359.075	20.14
359.287	48.81
359.498	16.04
359.709	20.14
359.921	122.54
360.132	77.48
360.344	81.58
360.555	26.28
360.766	32.43
360.977	91.82
361.189	44.71
361.4	120.49
361.611	7.85
361.823	-74.07
362.034	13.99
362.245	-31.06
362.456	102.06
362.667	40.62
362.879	16.04
363.09	83.63
363.301	52.91
363.512	40.62
363.723	11.95
363.935	57
364.146	65.19
364.357	-24.92
364.568	65.19
364.779	-24.92
364.99	106.15
365.201	-67.92
365.412	67.24
365.623	-57.68
365.834	34.47
366.045	50.86
366.256	7.85
366.467	42.67
366.678	50.86
366.889	32.43
367.1	81.58
367.311	69.29
367.522	81.58
367.733	-33.11
367.944	-22.87
368.155	7.85
368.366	40.62
368.577	-51.54
368.788	52.91
368.999	26.28
369.209	50.86
369.42	81.58
369.631	143.02
369.842	81.58
370.053	81.58
370.264	69.29
370.474	73.39
370.685	-16.73
370.896	91.82
371.107	5.8
371.317	95.91
371.528	40.62
371.739	122.54
371.95	48.81
372.16	24.23
372.371	34.47
372.582	-69.97
372.792	48.81
373.003	16.04
373.214	63.15
373.424	108.2
373.635	16.04
373.846	32.43
374.056	89.77
374.267	24.23
374.477	93.87
374.688	81.58
374.898	83.63
375.109	85.67
375.319	40.62
375.53	81.58
375.74	110.25
375.951	-4.44
376.161	-2.39
376.372	118.44
376.582	24.23
376.793	85.67
377.003	67.24
377.214	-72.02
377.424	65.19
377.635	9.9
377.845	61.1
378.055	83.63
378.266	18.09
378.476	73.39
378.686	81.58
378.897	24.23
379.107	13.99
379.317	-14.68
379.528	16.04
379.738	73.39
379.948	-8.53
380.158	138.92
380.369	106.15
380.579	65.19
380.789	-0.34
380.999	36.52
381.21	79.53
381.42	122.54
381.63	114.34
381.84	100.01
382.05	132.78
382.261	81.58
382.471	83.63
382.681	106.15
382.891	186.02
383.101	59.05
383.311	57
383.521	44.71
383.731	26.28
383.941	7.85
384.151	28.33
384.361	67.24
384.571	102.06
384.781	52.91
384.991	102.06
385.201	65.19
385.411	73.39
385.621	59.05
385.831	73.39
386.041	52.91
386.251	85.67
386.461	100.01
386.671	65.19
386.881	87.72
387.091	20.14
387.301	114.34
387.511	50.86
387.72	52.91
387.93	61.1
388.14	-8.53
388.35	40.62
388.56	126.63
388.769	81.58
388.979	61.1
389.189	65.19
389.399	48.81
389.609	95.91
389.818	59.05
390.028	97.96
390.238	59.05
390.447	61.1
390.657	50.86
390.867	73.39
391.076	50.86
391.286	20.14
391.496	54.95
391.705	75.43
391.915	130.73
392.125	57
392.334	7.85
392.544	134.82
392.753	13.99
392.963	28.33
393.172	114.34
393.382	44.71
393.591	128.68
393.801	61.1
394.01	132.78
394.22	173.74
394.429	93.87
394.639	110.25
394.848	89.77
395.058	48.81
395.267	77.48
395.477	57
395.686	16.04
395.895	124.58
396.105	208.55
396.314	165.54
396.524	59.05
396.733	136.87
396.942	106.15
397.152	122.54
397.361	122.54
397.57	114.34
397.78	147.11
397.989	89.77
398.198	83.63
398.407	26.28
398.617	126.63
398.826	65.19
399.035	77.48
399.244	157.35
399.453	147.11
399.663	102.06
399.872	175.78
400.081	97.96
400.29	155.3
400.499	73.39
400.708	91.82
400.917	67.24
401.127	126.63
401.336	81.58
401.545	222.89
401.754	163.5
401.963	130.73
402.172	34.47
402.381	97.96
402.59	147.11
402.799	183.98
403.008	261.8
403.217	179.88
403.426	163.5
403.635	165.54
403.844	208.55
404.053	114.34
404.262	179.88
404.471	222.89
404.68	181.93
404.888	124.58
405.097	155.3
405.306	188.07
405.515	206.5
405.724	65.19
405.933	161.45
406.142	134.82
406.35	204.46
406.559	224.94
406.768	188.07
406.977	212.65
407.185	253.61
407.394	220.84
407.603	165.54
407.812	208.55
408.02	306.85
408.229	257.7
408.438	251.56
408.646	149.16
408.855	269.99
409.064	243.37
409.272	284.33
409.481	319.14
409.69	280.23
409.898	351.91
410.107	325.29
410.315	335.53
410.524	384.68
410.733	356.01
410.941	384.68
411.15	409.25
411.358	405.16
411.567	470.69
411.775	476.84
411.984	515.75
412.192	544.42
412.401	511.65
412.609	618.15
412.818	614.05
413.026	605.86
413.234	632.48
413.443	650.91
413.651	614.05
413.86	691.87
414.068	798.37
414.276	818.85
414.485	720.54
414.693	824.99
414.901	872.09
415.11	960.16
415.318	915.1
415.526	859.81
415.734	927.39
415.943	921.24
416.151	1056.41
416.359	1021.6
416.567	1074.84
416.776	1066.65
416.984	1080.99
417.192	1244.82
417.4	1205.91
417.608	1255.06
417.817	1287.83
418.025	1382.04
418.233	1441.43
418.441	1390.23
418.649	1359.51
418.857	1484.44
419.065	1599.12
419.273	1590.93
419.481	1709.71
419.689	1728.14
419.897	1805.97
420.105	1760.91
420.313	1887.89
420.521	1986.19
420.729	2002.57
420.937	2113.16
421.145	2154.12
421.353	2152.07
421.561	2320.01
421.769	2375.3
421.977	2549.38
422.185	2481.8
422.393	2614.91
422.601	2717.31
422.809	2752.13
423.017	2793.09
423.224	2909.82
423.432	2991.74
423.64	3047.04
423.848	3202.68
424.056	3276.41
424.263	3444.34
424.471	3503.73
424.679	3485.3
424.887	3765.87
425.094	3939.95
425.302	3972.72
425.51	4103.79
425.718	4335.21
425.925	4257.39
426.133	4337.26
426.341	4689.51
426.548	4701.79
426.756	4701.79
426.964	4888.16
427.171	5097.05
427.379	5264.99
427.586	5187.16
427.794	5600.85
428.001	5729.88
428.209	6162
428.417	5901.9
428.624	6417.99
428.832	6176.33
429.039	6321.74
429.247	6426.18
429.454	7079.49
429.662	7300.67
429.869	6856.26
430.076	7302.72
430.284	7194.17
430.491	7525.94
430.699	7943.73
430.906	7880.24
431.114	8039.98
431.321	8273.45
431.528	8482.35
431.736	8769.06
431.943	9383.45
432.15	9117.22
432.358	9137.7
432.565	9887.25
432.772	9584.15
432.979	10348.04
433.187	10346
433.394	10438.16
433.601	10976.77
433.808	11210.24
434.016	10896.9
434.223	11347.45
434.43	12013.04
434.637	11994.61
434.844	12733.93
435.052	12701.16
435.259	12815.85
435.466	13094.37
435.673	12836.33
435.88	13487.58
436.087	14190.03
436.294	14265.81
436.501	14206.42
436.708	14347.73
436.915	14851.53
437.122	15484.35
437.329	15549.89
437.537	15732.15
437.743	15912.38
437.95	15916.47
438.157	16743.85
438.364	17464.74
438.571	17304.99
438.778	17421.73
438.985	18933.13
439.192	18120.09
439.399	18961.8
439.606	18302.36
439.813	19400.07
440.02	20663.66
440.227	20129.14
440.433	20258.17
440.64	20696.43
440.847	20610.42
441.054	20825.45
441.261	22451.54
441.467	22322.52
441.674	22861.13
441.881	23536.96
442.088	23278.92
442.294	23108.94
442.501	23858.49
442.708	24411.45
442.914	25144.62
443.121	25978.14
443.328	25554.21
443.534	27391.24
443.741	26613.01
443.948	26184.99
444.154	28351.74
444.361	27890.95
444.568	28181.76
444.774	28093.69
444.981	28214.52
445.187	29160.69
445.394	30391.51
445.6	30156
445.807	33090.74
446.013	31599.82
446.22	31759.56
446.426	33143.98
446.633	33895.59
446.839	34753.69
447.046	33352.88
447.252	35237.01
447.459	35249.3
447.665	35183.76
447.871	36639.87
448.078	38296.67
448.284	36355.2
448.491	37356.66
448.697	38753.37
448.903	39240.79
449.11	39621.71
449.316	38640.73
449.522	39742.54
449.728	40455.23
449.935	40823.87
450.141	40854.59
450.347	41931.82
450.553	40567.87
450.76	40926.27
450.966	42327.08
451.172	41823.28
451.378	42744.86
451.584	42044.46
451.791	43246.61
451.997	42998.81
452.203	43316.25
452.409	43525.14
452.615	43787.28
452.821	41661.49
453.027	41229.37
453.233	43619.35
453.44	41794.6
453.646	42087.46
453.852	42109.99
454.058	43478.04
454.264	41489.46
454.47	42503.2
454.676	41458.74
454.882	43023.39
455.088	39357.52
455.294	39812.17
455.5	40348.74
455.705	40817.72
455.911	39793.74
456.117	38440.03
456.323	37973.1
456.529	36023.43
456.735	37559.41
456.941	36371.58
457.147	35968.13
457.352	35122.32
457.558	34784.41
457.764	34616.47
457.97	33981.6
458.176	33295.53
458.381	33168.56
458.587	31767.75
458.793	31036.63
458.999	30014.69
459.204	31941.83
459.41	31309
459.616	29218.03
459.821	29218.03
460.027	29281.52
460.233	28611.83
460.438	27282.7
460.644	27581.7
460.85	26090.78
461.055	25818.4
461.261	25386.28
461.466	23690.56
461.672	22809.93
461.878	24548.66
462.083	23004.49
462.289	22412.63
462.494	22052.19
462.7	21349.73
462.905	20845.93
463.111	21409.12
463.316	21634.4
463.522	20997.48
463.727	21013.87
463.932	21079.4
464.138	20311.41
464.343	20809.07
464.549	20372.85
464.754	20903.28
464.959	20495.73
465.165	20309.36
465.37	19641.73
465.575	18988.42
465.781	19979.64
465.986	19799.42
466.191	19236.23
466.397	18820.49
466.602	17921.43
466.807	18408.85
467.012	18619.79
467.218	18664.85
467.423	18163.09
