Data from USB4F104151__4__14-28-22-010.txt Node

Date: Thu Mar 13 14:28:22 EDT 2025
User: louis
Spectrometer: USB4F10415
Trigger mode: 4
Integration Time (sec): 2.500000E-2
Scans to average: 1
Electric dark correction enabled: true
Nonlinearity correction enabled: false
Boxcar width: 0
XAxis mode: Wavelengths
Number of Pixels in Spectrum: 3648
>>>>>Begin Spectral Data<<<<<
178.204	-129.36
178.424	-129.36
178.644	-129.36
178.864	-145.75
179.084	-121.17
179.304	-22.87
179.524	-61.78
179.744	-31.06
179.964	26.28
180.184	-0.34
180.404	61.1
180.624	-18.77
180.844	71.34
181.064	-69.97
181.283	34.47
181.503	-39.25
181.723	50.86
181.943	16.04
182.163	83.63
182.383	-18.77
182.602	13.99
182.822	61.1
183.042	34.47
183.262	5.8
183.482	-22.87
183.701	-12.63
183.921	32.43
184.141	87.72
184.361	59.05
184.58	34.47
184.8	83.63
185.02	-47.44
185.239	48.81
185.459	71.34
185.679	132.78
185.898	13.99
186.118	20.14
186.338	7.85
186.557	-53.59
186.777	46.76
186.997	-31.06
187.216	71.34
187.436	44.71
187.655	-6.49
187.875	36.52
188.095	44.71
188.314	-14.68
188.534	65.19
188.753	-4.44
188.973	91.82
189.192	71.34
189.412	136.87
189.631	34.47
189.851	44.71
190.07	26.28
190.29	-35.16
190.509	54.95
190.729	87.72
190.948	116.39
191.168	140.97
191.387	83.63
191.607	44.71
191.826	26.28
192.045	13.99
192.265	18.09
192.484	69.29
192.704	30.38
192.923	-33.11
193.142	44.71
193.362	112.3
193.581	87.72
193.8	95.91
194.02	157.35
194.239	-20.82
194.458	42.67
194.678	67.24
194.897	36.52
195.116	48.81
195.335	28.33
195.555	100.01
195.774	67.24
195.993	59.05
196.212	36.52
196.432	-4.44
196.651	50.86
196.87	1.71
197.089	108.2
197.308	46.76
197.528	46.76
197.747	50.86
197.966	22.19
198.185	136.87
198.404	-2.39
198.623	-31.06
198.842	-35.16
199.062	85.67
199.281	140.97
199.5	59.05
199.719	75.43
199.938	50.86
200.157	9.9
200.376	63.15
200.595	42.67
200.814	-12.63
201.033	50.86
201.252	89.77
201.471	46.76
201.69	24.23
201.909	95.91
202.128	34.47
202.347	9.9
202.566	26.28
202.785	-86.36
203.004	1.71
203.223	83.63
203.442	36.52
203.661	30.38
203.879	104.11
204.098	5.8
204.317	97.96
204.536	77.48
204.755	46.76
204.974	73.39
205.193	20.14
205.411	149.16
205.63	52.91
205.849	91.82
206.068	48.81
206.287	-33.11
206.505	59.05
206.724	5.8
206.943	-10.58
207.162	18.09
207.381	-16.73
207.599	108.2
207.818	87.72
208.037	-31.06
208.255	-55.64
208.474	91.82
208.693	132.78
208.911	36.52
209.13	61.1
209.349	95.91
209.567	36.52
209.786	134.82
210.005	26.28
210.223	-4.44
210.442	26.28
210.661	34.47
210.879	-39.25
211.098	52.91
211.316	75.43
211.535	95.91
211.753	26.28
211.972	104.11
212.191	36.52
212.409	54.95
212.628	24.23
212.846	59.05
213.065	108.2
213.283	61.1
213.502	-2.39
213.72	1.71
213.938	-4.44
214.157	81.58
214.375	52.91
214.594	18.09
214.812	100.01
215.031	20.14
215.249	61.1
215.467	11.95
215.686	71.34
215.904	81.58
216.122	69.29
216.341	28.33
216.559	59.05
216.778	65.19
216.996	50.86
217.214	100.01
217.432	-14.68
217.651	18.09
217.869	-29.01
218.087	52.91
218.306	18.09
218.524	61.1
218.742	-43.35
218.96	85.67
219.179	26.28
219.397	3.75
219.615	73.39
219.833	34.47
220.051	-45.4
220.27	110.25
220.488	52.91
220.706	59.05
220.924	42.67
221.142	50.86
221.36	18.09
221.578	61.1
221.796	143.02
222.015	134.82
222.233	112.3
222.451	102.06
222.669	-6.49
222.887	83.63
223.105	-31.06
223.323	1.71
223.541	42.67
223.759	30.38
223.977	1.71
224.195	106.15
224.413	9.9
224.631	97.96
224.849	-4.44
225.067	59.05
225.285	-26.96
225.503	30.38
225.721	-29.01
225.939	54.95
226.157	44.71
226.375	97.96
226.592	1.71
226.81	116.39
227.028	59.05
227.246	91.82
227.464	85.67
227.682	75.43
227.9	50.86
228.117	67.24
228.335	9.9
228.553	46.76
228.771	18.09
228.989	61.1
229.206	67.24
229.424	108.2
229.642	5.8
229.86	59.05
230.077	20.14
230.295	71.34
230.513	126.63
230.731	52.91
230.948	69.29
231.166	132.78
231.384	54.95
231.601	44.71
231.819	91.82
232.037	69.29
232.254	93.87
232.472	22.19
232.689	26.28
232.907	28.33
233.125	59.05
233.342	-14.68
233.56	28.33
233.777	44.71
233.995	67.24
234.213	36.52
234.43	1.71
234.648	24.23
234.865	26.28
235.083	28.33
235.3	16.04
235.518	91.82
235.735	48.81
235.953	93.87
236.17	-8.53
236.388	22.19
236.605	18.09
236.822	91.82
237.04	91.82
237.257	38.57
237.475	-14.68
237.692	42.67
237.909	40.62
238.127	93.87
238.344	20.14
238.562	50.86
238.779	18.09
238.996	26.28
239.214	108.2
239.431	126.63
239.648	32.43
239.865	-22.87
240.083	52.91
240.3	9.9
240.517	-59.73
240.735	102.06
240.952	67.24
241.169	75.43
241.386	44.71
241.603	9.9
241.821	5.8
242.038	42.67
242.255	24.23
242.472	1.71
242.689	79.53
242.907	-6.49
243.124	30.38
243.341	44.71
243.558	3.75
243.775	-6.49
243.992	30.38
244.209	71.34
244.426	89.77
244.643	42.67
244.86	63.15
245.078	-4.44
245.295	83.63
245.512	-2.39
245.729	30.38
245.946	67.24
246.163	91.82
246.38	18.09
246.597	38.57
246.814	18.09
247.031	34.47
247.248	36.52
247.464	114.34
247.681	44.71
247.898	83.63
248.115	11.95
248.332	-69.97
248.549	26.28
248.766	112.3
248.983	93.87
249.2	5.8
249.417	77.48
249.633	18.09
249.85	20.14
250.067	63.15
250.284	34.47
250.501	95.91
250.717	89.77
250.934	13.99
251.151	-37.2
251.368	59.05
251.585	-8.53
251.801	-47.44
252.018	42.67
252.235	40.62
252.451	-14.68
252.668	59.05
252.885	73.39
253.102	91.82
253.318	34.47
253.535	-10.58
253.752	-22.87
253.968	108.2
254.185	34.47
254.401	42.67
254.618	75.43
254.835	-14.68
255.051	91.82
255.268	-14.68
255.484	22.19
255.701	9.9
255.917	-2.39
256.134	-31.06
256.351	38.57
256.567	-31.06
256.784	5.8
257	-35.16
257.217	75.43
257.433	5.8
257.65	22.19
257.866	42.67
258.082	18.09
258.299	-12.63
258.515	54.95
258.732	-22.87
258.948	26.28
259.165	61.1
259.381	104.11
259.597	93.87
259.814	24.23
260.03	-14.68
260.246	59.05
260.463	34.47
260.679	69.29
260.895	-20.82
261.112	3.75
261.328	38.57
261.544	34.47
261.761	147.11
261.977	38.57
262.193	50.86
262.409	18.09
262.626	95.91
262.842	104.11
263.058	-39.25
263.274	108.2
263.49	9.9
263.707	192.17
263.923	57
264.139	73.39
264.355	91.82
264.571	18.09
264.787	30.38
265.004	126.63
265.22	93.87
265.436	13.99
265.652	87.72
265.868	93.87
266.084	61.1
266.3	77.48
266.516	-24.92
266.732	69.29
266.948	20.14
267.164	-14.68
267.38	91.82
267.596	59.05
267.812	108.2
268.028	77.48
268.244	67.24
268.46	116.39
268.676	7.85
268.892	-18.77
269.108	-29.01
269.324	-12.63
269.54	54.95
269.756	159.4
269.972	30.38
270.188	18.09
270.403	16.04
270.619	104.11
270.835	69.29
271.051	7.85
271.267	-37.2
271.483	18.09
271.698	30.38
271.914	-6.49
272.13	42.67
272.346	9.9
272.562	-6.49
272.777	104.11
272.993	42.67
273.209	26.28
273.425	79.53
273.64	46.76
273.856	52.91
274.072	9.9
274.287	-12.63
274.503	5.8
274.719	61.1
274.934	3.75
275.15	-47.44
275.366	91.82
275.581	-14.68
275.797	38.57
276.012	67.24
276.228	26.28
276.444	114.34
276.659	13.99
276.875	34.47
277.09	30.38
277.306	52.91
277.521	79.53
277.737	9.9
277.952	50.86
278.168	-12.63
278.383	32.43
278.599	89.77
278.814	75.43
279.03	50.86
279.245	28.33
279.461	-16.73
279.676	46.76
279.892	-6.49
280.107	36.52
280.322	-0.34
280.538	69.29
280.753	104.11
280.969	-6.49
281.184	100.01
281.399	42.67
281.615	22.19
281.83	124.58
282.045	-55.64
282.26	54.95
282.476	18.09
282.691	81.58
282.906	77.48
283.122	67.24
283.337	11.95
283.552	54.95
283.767	34.47
283.983	65.19
284.198	91.82
284.413	61.1
284.628	30.38
284.843	18.09
285.058	59.05
285.274	59.05
285.489	18.09
285.704	83.63
285.919	108.2
286.134	9.9
286.349	50.86
286.564	11.95
286.779	57
286.995	5.8
287.21	18.09
287.425	34.47
287.64	-2.39
287.855	63.15
288.07	-65.88
288.285	75.43
288.5	95.91
288.715	95.91
288.93	79.53
289.145	1.71
289.36	79.53
289.575	63.15
289.79	44.71
290.004	36.52
290.219	11.95
290.434	67.24
290.649	26.28
290.864	-14.68
291.079	79.53
291.294	112.3
291.509	20.14
291.724	42.67
291.938	11.95
292.153	85.67
292.368	71.34
292.583	75.43
292.798	34.47
293.012	54.95
293.227	93.87
293.442	69.29
293.657	46.76
293.871	106.15
294.086	-29.01
294.301	100.01
294.516	-6.49
294.73	46.76
294.945	9.9
295.16	26.28
295.374	100.01
295.589	13.99
295.804	44.71
296.018	34.47
296.233	67.24
296.447	143.02
296.662	36.52
296.877	50.86
297.091	75.43
297.306	-4.44
297.52	18.09
297.735	85.67
297.949	-12.63
298.164	67.24
298.378	67.24
298.593	22.19
298.807	81.58
299.022	83.63
299.236	85.67
299.451	-8.53
299.665	83.63
299.88	42.67
300.094	118.44
300.309	61.1
300.523	61.1
300.737	69.29
300.952	104.11
301.166	50.86
301.381	-31.06
301.595	7.85
301.809	36.52
302.024	13.99
302.238	-31.06
302.452	116.39
302.667	67.24
302.881	67.24
303.095	73.39
303.309	22.19
303.524	9.9
303.738	61.1
303.952	85.67
304.166	34.47
304.381	7.85
304.595	71.34
304.809	7.85
305.023	-0.34
305.237	57
305.452	46.76
305.666	75.43
305.88	122.54
306.094	77.48
306.308	48.81
306.522	114.34
306.736	91.82
306.95	85.67
307.164	46.76
307.379	-2.39
307.593	110.25
307.807	59.05
308.021	63.15
308.235	44.71
308.449	36.52
308.663	1.71
308.877	206.5
309.091	54.95
309.305	81.58
309.519	5.8
309.733	54.95
309.947	1.71
310.161	22.19
310.374	104.11
310.588	83.63
310.802	77.48
311.016	22.19
311.23	46.76
311.444	102.06
311.658	20.14
311.872	59.05
312.085	38.57
312.299	169.64
312.513	57
312.727	50.86
312.941	36.52
313.154	91.82
313.368	69.29
313.582	59.05
313.796	44.71
314.009	44.71
314.223	40.62
314.437	110.25
314.651	54.95
314.864	1.71
315.078	1.71
315.292	100.01
315.505	50.86
315.719	40.62
315.933	38.57
316.146	-2.39
316.36	59.05
316.573	61.1
316.787	95.91
317.001	7.85
317.214	18.09
317.428	-6.49
317.641	20.14
317.855	44.71
318.068	50.86
318.282	108.2
318.495	44.71
318.709	9.9
318.922	30.38
319.136	9.9
319.349	120.49
319.563	71.34
319.776	67.24
319.99	36.52
320.203	132.78
320.417	22.19
320.63	59.05
320.843	79.53
321.057	147.11
321.27	38.57
321.483	83.63
321.697	106.15
321.91	75.43
322.124	87.72
322.337	79.53
322.55	-0.34
322.763	57
322.977	20.14
323.19	-10.58
323.403	104.11
323.617	5.8
323.83	61.1
324.043	46.76
324.256	50.86
324.469	79.53
324.683	59.05
324.896	59.05
325.109	61.1
325.322	59.05
325.535	-0.34
325.748	102.06
325.962	126.63
326.175	67.24
326.388	42.67
326.601	42.67
326.814	18.09
327.027	18.09
327.24	36.52
327.453	11.95
327.666	5.8
327.879	59.05
328.092	140.97
328.305	83.63
328.518	46.76
328.731	102.06
328.944	3.75
329.157	54.95
329.37	34.47
329.583	75.43
329.796	132.78
330.009	-16.73
330.222	50.86
330.435	159.4
330.648	61.1
330.861	126.63
331.073	67.24
331.286	18.09
331.499	18.09
331.712	-14.68
331.925	22.19
332.138	42.67
332.35	120.49
332.563	18.09
332.776	34.47
332.989	22.19
333.202	9.9
333.414	38.57
333.627	50.86
333.84	-14.68
334.053	65.19
334.265	79.53
334.478	67.24
334.691	26.28
334.903	38.57
335.116	-31.06
335.329	26.28
335.541	67.24
335.754	20.14
335.966	57
336.179	54.95
336.392	38.57
336.604	26.28
336.817	44.71
337.029	89.77
337.242	22.19
337.454	36.52
337.667	9.9
337.88	100.01
338.092	110.25
338.305	75.43
338.517	30.38
338.729	59.05
338.942	100.01
339.154	-88.4
339.367	32.43
339.579	69.29
339.792	42.67
340.004	126.63
340.217	140.97
340.429	-4.44
340.641	67.24
340.854	40.62
341.066	5.8
341.278	108.2
341.491	136.87
341.703	54.95
341.915	34.47
342.128	-22.87
342.34	136.87
342.552	44.71
342.764	54.95
342.977	81.58
343.189	81.58
343.401	34.47
343.613	20.14
343.826	89.77
344.038	-14.68
344.25	67.24
344.462	28.33
344.674	44.71
344.886	48.81
345.099	65.19
345.311	26.28
345.523	83.63
345.735	63.15
345.947	116.39
346.159	38.57
346.371	67.24
346.583	20.14
346.795	69.29
347.007	18.09
347.219	83.63
347.431	116.39
347.643	91.82
347.855	28.33
348.067	87.72
348.279	26.28
348.491	112.3
348.703	108.2
348.915	28.33
349.127	34.47
349.339	110.25
349.551	-4.44
349.763	34.47
349.975	-2.39
350.187	83.63
350.399	63.15
350.61	20.14
350.822	28.33
351.034	102.06
351.246	63.15
351.458	110.25
351.669	3.75
351.881	116.39
352.093	50.86
352.305	126.63
352.517	104.11
352.728	118.44
352.94	-22.87
353.152	57
353.363	71.34
353.575	120.49
353.787	126.63
353.999	151.21
354.21	11.95
354.422	50.86
354.633	91.82
354.845	50.86
355.057	36.52
355.268	59.05
355.48	71.34
355.692	83.63
355.903	16.04
356.115	7.85
356.326	-20.82
356.538	75.43
356.749	79.53
356.961	126.63
357.172	50.86
357.384	110.25
357.595	52.91
357.807	26.28
358.018	52.91
358.23	87.72
358.441	153.26
358.653	52.91
358.864	95.91
359.075	42.67
359.287	20.14
359.498	151.21
359.709	9.9
359.921	67.24
360.132	54.95
360.344	-20.82
360.555	28.33
360.766	-20.82
360.977	32.43
361.189	42.67
361.4	46.76
361.611	67.24
361.823	71.34
362.034	61.1
362.245	50.86
362.456	104.11
362.667	44.71
362.879	22.19
363.09	155.3
363.301	102.06
363.512	50.86
363.723	77.48
363.935	18.09
364.146	42.67
364.357	28.33
364.568	118.44
364.779	-4.44
364.99	52.91
365.201	3.75
365.412	40.62
365.623	5.8
365.834	132.78
366.045	77.48
366.256	42.67
366.467	59.05
366.678	34.47
366.889	89.77
367.1	128.68
367.311	22.19
367.522	91.82
367.733	59.05
367.944	104.11
368.155	65.19
368.366	-29.01
368.577	116.39
368.788	67.24
368.999	50.86
369.209	50.86
369.42	149.16
369.631	171.69
369.842	26.28
370.053	42.67
370.264	67.24
370.474	16.04
370.685	-39.25
370.896	75.43
371.107	93.87
371.317	100.01
371.528	79.53
371.739	85.67
371.95	65.19
372.16	110.25
372.371	50.86
372.582	89.77
372.792	61.1
373.003	102.06
373.214	171.69
373.424	-6.49
373.635	79.53
373.846	59.05
374.056	18.09
374.267	108.2
374.477	44.71
374.688	9.9
374.898	91.82
375.109	89.77
375.319	67.24
375.53	38.57
375.74	67.24
375.951	100.01
376.161	89.77
376.372	67.24
376.582	75.43
376.793	42.67
377.003	34.47
377.214	61.1
377.424	83.63
377.635	46.76
377.845	46.76
378.055	89.77
378.266	81.58
378.476	34.47
378.686	140.97
378.897	104.11
379.107	110.25
379.317	120.49
379.528	61.1
379.738	50.86
379.948	52.91
380.158	63.15
380.369	59.05
380.579	52.91
380.789	95.91
380.999	91.82
381.21	97.96
381.42	108.2
381.63	38.57
381.84	132.78
382.05	67.24
382.261	69.29
382.471	116.39
382.681	-2.39
382.891	126.63
383.101	50.86
383.311	7.85
383.521	52.91
383.731	75.43
383.941	124.58
384.151	63.15
384.361	69.29
384.571	30.38
384.781	110.25
384.991	140.97
385.201	102.06
385.411	87.72
385.621	149.16
385.831	108.2
386.041	20.14
386.251	3.75
386.461	116.39
386.671	93.87
386.881	95.91
387.091	5.8
387.301	67.24
387.511	102.06
387.72	26.28
387.93	149.16
388.14	73.39
388.35	5.8
388.56	93.87
388.769	81.58
388.979	63.15
389.189	9.9
389.399	114.34
389.609	83.63
389.818	75.43
390.028	110.25
390.238	22.19
390.447	-18.77
390.657	83.63
390.867	-10.58
391.076	11.95
391.286	36.52
391.496	75.43
391.705	36.52
391.915	91.82
392.125	100.01
392.334	77.48
392.544	116.39
392.753	69.29
392.963	24.23
393.172	120.49
393.382	83.63
393.591	63.15
393.801	28.33
394.01	124.58
394.22	157.35
394.429	97.96
394.639	32.43
394.848	161.45
395.058	124.58
395.267	71.34
395.477	116.39
395.686	183.98
395.895	132.78
396.105	186.02
396.314	165.54
396.524	67.24
396.733	110.25
396.942	173.74
397.152	171.69
397.361	54.95
397.57	100.01
397.78	112.3
397.989	83.63
398.198	100.01
398.407	69.29
398.617	93.87
398.826	157.35
399.035	108.2
399.244	67.24
399.453	108.2
399.663	116.39
399.872	165.54
400.081	116.39
400.29	151.21
400.499	140.97
400.708	151.21
400.917	67.24
401.127	81.58
401.336	106.15
401.545	231.08
401.754	138.92
401.963	149.16
402.172	173.74
402.381	100.01
402.59	85.67
402.799	165.54
403.008	138.92
403.217	263.85
403.426	116.39
403.635	140.97
403.844	145.06
404.053	192.17
404.262	212.65
404.471	218.79
404.68	179.88
404.888	138.92
405.097	104.11
405.306	251.56
405.515	247.46
405.724	186.02
405.933	190.12
406.142	214.7
406.35	231.08
406.559	272.04
406.768	198.31
406.977	321.19
407.185	251.56
407.394	288.42
407.603	186.02
407.812	218.79
408.02	313
408.229	325.29
408.438	249.51
408.646	353.96
408.855	317.09
409.064	304.81
409.272	396.96
409.481	362.15
409.69	370.34
409.898	399.01
410.107	396.96
410.315	427.68
410.524	378.53
410.733	415.4
410.941	405.16
411.15	497.32
411.358	503.46
411.567	538.27
411.775	474.79
411.984	480.93
412.192	478.88
412.401	470.69
412.609	626.34
412.818	665.25
413.026	642.72
413.234	599.71
413.443	579.23
413.651	749.22
413.86	726.69
414.068	812.7
414.276	802.46
414.485	745.12
414.693	876.19
414.901	898.72
415.11	820.89
415.318	896.67
415.526	886.43
415.734	1009.31
415.943	999.07
416.151	951.96
416.359	968.35
416.567	997.02
416.776	1033.88
416.984	1193.62
417.192	1271.45
417.4	1179.29
417.608	1224.34
417.817	1218.2
418.025	1396.37
418.233	1429.14
418.441	1427.09
418.649	1451.67
418.857	1541.78
419.065	1562.26
419.273	1558.16
419.481	1691.28
419.689	1838.73
419.897	1803.92
420.105	1840.78
420.313	1953.42
420.521	2002.57
420.729	1992.33
420.937	2049.68
421.145	2211.46
421.353	2369.16
421.561	2426.5
421.769	2377.35
421.977	2616.96
422.185	2451.08
422.393	2567.81
422.601	2684.55
422.809	2836.1
423.017	2670.21
423.224	2893.44
423.432	2989.69
423.64	3075.71
423.848	3362.42
424.056	3253.88
424.263	3599.99
424.471	3444.34
424.679	3606.13
424.887	3712.63
425.094	3759.73
425.302	3931.76
425.51	3974.77
425.718	4066.92
425.925	4279.91
426.133	4490.85
426.341	4652.64
426.548	4685.41
426.756	4836.96
426.964	4793.95
427.171	5178.97
427.379	5281.37
427.586	5287.51
427.794	5652.05
428.001	5670.48
428.209	5994.06
428.417	5981.78
428.624	6342.22
428.832	6104.65
429.039	6370.89
429.247	6399.56
429.454	6874.69
429.662	7366.2
429.869	6917.7
430.076	7378.49
430.284	7120.45
430.491	7341.63
430.699	7794.23
430.906	7917.11
431.114	8017.46
431.321	8314.41
431.528	8523.3
431.736	8996.39
431.943	9371.16
432.15	8959.52
432.358	9311.77
432.565	9553.43
432.772	9819.67
432.979	10092.05
433.187	10405.39
433.394	10366.48
433.601	11081.22
433.808	10960.39
434.016	10905.09
434.223	11472.38
434.43	12266.99
434.637	11992.56
434.844	12695.02
435.052	12666.35
435.259	12512.75
435.466	12752.36
435.673	12781.03
435.88	13647.32
436.087	14144.98
436.294	14296.53
436.501	13927.89
436.708	14255.57
436.915	14833.1
437.122	15455.68
437.329	15211.97
437.537	15547.84
437.743	15947.19
437.95	15943.1
438.157	16858.54
438.364	17044.9
438.571	17315.23
438.778	17696.16
438.985	19047.82
439.192	18269.59
439.399	18843.02
439.606	18384.27
439.813	19400.07
440.02	20745.58
440.227	20168.05
440.433	19905.91
440.64	20579.7
440.847	20639.09
441.054	21112.17
441.261	22392.15
441.467	21908.83
441.674	22625.62
441.881	23276.87
442.088	23338.31
442.294	23108.94
442.501	23496
442.708	24307
442.914	25074.99
443.121	26092.83
443.328	25445.67
443.534	27352.33
443.741	26449.18
443.948	26029.34
444.154	28237.05
444.361	27747.59
444.568	27684.1
444.774	27673.86
444.981	28251.39
445.187	29162.73
445.394	30338.27
445.6	29940.96
445.807	32785.59
446.013	31497.42
446.22	31904.96
446.426	33324.21
446.633	33008.82
446.839	34651.29
447.046	33303.73
447.252	34546.84
447.459	35216.53
447.665	34344.09
447.871	36095.11
448.078	37956.71
448.284	35771.53
448.491	37102.71
448.697	38339.68
448.903	39193.68
449.11	39472.21
449.316	38949.98
449.522	39361.62
449.728	40729.66
449.935	40932.41
450.141	40598.59
450.347	41520.18
450.553	40531.01
450.76	40410.18
450.966	42267.69
451.172	41425.97
451.378	42415.14
451.584	41440.31
451.791	42798.11
451.997	42720.29
452.203	43277.33
452.409	43539.47
452.615	42990.62
452.821	41870.38
453.027	41227.32
453.233	43219.99
453.44	41456.69
453.646	41937.96
453.852	42525.73
454.058	43093.02
454.264	41532.46
454.47	42667.04
454.676	41483.31
454.882	43215.9
455.088	39511.12
455.294	39607.37
455.5	40571.97
455.705	40834.11
455.911	39124.05
456.117	38294.63
456.323	37614.7
456.529	36052.1
456.735	37917.8
456.941	36551.8
457.147	36189.31
457.352	34991.25
457.558	34385.05
457.764	34610.33
457.97	34045.09
458.176	33537.19
458.381	33322.16
458.587	31749.32
458.793	31509.71
458.999	30209.25
459.204	32138.43
459.41	31266
459.616	29222.12
459.821	29306.09
460.027	29422.83
460.233	28560.63
460.438	27280.65
460.644	27686.15
460.85	25967.9
461.055	25754.91
461.261	25765.15
461.466	23846.21
461.672	23229.77
461.878	24472.89
462.083	23141.71
462.289	22637.91
462.494	22236.5
462.7	21353.83
462.905	20802.93
463.111	21523.81
463.316	21675.36
463.522	21362.02
463.727	21089.64
463.932	21116.26
464.138	20600.18
464.343	20940.14
464.549	20231.54
464.754	20688.24
464.959	20962.67
465.165	20354.42
465.37	19570.05
465.575	19357.06
465.781	20088.18
465.986	20043.13
466.191	19301.76
466.397	18619.79
466.602	17974.68
466.807	18652.56
