Data from USB4F104151__87__14-30-38-446.txt Node

Date: Thu Mar 13 14:30:38 EDT 2025
User: louis
Spectrometer: USB4F10415
Trigger mode: 4
Integration Time (sec): 2.500000E-2
Scans to average: 1
Electric dark correction enabled: true
Nonlinearity correction enabled: false
Boxcar width: 0
XAxis mode: Wavelengths
Number of Pixels in Spectrum: 3648
>>>>>Begin Spectral Data<<<<<
178.204	-135.17
178.424	-135.17
178.644	-135.17
178.864	-151.55
179.084	-79.87
179.304	4.1
179.524	16.38
179.744	-36.86
179.964	47.1
180.184	36.86
180.404	47.1
180.624	-20.48
180.844	6.14
181.064	-38.91
181.283	-28.67
181.503	-0
181.723	-32.77
181.943	-49.15
182.163	45.06
182.383	51.2
182.602	4.1
182.822	51.2
183.042	73.73
183.262	12.29
183.482	-34.82
183.701	16.38
183.921	24.58
184.141	-2.05
184.361	49.15
184.58	34.82
184.8	40.96
185.02	81.92
185.239	61.44
185.459	53.25
185.679	94.21
185.898	-51.2
186.118	28.67
186.338	-4.1
186.557	77.82
186.777	-18.43
186.997	-12.29
187.216	45.06
187.436	45.06
187.655	45.06
187.875	131.07
188.095	43.01
188.314	147.45
188.534	118.78
188.753	86.01
188.973	-16.38
189.192	36.86
189.412	43.01
189.631	4.1
189.851	-69.63
190.07	57.34
190.29	28.67
190.509	100.35
190.729	69.63
190.948	69.63
191.168	122.88
191.387	100.35
191.607	-4.1
191.826	69.63
192.045	47.1
192.265	51.2
192.484	10.24
192.704	86.01
192.923	-43.01
193.142	167.93
193.362	71.68
193.581	126.97
193.8	94.21
194.02	36.86
194.239	55.3
194.458	2.05
194.678	40.96
194.897	69.63
195.116	53.25
195.335	36.86
195.555	63.49
195.774	28.67
195.993	36.86
196.212	-20.48
196.432	-57.34
196.651	22.53
196.87	-6.14
197.089	94.21
197.308	53.25
197.528	96.25
197.747	-10.24
197.966	36.86
198.185	55.3
198.404	-51.2
198.623	-26.62
198.842	120.83
199.062	22.53
199.281	40.96
199.5	10.24
199.719	-24.58
199.938	81.92
200.157	79.87
200.376	36.86
200.595	55.3
200.814	32.77
201.033	73.73
201.252	110.59
201.471	67.58
201.69	53.25
201.909	71.68
202.128	61.44
202.347	61.44
202.566	-6.14
202.785	-10.24
203.004	-30.72
203.223	61.44
203.442	-2.05
203.661	22.53
203.879	47.1
204.098	71.68
204.317	10.24
204.536	94.21
204.755	-4.1
204.974	36.86
205.193	47.1
205.411	159.74
205.63	45.06
205.849	2.05
206.068	51.2
206.287	4.1
206.505	73.73
206.724	16.38
206.943	10.24
207.162	20.48
207.381	73.73
207.599	94.21
207.818	67.58
208.037	45.06
208.255	-0
208.474	8.19
208.693	18.43
208.911	-43.01
209.13	12.29
209.349	36.86
209.567	61.44
209.786	22.53
210.005	2.05
210.223	22.53
210.442	-8.19
210.661	61.44
210.879	28.67
211.098	-18.43
211.316	75.77
211.535	12.29
211.753	10.24
211.972	-12.29
212.191	61.44
212.409	77.82
212.628	4.1
212.846	57.34
213.065	-14.34
213.283	12.29
213.502	36.86
213.72	-4.1
213.938	24.58
214.157	6.14
214.375	10.24
214.594	45.06
214.812	38.91
215.031	36.86
215.249	67.58
215.467	53.25
215.686	-53.25
215.904	110.59
216.122	-45.06
216.341	79.87
216.559	57.34
216.778	145.41
216.996	-24.58
217.214	30.72
217.432	94.21
217.651	38.91
217.869	49.15
218.087	4.1
218.306	36.86
218.524	88.06
218.742	-16.38
218.96	55.3
219.179	26.62
219.397	6.14
219.615	69.63
219.833	12.29
220.051	22.53
220.27	81.92
220.488	8.19
220.706	71.68
220.924	22.53
221.142	-49.15
221.36	81.92
221.578	65.53
221.796	28.67
222.015	32.77
222.233	-59.39
222.451	81.92
222.669	14.34
222.887	16.38
223.105	-47.1
223.323	45.06
223.541	51.2
223.759	86.01
223.977	-12.29
224.195	49.15
224.413	8.19
224.631	-24.58
224.849	32.77
225.067	110.59
225.285	112.64
225.503	10.24
225.721	28.67
225.939	18.43
226.157	47.1
226.375	40.96
226.592	77.82
226.81	90.11
227.028	69.63
227.246	102.4
227.464	-12.29
227.682	55.3
227.9	73.73
228.117	16.38
228.335	28.67
228.553	102.4
228.771	20.48
228.989	86.01
229.206	118.78
229.424	-12.29
229.642	61.44
229.86	-67.58
230.077	14.34
230.295	8.19
230.513	53.25
230.731	49.15
230.948	47.1
231.166	69.63
231.384	-12.29
231.601	45.06
231.819	73.73
232.037	4.1
232.254	43.01
232.472	75.77
232.689	-4.1
232.907	28.67
233.125	12.29
233.342	28.67
233.56	12.29
233.777	71.68
233.995	-4.1
234.213	65.53
234.43	71.68
234.648	57.34
234.865	-26.62
235.083	65.53
235.3	-10.24
235.518	63.49
235.735	108.54
235.953	65.53
236.17	8.19
236.388	30.72
236.605	43.01
236.822	55.3
237.04	104.45
237.257	67.58
237.475	6.14
237.692	88.06
237.909	71.68
238.127	90.11
238.344	26.62
238.562	153.6
238.779	28.67
238.996	-4.1
239.214	36.86
239.431	90.11
239.648	26.62
239.865	96.25
240.083	16.38
240.3	6.14
240.517	8.19
240.735	61.44
240.952	30.72
241.169	20.48
241.386	108.54
241.603	28.67
241.821	73.73
242.038	30.72
242.255	83.97
242.472	-45.06
242.689	28.67
242.907	67.58
243.124	12.29
243.341	22.53
243.558	20.48
243.775	-20.48
243.992	-34.82
244.209	53.25
244.426	112.64
244.643	47.1
244.86	38.91
245.078	24.58
245.295	14.34
245.512	8.19
245.729	30.72
245.946	69.63
246.163	79.87
246.38	8.19
246.597	112.64
246.814	30.72
247.031	79.87
247.248	-53.25
247.464	-0
247.681	4.1
247.898	59.39
248.115	53.25
248.332	28.67
248.549	-4.1
248.766	77.82
248.983	120.83
249.2	12.29
249.417	65.53
249.633	8.19
249.85	49.15
250.067	36.86
250.284	4.1
250.501	49.15
250.717	96.25
250.934	28.67
251.151	18.43
251.368	18.43
251.585	94.21
251.801	28.67
252.018	-16.38
252.235	24.58
252.451	-40.96
252.668	-6.14
252.885	102.4
253.102	-20.48
253.318	-24.58
253.535	81.92
253.752	-8.19
253.968	-22.53
254.185	32.77
254.401	-0
254.618	57.34
254.835	83.97
255.051	81.92
255.268	59.39
255.484	110.59
255.701	12.29
255.917	94.21
256.134	10.24
256.351	122.88
256.567	24.58
256.784	79.87
257	-30.72
257.217	106.49
257.433	24.58
257.65	86.01
257.866	131.07
258.082	-0
258.299	16.38
258.515	49.15
258.732	-12.29
258.948	-2.05
259.165	104.45
259.381	-6.14
259.597	49.15
259.814	32.77
260.03	-61.44
260.246	28.67
260.463	45.06
260.679	24.58
260.895	4.1
261.112	36.86
261.328	-28.67
261.544	20.48
261.761	94.21
261.977	-12.29
262.193	28.67
262.409	73.73
262.626	47.1
262.842	92.16
263.058	-6.14
263.274	69.63
263.49	2.05
263.707	45.06
263.923	61.44
264.139	28.67
264.355	22.53
264.571	147.45
264.787	12.29
265.004	81.92
265.22	-8.19
265.436	-24.58
265.652	16.38
265.868	-18.43
266.084	-16.38
266.3	51.2
266.516	-16.38
266.732	45.06
266.948	47.1
267.164	69.63
267.38	38.91
267.596	53.25
267.812	118.78
268.028	28.67
268.244	28.67
268.46	2.05
268.676	36.86
268.892	61.44
269.108	36.86
269.324	36.86
269.54	4.1
269.756	86.01
269.972	61.44
270.188	69.63
270.403	-10.24
270.619	30.72
270.835	55.3
271.051	32.77
271.267	-22.53
271.483	-8.19
271.698	114.69
271.914	20.48
272.13	20.48
272.346	55.3
272.562	-45.06
272.777	28.67
272.993	38.91
273.209	-28.67
273.425	55.3
273.64	-53.25
273.856	61.44
274.072	69.63
274.287	-47.1
274.503	106.49
274.719	-2.05
274.934	81.92
275.15	20.48
275.366	-2.05
275.581	-12.29
275.797	69.63
276.012	88.06
276.228	47.1
276.444	20.48
276.659	59.39
276.875	-16.38
277.09	-8.19
277.306	36.86
277.521	106.49
277.737	-4.1
277.952	110.59
278.168	-20.48
278.383	65.53
278.599	49.15
278.814	53.25
279.03	47.1
279.245	61.44
279.461	12.29
279.676	12.29
279.892	20.48
280.107	28.67
280.322	-2.05
280.538	47.1
280.753	30.72
280.969	12.29
281.184	12.29
281.399	53.25
281.615	14.34
281.83	8.19
282.045	2.05
282.26	53.25
282.476	77.82
282.691	94.21
282.906	6.14
283.122	45.06
283.337	6.14
283.552	63.49
283.767	22.53
283.983	16.38
284.198	53.25
284.413	8.19
284.628	-4.1
284.843	43.01
285.058	-4.1
285.274	110.59
285.489	-45.06
285.704	94.21
285.919	-57.34
286.134	4.1
286.349	16.38
286.564	45.06
286.779	79.87
286.995	32.77
287.21	-28.67
287.425	88.06
287.64	49.15
287.855	108.54
288.07	-26.62
288.285	65.53
288.5	118.78
288.715	55.3
288.93	55.3
289.145	22.53
289.36	36.86
289.575	6.14
289.79	-10.24
290.004	79.87
290.219	69.63
290.434	4.1
290.649	73.73
290.864	61.44
291.079	45.06
291.294	34.82
291.509	22.53
291.724	53.25
291.938	-0
292.153	100.35
292.368	45.06
292.583	16.38
292.798	104.45
293.012	40.96
293.227	94.21
293.442	53.25
293.657	12.29
293.871	47.1
294.086	28.67
294.301	88.06
294.516	71.68
294.73	32.77
294.945	30.72
295.16	61.44
295.374	45.06
295.589	186.37
295.804	-10.24
296.018	79.87
296.233	88.06
296.447	86.01
296.662	147.45
296.877	94.21
297.091	69.63
297.306	61.44
297.52	61.44
297.735	102.4
297.949	81.92
298.164	79.87
298.378	10.24
298.593	49.15
298.807	49.15
299.022	30.72
299.236	59.39
299.451	71.68
299.665	63.49
299.88	40.96
300.094	32.77
300.309	90.11
300.523	77.82
300.737	73.73
300.952	53.25
301.166	28.67
301.381	-0
301.595	114.69
301.809	69.63
302.024	14.34
302.238	-2.05
302.452	71.68
302.667	69.63
302.881	141.31
303.095	114.69
303.309	8.19
303.524	28.67
303.738	12.29
303.952	8.19
304.166	124.93
304.381	36.86
304.595	53.25
304.809	90.11
305.023	118.78
305.237	4.1
305.452	32.77
305.666	102.4
305.88	22.53
306.094	79.87
306.308	104.45
306.522	4.1
306.736	69.63
306.95	30.72
307.164	88.06
307.379	20.48
307.593	178.17
307.807	129.02
308.021	24.58
308.235	38.91
308.449	-2.05
308.663	61.44
308.877	86.01
309.091	-18.43
309.305	47.1
309.519	28.67
309.733	114.69
309.947	32.77
310.161	61.44
310.374	86.01
310.588	28.67
310.802	12.29
311.016	36.86
311.23	88.06
311.444	61.44
311.658	47.1
311.872	104.45
312.085	28.67
312.299	20.48
312.513	51.2
312.727	65.53
312.941	-2.05
313.154	6.14
313.368	45.06
313.582	61.44
313.796	4.1
314.009	69.63
314.223	96.25
314.437	34.82
314.651	77.82
314.864	28.67
315.078	-0
315.292	20.48
315.505	-26.62
315.719	12.29
315.933	12.29
316.146	16.38
316.36	69.63
316.573	28.67
316.787	106.49
317.001	22.53
317.214	-10.24
317.428	69.63
317.641	-16.38
317.855	16.38
318.068	90.11
318.282	-20.48
318.495	32.77
318.709	26.62
318.922	8.19
319.136	96.25
319.349	45.06
319.563	16.38
319.776	45.06
319.99	-24.58
320.203	102.4
320.417	-61.44
320.63	102.4
320.843	30.72
321.057	59.39
321.27	16.38
321.483	-4.1
321.697	116.73
321.91	49.15
322.124	108.54
322.337	104.45
322.55	118.78
322.763	-24.58
322.977	83.97
323.19	-4.1
323.403	-12.29
323.617	49.15
323.83	94.21
324.043	102.4
324.256	53.25
324.469	-45.06
324.683	83.97
324.896	53.25
325.109	28.67
325.322	16.38
325.535	49.15
325.748	104.45
325.962	53.25
326.175	16.38
326.388	69.63
326.601	135.17
326.814	61.44
327.027	36.86
327.24	73.73
327.453	-20.48
327.666	71.68
327.879	151.55
328.092	79.87
328.305	28.67
328.518	108.54
328.731	-6.14
328.944	38.91
329.157	55.3
329.37	67.58
329.583	114.69
329.796	110.59
330.009	-0
330.222	71.68
330.435	75.77
330.648	53.25
330.861	12.29
331.073	49.15
331.286	110.59
331.499	-2.05
331.712	4.1
331.925	10.24
332.138	96.25
332.35	90.11
332.563	10.24
332.776	49.15
332.989	2.05
333.202	49.15
333.414	22.53
333.627	12.29
333.84	36.86
334.053	81.92
334.265	-12.29
334.478	61.44
334.691	88.06
334.903	88.06
335.116	53.25
335.329	90.11
335.541	-10.24
335.754	169.98
335.966	14.34
336.179	28.67
336.392	77.82
336.604	-8.19
336.817	98.3
337.029	96.25
337.242	59.39
337.454	32.77
337.667	106.49
337.88	88.06
338.092	81.92
338.305	81.92
338.517	-53.25
338.729	12.29
338.942	59.39
339.154	86.01
339.367	90.11
339.579	59.39
339.792	6.14
340.004	92.16
340.217	-20.48
340.429	79.87
340.641	88.06
340.854	86.01
341.066	22.53
341.278	110.59
341.491	110.59
341.703	51.2
341.915	-16.38
342.128	71.68
342.34	49.15
342.552	81.92
342.764	34.82
342.977	49.15
343.189	-2.05
343.401	110.59
343.613	18.43
343.826	45.06
344.038	40.96
344.25	28.67
344.462	-2.05
344.674	30.72
344.886	18.43
345.099	69.63
345.311	77.82
345.523	79.87
345.735	-20.48
345.947	86.01
346.159	86.01
346.371	79.87
346.583	28.67
346.795	137.21
347.007	18.43
347.219	57.34
347.431	45.06
347.643	69.63
347.855	-22.53
348.067	-0
348.279	-61.44
348.491	75.77
348.703	51.2
348.915	120.83
349.127	40.96
349.339	51.2
349.551	20.48
349.763	61.44
349.975	53.25
350.187	14.34
350.399	69.63
350.61	43.01
350.822	-10.24
351.034	38.91
351.246	4.1
351.458	45.06
351.669	83.97
351.881	159.74
352.093	45.06
352.305	145.41
352.517	45.06
352.728	100.35
352.94	36.86
353.152	-10.24
353.363	14.34
353.575	135.17
353.787	190.46
353.999	6.14
354.21	57.34
354.422	38.91
354.633	16.38
354.845	22.53
355.057	18.43
355.268	100.35
355.48	20.48
355.692	59.39
355.903	61.44
356.115	69.63
356.326	-63.49
356.538	86.01
356.749	43.01
356.961	47.1
357.172	94.21
357.384	55.3
357.595	12.29
357.807	32.77
358.018	-10.24
358.23	2.05
358.441	108.54
358.653	53.25
358.864	47.1
359.075	61.44
359.287	86.01
359.498	86.01
359.709	53.25
359.921	32.77
360.132	59.39
360.344	59.39
360.555	-36.86
360.766	73.73
360.977	110.59
361.189	20.48
361.4	61.44
361.611	118.78
361.823	16.38
362.034	26.62
362.245	4.1
362.456	61.44
362.667	102.4
362.879	73.73
363.09	126.97
363.301	38.91
363.512	79.87
363.723	49.15
363.935	28.67
364.146	94.21
364.357	55.3
364.568	24.58
364.779	110.59
364.99	20.48
365.201	-0
365.412	157.69
365.623	-2.05
365.834	73.73
366.045	-8.19
366.256	106.49
366.467	184.32
366.678	6.14
366.889	45.06
367.1	22.53
367.311	90.11
367.522	69.63
367.733	4.1
367.944	114.69
368.155	22.53
368.366	53.25
368.577	53.25
368.788	77.82
368.999	12.29
369.209	40.96
369.42	47.1
369.631	53.25
369.842	118.78
370.053	88.06
370.264	102.4
370.474	4.1
370.685	112.64
370.896	110.59
371.107	77.82
371.317	57.34
371.528	67.58
371.739	106.49
371.95	94.21
372.16	81.92
372.371	-26.62
372.582	69.63
372.792	94.21
373.003	94.21
373.214	106.49
373.424	65.53
373.635	-26.62
373.846	145.41
374.056	55.3
374.267	106.49
374.477	57.34
374.688	26.62
374.898	8.19
375.109	-0
375.319	38.91
375.53	104.45
375.74	67.58
375.951	102.4
376.161	153.6
376.372	141.31
376.582	81.92
376.793	104.45
377.003	12.29
377.214	65.53
377.424	73.73
377.635	118.78
377.845	4.1
378.055	110.59
378.266	53.25
378.476	53.25
378.686	61.44
378.897	75.77
379.107	28.67
379.317	86.01
379.528	94.21
379.738	6.14
379.948	45.06
380.158	116.73
380.369	106.49
380.579	104.45
380.789	16.38
380.999	96.25
381.21	71.68
381.42	159.74
381.63	67.58
381.84	94.21
382.05	131.07
382.261	145.41
382.471	61.44
382.681	12.29
382.891	124.93
383.101	124.93
383.311	12.29
383.521	102.4
383.731	108.54
383.941	63.49
384.151	28.67
384.361	24.58
384.571	57.34
384.781	26.62
384.991	61.44
385.201	229.37
385.411	104.45
385.621	67.58
385.831	106.49
386.041	112.64
386.251	92.16
386.461	71.68
386.671	45.06
386.881	47.1
387.091	69.63
387.301	77.82
387.511	96.25
387.72	69.63
387.93	120.83
388.14	77.82
388.35	81.92
388.56	106.49
388.769	36.86
388.979	86.01
389.189	51.2
389.399	159.74
389.609	86.01
389.818	73.73
390.028	104.45
390.238	112.64
390.447	79.87
390.657	81.92
390.867	71.68
391.076	53.25
391.286	102.4
391.496	38.91
391.705	45.06
391.915	182.27
392.125	129.02
392.334	12.29
392.544	182.27
392.753	81.92
392.963	73.73
393.172	24.58
393.382	22.53
393.591	155.65
393.801	40.96
394.01	114.69
394.22	126.97
394.429	96.25
394.639	86.01
394.848	114.69
395.058	159.74
395.267	131.07
395.477	96.25
395.686	86.01
395.895	86.01
396.105	131.07
396.314	151.55
396.524	153.6
396.733	77.82
396.942	151.55
397.152	182.27
397.361	196.6
397.57	61.44
397.78	86.01
397.989	118.78
398.198	169.98
398.407	200.7
398.617	131.07
398.826	143.36
399.035	81.92
399.244	86.01
399.453	174.08
399.663	120.83
399.872	192.51
400.081	65.53
400.29	167.93
400.499	163.84
400.708	135.17
400.917	77.82
401.127	120.83
401.336	137.21
401.545	180.22
401.754	100.35
401.963	194.56
402.172	167.93
402.381	139.26
402.59	182.27
402.799	186.37
403.008	159.74
403.217	192.51
403.426	202.75
403.635	167.93
403.844	159.74
404.053	159.74
404.262	184.32
404.471	282.62
404.68	155.65
404.888	217.08
405.097	131.07
405.306	274.43
405.515	204.8
405.724	227.32
405.933	329.72
406.142	268.28
406.35	309.24
406.559	282.62
406.768	264.19
406.977	307.2
407.185	258.04
407.394	299
407.603	249.85
407.812	299
408.02	309.24
408.229	360.44
408.438	327.67
408.646	217.08
408.855	393.21
409.064	315.39
409.272	337.91
409.481	438.27
409.69	364.54
409.898	294.91
410.107	380.92
410.315	395.26
410.524	407.55
410.733	475.13
410.941	503.8
411.15	618.49
411.358	595.96
411.567	579.58
411.775	575.48
411.984	618.49
412.192	620.53
412.401	638.97
412.609	710.65
412.818	716.79
413.026	706.55
413.234	733.17
413.443	706.55
413.651	770.04
413.86	839.67
414.068	907.25
414.276	827.38
414.485	858.1
414.693	954.35
414.901	1103.86
415.11	1093.62
415.318	1052.66
415.526	1112.05
415.734	1169.39
415.943	1128.43
416.151	1298.41
416.359	1345.52
416.567	1294.32
416.776	1320.94
416.984	1372.14
417.192	1380.33
417.4	1462.25
417.608	1374.19
417.817	1572.84
418.025	1675.24
418.233	1742.82
418.441	1712.1
418.649	1769.44
418.857	1800.16
419.065	1923.04
419.273	1941.47
419.481	1945.57
419.689	2068.45
419.897	2170.85
420.105	2195.42
420.313	2297.82
420.521	2392.03
420.729	2465.75
420.937	2535.39
421.145	2572.25
421.353	2723.8
421.561	2914.26
421.769	2852.82
421.977	3100.62
422.185	2965.46
422.393	3133.39
422.601	3395.53
422.809	3465.16
423.017	3461.07
423.224	3542.99
423.432	3674.06
423.64	3862.47
423.848	4132.8
424.056	3997.63
424.263	4179.9
424.471	4145.09
424.679	4247.49
424.887	4540.35
425.094	4870.07
425.302	4632.51
425.51	4956.08
425.718	5076.91
425.925	5087.15
426.133	5185.46
426.341	5640.11
426.548	5748.65
426.756	5629.87
426.964	5875.62
427.171	6049.7
427.379	6289.31
427.586	6520.73
427.794	6682.52
428.001	6997.91
428.209	7344.02
428.417	7049.11
428.624	7780.23
428.832	7643.02
429.039	7548.81
429.247	7769.99
429.454	8277.89
429.662	8843.13
429.869	8304.51
430.076	8925.05
430.284	8679.29
430.491	8882.04
430.699	9367.41
430.906	9658.22
431.114	9770.86
431.321	9924.46
431.528	10270.56
431.736	10784.6
431.943	11358.03
432.15	11052.89
432.358	11112.28
432.565	11714.38
432.772	11706.19
432.979	12488.51
433.187	12447.55
433.394	12416.83
433.601	13483.83
433.808	13508.4
434.016	13444.91
434.223	13954.86
434.43	14845.73
434.637	14636.83
434.844	15603.47
435.052	15619.86
435.259	15705.87
435.466	16047.88
435.673	15474.45
435.88	16551.68
436.087	17245.94
436.294	17383.16
436.501	17161.98
436.708	17239.8
436.915	17719.03
437.122	18652.9
437.329	18661.09
437.537	19058.4
437.743	19562.2
437.95	19396.31
438.157	20547.27
438.364	21001.92
438.571	21053.12
438.778	21194.43
438.985	23236.25
439.192	22345.39
439.399	23013.02
439.606	22720.17
439.813	23639.7
440.02	25144.96
440.227	24878.72
440.433	24512.14
440.64	24954.5
440.847	25290.37
441.054	25702.01
441.261	27379.29
441.467	26885.73
441.674	27448.93
441.881	28513.87
442.088	28337.74
442.294	28327.5
442.501	29105.73
442.708	29724.22
442.914	30830.12
443.121	31874.59
443.328	31176.23
443.534	33129.99
443.741	32290.32
443.948	31602.21
444.154	34182.65
444.361	34039.29
444.568	33992.19
444.774	34319.86
444.981	34610.67
445.187	35673.57
445.394	36851.15
445.6	36926.92
445.807	39544.23
446.013	38350.26
446.22	38921.65
446.426	40387.99
446.633	40347.03
446.839	42149.24
447.046	40689.04
447.252	42806.64
447.459	42493.3
447.665	42472.82
447.871	44098.91
448.078	46392.64
448.284	44350.81
448.491	45108.56
448.697	46712.12
448.903	47402.28
449.11	47699.24
449.316	47064.37
449.522	47936.8
449.728	48700.7
449.935	49741.06
450.141	49315.09
450.347	50351.36
450.553	48778.52
450.76	49382.67
450.966	51119.35
451.172	50242.82
451.378	51623.15
451.584	50795.77
451.791	52026.6
451.997	51602.67
452.203	52503.77
452.409	52505.82
452.615	51985.64
452.821	50609.4
453.027	49607.95
453.233	52237.54
453.44	50306.3
453.646	51170.55
453.852	50935.03
454.058	52102.37
454.264	49956.1
454.47	51725.55
454.676	50265.34
454.882	51950.82
455.088	47316.27
455.294	48383.26
455.5	48698.65
455.705	49515.79
455.911	47392.04
456.117	46794.04
456.323	45923.65
456.529	43832.68
456.735	45405.52
456.941	44639.57
457.147	43621.73
457.352	42259.84
457.558	41600.39
457.764	42106.24
457.97	41115.02
458.176	40101.28
458.381	40150.43
458.587	38249.91
458.793	38174.14
458.999	36160.98
459.204	38679.99
459.41	37803.46
459.616	35356.13
459.821	35483.11
460.027	35173.86
460.233	34059.77
460.438	32570.89
460.644	33154.57
460.85	31542.81
461.055	31157.8
461.261	31016.49
461.466	28806.73
461.672	27833.94
461.878	30103.09
462.083	28005.97
462.289	27514.46
462.494	27209.31
462.7	25814.65
462.905	25058.95
463.111	26138.23
463.316	26308.21
463.522	25673.34
463.727	25839.22
463.932	25810.55
464.138	25482.88
464.343	25597.56
464.549	24710.79
464.754	25446.01
464.959	25523.83
465.165	25183.87
465.37	23883.41
465.575	23666.33
465.781	24405.64
465.986	24415.88
466.191	23760.53
466.397	23099.04
466.602	21943.99
466.807	22816.42
