Data from USB4F104151__94__14-30-43-720.txt Node

Date: Thu Mar 13 14:30:43 EDT 2025
User: louis
Spectrometer: USB4F10415
Trigger mode: 4
Integration Time (sec): 2.500000E-2
Scans to average: 1
Electric dark correction enabled: true
Nonlinearity correction enabled: false
Boxcar width: 0
XAxis mode: Wavelengths
Number of Pixels in Spectrum: 3648
>>>>>Begin Spectral Data<<<<<
178.204	-143.53
178.424	-143.53
178.644	-143.53
178.864	-172.2
179.084	-188.58
179.304	-53.42
179.524	-49.32
179.744	-24.75
179.964	20.31
180.184	-6.31
180.404	3.93
180.624	18.26
180.844	3.93
181.064	-2.22
181.283	53.08
181.503	10.07
181.723	26.45
181.943	-59.56
182.163	94.04
182.383	-73.9
182.602	51.03
182.822	77.65
183.042	20.31
183.262	12.12
183.482	-20.65
183.701	53.08
183.921	-0.17
184.141	-59.56
184.361	3.93
184.58	126.8
184.8	48.98
185.02	20.31
185.239	79.7
185.459	36.69
185.679	73.56
185.898	-18.6
186.118	20.31
186.338	-16.55
186.557	81.75
186.777	-69.8
186.997	3.93
187.216	-4.27
187.436	120.66
187.655	-8.36
187.875	32.6
188.095	16.21
188.314	71.51
188.534	89.94
188.753	40.79
188.973	67.41
189.192	28.5
189.412	-10.41
189.631	-34.99
189.851	-73.9
190.07	14.17
190.29	-16.55
190.509	-22.7
190.729	81.75
190.948	53.08
191.168	251.73
191.387	139.09
191.607	-12.46
191.826	20.31
192.045	69.46
192.265	-69.8
192.484	5.97
192.704	12.12
192.923	-0.17
193.142	128.85
193.362	53.08
193.581	143.19
193.8	85.84
194.02	106.32
194.239	-37.03
194.458	38.74
194.678	20.31
194.897	67.41
195.116	-61.61
195.335	102.23
195.555	51.03
195.774	34.64
195.993	34.64
196.212	44.88
196.432	-2.22
196.651	30.55
196.87	-45.23
197.089	143.19
197.308	53.08
197.528	46.93
197.747	-24.75
197.966	55.12
198.185	10.07
198.404	12.12
198.623	-18.6
198.842	16.21
199.062	94.04
199.281	126.8
199.5	40.79
199.719	65.36
199.938	28.5
200.157	79.7
200.376	-30.89
200.595	20.31
200.814	30.55
201.033	-32.94
201.252	44.88
201.471	30.55
201.69	-32.94
201.909	102.23
202.128	-4.27
202.347	89.94
202.566	1.88
202.785	69.46
203.004	-20.65
203.223	102.23
203.442	63.32
203.661	20.31
203.879	44.88
204.098	55.12
204.317	40.79
204.536	126.8
204.755	44.88
204.974	77.65
205.193	-28.84
205.411	98.13
205.63	112.47
205.849	-65.71
206.068	-2.22
206.287	22.36
206.505	104.28
206.724	36.69
206.943	53.08
207.162	28.5
207.381	48.98
207.599	-10.41
207.818	-24.75
208.037	20.31
208.255	14.17
208.474	10.07
208.693	71.51
208.911	28.5
209.13	-10.41
209.349	24.4
209.567	22.36
209.786	57.17
210.005	114.52
210.223	71.51
210.442	-26.79
210.661	12.12
210.879	20.31
211.098	24.4
211.316	77.65
211.535	20.31
211.753	-4.27
211.972	-0.17
212.191	-47.27
212.409	46.93
212.628	100.18
212.846	30.55
213.065	122.71
213.283	36.69
213.502	46.93
213.72	73.56
213.938	77.65
214.157	36.69
214.375	110.42
214.594	61.27
214.812	28.5
215.031	14.17
215.249	28.5
215.467	32.6
215.686	-32.94
215.904	98.13
216.122	-96.43
216.341	69.46
216.559	67.41
216.778	81.75
216.996	51.03
217.214	30.55
217.432	69.46
217.651	-45.23
217.869	36.69
218.087	69.46
218.306	44.88
218.524	36.69
218.742	-4.27
218.96	30.55
219.179	34.64
219.397	81.75
219.615	104.28
219.833	122.71
220.051	12.12
220.27	120.66
220.488	85.84
220.706	46.93
220.924	-51.37
221.142	36.69
221.36	44.88
221.578	8.02
221.796	24.4
222.015	61.27
222.233	-28.84
222.451	85.84
222.669	-20.65
222.887	-20.65
223.105	-41.13
223.323	-51.37
223.541	53.08
223.759	73.56
223.977	-59.56
224.195	30.55
224.413	46.93
224.631	3.93
224.849	-12.46
225.067	55.12
225.285	-4.27
225.503	-0.17
225.721	-4.27
225.939	69.46
226.157	106.32
226.375	135
226.592	-6.31
226.81	10.07
227.028	46.93
227.246	83.8
227.464	67.41
227.682	14.17
227.9	26.45
228.117	32.6
228.335	53.08
228.553	28.5
228.771	69.46
228.989	57.17
229.206	28.5
229.424	28.5
229.642	28.5
229.86	40.79
230.077	-2.22
230.295	61.27
230.513	96.08
230.731	91.99
230.948	-32.94
231.166	44.88
231.384	1.88
231.601	22.36
231.819	20.31
232.037	5.97
232.254	-16.55
232.472	40.79
232.689	16.21
232.907	55.12
233.125	61.27
233.342	-18.6
233.56	-14.51
233.777	85.84
233.995	36.69
234.213	24.4
234.43	12.12
234.648	61.27
234.865	53.08
235.083	71.51
235.3	36.69
235.518	22.36
235.735	104.28
235.953	8.02
236.17	24.4
236.388	20.31
236.605	20.31
236.822	65.36
237.04	32.6
237.257	-34.99
237.475	-37.03
237.692	38.74
237.909	53.08
238.127	53.08
238.344	28.5
238.562	48.98
238.779	3.93
238.996	-12.46
239.214	83.8
239.431	55.12
239.648	77.65
239.865	20.31
240.083	83.8
240.3	36.69
240.517	-39.08
240.735	1.88
240.952	-12.46
241.169	69.46
241.386	-24.75
241.603	-32.94
241.821	-24.75
242.038	73.56
242.255	63.32
242.472	81.75
242.689	36.69
242.907	-32.94
243.124	65.36
243.341	36.69
243.558	3.93
243.775	44.88
243.992	-102.57
244.209	65.36
244.426	85.84
244.643	46.93
244.86	36.69
245.078	20.31
245.295	116.56
245.512	71.51
245.729	-16.55
245.946	-37.03
246.163	8.02
246.38	85.84
246.597	-20.65
246.814	-37.03
247.031	44.88
247.248	24.4
247.464	36.69
247.681	79.7
247.898	20.31
248.115	-4.27
248.332	-37.03
248.549	96.08
248.766	30.55
248.983	110.42
249.2	79.7
249.417	55.12
249.633	48.98
249.85	83.8
250.067	-6.31
250.284	-24.75
250.501	79.7
250.717	44.88
250.934	-4.27
251.151	53.08
251.368	-49.32
251.585	30.55
251.801	75.6
252.018	12.12
252.235	20.31
252.451	-0.17
252.668	44.88
252.885	-0.17
253.102	69.46
253.318	3.93
253.535	67.41
253.752	3.93
253.968	73.56
254.185	-28.84
254.401	77.65
254.618	46.93
254.835	-28.84
255.051	-4.27
255.268	38.74
255.484	46.93
255.701	48.98
255.917	55.12
256.134	-18.6
256.351	67.41
256.567	14.17
256.784	28.5
257	12.12
257.217	96.08
257.433	34.64
257.65	-10.41
257.866	112.47
258.082	24.4
258.299	85.84
258.515	12.12
258.732	-22.7
258.948	18.26
259.165	20.31
259.381	81.75
259.597	14.17
259.814	5.97
260.03	-53.42
260.246	46.93
260.463	114.52
260.679	77.65
260.895	53.08
261.112	40.79
261.328	28.5
261.544	61.27
261.761	55.12
261.977	-18.6
262.193	16.21
262.409	118.61
262.626	61.27
262.842	73.56
263.058	24.4
263.274	34.64
263.49	53.08
263.707	98.13
263.923	44.88
264.139	53.08
264.355	22.36
264.571	44.88
264.787	-18.6
265.004	87.89
265.22	77.65
265.436	40.79
265.652	1.88
265.868	20.31
266.084	20.31
266.3	28.5
266.516	98.13
266.732	44.88
266.948	40.79
267.164	28.5
267.38	5.97
267.596	-16.55
267.812	79.7
268.028	-45.23
268.244	12.12
268.46	75.6
268.676	-16.55
268.892	77.65
269.108	16.21
269.324	24.4
269.54	-59.56
269.756	63.32
269.972	-28.84
270.188	28.5
270.403	20.31
270.619	28.5
270.835	112.47
271.051	69.46
271.267	12.12
271.483	30.55
271.698	32.6
271.914	40.79
272.13	32.6
272.346	28.5
272.562	71.51
272.777	102.23
272.993	8.02
273.209	-4.27
273.425	51.03
273.64	12.12
273.856	69.46
274.072	1.88
274.287	-2.22
274.503	57.17
274.719	85.84
274.934	98.13
275.15	3.93
275.366	10.07
275.581	-12.46
275.797	96.08
276.012	22.36
276.228	20.31
276.444	8.02
276.659	22.36
276.875	22.36
277.09	69.46
277.306	-49.32
277.521	42.84
277.737	28.5
277.952	81.75
278.168	122.71
278.383	53.08
278.599	77.65
278.814	137.04
279.03	48.98
279.245	77.65
279.461	-10.41
279.676	87.89
279.892	-49.32
280.107	-24.75
280.322	30.55
280.538	44.88
280.753	-24.75
280.969	55.12
281.184	5.97
281.399	79.7
281.615	14.17
281.83	-0.17
282.045	-10.41
282.26	24.4
282.476	24.4
282.691	61.27
282.906	69.46
283.122	89.94
283.337	-63.66
283.552	28.5
283.767	22.36
283.983	44.88
284.198	81.75
284.413	53.08
284.628	14.17
284.843	-20.65
285.058	98.13
285.274	24.4
285.489	-10.41
285.704	85.84
285.919	44.88
286.134	120.66
286.349	44.88
286.564	12.12
286.779	3.93
286.995	28.5
287.21	-10.41
287.425	53.08
287.64	30.55
287.855	34.64
288.07	-73.9
288.285	5.97
288.5	100.18
288.715	94.04
288.93	28.5
289.145	36.69
289.36	89.94
289.575	79.7
289.79	5.97
290.004	53.08
290.219	26.45
290.434	12.12
290.649	24.4
290.864	44.88
291.079	38.74
291.294	-12.46
291.509	-45.23
291.724	-10.41
291.938	46.93
292.153	28.5
292.368	-4.27
292.583	14.17
292.798	32.6
293.012	36.69
293.227	34.64
293.442	-26.79
293.657	-20.65
293.871	114.52
294.086	36.69
294.301	77.65
294.516	30.55
294.73	85.84
294.945	-12.46
295.16	12.12
295.374	67.41
295.589	126.8
295.804	5.97
296.018	30.55
296.233	110.42
296.447	-10.41
296.662	-37.03
296.877	30.55
297.091	36.69
297.306	18.26
297.52	36.69
297.735	85.84
297.949	-2.22
298.164	69.46
298.378	22.36
298.593	57.17
298.807	44.88
299.022	24.4
299.236	65.36
299.451	-37.03
299.665	53.08
299.88	-4.27
300.094	126.8
300.309	77.65
300.523	16.21
300.737	36.69
300.952	126.8
301.166	22.36
301.381	-8.36
301.595	-20.65
301.809	85.84
302.024	28.5
302.238	14.17
302.452	110.42
302.667	10.07
302.881	63.32
303.095	100.18
303.309	48.98
303.524	61.27
303.738	-10.41
303.952	14.17
304.166	3.93
304.381	-37.03
304.595	124.76
304.809	-12.46
305.023	26.45
305.237	71.51
305.452	71.51
305.666	20.31
305.88	3.93
306.094	61.27
306.308	79.7
306.522	89.94
306.736	53.08
306.95	83.8
307.164	94.04
307.379	79.7
307.593	57.17
307.807	67.41
308.021	1.88
308.235	67.41
308.449	-6.31
308.663	-4.27
308.877	175.95
309.091	55.12
309.305	44.88
309.519	-57.51
309.733	79.7
309.947	14.17
310.161	57.17
310.374	46.93
310.588	69.46
310.802	63.32
311.016	51.03
311.23	69.46
311.444	-43.18
311.658	44.88
311.872	55.12
312.085	22.36
312.299	71.51
312.513	104.28
312.727	24.4
312.941	38.74
313.154	69.46
313.368	-4.27
313.582	-0.17
313.796	28.5
314.009	57.17
314.223	16.21
314.437	85.84
314.651	38.74
314.864	18.26
315.078	10.07
315.292	85.84
315.505	-4.27
315.719	71.51
315.933	110.42
316.146	30.55
316.36	55.12
316.573	46.93
316.787	14.17
317.001	96.08
317.214	-45.23
317.428	94.04
317.641	-16.55
317.855	36.69
318.068	48.98
318.282	12.12
318.495	139.09
318.709	12.12
318.922	8.02
319.136	53.08
319.349	81.75
319.563	34.64
319.776	-10.41
319.99	36.69
320.203	63.32
320.417	67.41
320.63	128.85
320.843	159.57
321.057	-16.55
321.27	-30.89
321.483	55.12
321.697	130.9
321.91	130.9
322.124	69.46
322.337	67.41
322.55	12.12
322.763	-18.6
322.977	85.84
323.19	57.17
323.403	149.33
323.617	85.84
323.83	44.88
324.043	71.51
324.256	48.98
324.469	46.93
324.683	87.89
324.896	-24.75
325.109	20.31
325.322	16.21
325.535	128.85
325.748	14.17
325.962	44.88
326.175	16.21
326.388	106.32
326.601	28.5
326.814	73.56
327.027	83.8
327.24	102.23
327.453	36.69
327.666	57.17
327.879	38.74
328.092	44.88
328.305	-18.6
328.518	69.46
328.731	32.6
328.944	36.69
329.157	14.17
329.37	69.46
329.583	61.27
329.796	135
330.009	-4.27
330.222	20.31
330.435	102.23
330.648	104.28
330.861	-47.27
331.073	-12.46
331.286	53.08
331.499	20.31
331.712	-53.42
331.925	-39.08
332.138	-8.36
332.35	118.61
332.563	18.26
332.776	87.89
332.989	16.21
333.202	-24.75
333.414	-20.65
333.627	30.55
333.84	79.7
334.053	124.76
334.265	85.84
334.478	5.97
334.691	3.93
334.903	32.6
335.116	-4.27
335.329	44.88
335.541	112.47
335.754	77.65
335.966	20.31
336.179	53.08
336.392	69.46
336.604	40.79
336.817	65.36
337.029	53.08
337.242	36.69
337.454	40.79
337.667	77.65
337.88	48.98
338.092	110.42
338.305	53.08
338.517	-57.51
338.729	53.08
338.942	51.03
339.154	34.64
339.367	40.79
339.579	165.71
339.792	-2.22
340.004	94.04
340.217	-10.41
340.429	104.28
340.641	48.98
340.854	-2.22
341.066	-20.65
341.278	104.28
341.491	126.8
341.703	-18.6
341.915	-34.99
342.128	69.46
342.34	65.36
342.552	12.12
342.764	102.23
342.977	30.55
343.189	75.6
343.401	-0.17
343.613	-12.46
343.826	85.84
344.038	16.21
344.25	141.14
344.462	24.4
344.674	94.04
344.886	-12.46
345.099	110.42
345.311	30.55
345.523	28.5
345.735	40.79
345.947	-0.17
346.159	-12.46
346.371	44.88
346.583	-2.22
346.795	128.85
347.007	40.79
347.219	53.08
347.431	77.65
347.643	167.76
347.855	36.69
348.067	94.04
348.279	71.51
348.491	91.99
348.703	118.61
348.915	151.38
349.127	28.5
349.339	32.6
349.551	85.84
349.763	96.08
349.975	71.51
350.187	112.47
350.399	32.6
350.61	65.36
350.822	44.88
351.034	32.6
351.246	53.08
351.458	65.36
351.669	77.65
351.881	-4.27
352.093	40.79
352.305	79.7
352.517	16.21
352.728	36.69
352.94	124.76
353.152	106.32
353.363	-2.22
353.575	141.14
353.787	128.85
353.999	89.94
354.21	89.94
354.422	42.84
354.633	20.31
354.845	53.08
355.057	40.79
355.268	67.41
355.48	81.75
355.692	85.84
355.903	32.6
356.115	81.75
356.326	-61.61
356.538	114.52
356.749	46.93
356.961	175.95
357.172	-16.55
357.384	16.21
357.595	108.37
357.807	48.98
358.018	-37.03
358.23	48.98
358.441	85.84
358.653	118.61
358.864	51.03
359.075	71.51
359.287	30.55
359.498	102.23
359.709	63.32
359.921	10.07
360.132	44.88
360.344	5.97
360.555	14.17
360.766	71.51
360.977	36.69
361.189	100.18
361.4	-24.75
361.611	77.65
361.823	69.46
362.034	61.27
362.245	28.5
362.456	38.74
362.667	79.7
362.879	36.69
363.09	63.32
363.301	118.61
363.512	36.69
363.723	106.32
363.935	-12.46
364.146	69.46
364.357	3.93
364.568	94.04
364.779	30.55
364.99	69.46
365.201	28.5
365.412	98.13
365.623	-43.18
365.834	108.37
366.045	126.8
366.256	87.89
366.467	89.94
366.678	53.08
366.889	10.07
367.1	36.69
367.311	71.51
367.522	71.51
367.733	110.42
367.944	57.17
368.155	48.98
368.366	104.28
368.577	57.17
368.788	22.36
368.999	65.36
369.209	126.8
369.42	44.88
369.631	153.43
369.842	53.08
370.053	69.46
370.264	94.04
370.474	32.6
370.685	98.13
370.896	-12.46
371.107	96.08
371.317	87.89
371.528	-12.46
371.739	57.17
371.95	126.8
372.16	73.56
372.371	89.94
372.582	-6.31
372.792	30.55
373.003	32.6
373.214	61.27
373.424	44.88
373.635	-12.46
373.846	77.65
374.056	24.4
374.267	118.61
374.477	73.56
374.688	3.93
374.898	61.27
375.109	8.02
375.319	135
375.53	77.65
375.74	69.46
375.951	16.21
376.161	118.61
376.372	71.51
376.582	46.93
376.793	61.27
377.003	46.93
377.214	1.88
377.424	55.12
377.635	102.23
377.845	-16.55
378.055	71.51
378.266	14.17
378.476	81.75
378.686	94.04
378.897	67.41
379.107	38.74
379.317	18.26
379.528	30.55
379.738	100.18
379.948	14.17
380.158	20.31
380.369	46.93
380.579	53.08
380.789	-2.22
380.999	69.46
381.21	118.61
381.42	71.51
381.63	53.08
381.84	128.85
382.05	85.84
382.261	94.04
382.471	167.76
382.681	96.08
382.891	16.21
383.101	38.74
383.311	122.71
383.521	3.93
383.731	120.66
383.941	137.04
384.151	71.51
384.361	55.12
384.571	69.46
384.781	69.46
384.991	110.42
385.201	89.94
385.411	100.18
385.621	63.32
385.831	36.69
386.041	48.98
386.251	106.32
386.461	112.47
386.671	8.02
386.881	46.93
387.091	145.24
387.301	77.65
387.511	79.7
387.72	112.47
387.93	69.46
388.14	-0.17
388.35	69.46
388.56	98.13
388.769	73.56
388.979	104.28
389.189	-4.27
389.399	61.27
389.609	42.84
389.818	67.41
390.028	87.89
390.238	69.46
390.447	137.04
390.657	57.17
390.867	12.12
391.076	75.6
391.286	89.94
391.496	143.19
391.705	30.55
391.915	139.09
392.125	79.7
392.334	79.7
392.544	161.62
392.753	87.89
392.963	20.31
393.172	77.65
393.382	55.12
393.591	128.85
393.801	81.75
394.01	135
394.22	139.09
394.429	51.03
394.639	147.28
394.848	85.84
395.058	81.75
395.267	94.04
395.477	98.13
395.686	171.86
395.895	110.42
396.105	112.47
396.314	118.61
396.524	196.43
396.733	81.75
396.942	147.28
397.152	126.8
397.361	180.05
397.57	89.94
397.78	118.61
397.989	139.09
398.198	180.05
398.407	102.23
398.617	71.51
398.826	104.28
399.035	114.52
399.244	110.42
399.453	96.08
399.663	110.42
399.872	159.57
400.081	85.84
400.29	114.52
400.499	53.08
400.708	247.63
400.917	161.62
401.127	169.81
401.336	22.36
401.545	204.63
401.754	145.24
401.963	223.06
402.172	196.43
402.381	87.89
402.59	151.38
402.799	153.43
403.008	128.85
403.217	192.34
403.426	167.76
403.635	151.38
403.844	120.66
404.053	200.53
404.262	206.67
404.471	274.26
404.68	194.39
404.888	249.68
405.097	135
405.306	198.48
405.515	128.85
405.724	235.35
405.933	227.15
406.142	167.76
406.35	231.25
406.559	184.15
406.768	184.15
406.977	229.2
407.185	200.53
407.394	255.83
407.603	204.63
407.812	251.73
408.02	339.79
408.229	350.03
408.438	278.35
408.646	268.11
408.855	288.59
409.064	307.02
409.272	354.13
409.481	372.56
409.69	325.46
409.898	335.7
410.107	376.66
410.315	347.98
410.524	419.66
410.733	393.04
410.941	470.86
411.15	503.63
411.358	511.82
411.567	573.26
411.775	587.6
411.984	442.19
412.192	544.59
412.401	569.16
412.609	548.68
412.818	524.11
413.026	577.36
413.234	571.21
413.443	606.03
413.651	696.14
413.86	759.63
414.068	782.15
414.276	771.91
414.485	630.6
414.693	790.35
414.901	913.22
415.11	812.87
415.318	849.74
415.526	1056.58
415.734	1007.43
415.943	974.66
416.151	1027.91
416.359	1044.29
416.567	1142.6
416.776	1003.33
416.984	1195.84
417.192	1261.38
417.4	1247.04
417.608	1199.94
417.817	1355.58
418.025	1322.82
418.233	1455.94
418.441	1414.98
418.649	1527.61
418.857	1570.62
419.065	1646.4
419.273	1627.96
419.481	1638.2
419.689	1855.29
419.897	1783.61
420.105	1808.19
420.313	1972.02
420.521	2076.47
420.729	2101.05
420.937	2121.52
421.145	2115.38
421.353	2398
421.561	2424.62
421.769	2559.79
421.977	2660.14
422.185	2547.5
422.393	2715.44
422.601	2944.81
422.809	2924.33
423.017	2879.27
423.224	2989.86
423.432	3022.63
423.64	3053.35
423.848	3444.51
424.056	3206.95
424.263	3501.86
424.471	3438.37
424.679	3600.16
424.887	3772.19
425.094	4124.44
425.302	4108.05
425.51	4130.58
425.718	4128.53
425.925	4265.75
426.133	4413.2
426.341	4689.68
426.548	4800.27
426.756	4882.19
426.964	4865.8
427.171	5101.32
427.379	5361.41
427.586	5435.14
427.794	5672.7
428.001	5930.75
428.209	6147.83
428.417	5951.23
428.624	6399.73
428.832	6377.2
429.039	6297.33
429.247	6250.23
429.454	6885.1
429.662	7411.43
429.869	6921.96
430.076	7538.4
430.284	7173.86
430.491	7575.27
430.699	8146.65
430.906	8054.49
431.114	8203.99
431.321	8347.35
431.528	8525.52
431.736	9211.59
431.943	9526.98
432.15	9227.98
432.358	9180.87
432.565	9891.52
432.772	9748.16
432.979	10518.2
433.187	10032.83
433.394	10356.41
433.601	11263.66
433.808	11284.14
434.016	11146.92
434.223	11656.87
434.43	12242.59
434.637	12215.96
434.844	12990.1
435.052	13336.2
435.259	12748.43
435.466	12959.38
435.673	12986
435.88	14009.98
436.087	14417.53
436.294	14528.12
436.501	14257.79
436.708	14624.37
436.915	15007.34
437.122	15642.21
437.329	15582.82
437.537	16193.12
437.743	16381.53
437.95	16207.45
438.157	17372.75
438.364	17708.62
438.571	17739.33
438.778	17694.28
438.985	19412.53
439.192	18484.8
439.399	19166.77
439.606	18607.67
439.813	19689
440.02	21067.28
440.227	20575.77
440.433	20538.91
440.64	21024.28
440.847	20768.28
441.054	21589.52
441.261	22711.8
441.467	22523.39
441.674	23002.61
441.881	23784.94
442.088	23997.93
442.294	23524.85
442.501	23936.49
442.708	24745.44
442.914	25253.33
443.121	26820.03
443.328	25679.31
443.534	27778.48
443.741	26965.43
443.948	26801.6
444.154	28646.82
444.361	28284.33
444.568	28376.48
444.774	28343.72
444.981	28669.34
445.187	29552.02
445.394	30983.55
445.6	30670.21
445.807	33189.21
446.013	31927.66
446.22	32552.29
446.426	33860.94
446.633	34075.98
446.839	35507.51
447.046	33621.33
447.252	35851.57
447.459	35585.33
447.665	35644.73
447.871	37231.9
448.078	38688.01
448.284	36836.64
448.491	38167.82
448.697	39439.61
448.903	39652.6
449.11	40008.95
449.316	39585.02
449.522	40152.3
449.728	41104.61
449.935	41878.74
450.141	41544.92
450.347	42462.41
450.553	41016.55
450.76	41657.56
450.966	43097.28
451.172	42560.72
451.378	43441.34
451.584	42556.62
451.791	43574.46
451.997	43623.61
452.203	44391.6
452.409	44555.44
452.615	43918.52
452.821	42550.48
453.027	41835.73
453.233	44201.14
453.44	42441.93
453.646	42581.2
453.852	43349.18
454.058	43756.73
454.264	42321.1
454.47	43306.18
454.676	42194.13
454.882	43691.19
455.088	39722.23
455.294	40455.4
455.5	41164
455.705	41592.03
455.911	39492.86
456.117	39163.14
456.323	38036.75
456.529	36844.84
456.735	37954.83
456.941	36769.06
457.147	36672.81
457.352	35325.24
457.558	34889.02
457.764	35104.06
457.97	34475.34
458.176	33523.03
458.381	33625.43
458.587	32267.62
458.793	31915.37
458.999	30117.26
459.204	32286.06
459.41	31675.76
459.616	29582.74
459.821	29435.28
460.027	29449.62
460.233	28734.88
460.438	27446.71
460.644	27784.62
460.85	26594.75
461.055	26027.46
461.261	25646.54
461.466	23875.05
461.672	23082.49
461.878	24800.73
462.083	23414.26
462.289	22740.47
462.494	22519.29
462.7	21435.92
462.905	20925.97
463.111	21954.05
463.316	21868.04
463.522	21356.05
463.727	21569.04
463.932	21296.66
464.138	21169.68
464.343	21206.55
464.549	20618.78
464.754	20981.27
464.959	21235.22
465.165	20962.84
465.37	20090.4
465.575	19500.59
465.781	20321.82
465.986	20301.34
466.191	19682.86
466.397	19496.49
466.602	18214.46
