Data from USB4F104151__228__14-33-58-639.txt Node

Date: Thu Mar 13 14:33:58 EDT 2025
User: louis
Spectrometer: USB4F10415
Trigger mode: 4
Integration Time (sec): 2.500000E-2
Scans to average: 1
Electric dark correction enabled: true
Nonlinearity correction enabled: false
Boxcar width: 0
XAxis mode: Wavelengths
Number of Pixels in Spectrum: 3648
>>>>>Begin Spectral Data<<<<<
178.204	-224.76
178.424	-224.76
178.644	-224.76
178.864	-208.38
179.084	-124.41
179.304	-7.68
179.524	35.33
179.744	-30.21
179.964	86.53
180.184	41.47
180.404	-32.26
180.624	-15.87
180.844	-26.11
181.064	-71.17
181.283	20.99
181.503	-15.87
181.723	14.85
181.943	-19.97
182.163	37.38
182.383	8.7
182.602	86.53
182.822	115.2
183.042	102.91
183.262	57.86
183.482	-40.45
183.701	-5.63
183.921	-24.06
184.141	4.61
184.361	2.56
184.58	78.33
184.8	-1.54
185.02	25.09
185.239	-3.58
185.459	20.99
185.679	47.62
185.898	-17.92
186.118	86.53
186.338	33.28
186.557	100.86
186.777	-28.16
186.997	41.47
187.216	78.33
187.436	102.91
187.655	29.18
187.875	88.57
188.095	12.8
188.314	84.48
188.534	37.38
188.753	45.57
188.973	43.52
189.192	100.86
189.412	70.14
189.631	86.53
189.851	37.38
190.07	39.42
190.29	70.14
190.509	33.28
190.729	-24.06
190.948	123.39
191.168	125.44
191.387	86.53
191.607	-38.4
191.826	41.47
192.045	41.47
192.265	29.18
192.484	80.38
192.704	64
192.923	33.28
193.142	143.87
193.362	29.18
193.581	115.2
193.8	6.66
194.02	43.52
194.239	-42.5
194.458	25.09
194.678	29.18
194.897	53.76
195.116	29.18
195.335	-3.58
195.555	12.8
195.774	94.72
195.993	96.77
196.212	4.61
196.432	-50.69
196.651	43.52
196.87	55.81
197.089	96.77
197.308	47.62
197.528	29.18
197.747	-26.11
197.966	78.33
198.185	111.1
198.404	-28.16
198.623	68.09
198.842	86.53
199.062	64
199.281	6.66
199.5	41.47
199.719	123.39
199.938	-15.87
200.157	74.24
200.376	82.43
200.595	6.66
200.814	39.42
201.033	66.05
201.252	20.99
201.471	86.53
201.69	109.05
201.909	45.57
202.128	84.48
202.347	66.05
202.566	6.66
202.785	49.66
203.004	53.76
203.223	45.57
203.442	121.34
203.661	37.38
203.879	61.95
204.098	94.72
204.317	20.99
204.536	27.14
204.755	53.76
204.974	16.9
205.193	57.86
205.411	78.33
205.63	53.76
205.849	35.33
206.068	45.57
206.287	86.53
206.505	53.76
206.724	4.61
206.943	37.38
207.162	-1.54
207.381	74.24
207.599	0.51
207.818	2.56
208.037	29.18
208.255	-36.35
208.474	4.61
208.693	23.04
208.911	25.09
209.13	41.47
209.349	-28.16
209.567	84.48
209.786	31.23
210.005	88.57
210.223	2.56
210.442	-15.87
210.661	39.42
210.879	37.38
211.098	86.53
211.316	37.38
211.535	66.05
211.753	-85.5
211.972	53.76
212.191	53.76
212.409	41.47
212.628	27.14
212.846	-32.26
213.065	41.47
213.283	96.77
213.502	29.18
213.72	18.94
213.938	49.66
214.157	39.42
214.375	104.96
214.594	86.53
214.812	-11.78
215.031	14.85
215.249	20.99
215.467	-9.73
215.686	41.47
215.904	94.72
216.122	59.9
216.341	102.91
216.559	90.62
216.778	127.49
216.996	98.81
217.214	53.76
217.432	31.23
217.651	20.99
217.869	47.62
218.087	86.53
218.306	53.76
218.524	20.99
218.742	61.95
218.96	66.05
219.179	12.8
219.397	57.86
219.615	104.96
219.833	86.53
220.051	82.43
220.27	135.68
220.488	8.7
220.706	4.61
220.924	70.14
221.142	57.86
221.36	-3.58
221.578	61.95
221.796	-1.54
222.015	39.42
222.233	35.33
222.451	86.53
222.669	16.9
222.887	123.39
223.105	66.05
223.323	-17.92
223.541	33.28
223.759	-1.54
223.977	88.57
224.195	10.75
224.413	61.95
224.631	84.48
224.849	14.85
225.067	70.14
225.285	-11.78
225.503	29.18
225.721	-30.21
225.939	94.72
226.157	20.99
226.375	127.49
226.592	23.04
226.81	31.23
227.028	57.86
227.246	98.81
227.464	113.15
227.682	39.42
227.9	39.42
228.117	-3.58
228.335	25.09
228.553	29.18
228.771	41.47
228.989	57.86
229.206	12.8
229.424	12.8
229.642	78.33
229.86	18.94
230.077	14.85
230.295	64
230.513	61.95
230.731	92.67
230.948	8.7
231.166	74.24
231.384	0.51
231.601	98.81
231.819	64
232.037	-3.58
232.254	-19.97
232.472	66.05
232.689	-3.58
232.907	119.29
233.125	74.24
233.342	78.33
233.56	14.85
233.777	-24.06
233.995	49.66
234.213	23.04
234.43	53.76
234.648	53.76
234.865	25.09
235.083	55.81
235.3	53.76
235.518	61.95
235.735	98.81
235.953	119.29
236.17	80.38
236.388	-26.11
236.605	12.8
236.822	92.67
237.04	39.42
237.257	-1.54
237.475	45.57
237.692	64
237.909	12.8
238.127	-17.92
238.344	55.81
238.562	25.09
238.779	55.81
238.996	37.38
239.214	72.19
239.431	-13.82
239.648	10.75
239.865	104.96
240.083	49.66
240.3	31.23
240.517	43.52
240.735	16.9
240.952	51.71
241.169	104.96
241.386	59.9
241.603	57.86
241.821	4.61
242.038	53.76
242.255	127.49
242.472	-32.26
242.689	53.76
242.907	-5.63
243.124	16.9
243.341	16.9
243.558	61.95
243.775	-19.97
243.992	-36.35
244.209	61.95
244.426	176.64
244.643	10.75
244.86	0.51
245.078	107.01
245.295	12.8
245.512	20.99
245.729	8.7
245.946	45.57
246.163	29.18
246.38	-11.78
246.597	59.9
246.814	57.86
247.031	20.99
247.248	86.53
247.464	82.43
247.681	51.71
247.898	86.53
248.115	4.61
248.332	31.23
248.549	80.38
248.766	88.57
248.983	113.15
249.2	53.76
249.417	178.69
249.633	14.85
249.85	6.66
250.067	31.23
250.284	12.8
250.501	68.09
250.717	164.35
250.934	45.57
251.151	31.23
251.368	61.95
251.585	133.63
251.801	72.19
252.018	-58.88
252.235	20.99
252.451	86.53
252.668	29.18
252.885	72.19
253.102	92.67
253.318	31.23
253.535	-1.54
253.752	20.99
253.968	64
254.185	94.72
254.401	119.29
254.618	25.09
254.835	20.99
255.051	135.68
255.268	113.15
255.484	37.38
255.701	23.04
255.917	47.62
256.134	33.28
256.351	8.7
256.567	41.47
256.784	2.56
257	57.86
257.217	25.09
257.433	119.29
257.65	88.57
257.866	111.1
258.082	33.28
258.299	-34.3
258.515	-17.92
258.732	14.85
258.948	29.18
259.165	12.8
259.381	29.18
259.597	37.38
259.814	-3.58
260.03	8.7
260.246	78.33
260.463	70.14
260.679	18.94
260.895	-3.58
261.112	61.95
261.328	51.71
261.544	25.09
261.761	156.16
261.977	8.7
262.193	-50.69
262.409	37.38
262.626	64
262.842	78.33
263.058	-9.73
263.274	64
263.49	16.9
263.707	113.15
263.923	90.62
264.139	41.47
264.355	102.91
264.571	74.24
264.787	4.61
265.004	31.23
265.22	-7.68
265.436	0.51
265.652	-1.54
265.868	39.42
266.084	-24.06
266.3	53.76
266.516	4.61
266.732	45.57
266.948	53.76
267.164	20.99
267.38	53.76
267.596	45.57
267.812	90.62
268.028	94.72
268.244	66.05
268.46	78.33
268.676	61.95
268.892	49.66
269.108	-34.3
269.324	14.85
269.54	-19.97
269.756	61.95
269.972	-19.97
270.188	53.76
270.403	43.52
270.619	20.99
270.835	86.53
271.051	-44.54
271.267	70.14
271.483	74.24
271.698	92.67
271.914	111.1
272.13	133.63
272.346	80.38
272.562	111.1
272.777	47.62
272.993	70.14
273.209	29.18
273.425	14.85
273.64	-1.54
273.856	64
274.072	20.99
274.287	-77.31
274.503	78.33
274.719	74.24
274.934	45.57
275.15	-1.54
275.366	113.15
275.581	-11.78
275.797	45.57
276.012	61.95
276.228	23.04
276.444	100.86
276.659	55.81
276.875	23.04
277.09	68.09
277.306	49.66
277.521	82.43
277.737	61.95
277.952	41.47
278.168	29.18
278.383	-28.16
278.599	-5.63
278.814	2.56
279.03	-32.26
279.245	86.53
279.461	74.24
279.676	107.01
279.892	-34.3
280.107	12.8
280.322	86.53
280.538	88.57
280.753	-11.78
280.969	45.57
281.184	23.04
281.399	96.77
281.615	16.9
281.83	23.04
282.045	-52.74
282.26	-36.35
282.476	86.53
282.691	102.91
282.906	16.9
283.122	29.18
283.337	29.18
283.552	51.71
283.767	18.94
283.983	78.33
284.198	8.7
284.413	139.77
284.628	6.66
284.843	25.09
285.058	27.14
285.274	49.66
285.489	-1.54
285.704	74.24
285.919	29.18
286.134	29.18
286.349	37.38
286.564	49.66
286.779	37.38
286.995	-3.58
287.21	-11.78
287.425	80.38
287.64	18.94
287.855	117.25
288.07	-17.92
288.285	94.72
288.5	72.19
288.715	-3.58
288.93	98.81
289.145	16.9
289.36	98.81
289.575	14.85
289.79	37.38
290.004	64
290.219	139.77
290.434	6.66
290.649	-32.26
290.864	61.95
291.079	45.57
291.294	104.96
291.509	39.42
291.724	45.57
291.938	29.18
292.153	78.33
292.368	16.9
292.583	10.75
292.798	55.81
293.012	61.95
293.227	14.85
293.442	64
293.657	72.19
293.871	80.38
294.086	6.66
294.301	119.29
294.516	45.57
294.73	37.38
294.945	-24.06
295.16	64
295.374	82.43
295.589	104.96
295.804	-38.4
296.018	127.49
296.233	131.58
296.447	70.14
296.662	-103.93
296.877	53.76
297.091	96.77
297.306	31.23
297.52	-11.78
297.735	86.53
297.949	68.09
298.164	23.04
298.378	14.85
298.593	20.99
298.807	43.52
299.022	102.91
299.236	131.58
299.451	16.9
299.665	96.77
299.88	29.18
300.094	102.91
300.309	57.86
300.523	74.24
300.737	14.85
300.952	64
301.166	-1.54
301.381	8.7
301.595	51.71
301.809	61.95
302.024	135.68
302.238	20.99
302.452	104.96
302.667	18.94
302.881	96.77
303.095	107.01
303.309	49.66
303.524	4.61
303.738	16.9
303.952	-7.68
304.166	115.2
304.381	-3.58
304.595	137.73
304.809	20.99
305.023	72.19
305.237	61.95
305.452	64
305.666	8.7
305.88	20.99
306.094	98.81
306.308	64
306.522	139.77
306.736	94.72
306.95	57.86
307.164	23.04
307.379	-9.73
307.593	66.05
307.807	78.33
308.021	78.33
308.235	96.77
308.449	31.23
308.663	31.23
308.877	78.33
309.091	4.61
309.305	90.62
309.519	4.61
309.733	29.18
309.947	-13.82
310.161	70.14
310.374	61.95
310.588	37.38
310.802	64
311.016	76.29
311.23	-9.73
311.444	64
311.658	61.95
311.872	137.73
312.085	82.43
312.299	47.62
312.513	70.14
312.727	53.76
312.941	-9.73
313.154	23.04
313.368	20.99
313.582	-11.78
313.796	74.24
314.009	33.28
314.223	90.62
314.437	59.9
314.651	0.51
314.864	72.19
315.078	-9.73
315.292	76.29
315.505	59.9
315.719	53.76
315.933	-9.73
316.146	61.95
316.36	-28.16
316.573	109.05
316.787	45.57
317.001	64
317.214	23.04
317.428	86.53
317.641	127.49
317.855	49.66
318.068	57.86
318.282	64
318.495	135.68
318.709	72.19
318.922	-3.58
319.136	121.34
319.349	61.95
319.563	8.7
319.776	35.33
319.99	-3.58
320.203	-11.78
320.417	78.33
320.63	117.25
320.843	133.63
321.057	86.53
321.27	55.81
321.483	88.57
321.697	88.57
321.91	41.47
322.124	119.29
322.337	70.14
322.55	29.18
322.763	68.09
322.977	23.04
323.19	8.7
323.403	96.77
323.617	84.48
323.83	55.81
324.043	61.95
324.256	96.77
324.469	16.9
324.683	47.62
324.896	39.42
325.109	37.38
325.322	-28.16
325.535	135.68
325.748	47.62
325.962	76.29
326.175	74.24
326.388	47.62
326.601	152.06
326.814	82.43
327.027	-9.73
327.24	86.53
327.453	-24.06
327.666	80.38
327.879	72.19
328.092	88.57
328.305	111.1
328.518	61.95
328.731	84.48
328.944	70.14
329.157	72.19
329.37	96.77
329.583	102.91
329.796	109.05
330.009	-28.16
330.222	92.67
330.435	86.53
330.648	39.42
330.861	20.99
331.073	27.14
331.286	104.96
331.499	82.43
331.712	49.66
331.925	53.76
332.138	29.18
332.35	70.14
332.563	8.7
332.776	66.05
332.989	6.66
333.202	76.29
333.414	-3.58
333.627	119.29
333.84	82.43
334.053	107.01
334.265	23.04
334.478	70.14
334.691	-40.45
334.903	70.14
335.116	74.24
335.329	-3.58
335.541	12.8
335.754	195.07
335.966	37.38
336.179	33.28
336.392	90.62
336.604	23.04
336.817	143.87
337.029	86.53
337.242	64
337.454	53.76
337.667	90.62
337.88	113.15
338.092	45.57
338.305	45.57
338.517	78.33
338.729	117.25
338.942	88.57
339.154	-34.3
339.367	47.62
339.579	53.76
339.792	78.33
340.004	45.57
340.217	74.24
340.429	104.96
340.641	25.09
340.854	-7.68
341.066	45.57
341.278	129.53
341.491	154.11
341.703	61.95
341.915	-1.54
342.128	133.63
342.34	-7.68
342.552	8.7
342.764	2.56
342.977	86.53
343.189	90.62
343.401	55.81
343.613	4.61
343.826	70.14
344.038	6.66
344.25	53.76
344.462	57.86
344.674	102.91
344.886	100.86
345.099	57.86
345.311	94.72
345.523	57.86
345.735	33.28
345.947	12.8
346.159	94.72
346.371	16.9
346.583	57.86
346.795	141.82
347.007	-5.63
347.219	72.19
347.431	57.86
347.643	70.14
347.855	23.04
348.067	23.04
348.279	61.95
348.491	66.05
348.703	82.43
348.915	35.33
349.127	39.42
349.339	102.91
349.551	12.8
349.763	117.25
349.975	90.62
350.187	74.24
350.399	12.8
350.61	102.91
350.822	25.09
351.034	70.14
351.246	-9.73
351.458	53.76
351.669	102.91
351.881	109.05
352.093	53.76
352.305	66.05
352.517	94.72
352.728	96.77
352.94	113.15
353.152	113.15
353.363	45.57
353.575	96.77
353.787	113.15
353.999	47.62
354.21	150.01
354.422	39.42
354.633	35.33
354.845	16.9
355.057	61.95
355.268	80.38
355.48	86.53
355.692	72.19
355.903	45.57
356.115	64
356.326	6.66
356.538	135.68
356.749	53.76
356.961	143.87
357.172	16.9
357.384	61.95
357.595	127.49
357.807	53.76
358.018	-3.58
358.23	57.86
358.441	129.53
358.653	109.05
358.864	70.14
359.075	78.33
359.287	49.66
359.498	88.57
359.709	57.86
359.921	123.39
360.132	47.62
360.344	127.49
360.555	-65.02
360.766	4.61
360.977	45.57
361.189	121.34
361.4	61.95
361.611	84.48
361.823	109.05
362.034	86.53
362.245	25.09
362.456	121.34
362.667	107.01
362.879	43.52
363.09	20.99
363.301	64
363.512	2.56
363.723	68.09
363.935	53.76
364.146	70.14
364.357	96.77
364.568	111.1
364.779	4.61
364.99	82.43
365.201	12.8
365.412	78.33
365.623	-32.26
365.834	100.86
366.045	94.72
366.256	119.29
366.467	45.57
366.678	55.81
366.889	45.57
367.1	23.04
367.311	12.8
367.522	94.72
367.733	150.01
367.944	41.47
368.155	64
368.366	139.77
368.577	107.01
368.788	145.92
368.999	8.7
369.209	131.58
369.42	154.11
369.631	135.68
369.842	119.29
370.053	141.82
370.264	31.23
370.474	57.86
370.685	35.33
370.896	29.18
371.107	94.72
371.317	70.14
371.528	80.38
371.739	49.66
371.95	135.68
372.16	49.66
372.371	55.81
372.582	-7.68
372.792	111.1
373.003	72.19
373.214	61.95
373.424	156.16
373.635	74.24
373.846	100.86
374.056	8.7
374.267	31.23
374.477	31.23
374.688	80.38
374.898	64
375.109	57.86
375.319	37.38
375.53	109.05
375.74	127.49
375.951	104.96
376.161	-32.26
376.372	139.77
376.582	45.57
376.793	37.38
377.003	53.76
377.214	64
377.424	113.15
377.635	29.18
377.845	45.57
378.055	94.72
378.266	74.24
378.476	16.9
378.686	90.62
378.897	55.81
379.107	104.96
379.317	102.91
379.528	96.77
379.738	168.45
379.948	49.66
380.158	176.64
380.369	102.91
380.579	45.57
380.789	88.57
380.999	78.33
381.21	113.15
381.42	131.58
381.63	88.57
381.84	182.78
382.05	80.38
382.261	86.53
382.471	129.53
382.681	74.24
382.891	129.53
383.101	43.52
383.311	16.9
383.521	90.62
383.731	119.29
383.941	98.81
384.151	78.33
384.361	84.48
384.571	113.15
384.781	82.43
384.991	78.33
385.201	72.19
385.411	31.23
385.621	78.33
385.831	68.09
386.041	23.04
386.251	86.53
386.461	90.62
386.671	109.05
386.881	74.24
387.091	72.19
387.301	139.77
387.511	61.95
387.72	82.43
387.93	88.57
388.14	39.42
388.35	98.81
388.56	115.2
388.769	117.25
388.979	80.38
389.189	6.66
389.399	82.43
389.609	107.01
389.818	96.77
390.028	29.18
390.238	127.49
390.447	84.48
390.657	66.05
390.867	74.24
391.076	59.9
391.286	102.91
391.496	143.87
391.705	43.52
391.915	94.72
392.125	127.49
392.334	76.29
392.544	100.86
392.753	86.53
392.963	104.96
393.172	74.24
393.382	119.29
393.591	127.49
393.801	160.25
394.01	162.3
394.22	102.91
394.429	152.06
394.639	102.91
394.848	195.07
395.058	147.97
395.267	80.38
395.477	94.72
395.686	113.15
395.895	217.6
396.105	231.93
396.314	139.77
396.524	115.2
396.733	107.01
396.942	164.35
397.152	147.97
397.361	180.73
397.57	135.68
397.78	129.53
397.989	156.16
398.198	250.36
398.407	174.59
398.617	135.68
398.826	113.15
399.035	211.45
399.244	170.49
399.453	195.07
399.663	186.88
399.872	80.38
400.081	178.69
400.29	160.25
400.499	80.38
400.708	160.25
400.917	150.01
401.127	176.64
401.336	94.72
401.545	201.21
401.754	111.1
401.963	238.08
402.172	250.36
402.381	143.87
402.59	123.39
402.799	174.59
403.008	160.25
403.217	272.89
403.426	184.83
403.635	168.45
403.844	231.93
404.053	209.4
404.262	156.16
404.471	311.8
404.68	219.64
404.888	193.02
405.097	190.97
405.306	242.17
405.515	168.45
405.724	209.4
405.933	274.94
406.142	320
406.35	287.23
406.559	315.9
406.768	276.99
406.977	352.76
407.185	332.28
407.394	320
407.603	274.94
407.812	332.28
408.02	395.77
408.229	305.66
408.438	377.34
408.646	297.47
408.855	371.19
409.064	428.54
409.272	408.06
409.481	412.15
409.69	420.35
409.898	414.2
410.107	496.12
410.315	537.08
410.524	498.17
410.733	586.23
410.941	522.74
411.15	619
411.358	606.71
411.567	657.91
411.775	705.01
411.984	592.37
412.192	719.35
412.401	741.88
412.609	799.22
412.818	739.83
413.026	825.84
413.234	827.89
413.443	864.75
413.651	866.8
413.86	840.18
414.068	1030.64
414.276	942.58
414.485	993.78
414.693	1012.21
414.901	1200.62
415.11	1038.83
415.318	1163.76
415.526	1253.87
415.734	1217.01
415.943	1243.63
416.151	1298.92
416.359	1325.55
416.567	1429.99
416.776	1382.89
416.984	1610.22
417.192	1569.26
417.4	1569.26
417.608	1679.85
417.817	1739.24
418.025	1802.72
418.233	1864.16
418.441	1794.53
418.649	1937.89
418.857	2023.91
419.065	2208.22
419.273	2118.11
419.481	2152.93
419.689	2243.04
419.897	2380.25
420.105	2413.02
420.313	2601.43
420.521	2675.16
420.729	2669.02
420.937	2798.04
421.145	2726.36
421.353	2980.31
421.561	3183.06
421.769	3144.14
421.977	3369.42
422.185	3412.43
422.393	3391.95
422.601	3733.96
422.809	3619.27
423.017	3649.99
423.224	3899.84
423.432	3912.13
423.64	4143.55
423.848	4317.63
424.056	4272.57
424.263	4686.26
424.471	4641.21
424.679	4678.07
424.887	4870.58
425.094	5198.26
425.302	5198.26
425.51	5411.25
425.718	5546.41
425.925	5618.09
426.133	5710.25
426.341	6150.56
426.548	6410.65
426.756	6437.28
426.964	6470.05
427.171	6902.17
427.379	6963.61
427.586	7086.48
427.794	7233.94
428.001	7414.16
428.209	7901.58
428.417	7702.92
428.624	8487.29
428.832	8470.91
429.039	8509.82
429.247	8370.56
429.454	9197.94
429.662	9711.98
429.869	9089.4
430.076	9656.68
430.284	9515.37
430.491	9834.86
430.699	10482.02
430.906	10375.52
431.114	10658.14
431.321	10963.29
431.528	11198.81
431.736	11991.37
431.943	12491.07
432.15	12204.36
432.358	12054.86
432.565	12767.55
432.772	12695.87
432.979	13490.48
433.187	13740.33
433.394	13877.55
433.601	14668.06
433.808	14754.08
434.016	14588.19
434.223	15368.47
434.43	16386.31
434.637	15868.17
434.844	16806.14
435.052	17096.96
435.259	17109.24
435.466	17228.03
435.673	16980.22
435.88	18114.8
436.087	18962.65
436.294	19114.2
436.501	18761.95
436.708	18929.89
436.915	19601.62
437.122	20402.38
437.329	20420.81
437.537	21184.7
437.743	21541.05
437.95	21033.15
438.157	22489.26
438.364	23181.47
438.571	22847.65
438.778	23257.25
438.985	25012.35
439.192	24127.63
439.399	25000.07
439.606	24502.41
439.813	25540.73
440.02	27347.04
440.227	26964.07
440.433	26716.26
440.64	27627.61
440.847	27349.09
441.054	28000.34
441.261	29927.48
441.467	29591.61
441.674	30097.46
441.881	30939.18
442.088	30980.14
442.294	30773.29
442.501	31242.28
442.708	32006.17
442.914	33243.14
443.121	34744.3
443.328	33746.94
443.534	36091.87
443.741	35086.31
443.948	34559.98
444.154	37142.47
444.361	36997.07
444.568	36986.83
444.774	37078.99
444.981	37773.25
445.187	38496.18
445.394	40294.3
445.6	39972.77
445.807	43652.97
446.013	41541.51
446.22	41795.46
446.426	43771.75
446.633	44334.94
446.839	46116.67
447.046	43767.65
447.252	46434.11
447.459	46178.11
447.665	46411.58
447.871	48019.24
448.078	49686.28
448.284	47896.36
448.491	48924.44
448.697	51306.23
448.903	51443.44
449.11	52072.17
449.316	50773.75
449.522	51996.39
449.728	53118.68
449.935	53606.09
450.141	53874.38
450.347	54748.86
450.553	52967.13
450.76	53704.4
450.966	55396.02
451.172	54542.02
451.378	56364.71
451.584	54927.03
451.791	56403.62
451.997	56166.05
452.203	57024.15
452.409	56927.9
452.615	56632.99
452.821	54675.13
453.027	54517.44
453.233	57177.75
453.44	54462.14
453.646	55379.63
453.852	55467.7
454.058	56280.74
454.264	54625.98
454.47	55903.91
454.676	54173.38
454.882	55844.52
455.088	51523.31
455.294	52076.26
455.5	53479.12
455.705	53319.38
455.911	51658.48
456.117	50290.43
456.323	49784.58
456.529	47587.11
456.735	49622.79
456.941	48183.07
457.147	47359.79
457.352	46300.99
457.558	45481.8
457.764	45827.91
457.97	44871.51
458.176	43474.79
458.381	43605.86
458.587	41578.37
458.793	41756.55
458.999	39612.32
459.204	42444.66
459.41	40898.45
459.616	38322.1
459.821	38287.29
460.027	38447.03
460.233	37550.02
460.438	35960.8
460.644	36085.72
460.85	34684.91
461.055	33984.51
461.261	34029.56
461.466	31375.39
461.672	30441.52
461.878	32423.95
462.083	30484.53
462.289	29874.23
462.494	29528.13
462.7	28201.04
462.905	27717.72
463.111	28616.78
463.316	28622.92
463.522	27760.73
463.727	27981.91
463.932	27717.72
464.138	27682.91
464.343	27787.35
464.549	26949.73
464.754	27715.67
464.959	27961.43
465.165	27529.31
465.37	26153.07
465.575	25606.27
465.781	26654.83
465.986	26949.73
466.191	25849.97
466.397	25258.11
466.602	23935.12
466.807	24780.93
