Data from USB4F104151__89__14-30-39-396.txt Node

Date: Thu Mar 13 14:30:39 EDT 2025
User: louis
Spectrometer: USB4F10415
Trigger mode: 4
Integration Time (sec): 2.500000E-2
Scans to average: 1
Electric dark correction enabled: true
Nonlinearity correction enabled: false
Boxcar width: 0
XAxis mode: Wavelengths
Number of Pixels in Spectrum: 3648
>>>>>Begin Spectral Data<<<<<
178.204	-184.32
178.424	-184.32
178.644	-184.32
178.864	-143.36
179.084	-159.74
179.304	-28.67
179.524	-10.24
179.744	-28.67
179.964	90.11
180.184	-28.67
180.404	-43.01
180.624	22.53
180.844	36.86
181.064	-24.58
181.283	8.19
181.503	-45.06
181.723	51.2
181.943	-86.01
182.163	36.86
182.383	16.38
182.602	65.54
182.822	86.01
183.042	36.86
183.262	30.72
183.482	-20.48
183.701	-8.19
183.921	-4.1
184.141	20.48
184.361	-16.38
184.58	106.49
184.8	102.4
185.02	-16.38
185.239	102.4
185.459	69.63
185.679	71.68
185.898	14.34
186.118	4.1
186.338	20.48
186.557	36.86
186.777	24.58
186.997	55.3
187.216	-32.77
187.436	165.89
187.655	75.77
187.875	94.21
188.095	14.34
188.314	153.6
188.534	112.64
188.753	55.3
188.973	102.4
189.192	102.4
189.412	8.19
189.631	36.86
189.851	36.86
190.07	63.49
190.29	-12.29
190.509	12.29
190.729	47.1
190.948	77.82
191.168	194.56
191.387	12.29
191.607	53.25
191.826	61.44
192.045	20.48
192.265	12.29
192.484	30.72
192.704	55.3
192.923	49.15
193.142	73.73
193.362	40.96
193.581	114.69
193.8	55.3
194.02	57.34
194.239	36.86
194.458	167.93
194.678	0
194.897	30.72
195.116	45.06
195.335	14.34
195.555	6.14
195.774	24.58
195.993	110.59
196.212	20.48
196.432	-40.96
196.651	73.73
196.87	6.14
197.089	57.34
197.308	79.87
197.528	36.86
197.747	8.19
197.966	10.24
198.185	28.67
198.404	16.38
198.623	122.88
198.842	102.4
199.062	28.67
199.281	79.87
199.5	47.1
199.719	61.44
199.938	59.39
200.157	86.01
200.376	57.34
200.595	104.45
200.814	32.77
201.033	36.86
201.252	40.96
201.471	20.48
201.69	77.82
201.909	47.1
202.128	12.29
202.347	28.67
202.566	61.44
202.785	69.63
203.004	-20.48
203.223	92.16
203.442	-32.77
203.661	94.21
203.879	14.34
204.098	63.49
204.317	47.1
204.536	86.01
204.755	-8.19
204.974	61.44
205.193	71.68
205.411	143.36
205.63	40.96
205.849	90.11
206.068	34.82
206.287	-12.29
206.505	40.96
206.724	94.21
206.943	45.06
207.162	55.3
207.381	65.54
207.599	40.96
207.818	36.86
208.037	69.63
208.255	18.43
208.474	110.59
208.693	24.58
208.911	98.3
209.13	6.14
209.349	45.06
209.567	40.96
209.786	96.25
210.005	20.48
210.223	4.1
210.442	-69.63
210.661	28.67
210.879	36.86
211.098	65.54
211.316	75.77
211.535	69.63
211.753	77.82
211.972	4.1
212.191	-34.82
212.409	40.96
212.628	-34.82
212.846	30.72
213.065	73.73
213.283	108.54
213.502	49.15
213.72	55.3
213.938	86.01
214.157	12.29
214.375	75.77
214.594	2.05
214.812	112.64
215.031	-2.05
215.249	20.48
215.467	24.58
215.686	2.05
215.904	94.21
216.122	45.06
216.341	118.78
216.559	-4.1
216.778	53.25
216.996	83.97
217.214	69.63
217.432	88.06
217.651	36.86
217.869	65.54
218.087	94.21
218.306	61.44
218.524	-4.1
218.742	83.97
218.96	20.48
219.179	104.45
219.397	129.02
219.615	49.15
219.833	16.38
220.051	36.86
220.27	139.26
220.488	88.06
220.706	100.35
220.924	-43.01
221.142	36.86
221.36	0
221.578	77.82
221.796	20.48
222.015	20.48
222.233	63.49
222.451	81.92
222.669	-24.58
222.887	73.73
223.105	20.48
223.323	-22.53
223.541	-16.38
223.759	61.44
223.977	-8.19
224.195	86.01
224.413	47.1
224.631	4.1
224.849	86.01
225.067	86.01
225.285	45.06
225.503	4.1
225.721	12.29
225.939	20.48
226.157	63.49
226.375	145.41
226.592	79.87
226.81	8.19
227.028	45.06
227.246	100.35
227.464	59.39
227.682	49.15
227.9	32.77
228.117	67.58
228.335	71.68
228.553	-26.62
228.771	69.63
228.989	45.06
229.206	94.21
229.424	-18.43
229.642	67.58
229.86	14.34
230.077	-8.19
230.295	110.59
230.513	6.14
230.731	61.44
230.948	69.63
231.166	61.44
231.384	-4.1
231.601	47.1
231.819	69.63
232.037	45.06
232.254	-4.1
232.472	14.34
232.689	32.77
232.907	34.82
233.125	65.54
233.342	40.96
233.56	18.43
233.777	-4.1
233.995	6.14
234.213	53.25
234.43	77.82
234.648	22.53
234.865	73.73
235.083	45.06
235.3	102.4
235.518	-8.19
235.735	55.3
235.953	86.01
236.17	71.68
236.388	38.91
236.605	53.25
236.822	118.78
237.04	55.3
237.257	53.25
237.475	71.68
237.692	36.86
237.909	73.73
238.127	63.49
238.344	94.21
238.562	57.34
238.779	16.38
238.996	4.1
239.214	14.34
239.431	102.4
239.648	12.29
239.865	20.48
240.083	34.82
240.3	6.14
240.517	14.34
240.735	28.67
240.952	81.92
241.169	30.72
241.386	22.53
241.603	55.3
241.821	0
242.038	47.1
242.255	71.68
242.472	10.24
242.689	126.97
242.907	112.64
243.124	69.63
243.341	0
243.558	30.72
243.775	18.43
243.992	24.58
244.209	49.15
244.426	61.44
244.643	69.63
244.86	71.68
245.078	63.49
245.295	79.87
245.512	53.25
245.729	4.1
245.946	69.63
246.163	-12.29
246.38	141.31
246.597	45.06
246.814	-26.62
247.031	-20.48
247.248	49.15
247.464	53.25
247.681	28.67
247.898	96.25
248.115	126.97
248.332	-28.67
248.549	120.83
248.766	32.77
248.983	32.77
249.2	92.16
249.417	79.87
249.633	-26.62
249.85	73.73
250.067	63.49
250.284	59.39
250.501	45.06
250.717	71.68
250.934	-12.29
251.151	81.92
251.368	-20.48
251.585	22.53
251.801	69.63
252.018	57.34
252.235	77.82
252.451	61.44
252.668	-45.06
252.885	55.3
253.102	47.1
253.318	12.29
253.535	61.44
253.752	-20.48
253.968	8.19
254.185	-4.1
254.401	4.1
254.618	6.14
254.835	20.48
255.051	28.67
255.268	22.53
255.484	61.44
255.701	12.29
255.917	106.49
256.134	-4.1
256.351	36.86
256.567	34.82
256.784	12.29
257	-4.1
257.217	63.49
257.433	94.21
257.65	118.78
257.866	-4.1
258.082	8.19
258.299	14.34
258.515	63.49
258.732	16.38
258.948	-18.43
259.165	20.48
259.381	94.21
259.597	110.59
259.814	55.3
260.03	110.59
260.246	28.67
260.463	57.34
260.679	45.06
260.895	-10.24
261.112	-51.2
261.328	36.86
261.544	90.11
261.761	81.92
261.977	22.53
262.193	-8.19
262.409	86.01
262.626	67.58
262.842	40.96
263.058	28.67
263.274	10.24
263.49	59.39
263.707	86.01
263.923	71.68
264.139	-28.67
264.355	-2.05
264.571	110.59
264.787	55.3
265.004	-4.1
265.22	-10.24
265.436	6.14
265.652	-43.01
265.868	81.92
266.084	73.73
266.3	137.21
266.516	108.54
266.732	36.86
266.948	98.3
267.164	8.19
267.38	81.92
267.596	67.58
267.812	122.88
268.028	96.25
268.244	57.34
268.46	4.1
268.676	12.29
268.892	22.53
269.108	77.82
269.324	77.82
269.54	90.11
269.756	18.43
269.972	65.54
270.188	63.49
270.403	22.53
270.619	12.29
270.835	30.72
271.051	59.39
271.267	22.53
271.483	22.53
271.698	92.16
271.914	45.06
272.13	40.96
272.346	16.38
272.562	30.72
272.777	92.16
272.993	-20.48
273.209	94.21
273.425	34.82
273.64	-45.06
273.856	126.97
274.072	69.63
274.287	45.06
274.503	-12.29
274.719	114.69
274.934	118.78
275.15	-12.29
275.366	118.78
275.581	-18.43
275.797	110.59
276.012	-16.38
276.228	63.49
276.444	40.96
276.659	47.1
276.875	77.82
277.09	-28.67
277.306	110.59
277.521	110.59
277.737	34.82
277.952	94.21
278.168	53.25
278.383	69.63
278.599	40.96
278.814	71.68
279.03	14.34
279.245	77.82
279.461	20.48
279.676	90.11
279.892	24.58
280.107	61.44
280.322	53.25
280.538	-20.48
280.753	38.91
280.969	106.49
281.184	14.34
281.399	43.01
281.615	-4.1
281.83	57.34
282.045	28.67
282.26	-36.86
282.476	65.54
282.691	116.73
282.906	69.63
283.122	94.21
283.337	49.15
283.552	61.44
283.767	34.82
283.983	-4.1
284.198	38.91
284.413	86.01
284.628	18.43
284.843	118.78
285.058	79.87
285.274	22.53
285.489	-12.29
285.704	65.54
285.919	57.34
286.134	86.01
286.349	34.82
286.564	45.06
286.779	114.69
286.995	30.72
287.21	-16.38
287.425	45.06
287.64	51.2
287.855	36.86
288.07	20.48
288.285	143.36
288.5	102.4
288.715	110.59
288.93	53.25
289.145	63.49
289.36	-34.82
289.575	96.25
289.79	24.58
290.004	145.41
290.219	86.01
290.434	-51.2
290.649	20.48
290.864	63.49
291.079	45.06
291.294	49.15
291.509	71.68
291.724	71.68
291.938	-55.3
292.153	83.97
292.368	49.15
292.583	102.4
292.798	110.59
293.012	88.06
293.227	32.77
293.442	36.86
293.657	53.25
293.871	133.12
294.086	40.96
294.301	155.65
294.516	38.91
294.73	18.43
294.945	36.86
295.16	49.15
295.374	69.63
295.589	61.44
295.804	28.67
296.018	45.06
296.233	145.41
296.447	45.06
296.662	53.25
296.877	104.45
297.091	57.34
297.306	94.21
297.52	94.21
297.735	47.1
297.949	18.43
298.164	45.06
298.378	-4.1
298.593	45.06
298.807	45.06
299.022	57.34
299.236	71.68
299.451	-12.29
299.665	38.91
299.88	51.2
300.094	57.34
300.309	77.82
300.523	69.63
300.737	112.64
300.952	-22.53
301.166	126.97
301.381	6.14
301.595	47.1
301.809	90.11
302.024	12.29
302.238	71.68
302.452	77.82
302.667	36.86
302.881	69.63
303.095	65.54
303.309	114.69
303.524	12.29
303.738	53.25
303.952	75.77
304.166	43.01
304.381	-86.01
304.595	26.62
304.809	65.54
305.023	71.68
305.237	45.06
305.452	75.77
305.666	79.87
305.88	57.34
306.094	36.86
306.308	69.63
306.522	63.49
306.736	16.38
306.95	61.44
307.164	0
307.379	30.72
307.593	184.32
307.807	57.34
308.021	57.34
308.235	26.62
308.449	-20.48
308.663	53.25
308.877	94.21
309.091	61.44
309.305	92.16
309.519	-12.29
309.733	38.91
309.947	-2.05
310.161	102.4
310.374	118.78
310.588	126.97
310.802	43.01
311.016	118.78
311.23	36.86
311.444	45.06
311.658	57.34
311.872	40.96
312.085	98.3
312.299	94.21
312.513	86.01
312.727	77.82
312.941	0
313.154	-10.24
313.368	30.72
313.582	20.48
313.796	4.1
314.009	61.44
314.223	63.49
314.437	79.87
314.651	53.25
314.864	53.25
315.078	65.54
315.292	63.49
315.505	71.68
315.719	126.97
315.933	16.38
316.146	69.63
316.36	57.34
316.573	51.2
316.787	86.01
317.001	79.87
317.214	4.1
317.428	77.82
317.641	-20.48
317.855	69.63
318.068	55.3
318.282	96.25
318.495	38.91
318.709	159.74
318.922	86.01
319.136	79.87
319.349	94.21
319.563	96.25
319.776	4.1
319.99	-24.58
320.203	137.21
320.417	71.68
320.63	20.48
320.843	104.45
321.057	6.14
321.27	55.3
321.483	81.92
321.697	59.39
321.91	28.67
322.124	20.48
322.337	12.29
322.55	38.91
322.763	28.67
322.977	59.39
323.19	14.34
323.403	45.06
323.617	129.02
323.83	40.96
324.043	-28.67
324.256	86.01
324.469	38.91
324.683	79.87
324.896	106.49
325.109	86.01
325.322	-49.15
325.535	139.26
325.748	81.92
325.962	69.63
326.175	24.58
326.388	122.88
326.601	77.82
326.814	45.06
327.027	51.2
327.24	186.37
327.453	-43.01
327.666	77.82
327.879	106.49
328.092	143.36
328.305	55.3
328.518	73.73
328.731	55.3
328.944	75.77
329.157	49.15
329.37	151.55
329.583	190.46
329.796	98.3
330.009	28.67
330.222	88.06
330.435	28.67
330.648	79.87
330.861	102.4
331.073	118.78
331.286	49.15
331.499	57.34
331.712	57.34
331.925	4.1
332.138	2.05
332.35	110.59
332.563	26.62
332.776	71.68
332.989	-32.77
333.202	22.53
333.414	86.01
333.627	59.39
333.84	4.1
334.053	106.49
334.265	4.1
334.478	-10.24
334.691	61.44
334.903	69.63
335.116	-57.34
335.329	102.4
335.541	90.11
335.754	100.35
335.966	28.67
336.179	102.4
336.392	47.1
336.604	79.87
336.817	88.06
337.029	167.93
337.242	69.63
337.454	63.49
337.667	12.29
337.88	106.49
338.092	38.91
338.305	73.73
338.517	-8.19
338.729	79.87
338.942	47.1
339.154	129.02
339.367	-26.62
339.579	22.53
339.792	24.58
340.004	104.45
340.217	38.91
340.429	28.67
340.641	-45.06
340.854	71.68
341.066	110.59
341.278	110.59
341.491	92.16
341.703	59.39
341.915	12.29
342.128	135.17
342.34	-24.58
342.552	120.83
342.764	65.54
342.977	94.21
343.189	65.54
343.401	110.59
343.613	32.77
343.826	61.44
344.038	61.44
344.25	61.44
344.462	-26.62
344.674	12.29
344.886	79.87
345.099	92.16
345.311	40.96
345.523	2.05
345.735	24.58
345.947	110.59
346.159	73.73
346.371	77.82
346.583	-24.58
346.795	131.07
347.007	-12.29
347.219	53.25
347.431	30.72
347.643	86.01
347.855	61.44
348.067	69.63
348.279	34.82
348.491	120.83
348.703	47.1
348.915	63.49
349.127	57.34
349.339	194.56
349.551	38.91
349.763	145.41
349.975	32.77
350.187	131.07
350.399	69.63
350.61	47.1
350.822	65.54
351.034	71.68
351.246	32.77
351.458	104.45
351.669	149.5
351.881	81.92
352.093	120.83
352.305	143.36
352.517	36.86
352.728	55.3
352.94	94.21
353.152	86.01
353.363	47.1
353.575	94.21
353.787	135.17
353.999	73.73
354.21	79.87
354.422	55.3
354.633	65.54
354.845	22.53
355.057	45.06
355.268	98.3
355.48	63.49
355.692	83.97
355.903	112.64
356.115	59.39
356.326	-34.82
356.538	73.73
356.749	-8.19
356.961	120.83
357.172	16.38
357.384	36.86
357.595	122.88
357.807	18.43
358.018	12.29
358.23	36.86
358.441	208.89
358.653	20.48
358.864	45.06
359.075	-24.58
359.287	38.91
359.498	32.77
359.709	45.06
359.921	104.45
360.132	45.06
360.344	79.87
360.555	32.77
360.766	63.49
360.977	90.11
361.189	102.4
361.4	22.53
361.611	163.84
361.823	30.72
362.034	86.01
362.245	32.77
362.456	4.1
362.667	55.3
362.879	67.58
363.09	135.17
363.301	86.01
363.512	16.38
363.723	65.54
363.935	102.4
364.146	88.06
364.357	36.86
364.568	110.59
364.779	-4.1
364.99	145.41
365.201	81.92
365.412	94.21
365.623	36.86
365.834	96.25
366.045	102.4
366.256	59.39
366.467	28.67
366.678	20.48
366.889	104.45
367.1	36.86
367.311	61.44
367.522	-2.05
367.733	79.87
367.944	122.88
368.155	4.1
368.366	47.1
368.577	75.77
368.788	53.25
368.999	36.86
369.209	18.43
369.42	176.13
369.631	116.73
369.842	65.54
370.053	6.14
370.264	43.01
370.474	131.07
370.685	94.21
370.896	40.96
371.107	131.07
371.317	61.44
371.528	69.63
371.739	143.36
371.95	92.16
372.16	108.54
372.371	14.34
372.582	-2.05
372.792	98.3
373.003	2.05
373.214	-2.05
373.424	24.58
373.635	90.11
373.846	104.45
374.056	55.3
374.267	90.11
374.477	116.73
374.688	-20.48
374.898	4.1
375.109	73.73
375.319	69.63
375.53	28.67
375.74	69.63
375.951	88.06
376.161	47.1
376.372	104.45
376.582	-16.38
376.793	131.07
377.003	57.34
377.214	73.73
377.424	40.96
377.635	45.06
377.845	45.06
378.055	69.63
378.266	59.39
378.476	81.92
378.686	112.64
378.897	55.3
379.107	77.82
379.317	92.16
379.528	88.06
379.738	69.63
379.948	75.77
380.158	61.44
380.369	-86.01
380.579	120.83
380.789	28.67
380.999	135.17
381.21	110.59
381.42	147.45
381.63	110.59
381.84	49.15
382.05	118.78
382.261	69.63
382.471	45.06
382.681	45.06
382.891	100.35
383.101	53.25
383.311	-22.53
383.521	73.73
383.731	96.25
383.941	167.93
384.151	88.06
384.361	120.83
384.571	0
384.781	112.64
384.991	126.97
385.201	104.45
385.411	118.78
385.621	192.51
385.831	79.87
386.041	102.4
386.251	94.21
386.461	63.49
386.671	110.59
386.881	65.54
387.091	57.34
387.301	61.44
387.511	38.91
387.72	147.45
387.93	135.17
388.14	129.02
388.35	-2.05
388.56	98.3
388.769	90.11
388.979	53.25
389.189	147.45
389.399	92.16
389.609	159.74
389.818	118.78
390.028	65.54
390.238	77.82
390.447	40.96
390.657	182.27
390.867	59.39
391.076	61.44
391.286	110.59
391.496	143.36
391.705	104.45
391.915	133.12
392.125	96.25
392.334	94.21
392.544	135.17
392.753	77.82
392.963	126.97
393.172	53.25
393.382	90.11
393.591	145.41
393.801	184.32
394.01	104.45
394.22	81.92
394.429	69.63
394.639	151.55
394.848	169.98
395.058	157.69
395.267	131.07
395.477	157.69
395.686	86.01
395.895	165.89
396.105	184.32
396.314	108.54
396.524	79.87
396.733	147.45
396.942	161.79
397.152	96.25
397.361	153.6
397.57	167.93
397.78	167.93
397.989	135.17
398.198	157.69
398.407	149.5
398.617	126.97
398.826	178.17
399.035	184.32
399.244	202.75
399.453	86.01
399.663	172.03
399.872	137.21
400.081	90.11
400.29	208.89
400.499	155.65
400.708	139.26
400.917	149.5
401.127	135.17
401.336	167.93
401.545	200.7
401.754	194.56
401.963	159.74
402.172	178.17
402.381	167.93
402.59	198.65
402.799	163.84
403.008	184.32
403.217	143.36
403.426	237.56
403.635	102.4
403.844	200.7
404.053	112.64
404.262	215.04
404.471	241.66
404.68	221.18
404.888	153.6
405.097	276.48
405.306	233.47
405.515	241.66
405.724	178.17
405.933	225.28
406.142	237.56
406.35	286.72
406.559	286.72
406.768	301.05
406.977	321.53
407.185	274.43
407.394	229.37
407.603	294.91
407.812	348.15
408.02	299
408.229	272.38
408.438	376.83
408.646	372.73
408.855	356.35
409.064	339.96
409.272	352.25
409.481	366.59
409.69	415.74
409.898	405.5
410.107	471.03
410.315	448.51
410.524	477.18
410.733	579.58
410.941	491.51
411.15	544.76
411.358	675.83
411.567	585.72
411.775	503.8
411.984	669.69
412.192	708.6
412.401	634.87
412.609	667.64
412.818	765.94
413.026	737.27
413.234	798.71
413.443	817.14
413.651	716.79
413.86	933.87
414.068	946.16
414.276	962.55
414.485	983.03
414.693	1026.03
414.901	1089.52
415.11	1103.86
415.318	1030.13
415.526	1036.27
415.734	1210.35
415.943	1128.43
416.151	1212.4
416.359	1224.69
416.567	1259.5
416.776	1208.3
416.984	1478.63
417.192	1519.59
417.4	1437.67
417.608	1374.19
417.817	1556.46
418.025	1673.19
418.233	1742.82
418.441	1728.49
418.649	1824.74
418.857	1826.79
419.065	1970.15
419.273	1896.42
419.481	2056.16
419.689	2131.94
419.897	2293.72
420.105	2404.32
420.313	2269.15
420.521	2447.32
420.729	2469.85
420.937	2576.34
421.145	2592.73
421.353	2748.37
421.561	2869.2
421.769	2977.75
421.977	3086.29
422.185	2854.87
422.393	3178.45
422.601	3438.54
422.809	3336.14
423.017	3334.09
423.224	3583.95
423.432	3649.48
423.64	3758.02
423.848	4229.06
424.056	4020.16
424.263	4270.01
424.471	4243.39
424.679	4364.22
424.887	4536.25
425.094	4644.79
425.302	4820.92
425.51	4902.84
425.718	5009.33
425.925	5119.92
426.133	5257.14
426.341	5613.48
426.548	5867.43
426.756	5898.15
426.964	5947.3
427.171	6481.82
427.379	6451.1
427.586	6506.4
427.794	6688.67
428.001	7028.63
428.209	7409.55
428.417	7141.27
428.624	7757.71
428.832	7747.47
429.039	7526.29
429.247	7782.28
429.454	8243.07
429.662	9023.35
429.869	8447.87
430.076	9031.54
430.284	8769.4
430.491	9361.27
430.699	9719.66
430.906	9697.13
431.114	9695.08
431.321	10309.47
431.528	10461.02
431.736	10925.91
431.943	11308.88
432.15	11251.54
432.358	11261.78
432.565	12048.2
432.772	11808.59
432.979	12556.1
433.187	12853.05
433.394	12779.33
433.601	13670.19
433.808	13711.15
434.016	13627.18
434.223	14143.27
434.43	15017.75
434.637	14720.8
434.844	15546.13
435.052	15847.18
435.259	15724.3
435.466	15920.91
435.673	15900.43
435.88	16819.97
436.087	17610.48
436.294	17856.24
436.501	17151.74
436.708	17610.48
436.915	18058.99
437.122	19025.63
437.329	18833.12
437.537	19601.11
437.743	19971.79
437.95	19826.39
438.157	20829.89
438.364	21128.89
438.571	21276.35
438.778	21581.49
438.985	23389.85
439.192	22617.77
439.399	23187.1
439.606	22711.97
439.813	23791.25
440.02	25386.62
440.227	25044.61
440.433	24733.32
440.64	25499.26
440.847	25161.34
441.054	25792.12
441.261	27465.31
441.467	27305.57
441.674	27682.39
441.881	28683.85
442.088	28956.23
442.294	28393.04
442.501	29109.83
442.708	29660.73
442.914	30842.41
443.121	32124.44
443.328	31295.01
443.534	33568.26
443.741	32460.3
443.948	32218.64
444.154	34528.75
444.361	34182.65
444.568	34455.03
444.774	34422.26
444.981	34731.5
445.187	35931.61
445.394	37180.87
445.6	36513.23
445.807	40334.74
446.013	38485.43
446.22	39439.78
446.426	40654.23
446.633	41035.15
446.839	42923.38
447.046	40854.93
447.252	43140.46
447.459	43154.8
447.665	43154.8
447.871	44848.47
448.078	46677.3
448.284	44502.36
448.491	45579.59
448.697	47232.3
448.903	47783.21
449.11	48194.85
449.316	47330.61
449.522	48520.48
449.728	49659.15
449.935	50040.07
450.141	49759.5
450.347	50816.25
450.553	49059.09
450.76	49808.65
450.966	51782.89
451.172	50900.22
451.378	52215.01
451.584	51270.9
451.791	52573.41
451.997	52153.57
452.203	53392.59
452.409	53085.4
452.615	52514.01
452.821	50814.2
453.027	50341.12
453.233	53150.93
453.44	51131.64
453.646	51504.37
453.852	51969.25
454.058	53163.22
454.264	50797.82
454.47	51952.87
454.676	50894.07
454.882	52264.16
455.088	47637.8
455.294	49040.66
455.5	49267.98
455.705	50087.17
455.911	47523.11
456.117	46873.91
456.323	46185.79
456.529	43896.16
456.735	45925.7
456.941	44705.11
457.147	44189.02
457.352	42827.12
457.558	42689.91
457.764	42292.6
457.97	41477.51
458.176	40385.94
458.381	40244.63
458.587	38690.23
458.793	38964.65
458.999	36541.91
459.204	38782.38
459.41	38374.84
459.616	35591.65
459.821	35890.65
460.027	35751.39
460.233	34647.54
460.438	33234.44
460.644	33682.94
460.85	31780.38
461.055	31436.32
461.261	30981.67
461.466	28986.95
461.672	27741.78
461.878	30428.72
462.083	28051.03
462.289	27389.53
462.494	27264.61
462.7	26021.49
462.905	25501.31
463.111	26220.14
463.316	26478.19
463.522	25929.33
463.727	26156.66
463.932	25767.54
464.138	25355.9
464.343	25607.8
464.549	24985.22
464.754	25351.81
464.959	25499.26
465.165	25407.1
465.37	24254.09
465.575	23912.08
465.781	24407.69
465.986	24897.16
466.191	23938.71
466.397	23367.32
