Data from USB4F104151__81__14-30-33-972.txt Node

Date: Thu Mar 13 14:30:33 EDT 2025
User: louis
Spectrometer: USB4F10415
Trigger mode: 4
Integration Time (sec): 2.500000E-2
Scans to average: 1
Electric dark correction enabled: true
Nonlinearity correction enabled: false
Boxcar width: 0
XAxis mode: Wavelengths
Number of Pixels in Spectrum: 3648
>>>>>Begin Spectral Data<<<<<
178.204	-172.03
178.424	-172.03
178.644	-172.03
178.864	-180.22
179.084	-77.82
179.304	81.92
179.524	28.67
179.744	-38.91
179.964	61.44
180.184	12.29
180.404	4.1
180.624	-18.43
180.844	-77.82
181.064	-49.15
181.283	-40.96
181.503	-38.91
181.723	75.77
181.943	-55.3
182.163	63.49
182.383	-16.38
182.602	28.67
182.822	28.67
183.042	2.05
183.262	45.06
183.482	40.96
183.701	20.48
183.921	4.1
184.141	-0
184.361	51.2
184.58	57.34
184.8	28.67
185.02	-83.97
185.239	36.86
185.459	14.34
185.679	36.86
185.898	-24.58
186.118	-12.29
186.338	14.34
186.557	36.86
186.777	55.3
186.997	6.14
187.216	20.48
187.436	96.25
187.655	47.1
187.875	12.29
188.095	-26.62
188.314	12.29
188.534	14.34
188.753	-53.25
188.973	12.29
189.192	45.06
189.412	12.29
189.631	-6.14
189.851	61.44
190.07	81.92
190.29	69.63
190.509	38.91
190.729	-24.58
190.948	77.82
191.168	133.12
191.387	-16.38
191.607	61.44
191.826	10.24
192.045	-61.44
192.265	14.34
192.484	38.91
192.704	38.91
192.923	-22.53
193.142	151.55
193.362	122.88
193.581	45.06
193.8	79.87
194.02	88.06
194.239	16.38
194.458	55.3
194.678	49.15
194.897	14.34
195.116	-18.43
195.335	65.53
195.555	14.34
195.774	-6.14
195.993	51.2
196.212	61.44
196.432	-2.05
196.651	-2.05
196.87	12.29
197.089	98.3
197.308	36.86
197.528	71.68
197.747	24.58
197.966	20.48
198.185	-28.67
198.404	-16.38
198.623	-24.58
198.842	51.2
199.062	53.25
199.281	86.01
199.5	40.96
199.719	110.59
199.938	12.29
200.157	79.87
200.376	16.38
200.595	47.1
200.814	-10.24
201.033	-4.1
201.252	14.34
201.471	126.97
201.69	20.48
201.909	55.3
202.128	30.72
202.347	28.67
202.566	51.2
202.785	12.29
203.004	-22.53
203.223	61.44
203.442	96.25
203.661	36.86
203.879	65.53
204.098	12.29
204.317	20.48
204.536	57.34
204.755	22.53
204.974	12.29
205.193	22.53
205.411	102.4
205.63	36.86
205.849	-10.24
206.068	-6.14
206.287	28.67
206.505	65.53
206.724	-4.1
206.943	16.38
207.162	38.91
207.381	-8.19
207.599	-8.19
207.818	22.53
208.037	-59.39
208.255	-28.67
208.474	32.77
208.693	47.1
208.911	86.01
209.13	-2.05
209.349	-4.1
209.567	20.48
209.786	71.68
210.005	88.06
210.223	55.3
210.442	16.38
210.661	57.34
210.879	26.62
211.098	53.25
211.316	8.19
211.535	77.82
211.753	28.67
211.972	77.82
212.191	2.05
212.409	2.05
212.628	20.48
212.846	-77.82
213.065	-12.29
213.283	69.63
213.502	-20.48
213.72	-8.19
213.938	36.86
214.157	32.77
214.375	24.58
214.594	30.72
214.812	22.53
215.031	71.68
215.249	38.91
215.467	69.63
215.686	65.53
215.904	55.3
216.122	4.1
216.341	129.02
216.559	16.38
216.778	45.06
216.996	49.15
217.214	-20.48
217.432	110.59
217.651	30.72
217.869	14.34
218.087	36.86
218.306	45.06
218.524	69.63
218.742	-4.1
218.96	38.91
219.179	-40.96
219.397	-20.48
219.615	135.17
219.833	49.15
220.051	22.53
220.27	59.39
220.488	126.97
220.706	-20.48
220.924	8.19
221.142	36.86
221.36	10.24
221.578	77.82
221.796	53.25
222.015	92.16
222.233	63.49
222.451	55.3
222.669	-10.24
222.887	12.29
223.105	-28.67
223.323	-18.43
223.541	-16.38
223.759	12.29
223.977	88.06
224.195	36.86
224.413	143.36
224.631	-26.62
224.849	-4.1
225.067	53.25
225.285	-2.05
225.503	-12.29
225.721	-53.25
225.939	73.73
226.157	61.44
226.375	102.4
226.592	-32.77
226.81	63.49
227.028	36.86
227.246	73.73
227.464	16.38
227.682	77.82
227.9	26.62
228.117	4.1
228.335	-16.38
228.553	73.73
228.771	88.06
228.989	22.53
229.206	63.49
229.424	90.11
229.642	-12.29
229.86	-6.14
230.077	40.96
230.295	71.68
230.513	45.06
230.731	-12.29
230.948	8.19
231.166	83.97
231.384	30.72
231.601	26.62
231.819	8.19
232.037	4.1
232.254	-12.29
232.472	51.2
232.689	-4.1
232.907	94.21
233.125	47.1
233.342	-16.38
233.56	26.62
233.777	-4.1
233.995	-12.29
234.213	4.1
234.43	63.49
234.648	-2.05
234.865	36.86
235.083	8.19
235.3	4.1
235.518	53.25
235.735	16.38
235.953	10.24
236.17	-28.67
236.388	55.3
236.605	-8.19
236.822	-4.1
237.04	81.92
237.257	28.67
237.475	-4.1
237.692	8.19
237.909	6.14
238.127	12.29
238.344	45.06
238.562	32.77
238.779	36.86
238.996	16.38
239.214	-0
239.431	126.97
239.648	-86.01
239.865	59.39
240.083	61.44
240.3	24.58
240.517	-49.15
240.735	45.06
240.952	55.3
241.169	-20.48
241.386	73.73
241.603	53.25
241.821	30.72
242.038	73.73
242.255	65.53
242.472	-24.58
242.689	-26.62
242.907	24.58
243.124	-32.77
243.341	8.19
243.558	36.86
243.775	-67.58
243.992	38.91
244.209	92.16
244.426	102.4
244.643	53.25
244.86	-0
245.078	22.53
245.295	20.48
245.512	40.96
245.729	20.48
245.946	51.2
246.163	-24.58
246.38	45.06
246.597	32.77
246.814	8.19
247.031	67.58
247.248	4.1
247.464	53.25
247.681	-32.77
247.898	16.38
248.115	63.49
248.332	-51.2
248.549	38.91
248.766	143.36
248.983	131.07
249.2	-10.24
249.417	4.1
249.633	-34.82
249.85	61.44
250.067	28.67
250.284	61.44
250.501	16.38
250.717	28.67
250.934	-51.2
251.151	-14.34
251.368	45.06
251.585	75.77
251.801	12.29
252.018	-20.48
252.235	4.1
252.451	20.48
252.668	-18.43
252.885	104.45
253.102	77.82
253.318	-0
253.535	-49.15
253.752	-16.38
253.968	26.62
254.185	-67.58
254.401	-8.19
254.618	28.67
254.835	-53.25
255.051	118.78
255.268	73.73
255.484	14.34
255.701	-16.38
255.917	-0
256.134	20.48
256.351	45.06
256.567	-36.86
256.784	8.19
257	-22.53
257.217	16.38
257.433	-26.62
257.65	155.65
257.866	120.83
258.082	-22.53
258.299	-26.62
258.515	30.72
258.732	14.34
258.948	14.34
259.165	28.67
259.381	20.48
259.597	16.38
259.814	16.38
260.03	32.77
260.246	12.29
260.463	135.17
260.679	20.48
260.895	-0
261.112	61.44
261.328	-34.82
261.544	-0
261.761	69.63
261.977	77.82
262.193	-0
262.409	28.67
262.626	12.29
262.842	22.53
263.058	69.63
263.274	-55.3
263.49	116.73
263.707	26.62
263.923	86.01
264.139	-28.67
264.355	57.34
264.571	135.17
264.787	55.3
265.004	22.53
265.22	-26.62
265.436	-53.25
265.652	22.53
265.868	61.44
266.084	36.86
266.3	-28.67
266.516	-26.62
266.732	12.29
266.948	22.53
267.164	65.53
267.38	36.86
267.596	63.49
267.812	61.44
268.028	30.72
268.244	-4.1
268.46	45.06
268.676	14.34
268.892	92.16
269.108	-36.86
269.324	38.91
269.54	28.67
269.756	71.68
269.972	-4.1
270.188	12.29
270.403	-30.72
270.619	-53.25
270.835	-12.29
271.051	43.01
271.267	73.73
271.483	16.38
271.698	12.29
271.914	14.34
272.13	86.01
272.346	94.21
272.562	4.1
272.777	45.06
272.993	-18.43
273.209	20.48
273.425	8.19
273.64	61.44
273.856	30.72
274.072	20.48
274.287	69.63
274.503	22.53
274.719	32.77
274.934	20.48
275.15	-67.58
275.366	81.92
275.581	-24.58
275.797	-0
276.012	-4.1
276.228	-6.14
276.444	40.96
276.659	94.21
276.875	-12.29
277.09	53.25
277.306	32.77
277.521	98.3
277.737	-2.05
277.952	53.25
278.168	-4.1
278.383	12.29
278.599	-43.01
278.814	63.49
279.03	-0
279.245	51.2
279.461	63.49
279.676	81.92
279.892	47.1
280.107	30.72
280.322	30.72
280.538	77.82
280.753	49.15
280.969	14.34
281.184	67.58
281.399	22.53
281.615	22.53
281.83	59.39
282.045	18.43
282.26	-47.1
282.476	63.49
282.691	71.68
282.906	38.91
283.122	73.73
283.337	45.06
283.552	6.14
283.767	-0
283.983	61.44
284.198	-12.29
284.413	65.53
284.628	-36.86
284.843	6.14
285.058	104.45
285.274	36.86
285.489	-88.06
285.704	14.34
285.919	-59.39
286.134	-8.19
286.349	122.88
286.564	6.14
286.779	38.91
286.995	18.43
287.21	-55.3
287.425	24.58
287.64	63.49
287.855	-4.1
288.07	-45.06
288.285	77.82
288.5	67.58
288.715	51.2
288.93	-4.1
289.145	40.96
289.36	57.34
289.575	-24.58
289.79	63.49
290.004	6.14
290.219	4.1
290.434	12.29
290.649	-8.19
290.864	79.87
291.079	-10.24
291.294	24.58
291.509	61.44
291.724	-14.34
291.938	14.34
292.153	51.2
292.368	38.91
292.583	45.06
292.798	53.25
293.012	79.87
293.227	20.48
293.442	16.38
293.657	45.06
293.871	143.36
294.086	24.58
294.301	86.01
294.516	32.77
294.73	28.67
294.945	-20.48
295.16	75.77
295.374	63.49
295.589	110.59
295.804	16.38
296.018	-94.21
296.233	40.96
296.447	40.96
296.662	-2.05
296.877	20.48
297.091	71.68
297.306	73.73
297.52	-4.1
297.735	49.15
297.949	36.86
298.164	61.44
298.378	47.1
298.593	30.72
298.807	-28.67
299.022	-45.06
299.236	-69.63
299.451	55.3
299.665	36.86
299.88	20.48
300.094	53.25
300.309	20.48
300.523	57.34
300.737	24.58
300.952	-0
301.166	55.3
301.381	16.38
301.595	4.1
301.809	57.34
302.024	77.82
302.238	47.1
302.452	4.1
302.667	-22.53
302.881	79.87
303.095	26.62
303.309	45.06
303.524	30.72
303.738	-36.86
303.952	6.14
304.166	104.45
304.381	-6.14
304.595	135.17
304.809	45.06
305.023	-4.1
305.237	26.62
305.452	-20.48
305.666	61.44
305.88	79.87
306.094	34.82
306.308	77.82
306.522	14.34
306.736	24.58
306.95	100.35
307.164	24.58
307.379	-10.24
307.593	92.16
307.807	-12.29
308.021	55.3
308.235	65.53
308.449	8.19
308.663	-10.24
308.877	157.69
309.091	-4.1
309.305	-26.62
309.519	-4.1
309.733	30.72
309.947	-51.2
310.161	40.96
310.374	38.91
310.588	135.17
310.802	-10.24
311.016	-40.96
311.23	61.44
311.444	20.48
311.658	6.14
311.872	53.25
312.085	81.92
312.299	47.1
312.513	133.12
312.727	61.44
312.941	4.1
313.154	96.25
313.368	49.15
313.582	22.53
313.796	96.25
314.009	106.49
314.223	86.01
314.437	38.91
314.651	61.44
314.864	86.01
315.078	-0
315.292	-83.97
315.505	45.06
315.719	36.86
315.933	120.83
316.146	118.78
316.36	12.29
316.573	71.68
316.787	28.67
317.001	112.64
317.214	-49.15
317.428	49.15
317.641	-12.29
317.855	-8.19
318.068	69.63
318.282	71.68
318.495	16.38
318.709	96.25
318.922	40.96
319.136	24.58
319.349	16.38
319.563	45.06
319.776	43.01
319.99	4.1
320.203	32.77
320.417	-8.19
320.63	63.49
320.843	28.67
321.057	6.14
321.27	61.44
321.483	16.38
321.697	73.73
321.91	36.86
322.124	45.06
322.337	114.69
322.55	-55.3
322.763	53.25
322.977	45.06
323.19	-36.86
323.403	61.44
323.617	110.59
323.83	98.3
324.043	-12.29
324.256	36.86
324.469	-6.14
324.683	86.01
324.896	-47.1
325.109	57.34
325.322	-0
325.535	51.2
325.748	32.77
325.962	81.92
326.175	45.06
326.388	133.12
326.601	12.29
326.814	28.67
327.027	28.67
327.24	102.4
327.453	36.86
327.666	79.87
327.879	86.01
328.092	77.82
328.305	-10.24
328.518	-0
328.731	22.53
328.944	63.49
329.157	40.96
329.37	47.1
329.583	151.55
329.796	77.82
330.009	86.01
330.222	18.43
330.435	155.65
330.648	34.82
330.861	22.53
331.073	131.07
331.286	71.68
331.499	53.25
331.712	20.48
331.925	12.29
332.138	38.91
332.35	79.87
332.563	12.29
332.776	137.21
332.989	-43.01
333.202	20.48
333.414	16.38
333.627	6.14
333.84	-30.72
334.053	79.87
334.265	38.91
334.478	71.68
334.691	12.29
334.903	12.29
335.116	45.06
335.329	-32.77
335.541	86.01
335.754	88.06
335.966	16.38
336.179	-8.19
336.392	131.07
336.604	159.74
336.817	69.63
337.029	28.67
337.242	14.34
337.454	145.41
337.667	-49.15
337.88	120.83
338.092	2.05
338.305	118.78
338.517	53.25
338.729	61.44
338.942	114.69
339.154	-4.1
339.367	47.1
339.579	-10.24
339.792	51.2
340.004	40.96
340.217	12.29
340.429	36.86
340.641	-6.14
340.854	43.01
341.066	8.19
341.278	102.4
341.491	77.82
341.703	65.53
341.915	36.86
342.128	106.49
342.34	47.1
342.552	4.1
342.764	55.3
342.977	45.06
343.189	77.82
343.401	69.63
343.613	-4.1
343.826	53.25
344.038	53.25
344.25	14.34
344.462	28.67
344.674	14.34
344.886	57.34
345.099	47.1
345.311	75.77
345.523	-40.96
345.735	45.06
345.947	36.86
346.159	-43.01
346.371	-10.24
346.583	28.67
346.795	104.45
347.007	69.63
347.219	24.58
347.431	10.24
347.643	30.72
347.855	94.21
348.067	-49.15
348.279	63.49
348.491	71.68
348.703	137.21
348.915	-8.19
349.127	4.1
349.339	88.06
349.551	20.48
349.763	110.59
349.975	24.58
350.187	53.25
350.399	63.49
350.61	38.91
350.822	10.24
351.034	71.68
351.246	-4.1
351.458	47.1
351.669	71.68
351.881	98.3
352.093	20.48
352.305	81.92
352.517	90.11
352.728	22.53
352.94	6.14
353.152	28.67
353.363	4.1
353.575	108.54
353.787	98.3
353.999	73.73
354.21	65.53
354.422	63.49
354.633	53.25
354.845	49.15
355.057	38.91
355.268	34.82
355.48	24.58
355.692	69.63
355.903	34.82
356.115	-12.29
356.326	4.1
356.538	75.77
356.749	81.92
356.961	102.4
357.172	12.29
357.384	-24.58
357.595	131.07
357.807	55.3
358.018	55.3
358.23	40.96
358.441	163.84
358.653	28.67
358.864	36.86
359.075	-34.82
359.287	-6.14
359.498	45.06
359.709	75.77
359.921	-18.43
360.132	114.69
360.344	94.21
360.555	20.48
360.766	104.45
360.977	69.63
361.189	88.06
361.4	-28.67
361.611	77.82
361.823	129.02
362.034	28.67
362.245	-10.24
362.456	28.67
362.667	-2.05
362.879	45.06
363.09	6.14
363.301	131.07
363.512	12.29
363.723	-4.1
363.935	86.01
364.146	16.38
364.357	2.05
364.568	106.49
364.779	4.1
364.99	77.82
365.201	-8.19
365.412	6.14
365.623	28.67
365.834	61.44
366.045	4.1
366.256	32.77
366.467	53.25
366.678	71.68
366.889	26.62
367.1	57.34
367.311	-4.1
367.522	141.31
367.733	65.53
367.944	28.67
368.155	20.48
368.366	36.86
368.577	143.36
368.788	43.01
368.999	8.19
369.209	67.58
369.42	40.96
369.631	153.6
369.842	81.92
370.053	10.24
370.264	94.21
370.474	53.25
370.685	28.67
370.896	118.78
371.107	65.53
371.317	90.11
371.528	102.4
371.739	131.07
371.95	30.72
372.16	55.3
372.371	28.67
372.582	96.25
372.792	118.78
373.003	53.25
373.214	55.3
373.424	88.06
373.635	36.86
373.846	38.91
374.056	-6.14
374.267	114.69
374.477	57.34
374.688	28.67
374.898	49.15
375.109	-12.29
375.319	43.01
375.53	45.06
375.74	51.2
375.951	137.21
376.161	47.1
376.372	26.62
376.582	20.48
376.793	102.4
377.003	40.96
377.214	-28.67
377.424	120.83
377.635	47.1
377.845	32.77
378.055	118.78
378.266	24.58
378.476	14.34
378.686	28.67
378.897	98.3
379.107	86.01
379.317	57.34
379.528	22.53
379.738	47.1
379.948	12.29
380.158	38.91
380.369	16.38
380.579	100.35
380.789	40.96
380.999	94.21
381.21	137.21
381.42	53.25
381.63	-49.15
381.84	61.44
382.05	32.77
382.261	65.53
382.471	69.63
382.681	-18.43
382.891	20.48
383.101	120.83
383.311	86.01
383.521	32.77
383.731	94.21
383.941	94.21
384.151	47.1
384.361	26.62
384.571	126.97
384.781	96.25
384.991	81.92
385.201	88.06
385.411	108.54
385.621	90.11
385.831	18.43
386.041	12.29
386.251	61.44
386.461	67.58
386.671	110.59
386.881	100.35
387.091	61.44
387.301	69.63
387.511	86.01
387.72	20.48
387.93	143.36
388.14	22.53
388.35	69.63
388.56	124.93
388.769	90.11
388.979	94.21
389.189	30.72
389.399	92.16
389.609	53.25
389.818	94.21
390.028	65.53
390.238	102.4
390.447	94.21
390.657	53.25
390.867	65.53
391.076	114.69
391.286	69.63
391.496	116.73
391.705	-10.24
391.915	126.97
392.125	77.82
392.334	61.44
392.544	120.83
392.753	141.31
392.963	38.91
393.172	77.82
393.382	-0
393.591	176.13
393.801	71.68
394.01	126.97
394.22	118.78
394.429	124.93
394.639	81.92
394.848	104.45
395.058	112.64
395.267	83.97
395.477	135.17
395.686	63.49
395.895	147.45
396.105	190.46
396.314	102.4
396.524	45.06
396.733	36.86
396.942	131.07
397.152	106.49
397.361	178.17
397.57	104.45
397.78	98.3
397.989	159.74
398.198	163.84
398.407	116.73
398.617	81.92
398.826	122.88
399.035	51.2
399.244	102.4
399.453	114.69
399.663	184.32
399.872	81.92
400.081	126.97
400.29	110.59
400.499	69.63
400.708	194.56
400.917	94.21
401.127	98.3
401.336	151.55
401.545	157.69
401.754	126.97
401.963	141.31
402.172	143.36
402.381	126.97
402.59	159.74
402.799	174.08
403.008	139.26
403.217	110.59
403.426	176.13
403.635	20.48
403.844	233.47
404.053	161.79
404.262	163.84
404.471	200.7
404.68	159.74
404.888	178.17
405.097	141.31
405.306	188.41
405.515	192.51
405.724	151.55
405.933	151.55
406.142	227.32
406.35	251.9
406.559	184.32
406.768	192.51
406.977	253.95
407.185	286.72
407.394	202.75
407.603	217.08
407.812	204.8
408.02	282.62
408.229	276.48
408.438	245.76
408.646	253.95
408.855	315.39
409.064	260.09
409.272	206.84
409.481	323.58
409.69	311.29
409.898	317.44
410.107	346.11
410.315	407.55
410.524	395.26
410.733	405.5
410.941	313.34
411.15	489.46
411.358	466.94
411.567	471.03
411.775	380.92
411.984	522.23
412.192	569.34
412.401	511.99
412.609	626.68
412.818	550.9
413.026	645.11
413.234	552.95
413.443	647.16
413.651	622.58
413.86	632.82
414.068	718.84
414.276	686.07
414.485	677.88
414.693	765.94
414.901	839.67
415.11	864.24
415.318	880.63
415.526	913.39
415.734	1005.55
415.943	892.91
416.151	1099.76
416.359	1032.18
416.567	1050.61
416.776	1091.57
416.984	1204.21
417.192	1095.66
417.4	1171.44
417.608	1306.6
417.817	1339.37
418.025	1294.32
418.233	1368.04
418.441	1398.76
418.649	1429.48
418.857	1556.46
419.065	1634.28
419.273	1564.65
419.481	1595.37
419.689	1744.87
419.897	1882.08
420.105	1816.55
420.313	1896.42
420.521	1996.77
420.729	1996.77
420.937	2060.26
421.145	2103.26
421.353	2353.12
421.561	2287.58
421.769	2289.63
421.977	2338.78
422.185	2607.06
422.393	2627.54
422.601	2791.38
422.809	2834.39
423.017	2682.84
423.224	2822.1
423.432	2873.3
423.64	3086.29
423.848	3321.81
424.056	3239.89
424.263	3497.93
424.471	3446.73
424.679	3665.86
424.887	3678.15
425.094	3776.45
425.302	3784.65
425.51	4040.64
425.718	4214.72
425.925	4208.58
426.133	4200.38
426.341	4573.11
426.548	4765.62
426.756	4730.81
426.964	4861.88
427.171	5175.22
427.379	5072.82
427.586	5316.53
427.794	5412.78
428.001	5660.59
428.209	6018.98
428.417	5861.29
428.624	6305.7
428.832	6287.26
429.039	6156.19
429.247	6256.54
429.454	6817.69
429.662	7214.99
429.869	6829.98
430.076	7204.75
430.284	7128.98
430.491	7583.63
430.699	7860.1
430.906	7735.18
431.114	7991.17
431.321	8368
431.528	8339.33
431.736	8814.46
431.943	9303.92
432.15	9170.8
432.358	9115.51
432.565	9527.15
432.772	9455.47
432.979	10024.81
433.187	10112.87
433.394	10401.63
433.601	11116.37
433.808	10909.53
434.016	11063.13
434.223	11370.32
434.43	12119.88
434.637	11693.9
434.844	12795.71
435.052	12808
435.259	12805.95
435.466	12777.28
435.673	12799.8
435.88	13334.32
436.087	14399.27
436.294	14358.31
436.501	13889.32
436.708	14173.99
436.915	14642.98
437.122	15200.02
437.329	15302.42
437.537	15785.74
437.743	16027.4
437.95	16045.84
438.157	16811.78
438.364	17442.55
438.571	16994.04
438.778	17450.74
438.985	18898.66
439.192	18093.8
439.399	18552.55
439.606	18257.64
439.813	19422.94
440.02	20348.62
440.227	19984.08
440.433	19820.24
440.64	20332.23
440.847	20512.45
441.054	20903.62
441.261	22380.2
441.467	22070.96
441.674	22535.85
441.881	23074.46
442.088	23131.81
442.294	23066.27
442.501	23383.71
442.708	24131.22
442.914	24891.01
443.121	25814.65
443.328	25325.18
443.534	27063.91
443.741	26449.52
443.948	25953.91
444.154	27952.73
444.361	27868.76
444.568	28016.21
444.774	27719.26
444.981	28302.93
445.187	29013.57
445.394	30289.46
445.6	29791.8
445.807	32812.56
446.013	31338.02
446.22	31696.41
446.426	33062.41
446.633	33500.67
446.839	34643.44
447.046	33101.32
447.252	34932.2
447.459	35126.76
447.665	34475.51
447.871	36416.98
448.078	37602.75
448.284	35937.76
448.491	36808.14
448.697	38276.54
448.903	38880.69
449.11	39447.97
449.316	38360.5
449.522	39245.23
449.728	40275.35
449.935	40789.39
450.141	40375.7
450.347	41291.15
450.553	40084.89
450.76	40476.05
450.966	42196.35
451.172	41420.17
451.378	42466.68
451.584	41514.37
451.791	42229.12
451.997	42677.62
452.203	43187.56
452.409	43072.88
452.615	42567.03
452.821	41184.65
453.027	41106.83
453.233	42935.66
453.44	41764.23
453.646	41532.81
453.852	41977.22
454.058	42556.79
454.264	41115.02
454.47	42444.15
454.676	41205.13
454.882	42386.81
455.088	38534.58
455.294	39318.95
455.5	39765.41
455.705	40410.52
455.911	38948.27
456.117	37875.13
456.323	37516.74
456.529	35429.86
456.735	37072.33
456.941	36265.43
457.147	35329.51
457.352	34307.57
457.558	34053.62
457.764	34156.02
457.97	33273.35
458.176	32677.39
458.381	32634.38
458.587	30834.22
458.793	31258.15
458.999	29484.61
459.204	31589.92
459.41	30858.79
459.616	28837.45
459.821	28477.01
460.027	28622.41
460.233	27833.94
460.438	26820.2
460.644	27117.15
460.85	25831.03
461.055	25278.08
461.261	24950.4
461.466	23056.03
461.672	22722.21
461.878	24108.69
462.083	22113.97
462.289	22249.13
462.494	21993.14
462.7	21051.07
462.905	20516.55
463.111	21354.17
463.316	21049.02
463.522	20678.34
463.727	20674.24
463.932	20756.16
464.138	20731.59
464.343	20588.23
464.549	19705.56
464.754	20389.58
464.959	20512.45
465.165	20213.45
465.37	19359.45
465.575	18781.92
465.781	19484.37
465.986	19789.52
466.191	18988.77
466.397	18564.84
466.602	17800.94
466.807	18132.72
467.012	18513.64
467.218	18226.92
