Data from USB4F104151__227__14-33-58-189.txt Node

Date: Thu Mar 13 14:33:58 EDT 2025
User: louis
Spectrometer: USB4F10415
Trigger mode: 4
Integration Time (sec): 2.500000E-2
Scans to average: 1
Electric dark correction enabled: true
Nonlinearity correction enabled: false
Boxcar width: 0
XAxis mode: Wavelengths
Number of Pixels in Spectrum: 3648
>>>>>Begin Spectral Data<<<<<
178.204	-135.68
178.424	-135.68
178.644	-135.68
178.864	-188.93
179.084	-107.01
179.304	-100.86
179.524	11.78
179.744	-72.19
179.964	24.06
180.184	34.3
180.404	-4.61
180.624	-31.23
180.844	9.73
181.064	-25.09
181.283	69.12
181.503	26.11
181.723	58.88
181.943	-23.04
182.163	71.17
182.383	-27.14
182.602	132.61
182.822	7.68
183.042	32.26
183.262	11.78
183.482	17.92
183.701	108.03
183.921	17.92
184.141	50.69
184.361	-0.51
184.58	42.5
184.8	46.59
185.02	1.54
185.239	116.22
185.459	-2.56
185.679	108.03
185.898	26.11
186.118	97.79
186.338	52.74
186.557	83.45
186.777	9.73
186.997	52.74
187.216	40.45
187.436	67.07
187.655	58.88
187.875	40.45
188.095	44.54
188.314	81.41
188.534	91.65
188.753	15.87
188.973	-37.38
189.192	56.83
189.412	-8.7
189.631	-0.51
189.851	52.74
190.07	140.8
190.29	-49.66
190.509	34.3
190.729	-16.9
190.948	56.83
191.168	130.56
191.387	56.83
191.607	65.02
191.826	91.65
192.045	17.92
192.265	32.26
192.484	30.21
192.704	73.21
192.923	-12.8
193.142	110.08
193.362	7.68
193.581	40.45
193.8	58.88
194.02	15.87
194.239	26.11
194.458	5.63
194.678	32.26
194.897	73.21
195.116	-12.8
195.335	60.93
195.555	97.79
195.774	36.35
195.993	83.45
196.212	48.64
196.432	32.26
196.651	46.59
196.87	83.45
197.089	83.45
197.308	32.26
197.528	177.66
197.747	-12.8
197.966	40.45
198.185	118.27
198.404	93.69
198.623	110.08
198.842	50.69
199.062	19.97
199.281	69.12
199.5	34.3
199.719	40.45
199.938	-0.51
200.157	138.75
200.376	97.79
200.595	-4.61
200.814	24.06
201.033	44.54
201.252	99.84
201.471	5.63
201.69	-23.04
201.909	50.69
202.128	56.83
202.347	40.45
202.566	3.58
202.785	-29.18
203.004	13.82
203.223	124.41
203.442	-31.23
203.661	81.41
203.879	44.54
204.098	81.41
204.317	81.41
204.536	79.36
204.755	89.6
204.974	75.26
205.193	-25.09
205.411	56.83
205.63	36.35
205.849	32.26
206.068	-2.56
206.287	-14.85
206.505	69.12
206.724	-25.09
206.943	40.45
207.162	-10.75
207.381	42.5
207.599	-14.85
207.818	34.3
208.037	116.22
208.255	89.6
208.474	-16.9
208.693	3.58
208.911	-8.7
209.13	132.61
209.349	163.33
209.567	75.26
209.786	179.71
210.005	69.12
210.223	-12.8
210.442	1.54
210.661	40.45
210.879	-18.94
211.098	-29.18
211.316	7.68
211.535	46.59
211.753	44.54
211.972	89.6
212.191	32.26
212.409	40.45
212.628	75.26
212.846	7.68
213.065	77.31
213.283	91.65
213.502	11.78
213.72	73.21
213.938	-12.8
214.157	65.02
214.375	9.73
214.594	11.78
214.812	34.3
215.031	52.74
215.249	116.22
215.467	93.69
215.686	103.93
215.904	48.64
216.122	32.26
216.341	83.45
216.559	24.06
216.778	56.83
216.996	9.73
217.214	73.21
217.432	30.21
217.651	40.45
217.869	75.26
218.087	40.45
218.306	46.59
218.524	-0.51
218.742	3.58
218.96	81.41
219.179	24.06
219.397	11.78
219.615	110.08
219.833	22.02
220.051	-18.94
220.27	7.68
220.488	91.65
220.706	-8.7
220.924	24.06
221.142	58.88
221.36	-16.9
221.578	81.41
221.796	56.83
222.015	103.93
222.233	28.16
222.451	124.41
222.669	28.16
222.887	118.27
223.105	19.97
223.323	28.16
223.541	40.45
223.759	58.88
223.977	50.69
224.195	44.54
224.413	83.45
224.631	7.68
224.849	-2.56
225.067	114.17
225.285	30.21
225.503	-20.99
225.721	24.06
225.939	-4.61
226.157	44.54
226.375	99.84
226.592	97.79
226.81	42.5
227.028	77.31
227.246	124.41
227.464	46.59
227.682	-6.66
227.9	114.17
228.117	95.74
228.335	77.31
228.553	44.54
228.771	52.74
228.989	9.73
229.206	103.93
229.424	48.64
229.642	-8.7
229.86	15.87
230.077	26.11
230.295	-25.09
230.513	83.45
230.731	112.13
230.948	79.36
231.166	52.74
231.384	22.02
231.601	15.87
231.819	99.84
232.037	-41.47
232.254	28.16
232.472	69.12
232.689	65.02
232.907	15.87
233.125	1.54
233.342	40.45
233.56	26.11
233.777	-14.85
233.995	28.16
234.213	42.5
234.43	89.6
234.648	34.3
234.865	-0.51
235.083	-25.09
235.3	124.41
235.518	67.07
235.735	126.46
235.953	65.02
236.17	91.65
236.388	26.11
236.605	69.12
236.822	50.69
237.04	-8.7
237.257	77.31
237.475	-8.7
237.692	44.54
237.909	13.82
238.127	17.92
238.344	24.06
238.562	52.74
238.779	22.02
238.996	40.45
239.214	-25.09
239.431	42.5
239.648	11.78
239.865	171.52
240.083	130.56
240.3	77.31
240.517	73.21
240.735	69.12
240.952	36.35
241.169	69.12
241.386	15.87
241.603	32.26
241.821	75.26
242.038	77.31
242.255	40.45
242.472	58.88
242.689	73.21
242.907	67.07
243.124	67.07
243.341	40.45
243.558	1.54
243.775	56.83
243.992	11.78
244.209	42.5
244.426	108.03
244.643	81.41
244.86	11.78
245.078	56.83
245.295	30.21
245.512	13.82
245.729	42.5
245.946	65.02
246.163	34.3
246.38	58.88
246.597	-0.51
246.814	108.03
247.031	97.79
247.248	60.93
247.464	44.54
247.681	58.88
247.898	81.41
248.115	13.82
248.332	5.63
248.549	34.3
248.766	77.31
248.983	56.83
249.2	48.64
249.417	99.84
249.633	50.69
249.85	40.45
250.067	7.68
250.284	122.37
250.501	15.87
250.717	81.41
250.934	26.11
251.151	32.26
251.368	15.87
251.585	7.68
251.801	19.97
252.018	-53.76
252.235	67.07
252.451	44.54
252.668	40.45
252.885	42.5
253.102	-31.23
253.318	60.93
253.535	28.16
253.752	-4.61
253.968	73.21
254.185	56.83
254.401	91.65
254.618	-0.51
254.835	15.87
255.051	105.98
255.268	75.26
255.484	140.8
255.701	-14.85
255.917	71.17
256.134	15.87
256.351	56.83
256.567	32.26
256.784	42.5
257	11.78
257.217	73.21
257.433	93.69
257.65	19.97
257.866	54.78
258.082	24.06
258.299	32.26
258.515	73.21
258.732	3.58
258.948	15.87
259.165	69.12
259.381	3.58
259.597	48.64
259.814	73.21
260.03	50.69
260.246	28.16
260.463	75.26
260.679	124.41
260.895	11.78
261.112	108.03
261.328	48.64
261.544	24.06
261.761	114.17
261.977	42.5
262.193	-25.09
262.409	83.45
262.626	36.35
262.842	58.88
263.058	83.45
263.274	116.22
263.49	73.21
263.707	89.6
263.923	69.12
264.139	73.21
264.355	28.16
264.571	220.67
264.787	48.64
265.004	9.73
265.22	101.89
265.436	28.16
265.652	67.07
265.868	36.35
266.084	65.02
266.3	24.06
266.516	-18.94
266.732	110.08
266.948	52.74
267.164	122.37
267.38	9.73
267.596	-8.7
267.812	93.69
268.028	32.26
268.244	81.41
268.46	52.74
268.676	-0.51
268.892	91.65
269.108	-12.8
269.324	79.36
269.54	48.64
269.756	91.65
269.972	-43.52
270.188	24.06
270.403	50.69
270.619	58.88
270.835	77.31
271.051	97.79
271.267	42.5
271.483	114.17
271.698	48.64
271.914	48.64
272.13	56.83
272.346	3.58
272.562	-33.28
272.777	110.08
272.993	81.41
273.209	28.16
273.425	24.06
273.64	71.17
273.856	48.64
274.072	3.58
274.287	65.02
274.503	75.26
274.719	65.02
274.934	-25.09
275.15	56.83
275.366	34.3
275.581	7.68
275.797	11.78
276.012	22.02
276.228	50.69
276.444	73.21
276.659	97.79
276.875	24.06
277.09	-12.8
277.306	26.11
277.521	91.65
277.737	89.6
277.952	32.26
278.168	56.83
278.383	19.97
278.599	60.93
278.814	1.54
279.03	75.26
279.245	165.37
279.461	36.35
279.676	40.45
279.892	24.06
280.107	52.74
280.322	7.68
280.538	62.98
280.753	48.64
280.969	1.54
281.184	-12.8
281.399	65.02
281.615	42.5
281.83	15.87
282.045	-31.23
282.26	11.78
282.476	-2.56
282.691	93.69
282.906	60.93
283.122	97.79
283.337	34.3
283.552	134.65
283.767	34.3
283.983	75.26
284.198	17.92
284.413	105.98
284.628	81.41
284.843	22.02
285.058	122.37
285.274	81.41
285.489	56.83
285.704	11.78
285.919	-20.99
286.134	-14.85
286.349	13.82
286.564	65.02
286.779	95.74
286.995	60.93
287.21	85.5
287.425	7.68
287.64	36.35
287.855	81.41
288.07	24.06
288.285	85.5
288.5	134.65
288.715	81.41
288.93	28.16
289.145	28.16
289.36	81.41
289.575	73.21
289.79	105.98
290.004	24.06
290.219	105.98
290.434	60.93
290.649	7.68
290.864	54.78
291.079	46.59
291.294	56.83
291.509	81.41
291.724	67.07
291.938	44.54
292.153	48.64
292.368	69.12
292.583	118.27
292.798	56.83
293.012	19.97
293.227	83.45
293.442	60.93
293.657	19.97
293.871	91.65
294.086	75.26
294.301	144.89
294.516	99.84
294.73	50.69
294.945	19.97
295.16	56.83
295.374	-59.9
295.589	99.84
295.804	65.02
296.018	7.68
296.233	99.84
296.447	124.41
296.662	40.45
296.877	81.41
297.091	11.78
297.306	114.17
297.52	-16.9
297.735	44.54
297.949	28.16
298.164	44.54
298.378	52.74
298.593	-0.51
298.807	7.68
299.022	85.5
299.236	73.21
299.451	50.69
299.665	75.26
299.88	65.02
300.094	103.93
300.309	60.93
300.523	-0.51
300.737	11.78
300.952	-8.7
301.166	46.59
301.381	138.75
301.595	19.97
301.809	71.17
302.024	32.26
302.238	36.35
302.452	146.94
302.667	56.83
302.881	89.6
303.095	155.13
303.309	1.54
303.524	52.74
303.738	93.69
303.952	38.4
304.166	95.74
304.381	13.82
304.595	81.41
304.809	15.87
305.023	56.83
305.237	124.41
305.452	-8.7
305.666	69.12
305.88	75.26
306.094	15.87
306.308	132.61
306.522	48.64
306.736	171.52
306.95	71.17
307.164	62.98
307.379	26.11
307.593	77.31
307.807	105.98
308.021	54.78
308.235	81.41
308.449	-55.81
308.663	101.89
308.877	112.13
309.091	-2.56
309.305	101.89
309.519	48.64
309.733	93.69
309.947	9.73
310.161	110.08
310.374	105.98
310.588	69.12
310.802	50.69
311.016	15.87
311.23	50.69
311.444	58.88
311.658	69.12
311.872	65.02
312.085	40.45
312.299	132.61
312.513	140.8
312.727	28.16
312.941	19.97
313.154	54.78
313.368	26.11
313.582	9.73
313.796	24.06
314.009	118.27
314.223	93.69
314.437	73.21
314.651	24.06
314.864	-47.62
315.078	67.07
315.292	-14.85
315.505	9.73
315.719	112.13
315.933	155.13
316.146	44.54
316.36	26.11
316.573	101.89
316.787	97.79
317.001	48.64
317.214	11.78
317.428	91.65
317.641	17.92
317.855	-23.04
318.068	-82.43
318.282	32.26
318.495	110.08
318.709	50.69
318.922	24.06
319.136	105.98
319.349	81.41
319.563	40.45
319.776	101.89
319.99	-4.61
320.203	77.31
320.417	42.5
320.63	36.35
320.843	163.33
321.057	17.92
321.27	97.79
321.483	85.5
321.697	52.74
321.91	-20.99
322.124	93.69
322.337	32.26
322.55	105.98
322.763	114.17
322.977	13.82
323.19	56.83
323.403	140.8
323.617	91.65
323.83	110.08
324.043	32.26
324.256	118.27
324.469	69.12
324.683	91.65
324.896	60.93
325.109	50.69
325.322	11.78
325.535	13.82
325.748	87.55
325.962	-4.61
326.175	17.92
326.388	9.73
326.601	112.13
326.814	52.74
327.027	7.68
327.24	67.07
327.453	60.93
327.666	34.3
327.879	114.17
328.092	110.08
328.305	103.93
328.518	116.22
328.731	40.45
328.944	91.65
329.157	97.79
329.37	24.06
329.583	48.64
329.796	75.26
330.009	56.83
330.222	69.12
330.435	69.12
330.648	77.31
330.861	124.41
331.073	73.21
331.286	28.16
331.499	32.26
331.712	56.83
331.925	3.58
332.138	99.84
332.35	116.22
332.563	-8.7
332.776	42.5
332.989	-10.75
333.202	24.06
333.414	32.26
333.627	40.45
333.84	97.79
334.053	32.26
334.265	17.92
334.478	11.78
334.691	50.69
334.903	95.74
335.116	48.64
335.329	124.41
335.541	81.41
335.754	99.84
335.966	28.16
336.179	144.89
336.392	97.79
336.604	108.03
336.817	93.69
337.029	58.88
337.242	42.5
337.454	83.45
337.667	40.45
337.88	118.27
338.092	163.33
338.305	65.02
338.517	67.07
338.729	93.69
338.942	126.46
339.154	81.41
339.367	54.78
339.579	105.98
339.792	42.5
340.004	83.45
340.217	97.79
340.429	-0.51
340.641	71.17
340.854	-23.04
341.066	60.93
341.278	114.17
341.491	146.94
341.703	69.12
341.915	15.87
342.128	85.5
342.34	157.18
342.552	32.26
342.764	32.26
342.977	99.84
343.189	83.45
343.401	38.4
343.613	-0.51
343.826	62.98
344.038	50.69
344.25	56.83
344.462	40.45
344.674	50.69
344.886	97.79
345.099	-0.51
345.311	140.8
345.523	83.45
345.735	17.92
345.947	58.88
346.159	-12.8
346.371	87.55
346.583	7.68
346.795	110.08
347.007	-39.42
347.219	83.45
347.431	40.45
347.643	124.41
347.855	44.54
348.067	95.74
348.279	-10.75
348.491	75.26
348.703	128.51
348.915	99.84
349.127	91.65
349.339	97.79
349.551	46.59
349.763	73.21
349.975	54.78
350.187	19.97
350.399	114.17
350.61	89.6
350.822	85.5
351.034	19.97
351.246	116.22
351.458	44.54
351.669	93.69
351.881	138.75
352.093	48.64
352.305	126.46
352.517	108.03
352.728	85.5
352.94	73.21
353.152	97.79
353.363	58.88
353.575	91.65
353.787	163.33
353.999	110.08
354.21	142.85
354.422	89.6
354.633	7.68
354.845	40.45
355.057	44.54
355.268	97.79
355.48	101.89
355.692	48.64
355.903	97.79
356.115	77.31
356.326	24.06
356.538	132.61
356.749	112.13
356.961	138.75
357.172	85.5
357.384	89.6
357.595	155.13
357.807	89.6
358.018	56.83
358.23	93.69
358.441	99.84
358.653	95.74
358.864	40.45
359.075	93.69
359.287	151.04
359.498	134.65
359.709	15.87
359.921	122.37
360.132	132.61
360.344	171.52
360.555	52.74
360.766	99.84
360.977	65.02
361.189	122.37
361.4	54.78
361.611	105.98
361.823	77.31
362.034	65.02
362.245	7.68
362.456	54.78
362.667	56.83
362.879	97.79
363.09	77.31
363.301	144.89
363.512	60.93
363.723	50.69
363.935	60.93
364.146	46.59
364.357	116.22
364.568	165.37
364.779	40.45
364.99	108.03
365.201	89.6
365.412	159.23
365.623	56.83
365.834	73.21
366.045	24.06
366.256	112.13
366.467	151.04
366.678	89.6
366.889	142.85
367.1	93.69
367.311	108.03
367.522	73.21
367.733	146.94
367.944	77.31
368.155	17.92
368.366	48.64
368.577	58.88
368.788	118.27
368.999	-31.23
369.209	142.85
369.42	110.08
369.631	126.46
369.842	93.69
370.053	75.26
370.264	99.84
370.474	44.54
370.685	1.54
370.896	110.08
371.107	105.98
371.317	163.33
371.528	34.3
371.739	183.81
371.95	-4.61
372.16	11.78
372.371	58.88
372.582	-2.56
372.792	24.06
373.003	15.87
373.214	69.12
373.424	42.5
373.635	-49.66
373.846	136.7
374.056	40.45
374.267	91.65
374.477	110.08
374.688	110.08
374.898	138.75
375.109	67.07
375.319	48.64
375.53	132.61
375.74	46.59
375.951	56.83
376.161	75.26
376.372	73.21
376.582	83.45
376.793	165.37
377.003	26.11
377.214	75.26
377.424	108.03
377.635	151.04
377.845	79.36
378.055	163.33
378.266	77.31
378.476	65.02
378.686	130.56
378.897	138.75
379.107	85.5
379.317	114.17
379.528	52.74
379.738	89.6
379.948	44.54
380.158	155.13
380.369	36.35
380.579	69.12
380.789	99.84
380.999	159.23
381.21	73.21
381.42	206.33
381.63	73.21
381.84	73.21
382.05	65.02
382.261	52.74
382.471	118.27
382.681	32.26
382.891	73.21
383.101	155.13
383.311	28.16
383.521	-33.28
383.731	93.69
383.941	144.89
384.151	83.45
384.361	73.21
384.571	95.74
384.781	89.6
384.991	153.09
385.201	187.9
385.411	148.99
385.621	110.08
385.831	-0.51
386.041	87.55
386.251	65.02
386.461	138.75
386.671	65.02
386.881	114.17
387.091	144.89
387.301	159.23
387.511	97.79
387.72	69.12
387.93	118.27
388.14	69.12
388.35	138.75
388.56	103.93
388.769	97.79
388.979	11.78
389.189	11.78
389.399	179.71
389.609	89.6
389.818	85.5
390.028	60.93
390.238	7.68
390.447	77.31
390.657	122.37
390.867	69.12
391.076	105.98
391.286	122.37
391.496	142.85
391.705	130.56
391.915	224.76
392.125	163.33
392.334	105.98
392.544	224.76
392.753	114.17
392.963	105.98
393.172	148.99
393.382	62.98
393.591	192
393.801	105.98
394.01	148.99
394.22	114.17
394.429	85.5
394.639	97.79
394.848	157.18
395.058	157.18
395.267	73.21
395.477	89.6
395.686	126.46
395.895	245.24
396.105	179.71
396.314	161.28
396.524	189.95
396.733	67.07
396.942	89.6
397.152	171.52
397.361	126.46
397.57	177.66
397.78	118.27
397.989	118.27
398.198	138.75
398.407	93.69
398.617	161.28
398.826	101.89
399.035	159.23
399.244	218.62
399.453	163.33
399.663	224.76
399.872	173.57
400.081	105.98
400.29	187.9
400.499	122.37
400.708	212.48
400.917	110.08
401.127	179.71
401.336	155.13
401.545	220.67
401.754	257.53
401.963	249.34
402.172	163.33
402.381	99.84
402.59	189.95
402.799	151.04
403.008	237.05
403.217	206.33
403.426	220.67
403.635	198.14
403.844	243.2
404.053	146.94
404.262	253.44
404.471	237.05
404.68	216.57
404.888	241.15
405.097	200.19
405.306	265.72
405.515	263.68
405.724	239.1
405.933	310.78
406.142	290.3
406.35	329.21
406.559	288.25
406.768	333.31
406.977	314.88
407.185	359.93
407.394	321.02
407.603	284.16
407.812	273.92
408.02	390.65
408.229	351.74
408.438	359.93
408.646	376.31
408.855	427.51
409.064	441.85
409.272	437.75
409.481	429.56
409.69	419.32
409.898	400.89
410.107	484.86
410.315	466.42
410.524	531.96
410.733	511.48
410.941	622.07
411.15	654.84
411.358	599.54
411.567	706.04
411.775	669.17
411.984	663.03
412.192	677.37
412.401	701.94
412.609	837.11
412.818	749.04
413.026	787.96
413.234	904.69
413.443	830.96
413.651	835.06
413.86	951.79
414.068	998.9
414.276	1031.66
414.485	966.13
414.693	1031.66
414.901	1191.41
415.11	1125.87
415.318	1183.21
415.526	1269.23
415.734	1265.13
415.943	1289.71
416.151	1351.15
416.359	1383.91
416.567	1437.16
416.776	1512.94
416.984	1607.14
417.192	1648.1
417.4	1658.34
417.608	1596.9
417.817	1766.89
418.025	1713.64
418.233	1887.72
418.441	1928.67
418.649	1932.77
418.857	2014.69
419.065	2115.04
419.273	2022.88
419.481	2205.15
419.689	2422.24
419.897	2465.24
420.105	2491.87
420.313	2584.02
420.521	2579.93
420.729	2760.15
420.937	2616.79
421.145	2950.61
421.353	3057.11
421.561	3179.98
421.769	3309.01
421.977	3341.77
422.185	3349.96
422.393	3589.58
422.601	3775.94
422.809	3769.8
423.017	3837.38
423.224	4021.7
423.432	4189.63
423.64	4189.63
423.848	4523.45
424.056	4275.65
424.263	4851.13
424.471	4744.63
424.679	4742.58
424.887	5139.89
425.094	5123.51
425.302	5389.74
425.51	5473.71
425.718	5483.95
425.925	5703.08
426.133	5873.06
426.341	6165.92
426.548	6309.28
426.756	6538.65
426.964	6616.48
427.171	7099.8
427.379	7165.33
427.586	7200.15
427.794	7478.67
428.001	7593.36
428.209	7953.8
428.417	8007.05
428.624	8420.74
428.832	8633.72
429.039	8531.33
429.247	8408.45
429.454	9248.11
429.662	9989.48
429.869	9274.74
430.076	9911.66
430.284	9723.24
430.491	10177.89
430.699	10689.88
430.906	10788.19
431.114	10923.35
431.321	11021.66
431.528	11312.47
431.736	12193.09
431.943	12561.73
432.15	12496.19
432.358	12373.32
432.565	12969.27
432.772	13100.34
432.979	13917.48
433.187	13821.23
433.394	14034.22
433.601	14888.22
433.808	15179.03
434.016	14855.45
434.223	15719.7
434.43	16192.78
434.637	16127.24
434.844	17278.2
435.052	17417.46
435.259	17503.48
435.466	17499.38
435.673	17476.85
435.88	18476.26
436.087	19352.79
436.294	19219.67
436.501	18814.18
436.708	19295.45
436.915	20016.33
437.122	20759.75
437.329	20860.1
437.537	21226.68
437.743	21990.58
437.95	21509.3
438.157	22793.38
438.364	23727.25
438.571	23725.21
438.778	23587.99
438.985	25867.38
439.192	24775.81
439.399	25422.97
439.606	25048.19
439.813	26420.33
440.02	28200.02
440.227	27561.05
440.433	27057.25
440.64	28292.18
440.847	27862.1
441.054	28726.35
441.261	30237.75
441.467	29951.03
441.674	30608.43
441.881	31804.44
442.088	31595.55
442.294	31646.75
442.501	31806.49
442.708	32666.64
442.914	34202.61
443.121	35570.66
443.328	34470.9
443.534	36815.82
443.741	36033.5
443.948	35552.23
444.154	37946.3
444.361	37598.15
444.568	38042.56
444.774	37934.01
444.981	38392.76
445.187	39420.84
445.394	40940.43
445.6	40766.35
445.807	44495.71
446.013	42767.22
446.22	42994.54
446.426	45081.42
446.633	45247.31
446.839	46719.8
447.046	44714.84
447.252	47117.11
447.459	47321.9
447.665	47123.25
447.871	49107.73
448.078	51110.64
448.284	48595.74
448.491	50123.52
448.697	51628.78
448.903	52482.78
449.11	53064.41
449.316	52032.23
449.522	53191.38
449.728	54385.35
449.935	54420.16
450.141	54588.1
450.347	55718.57
450.553	54309.57
450.76	55145.14
450.966	56586.91
451.172	55767.73
451.378	57262.74
451.584	56076.97
451.791	57387.67
451.997	57328.28
452.203	58225.29
452.409	57797.26
452.615	57799.31
452.821	56089.26
453.027	55378.61
453.233	57729.68
453.44	55935.66
453.646	56076.97
453.852	56038.06
454.058	57795.21
454.264	56005.29
454.47	56836.76
454.676	55741.1
454.882	57264.79
455.088	52470.5
455.294	53412.56
455.5	54022.86
455.705	54274.76
455.911	52499.17
456.117	51886.82
456.323	51182.32
456.529	47973.16
456.735	50612.99
456.941	49244.94
457.147	48401.18
457.352	46838.58
457.558	46322.49
457.764	46820.15
457.97	45763.4
458.176	44561.24
458.381	44716.89
458.587	42726.26
458.793	42763.12
458.999	40258.46
459.204	43185.01
459.41	42226.56
459.616	39531.43
459.821	39715.75
460.027	39349.16
460.233	38435.77
460.438	36688.85
460.644	37245.9
460.85	35126.25
461.055	34755.57
461.261	34534.39
461.466	32138.26
461.672	31149.09
461.878	33272.84
462.083	31110.18
462.289	30706.73
462.494	30293.04
462.7	29285.44
462.905	28165.2
463.111	29187.14
463.316	29260.87
463.522	28660.81
463.727	28681.29
463.932	28623.95
464.138	28294.22
464.343	28648.52
464.549	27655.26
464.754	28554.32
464.959	28130.39
465.165	27802.71
465.37	26786.92
465.575	25945.2
465.781	26938.47
