Data from USB4F104151__127__14-31-21-683.txt Node

Date: Thu Mar 13 14:31:21 EDT 2025
User: louis
Spectrometer: USB4F10415
Trigger mode: 4
Integration Time (sec): 2.500000E-2
Scans to average: 1
Electric dark correction enabled: true
Nonlinearity correction enabled: false
Boxcar width: 0
XAxis mode: Wavelengths
Number of Pixels in Spectrum: 3648
>>>>>Begin Spectral Data<<<<<
178.204	-98.99
178.424	-98.99
178.644	-98.99
178.864	-137.9
179.084	-201.38
179.304	-27.31
179.524	-70.31
179.744	-90.79
179.964	40.28
180.184	36.18
180.404	15.7
180.624	3.41
180.844	1.37
181.064	58.71
181.283	46.42
181.503	-49.83
181.723	36.18
181.943	-25.26
182.163	56.66
182.383	15.7
182.602	58.71
182.822	60.76
183.042	105.81
183.262	-33.45
183.482	-17.07
183.701	11.61
183.921	7.51
184.141	48.47
184.361	73.04
184.58	-64.17
184.8	-41.64
185.02	11.61
185.239	77.14
185.459	-23.21
185.679	138.58
185.898	-25.26
186.118	54.61
186.338	15.7
186.557	-21.16
186.777	-29.35
186.997	34.13
187.216	-4.78
187.436	154.96
187.655	75.09
187.875	114
188.095	46.42
188.314	36.18
188.534	68.95
188.753	1.37
188.973	77.14
189.192	48.47
189.412	-53.93
189.631	25.94
189.851	97.62
190.07	23.89
190.29	11.61
190.509	32.08
190.729	-25.26
190.948	7.51
191.168	181.59
191.387	89.43
191.607	15.7
191.826	-0.68
192.045	-23.21
192.265	71
192.484	19.8
192.704	103.76
192.923	7.51
193.142	17.75
193.362	25.94
193.581	105.81
193.8	77.14
194.02	34.13
194.239	-4.78
194.458	-8.87
194.678	36.18
194.897	-15.02
195.116	13.65
195.335	23.89
195.555	25.94
195.774	-29.35
195.993	138.58
196.212	23.89
196.432	83.28
196.651	-45.74
196.87	-8.87
197.089	89.43
197.308	68.95
197.528	-27.31
197.747	-41.64
197.966	124.24
198.185	50.52
198.404	58.71
198.623	32.08
198.842	17.75
199.062	68.95
199.281	-12.97
199.5	50.52
199.719	40.28
199.938	75.09
200.157	64.85
200.376	68.95
200.595	7.51
200.814	19.8
201.033	-25.26
201.252	54.61
201.471	32.08
201.69	23.89
201.909	-29.35
202.128	-25.26
202.347	7.51
202.566	50.52
202.785	40.28
203.004	11.61
203.223	116.05
203.442	-8.87
203.661	48.47
203.879	-23.21
204.098	52.56
204.317	44.37
204.536	68.95
204.755	56.66
204.974	58.71
205.193	-74.41
205.411	107.86
205.63	23.89
205.849	30.04
206.068	1.37
206.287	30.04
206.505	48.47
206.724	-62.12
206.943	34.13
207.162	75.09
207.381	3.41
207.599	89.43
207.818	46.42
208.037	-15.02
208.255	1.37
208.474	11.61
208.693	25.94
208.911	-33.45
209.13	27.99
209.349	19.8
209.567	81.24
209.786	56.66
210.005	44.37
210.223	34.13
210.442	-82.6
210.661	64.85
210.879	-25.26
211.098	19.8
211.316	-6.83
211.535	81.24
211.753	-33.45
211.972	54.61
212.191	36.18
212.409	56.66
212.628	-33.45
212.846	-17.07
213.065	97.62
213.283	91.48
213.502	120.15
213.72	-17.07
213.938	-0.68
214.157	23.89
214.375	15.7
214.594	40.28
214.812	48.47
215.031	-0.68
215.249	9.56
215.467	-31.4
215.686	-17.07
215.904	109.91
216.122	13.65
216.341	91.48
216.559	50.52
216.778	5.46
216.996	85.33
217.214	-41.64
217.432	5.46
217.651	-0.68
217.869	52.56
218.087	11.61
218.306	27.99
218.524	56.66
218.742	-78.51
218.96	30.04
219.179	91.48
219.397	-17.07
219.615	60.76
219.833	64.85
220.051	-60.07
220.27	27.99
220.488	48.47
220.706	114
220.924	32.08
221.142	32.08
221.36	40.28
221.578	77.14
221.796	40.28
222.015	17.75
222.233	42.32
222.451	83.28
222.669	58.71
222.887	105.81
223.105	50.52
223.323	17.75
223.541	48.47
223.759	75.09
223.977	-31.4
224.195	89.43
224.413	50.52
224.631	56.66
224.849	25.94
225.067	83.28
225.285	15.7
225.503	66.9
225.721	-17.07
225.939	9.56
226.157	15.7
226.375	83.28
226.592	-6.83
226.81	32.08
227.028	40.28
227.246	95.57
227.464	34.13
227.682	71
227.9	50.52
228.117	9.56
228.335	50.52
228.553	42.32
228.771	85.33
228.989	-12.97
229.206	-21.16
229.424	-58.03
229.642	23.89
229.86	23.89
230.077	89.43
230.295	73.04
230.513	103.76
230.731	-4.78
230.948	15.7
231.166	89.43
231.384	56.66
231.601	25.94
231.819	23.89
232.037	27.99
232.254	9.56
232.472	-17.07
232.689	-62.12
232.907	48.47
233.125	48.47
233.342	64.85
233.56	-8.87
233.777	17.75
233.995	32.08
234.213	124.24
234.43	32.08
234.648	93.52
234.865	60.76
235.083	38.23
235.3	54.61
235.518	79.19
235.735	34.13
235.953	118.1
236.17	32.08
236.388	42.32
236.605	-4.78
236.822	159.06
237.04	25.94
237.257	1.37
237.475	-8.87
237.692	56.66
237.909	23.89
238.127	-23.21
238.344	23.89
238.562	77.14
238.779	36.18
238.996	-8.87
239.214	-21.16
239.431	81.24
239.648	-25.26
239.865	68.95
240.083	62.8
240.3	36.18
240.517	11.61
240.735	7.51
240.952	25.94
241.169	9.56
241.386	7.51
241.603	60.76
241.821	-25.26
242.038	71
242.255	93.52
242.472	-29.35
242.689	87.38
242.907	71
243.124	-35.5
243.341	7.51
243.558	5.46
243.775	48.47
243.992	11.61
244.209	56.66
244.426	134.48
244.643	34.13
244.86	-72.36
245.078	7.51
245.295	48.47
245.512	56.66
245.729	-23.21
245.946	23.89
246.163	71
246.38	25.94
246.597	25.94
246.814	64.85
247.031	58.71
247.248	48.47
247.464	68.95
247.681	-0.68
247.898	11.61
248.115	25.94
248.332	-15.02
248.549	91.48
248.766	93.52
248.983	32.08
249.2	19.8
249.417	105.81
249.633	91.48
249.85	85.33
250.067	-12.97
250.284	105.81
250.501	19.8
250.717	17.75
250.934	64.85
251.151	27.99
251.368	11.61
251.585	58.71
251.801	95.57
252.018	50.52
252.235	52.56
252.451	15.7
252.668	-8.87
252.885	64.85
253.102	91.48
253.318	-21.16
253.535	101.72
253.752	40.28
253.968	48.47
254.185	48.47
254.401	34.13
254.618	25.94
254.835	-62.12
255.051	134.48
255.268	79.19
255.484	50.52
255.701	19.8
255.917	105.81
256.134	19.8
256.351	32.08
256.567	17.75
256.784	25.94
257	58.71
257.217	40.28
257.433	15.7
257.65	132.44
257.866	103.76
258.082	11.61
258.299	-49.83
258.515	130.39
258.732	-45.74
258.948	3.41
259.165	-6.83
259.381	-6.83
259.597	89.43
259.814	56.66
260.03	34.13
260.246	3.41
260.463	105.81
260.679	52.56
260.895	23.89
261.112	48.47
261.328	52.56
261.544	-15.02
261.761	122.2
261.977	-4.78
262.193	7.51
262.409	7.51
262.626	99.67
262.842	11.61
263.058	-31.4
263.274	7.51
263.49	3.41
263.707	32.08
263.923	32.08
264.139	40.28
264.355	-0.68
264.571	48.47
264.787	17.75
265.004	27.99
265.22	64.85
265.436	-31.4
265.652	27.99
265.868	17.75
266.084	-8.87
266.3	27.99
266.516	-60.07
266.732	-12.97
266.948	7.51
267.164	58.71
267.38	30.04
267.596	15.7
267.812	154.96
268.028	62.8
268.244	21.84
268.46	38.23
268.676	19.8
268.892	-17.07
269.108	25.94
269.324	-29.35
269.54	-33.45
269.756	50.52
269.972	40.28
270.188	50.52
270.403	25.94
270.619	101.72
270.835	-17.07
271.051	-4.78
271.267	99.67
271.483	48.47
271.698	27.99
271.914	83.28
272.13	27.99
272.346	23.89
272.562	-12.97
272.777	13.65
272.993	-15.02
273.209	23.89
273.425	19.8
273.64	-25.26
273.856	58.71
274.072	81.24
274.287	15.7
274.503	48.47
274.719	27.99
274.934	32.08
275.15	-37.55
275.366	36.18
275.581	-21.16
275.797	-17.07
276.012	58.71
276.228	7.51
276.444	114
276.659	50.52
276.875	-37.55
277.09	-8.87
277.306	50.52
277.521	40.28
277.737	15.7
277.952	56.66
278.168	17.75
278.383	40.28
278.599	71
278.814	32.08
279.03	95.57
279.245	40.28
279.461	42.32
279.676	54.61
279.892	17.75
280.107	-15.02
280.322	-23.21
280.538	11.61
280.753	64.85
280.969	75.09
281.184	36.18
281.399	56.66
281.615	-8.87
281.83	17.75
282.045	-62.12
282.26	15.7
282.476	-35.5
282.691	62.8
282.906	40.28
283.122	9.56
283.337	1.37
283.552	50.52
283.767	56.66
283.983	105.81
284.198	105.81
284.413	32.08
284.628	-19.11
284.843	30.04
285.058	44.37
285.274	97.62
285.489	25.94
285.704	25.94
285.919	56.66
286.134	50.52
286.349	32.08
286.564	73.04
286.779	-15.02
286.995	32.08
287.21	-12.97
287.425	85.33
287.64	25.94
287.855	-6.83
288.07	15.7
288.285	17.75
288.5	58.71
288.715	42.32
288.93	13.65
289.145	-15.02
289.36	97.62
289.575	27.99
289.79	101.72
290.004	-0.68
290.219	64.85
290.434	15.7
290.649	-82.6
290.864	-82.6
291.079	83.28
291.294	52.56
291.509	11.61
291.724	83.28
291.938	-8.87
292.153	68.95
292.368	23.89
292.583	40.28
292.798	44.37
293.012	50.52
293.227	32.08
293.442	25.94
293.657	48.47
293.871	97.62
294.086	23.89
294.301	40.28
294.516	56.66
294.73	27.99
294.945	32.08
295.16	-25.26
295.374	64.85
295.589	40.28
295.804	17.75
296.018	130.39
296.233	66.9
296.447	-15.02
296.662	34.13
296.877	56.66
297.091	34.13
297.306	23.89
297.52	46.42
297.735	15.7
297.949	77.14
298.164	97.62
298.378	64.85
298.593	-12.97
298.807	1.37
299.022	46.42
299.236	38.23
299.451	42.32
299.665	85.33
299.88	-12.97
300.094	89.43
300.309	17.75
300.523	48.47
300.737	19.8
300.952	50.52
301.166	95.57
301.381	23.89
301.595	9.56
301.809	58.71
302.024	-2.73
302.238	89.43
302.452	23.89
302.667	44.37
302.881	-4.78
303.095	64.85
303.309	17.75
303.524	40.28
303.738	97.62
303.952	32.08
304.166	68.95
304.381	-47.79
304.595	87.38
304.809	73.04
305.023	48.47
305.237	11.61
305.452	32.08
305.666	56.66
305.88	32.08
306.094	79.19
306.308	91.48
306.522	81.24
306.736	77.14
306.95	101.72
307.164	32.08
307.379	32.08
307.593	66.9
307.807	73.04
308.021	91.48
308.235	38.23
308.449	-64.17
308.663	64.85
308.877	103.76
309.091	60.76
309.305	97.62
309.519	25.94
309.733	68.95
309.947	68.95
310.161	38.23
310.374	36.18
310.588	-33.45
310.802	-25.26
311.016	50.52
311.23	64.85
311.444	40.28
311.658	64.85
311.872	81.24
312.085	15.7
312.299	89.43
312.513	58.71
312.727	42.32
312.941	-51.88
313.154	44.37
313.368	-0.68
313.582	23.89
313.796	48.47
314.009	27.99
314.223	89.43
314.437	40.28
314.651	11.61
314.864	23.89
315.078	-17.07
315.292	-12.97
315.505	-66.22
315.719	-4.78
315.933	68.95
316.146	-4.78
316.36	19.8
316.573	68.95
316.787	81.24
317.001	-17.07
317.214	-37.55
317.428	-8.87
317.641	-15.02
317.855	-25.26
318.068	89.43
318.282	7.51
318.495	134.48
318.709	83.28
318.922	-0.68
319.136	89.43
319.349	13.65
319.563	17.75
319.776	66.9
319.99	48.47
320.203	32.08
320.417	48.47
320.63	126.29
320.843	93.52
321.057	56.66
321.27	23.89
321.483	81.24
321.697	62.8
321.91	1.37
322.124	44.37
322.337	11.61
322.55	23.89
322.763	15.7
322.977	34.13
323.19	-25.26
323.403	105.81
323.617	17.75
323.83	89.43
324.043	-17.07
324.256	25.94
324.469	56.66
324.683	132.44
324.896	23.89
325.109	-8.87
325.322	58.71
325.535	36.18
325.748	40.28
325.962	30.04
326.175	71
326.388	73.04
326.601	83.28
326.814	11.61
327.027	56.66
327.24	91.48
327.453	-29.35
327.666	77.14
327.879	93.52
328.092	40.28
328.305	81.24
328.518	9.56
328.731	73.04
328.944	3.41
329.157	114
329.37	56.66
329.583	118.1
329.796	56.66
330.009	83.28
330.222	50.52
330.435	101.72
330.648	36.18
330.861	15.7
331.073	19.8
331.286	23.89
331.499	75.09
331.712	3.41
331.925	-8.87
332.138	124.24
332.35	146.77
332.563	32.08
332.776	48.47
332.989	-33.45
333.202	-6.83
333.414	64.85
333.627	15.7
333.84	32.08
334.053	66.9
334.265	73.04
334.478	40.28
334.691	64.85
334.903	44.37
335.116	38.23
335.329	36.18
335.541	68.95
335.754	48.47
335.966	11.61
336.179	17.75
336.392	-0.68
336.604	-55.98
336.817	75.09
337.029	64.85
337.242	58.71
337.454	81.24
337.667	50.52
337.88	50.52
338.092	44.37
338.305	27.99
338.517	-23.21
338.729	118.1
338.942	103.76
339.154	40.28
339.367	81.24
339.579	-17.07
339.792	15.7
340.004	-2.73
340.217	-4.78
340.429	27.99
340.641	32.08
340.854	60.76
341.066	48.47
341.278	118.1
341.491	81.24
341.703	21.84
341.915	-15.02
342.128	101.72
342.34	-0.68
342.552	-0.68
342.764	138.58
342.977	48.47
343.189	83.28
343.401	85.33
343.613	83.28
343.826	56.66
344.038	38.23
344.25	87.38
344.462	15.7
344.674	50.52
344.886	68.95
345.099	25.94
345.311	44.37
345.523	93.52
345.735	-82.6
345.947	58.71
346.159	58.71
346.371	13.65
346.583	93.52
346.795	120.15
347.007	-6.83
347.219	58.71
347.431	17.75
347.643	103.76
347.855	38.23
348.067	34.13
348.279	54.61
348.491	9.56
348.703	89.43
348.915	66.9
349.127	52.56
349.339	77.14
349.551	89.43
349.763	132.44
349.975	-6.83
350.187	97.62
350.399	23.89
350.61	40.28
350.822	50.52
351.034	56.66
351.246	66.9
351.458	42.32
351.669	54.61
351.881	62.8
352.093	77.14
352.305	48.47
352.517	-6.83
352.728	42.32
352.94	56.66
353.152	56.66
353.363	40.28
353.575	124.24
353.787	91.48
353.999	77.14
354.21	163.15
354.422	71
354.633	27.99
354.845	40.28
355.057	46.42
355.268	-31.4
355.48	54.61
355.692	-17.07
355.903	7.51
356.115	11.61
356.326	15.7
356.538	105.81
356.749	116.05
356.961	64.85
357.172	48.47
357.384	64.85
357.595	146.77
357.807	19.8
358.018	66.9
358.23	50.52
358.441	124.24
358.653	89.43
358.864	64.85
359.075	64.85
359.287	75.09
359.498	109.91
359.709	23.89
359.921	73.04
360.132	38.23
360.344	105.81
360.555	32.08
360.766	220.5
360.977	1.37
361.189	77.14
361.4	9.56
361.611	97.62
361.823	81.24
362.034	36.18
362.245	21.84
362.456	60.76
362.667	91.48
362.879	-8.87
363.09	40.28
363.301	97.62
363.512	48.47
363.723	-0.68
363.935	32.08
364.146	73.04
364.357	40.28
364.568	36.18
364.779	48.47
364.99	114
365.201	32.08
365.412	87.38
365.623	46.42
365.834	44.37
366.045	25.94
366.256	99.67
366.467	97.62
366.678	75.09
366.889	71
367.1	1.37
367.311	64.85
367.522	105.81
367.733	62.8
367.944	118.1
368.155	3.41
368.366	11.61
368.577	97.62
368.788	83.28
368.999	56.66
369.209	56.66
369.42	124.24
369.631	140.63
369.842	93.52
370.053	-37.55
370.264	-39.59
370.474	17.75
370.685	40.28
370.896	-8.87
371.107	44.37
371.317	140.63
371.528	42.32
371.739	99.67
371.95	52.56
372.16	-0.68
372.371	-12.97
372.582	27.99
372.792	79.19
373.003	25.94
373.214	15.7
373.424	64.85
373.635	25.94
373.846	73.04
374.056	23.89
374.267	91.48
374.477	17.75
374.688	34.13
374.898	50.52
375.109	-4.78
375.319	77.14
375.53	46.42
375.74	7.51
375.951	32.08
376.161	130.39
376.372	81.24
376.582	83.28
376.793	58.71
377.003	89.43
377.214	27.99
377.424	79.19
377.635	56.66
377.845	38.23
378.055	148.82
378.266	11.61
378.476	17.75
378.686	44.37
378.897	99.67
379.107	11.61
379.317	89.43
379.528	64.85
379.738	85.33
379.948	66.9
380.158	95.57
380.369	21.84
380.579	56.66
380.789	97.62
380.999	124.24
381.21	95.57
381.42	105.81
381.63	13.65
381.84	62.8
382.05	83.28
382.261	34.13
382.471	109.91
382.681	44.37
382.891	85.33
383.101	71
383.311	58.71
383.521	91.48
383.731	62.8
383.941	75.09
384.151	58.71
384.361	50.52
384.571	46.42
384.781	9.56
384.991	154.96
385.201	77.14
385.411	7.51
385.621	17.75
385.831	81.24
386.041	48.47
386.251	36.18
386.461	77.14
386.671	50.52
386.881	73.04
387.091	101.72
387.301	79.19
387.511	97.62
387.72	122.2
387.93	103.76
388.14	23.89
388.35	66.9
388.56	44.37
388.769	114
388.979	103.76
389.189	81.24
389.399	11.61
389.609	87.38
389.818	93.52
390.028	122.2
390.238	73.04
390.447	38.23
390.657	60.76
390.867	66.9
391.076	-23.21
391.286	146.77
391.496	68.95
391.705	32.08
391.915	130.39
392.125	193.87
392.334	79.19
392.544	132.44
392.753	107.86
392.963	17.75
393.172	81.24
393.382	109.91
393.591	111.96
393.801	75.09
394.01	126.29
394.22	116.05
394.429	15.7
394.639	85.33
394.848	48.47
395.058	154.96
395.267	152.91
395.477	138.58
395.686	132.44
395.895	58.71
396.105	132.44
396.314	126.29
396.524	81.24
396.733	34.13
396.942	118.1
397.152	91.48
397.361	89.43
397.57	183.63
397.78	146.77
397.989	116.05
398.198	118.1
398.407	114
398.617	99.67
398.826	146.77
399.035	97.62
399.244	130.39
399.453	107.86
399.663	171.35
399.872	132.44
400.081	193.87
400.29	134.48
400.499	138.58
400.708	154.96
400.917	179.54
401.127	79.19
401.336	75.09
401.545	173.39
401.754	114
401.963	109.91
402.172	124.24
402.381	179.54
402.59	138.58
402.799	122.2
403.008	64.85
403.217	171.35
403.426	212.31
403.635	175.44
403.844	173.39
404.053	220.5
404.262	138.58
404.471	236.88
404.68	197.97
404.888	183.63
405.097	150.87
405.306	224.59
405.515	173.39
405.724	197.97
405.933	163.15
406.142	290.13
406.35	195.92
406.559	218.45
406.768	173.39
406.977	296.27
407.185	224.59
407.394	214.35
407.603	208.21
407.812	257.36
408.02	279.89
408.229	236.88
408.438	345.42
408.646	253.27
408.855	259.41
409.064	292.18
409.272	304.46
409.481	357.71
409.69	310.61
409.898	286.03
410.107	363.86
410.315	413.01
410.524	384.34
410.733	517.45
410.941	425.29
411.15	451.92
411.358	531.79
411.567	445.77
411.775	482.64
411.984	460.11
412.192	580.94
412.401	531.79
412.609	658.76
412.818	601.42
413.026	609.61
413.234	675.15
413.443	718.15
413.651	664.91
413.86	701.77
414.068	777.55
414.276	820.55
414.485	757.07
414.693	802.12
414.901	920.9
415.11	853.32
415.318	879.94
415.526	879.94
415.734	978.25
415.943	931.14
416.151	1199.43
416.359	1062.21
416.567	1129.8
416.776	1148.23
416.984	1224
417.192	1281.35
417.4	1174.85
417.608	1219.91
417.817	1371.46
418.025	1426.75
418.233	1645.88
418.441	1475.9
418.649	1549.63
418.857	1695.04
419.065	1680.7
419.273	1688.89
419.481	1670.46
419.689	1916.22
419.897	1842.49
420.105	1828.15
420.313	1916.22
420.521	2073.91
420.729	2202.93
420.937	2080.05
421.145	2139.44
421.353	2327.86
421.561	2569.52
421.769	2612.53
421.977	2671.92
422.185	2542.89
422.393	2751.79
422.601	2895.15
422.809	2825.51
423.017	2895.15
423.224	2989.35
423.432	3181.86
423.64	3136.81
423.848	3538.21
424.056	3394.85
424.263	3603.74
424.471	3783.96
424.679	3736.86
424.887	3949.85
425.094	3906.84
425.302	4121.88
425.51	4171.03
425.718	4422.93
425.925	4373.78
426.133	4556.05
426.341	4734.22
426.548	5094.66
426.756	4893.96
426.964	5102.86
427.171	5274.88
427.379	5588.22
427.586	5614.85
427.794	5612.8
428.001	5940.47
428.209	6290.68
428.417	6206.71
428.624	6614.26
428.832	6585.58
429.039	6544.63
429.247	6454.51
429.454	7304.42
429.662	7650.53
429.869	7265.51
430.076	7664.86
430.284	7486.69
430.491	7834.85
430.699	8205.53
430.906	8301.78
431.114	8283.35
431.321	8643.79
431.528	8856.78
431.736	9362.63
431.943	9813.18
432.15	9577.67
432.358	9651.39
432.565	10204.35
432.772	9942.21
432.979	10554.55
433.187	10906.8
433.394	10650.8
433.601	11685.03
433.808	11556
434.016	11379.88
434.223	11959.45
434.43	12717.2
434.637	12403.86
434.844	13286.54
435.052	13221
435.259	13446.28
435.466	13544.58
435.673	13386.89
435.88	14314.62
436.087	15223.92
436.294	15047.79
436.501	14589.05
436.708	15037.55
436.915	15309.93
437.122	15946.85
437.329	16217.18
437.537	16608.34
437.743	17339.47
437.95	16794.71
438.157	17955.91
438.364	18275.39
438.571	18150.46
438.778	18316.35
438.985	19878.95
439.192	19119.15
439.399	19749.93
439.606	19231.79
439.813	20325.41
440.02	21885.96
440.227	21158.93
440.433	20917.27
440.64	21828.62
440.847	21586.96
441.054	21869.58
441.261	23473.14
441.467	23329.78
441.674	23837.67
441.881	24749.02
442.088	24533.98
442.294	24284.13
442.501	24751.07
442.708	25359.31
442.914	26321.86
443.121	27450.29
443.328	26500.03
443.534	28345.25
443.741	27648.94
443.948	27042.74
444.154	29447.06
444.361	29072.28
444.568	29674.38
444.774	29148.06
444.981	29922.19
445.187	30374.79
445.394	31392.63
445.6	31329.14
445.807	34165.58
446.013	32967.52
446.22	33362.78
446.426	34886.46
446.633	34833.22
446.839	36129.58
447.046	34992.96
447.252	36457.26
447.459	36819.75
447.665	36834.08
447.871	38427.4
448.078	39598.84
448.284	37903.12
448.491	39074.56
448.697	40368.88
448.903	41095.91
449.11	40768.23
449.316	40512.24
449.522	41347.81
449.728	42484.43
449.935	42988.23
450.141	42466
450.347	43528.89
450.553	42101.46
450.76	42652.36
450.966	43926.2
451.172	43485.89
451.378	45124.26
451.584	43856.57
451.791	44790.44
451.997	44849.83
452.203	45568.67
452.409	45427.36
452.615	45253.28
452.821	43442.88
453.027	43201.22
453.233	45232.8
453.44	43616.96
453.646	44352.18
453.852	44389.04
454.058	44858.02
454.264	43819.7
454.47	44681.9
454.676	43659.96
454.882	45296.29
455.088	41132.77
455.294	41855.7
455.5	42697.42
455.705	42791.62
455.911	41149.15
456.117	40506.09
456.323	39983.86
456.529	37868.31
456.735	39422.72
456.941	38300.43
457.147	38222.61
457.352	37006.11
457.558	36305.71
457.764	36473.64
457.97	35975.98
458.176	35334.97
458.381	35066.69
458.587	33430.36
458.793	33225.56
458.999	31695.73
459.204	33434.46
459.41	32650.08
459.616	30778.24
459.821	30833.53
460.027	30772.1
460.233	29944.72
460.438	28820.38
460.644	28924.83
460.85	27573.17
461.055	27198.39
461.261	27155.38
461.466	24886.23
461.672	24017.89
461.878	26029
462.083	24241.12
462.289	23741.42
462.494	23630.83
462.7	22535.17
462.905	22109.19
463.111	22342.66
463.316	22877.18
463.522	22264.83
463.727	22068.23
463.932	21801.99
464.138	21160.98
464.343	21816.33
464.549	21292.05
464.754	22017.03
464.959	21668.87
465.165	21249.04
465.37	20671.51
465.575	20096.03
465.781	20841.5
465.986	20880.41
466.191	20321.31
466.397	19899.43
466.602	18619.45
466.807	19676.2
467.012	19577.9
467.218	19420.21
