Data from USB4F104151__192__14-33-05-754.txt Node

Date: Thu Mar 13 14:33:05 EDT 2025
User: louis
Spectrometer: USB4F10415
Trigger mode: 4
Integration Time (sec): 2.500000E-2
Scans to average: 1
Electric dark correction enabled: true
Nonlinearity correction enabled: false
Boxcar width: 0
XAxis mode: Wavelengths
Number of Pixels in Spectrum: 3648
>>>>>Begin Spectral Data<<<<<
178.204	-160.59
178.424	-160.59
178.644	-160.59
178.864	-119.64
179.084	-129.88
179.304	-15.19
179.524	-23.38
179.744	11.43
179.964	64.68
180.184	7.34
180.404	7.34
180.624	-0.85
180.844	-39.76
181.064	-19.29
181.283	-52.05
181.503	1.19
181.723	58.54
181.943	-113.49
182.163	79.02
182.383	19.63
182.602	64.68
182.822	66.73
183.042	-17.24
183.262	-70.48
183.482	56.49
183.701	-23.38
183.921	60.59
184.141	-9.05
184.361	33.96
184.58	52.39
184.8	25.77
185.02	33.96
185.239	72.87
185.459	31.91
185.679	56.49
185.898	-19.29
186.118	27.82
186.338	7.34
186.557	5.29
186.777	-21.33
186.997	-0.85
187.216	-7
187.436	89.26
187.655	31.91
187.875	-33.62
188.095	-43.86
188.314	72.87
188.534	68.78
188.753	81.07
188.973	9.39
189.192	89.26
189.412	21.67
189.631	36.01
189.851	56.49
190.07	89.26
190.29	50.35
190.509	-52.05
190.729	17.58
190.948	48.3
191.168	156.84
191.387	76.97
191.607	29.87
191.826	-0.85
192.045	25.77
192.265	-9.05
192.484	-33.62
192.704	66.73
192.923	40.11
193.142	1.19
193.362	72.87
193.581	60.59
193.8	11.43
194.02	3.24
194.239	99.5
194.458	25.77
194.678	19.63
194.897	44.2
195.116	60.59
195.335	-7
195.555	25.77
195.774	50.35
195.993	85.16
196.212	-19.29
196.432	-17.24
196.651	-50
196.87	-37.72
197.089	142.5
197.308	48.3
197.528	-0.85
197.747	-21.33
197.966	48.3
198.185	38.06
198.404	-33.62
198.623	56.49
198.842	36.01
199.062	15.53
199.281	72.87
199.5	40.11
199.719	64.68
199.938	87.21
200.157	64.68
200.376	93.35
200.595	93.35
200.814	19.63
201.033	-41.81
201.252	23.72
201.471	64.68
201.69	25.77
201.909	-15.19
202.128	79.02
202.347	40.11
202.566	11.43
202.785	-13.14
203.004	3.24
203.223	64.68
203.442	1.19
203.661	19.63
203.879	52.39
204.098	95.4
204.317	-39.76
204.536	-0.85
204.755	15.53
204.974	5.29
205.193	56.49
205.411	83.11
205.63	25.77
205.849	-19.29
206.068	-43.86
206.287	44.2
206.505	44.2
206.724	15.53
206.943	40.11
207.162	-25.43
207.381	52.39
207.599	42.15
207.818	7.34
208.037	3.24
208.255	19.63
208.474	-2.9
208.693	40.11
208.911	-45.91
209.13	87.21
209.349	31.91
209.567	1.19
209.786	101.55
210.005	1.19
210.223	60.59
210.442	-25.43
210.661	15.53
210.879	29.87
211.098	36.01
211.316	56.49
211.535	42.15
211.753	64.68
211.972	31.91
212.191	-21.33
212.409	36.01
212.628	-7
212.846	21.67
213.065	42.15
213.283	44.2
213.502	-0.85
213.72	-23.38
213.938	89.26
214.157	7.34
214.375	3.24
214.594	17.58
214.812	29.87
215.031	-9.05
215.249	48.3
215.467	7.34
215.686	74.92
215.904	40.11
216.122	23.72
216.341	33.96
216.559	-25.43
216.778	-41.81
216.996	91.31
217.214	-33.62
217.432	7.34
217.651	-15.19
217.869	-47.96
218.087	-37.72
218.306	33.96
218.524	81.07
218.742	40.11
218.96	31.91
219.179	-4.95
219.397	31.91
219.615	74.92
219.833	76.97
220.051	62.63
220.27	-39.76
220.488	40.11
220.706	9.39
220.924	-4.95
221.142	40.11
221.36	5.29
221.578	-17.24
221.796	-0.85
222.015	1.19
222.233	52.39
222.451	29.87
222.669	-41.81
222.887	74.92
223.105	27.82
223.323	25.77
223.541	-111.44
223.759	40.11
223.977	36.01
224.195	42.15
224.413	46.25
224.631	42.15
224.849	31.91
225.067	93.35
225.285	-64.34
225.503	3.24
225.721	-35.67
225.939	42.15
226.157	50.35
226.375	122.02
226.592	15.53
226.81	1.19
227.028	64.68
227.246	81.07
227.464	42.15
227.682	89.26
227.9	27.82
228.117	-0.85
228.335	68.78
228.553	40.11
228.771	66.73
228.989	9.39
229.206	60.59
229.424	-58.2
229.642	15.53
229.86	-37.72
230.077	58.54
230.295	-37.72
230.513	-11.09
230.731	-17.24
230.948	85.16
231.166	107.69
231.384	40.11
231.601	99.5
231.819	33.96
232.037	58.54
232.254	40.11
232.472	-41.81
232.689	-58.2
232.907	15.53
233.125	25.77
233.342	21.67
233.56	17.58
233.777	66.73
233.995	15.53
234.213	83.11
234.43	-15.19
234.648	-25.43
234.865	11.43
235.083	17.58
235.3	64.68
235.518	74.92
235.735	72.87
235.953	89.26
236.17	1.19
236.388	58.54
236.605	99.5
236.822	81.07
237.04	72.87
237.257	60.59
237.475	29.87
237.692	52.39
237.909	15.53
238.127	-33.62
238.344	64.68
238.562	44.2
238.779	40.11
238.996	31.91
239.214	72.87
239.431	-4.95
239.648	19.63
239.865	3.24
240.083	64.68
240.3	-54.1
240.517	-7
240.735	52.39
240.952	76.97
241.169	68.78
241.386	42.15
241.603	66.73
241.821	-13.14
242.038	105.64
242.255	97.45
242.472	-19.29
242.689	27.82
242.907	19.63
243.124	-52.05
243.341	17.58
243.558	7.34
243.775	-9.05
243.992	-21.33
244.209	89.26
244.426	56.49
244.643	7.34
244.86	68.78
245.078	56.49
245.295	113.83
245.512	107.69
245.729	-31.57
245.946	85.16
246.163	5.29
246.38	7.34
246.597	-17.24
246.814	7.34
247.031	40.11
247.248	-19.29
247.464	7.34
247.681	50.35
247.898	23.72
248.115	64.68
248.332	-47.96
248.549	95.4
248.766	113.83
248.983	42.15
249.2	31.91
249.417	-25.43
249.633	15.53
249.85	29.87
250.067	60.59
250.284	25.77
250.501	81.07
250.717	44.2
250.934	27.82
251.151	38.06
251.368	64.68
251.585	52.39
251.801	5.29
252.018	-23.38
252.235	17.58
252.451	40.11
252.668	19.63
252.885	66.73
253.102	-25.43
253.318	-15.19
253.535	-25.43
253.752	33.96
253.968	-41.81
254.185	3.24
254.401	-0.85
254.618	83.11
254.835	-4.95
255.051	60.59
255.268	42.15
255.484	40.11
255.701	29.87
255.917	105.64
256.134	-9.05
256.351	25.77
256.567	5.29
256.784	17.58
257	3.24
257.217	85.16
257.433	87.21
257.65	40.11
257.866	50.35
258.082	19.63
258.299	17.58
258.515	-7
258.732	5.29
258.948	1.19
259.165	44.2
259.381	-0.85
259.597	29.87
259.814	95.4
260.03	-17.24
260.246	23.72
260.463	72.87
260.679	64.68
260.895	33.96
261.112	42.15
261.328	58.54
261.544	-0.85
261.761	93.35
261.977	7.34
262.193	-33.62
262.409	31.91
262.626	48.3
262.842	-4.95
263.058	9.39
263.274	23.72
263.49	29.87
263.707	13.48
263.923	66.73
264.139	-17.24
264.355	68.78
264.571	72.87
264.787	-31.57
265.004	76.97
265.22	15.53
265.436	48.3
265.652	-25.43
265.868	-15.19
266.084	-41.81
266.3	27.82
266.516	-138.07
266.732	-7
266.948	-31.57
267.164	74.92
267.38	83.11
267.596	40.11
267.812	105.64
268.028	42.15
268.244	-4.95
268.46	21.67
268.676	-45.91
268.892	11.43
269.108	-62.29
269.324	23.72
269.54	36.01
269.756	72.87
269.972	-9.05
270.188	40.11
270.403	-23.38
270.619	-33.62
270.835	52.39
271.051	109.74
271.267	-72.53
271.483	-7
271.698	42.15
271.914	81.07
272.13	38.06
272.346	97.45
272.562	15.53
272.777	42.15
272.993	36.01
273.209	-13.14
273.425	105.64
273.64	38.06
273.856	27.82
274.072	11.43
274.287	-17.24
274.503	33.96
274.719	36.01
274.934	-33.62
275.15	-74.58
275.366	62.63
275.581	-2.9
275.797	7.34
276.012	89.26
276.228	-54.1
276.444	-33.62
276.659	74.92
276.875	66.73
277.09	-21.33
277.306	81.07
277.521	-13.14
277.737	29.87
277.952	7.34
278.168	21.67
278.383	97.45
278.599	21.67
278.814	-23.38
279.03	60.59
279.245	132.26
279.461	48.3
279.676	99.5
279.892	-0.85
280.107	9.39
280.322	-29.52
280.538	-17.24
280.753	50.35
280.969	66.73
281.184	7.34
281.399	117.93
281.615	27.82
281.83	52.39
282.045	54.44
282.26	7.34
282.476	7.34
282.691	85.16
282.906	23.72
283.122	40.11
283.337	31.91
283.552	66.73
283.767	7.34
283.983	74.92
284.198	40.11
284.413	40.11
284.628	-33.62
284.843	9.39
285.058	3.24
285.274	31.91
285.489	-11.09
285.704	89.26
285.919	27.82
286.134	48.3
286.349	109.74
286.564	-4.95
286.779	33.96
286.995	23.72
287.21	36.01
287.425	58.54
287.64	64.68
287.855	33.96
288.07	1.19
288.285	76.97
288.5	93.35
288.715	103.59
288.93	15.53
289.145	-17.24
289.36	38.06
289.575	-17.24
289.79	21.67
290.004	15.53
290.219	44.2
290.434	31.91
290.649	17.58
290.864	85.16
291.079	36.01
291.294	-35.67
291.509	89.26
291.724	-50
291.938	25.77
292.153	72.87
292.368	31.91
292.583	-0.85
292.798	23.72
293.012	21.67
293.227	-0.85
293.442	40.11
293.657	54.44
293.871	64.68
294.086	56.49
294.301	93.35
294.516	66.73
294.73	15.53
294.945	31.91
295.16	-27.48
295.374	15.53
295.589	97.45
295.804	31.91
296.018	-0.85
296.233	7.34
296.447	85.16
296.662	11.43
296.877	27.82
297.091	27.82
297.306	40.11
297.52	-47.96
297.735	40.11
297.949	7.34
298.164	58.54
298.378	31.91
298.593	25.77
298.807	27.82
299.022	66.73
299.236	58.54
299.451	42.15
299.665	15.53
299.88	19.63
300.094	7.34
300.309	89.26
300.523	7.34
300.737	-56.15
300.952	27.82
301.166	31.91
301.381	33.96
301.595	-9.05
301.809	25.77
302.024	-72.53
302.238	42.15
302.452	66.73
302.667	68.78
302.881	56.49
303.095	15.53
303.309	48.3
303.524	7.34
303.738	42.15
303.952	48.3
304.166	50.35
304.381	-45.91
304.595	33.96
304.809	46.25
305.023	9.39
305.237	-13.14
305.452	52.39
305.666	138.41
305.88	81.07
306.094	-25.43
306.308	109.74
306.522	60.59
306.736	-33.62
306.95	23.72
307.164	42.15
307.379	19.63
307.593	40.11
307.807	36.01
308.021	56.49
308.235	56.49
308.449	52.39
308.663	19.63
308.877	91.31
309.091	48.3
309.305	50.35
309.519	36.01
309.733	76.97
309.947	-15.19
310.161	31.91
310.374	70.83
310.588	113.83
310.802	23.72
311.016	70.83
311.23	-4.95
311.444	42.15
311.658	1.19
311.872	81.07
312.085	-7
312.299	79.02
312.513	134.31
312.727	11.43
312.941	-0.85
313.154	33.96
313.368	-9.05
313.582	-13.14
313.796	3.24
314.009	56.49
314.223	1.19
314.437	17.58
314.651	50.35
314.864	52.39
315.078	-0.85
315.292	23.72
315.505	21.67
315.719	33.96
315.933	74.92
316.146	-15.19
316.36	23.72
316.573	81.07
316.787	99.5
317.001	9.39
317.214	-9.05
317.428	56.49
317.641	60.59
317.855	-41.81
318.068	31.91
318.282	9.39
318.495	91.31
318.709	-0.85
318.922	56.49
319.136	105.64
319.349	5.29
319.563	-9.05
319.776	95.4
319.99	11.43
320.203	93.35
320.417	83.11
320.63	97.45
320.843	58.54
321.057	-74.58
321.27	-39.76
321.483	27.82
321.697	124.07
321.91	-33.62
322.124	33.96
322.337	42.15
322.55	-9.05
322.763	36.01
322.977	15.53
323.19	-7
323.403	60.59
323.617	54.44
323.83	40.11
324.043	25.77
324.256	54.44
324.469	52.39
324.683	-0.85
324.896	33.96
325.109	54.44
325.322	-54.1
325.535	58.54
325.748	48.3
325.962	31.91
326.175	97.45
326.388	7.34
326.601	38.06
326.814	23.72
327.027	117.93
327.24	103.59
327.453	-45.91
327.666	68.78
327.879	48.3
328.092	23.72
328.305	40.11
328.518	56.49
328.731	58.54
328.944	107.69
329.157	13.48
329.37	-7
329.583	87.21
329.796	66.73
330.009	25.77
330.222	23.72
330.435	56.49
330.648	31.91
330.861	48.3
331.073	31.91
331.286	31.91
331.499	7.34
331.712	17.58
331.925	-21.33
332.138	27.82
332.35	81.07
332.563	36.01
332.776	109.74
332.989	-64.34
333.202	-17.24
333.414	-23.38
333.627	21.67
333.84	-4.95
334.053	74.92
334.265	-0.85
334.478	17.58
334.691	-2.9
334.903	-33.62
335.116	-31.57
335.329	81.07
335.541	25.77
335.754	56.49
335.966	-0.85
336.179	9.39
336.392	48.3
336.604	11.43
336.817	58.54
337.029	62.63
337.242	33.96
337.454	31.91
337.667	38.06
337.88	60.59
338.092	-68.44
338.305	27.82
338.517	-31.57
338.729	81.07
338.942	27.82
339.154	72.87
339.367	-0.85
339.579	46.25
339.792	3.24
340.004	56.49
340.217	46.25
340.429	23.72
340.641	-78.68
340.854	50.35
341.066	13.48
341.278	42.15
341.491	81.07
341.703	15.53
341.915	9.39
342.128	-0.85
342.34	23.72
342.552	-0.85
342.764	-9.05
342.977	97.45
343.189	7.34
343.401	50.35
343.613	97.45
343.826	15.53
344.038	-11.09
344.25	25.77
344.462	7.34
344.674	64.68
344.886	7.34
345.099	36.01
345.311	36.01
345.523	74.92
345.735	-2.9
345.947	36.01
346.159	-35.67
346.371	68.78
346.583	23.72
346.795	40.11
347.007	93.35
347.219	81.07
347.431	70.83
347.643	113.83
347.855	56.49
348.067	83.11
348.279	44.2
348.491	48.3
348.703	42.15
348.915	99.5
349.127	74.92
349.339	74.92
349.551	-27.48
349.763	81.07
349.975	23.72
350.187	66.73
350.399	107.69
350.61	33.96
350.822	64.68
351.034	81.07
351.246	36.01
351.458	68.78
351.669	40.11
351.881	109.74
352.093	83.11
352.305	60.59
352.517	64.68
352.728	99.5
352.94	87.21
353.152	101.55
353.363	38.06
353.575	23.72
353.787	113.83
353.999	3.24
354.21	19.63
354.422	31.91
354.633	25.77
354.845	40.11
355.057	17.58
355.268	50.35
355.48	97.45
355.692	83.11
355.903	27.82
356.115	-23.38
356.326	-9.05
356.538	48.3
356.749	42.15
356.961	130.22
357.172	-0.85
357.384	9.39
357.595	83.11
357.807	11.43
358.018	36.01
358.23	3.24
358.441	97.45
358.653	31.91
358.864	17.58
359.075	36.01
359.287	-2.9
359.498	11.43
359.709	42.15
359.921	19.63
360.132	11.43
360.344	66.73
360.555	-11.09
360.766	-9.05
360.977	19.63
361.189	68.78
361.4	33.96
361.611	68.78
361.823	107.69
362.034	56.49
362.245	-70.48
362.456	11.43
362.667	83.11
362.879	60.59
363.09	60.59
363.301	64.68
363.512	23.72
363.723	48.3
363.935	27.82
364.146	113.83
364.357	36.01
364.568	79.02
364.779	27.82
364.99	58.54
365.201	48.3
365.412	36.01
365.623	40.11
365.834	25.77
366.045	25.77
366.256	48.3
366.467	-15.19
366.678	52.39
366.889	130.22
367.1	25.77
367.311	117.93
367.522	56.49
367.733	54.44
367.944	148.65
368.155	-4.95
368.366	70.83
368.577	85.16
368.788	64.68
368.999	113.83
369.209	66.73
369.42	87.21
369.631	128.17
369.842	54.44
370.053	97.45
370.264	23.72
370.474	40.11
370.685	72.87
370.896	31.91
371.107	40.11
371.317	68.78
371.528	-0.85
371.739	146.6
371.95	85.16
372.16	25.77
372.371	-105.3
372.582	64.68
372.792	97.45
373.003	113.83
373.214	7.34
373.424	27.82
373.635	17.58
373.846	126.12
374.056	31.91
374.267	7.34
374.477	17.58
374.688	17.58
374.898	7.34
375.109	33.96
375.319	81.07
375.53	66.73
375.74	5.29
375.951	19.63
376.161	48.3
376.372	29.87
376.582	-37.72
376.793	31.91
377.003	48.3
377.214	40.11
377.424	68.78
377.635	33.96
377.845	13.48
378.055	142.5
378.266	72.87
378.476	148.65
378.686	-45.91
378.897	15.53
379.107	119.98
379.317	-41.81
379.528	50.35
379.738	89.26
379.948	81.07
380.158	113.83
380.369	64.68
380.579	56.49
380.789	40.11
380.999	148.65
381.21	19.63
381.42	79.02
381.63	42.15
381.84	25.77
382.05	68.78
382.261	52.39
382.471	101.55
382.681	64.68
382.891	85.16
383.101	76.97
383.311	-11.09
383.521	31.91
383.731	38.06
383.941	107.69
384.151	1.19
384.361	64.68
384.571	124.07
384.781	130.22
384.991	107.69
385.201	95.4
385.411	169.13
385.621	23.72
385.831	33.96
386.041	23.72
386.251	27.82
386.461	99.5
386.671	52.39
386.881	97.45
387.091	81.07
387.301	5.29
387.511	21.67
387.72	-21.33
387.93	50.35
388.14	72.87
388.35	97.45
388.56	68.78
388.769	93.35
388.979	95.4
389.189	-7
389.399	48.3
389.609	152.74
389.818	146.6
390.028	122.02
390.238	117.93
390.447	40.11
390.657	29.87
390.867	5.29
391.076	-45.91
391.286	85.16
391.496	33.96
391.705	60.59
391.915	97.45
392.125	68.78
392.334	81.07
392.544	130.22
392.753	52.39
392.963	113.83
393.172	113.83
393.382	56.49
393.591	93.35
393.801	31.91
394.01	74.92
394.22	76.97
394.429	111.78
394.639	9.39
394.848	136.36
395.058	130.22
395.267	85.16
395.477	38.06
395.686	27.82
395.895	138.41
396.105	167.08
396.314	68.78
396.524	42.15
396.733	76.97
396.942	146.6
397.152	99.5
397.361	122.02
397.57	40.11
397.78	107.69
397.989	171.18
398.198	134.31
398.407	72.87
398.617	130.22
398.826	87.21
399.035	134.31
399.244	138.41
399.453	36.01
399.663	72.87
399.872	136.36
400.081	85.16
400.29	122.02
400.499	74.92
400.708	126.12
400.917	101.55
401.127	83.11
401.336	156.84
401.545	195.75
401.754	162.98
401.963	193.7
402.172	146.6
402.381	165.03
402.59	48.3
402.799	124.07
403.008	171.18
403.217	181.42
403.426	146.6
403.635	97.45
403.844	64.68
404.053	222.38
404.262	117.93
404.471	165.03
404.68	189.61
404.888	171.18
405.097	185.51
405.306	179.37
405.515	183.46
405.724	212.14
405.933	197.8
406.142	208.04
406.35	228.52
406.559	191.66
406.768	238.76
406.977	249
407.185	294.05
407.394	279.72
407.603	140.46
407.812	195.75
408.02	267.43
408.229	228.52
408.438	294.05
408.646	216.23
408.855	332.97
409.064	265.38
409.272	302.25
409.481	367.78
409.69	343.21
409.898	296.1
410.107	322.73
410.315	310.44
410.524	380.07
410.733	468.13
410.941	459.94
411.15	375.97
411.358	457.89
411.567	476.32
411.775	457.89
411.984	439.46
412.192	515.23
412.401	548
412.609	582.82
412.818	609.44
413.026	617.63
413.234	591.01
413.443	611.49
413.651	640.16
413.86	638.11
414.068	763.04
414.276	824.48
414.485	638.11
414.693	797.85
414.901	859.29
415.11	885.92
415.318	851.1
415.526	957.6
415.734	1000.6
415.943	933.02
416.151	1100.95
416.359	941.21
416.567	1049.75
416.776	1105.05
416.984	1146.01
417.192	1129.63
417.4	1232.02
417.608	1227.93
417.817	1244.31
418.025	1326.23
418.233	1449.11
418.441	1344.66
418.649	1432.72
418.857	1473.68
419.065	1612.95
419.273	1440.92
419.481	1641.62
419.689	1778.83
419.897	1731.73
420.105	1846.41
420.313	1893.52
420.521	1866.89
420.729	1957
420.937	2110.6
421.145	2143.37
421.353	2243.72
421.561	2260.1
421.769	2403.46
421.977	2380.93
422.185	2473.09
422.393	2575.49
422.601	2825.34
422.809	2790.53
423.017	2833.54
423.224	2983.04
423.432	3069.05
423.64	3116.16
423.848	3329.14
424.056	3097.72
424.263	3497.08
424.471	3579
424.679	3699.83
424.887	3744.88
425.094	3867.76
425.302	3890.29
425.51	4015.21
425.718	4201.58
425.925	4078.7
426.133	4467.81
426.341	4598.88
426.548	4582.5
426.756	4772.96
426.964	5155.93
427.171	5125.21
427.379	5278.81
427.586	5393.5
427.794	5557.33
428.001	5700.69
428.209	6001.74
428.417	5762.13
428.624	6310.99
428.832	6276.17
429.039	6270.03
429.247	6323.27
429.454	6802.5
429.662	7541.82
429.869	6872.13
430.076	7216.19
430.284	7052.35
430.491	7425.08
430.699	7855.15
430.906	7844.91
431.114	7998.51
431.321	8281.13
431.528	8412.2
431.736	8817.7
431.943	9536.54
432.15	9016.35
432.358	9067.55
432.565	9712.66
432.772	9616.41
432.979	10134.54
433.187	10298.38
433.394	10398.73
433.601	11049.99
433.808	11097.09
434.016	10798.09
434.223	11336.7
434.43	12112.88
434.637	12016.63
434.844	12420.08
435.052	12893.16
435.259	12823.53
435.466	12905.45
435.673	12567.53
435.88	13722.59
436.087	14156.75
436.294	14351.31
436.501	13802.46
436.708	14271.44
436.915	14721.99
437.122	15262.66
437.329	15190.98
437.537	15666.11
437.743	16131
437.95	15831.99
438.157	16866.22
438.364	17298.34
438.571	17236.9
438.778	17333.15
438.985	18721.68
439.192	18033.56
439.399	18705.29
439.606	18322.32
439.813	19186.57
440.02	20466.55
440.227	20106.1
440.433	19954.55
440.64	20616.05
440.847	20431.73
441.054	20847.47
441.261	22276.95
441.467	21887.84
441.674	22504.28
441.881	23429.96
442.088	23057.23
442.294	22944.59
442.501	23622.47
442.708	24181.56
442.914	24734.51
443.121	25758.5
443.328	25484.07
443.534	27169.55
443.741	26428.18
443.948	25905.95
444.154	28058.37
444.361	27816.71
444.568	27988.74
444.774	27845.38
444.981	28363.51
445.187	29006.58
445.394	29809.38
445.6	30094.05
445.807	32635.58
446.013	31029.97
446.22	31900.36
446.426	33131.19
446.633	33034.93
446.839	34427.55
447.046	32940.72
447.252	34804.38
447.459	34923.16
447.665	34611.87
447.871	36067.97
448.078	37679.72
448.284	36088.45
448.491	37030.52
448.697	38441.57
448.903	39309.91
449.11	38912.6
449.316	38472.29
449.522	39180.88
449.728	40335.94
449.935	40571.46
450.141	40272.45
450.347	41720.37
450.553	40215.11
450.76	40651.33
450.966	41851.44
451.172	41058.87
451.378	42435.11
451.584	41568.82
451.791	42754.59
451.997	42066.47
452.203	43160.09
452.409	43313.69
452.615	42717.73
452.821	41140.79
453.027	40725.05
453.233	42920.48
453.44	40952.38
453.646	41646.64
453.852	42000.94
454.058	42840.6
454.264	41003.58
454.47	42099.24
454.676	40929.85
454.882	42549.79
455.088	39025.24
455.294	39219.8
455.5	39948.87
455.705	40364.61
455.911	38445.66
456.117	37327.47
456.323	37606
456.529	35488.4
456.735	36682.36
456.941	35932.81
457.147	35381.9
457.352	34245.28
457.558	34278.05
457.764	34157.22
457.97	33387.18
458.176	32717.5
458.381	32369.34
458.587	30647
458.793	30771.93
458.999	29297.39
459.204	31427.28
459.41	30503.64
459.616	28644.09
459.821	28693.24
460.027	28736.24
460.233	27902.72
460.438	26690.32
460.644	26858.26
460.85	25285.42
461.055	24935.21
461.261	25029.42
461.466	23317.32
461.672	22494.04
461.878	24146.75
462.083	22473.56
462.289	22066.01
462.494	21738.33
462.7	20898.67
462.905	20218.74
463.111	21070.7
463.316	20861.8
463.522	20702.06
463.727	20861.8
463.932	20876.14
464.138	20265.85
464.343	20341.62
464.549	19600.26
464.754	20446.07
464.959	20263.8
465.165	20308.85
465.37	19286.92
465.575	18877.32
465.781	19499.91
465.986	19682.17
466.191	19030.92
466.397	18758.54
466.602	17677.21
466.807	18320.28
467.012	18281.36
467.218	18426.77
467.423	17761.18
