Data from USB4F104151__276__14-34-42-051.txt Node

Date: Thu Mar 13 14:34:42 EDT 2025
User: louis
Spectrometer: USB4F10415
Trigger mode: 4
Integration Time (sec): 2.500000E-2
Scans to average: 1
Electric dark correction enabled: true
Nonlinearity correction enabled: false
Boxcar width: 0
XAxis mode: Wavelengths
Number of Pixels in Spectrum: 3648
>>>>>Begin Spectral Data<<<<<
178.204	-179.2
178.424	-179.2
178.644	-179.2
178.864	-146.43
179.084	-177.15
179.304	25.6
179.524	-11.26
179.744	-33.79
179.964	37.89
180.184	-80.89
180.404	58.37
180.624	46.08
180.844	-5.12
181.064	-23.55
181.283	21.5
181.503	-19.46
181.723	-15.36
181.943	50.18
182.163	31.74
182.383	21.5
182.602	41.98
182.822	50.18
183.042	33.79
183.262	-64.51
183.482	33.79
183.701	-5.12
183.921	9.22
184.141	54.27
184.361	74.75
184.58	35.84
184.8	111.61
185.02	-5.12
185.239	33.79
185.459	19.46
185.679	37.89
185.898	-31.74
186.118	91.13
186.338	37.89
186.557	58.37
186.777	-48.13
186.997	84.99
187.216	46.08
187.436	29.7
187.655	-9.22
187.875	37.89
188.095	5.12
188.314	117.76
188.534	99.33
188.753	66.56
188.973	-13.31
189.192	60.42
189.412	-27.65
189.631	62.46
189.851	1.02
190.07	91.13
190.29	3.07
190.509	11.26
190.729	21.5
190.948	60.42
191.168	214.01
191.387	78.85
191.607	11.26
191.826	84.99
192.045	-19.46
192.265	-29.7
192.484	-21.5
192.704	-60.42
192.923	19.46
193.142	148.48
193.362	58.37
193.581	60.42
193.8	46.08
194.02	25.6
194.239	19.46
194.458	21.5
194.678	132.09
194.897	54.27
195.116	-5.12
195.335	-11.26
195.555	-21.5
195.774	13.31
195.993	93.18
196.212	37.89
196.432	-15.36
196.651	87.04
196.87	95.23
197.089	148.48
197.308	60.42
197.528	82.94
197.747	-39.94
197.966	66.56
198.185	103.42
198.404	41.98
198.623	44.03
198.842	58.37
199.062	64.51
199.281	101.37
199.5	68.61
199.719	-3.07
199.938	58.37
200.157	33.79
200.376	48.13
200.595	95.23
200.814	25.6
201.033	-1.02
201.252	1.02
201.471	37.89
201.69	74.75
201.909	46.08
202.128	74.75
202.347	91.13
202.566	50.18
202.785	33.79
203.004	-13.31
203.223	91.13
203.442	50.18
203.661	1.02
203.879	31.74
204.098	17.41
204.317	11.26
204.536	60.42
204.755	33.79
204.974	41.98
205.193	76.8
205.411	62.46
205.63	107.52
205.849	46.08
206.068	11.26
206.287	13.31
206.505	111.61
206.724	9.22
206.943	-11.26
207.162	58.37
207.381	74.75
207.599	29.7
207.818	105.47
208.037	-1.02
208.255	41.98
208.474	-19.46
208.693	128
208.911	82.94
209.13	-11.26
209.349	82.94
209.567	54.27
209.786	46.08
210.005	54.27
210.223	46.08
210.442	-23.55
210.661	25.6
210.879	21.5
211.098	74.75
211.316	27.65
211.535	-7.17
211.753	68.61
211.972	58.37
212.191	-5.12
212.409	33.79
212.628	82.94
212.846	35.84
213.065	31.74
213.283	68.61
213.502	-13.31
213.72	-17.41
213.938	9.22
214.157	33.79
214.375	58.37
214.594	11.26
214.812	64.51
215.031	48.13
215.249	87.04
215.467	35.84
215.686	-35.84
215.904	101.37
216.122	66.56
216.341	27.65
216.559	9.22
216.778	91.13
216.996	29.7
217.214	62.46
217.432	17.41
217.651	-7.17
217.869	33.79
218.087	64.51
218.306	-15.36
218.524	35.84
218.742	41.98
218.96	-17.41
219.179	58.37
219.397	68.61
219.615	99.33
219.833	1.02
220.051	-5.12
220.27	84.99
220.488	91.13
220.706	-13.31
220.924	5.12
221.142	54.27
221.36	80.89
221.578	101.37
221.796	93.18
222.015	50.18
222.233	-3.07
222.451	74.75
222.669	41.98
222.887	5.12
223.105	3.07
223.323	19.46
223.541	41.98
223.759	33.79
223.977	19.46
224.195	144.38
224.413	62.46
224.631	54.27
224.849	9.22
225.067	156.67
225.285	3.07
225.503	9.22
225.721	84.99
225.939	-13.31
226.157	58.37
226.375	109.57
226.592	-13.31
226.81	9.22
227.028	66.56
227.246	99.33
227.464	44.03
227.682	173.05
227.9	66.56
228.117	74.75
228.335	5.12
228.553	35.84
228.771	9.22
228.989	44.03
229.206	19.46
229.424	17.41
229.642	60.42
229.86	-13.31
230.077	41.98
230.295	1.02
230.513	-25.6
230.731	50.18
230.948	70.65
231.166	23.55
231.384	76.8
231.601	62.46
231.819	56.32
232.037	25.6
232.254	25.6
232.472	46.08
232.689	-3.07
232.907	89.09
233.125	-37.89
233.342	-39.94
233.56	9.22
233.777	33.79
233.995	50.18
234.213	99.33
234.43	74.75
234.648	117.76
234.865	-7.17
235.083	29.7
235.3	-56.32
235.518	103.42
235.735	54.27
235.953	91.13
236.17	29.7
236.388	-1.02
236.605	128
236.822	128
237.04	19.46
237.257	-7.17
237.475	-31.74
237.692	31.74
237.909	60.42
238.127	52.22
238.344	78.85
238.562	117.76
238.779	46.08
238.996	-31.74
239.214	29.7
239.431	89.09
239.648	-1.02
239.865	39.94
240.083	48.13
240.3	-11.26
240.517	39.94
240.735	44.03
240.952	41.98
241.169	25.6
241.386	-7.17
241.603	74.75
241.821	54.27
242.038	183.29
242.255	105.47
242.472	11.26
242.689	66.56
242.907	35.84
243.124	89.09
243.341	-1.02
243.558	17.41
243.775	25.6
243.992	-13.31
244.209	-31.74
244.426	158.72
244.643	68.61
244.86	27.65
245.078	-15.36
245.295	84.99
245.512	68.61
245.729	41.98
245.946	-21.5
246.163	62.46
246.38	17.41
246.597	25.6
246.814	9.22
247.031	84.99
247.248	109.57
247.464	54.27
247.681	-23.55
247.898	9.22
248.115	41.98
248.332	101.37
248.549	70.65
248.766	168.96
248.983	68.61
249.2	115.71
249.417	60.42
249.633	-54.27
249.85	52.22
250.067	25.6
250.284	35.84
250.501	-19.46
250.717	48.13
250.934	-91.13
251.151	50.18
251.368	52.22
251.585	76.8
251.801	23.55
252.018	29.7
252.235	23.55
252.451	5.12
252.668	-19.46
252.885	60.42
253.102	33.79
253.318	-1.02
253.535	17.41
253.752	-58.37
253.968	31.74
254.185	41.98
254.401	78.85
254.618	119.81
254.835	3.07
255.051	134.14
255.268	99.33
255.484	82.94
255.701	1.02
255.917	29.7
256.134	62.46
256.351	-15.36
256.567	9.22
256.784	35.84
257	33.79
257.217	123.9
257.433	15.36
257.65	41.98
257.866	23.55
258.082	29.7
258.299	9.22
258.515	33.79
258.732	-31.74
258.948	52.22
259.165	111.61
259.381	19.46
259.597	48.13
259.814	33.79
260.03	33.79
260.246	35.84
260.463	64.51
260.679	105.47
260.895	9.22
261.112	93.18
261.328	35.84
261.544	70.65
261.761	142.33
261.977	17.41
262.193	-39.94
262.409	25.6
262.626	17.41
262.842	15.36
263.058	54.27
263.274	74.75
263.49	-23.55
263.707	9.22
263.923	25.6
264.139	-7.17
264.355	29.7
264.571	74.75
264.787	11.26
265.004	130.05
265.22	41.98
265.436	54.27
265.652	17.41
265.868	87.04
266.084	64.51
266.3	17.41
266.516	-7.17
266.732	25.6
266.948	33.79
267.164	5.12
267.38	58.37
267.596	7.17
267.812	84.99
268.028	62.46
268.244	74.75
268.46	70.65
268.676	50.18
268.892	52.22
269.108	13.31
269.324	21.5
269.54	-5.12
269.756	58.37
269.972	15.36
270.188	25.6
270.403	54.27
270.619	27.65
270.835	44.03
271.051	66.56
271.267	44.03
271.483	68.61
271.698	84.99
271.914	50.18
272.13	74.75
272.346	25.6
272.562	78.85
272.777	76.8
272.993	27.65
273.209	33.79
273.425	115.71
273.64	11.26
273.856	68.61
274.072	19.46
274.287	25.6
274.503	35.84
274.719	58.37
274.934	76.8
275.15	-19.46
275.366	21.5
275.581	-9.22
275.797	-11.26
276.012	-1.02
276.228	91.13
276.444	3.07
276.659	82.94
276.875	91.13
277.09	52.22
277.306	64.51
277.521	3.07
277.737	19.46
277.952	41.98
278.168	27.65
278.383	74.75
278.599	-15.36
278.814	74.75
279.03	-35.84
279.245	60.42
279.461	99.33
279.676	103.42
279.892	50.18
280.107	70.65
280.322	-76.8
280.538	54.27
280.753	25.6
280.969	54.27
281.184	27.65
281.399	-5.12
281.615	68.61
281.83	-31.74
282.045	17.41
282.26	3.07
282.476	41.98
282.691	123.9
282.906	19.46
283.122	82.94
283.337	31.74
283.552	128
283.767	72.7
283.983	84.99
284.198	-11.26
284.413	99.33
284.628	-35.84
284.843	19.46
285.058	91.13
285.274	-13.31
285.489	-15.36
285.704	33.79
285.919	103.42
286.134	-35.84
286.349	11.26
286.564	25.6
286.779	78.85
286.995	66.56
287.21	-7.17
287.425	99.33
287.64	13.31
287.855	25.6
288.07	-39.94
288.285	107.52
288.5	74.75
288.715	70.65
288.93	87.04
289.145	27.65
289.36	52.22
289.575	-82.94
289.79	56.32
290.004	37.89
290.219	3.07
290.434	58.37
290.649	7.17
290.864	50.18
291.079	29.7
291.294	91.13
291.509	56.32
291.724	39.94
291.938	44.03
292.153	50.18
292.368	-23.55
292.583	93.18
292.798	37.89
293.012	66.56
293.227	66.56
293.442	9.22
293.657	72.7
293.871	74.75
294.086	115.71
294.301	50.18
294.516	123.9
294.73	60.42
294.945	-23.55
295.16	-1.02
295.374	117.76
295.589	64.51
295.804	5.12
296.018	95.23
296.233	72.7
296.447	50.18
296.662	25.6
296.877	74.75
297.091	68.61
297.306	54.27
297.52	50.18
297.735	46.08
297.949	-19.46
298.164	37.89
298.378	70.65
298.593	21.5
298.807	58.37
299.022	109.57
299.236	25.6
299.451	13.31
299.665	13.31
299.88	60.42
300.094	78.85
300.309	76.8
300.523	68.61
300.737	25.6
300.952	68.61
301.166	74.75
301.381	44.03
301.595	17.41
301.809	25.6
302.024	125.95
302.238	50.18
302.452	128
302.667	64.51
302.881	91.13
303.095	70.65
303.309	37.89
303.524	17.41
303.738	82.94
303.952	-74.75
304.166	21.5
304.381	-19.46
304.595	48.13
304.809	54.27
305.023	33.79
305.237	11.26
305.452	-23.55
305.666	19.46
305.88	62.46
306.094	56.32
306.308	66.56
306.522	74.75
306.736	74.75
306.95	62.46
307.164	21.5
307.379	76.8
307.593	128
307.807	52.22
308.021	117.76
308.235	68.61
308.449	80.89
308.663	37.89
308.877	105.47
309.091	58.37
309.305	13.31
309.519	-31.74
309.733	107.52
309.947	3.07
310.161	74.75
310.374	46.08
310.588	82.94
310.802	-17.41
311.016	99.33
311.23	33.79
311.444	-3.07
311.658	119.81
311.872	37.89
312.085	177.15
312.299	87.04
312.513	87.04
312.727	25.6
312.941	33.79
313.154	78.85
313.368	5.12
313.582	-23.55
313.796	1.02
314.009	111.61
314.223	56.32
314.437	29.7
314.651	87.04
314.864	-21.5
315.078	56.32
315.292	35.84
315.505	25.6
315.719	31.74
315.933	-13.31
316.146	58.37
316.36	7.17
316.573	46.08
316.787	13.31
317.001	48.13
317.214	1.02
317.428	1.02
317.641	-3.07
317.855	1.02
318.068	-37.89
318.282	128
318.495	140.29
318.709	58.37
318.922	99.33
319.136	183.29
319.349	37.89
319.563	-56.32
319.776	115.71
319.99	3.07
320.203	156.67
320.417	58.37
320.63	35.84
320.843	115.71
321.057	17.41
321.27	95.23
321.483	15.36
321.697	107.52
321.91	-7.17
322.124	76.8
322.337	54.27
322.55	-7.17
322.763	25.6
322.977	25.6
323.19	37.89
323.403	1.02
323.617	89.09
323.83	74.75
324.043	33.79
324.256	50.18
324.469	136.19
324.683	128
324.896	107.52
325.109	99.33
325.322	50.18
325.535	17.41
325.748	33.79
325.962	66.56
326.175	15.36
326.388	9.22
326.601	93.18
326.814	148.48
327.027	50.18
327.24	21.5
327.453	48.13
327.666	107.52
327.879	-19.46
328.092	140.29
328.305	25.6
328.518	41.98
328.731	52.22
328.944	91.13
329.157	-15.36
329.37	11.26
329.583	99.33
329.796	82.94
330.009	3.07
330.222	50.18
330.435	35.84
330.648	70.65
330.861	74.75
331.073	62.46
331.286	119.81
331.499	54.27
331.712	5.12
331.925	27.65
332.138	58.37
332.35	87.04
332.563	-39.94
332.776	76.8
332.989	3.07
333.202	-3.07
333.414	29.7
333.627	27.65
333.84	17.41
334.053	62.46
334.265	107.52
334.478	19.46
334.691	103.42
334.903	62.46
335.116	37.89
335.329	15.36
335.541	50.18
335.754	78.85
335.966	48.13
336.179	39.94
336.392	35.84
336.604	99.33
336.817	44.03
337.029	142.33
337.242	5.12
337.454	142.33
337.667	3.07
337.88	82.94
338.092	74.75
338.305	76.8
338.517	74.75
338.729	76.8
338.942	66.56
339.154	91.13
339.367	33.79
339.579	-46.08
339.792	97.28
340.004	13.31
340.217	33.79
340.429	3.07
340.641	9.22
340.854	25.6
341.066	58.37
341.278	150.53
341.491	140.29
341.703	44.03
341.915	-29.7
342.128	52.22
342.34	35.84
342.552	-3.07
342.764	52.22
342.977	-23.55
343.189	50.18
343.401	37.89
343.613	-72.7
343.826	82.94
344.038	62.46
344.25	117.76
344.462	-5.12
344.674	58.37
344.886	82.94
345.099	87.04
345.311	-19.46
345.523	52.22
345.735	35.84
345.947	50.18
346.159	87.04
346.371	25.6
346.583	44.03
346.795	58.37
347.007	33.79
347.219	123.9
347.431	35.84
347.643	103.42
347.855	33.79
348.067	76.8
348.279	64.51
348.491	58.37
348.703	185.34
348.915	-13.31
349.127	-33.79
349.339	123.9
349.551	50.18
349.763	115.71
349.975	33.79
350.187	140.29
350.399	132.09
350.61	87.04
350.822	-11.26
351.034	115.71
351.246	52.22
351.458	44.03
351.669	66.56
351.881	107.52
352.093	123.9
352.305	50.18
352.517	17.41
352.728	66.56
352.94	78.85
353.152	27.65
353.363	64.51
353.575	13.31
353.787	82.94
353.999	70.65
354.21	164.86
354.422	39.94
354.633	35.84
354.845	50.18
355.057	54.27
355.268	82.94
355.48	107.52
355.692	9.22
355.903	44.03
356.115	64.51
356.326	-48.13
356.538	60.42
356.749	111.61
356.961	25.6
357.172	37.89
357.384	17.41
357.595	115.71
357.807	58.37
358.018	74.75
358.23	21.5
358.441	82.94
358.653	82.94
358.864	107.52
359.075	-68.61
359.287	-5.12
359.498	37.89
359.709	68.61
359.921	66.56
360.132	-7.17
360.344	84.99
360.555	70.65
360.766	66.56
360.977	76.8
361.189	39.94
361.4	95.23
361.611	5.12
361.823	175.1
362.034	58.37
362.245	23.55
362.456	56.32
362.667	97.28
362.879	62.46
363.09	41.98
363.301	70.65
363.512	19.46
363.723	1.02
363.935	25.6
364.146	130.05
364.357	56.32
364.568	11.26
364.779	-23.55
364.99	99.33
365.201	7.17
365.412	74.75
365.623	25.6
365.834	66.56
366.045	52.22
366.256	87.04
366.467	58.37
366.678	25.6
366.889	119.81
367.1	35.84
367.311	115.71
367.522	62.46
367.733	50.18
367.944	39.94
368.155	39.94
368.366	119.81
368.577	37.89
368.788	70.65
368.999	58.37
369.209	93.18
369.42	60.42
369.631	50.18
369.842	58.37
370.053	72.7
370.264	27.65
370.474	74.75
370.685	82.94
370.896	41.98
371.107	93.18
371.317	105.47
371.528	39.94
371.739	132.09
371.95	82.94
372.16	82.94
372.371	37.89
372.582	84.99
372.792	35.84
373.003	13.31
373.214	-3.07
373.424	41.98
373.635	56.32
373.846	91.13
374.056	119.81
374.267	60.42
374.477	111.61
374.688	-23.55
374.898	78.85
375.109	25.6
375.319	70.65
375.53	107.52
375.74	17.41
375.951	41.98
376.161	70.65
376.372	107.52
376.582	17.41
376.793	93.18
377.003	25.6
377.214	31.74
377.424	84.99
377.635	35.84
377.845	27.65
378.055	109.57
378.266	27.65
378.476	-13.31
378.686	50.18
378.897	62.46
379.107	25.6
379.317	123.9
379.528	13.31
379.738	148.48
379.948	7.17
380.158	50.18
380.369	29.7
380.579	125.95
380.789	50.18
380.999	189.44
381.21	97.28
381.42	158.72
381.63	33.79
381.84	111.61
382.05	115.71
382.261	80.89
382.471	62.46
382.681	56.32
382.891	91.13
383.101	58.37
383.311	56.32
383.521	60.42
383.731	52.22
383.941	52.22
384.151	48.13
384.361	-15.36
384.571	62.46
384.781	27.65
384.991	113.66
385.201	84.99
385.411	107.52
385.621	39.94
385.831	72.7
386.041	64.51
386.251	-5.12
386.461	41.98
386.671	25.6
386.881	74.75
387.091	132.09
387.301	132.09
387.511	123.9
387.72	44.03
387.93	33.79
388.14	3.07
388.35	93.18
388.56	103.42
388.769	80.89
388.979	66.56
389.189	31.74
389.399	33.79
389.609	66.56
389.818	99.33
390.028	58.37
390.238	76.8
390.447	44.03
390.657	56.32
390.867	54.27
391.076	66.56
391.286	101.37
391.496	9.22
391.705	3.07
391.915	17.41
392.125	148.48
392.334	3.07
392.544	-7.17
392.753	37.89
392.963	123.9
393.172	76.8
393.382	1.02
393.591	111.61
393.801	101.37
394.01	76.8
394.22	148.48
394.429	134.14
394.639	164.86
394.848	54.27
395.058	58.37
395.267	132.09
395.477	154.62
395.686	66.56
395.895	76.8
396.105	138.24
396.314	37.89
396.524	82.94
396.733	58.37
396.942	99.33
397.152	78.85
397.361	121.85
397.57	125.95
397.78	82.94
397.989	107.52
398.198	158.72
398.407	138.24
398.617	99.33
398.826	179.2
399.035	156.67
399.244	244.73
399.453	95.23
399.663	70.65
399.872	119.81
400.081	7.17
400.29	160.77
400.499	95.23
400.708	185.34
400.917	132.09
401.127	58.37
401.336	150.53
401.545	150.53
401.754	199.68
401.963	128
402.172	19.46
402.381	70.65
402.59	74.75
402.799	148.48
403.008	177.15
403.217	144.38
403.426	166.91
403.635	115.71
403.844	91.13
404.053	99.33
404.262	72.7
404.471	234.49
404.68	226.3
404.888	207.87
405.097	205.82
405.306	238.59
405.515	181.25
405.724	218.11
405.933	175.1
406.142	242.68
406.35	259.07
406.559	236.54
406.768	168.96
406.977	312.32
407.185	320.51
407.394	134.14
407.603	199.68
407.812	300.03
408.02	267.26
408.229	211.96
408.438	267.26
408.646	281.6
408.855	216.06
409.064	248.83
409.272	312.32
409.481	338.94
409.69	248.83
409.898	232.44
410.107	336.89
410.315	357.37
410.524	318.46
410.733	414.71
410.941	312.32
411.15	355.32
411.358	369.66
411.567	445.43
411.775	347.13
411.984	394.23
412.192	517.11
412.401	439.29
412.609	539.64
412.818	513.02
413.026	443.39
413.234	568.31
413.443	527.35
413.651	572.41
413.86	558.07
414.068	705.53
414.276	607.22
414.485	658.42
414.693	713.72
414.901	754.68
415.11	707.57
415.318	709.62
415.526	746.48
415.734	828.4
415.943	848.88
416.151	838.64
416.359	742.39
416.567	979.95
416.776	787.44
416.984	877.55
417.192	1018.86
417.4	984.05
417.608	943.09
417.817	1010.67
418.025	1106.93
418.233	1172.46
418.441	1111.02
418.649	1264.62
418.857	1338.35
419.065	1328.11
419.273	1379.31
419.481	1379.31
419.689	1475.56
419.897	1436.65
420.105	1541.1
420.313	1606.63
420.521	1598.44
420.729	1704.93
420.937	1623.02
421.145	1766.37
421.353	1872.87
421.561	1991.65
421.769	2083.81
421.977	2048.99
422.185	2022.37
422.393	2206.69
422.601	2257.89
422.809	2384.86
423.017	2413.53
423.224	2343.9
423.432	2597.85
423.64	2579.42
423.848	2857.94
424.056	2720.73
424.263	2755.54
424.471	2923.48
424.679	2978.77
424.887	2991.06
425.094	3230.67
425.302	3122.13
425.51	3290.06
425.718	3367.88
425.925	3476.43
426.133	3529.67
426.341	3861.45
426.548	3824.58
426.756	3912.64
426.964	3974.08
427.171	4211.65
427.379	4316.09
427.586	4322.24
427.794	4502.46
428.001	4717.5
428.209	4842.42
428.417	4846.52
428.624	5170.1
428.832	5223.34
429.039	5104.56
429.247	5024.69
429.454	5727.14
429.662	5880.74
429.869	5823.4
430.076	6079.4
430.284	5770.15
430.491	6144.93
430.699	6423.45
430.906	6519.71
431.114	6474.65
431.321	6740.89
431.528	6802.33
431.736	7353.23
431.943	7603.08
432.15	7472.01
432.358	7426.96
432.565	7910.28
432.772	7824.26
432.979	8180.61
433.187	8493.95
433.394	8426.37
433.601	8934.26
433.808	9196.4
434.016	9032.57
434.223	9210.74
434.43	9945.96
434.637	9675.63
434.844	10183.52
435.052	10488.67
435.259	10443.62
435.466	10466.14
435.673	10447.71
435.88	11101.01
436.087	11739.98
436.294	11510.61
436.501	11264.85
436.708	11367.25
436.915	11961.16
437.122	12544.83
437.329	12376.9
437.537	12942.14
437.743	13151.03
437.95	12921.66
438.157	13714.22
438.364	13849.39
438.571	14074.67
438.778	14117.67
438.985	15573.78
439.192	14773.02
439.399	15233.82
439.606	14867.23
439.813	15932.17
440.02	16528.13
440.227	16333.57
440.433	16534.28
440.64	17031.93
440.847	16364.29
441.054	17017.6
441.261	18201.32
441.467	17851.12
441.674	18322.15
441.881	18918.11
442.088	18916.06
442.294	18844.38
442.501	19294.94
442.708	19776.21
442.914	20343.5
443.121	21119.68
443.328	20429.51
443.534	21971.63
443.741	21779.12
443.948	20972.22
444.154	22446.76
444.361	22375.08
444.568	22534.82
444.774	22588.07
444.981	23118.5
445.187	23655.06
445.394	24867.46
445.6	24523.4
445.807	26489.45
446.013	25412.22
446.22	25825.91
446.426	27040.36
446.633	27177.57
446.839	28000.85
447.046	27056.74
447.252	28250.7
447.459	28547.66
447.665	28269.14
447.871	29751.87
448.078	30646.83
448.284	29227.59
448.491	30143.03
448.697	31269.41
448.903	31789.59
449.11	31683.1
449.316	31349.28
449.522	32053.78
449.728	33045
449.935	33098.25
450.141	33315.33
450.347	33724.93
450.553	32422.42
450.76	33112.58
450.966	34232.82
451.172	33860.09
451.378	35004.91
451.584	33923.58
451.791	34785.77
451.997	34628.08
452.203	35486.18
452.409	35236.33
452.615	35082.73
452.821	33880.57
453.027	33360.39
453.233	35434.98
453.44	33532.42
453.646	34091.51
453.852	34019.83
454.058	34589.17
454.264	33534.46
454.47	34286.07
454.676	33417.73
454.882	34687.47
455.088	31744.54
455.294	32692.75
455.5	32426.51
455.705	32956.94
455.911	31904.28
456.117	31107.62
456.323	30802.47
456.529	29375.04
456.735	30433.84
456.941	29473.34
457.147	29008.45
457.352	28367.44
457.558	27574.88
457.764	27996.76
457.97	27576.92
458.176	26636.91
458.381	26710.63
458.587	25684.6
458.793	25006.72
458.999	23952.02
459.204	25903.73
459.41	25143.94
459.616	23224.99
459.821	23409.31
460.027	23300.76
460.233	22874.79
460.438	21619.38
460.644	21734.07
460.85	20777.67
461.055	20269.77
461.261	20499.14
461.466	19057.37
461.672	18330.34
461.878	19796.69
462.083	18379.5
462.289	17799.92
462.494	17795.82
462.7	17023.74
462.905	16446.21
463.111	17261.3
463.316	17027.84
463.522	16759.55
463.727	16788.22
463.932	16780.03
464.138	16411.4
464.343	16608
464.549	15987.47
464.754	16634.63
464.959	16225.03
465.165	16042.76
465.37	15450.9
465.575	15270.68
465.781	15831.82
465.986	15776.53
466.191	15299.35
466.397	15026.97
466.602	13982.51
466.807	14670.62
467.012	14682.91
467.218	14510.88
467.423	14361.38
467.628	14742.3
