Data from USB4F104151__250__14-34-15-609.txt Node

Date: Thu Mar 13 14:34:15 EDT 2025
User: louis
Spectrometer: USB4F10415
Trigger mode: 4
Integration Time (sec): 2.500000E-2
Scans to average: 1
Electric dark correction enabled: true
Nonlinearity correction enabled: false
Boxcar width: 0
XAxis mode: Wavelengths
Number of Pixels in Spectrum: 3648
>>>>>Begin Spectral Data<<<<<
178.204	-126.12
178.424	-126.12
178.644	-126.12
178.864	-99.5
179.084	-97.45
179.304	-5.29
179.524	29.52
179.744	-56.49
179.964	21.33
180.184	-29.87
180.404	-11.43
180.624	9.05
180.844	31.57
181.064	-7.34
181.283	31.57
181.503	-19.63
181.723	7
181.943	15.19
182.163	62.29
182.383	45.91
182.602	47.96
182.822	66.39
183.042	64.34
183.262	41.81
183.482	45.91
183.701	95.06
183.921	-27.82
184.141	17.24
184.361	62.29
184.58	78.68
184.8	82.77
185.02	19.29
185.239	37.72
185.459	31.57
185.679	140.12
185.898	-1.19
186.118	123.73
186.338	-19.63
186.557	29.52
186.777	84.82
186.997	15.19
187.216	29.52
187.436	119.64
187.655	103.25
187.875	115.54
188.095	56.15
188.314	66.39
188.534	50
188.753	64.34
188.973	50
189.192	121.68
189.412	-15.53
189.631	7
189.851	33.62
190.07	152.4
190.29	17.24
190.509	68.44
190.729	43.86
190.948	140.12
191.168	93.01
191.387	86.87
191.607	41.81
191.826	72.53
192.045	15.19
192.265	31.57
192.484	111.44
192.704	62.29
192.923	25.43
193.142	144.21
193.362	31.57
193.581	123.73
193.8	68.44
194.02	103.25
194.239	82.77
194.458	72.53
194.678	52.05
194.897	45.91
195.116	17.24
195.335	113.49
195.555	97.11
195.774	31.57
195.993	70.48
196.212	37.72
196.432	127.83
196.651	103.25
196.87	29.52
197.089	74.58
197.308	90.96
197.528	41.81
197.747	7
197.966	43.86
198.185	84.82
198.404	21.33
198.623	119.64
198.842	90.96
199.062	-1.19
199.281	88.92
199.5	66.39
199.719	50
199.938	113.49
200.157	95.06
200.376	29.52
200.595	54.1
200.814	90.96
201.033	27.48
201.252	56.15
201.471	72.53
201.69	166.74
201.909	121.68
202.128	70.48
202.347	68.44
202.566	39.76
202.785	56.15
203.004	62.29
203.223	113.49
203.442	60.24
203.661	62.29
203.879	70.48
204.098	101.2
204.317	56.15
204.536	50
204.755	7
204.974	62.29
205.193	82.77
205.411	140.12
205.63	129.88
205.849	72.53
206.068	80.72
206.287	66.39
206.505	142.16
206.724	-19.63
206.943	4.95
207.162	50
207.381	50
207.599	37.72
207.818	111.44
208.037	-7.34
208.255	90.96
208.474	41.81
208.693	93.01
208.911	-21.67
209.13	50
209.349	-1.19
209.567	-7.34
209.786	62.29
210.005	123.73
210.223	72.53
210.442	72.53
210.661	90.96
210.879	39.76
211.098	95.06
211.316	-5.29
211.535	74.58
211.753	7
211.972	88.92
212.191	4.95
212.409	43.86
212.628	97.11
212.846	103.25
213.065	129.88
213.283	176.98
213.502	50
213.72	95.06
213.938	23.38
214.157	39.76
214.375	66.39
214.594	15.19
214.812	45.91
215.031	37.72
215.249	-52.39
215.467	50
215.686	13.14
215.904	70.48
216.122	78.68
216.341	140.12
216.559	78.68
216.778	70.48
216.996	115.54
217.214	13.14
217.432	45.91
217.651	121.68
217.869	113.49
218.087	39.76
218.306	41.81
218.524	37.72
218.742	99.16
218.96	39.76
219.179	62.29
219.397	78.68
219.615	215.89
219.833	64.34
220.051	45.91
220.27	90.96
220.488	103.25
220.706	25.43
220.924	-13.48
221.142	-1.19
221.36	33.62
221.578	121.68
221.796	70.48
222.015	95.06
222.233	33.62
222.451	127.83
222.669	-17.58
222.887	103.25
223.105	33.62
223.323	86.87
223.541	37.72
223.759	88.92
223.977	23.38
224.195	80.72
224.413	129.88
224.631	95.06
224.849	82.77
225.067	174.93
225.285	47.96
225.503	136.02
225.721	23.38
225.939	133.97
226.157	29.52
226.375	185.17
226.592	9.05
226.81	-3.24
227.028	119.64
227.246	21.33
227.464	-13.48
227.682	127.83
227.9	62.29
228.117	62.29
228.335	4.95
228.553	17.24
228.771	127.83
228.989	70.48
229.206	33.62
229.424	76.63
229.642	19.29
229.86	13.14
230.077	131.92
230.295	56.15
230.513	99.16
230.731	148.31
230.948	113.49
231.166	29.52
231.384	115.54
231.601	-11.43
231.819	205.65
232.037	74.58
232.254	-46.25
232.472	-9.39
232.689	15.19
232.907	113.49
233.125	84.82
233.342	82.77
233.56	76.63
233.777	95.06
233.995	31.57
234.213	86.87
234.43	88.92
234.648	31.57
234.865	52.05
235.083	187.22
235.3	90.96
235.518	95.06
235.735	113.49
235.953	105.3
236.17	72.53
236.388	95.06
236.605	56.15
236.822	70.48
237.04	76.63
237.257	95.06
237.475	62.29
237.692	103.25
237.909	41.81
238.127	13.14
238.344	103.25
238.562	78.68
238.779	86.87
238.996	29.52
239.214	31.57
239.431	64.34
239.648	19.29
239.865	64.34
240.083	74.58
240.3	21.33
240.517	29.52
240.735	54.1
240.952	50
241.169	144.21
241.386	103.25
241.603	95.06
241.821	66.39
242.038	103.25
242.255	144.21
242.472	50
242.689	76.63
242.907	45.91
243.124	103.25
243.341	50
243.558	70.48
243.775	21.33
243.992	58.2
244.209	99.16
244.426	68.44
244.643	33.62
244.86	-3.24
245.078	138.07
245.295	23.38
245.512	60.24
245.729	25.43
245.946	107.35
246.163	31.57
246.38	54.1
246.597	97.11
246.814	144.21
247.031	-21.67
247.248	54.1
247.464	74.58
247.681	23.38
247.898	78.68
248.115	90.96
248.332	54.1
248.549	62.29
248.766	113.49
248.983	9.05
249.2	72.53
249.417	103.25
249.633	95.06
249.85	47.96
250.067	54.1
250.284	78.68
250.501	78.68
250.717	21.33
250.934	21.33
251.151	107.35
251.368	2.9
251.585	31.57
251.801	80.72
252.018	99.16
252.235	158.55
252.451	13.14
252.668	54.1
252.885	125.78
253.102	62.29
253.318	33.62
253.535	23.38
253.752	80.72
253.968	17.24
254.185	35.67
254.401	0.85
254.618	131.92
254.835	72.53
255.051	64.34
255.268	60.24
255.484	-9.39
255.701	35.67
255.917	103.25
256.134	86.87
256.351	113.49
256.567	64.34
256.784	13.14
257	21.33
257.217	111.44
257.433	72.53
257.65	80.72
257.866	37.72
258.082	50
258.299	17.24
258.515	68.44
258.732	72.53
258.948	50
259.165	47.96
259.381	-7.34
259.597	-3.24
259.814	82.77
260.03	62.29
260.246	17.24
260.463	64.34
260.679	54.1
260.895	86.87
261.112	78.68
261.328	54.1
261.544	80.72
261.761	113.49
261.977	45.91
262.193	-3.24
262.409	119.64
262.626	41.81
262.842	62.29
263.058	39.76
263.274	150.36
263.49	56.15
263.707	39.76
263.923	29.52
264.139	-52.39
264.355	62.29
264.571	115.54
264.787	66.39
265.004	86.87
265.22	17.24
265.436	-3.24
265.652	39.76
265.868	56.15
266.084	39.76
266.3	17.24
266.516	-36.01
266.732	86.87
266.948	78.68
267.164	62.29
267.38	150.36
267.596	111.44
267.812	140.12
268.028	2.9
268.244	7
268.46	70.48
268.676	76.63
268.892	29.52
269.108	35.67
269.324	7
269.54	-3.24
269.756	113.49
269.972	-13.48
270.188	45.91
270.403	60.24
270.619	50
270.835	39.76
271.051	105.3
271.267	31.57
271.483	37.72
271.698	150.36
271.914	74.58
272.13	62.29
272.346	31.57
272.562	41.81
272.777	62.29
272.993	123.73
273.209	39.76
273.425	111.44
273.64	13.14
273.856	113.49
274.072	54.1
274.287	56.15
274.503	74.58
274.719	62.29
274.934	72.53
275.15	25.43
275.366	41.81
275.581	99.16
275.797	21.33
276.012	13.14
276.228	58.2
276.444	50
276.659	119.64
276.875	-3.24
277.09	88.92
277.306	52.05
277.521	64.34
277.737	72.53
277.952	90.96
278.168	45.91
278.383	119.64
278.599	33.62
278.814	80.72
279.03	86.87
279.245	119.64
279.461	54.1
279.676	129.88
279.892	15.19
280.107	82.77
280.322	-40.11
280.538	131.92
280.753	25.43
280.969	21.33
281.184	119.64
281.399	164.69
281.615	111.44
281.83	29.52
282.045	-3.24
282.26	15.19
282.476	29.52
282.691	99.16
282.906	54.1
283.122	107.35
283.337	21.33
283.552	105.3
283.767	123.73
283.983	127.83
284.198	31.57
284.413	7
284.628	88.92
284.843	105.3
285.058	97.11
285.274	-3.24
285.489	21.33
285.704	107.35
285.919	31.57
286.134	62.29
286.349	45.91
286.564	45.91
286.779	152.4
286.995	21.33
287.21	50
287.425	35.67
287.64	56.15
287.855	58.2
288.07	7
288.285	72.53
288.5	54.1
288.715	86.87
288.93	37.72
289.145	-1.19
289.36	117.59
289.575	9.05
289.79	66.39
290.004	78.68
290.219	152.4
290.434	-19.63
290.649	74.58
290.864	86.87
291.079	62.29
291.294	58.2
291.509	140.12
291.724	138.07
291.938	74.58
292.153	68.44
292.368	119.64
292.583	70.48
292.798	21.33
293.012	23.38
293.227	62.29
293.442	37.72
293.657	103.25
293.871	160.59
294.086	152.4
294.301	127.83
294.516	99.16
294.73	15.19
294.945	2.9
295.16	68.44
295.374	90.96
295.589	103.25
295.804	-27.82
296.018	72.53
296.233	41.81
296.447	140.12
296.662	21.33
296.877	136.02
297.091	29.52
297.306	90.96
297.52	62.29
297.735	90.96
297.949	146.26
298.164	119.64
298.378	56.15
298.593	-105.64
298.807	45.91
299.022	107.35
299.236	99.16
299.451	78.68
299.665	90.96
299.88	31.57
300.094	54.1
300.309	52.05
300.523	37.72
300.737	146.26
300.952	123.73
301.166	13.14
301.381	-7.34
301.595	54.1
301.809	54.1
302.024	158.55
302.238	60.24
302.452	54.1
302.667	4.95
302.881	121.68
303.095	84.82
303.309	99.16
303.524	-11.43
303.738	-25.77
303.952	-19.63
304.166	80.72
304.381	-3.24
304.595	127.83
304.809	33.62
305.023	107.35
305.237	52.05
305.452	74.58
305.666	74.58
305.88	54.1
306.094	107.35
306.308	93.01
306.522	50
306.736	62.29
306.95	68.44
307.164	54.1
307.379	25.43
307.593	123.73
307.807	64.34
308.021	146.26
308.235	21.33
308.449	13.14
308.663	13.14
308.877	111.44
309.091	82.77
309.305	86.87
309.519	-36.01
309.733	148.31
309.947	19.29
310.161	56.15
310.374	121.68
310.588	146.26
310.802	29.52
311.016	37.72
311.23	29.52
311.444	62.29
311.658	93.01
311.872	170.83
312.085	119.64
312.299	95.06
312.513	88.92
312.727	37.72
312.941	90.96
313.154	58.2
313.368	95.06
313.582	117.59
313.796	2.9
314.009	21.33
314.223	101.2
314.437	99.16
314.651	21.33
314.864	25.43
315.078	15.19
315.292	62.29
315.505	-13.48
315.719	78.68
315.933	101.2
316.146	62.29
316.36	97.11
316.573	60.24
316.787	47.96
317.001	95.06
317.214	-23.72
317.428	97.11
317.641	45.91
317.855	121.68
318.068	50
318.282	113.49
318.495	133.97
318.709	142.16
318.922	27.48
319.136	64.34
319.349	138.07
319.563	66.39
319.776	78.68
319.99	-9.39
320.203	58.2
320.417	105.3
320.63	86.87
320.843	93.01
321.057	99.16
321.27	66.39
321.483	60.24
321.697	138.07
321.91	127.83
322.124	74.58
322.337	37.72
322.55	13.14
322.763	82.77
322.977	25.43
323.19	-42.15
323.403	39.76
323.617	123.73
323.83	80.72
324.043	0.85
324.256	72.53
324.469	-3.24
324.683	82.77
324.896	152.4
325.109	86.87
325.322	95.06
325.535	72.53
325.748	107.35
325.962	111.44
326.175	37.72
326.388	136.02
326.601	123.73
326.814	47.96
327.027	123.73
327.24	140.12
327.453	31.57
327.666	123.73
327.879	88.92
328.092	90.96
328.305	29.52
328.518	56.15
328.731	82.77
328.944	62.29
329.157	82.77
329.37	47.96
329.583	80.72
329.796	144.21
330.009	45.91
330.222	115.54
330.435	103.25
330.648	39.76
330.861	58.2
331.073	4.95
331.286	56.15
331.499	52.05
331.712	37.72
331.925	56.15
332.138	101.2
332.35	72.53
332.563	0.85
332.776	95.06
332.989	33.62
333.202	64.34
333.414	90.96
333.627	84.82
333.84	47.96
334.053	80.72
334.265	45.91
334.478	95.06
334.691	56.15
334.903	111.44
335.116	64.34
335.329	62.29
335.541	88.92
335.754	176.98
335.966	125.78
336.179	99.16
336.392	101.2
336.604	129.88
336.817	138.07
337.029	50
337.242	82.77
337.454	29.52
337.667	76.63
337.88	97.11
338.092	60.24
338.305	78.68
338.517	37.72
338.729	84.82
338.942	105.3
339.154	-1.19
339.367	54.1
339.579	54.1
339.792	68.44
340.004	125.78
340.217	50
340.429	29.52
340.641	45.91
340.854	31.57
341.066	56.15
341.278	33.62
341.491	123.73
341.703	86.87
341.915	70.48
342.128	136.02
342.34	45.91
342.552	29.52
342.764	86.87
342.977	78.68
343.189	103.25
343.401	127.83
343.613	37.72
343.826	86.87
344.038	86.87
344.25	107.35
344.462	13.14
344.674	62.29
344.886	45.91
345.099	107.35
345.311	127.83
345.523	62.29
345.735	-27.82
345.947	140.12
346.159	39.76
346.371	-3.24
346.583	64.34
346.795	95.06
347.007	54.1
347.219	121.68
347.431	86.87
347.643	72.53
347.855	52.05
348.067	95.06
348.279	33.62
348.491	62.29
348.703	97.11
348.915	105.3
349.127	37.72
349.339	66.39
349.551	-5.29
349.763	86.87
349.975	50
350.187	125.78
350.399	56.15
350.61	15.19
350.822	95.06
351.034	47.96
351.246	107.35
351.458	99.16
351.669	82.77
351.881	90.96
352.093	127.83
352.305	82.77
352.517	86.87
352.728	13.14
352.94	97.11
353.152	127.83
353.363	-19.63
353.575	95.06
353.787	70.48
353.999	105.3
354.21	99.16
354.422	74.58
354.633	29.52
354.845	136.02
355.057	129.88
355.268	138.07
355.48	154.45
355.692	33.62
355.903	52.05
356.115	72.53
356.326	31.57
356.538	76.63
356.749	82.77
356.961	123.73
357.172	-3.24
357.384	-23.72
357.595	172.88
357.807	66.39
358.018	2.9
358.23	154.45
358.441	103.25
358.653	123.73
358.864	107.35
359.075	37.72
359.287	58.2
359.498	103.25
359.709	62.29
359.921	82.77
360.132	78.68
360.344	105.3
360.555	82.77
360.766	80.72
360.977	115.54
361.189	152.4
361.4	86.87
361.611	146.26
361.823	80.72
362.034	146.26
362.245	66.39
362.456	154.45
362.667	54.1
362.879	54.1
363.09	60.24
363.301	54.1
363.512	129.88
363.723	70.48
363.935	33.62
364.146	185.17
364.357	52.05
364.568	-3.24
364.779	-17.58
364.99	136.02
365.201	15.19
365.412	107.35
365.623	52.05
365.834	131.92
366.045	72.53
366.256	64.34
366.467	62.29
366.678	37.72
366.889	33.62
367.1	70.48
367.311	129.88
367.522	66.39
367.733	140.12
367.944	97.11
368.155	21.33
368.366	62.29
368.577	131.92
368.788	56.15
368.999	58.2
369.209	80.72
369.42	164.69
369.631	115.54
369.842	93.01
370.053	105.3
370.264	123.73
370.474	74.58
370.685	93.01
370.896	21.33
371.107	113.49
371.317	146.26
371.528	45.91
371.739	107.35
371.95	154.45
372.16	113.49
372.371	25.43
372.582	105.3
372.792	121.68
373.003	72.53
373.214	62.29
373.424	70.48
373.635	74.58
373.846	78.68
374.056	23.38
374.267	119.64
374.477	88.92
374.688	86.87
374.898	72.53
375.109	86.87
375.319	82.77
375.53	131.92
375.74	105.3
375.951	68.44
376.161	125.78
376.372	21.33
376.582	74.58
376.793	62.29
377.003	9.05
377.214	90.96
377.424	105.3
377.635	76.63
377.845	111.44
378.055	111.44
378.266	88.92
378.476	66.39
378.686	103.25
378.897	127.83
379.107	115.54
379.317	62.29
379.528	64.34
379.738	107.35
379.948	68.44
380.158	111.44
380.369	-7.34
380.579	95.06
380.789	80.72
380.999	90.96
381.21	54.1
381.42	174.93
381.63	66.39
381.84	39.76
382.05	74.58
382.261	140.12
382.471	109.4
382.681	45.91
382.891	129.88
383.101	86.87
383.311	-36.01
383.521	113.49
383.731	136.02
383.941	138.07
384.151	43.86
384.361	45.91
384.571	70.48
384.781	144.21
384.991	176.98
385.201	168.79
385.411	121.68
385.621	121.68
385.831	99.16
386.041	78.68
386.251	17.24
386.461	105.3
386.671	82.77
386.881	78.68
387.091	80.72
387.301	99.16
387.511	41.81
387.72	105.3
387.93	136.02
388.14	54.1
388.35	168.79
388.56	103.25
388.769	37.72
388.979	152.4
389.189	62.29
389.399	140.12
389.609	54.1
389.818	146.26
390.028	37.72
390.238	88.92
390.447	41.81
390.657	158.55
390.867	176.98
391.076	99.16
391.286	103.25
391.496	99.16
391.705	95.06
391.915	99.16
392.125	150.36
392.334	111.44
392.544	95.06
392.753	78.68
392.963	97.11
393.172	13.14
393.382	127.83
393.591	189.27
393.801	97.11
394.01	107.35
394.22	185.17
394.429	123.73
394.639	80.72
394.848	107.35
395.058	160.59
395.267	95.06
395.477	119.64
395.686	179.03
395.895	183.12
396.105	185.17
396.314	78.68
396.524	121.68
396.733	99.16
396.942	148.31
397.152	103.25
397.361	162.64
397.57	187.22
397.78	97.11
397.989	193.36
398.198	236.37
398.407	93.01
398.617	136.02
398.826	107.35
399.035	97.11
399.244	181.07
399.453	111.44
399.663	176.98
399.872	74.58
400.081	146.26
400.29	222.03
400.499	119.64
400.708	154.45
400.917	113.49
401.127	154.45
401.336	58.2
401.545	152.4
401.754	228.18
401.963	219.99
402.172	154.45
402.381	111.44
402.59	131.92
402.799	201.55
403.008	244.56
403.217	172.88
403.426	211.79
403.635	119.64
403.844	213.84
404.053	156.5
404.262	183.12
404.471	205.65
404.68	197.46
404.888	193.36
405.097	193.36
405.306	242.51
405.515	189.27
405.724	219.99
405.933	211.79
406.142	291.66
406.35	205.65
406.559	176.98
406.768	213.84
406.977	373.58
407.185	250.71
407.394	222.03
407.603	236.37
407.812	322.38
408.02	330.58
408.229	217.94
408.438	267.09
408.646	260.95
408.855	236.37
409.064	351.06
409.272	283.47
409.481	396.11
409.69	373.58
409.898	414.54
410.107	392.02
410.315	385.87
410.524	299.86
410.733	430.93
410.941	451.41
411.15	478.03
411.358	398.16
411.567	455.5
411.775	559.95
411.984	435.02
412.192	525.13
412.401	514.89
412.609	463.69
412.818	672.59
413.026	586.57
413.234	656.2
413.443	668.49
413.651	623.44
413.86	625.48
414.068	693.07
414.276	721.74
414.485	691.02
414.693	867.14
414.901	848.71
415.11	840.52
415.318	897.86
415.526	918.34
415.734	918.34
415.943	856.9
416.151	947.01
416.359	963.4
416.567	1076.04
416.776	1049.41
416.984	1098.56
417.192	1178.44
417.4	1153.86
417.608	1139.52
417.817	1112.9
418.025	1278.79
418.233	1389.38
418.441	1325.89
418.649	1254.21
418.857	1454.91
419.065	1536.83
419.273	1450.82
419.481	1528.64
419.689	1655.61
419.897	1729.34
420.105	1688.38
420.313	1784.63
420.521	1913.66
420.729	1835.83
420.937	1946.42
421.145	2022.2
421.353	2089.78
421.561	2233.14
421.769	2370.35
421.977	2331.44
422.185	2329.39
422.393	2433.84
422.601	2661.16
422.809	2554.67
423.017	2671.4
423.224	2671.4
423.432	2781.99
423.64	2892.59
423.848	3113.77
424.056	3062.57
424.263	3273.51
424.471	3324.71
424.679	3314.47
424.887	3543.84
425.094	3638.05
425.302	3584.8
425.51	3707.68
425.718	3887.9
425.925	3879.71
426.133	3961.62
426.341	4231.96
426.548	4453.14
426.756	4444.95
426.964	4469.52
427.171	4709.13
427.379	4807.44
427.586	4782.86
427.794	5075.72
428.001	5356.29
428.209	5604.1
428.417	5513.99
428.624	5769.98
428.832	5976.83
429.039	5903.1
429.247	5878.52
429.454	6388.47
429.662	6814.45
429.869	6447.86
430.076	6826.73
430.284	6646.51
430.491	6847.21
430.699	7418.6
430.906	7330.53
431.114	7443.17
431.321	7846.62
431.528	7955.16
431.736	8250.07
431.943	8719.06
432.15	8436.44
432.358	8377.05
432.565	9056.97
432.772	8985.29
432.979	9401.03
433.187	9364.17
433.394	9491.14
433.601	10216.12
433.808	10367.67
434.016	10375.86
434.223	10529.46
434.43	11309.74
434.637	10982.06
434.844	11893.41
435.052	11973.28
435.259	11825.82
435.466	11997.85
435.673	12049.05
435.88	12645.01
436.087	13142.67
436.294	12980.88
436.501	12849.81
436.708	13179.53
436.915	13570.69
437.122	14262.91
437.329	14264.96
437.537	14559.86
437.743	14817.91
437.95	14709.36
438.157	15563.37
438.364	16138.85
438.571	15641.19
438.778	16185.95
438.985	17531.47
439.192	16669.27
439.399	17396.3
439.606	17001.04
439.813	17994.31
440.02	19014.2
440.227	18620.99
440.433	18532.92
440.64	18899.51
440.847	18919.99
441.054	19378.73
441.261	20795.93
441.467	20199.97
441.674	20896.28
441.881	21596.68
442.088	21260.82
442.294	21232.15
442.501	21985.8
442.708	22526.46
442.914	23063.03
443.121	23874.03
443.328	23329.27
443.534	25031.13
443.741	24502.75
443.948	24105.45
444.154	25987.53
444.361	25838.03
444.568	26067.4
444.774	25493.97
444.981	25852.36
445.187	27052.47
445.394	27765.17
445.6	27556.27
445.807	30255.5
446.013	29088.15
446.22	29555.09
446.426	30511.49
446.633	30841.21
446.839	31949.17
447.046	30511.49
447.252	32342.38
447.459	32553.32
447.665	32379.24
447.871	33823.06
448.078	35246.4
448.284	33352.02
448.491	34378.06
448.697	35627.32
448.903	35948.85
449.11	36194.61
449.316	35842.35
449.522	36864.29
449.728	37284.12
449.935	37636.38
450.141	37736.73
450.347	38723.85
450.553	37103.9
450.76	37787.92
450.966	39119.1
451.172	38449.42
451.378	39514.36
451.584	38834.44
451.791	40003.83
451.997	39504.12
452.203	40179.95
452.409	40169.71
452.615	39825.65
452.821	38557.96
453.027	38291.73
453.233	39950.58
453.44	38627.59
453.646	38873.35
453.852	39233.79
454.058	39745.78
454.264	38746.37
454.47	39594.23
454.676	38572.3
454.882	39919.86
455.088	36518.18
455.294	36782.37
455.5	37310.75
455.705	37681.43
455.911	36346.15
456.117	35512.63
456.323	35191.1
456.529	33280.35
456.735	34771.27
456.941	34249.03
457.147	33511.77
457.352	32268.65
457.558	32041.32
457.764	32166.25
457.97	31328.63
458.176	30785.92
458.381	30839.17
458.587	29297.05
458.793	29008.28
458.999	27980.2
459.204	29634.96
459.41	28891.55
459.616	27261.37
459.821	26857.92
460.027	26986.94
460.233	26208.71
460.438	25133.53
460.644	25045.46
460.85	23992.81
461.055	23800.3
461.261	23871.98
461.466	21756.43
461.672	21162.51
461.878	22878.71
462.083	21168.66
462.289	20703.77
462.494	20816.41
462.7	19927.59
462.905	19094.07
463.111	19696.17
463.316	19884.58
463.522	19137.07
463.727	19376.69
463.932	19208.75
464.138	18928.18
464.343	19249.71
464.549	18311.74
464.754	19216.94
464.959	19036.72
465.165	18651.7
465.37	18033.22
465.575	17492.55
465.781	18221.63
465.986	18076.23
466.191	17887.81
