Data from USB4F104151__56__14-30-03-156.txt Node

Date: Thu Mar 13 14:30:03 EDT 2025
User: louis
Spectrometer: USB4F10415
Trigger mode: 4
Integration Time (sec): 2.500000E-2
Scans to average: 1
Electric dark correction enabled: true
Nonlinearity correction enabled: false
Boxcar width: 0
XAxis mode: Wavelengths
Number of Pixels in Spectrum: 3648
>>>>>Begin Spectral Data<<<<<
178.204	-119.64
178.424	-119.64
178.644	-119.64
178.864	-183.12
179.084	-201.55
179.304	-107.35
179.524	46.25
179.744	-17.24
179.964	76.97
180.184	-60.24
180.404	27.82
180.624	-13.14
180.844	-4.95
181.064	-13.14
181.283	-25.43
181.503	31.91
181.723	58.54
181.943	-19.29
182.163	52.39
182.383	1.19
182.602	11.43
182.822	29.87
183.042	-29.52
183.262	21.67
183.482	48.3
183.701	27.82
183.921	5.29
184.141	19.63
184.361	56.49
184.58	60.59
184.8	-43.86
185.02	-66.39
185.239	79.02
185.459	70.83
185.679	130.22
185.898	-9.05
186.118	68.78
186.338	-2.9
186.557	56.49
186.777	-13.14
186.997	46.25
187.216	7.34
187.436	42.15
187.655	19.63
187.875	62.63
188.095	97.45
188.314	23.72
188.534	-4.95
188.753	-45.91
188.973	93.35
189.192	76.97
189.412	56.49
189.631	60.59
189.851	13.48
190.07	150.7
190.29	-56.15
190.509	54.44
190.729	31.91
190.948	36.01
191.168	117.93
191.387	-52.05
191.607	-2.9
191.826	-4.95
192.045	56.49
192.265	68.78
192.484	111.78
192.704	101.55
192.923	1.19
193.142	79.02
193.362	-9.05
193.581	72.87
193.8	81.07
194.02	56.49
194.239	-27.48
194.458	19.63
194.678	5.29
194.897	79.02
195.116	52.39
195.335	101.55
195.555	36.01
195.774	-4.95
195.993	60.59
196.212	-19.29
196.432	29.87
196.651	48.3
196.87	79.02
197.089	48.3
197.308	58.54
197.528	76.97
197.747	25.77
197.966	-13.14
198.185	89.26
198.404	-0.85
198.623	27.82
198.842	79.02
199.062	87.21
199.281	46.25
199.5	23.72
199.719	13.48
199.938	46.25
200.157	38.06
200.376	11.43
200.595	72.87
200.814	54.44
201.033	21.67
201.252	103.59
201.471	21.67
201.69	19.63
201.909	13.48
202.128	27.82
202.347	76.97
202.566	-11.09
202.785	85.16
203.004	13.48
203.223	58.54
203.442	31.91
203.661	44.2
203.879	62.63
204.098	76.97
204.317	52.39
204.536	11.43
204.755	-27.48
204.974	74.92
205.193	36.01
205.411	81.07
205.63	31.91
205.849	44.2
206.068	13.48
206.287	38.06
206.505	79.02
206.724	60.59
206.943	38.06
207.162	-17.24
207.381	19.63
207.599	11.43
207.818	23.72
208.037	31.91
208.255	-35.67
208.474	62.63
208.693	48.3
208.911	56.49
209.13	36.01
209.349	52.39
209.567	21.67
209.786	29.87
210.005	113.83
210.223	-13.14
210.442	17.58
210.661	52.39
210.879	62.63
211.098	-29.52
211.316	3.24
211.535	25.77
211.753	-11.09
211.972	27.82
212.191	68.78
212.409	-27.48
212.628	56.49
212.846	-11.09
213.065	85.16
213.283	87.21
213.502	44.2
213.72	25.77
213.938	-29.52
214.157	13.48
214.375	15.53
214.594	93.35
214.812	99.5
215.031	27.82
215.249	83.11
215.467	81.07
215.686	38.06
215.904	46.25
216.122	44.2
216.341	97.45
216.559	27.82
216.778	19.63
216.996	54.44
217.214	7.34
217.432	15.53
217.651	52.39
217.869	36.01
218.087	38.06
218.306	-17.24
218.524	76.97
218.742	46.25
218.96	15.53
219.179	36.01
219.397	93.35
219.615	105.64
219.833	44.2
220.051	36.01
220.27	62.63
220.488	60.59
220.706	-45.91
220.924	60.59
221.142	31.91
221.36	3.24
221.578	128.17
221.796	11.43
222.015	36.01
222.233	44.2
222.451	64.68
222.669	79.02
222.887	117.93
223.105	38.06
223.323	89.26
223.541	-47.96
223.759	68.78
223.977	-4.95
224.195	46.25
224.413	101.55
224.631	21.67
224.849	33.96
225.067	79.02
225.285	62.63
225.503	79.02
225.721	-95.06
225.939	79.02
226.157	27.82
226.375	134.31
226.592	-31.57
226.81	-0.85
227.028	93.35
227.246	93.35
227.464	44.2
227.682	3.24
227.9	7.34
228.117	1.19
228.335	76.97
228.553	15.53
228.771	25.77
228.989	-29.52
229.206	-21.33
229.424	25.77
229.642	68.78
229.86	-50
230.077	42.15
230.295	95.4
230.513	40.11
230.731	85.16
230.948	46.25
231.166	36.01
231.384	-21.33
231.601	40.11
231.819	21.67
232.037	25.77
232.254	-7
232.472	79.02
232.689	-37.72
232.907	85.16
233.125	27.82
233.342	52.39
233.56	3.24
233.777	56.49
233.995	-13.14
234.213	105.64
234.43	15.53
234.648	36.01
234.865	54.44
235.083	109.74
235.3	-13.14
235.518	11.43
235.735	36.01
235.953	27.82
236.17	3.24
236.388	60.59
236.605	7.34
236.822	56.49
237.04	85.16
237.257	66.73
237.475	-21.33
237.692	46.25
237.909	29.87
238.127	-2.9
238.344	29.87
238.562	68.78
238.779	-45.91
238.996	72.87
239.214	54.44
239.431	109.74
239.648	3.24
239.865	36.01
240.083	-41.81
240.3	38.06
240.517	48.3
240.735	-33.62
240.952	126.12
241.169	38.06
241.386	38.06
241.603	31.91
241.821	-78.68
242.038	17.58
242.255	134.31
242.472	-33.62
242.689	101.55
242.907	33.96
243.124	27.82
243.341	27.82
243.558	-35.67
243.775	23.72
243.992	64.68
244.209	3.24
244.426	152.74
244.643	-4.95
244.86	48.3
245.078	-2.9
245.295	-2.9
245.512	7.34
245.729	9.39
245.946	27.82
246.163	62.63
246.38	79.02
246.597	36.01
246.814	52.39
247.031	60.59
247.248	19.63
247.464	58.54
247.681	50.35
247.898	7.34
248.115	5.29
248.332	-2.9
248.549	36.01
248.766	33.96
248.983	91.31
249.2	29.87
249.417	103.59
249.633	27.82
249.85	56.49
250.067	19.63
250.284	76.97
250.501	36.01
250.717	103.59
250.934	-25.43
251.151	-4.95
251.368	93.35
251.585	62.63
251.801	-15.19
252.018	-21.33
252.235	83.11
252.451	11.43
252.668	-13.14
252.885	66.73
253.102	42.15
253.318	42.15
253.535	81.07
253.752	27.82
253.968	11.43
254.185	-11.09
254.401	52.39
254.618	85.16
254.835	38.06
255.051	85.16
255.268	81.07
255.484	52.39
255.701	11.43
255.917	83.11
256.134	-19.29
256.351	-9.05
256.567	11.43
256.784	79.02
257	11.43
257.217	5.29
257.433	21.67
257.65	64.68
257.866	-11.09
258.082	23.72
258.299	52.39
258.515	89.26
258.732	103.59
258.948	13.48
259.165	60.59
259.381	70.83
259.597	1.19
259.814	11.43
260.03	68.78
260.246	-39.76
260.463	85.16
260.679	62.63
260.895	-35.67
261.112	-19.29
261.328	-37.72
261.544	-60.24
261.761	134.31
261.977	19.63
262.193	38.06
262.409	11.43
262.626	64.68
262.842	64.68
263.058	62.63
263.274	5.29
263.49	79.02
263.707	9.39
263.923	11.43
264.139	7.34
264.355	36.01
264.571	21.67
264.787	27.82
265.004	21.67
265.22	87.21
265.436	36.01
265.652	-21.33
265.868	-0.85
266.084	42.15
266.3	109.74
266.516	-13.14
266.732	48.3
266.948	81.07
267.164	72.87
267.38	7.34
267.596	93.35
267.812	64.68
268.028	33.96
268.244	56.49
268.46	38.06
268.676	70.83
268.892	23.72
269.108	29.87
269.324	72.87
269.54	33.96
269.756	83.11
269.972	-52.05
270.188	64.68
270.403	-41.81
270.619	21.67
270.835	31.91
271.051	-23.38
271.267	-9.05
271.483	117.93
271.698	19.63
271.914	46.25
272.13	40.11
272.346	76.97
272.562	72.87
272.777	109.74
272.993	70.83
273.209	13.48
273.425	44.2
273.64	11.43
273.856	54.44
274.072	52.39
274.287	-4.95
274.503	105.64
274.719	48.3
274.934	5.29
275.15	-64.34
275.366	29.87
275.581	27.82
275.797	50.35
276.012	103.59
276.228	27.82
276.444	27.82
276.659	36.01
276.875	5.29
277.09	23.72
277.306	19.63
277.521	76.97
277.737	11.43
277.952	101.55
278.168	95.4
278.383	-0.85
278.599	68.78
278.814	44.2
279.03	38.06
279.245	68.78
279.461	-19.29
279.676	11.43
279.892	-9.05
280.107	54.44
280.322	-17.24
280.538	52.39
280.753	44.2
280.969	3.24
281.184	19.63
281.399	13.48
281.615	52.39
281.83	160.94
282.045	15.53
282.26	-4.95
282.476	23.72
282.691	23.72
282.906	9.39
283.122	40.11
283.337	46.25
283.552	79.02
283.767	38.06
283.983	46.25
284.198	42.15
284.413	40.11
284.628	-54.1
284.843	56.49
285.058	70.83
285.274	31.91
285.489	-33.62
285.704	29.87
285.919	19.63
286.134	60.59
286.349	-0.85
286.564	33.96
286.779	113.83
286.995	64.68
287.21	-13.14
287.425	27.82
287.64	-43.86
287.855	62.63
288.07	-4.95
288.285	142.5
288.5	13.48
288.715	76.97
288.93	81.07
289.145	46.25
289.36	31.91
289.575	-13.14
289.79	56.49
290.004	52.39
290.219	29.87
290.434	-4.95
290.649	93.35
290.864	36.01
291.079	40.11
291.294	31.91
291.509	13.48
291.724	36.01
291.938	-50
292.153	36.01
292.368	60.59
292.583	7.34
292.798	19.63
293.012	52.39
293.227	3.24
293.442	62.63
293.657	95.4
293.871	40.11
294.086	54.44
294.301	56.49
294.516	56.49
294.73	103.59
294.945	79.02
295.16	68.78
295.374	117.93
295.589	60.59
295.804	46.25
296.018	-50
296.233	33.96
296.447	19.63
296.662	-31.57
296.877	19.63
297.091	-17.24
297.306	40.11
297.52	62.63
297.735	46.25
297.949	68.78
298.164	60.59
298.378	44.2
298.593	19.63
298.807	5.29
299.022	-43.86
299.236	111.78
299.451	-0.85
299.665	9.39
299.88	64.68
300.094	7.34
300.309	36.01
300.523	42.15
300.737	7.34
300.952	23.72
301.166	56.49
301.381	-25.43
301.595	3.24
301.809	11.43
302.024	21.67
302.238	46.25
302.452	48.3
302.667	25.77
302.881	46.25
303.095	42.15
303.309	31.91
303.524	-33.62
303.738	11.43
303.952	-25.43
304.166	101.55
304.381	-29.52
304.595	29.87
304.809	7.34
305.023	64.68
305.237	-13.14
305.452	44.2
305.666	60.59
305.88	46.25
306.094	-11.09
306.308	3.24
306.522	62.63
306.736	11.43
306.95	122.02
307.164	-62.29
307.379	21.67
307.593	109.74
307.807	50.35
308.021	38.06
308.235	68.78
308.449	-11.09
308.663	-2.9
308.877	109.74
309.091	-7
309.305	29.87
309.519	-4.95
309.733	101.55
309.947	-11.09
310.161	85.16
310.374	70.83
310.588	122.02
310.802	-17.24
311.016	15.53
311.23	21.67
311.444	-62.29
311.658	44.2
311.872	60.59
312.085	111.78
312.299	76.97
312.513	103.59
312.727	19.63
312.941	-37.72
313.154	101.55
313.368	5.29
313.582	66.73
313.796	48.3
314.009	52.39
314.223	46.25
314.437	58.54
314.651	9.39
314.864	21.67
315.078	42.15
315.292	68.78
315.505	68.78
315.719	85.16
315.933	27.82
316.146	68.78
316.36	-27.48
316.573	11.43
316.787	23.72
317.001	130.22
317.214	-21.33
317.428	11.43
317.641	52.39
317.855	-4.95
318.068	-4.95
318.282	93.35
318.495	126.12
318.709	99.5
318.922	15.53
319.136	-4.95
319.349	74.92
319.563	60.59
319.776	60.59
319.99	76.97
320.203	62.63
320.417	15.53
320.63	44.2
320.843	119.98
321.057	15.53
321.27	97.45
321.483	50.35
321.697	109.74
321.91	19.63
322.124	19.63
322.337	-2.9
322.55	-4.95
322.763	27.82
322.977	44.2
323.19	50.35
323.403	27.82
323.617	40.11
323.83	93.35
324.043	-4.95
324.256	3.24
324.469	25.77
324.683	87.21
324.896	29.87
325.109	60.59
325.322	-11.09
325.535	68.78
325.748	76.97
325.962	44.2
326.175	40.11
326.388	99.5
326.601	95.4
326.814	36.01
327.027	-2.9
327.24	177.32
327.453	13.48
327.666	101.55
327.879	126.12
328.092	70.83
328.305	36.01
328.518	79.02
328.731	56.49
328.944	-45.91
329.157	-47.96
329.37	-31.57
329.583	136.36
329.796	76.97
330.009	-15.19
330.222	117.93
330.435	103.59
330.648	70.83
330.861	85.16
331.073	36.01
331.286	130.22
331.499	19.63
331.712	5.29
331.925	44.2
332.138	-15.19
332.35	36.01
332.563	-9.05
332.776	95.4
332.989	70.83
333.202	-33.62
333.414	46.25
333.627	3.24
333.84	23.72
334.053	74.92
334.265	85.16
334.478	60.59
334.691	52.39
334.903	31.91
335.116	72.87
335.329	36.01
335.541	29.87
335.754	93.35
335.966	89.26
336.179	27.82
336.392	7.34
336.604	95.4
336.817	64.68
337.029	19.63
337.242	11.43
337.454	68.78
337.667	-13.14
337.88	117.93
338.092	81.07
338.305	40.11
338.517	23.72
338.729	93.35
338.942	56.49
339.154	-7
339.367	48.3
339.579	44.2
339.792	11.43
340.004	97.45
340.217	44.2
340.429	95.4
340.641	-35.67
340.854	64.68
341.066	-13.14
341.278	-35.67
341.491	119.98
341.703	68.78
341.915	3.24
342.128	103.59
342.34	66.73
342.552	85.16
342.764	27.82
342.977	33.96
343.189	-19.29
343.401	107.69
343.613	-29.52
343.826	68.78
344.038	44.2
344.25	93.35
344.462	38.06
344.674	44.2
344.886	21.67
345.099	19.63
345.311	60.59
345.523	62.63
345.735	11.43
345.947	60.59
346.159	60.59
346.371	-9.05
346.583	76.97
346.795	93.35
347.007	56.49
347.219	68.78
347.431	122.02
347.643	99.5
347.855	36.01
348.067	56.49
348.279	-70.48
348.491	46.25
348.703	-13.14
348.915	60.59
349.127	-4.95
349.339	29.87
349.551	52.39
349.763	-2.9
349.975	52.39
350.187	36.01
350.399	15.53
350.61	70.83
350.822	13.48
351.034	42.15
351.246	62.63
351.458	36.01
351.669	54.44
351.881	97.45
352.093	62.63
352.305	119.98
352.517	-37.72
352.728	79.02
352.94	27.82
353.152	19.63
353.363	-25.43
353.575	95.4
353.787	81.07
353.999	38.06
354.21	36.01
354.422	-13.14
354.633	-2.9
354.845	-33.62
355.057	85.16
355.268	29.87
355.48	29.87
355.692	64.68
355.903	38.06
356.115	31.91
356.326	23.72
356.538	107.69
356.749	-11.09
356.961	36.01
357.172	11.43
357.384	48.3
357.595	62.63
357.807	36.01
358.018	81.07
358.23	50.35
358.441	154.79
358.653	52.39
358.864	3.24
359.075	91.31
359.287	56.49
359.498	85.16
359.709	99.5
359.921	175.27
360.132	56.49
360.344	95.4
360.555	33.96
360.766	11.43
360.977	-2.9
361.189	40.11
361.4	29.87
361.611	126.12
361.823	126.12
362.034	85.16
362.245	-15.19
362.456	109.74
362.667	58.54
362.879	29.87
363.09	44.2
363.301	40.11
363.512	40.11
363.723	19.63
363.935	95.4
364.146	93.35
364.357	62.63
364.568	76.97
364.779	44.2
364.99	50.35
365.201	-4.95
365.412	7.34
365.623	15.53
365.834	81.07
366.045	60.59
366.256	81.07
366.467	52.39
366.678	68.78
366.889	68.78
367.1	64.68
367.311	160.94
367.522	44.2
367.733	62.63
367.944	70.83
368.155	76.97
368.366	117.93
368.577	-15.19
368.788	62.63
368.999	-15.19
369.209	76.97
369.42	109.74
369.631	119.98
369.842	56.49
370.053	85.16
370.264	97.45
370.474	60.59
370.685	-21.33
370.896	46.25
371.107	117.93
371.317	85.16
371.528	36.01
371.739	70.83
371.95	62.63
372.16	130.22
372.371	-11.09
372.582	38.06
372.792	-11.09
373.003	64.68
373.214	50.35
373.424	87.21
373.635	54.44
373.846	132.26
374.056	27.82
374.267	60.59
374.477	13.48
374.688	5.29
374.898	33.96
375.109	70.83
375.319	40.11
375.53	87.21
375.74	85.16
375.951	46.25
376.161	83.11
376.372	60.59
376.582	19.63
376.793	40.11
377.003	33.96
377.214	-37.72
377.424	144.55
377.635	13.48
377.845	15.53
378.055	183.46
378.266	11.43
378.476	17.58
378.686	70.83
378.897	48.3
379.107	23.72
379.317	68.78
379.528	36.01
379.738	85.16
379.948	9.39
380.158	79.02
380.369	52.39
380.579	144.55
380.789	103.59
380.999	38.06
381.21	97.45
381.42	138.41
381.63	-4.95
381.84	146.6
382.05	36.01
382.261	111.78
382.471	134.31
382.681	68.78
382.891	109.74
383.101	60.59
383.311	9.39
383.521	40.11
383.731	115.88
383.941	56.49
384.151	40.11
384.361	85.16
384.571	97.45
384.781	21.67
384.991	79.02
385.201	165.03
385.411	146.6
385.621	101.55
385.831	83.11
386.041	68.78
386.251	52.39
386.461	134.31
386.671	-29.52
386.881	169.13
387.091	50.35
387.301	101.55
387.511	74.92
387.72	111.78
387.93	109.74
388.14	76.97
388.35	85.16
388.56	40.11
388.769	95.4
388.979	101.55
389.189	76.97
389.399	122.02
389.609	21.67
389.818	29.87
390.028	68.78
390.238	124.07
390.447	154.79
390.657	11.43
390.867	44.2
391.076	72.87
391.286	179.37
391.496	62.63
391.705	48.3
391.915	48.3
392.125	95.4
392.334	-17.24
392.544	144.55
392.753	85.16
392.963	29.87
393.172	44.2
393.382	68.78
393.591	216.23
393.801	74.92
394.01	126.12
394.22	89.26
394.429	76.97
394.639	72.87
394.848	85.16
395.058	97.45
395.267	66.73
395.477	93.35
395.686	152.74
395.895	117.93
396.105	148.65
396.314	154.79
396.524	124.07
396.733	101.55
396.942	126.12
397.152	64.68
397.361	56.49
397.57	27.82
397.78	167.08
397.989	107.69
398.198	212.14
398.407	113.83
398.617	117.93
398.826	66.73
399.035	158.89
399.244	165.03
399.453	56.49
399.663	113.83
399.872	46.25
400.081	76.97
400.29	144.55
400.499	27.82
400.708	251.05
400.917	150.7
401.127	158.89
401.336	105.64
401.545	167.08
401.754	175.27
401.963	160.94
402.172	122.02
402.381	130.22
402.59	158.89
402.799	144.55
403.008	234.66
403.217	183.46
403.426	134.31
403.635	56.49
403.844	173.22
404.053	136.36
404.262	203.94
404.471	240.81
404.68	214.18
404.888	158.89
405.097	169.13
405.306	251.05
405.515	208.04
405.724	175.27
405.933	259.24
406.142	208.04
406.35	279.72
406.559	183.46
406.768	203.94
406.977	205.99
407.185	283.81
407.394	261.29
407.603	281.77
407.812	273.57
408.02	298.15
408.229	289.96
408.438	249
408.646	273.57
408.855	285.86
409.064	316.58
409.272	281.77
409.481	341.16
409.69	289.96
409.898	339.11
410.107	320.68
410.315	464.04
410.524	330.92
410.733	365.73
410.941	359.59
411.15	457.89
411.358	406.69
411.567	507.04
411.775	511.14
411.984	414.88
412.192	474.28
412.401	564.39
412.609	566.43
412.818	617.63
413.026	601.25
413.234	619.68
413.443	543.91
413.651	595.11
413.86	644.26
414.068	691.36
414.276	773.28
414.485	709.79
414.693	752.8
414.901	814.24
415.11	777.37
415.318	834.72
415.526	773.28
415.734	920.73
415.943	959.64
416.151	986.27
416.359	933.02
416.567	1021.08
416.776	1084.57
416.984	1084.57
417.192	1092.76
417.4	1158.3
417.608	1164.44
417.817	1203.35
418.025	1248.41
418.233	1266.84
418.441	1350.81
418.649	1354.9
418.857	1420.44
419.065	1567.89
419.273	1584.27
419.481	1518.74
419.689	1701.01
419.897	1731.73
420.105	1866.89
420.313	1905.81
420.521	1907.85
420.729	1952.91
420.937	2006.16
421.145	2002.06
421.353	2239.62
421.561	2276.49
421.769	2266.25
421.977	2360.45
422.185	2395.27
422.393	2591.88
422.601	2698.37
422.809	2823.3
423.017	2751.62
423.224	2878.59
423.432	3071.1
423.64	2978.94
423.848	3429.49
424.056	3167.35
424.263	3411.06
424.471	3417.21
424.679	3468.41
424.887	3574.9
425.094	3687.54
425.302	3902.58
425.51	3832.94
425.718	3972.21
425.925	4107.37
426.133	4148.33
426.341	4406.38
426.548	4576.36
426.756	4617.32
426.964	4643.94
427.171	4959.33
427.379	4998.24
427.586	5110.88
427.794	5235.8
428.001	5665.88
428.209	5850.19
428.417	5676.12
428.624	6081.61
428.832	6179.92
429.039	5950.54
429.247	6018.13
429.454	6794.31
429.662	7091.26
429.869	6566.98
430.076	7046.21
430.284	6847.55
430.491	7349.31
430.699	7486.52
430.906	7638.07
431.114	7724.08
431.321	7984.18
431.528	7951.41
431.736	8709.16
431.943	8971.3
432.15	8637.48
432.358	8842.28
432.565	9380.89
432.772	9069.6
432.979	9729.05
433.187	9903.12
433.394	9948.18
433.601	10720.26
433.808	10613.77
434.016	10415.12
434.223	11115.52
434.43	11676.66
434.637	11342.85
434.844	12481.52
435.052	12428.27
435.259	12301.29
435.466	12481.52
435.673	12321.77
435.88	12860.39
436.087	13814.74
436.294	13685.72
436.501	13310.94
436.708	13894.61
436.915	14183.38
437.122	14896.07
437.329	14963.65
437.537	15246.27
437.743	15512.51
437.95	15023.05
438.157	16319.41
438.364	16692.14
438.571	16608.17
438.778	16651.18
438.985	18336.66
439.192	17449.89
439.399	18107.29
439.606	17607.58
439.813	18758.54
440.02	19622.78
440.227	19553.15
440.433	19223.43
440.64	20018.04
440.847	19401.6
441.054	20173.69
441.261	21609.31
441.467	21085.03
441.674	21588.83
441.881	22471.51
442.088	22381.4
442.294	21949.28
442.501	22870.86
442.708	23032.65
442.914	24122.17
443.121	25101.1
443.328	24378.17
443.534	26346.26
443.741	25611.04
443.948	24980.27
444.154	26686.23
444.361	26614.55
444.568	26839.83
444.774	26723.09
444.981	27067.15
445.187	27949.82
445.394	29184.75
445.6	28629.75
445.807	31621.83
446.013	30495.45
446.22	30728.92
446.426	31826.63
446.633	32406.2
446.839	33079.99
447.046	32035.52
447.252	34011.81
447.459	33712.81
447.665	33389.23
447.871	34728.6
448.078	36520.57
448.284	34767.51
448.491	35568.27
448.697	36817.53
448.903	37741.16
449.11	37657.2
449.316	37073.52
449.522	37724.78
449.728	38746.72
449.935	38912.6
450.141	39053.91
450.347	39969.35
450.553	38947.42
450.76	39352.91
450.966	40583.74
451.172	40000.07
451.378	40856.12
451.584	40120.9
451.791	41198.13
451.997	40962.62
452.203	41433.65
452.409	41548.34
452.615	41646.64
452.821	39727.69
453.027	39494.22
453.233	41828.91
453.44	40012.36
453.646	40372.8
453.852	40964.67
454.058	40817.21
454.264	39721.55
454.47	40813.12
454.676	39770.7
454.882	41132.6
455.088	37331.57
455.294	38132.32
455.5	38656.6
455.705	38918.74
455.911	37200.5
456.117	36643.45
456.323	36424.32
456.529	34230.94
456.735	35740.3
456.941	34783.9
457.147	34343.58
457.352	33010.35
457.558	32768.69
457.764	32793.27
457.97	31869.64
458.176	31812.29
458.381	31916.74
458.587	30063.33
458.793	29850.34
458.999	28502.78
459.204	30358.24
459.41	29416.17
459.616	27589.38
459.821	27607.81
460.027	27749.12
460.233	26796.82
460.438	25891.62
460.644	26016.54
460.85	24574.77
461.055	24099.64
461.261	24025.92
461.466	22303.57
461.672	21785.44
461.878	23382.85
462.083	21496.67
462.289	21082.98
462.494	21414.76
462.7	20345.72
462.905	19501.95
463.111	20265.85
463.316	20566.9
463.522	19743.61
463.727	19784.57
463.932	19852.16
464.138	19755.9
464.343	19800.96
464.549	19037.06
464.754	19872.64
464.959	19460.99
465.165	19495.81
465.37	18437.01
465.575	18131.86
465.781	18928.52
465.986	18813.84
466.191	18174.87
466.397	17755.04
466.602	16931.75
