Data from USB4F104151__76__14-30-29-323.txt Node

Date: Thu Mar 13 14:30:29 EDT 2025
User: louis
Spectrometer: USB4F10415
Trigger mode: 4
Integration Time (sec): 2.500000E-2
Scans to average: 1
Electric dark correction enabled: true
Nonlinearity correction enabled: false
Boxcar width: 0
XAxis mode: Wavelengths
Number of Pixels in Spectrum: 3648
>>>>>Begin Spectral Data<<<<<
178.204	-65.88
178.424	-65.88
178.644	-65.88
178.864	-98.64
179.084	-131.41
179.304	34.47
179.524	-45.4
179.744	-14.68
179.964	7.85
180.184	100.01
180.404	11.95
180.624	-6.49
180.844	11.95
181.064	-47.44
181.283	-39.25
181.503	-20.82
181.723	7.85
181.943	18.09
182.163	130.73
182.383	34.47
182.602	71.34
182.822	118.44
183.042	102.06
183.262	1.71
183.482	18.09
183.701	-12.63
183.921	22.19
184.141	52.91
184.361	87.72
184.58	-10.58
184.8	116.39
185.02	61.1
185.239	61.1
185.459	-33.11
185.679	112.3
185.898	11.95
186.118	20.14
186.338	5.8
186.557	102.06
186.777	9.9
186.997	-6.49
187.216	-31.06
187.436	89.77
187.655	122.54
187.875	9.9
188.095	40.62
188.314	54.95
188.534	38.57
188.753	91.82
188.973	69.29
189.192	83.63
189.412	69.29
189.631	34.47
189.851	71.34
190.07	79.53
190.29	-31.06
190.509	3.75
190.729	79.53
190.948	73.39
191.168	136.87
191.387	79.53
191.607	11.95
191.826	83.63
192.045	22.19
192.265	81.58
192.484	83.63
192.704	-31.06
192.923	26.28
193.142	128.68
193.362	9.9
193.581	100.01
193.8	95.91
194.02	79.53
194.239	34.47
194.458	77.48
194.678	1.71
194.897	59.05
195.116	42.67
195.335	75.43
195.555	52.91
195.774	67.24
195.993	79.53
196.212	13.99
196.432	32.43
196.651	83.63
196.87	36.52
197.089	118.44
197.308	46.76
197.528	42.67
197.747	-49.49
197.966	-14.68
198.185	26.28
198.404	67.24
198.623	116.39
198.842	42.67
199.062	59.05
199.281	114.34
199.5	30.38
199.719	3.75
199.938	132.78
200.157	151.21
200.376	24.23
200.595	30.38
200.814	112.3
201.033	18.09
201.252	-14.68
201.471	30.38
201.69	85.67
201.909	122.54
202.128	71.34
202.347	75.43
202.566	20.14
202.785	26.28
203.004	-63.83
203.223	126.63
203.442	108.2
203.661	42.67
203.879	149.16
204.098	75.43
204.317	34.47
204.536	30.38
204.755	34.47
204.974	54.95
205.193	52.91
205.411	110.25
205.63	83.63
205.849	9.9
206.068	112.3
206.287	151.21
206.505	93.87
206.724	11.95
206.943	79.53
207.162	-2.39
207.381	28.33
207.599	11.95
207.818	-18.77
208.037	61.1
208.255	11.95
208.474	100.01
208.693	59.05
208.911	85.67
209.13	61.1
209.349	-18.77
209.567	63.15
209.786	26.28
210.005	9.9
210.223	69.29
210.442	-18.77
210.661	-0.34
210.879	69.29
211.098	-16.73
211.316	69.29
211.535	91.82
211.753	71.34
211.972	79.53
212.191	61.1
212.409	-4.44
212.628	1.71
212.846	20.14
213.065	9.9
213.283	67.24
213.502	20.14
213.72	54.95
213.938	5.8
214.157	48.81
214.375	67.24
214.594	46.76
214.812	77.48
215.031	-14.68
215.249	42.67
215.467	26.28
215.686	28.33
215.904	134.82
216.122	77.48
216.341	81.58
216.559	-63.83
216.778	93.87
216.996	63.15
217.214	95.91
217.432	5.8
217.651	13.99
217.869	83.63
218.087	5.8
218.306	28.33
218.524	48.81
218.742	75.43
218.96	136.87
219.179	71.34
219.397	50.86
219.615	57
219.833	57
220.051	44.71
220.27	118.44
220.488	128.68
220.706	40.62
220.924	-6.49
221.142	83.63
221.36	38.57
221.578	28.33
221.796	-6.49
222.015	18.09
222.233	30.38
222.451	120.49
222.669	5.8
222.887	118.44
223.105	30.38
223.323	102.06
223.541	-61.78
223.759	63.15
223.977	46.76
224.195	77.48
224.413	52.91
224.631	7.85
224.849	-31.06
225.067	104.11
225.285	11.95
225.503	44.71
225.721	-18.77
225.939	13.99
226.157	26.28
226.375	120.49
226.592	11.95
226.81	50.86
227.028	69.29
227.246	108.2
227.464	40.62
227.682	52.91
227.9	116.39
228.117	20.14
228.335	57
228.553	18.09
228.771	34.47
228.989	-39.25
229.206	42.67
229.424	32.43
229.642	52.91
229.86	34.47
230.077	110.25
230.295	1.71
230.513	116.39
230.731	67.24
230.948	52.91
231.166	110.25
231.384	36.52
231.601	34.47
231.819	120.49
232.037	9.9
232.254	28.33
232.472	71.34
232.689	16.04
232.907	50.86
233.125	34.47
233.342	11.95
233.56	-53.59
233.777	9.9
233.995	71.34
234.213	85.67
234.43	-31.06
234.648	9.9
234.865	46.76
235.083	97.96
235.3	100.01
235.518	77.48
235.735	71.34
235.953	124.58
236.17	38.57
236.388	59.05
236.605	32.43
236.822	44.71
237.04	85.67
237.257	40.62
237.475	114.34
237.692	118.44
237.909	173.74
238.127	9.9
238.344	52.91
238.562	36.52
238.779	22.19
238.996	9.9
239.214	75.43
239.431	140.97
239.648	26.28
239.865	46.76
240.083	124.58
240.3	20.14
240.517	18.09
240.735	108.2
240.952	81.58
241.169	46.76
241.386	-14.68
241.603	132.78
241.821	-29.01
242.038	104.11
242.255	50.86
242.472	91.82
242.689	1.71
242.907	75.43
243.124	61.1
243.341	-67.92
243.558	1.71
243.775	42.67
243.992	-6.49
244.209	79.53
244.426	202.41
244.643	7.85
244.86	-0.34
245.078	110.25
245.295	-47.44
245.512	157.35
245.729	32.43
245.946	91.82
246.163	11.95
246.38	95.91
246.597	30.38
246.814	77.48
247.031	28.33
247.248	24.23
247.464	65.19
247.681	1.71
247.898	18.09
248.115	40.62
248.332	-6.49
248.549	118.44
248.766	50.86
248.983	42.67
249.2	18.09
249.417	83.63
249.633	77.48
249.85	52.91
250.067	30.38
250.284	-18.77
250.501	75.43
250.717	42.67
250.934	-18.77
251.151	40.62
251.368	59.05
251.585	34.47
251.801	91.82
252.018	69.29
252.235	87.72
252.451	-53.59
252.668	-10.58
252.885	48.81
253.102	1.71
253.318	-10.58
253.535	112.3
253.752	67.24
253.968	-4.44
254.185	91.82
254.401	44.71
254.618	155.3
254.835	52.91
255.051	30.38
255.268	16.04
255.484	106.15
255.701	18.09
255.917	59.05
256.134	18.09
256.351	59.05
256.567	-2.39
256.784	22.19
257	38.57
257.217	59.05
257.433	42.67
257.65	-6.49
257.866	44.71
258.082	63.15
258.299	-2.39
258.515	93.87
258.732	20.14
258.948	20.14
259.165	67.24
259.381	57
259.597	65.19
259.814	50.86
260.03	65.19
260.246	24.23
260.463	69.29
260.679	1.71
260.895	54.95
261.112	75.43
261.328	1.71
261.544	24.23
261.761	93.87
261.977	11.95
262.193	34.47
262.409	34.47
262.626	93.87
262.842	91.82
263.058	42.67
263.274	-6.49
263.49	83.63
263.707	75.43
263.923	34.47
264.139	-20.82
264.355	-6.49
264.571	59.05
264.787	59.05
265.004	120.49
265.22	11.95
265.436	9.9
265.652	-10.58
265.868	110.25
266.084	-2.39
266.3	26.28
266.516	-18.77
266.732	91.82
266.948	20.14
267.164	75.43
267.38	13.99
267.596	91.82
267.812	181.93
268.028	59.05
268.244	71.34
268.46	52.91
268.676	97.96
268.892	18.09
269.108	34.47
269.324	63.15
269.54	38.57
269.756	100.01
269.972	-31.06
270.188	28.33
270.403	9.9
270.619	-47.44
270.835	-0.34
271.051	-20.82
271.267	40.62
271.483	85.67
271.698	120.49
271.914	71.34
272.13	18.09
272.346	9.9
272.562	59.05
272.777	71.34
272.993	-4.44
273.209	85.67
273.425	71.34
273.64	-2.39
273.856	63.15
274.072	83.63
274.287	57
274.503	77.48
274.719	5.8
274.934	34.47
275.15	-53.59
275.366	20.14
275.581	34.47
275.797	9.9
276.012	30.38
276.228	52.91
276.444	50.86
276.659	52.91
276.875	-31.06
277.09	22.19
277.306	16.04
277.521	-6.49
277.737	34.47
277.952	42.67
278.168	75.43
278.383	30.38
278.599	-4.44
278.814	97.96
279.03	57
279.245	83.63
279.461	1.71
279.676	75.43
279.892	5.8
280.107	38.57
280.322	3.75
280.538	97.96
280.753	71.34
280.969	75.43
281.184	42.67
281.399	177.83
281.615	1.71
281.83	83.63
282.045	73.39
282.26	91.82
282.476	1.71
282.691	149.16
282.906	1.71
283.122	59.05
283.337	-0.34
283.552	73.39
283.767	-12.63
283.983	102.06
284.198	38.57
284.413	134.82
284.628	9.9
284.843	93.87
285.058	79.53
285.274	67.24
285.489	48.81
285.704	108.2
285.919	67.24
286.134	34.47
286.349	9.9
286.564	24.23
286.779	59.05
286.995	100.01
287.21	28.33
287.425	65.19
287.64	38.57
287.855	108.2
288.07	100.01
288.285	106.15
288.5	95.91
288.715	67.24
288.93	73.39
289.145	42.67
289.36	9.9
289.575	67.24
289.79	108.2
290.004	-10.58
290.219	63.15
290.434	36.52
290.649	100.01
290.864	63.15
291.079	85.67
291.294	67.24
291.509	75.43
291.724	11.95
291.938	-2.39
292.153	104.11
292.368	3.75
292.583	87.72
292.798	59.05
293.012	-4.44
293.227	67.24
293.442	34.47
293.657	81.58
293.871	140.97
294.086	-31.06
294.301	136.87
294.516	54.95
294.73	73.39
294.945	-6.49
295.16	38.57
295.374	65.19
295.589	118.44
295.804	59.05
296.018	75.43
296.233	124.58
296.447	9.9
296.662	9.9
296.877	24.23
297.091	50.86
297.306	77.48
297.52	36.52
297.735	34.47
297.949	9.9
298.164	28.33
298.378	16.04
298.593	85.67
298.807	67.24
299.022	48.81
299.236	-41.3
299.451	77.48
299.665	67.24
299.88	83.63
300.094	65.19
300.309	52.91
300.523	42.67
300.737	24.23
300.952	63.15
301.166	114.34
301.381	16.04
301.595	91.82
301.809	36.52
302.024	5.8
302.238	20.14
302.452	40.62
302.667	71.34
302.881	116.39
303.095	40.62
303.309	67.24
303.524	13.99
303.738	124.58
303.952	128.68
304.166	75.43
304.381	26.28
304.595	91.82
304.809	30.38
305.023	100.01
305.237	5.8
305.452	83.63
305.666	34.47
305.88	9.9
306.094	104.11
306.308	48.81
306.522	67.24
306.736	110.25
306.95	30.38
307.164	116.39
307.379	65.19
307.593	75.43
307.807	132.78
308.021	102.06
308.235	110.25
308.449	-22.87
308.663	26.28
308.877	134.82
309.091	16.04
309.305	100.01
309.519	-6.49
309.733	34.47
309.947	13.99
310.161	73.39
310.374	57
310.588	79.53
310.802	-16.73
311.016	59.05
311.23	48.81
311.444	87.72
311.658	85.67
311.872	54.95
312.085	69.29
312.299	151.21
312.513	151.21
312.727	34.47
312.941	22.19
313.154	75.43
313.368	112.3
313.582	140.97
313.796	22.19
314.009	95.91
314.223	-4.44
314.437	95.91
314.651	140.97
314.864	69.29
315.078	26.28
315.292	38.57
315.505	143.02
315.719	75.43
315.933	106.15
316.146	67.24
316.36	71.34
316.573	106.15
316.787	81.58
317.001	59.05
317.214	26.28
317.428	91.82
317.641	26.28
317.855	40.62
318.068	18.09
318.282	79.53
318.495	67.24
318.709	100.01
318.922	44.71
319.136	102.06
319.349	20.14
319.563	34.47
319.776	95.91
319.99	102.06
320.203	20.14
320.417	11.95
320.63	67.24
320.843	81.58
321.057	52.91
321.27	48.81
321.483	75.43
321.697	110.25
321.91	20.14
322.124	108.2
322.337	75.43
322.55	34.47
322.763	18.09
322.977	40.62
323.19	24.23
323.403	77.48
323.617	87.72
323.83	100.01
324.043	75.43
324.256	18.09
324.469	22.19
324.683	52.91
324.896	5.8
325.109	28.33
325.322	61.1
325.535	67.24
325.748	67.24
325.962	63.15
326.175	108.2
326.388	75.43
326.601	108.2
326.814	32.43
327.027	59.05
327.24	136.87
327.453	3.75
327.666	108.2
327.879	100.01
328.092	63.15
328.305	75.43
328.518	50.86
328.731	-20.82
328.944	-12.63
329.157	-51.54
329.37	34.47
329.583	44.71
329.796	124.58
330.009	5.8
330.222	61.1
330.435	100.01
330.648	108.2
330.861	42.67
331.073	77.48
331.286	104.11
331.499	54.95
331.712	87.72
331.925	83.63
332.138	116.39
332.35	85.67
332.563	95.91
332.776	83.63
332.989	-14.68
333.202	87.72
333.414	-6.49
333.627	67.24
333.84	38.57
334.053	42.67
334.265	28.33
334.478	44.71
334.691	30.38
334.903	9.9
335.116	-24.92
335.329	-12.63
335.541	63.15
335.754	108.2
335.966	71.34
336.179	38.57
336.392	44.71
336.604	83.63
336.817	116.39
337.029	61.1
337.242	46.76
337.454	67.24
337.667	75.43
337.88	59.05
338.092	71.34
338.305	91.82
338.517	124.58
338.729	100.01
338.942	87.72
339.154	87.72
339.367	-6.49
339.579	65.19
339.792	52.91
340.004	102.06
340.217	20.14
340.429	1.71
340.641	46.76
340.854	13.99
341.066	-16.73
341.278	87.72
341.491	65.19
341.703	44.71
341.915	61.1
342.128	75.43
342.34	67.24
342.552	22.19
342.764	85.67
342.977	50.86
343.189	3.75
343.401	67.24
343.613	42.67
343.826	71.34
344.038	18.09
344.25	11.95
344.462	38.57
344.674	67.24
344.886	73.39
345.099	100.01
345.311	75.43
345.523	67.24
345.735	-22.87
345.947	52.91
346.159	69.29
346.371	-8.53
346.583	69.29
346.795	124.58
347.007	-12.63
347.219	116.39
347.431	40.62
347.643	106.15
347.855	71.34
348.067	149.16
348.279	52.91
348.491	30.38
348.703	95.91
348.915	-6.49
349.127	69.29
349.339	87.72
349.551	44.71
349.763	61.1
349.975	18.09
350.187	-22.87
350.399	110.25
350.61	38.57
350.822	30.38
351.034	77.48
351.246	87.72
351.458	40.62
351.669	36.52
351.881	165.54
352.093	38.57
352.305	134.82
352.517	32.43
352.728	108.2
352.94	132.78
353.152	140.97
353.363	-29.01
353.575	124.58
353.787	124.58
353.999	38.57
354.21	128.68
354.422	52.91
354.633	30.38
354.845	52.91
355.057	85.67
355.268	40.62
355.48	149.16
355.692	75.43
355.903	93.87
356.115	3.75
356.326	77.48
356.538	159.4
356.749	69.29
356.961	-20.82
357.172	46.76
357.384	1.71
357.595	206.5
357.807	22.19
358.018	100.01
358.23	75.43
358.441	149.16
358.653	77.48
358.864	36.52
359.075	42.67
359.287	95.91
359.498	116.39
359.709	89.77
359.921	83.63
360.132	42.67
360.344	108.2
360.555	22.19
360.766	116.39
360.977	77.48
361.189	67.24
361.4	34.47
361.611	102.06
361.823	42.67
362.034	44.71
362.245	69.29
362.456	108.2
362.667	100.01
362.879	54.95
363.09	102.06
363.301	50.86
363.512	79.53
363.723	52.91
363.935	3.75
364.146	52.91
364.357	18.09
364.568	85.67
364.779	52.91
364.99	100.01
365.201	54.95
365.412	28.33
365.623	50.86
365.834	48.81
366.045	26.28
366.256	100.01
366.467	128.68
366.678	69.29
366.889	38.57
367.1	118.44
367.311	97.96
367.522	95.91
367.733	85.67
367.944	83.63
368.155	1.71
368.366	126.63
368.577	75.43
368.788	28.33
368.999	3.75
369.209	11.95
369.42	100.01
369.631	59.05
369.842	46.76
370.053	75.43
370.264	79.53
370.474	42.67
370.685	136.87
370.896	34.47
371.107	75.43
371.317	34.47
371.528	106.15
371.739	128.68
371.95	40.62
372.16	157.35
372.371	-18.77
372.582	71.34
372.792	26.28
373.003	67.24
373.214	71.34
373.424	5.8
373.635	75.43
373.846	52.91
374.056	34.47
374.267	83.63
374.477	48.81
374.688	26.28
374.898	30.38
375.109	79.53
375.319	100.01
375.53	81.58
375.74	67.24
375.951	116.39
376.161	85.67
376.372	54.95
376.582	-6.49
376.793	91.82
377.003	32.43
377.214	54.95
377.424	104.11
377.635	63.15
377.845	38.57
378.055	77.48
378.266	11.95
378.476	44.71
378.686	79.53
378.897	67.24
379.107	67.24
379.317	83.63
379.528	59.05
379.738	30.38
379.948	40.62
380.158	106.15
380.369	42.67
380.579	20.14
380.789	50.86
380.999	116.39
381.21	36.52
381.42	34.47
381.63	91.82
381.84	77.48
382.05	91.82
382.261	145.06
382.471	83.63
382.681	79.53
382.891	151.21
383.101	67.24
383.311	26.28
383.521	48.81
383.731	95.91
383.941	128.68
384.151	69.29
384.361	34.47
384.571	63.15
384.781	91.82
384.991	181.93
385.201	100.01
385.411	75.43
385.621	100.01
385.831	48.81
386.041	122.54
386.251	71.34
386.461	85.67
386.671	-4.44
386.881	63.15
387.091	79.53
387.301	124.58
387.511	104.11
387.72	83.63
387.93	120.49
388.14	42.67
388.35	69.29
388.56	147.11
388.769	100.01
388.979	83.63
389.189	59.05
389.399	44.71
389.609	118.44
389.818	85.67
390.028	124.58
390.238	46.76
390.447	110.25
390.657	93.87
390.867	-14.68
391.076	59.05
391.286	87.72
391.496	87.72
391.705	59.05
391.915	95.91
392.125	124.58
392.334	108.2
392.544	124.58
392.753	63.15
392.963	73.39
393.172	93.87
393.382	75.43
393.591	206.5
393.801	108.2
394.01	132.78
394.22	95.91
394.429	173.74
394.639	44.71
394.848	102.06
395.058	87.72
395.267	100.01
395.477	67.24
395.686	59.05
395.895	210.6
396.105	171.69
396.314	136.87
396.524	116.39
396.733	71.34
396.942	163.5
397.152	112.3
397.361	157.35
397.57	165.54
397.78	20.14
397.989	71.34
398.198	198.31
398.407	38.57
398.617	116.39
398.826	69.29
399.035	136.87
399.244	71.34
399.453	149.16
399.663	153.26
399.872	165.54
400.081	136.87
400.29	190.12
400.499	67.24
400.708	153.26
400.917	173.74
401.127	124.58
401.336	87.72
401.545	147.11
401.754	206.5
401.963	161.45
402.172	91.82
402.381	106.15
402.59	161.45
402.799	61.1
403.008	163.5
403.217	132.78
403.426	163.5
403.635	149.16
403.844	83.63
404.053	202.41
404.262	132.78
404.471	222.89
404.68	97.96
404.888	136.87
405.097	218.79
405.306	231.08
405.515	198.31
405.724	188.07
405.933	288.42
406.142	157.35
406.35	159.4
406.559	224.94
406.768	249.51
406.977	214.7
407.185	231.08
407.394	222.89
407.603	216.74
407.812	235.18
408.02	206.5
408.229	247.46
408.438	296.61
408.646	288.42
408.855	284.33
409.064	347.81
409.272	263.85
409.481	274.09
409.69	296.61
409.898	267.94
410.107	380.58
410.315	317.09
410.524	329.38
410.733	419.49
410.941	341.67
411.15	452.26
411.358	374.44
411.567	480.93
411.775	394.92
411.984	446.12
412.192	519.84
412.401	511.65
412.609	554.66
412.818	583.33
413.026	601.76
413.234	546.47
413.443	528.03
413.651	540.32
413.86	642.72
414.068	708.26
414.276	702.11
414.485	659.1
414.693	665.25
414.901	749.22
415.11	779.93
415.318	775.84
415.526	779.93
415.734	820.89
415.943	911
416.151	900.76
416.359	919.2
416.567	1013.4
416.776	904.86
416.984	1017.5
417.192	1119.9
417.4	1072.79
417.608	1072.79
417.817	1091.23
418.025	1197.72
418.233	1263.26
418.441	1259.16
418.649	1332.89
418.857	1414.81
419.065	1418.9
419.273	1318.55
419.481	1468.05
419.689	1476.24
419.897	1617.55
420.105	1705.62
420.313	1732.24
420.521	1707.66
420.729	1750.67
420.937	1851.02
421.145	1891.98
421.353	1926.8
421.561	2115.21
421.769	2027.15
421.977	2109.07
422.185	2172.55
422.393	2254.47
422.601	2463.37
422.809	2426.5
423.017	2332.3
423.224	2502.28
423.432	2692.74
423.64	2608.77
423.848	2928.25
424.056	2803.33
424.263	3081.85
424.471	3047.04
424.679	3245.69
424.887	3311.22
425.094	3348.09
425.302	3376.76
425.51	3329.66
425.718	3520.12
425.925	3602.04
426.133	3767.92
426.341	3976.81
426.548	4161.13
426.756	4179.56
426.964	4107.88
427.171	4490.85
427.379	4443.75
427.586	4656.74
427.794	4744.8
428.001	4982.37
428.209	5217.88
428.417	5195.36
428.624	5652.05
428.832	5494.36
429.039	5705.3
429.247	5490.26
429.454	6096.46
429.662	6415.94
429.869	5944.91
430.076	6377.03
430.284	6143.56
430.491	6530.63
430.699	6917.7
430.906	6889.03
431.114	6884.93
431.321	7196.22
431.528	7319.1
431.736	7808.56
431.943	8130.09
432.15	7792.18
432.358	7949.87
432.565	8336.94
432.772	8220.21
432.979	8703.53
433.187	8728.1
433.394	8996.39
433.601	9516.57
433.808	9580.06
434.016	9405.98
434.223	9842.2
434.43	10591.75
434.637	10251.79
434.844	10909.19
435.052	11202.05
435.259	11030.02
435.466	10995.2
435.673	10937.86
435.88	11587.07
436.087	12375.53
436.294	12232.18
436.501	12031.48
436.708	12330.48
436.915	12703.21
437.122	13137.38
437.329	13207.01
437.537	13587.93
437.743	14026.2
437.95	13727.19
438.157	14452.17
438.364	14906.82
438.571	14968.26
438.778	14837.19
438.985	16242.1
439.192	15650.24
439.399	16303.54
439.606	15451.58
439.813	16750
440.02	17765.79
440.227	17442.21
440.433	17313.19
440.64	18179.48
440.847	17497.5
441.054	18208.15
441.261	19320.2
441.467	19033.48
441.674	19369.35
441.881	20252.02
442.088	20104.57
442.294	19928.44
442.501	20366.71
442.708	21298.53
442.914	21534.05
443.121	22652.24
443.328	21960.03
443.534	23246.15
443.741	22578.51
443.948	22510.93
444.154	24337.72
444.361	24094.01
444.568	24102.2
444.774	24411.45
444.981	24423.73
445.187	24986.93
445.394	26254.62
445.6	26041.63
445.807	28394.75
446.013	27053.33
446.22	27415.82
446.426	28433.66
446.633	29041.9
446.839	29920.48
447.046	28597.49
447.252	30344.41
447.459	30016.74
447.665	30379.23
447.871	31243.47
448.078	32709.82
448.284	30876.88
448.491	31923.4
448.697	33563.82
448.903	34139.3
449.11	34288.8
449.316	33432.75
449.522	34022.56
449.728	34919.57
449.935	35140.75
450.141	35304.59
450.347	36140.16
450.553	34727.06
450.76	35372.17
450.966	36547.71
451.172	36017.29
451.378	37172.34
451.584	36490.37
451.791	37129.33
451.997	36832.38
452.203	37602.41
452.409	37602.41
452.615	37299.31
452.821	36050.05
453.027	35769.48
453.233	38128.74
453.44	36142.21
453.646	36580.48
453.852	36514.94
454.058	37305.46
454.264	36123.78
454.47	37196.92
454.676	36105.35
454.882	37284.98
455.088	33819.81
455.294	34247.84
455.5	34966.68
455.705	35495.05
455.911	33549.48
456.117	32978.1
456.323	32730.3
456.529	31020.24
456.735	32425.15
456.941	31309
457.147	30985.43
457.352	29938.91
457.558	29902.05
457.764	29877.47
457.97	29273.32
458.176	28357.88
458.381	28611.83
458.587	26883.34
458.793	27221.26
458.999	25664.8
459.204	27428.1
459.41	26785.04
459.616	24980.78
459.821	24878.38
460.027	24925.49
460.233	24231.22
460.438	23379.27
460.644	23397.7
460.85	22017.37
461.055	21929.31
461.261	21986.65
461.466	19993.98
461.672	19604.86
461.878	21206.38
462.083	19719.55
462.289	19191.17
462.494	19004.81
462.7	18060.7
462.905	17733.02
463.111	18185.62
463.316	18515.34
463.522	18011.54
463.727	17980.82
463.932	17921.43
464.138	17907.1
464.343	18032.02
464.549	17292.71
464.754	17657.25
464.959	17599.9
465.165	17333.67
465.37	16852.39
465.575	16532.91
465.781	17003.94
465.986	17190.31
466.191	16440.75
466.397	16127.41
466.602	15224.26
466.807	15584.7
