Data from USB4F104151__157__14-32-02-197.txt Node

Date: Thu Mar 13 14:32:02 EDT 2025
User: louis
Spectrometer: USB4F10415
Trigger mode: 4
Integration Time (sec): 2.500000E-2
Scans to average: 1
Electric dark correction enabled: true
Nonlinearity correction enabled: false
Boxcar width: 0
XAxis mode: Wavelengths
Number of Pixels in Spectrum: 3648
>>>>>Begin Spectral Data<<<<<
178.204	-135.68
178.424	-135.68
178.644	-135.68
178.864	-176.64
179.084	-123.39
179.304	-27.14
179.524	-8.7
179.744	85.5
179.964	-4.61
180.184	44.54
180.404	48.64
180.624	-39.42
180.844	-25.09
181.064	-37.38
181.283	-57.86
181.503	22.02
181.723	-0.51
181.943	-107.01
182.163	56.83
182.383	17.92
182.602	32.26
182.822	105.98
183.042	67.07
183.262	-45.57
183.482	40.45
183.701	32.26
183.921	93.69
184.141	-0.51
184.361	126.46
184.58	71.17
184.8	-41.47
185.02	48.64
185.239	60.93
185.459	103.93
185.679	52.74
185.898	-25.09
186.118	89.6
186.338	42.5
186.557	-25.09
186.777	-8.7
186.997	7.68
187.216	7.68
187.436	81.41
187.655	-39.42
187.875	69.12
188.095	44.54
188.314	85.5
188.534	132.61
188.753	-29.18
188.973	15.87
189.192	15.87
189.412	3.58
189.631	75.26
189.851	-8.7
190.07	56.83
190.29	56.83
190.509	1.54
190.729	30.21
190.948	34.3
191.168	148.99
191.387	48.64
191.607	19.97
191.826	11.78
192.045	-33.28
192.265	67.07
192.484	-31.23
192.704	99.84
192.923	-78.33
193.142	56.83
193.362	13.82
193.581	97.79
193.8	38.4
194.02	38.4
194.239	32.26
194.458	48.64
194.678	38.4
194.897	75.26
195.116	11.78
195.335	19.97
195.555	32.26
195.774	99.84
195.993	46.59
196.212	58.88
196.432	52.74
196.651	24.06
196.87	44.54
197.089	114.17
197.308	15.87
197.528	52.74
197.747	24.06
197.966	58.88
198.185	56.83
198.404	-8.7
198.623	15.87
198.842	130.56
199.062	36.35
199.281	56.83
199.5	-29.18
199.719	24.06
199.938	159.23
200.157	89.6
200.376	138.75
200.595	34.3
200.814	36.35
201.033	48.64
201.252	73.21
201.471	112.13
201.69	95.74
201.909	73.21
202.128	67.07
202.347	108.03
202.566	22.02
202.785	-0.51
203.004	22.02
203.223	179.71
203.442	22.02
203.661	38.4
203.879	40.45
204.098	52.74
204.317	24.06
204.536	9.73
204.755	3.58
204.974	81.41
205.193	9.73
205.411	116.22
205.63	77.31
205.849	-27.14
206.068	40.45
206.287	-23.04
206.505	108.03
206.724	-8.7
206.943	28.16
207.162	36.35
207.381	9.73
207.599	81.41
207.818	38.4
208.037	5.63
208.255	58.88
208.474	50.69
208.693	48.64
208.911	-12.8
209.13	114.17
209.349	69.12
209.567	122.37
209.786	126.46
210.005	65.02
210.223	7.68
210.442	7.68
210.661	24.06
210.879	7.68
211.098	42.5
211.316	91.65
211.535	99.84
211.753	34.3
211.972	60.93
212.191	-16.9
212.409	24.06
212.628	-4.61
212.846	36.35
213.065	105.98
213.283	101.89
213.502	30.21
213.72	58.88
213.938	44.54
214.157	-16.9
214.375	50.69
214.594	-16.9
214.812	48.64
215.031	5.63
215.249	58.88
215.467	26.11
215.686	32.26
215.904	11.78
216.122	73.21
216.341	60.93
216.559	85.5
216.778	56.83
216.996	77.31
217.214	44.54
217.432	56.83
217.651	1.54
217.869	28.16
218.087	26.11
218.306	34.3
218.524	36.35
218.742	-47.62
218.96	-74.24
219.179	81.41
219.397	65.02
219.615	118.27
219.833	-23.04
220.051	60.93
220.27	9.73
220.488	32.26
220.706	50.69
220.924	-6.66
221.142	48.64
221.36	-8.7
221.578	56.83
221.796	-2.56
222.015	15.87
222.233	44.54
222.451	7.68
222.669	32.26
222.887	81.41
223.105	48.64
223.323	-20.99
223.541	44.54
223.759	19.97
223.977	-0.51
224.195	32.26
224.413	114.17
224.631	24.06
224.849	22.02
225.067	99.84
225.285	42.5
225.503	40.45
225.721	-25.09
225.939	11.78
226.157	52.74
226.375	126.46
226.592	17.92
226.81	17.92
227.028	56.83
227.246	73.21
227.464	65.02
227.682	89.6
227.9	44.54
228.117	-8.7
228.335	22.02
228.553	7.68
228.771	19.97
228.989	-6.66
229.206	65.02
229.424	-8.7
229.642	5.63
229.86	24.06
230.077	48.64
230.295	-33.28
230.513	101.89
230.731	116.22
230.948	77.31
231.166	73.21
231.384	11.78
231.601	-20.99
231.819	91.65
232.037	69.12
232.254	15.87
232.472	108.03
232.689	-25.09
232.907	108.03
233.125	101.89
233.342	17.92
233.56	-64
233.777	34.3
233.995	-0.51
234.213	48.64
234.43	11.78
234.648	58.88
234.865	5.63
235.083	83.45
235.3	-12.8
235.518	32.26
235.735	19.97
235.953	62.98
236.17	32.26
236.388	34.3
236.605	-25.09
236.822	73.21
237.04	-6.66
237.257	48.64
237.475	-8.7
237.692	105.98
237.909	69.12
238.127	48.64
238.344	81.41
238.562	65.02
238.779	-0.51
238.996	-49.66
239.214	91.65
239.431	28.16
239.648	81.41
239.865	77.31
240.083	46.59
240.3	13.82
240.517	-23.04
240.735	-57.86
240.952	122.37
241.169	30.21
241.386	65.02
241.603	52.74
241.821	7.68
242.038	32.26
242.255	52.74
242.472	-33.28
242.689	65.02
242.907	52.74
243.124	13.82
243.341	-8.7
243.558	15.87
243.775	-6.66
243.992	5.63
244.209	32.26
244.426	13.82
244.643	97.79
244.86	93.69
245.078	83.45
245.295	81.41
245.512	24.06
245.729	-0.51
245.946	9.73
246.163	81.41
246.38	48.64
246.597	-4.61
246.814	32.26
247.031	24.06
247.248	15.87
247.464	97.79
247.681	73.21
247.898	-6.66
248.115	52.74
248.332	-12.8
248.549	93.69
248.766	108.03
248.983	50.69
249.2	67.07
249.417	67.07
249.633	24.06
249.85	97.79
250.067	40.45
250.284	105.98
250.501	93.69
250.717	7.68
250.934	-41.47
251.151	93.69
251.368	17.92
251.585	95.74
251.801	34.3
252.018	-16.9
252.235	52.74
252.451	-16.9
252.668	-18.94
252.885	-39.42
253.102	-35.33
253.318	67.07
253.535	71.17
253.752	1.54
253.968	19.97
254.185	24.06
254.401	24.06
254.618	126.46
254.835	24.06
255.051	67.07
255.268	5.63
255.484	97.79
255.701	11.78
255.917	60.93
256.134	19.97
256.351	9.73
256.567	7.68
256.784	97.79
257	-41.47
257.217	38.4
257.433	159.23
257.65	40.45
257.866	15.87
258.082	17.92
258.299	28.16
258.515	56.83
258.732	-0.51
258.948	-8.7
259.165	58.88
259.381	-20.99
259.597	42.5
259.814	-20.99
260.03	-16.9
260.246	17.92
260.463	65.02
260.679	77.31
260.895	99.84
261.112	108.03
261.328	15.87
261.544	28.16
261.761	105.98
261.977	17.92
262.193	32.26
262.409	48.64
262.626	15.87
262.842	91.65
263.058	15.87
263.274	28.16
263.49	93.69
263.707	7.68
263.923	34.3
264.139	-23.04
264.355	85.5
264.571	151.04
264.787	44.54
265.004	32.26
265.22	71.17
265.436	-68.09
265.652	28.16
265.868	56.83
266.084	69.12
266.3	75.26
266.516	15.87
266.732	101.89
266.948	118.27
267.164	48.64
267.38	-16.9
267.596	75.26
267.812	97.79
268.028	56.83
268.244	-49.66
268.46	15.87
268.676	44.54
268.892	69.12
269.108	38.4
269.324	-33.28
269.54	19.97
269.756	128.51
269.972	7.68
270.188	60.93
270.403	32.26
270.619	85.5
270.835	26.11
271.051	60.93
271.267	5.63
271.483	34.3
271.698	79.36
271.914	-12.8
272.13	-29.18
272.346	34.3
272.562	32.26
272.777	108.03
272.993	-53.76
273.209	-25.09
273.425	26.11
273.64	24.06
273.856	40.45
274.072	40.45
274.287	-41.47
274.503	101.89
274.719	101.89
274.934	81.41
275.15	-12.8
275.366	50.69
275.581	65.02
275.797	77.31
276.012	-6.66
276.228	9.73
276.444	15.87
276.659	28.16
276.875	7.68
277.09	-49.66
277.306	-23.04
277.521	97.79
277.737	11.78
277.952	7.68
278.168	46.59
278.383	81.41
278.599	50.69
278.814	93.69
279.03	93.69
279.245	69.12
279.461	48.64
279.676	56.83
279.892	3.58
280.107	48.64
280.322	17.92
280.538	-6.66
280.753	1.54
280.969	-33.28
281.184	19.97
281.399	146.94
281.615	48.64
281.83	75.26
282.045	89.6
282.26	56.83
282.476	56.83
282.691	40.45
282.906	9.73
283.122	58.88
283.337	19.97
283.552	91.65
283.767	34.3
283.983	34.3
284.198	56.83
284.413	97.79
284.628	-20.99
284.843	132.61
285.058	69.12
285.274	32.26
285.489	-16.9
285.704	48.64
285.919	7.68
286.134	9.73
286.349	-25.09
286.564	28.16
286.779	67.07
286.995	83.45
287.21	5.63
287.425	69.12
287.64	46.59
287.855	56.83
288.07	3.58
288.285	7.68
288.5	89.6
288.715	77.31
288.93	83.45
289.145	1.54
289.36	140.8
289.575	50.69
289.79	97.79
290.004	62.98
290.219	-0.51
290.434	40.45
290.649	32.26
290.864	44.54
291.079	81.41
291.294	69.12
291.509	58.88
291.724	-8.7
291.938	-12.8
292.153	110.08
292.368	-14.85
292.583	-6.66
292.798	40.45
293.012	34.3
293.227	91.65
293.442	15.87
293.657	95.74
293.871	103.93
294.086	28.16
294.301	77.31
294.516	48.64
294.73	17.92
294.945	26.11
295.16	26.11
295.374	85.5
295.589	108.03
295.804	26.11
296.018	-8.7
296.233	124.41
296.447	79.36
296.662	7.68
296.877	87.55
297.091	32.26
297.306	69.12
297.52	-29.18
297.735	79.36
297.949	52.74
298.164	26.11
298.378	26.11
298.593	9.73
298.807	42.5
299.022	-25.09
299.236	-6.66
299.451	-16.9
299.665	73.21
299.88	83.45
300.094	48.64
300.309	-43.52
300.523	58.88
300.737	69.12
300.952	50.69
301.166	91.65
301.381	44.54
301.595	81.41
301.809	36.35
302.024	36.35
302.238	-33.28
302.452	101.89
302.667	91.65
302.881	75.26
303.095	75.26
303.309	34.3
303.524	15.87
303.738	15.87
303.952	3.58
304.166	79.36
304.381	5.63
304.595	28.16
304.809	54.78
305.023	28.16
305.237	28.16
305.452	32.26
305.666	52.74
305.88	97.79
306.094	75.26
306.308	77.31
306.522	85.5
306.736	40.45
306.95	48.64
307.164	15.87
307.379	15.87
307.593	114.17
307.807	114.17
308.021	34.3
308.235	114.17
308.449	-49.66
308.663	81.41
308.877	130.56
309.091	32.26
309.305	105.98
309.519	-0.51
309.733	24.06
309.947	13.82
310.161	9.73
310.374	89.6
310.588	67.07
310.802	24.06
311.016	32.26
311.23	56.83
311.444	-20.99
311.658	42.5
311.872	-0.51
312.085	5.63
312.299	163.33
312.513	56.83
312.727	26.11
312.941	73.21
313.154	46.59
313.368	-12.8
313.582	-31.23
313.796	17.92
314.009	46.59
314.223	108.03
314.437	103.93
314.651	69.12
314.864	34.3
315.078	85.5
315.292	17.92
315.505	28.16
315.719	-6.66
315.933	52.74
316.146	1.54
316.36	15.87
316.573	56.83
316.787	116.22
317.001	58.88
317.214	30.21
317.428	-6.66
317.641	60.93
317.855	40.45
318.068	56.83
318.282	19.97
318.495	142.85
318.709	97.79
318.922	50.69
319.136	122.37
319.349	91.65
319.563	40.45
319.776	73.21
319.99	9.73
320.203	9.73
320.417	69.12
320.63	32.26
320.843	69.12
321.057	91.65
321.27	11.78
321.483	42.5
321.697	81.41
321.91	28.16
322.124	130.56
322.337	32.26
322.55	15.87
322.763	91.65
322.977	81.41
323.19	32.26
323.403	-10.75
323.617	13.82
323.83	65.02
324.043	85.5
324.256	67.07
324.469	-35.33
324.683	140.8
324.896	71.17
325.109	28.16
325.322	-6.66
325.535	11.78
325.748	83.45
325.962	87.55
326.175	9.73
326.388	32.26
326.601	65.02
326.814	67.07
327.027	9.73
327.24	56.83
327.453	15.87
327.666	56.83
327.879	81.41
328.092	24.06
328.305	97.79
328.518	42.5
328.731	81.41
328.944	11.78
329.157	-16.9
329.37	114.17
329.583	97.79
329.796	67.07
330.009	-39.42
330.222	89.6
330.435	89.6
330.648	34.3
330.861	40.45
331.073	105.98
331.286	85.5
331.499	42.5
331.712	7.68
331.925	15.87
332.138	42.5
332.35	60.93
332.563	42.5
332.776	85.5
332.989	-23.04
333.202	50.69
333.414	3.58
333.627	58.88
333.84	3.58
334.053	93.69
334.265	-4.61
334.478	-51.71
334.691	1.54
334.903	50.69
335.116	97.79
335.329	34.3
335.541	91.65
335.754	128.51
335.966	85.5
336.179	73.21
336.392	105.98
336.604	89.6
336.817	81.41
337.029	75.26
337.242	69.12
337.454	40.45
337.667	67.07
337.88	67.07
338.092	48.64
338.305	15.87
338.517	83.45
338.729	97.79
338.942	91.65
339.154	52.74
339.367	-0.51
339.579	7.68
339.792	-20.99
340.004	114.17
340.217	28.16
340.429	81.41
340.641	48.64
340.854	11.78
341.066	19.97
341.278	69.12
341.491	79.36
341.703	-4.61
341.915	24.06
342.128	69.12
342.34	26.11
342.552	60.93
342.764	48.64
342.977	142.85
343.189	50.69
343.401	97.79
343.613	26.11
343.826	7.68
344.038	48.64
344.25	52.74
344.462	65.02
344.674	36.35
344.886	17.92
345.099	24.06
345.311	97.79
345.523	52.74
345.735	65.02
345.947	77.31
346.159	120.32
346.371	26.11
346.583	56.83
346.795	42.5
347.007	73.21
347.219	81.41
347.431	-68.09
347.643	40.45
347.855	32.26
348.067	81.41
348.279	40.45
348.491	110.08
348.703	83.45
348.915	-8.7
349.127	60.93
349.339	48.64
349.551	40.45
349.763	32.26
349.975	101.89
350.187	24.06
350.399	85.5
350.61	28.16
350.822	42.5
351.034	58.88
351.246	36.35
351.458	32.26
351.669	32.26
351.881	17.92
352.093	122.37
352.305	38.4
352.517	56.83
352.728	75.26
352.94	97.79
353.152	24.06
353.363	26.11
353.575	85.5
353.787	93.69
353.999	44.54
354.21	105.98
354.422	40.45
354.633	30.21
354.845	79.36
355.057	15.87
355.268	97.79
355.48	124.41
355.692	42.5
355.903	24.06
356.115	60.93
356.326	-2.56
356.538	114.17
356.749	99.84
356.961	81.41
357.172	40.45
357.384	38.4
357.595	105.98
357.807	85.5
358.018	50.69
358.23	93.69
358.441	153.09
358.653	136.7
358.864	19.97
359.075	105.98
359.287	87.55
359.498	91.65
359.709	48.64
359.921	105.98
360.132	60.93
360.344	30.21
360.555	32.26
360.766	118.27
360.977	50.69
361.189	48.64
361.4	67.07
361.611	81.41
361.823	173.57
362.034	56.83
362.245	75.26
362.456	40.45
362.667	77.31
362.879	-0.51
363.09	77.31
363.301	15.87
363.512	130.56
363.723	7.68
363.935	81.41
364.146	50.69
364.357	99.84
364.568	99.84
364.779	-20.99
364.99	110.08
365.201	67.07
365.412	89.6
365.623	26.11
365.834	15.87
366.045	75.26
366.256	128.51
366.467	38.4
366.678	38.4
366.889	44.54
367.1	3.58
367.311	19.97
367.522	28.16
367.733	91.65
367.944	50.69
368.155	-14.85
368.366	34.3
368.577	97.79
368.788	97.79
368.999	85.5
369.209	52.74
369.42	142.85
369.631	134.65
369.842	40.45
370.053	85.5
370.264	110.08
370.474	-8.7
370.685	58.88
370.896	122.37
371.107	132.61
371.317	67.07
371.528	56.83
371.739	60.93
371.95	69.12
372.16	81.41
372.371	50.69
372.582	48.64
372.792	99.84
373.003	32.26
373.214	112.13
373.424	-31.23
373.635	73.21
373.846	140.8
374.056	26.11
374.267	97.79
374.477	28.16
374.688	56.83
374.898	32.26
375.109	50.69
375.319	122.37
375.53	19.97
375.74	114.17
375.951	13.82
376.161	112.13
376.372	142.85
376.582	108.03
376.793	114.17
377.003	91.65
377.214	34.3
377.424	73.21
377.635	93.69
377.845	83.45
378.055	120.32
378.266	65.02
378.476	44.54
378.686	26.11
378.897	146.94
379.107	81.41
379.317	77.31
379.528	95.74
379.738	24.06
379.948	-4.61
380.158	157.18
380.369	52.74
380.579	32.26
380.789	73.21
380.999	48.64
381.21	83.45
381.42	71.17
381.63	110.08
381.84	81.41
382.05	19.97
382.261	157.18
382.471	79.36
382.681	73.21
382.891	81.41
383.101	87.55
383.311	87.55
383.521	62.98
383.731	155.13
383.941	38.4
384.151	75.26
384.361	52.74
384.571	62.98
384.781	89.6
384.991	67.07
385.201	126.46
385.411	75.26
385.621	24.06
385.831	134.65
386.041	54.78
386.251	19.97
386.461	-33.28
386.671	93.69
386.881	42.5
387.091	9.73
387.301	108.03
387.511	56.83
387.72	81.41
387.93	124.41
388.14	67.07
388.35	28.16
388.56	48.64
388.769	171.52
388.979	105.98
389.189	17.92
389.399	128.51
389.609	122.37
389.818	124.41
390.028	93.69
390.238	40.45
390.447	67.07
390.657	65.02
390.867	22.02
391.076	108.03
391.286	11.78
391.496	116.22
391.705	3.58
391.915	97.79
392.125	181.76
392.334	81.41
392.544	65.02
392.753	105.98
392.963	7.68
393.172	40.45
393.382	7.68
393.591	181.76
393.801	93.69
394.01	144.89
394.22	99.84
394.429	73.21
394.639	142.85
394.848	124.41
395.058	87.55
395.267	116.22
395.477	132.61
395.686	130.56
395.895	130.56
396.105	140.8
396.314	69.12
396.524	171.52
396.733	44.54
396.942	120.32
397.152	116.22
397.361	181.76
397.57	87.55
397.78	93.69
397.989	95.74
398.198	146.94
398.407	56.83
398.617	93.69
398.826	124.41
399.035	132.61
399.244	189.95
399.453	87.55
399.663	132.61
399.872	140.8
400.081	91.65
400.29	65.02
400.499	89.6
400.708	189.95
400.917	114.17
401.127	126.46
401.336	202.24
401.545	173.57
401.754	142.85
401.963	208.38
402.172	171.52
402.381	114.17
402.59	177.66
402.799	194.05
403.008	194.05
403.217	146.94
403.426	163.33
403.635	206.33
403.844	206.33
404.053	206.33
404.262	81.41
404.471	228.86
404.68	183.81
404.888	148.99
405.097	183.81
405.306	228.86
405.515	198.14
405.724	200.19
405.933	228.86
406.142	175.61
406.35	226.81
406.559	208.38
406.768	196.09
406.977	273.92
407.185	200.19
407.394	292.35
407.603	220.67
407.812	331.26
408.02	220.67
408.229	237.05
408.438	249.34
408.646	253.44
408.855	368.12
409.064	314.88
409.272	327.16
409.481	407.03
409.69	351.74
409.898	278.01
410.107	458.23
410.315	439.8
410.524	396.79
410.733	468.47
410.941	368.12
411.15	421.37
411.358	536.06
411.567	572.92
411.775	466.42
411.984	566.78
412.192	556.54
412.401	491
412.609	638.45
412.818	650.74
413.026	638.45
413.234	640.5
413.443	669.17
413.651	734.71
413.86	654.84
414.068	798.2
414.276	808.44
414.485	841.2
414.693	790
414.901	929.27
415.11	929.27
415.318	910.83
415.526	880.11
415.734	1002.99
415.943	1058.29
416.151	998.9
416.359	1107.44
416.567	1107.44
416.776	1183.21
416.984	1162.73
417.192	1220.08
417.4	1250.8
417.608	1334.76
417.817	1295.85
418.025	1447.4
418.233	1531.37
418.441	1449.45
418.649	1543.66
418.857	1678.82
419.065	1658.34
419.273	1650.15
419.481	1766.89
419.689	1809.89
419.897	1865.19
420.105	1924.58
420.313	1969.63
420.521	2008.55
420.729	1965.54
420.937	2158.05
421.145	2268.64
421.353	2438.62
421.561	2502.11
421.769	2393.56
421.977	2801.11
422.185	2631.13
422.393	2711
422.601	2835.92
422.809	2850.26
423.017	2837.97
423.224	2997.71
423.432	3179.98
423.64	3290.57
423.848	3485.13
424.056	3309.01
424.263	3583.43
424.471	3565
424.679	3608.01
424.887	3841.48
425.094	3997.12
425.302	4111.81
425.51	4136.38
425.718	4318.65
425.925	4386.24
426.133	4421.05
426.341	4824.5
426.548	4974
426.756	4877.75
426.964	5146.03
427.171	5328.3
427.379	5486
427.586	5463.47
427.794	5529
428.001	5809.58
428.209	6231.46
428.417	6155.68
428.624	6565.28
428.832	6573.47
429.039	6573.47
429.247	6407.58
429.454	7171.47
429.662	7544.2
429.869	7036.31
430.076	7542.16
430.284	7241.11
430.491	7654.8
430.699	8027.53
430.906	8142.21
431.114	8148.36
431.321	8394.11
431.528	8654.2
431.736	9239.92
431.943	9403.76
432.15	9543.02
432.358	9600.37
432.565	9966.95
432.772	9921.9
432.979	10511.71
433.187	10722.65
433.394	10642.78
433.601	11304.28
433.808	11550.03
434.016	11541.84
434.223	11822.41
434.43	12737.85
434.637	12338.5
434.844	13133.11
435.052	13225.27
435.259	13407.54
435.466	13442.35
435.673	13325.62
435.88	13985.07
436.087	14951.71
436.294	14712.1
436.501	14257.45
436.708	14656.8
436.915	15406.36
437.122	15934.73
437.329	15641.87
437.537	16184.59
437.743	16600.32
437.95	16327.94
438.157	17255.67
438.364	17958.13
438.571	17738.99
438.778	17868.02
438.985	19336.41
439.192	18693.35
439.399	19467.48
439.606	19033.31
439.813	20235.47
440.02	21241.02
440.227	21003.46
440.433	20884.67
440.64	21443.77
440.847	21384.38
441.054	21734.58
441.261	23284.89
441.467	22799.52
441.674	23119.01
441.881	24106.13
442.088	24196.24
442.294	23731.35
442.501	24151.18
442.708	24695.94
442.914	26119.28
443.121	26604.65
443.328	26055.79
443.534	28081.24
443.741	27233.38
443.948	26838.12
444.154	28746.83
444.361	28697.67
444.568	28941.38
444.774	28806.22
444.981	29076.55
445.187	29760.57
445.394	31788.06
445.6	31034.41
445.807	33793.02
446.013	32435.22
446.22	32887.82
446.426	34358.26
446.633	34532.34
446.839	35593.18
447.046	33944.57
447.252	36281.3
447.459	36293.59
447.665	36051.93
447.871	37678.02
448.078	39050.16
448.284	37270.47
448.491	38226.87
448.697	39742.37
448.903	40135.58
449.11	40338.33
449.316	39719.84
449.522	40770.45
449.728	41905.02
449.935	42335.1
450.141	42068.86
450.347	42961.78
450.553	41511.81
450.76	42105.73
450.966	43672.42
451.172	42683.25
451.378	44290.91
451.584	43035.5
451.791	44243.8
451.997	44381.02
452.203	45085.52
452.409	44856.15
452.615	44917.59
452.821	43035.5
453.027	42849.14
453.233	44641.11
453.44	42806.13
453.646	43221.87
453.852	43848.55
454.058	44792.66
454.264	43178.86
454.47	44102.5
454.676	43058.03
454.882	44460.89
455.088	40543.13
455.294	41368.46
455.5	41704.32
455.705	42455.93
455.911	40805.27
456.117	40127.39
456.323	39541.67
456.529	37086.15
456.735	39160.75
456.941	37895.1
457.147	37487.56
457.352	36142.04
457.558	35777.5
457.764	36109.27
457.97	35042.28
458.176	34790.38
458.381	34391.03
458.587	32762.89
458.793	32916.49
458.999	31216.68
459.204	33209.35
459.41	32617.49
459.616	30301.23
459.821	30329.91
460.027	30178.36
460.233	29875.26
460.438	27876.44
460.644	28247.12
460.85	27249.76
461.055	26760.3
461.261	26504.3
461.466	24642.7
461.672	23755.93
461.878	25861.24
462.083	23858.32
462.289	23610.52
462.494	23436.44
462.7	22115.5
462.905	21564.6
463.111	22252.72
463.316	22715.56
463.522	21834.93
463.727	22133.93
463.932	21855.41
464.138	21439.67
464.343	21642.42
464.549	20894.91
464.754	21736.63
464.959	21552.31
465.165	21331.13
465.37	20249.8
465.575	19961.04
465.781	20647.11
465.986	20774.08
466.191	19938.51
466.397	19535.06
466.602	18689.25
466.807	19506.39
467.012	19195.1
467.218	19381.46
467.423	19053.79
