Data from USB4F104151__318__14-35-09-469.txt Node

Date: Thu Mar 13 14:35:09 EDT 2025
User: louis
Spectrometer: USB4F10415
Trigger mode: 4
Integration Time (sec): 2.500000E-2
Scans to average: 1
Electric dark correction enabled: true
Nonlinearity correction enabled: false
Boxcar width: 0
XAxis mode: Wavelengths
Number of Pixels in Spectrum: 3648
>>>>>Begin Spectral Data<<<<<
178.204	-171.86
178.424	-171.86
178.644	-171.86
178.864	-153.43
179.084	-85.84
179.304	32.94
179.524	-32.6
179.744	-1.88
179.964	16.55
180.184	0.17
180.404	16.55
180.624	26.79
180.844	12.46
181.064	-81.75
181.283	-3.93
181.503	-18.26
181.723	32.94
181.943	0.17
182.163	114.86
182.383	8.36
182.602	108.71
182.822	80.04
183.042	32.94
183.262	10.41
183.482	26.79
183.701	59.56
183.921	82.09
184.141	-5.97
184.361	69.8
184.58	37.03
184.8	-98.13
185.02	73.9
185.239	118.95
185.459	92.33
185.679	100.52
185.898	-85.84
186.118	37.03
186.338	24.75
186.557	61.61
186.777	49.32
186.997	-8.02
187.216	2.22
187.436	110.76
187.655	32.94
187.875	8.36
188.095	-59.22
188.314	61.61
188.534	73.9
188.753	34.99
188.973	32.94
189.192	102.57
189.412	16.55
189.631	12.46
189.851	26.79
190.07	2.22
190.29	37.03
190.509	131.24
190.729	28.84
190.948	75.95
191.168	211.11
191.387	61.61
191.607	47.27
191.826	12.46
192.045	-32.6
192.265	49.32
192.484	57.51
192.704	131.24
192.923	-8.02
193.142	110.76
193.362	59.56
193.581	12.46
193.8	28.84
194.02	45.23
194.239	20.65
194.458	34.99
194.678	-48.98
194.897	-12.12
195.116	65.71
195.335	4.27
195.555	-38.74
195.774	8.36
195.993	41.13
196.212	57.51
196.432	16.55
196.651	24.75
196.87	34.99
197.089	155.82
197.308	49.32
197.528	-16.21
197.747	47.27
197.966	16.55
198.185	133.29
198.404	24.75
198.623	110.76
198.842	57.51
199.062	-12.12
199.281	12.46
199.5	-22.36
199.719	57.51
199.938	26.79
200.157	39.08
200.376	92.33
200.595	69.8
200.814	-36.69
201.033	-16.21
201.252	69.8
201.471	110.76
201.69	86.19
201.909	6.31
202.128	8.36
202.347	43.18
202.566	61.61
202.785	0.17
203.004	49.32
203.223	106.67
203.442	57.51
203.661	-20.31
203.879	-22.36
204.098	106.67
204.317	-16.21
204.536	73.9
204.755	116.9
204.974	123.05
205.193	55.47
205.411	41.13
205.63	102.57
205.849	73.9
206.068	16.55
206.287	10.41
206.505	75.95
206.724	10.41
206.943	-3.93
207.162	0.17
207.381	16.55
207.599	20.65
207.818	24.75
208.037	24.75
208.255	24.75
208.474	69.8
208.693	73.9
208.911	24.75
209.13	18.6
209.349	90.28
209.567	59.56
209.786	45.23
210.005	43.18
210.223	24.75
210.442	-28.5
210.661	57.51
210.879	39.08
211.098	100.52
211.316	112.81
211.535	71.85
211.753	49.32
211.972	65.71
212.191	24.75
212.409	90.28
212.628	34.99
212.846	32.94
213.065	49.32
213.283	34.99
213.502	28.84
213.72	61.61
213.938	8.36
214.157	49.32
214.375	86.19
214.594	8.36
214.812	30.89
215.031	84.14
215.249	20.65
215.467	59.56
215.686	10.41
215.904	114.86
216.122	61.61
216.341	65.71
216.559	61.61
216.778	77.99
216.996	67.75
217.214	20.65
217.432	-48.98
217.651	-5.97
217.869	-3.93
218.087	18.6
218.306	37.03
218.524	84.14
218.742	-24.4
218.96	26.79
219.179	-24.4
219.397	86.19
219.615	123.05
219.833	86.19
220.051	-8.02
220.27	59.56
220.488	34.99
220.706	61.61
220.924	26.79
221.142	8.36
221.36	18.6
221.578	61.61
221.796	18.6
222.015	61.61
222.233	20.65
222.451	49.32
222.669	2.22
222.887	24.75
223.105	-22.36
223.323	34.99
223.541	43.18
223.759	67.75
223.977	82.09
224.195	82.09
224.413	92.33
224.631	88.23
224.849	-24.4
225.067	71.85
225.285	53.42
225.503	80.04
225.721	-20.31
225.939	61.61
226.157	49.32
226.375	172.2
226.592	2.22
226.81	-26.45
227.028	106.67
227.246	121
227.464	67.75
227.682	53.42
227.9	59.56
228.117	65.71
228.335	28.84
228.553	49.32
228.771	98.47
228.989	73.9
229.206	-36.69
229.424	20.65
229.642	26.79
229.86	51.37
230.077	131.24
230.295	26.79
230.513	63.66
230.731	67.75
230.948	41.13
231.166	73.9
231.384	110.76
231.601	-24.4
231.819	84.14
232.037	43.18
232.254	12.46
232.472	32.94
232.689	59.56
232.907	41.13
233.125	104.62
233.342	69.8
233.56	24.75
233.777	84.14
233.995	24.75
234.213	123.05
234.43	65.71
234.648	32.94
234.865	-14.17
235.083	55.47
235.3	12.46
235.518	59.56
235.735	108.71
235.953	51.37
236.17	2.22
236.388	10.41
236.605	92.33
236.822	18.6
237.04	131.24
237.257	86.19
237.475	24.75
237.692	24.75
237.909	57.51
238.127	43.18
238.344	49.32
238.562	47.27
238.779	10.41
238.996	10.41
239.214	-26.45
239.431	123.05
239.648	10.41
239.865	84.14
240.083	63.66
240.3	16.55
240.517	41.13
240.735	49.32
240.952	75.95
241.169	157.86
241.386	4.27
241.603	-16.21
241.821	-26.45
242.038	53.42
242.255	69.8
242.472	47.27
242.689	57.51
242.907	118.95
243.124	-28.5
243.341	69.8
243.558	-5.97
243.775	71.85
243.992	73.9
244.209	139.43
244.426	98.47
244.643	59.56
244.86	67.75
245.078	59.56
245.295	151.72
245.512	49.32
245.729	43.18
245.946	110.76
246.163	41.13
246.38	90.28
246.597	0.17
246.814	-36.69
247.031	98.47
247.248	65.71
247.464	75.95
247.681	71.85
247.898	43.18
248.115	4.27
248.332	-22.36
248.549	41.13
248.766	32.94
248.983	69.8
249.2	106.67
249.417	61.61
249.633	59.56
249.85	98.47
250.067	39.08
250.284	-22.36
250.501	123.05
250.717	77.99
250.934	69.8
251.151	90.28
251.368	69.8
251.585	67.75
251.801	96.43
252.018	-38.74
252.235	65.71
252.451	-40.79
252.668	43.18
252.885	88.23
253.102	37.03
253.318	71.85
253.535	14.51
253.752	0.17
253.968	82.09
254.185	57.51
254.401	22.7
254.618	0.17
254.835	2.22
255.051	153.77
255.268	57.51
255.484	41.13
255.701	8.36
255.917	100.52
256.134	32.94
256.351	67.75
256.567	41.13
256.784	65.71
257	12.46
257.217	63.66
257.433	63.66
257.65	114.86
257.866	67.75
258.082	-8.02
258.299	98.47
258.515	82.09
258.732	34.99
258.948	-40.79
259.165	51.37
259.381	-30.55
259.597	-14.17
259.814	43.18
260.03	26.79
260.246	41.13
260.463	90.28
260.679	24.75
260.895	2.22
261.112	131.24
261.328	82.09
261.544	-36.69
261.761	133.29
261.977	24.75
262.193	-73.56
262.409	59.56
262.626	63.66
262.842	88.23
263.058	4.27
263.274	77.99
263.49	57.51
263.707	37.03
263.923	32.94
264.139	-53.08
264.355	61.61
264.571	37.03
264.787	37.03
265.004	26.79
265.22	51.37
265.436	61.61
265.652	-32.6
265.868	57.51
266.084	106.67
266.3	39.08
266.516	-36.69
266.732	80.04
266.948	-8.02
267.164	86.19
267.38	-30.55
267.596	18.6
267.812	164.01
268.028	80.04
268.244	45.23
268.46	73.9
268.676	16.55
268.892	45.23
269.108	-10.07
269.324	65.71
269.54	106.67
269.756	98.47
269.972	4.27
270.188	-8.02
270.403	41.13
270.619	65.71
270.835	63.66
271.051	18.6
271.267	37.03
271.483	16.55
271.698	45.23
271.914	100.52
272.13	41.13
272.346	57.51
272.562	28.84
272.777	98.47
272.993	131.24
273.209	24.75
273.425	24.75
273.64	-36.69
273.856	75.95
274.072	51.37
274.287	32.94
274.503	-14.17
274.719	57.51
274.934	20.65
275.15	37.03
275.366	139.43
275.581	26.79
275.797	-8.02
276.012	90.28
276.228	108.71
276.444	4.27
276.659	127.14
276.875	51.37
277.09	4.27
277.306	24.75
277.521	37.03
277.737	22.7
277.952	71.85
278.168	-42.84
278.383	-16.21
278.599	63.66
278.814	16.55
279.03	24.75
279.245	45.23
279.461	-14.17
279.676	84.14
279.892	57.51
280.107	43.18
280.322	18.6
280.538	90.28
280.753	51.37
280.969	43.18
281.184	73.9
281.399	65.71
281.615	0.17
281.83	84.14
282.045	26.79
282.26	57.51
282.476	53.42
282.691	57.51
282.906	-16.21
283.122	34.99
283.337	4.27
283.552	16.55
283.767	10.41
283.983	86.19
284.198	69.8
284.413	86.19
284.628	-42.84
284.843	49.32
285.058	43.18
285.274	41.13
285.489	16.55
285.704	73.9
285.919	-40.79
286.134	32.94
286.349	84.14
286.564	43.18
286.779	53.42
286.995	53.42
287.21	37.03
287.425	110.76
287.64	16.55
287.855	57.51
288.07	34.99
288.285	10.41
288.5	32.94
288.715	106.67
288.93	24.75
289.145	8.36
289.36	82.09
289.575	41.13
289.79	166.06
290.004	26.79
290.219	28.84
290.434	84.14
290.649	41.13
290.864	24.75
291.079	-53.08
291.294	59.56
291.509	75.95
291.724	75.95
291.938	69.8
292.153	34.99
292.368	18.6
292.583	41.13
292.798	45.23
293.012	55.47
293.227	24.75
293.442	2.22
293.657	14.51
293.871	51.37
294.086	16.55
294.301	57.51
294.516	75.95
294.73	-1.88
294.945	57.51
295.16	84.14
295.374	123.05
295.589	26.79
295.804	-8.02
296.018	-3.93
296.233	114.86
296.447	100.52
296.662	-1.88
296.877	141.48
297.091	69.8
297.306	61.61
297.52	10.41
297.735	57.51
297.949	20.65
298.164	86.19
298.378	61.61
298.593	-20.31
298.807	-12.12
299.022	65.71
299.236	61.61
299.451	77.99
299.665	41.13
299.88	94.38
300.094	34.99
300.309	61.61
300.523	98.47
300.737	43.18
300.952	63.66
301.166	65.71
301.381	26.79
301.595	37.03
301.809	57.51
302.024	49.32
302.238	2.22
302.452	69.8
302.667	-44.88
302.881	147.62
303.095	110.76
303.309	84.14
303.524	20.65
303.738	53.42
303.952	34.99
304.166	77.99
304.381	-14.17
304.595	67.75
304.809	0.17
305.023	10.41
305.237	-5.97
305.452	-32.6
305.666	61.61
305.88	45.23
306.094	69.8
306.308	30.89
306.522	18.6
306.736	53.42
306.95	98.47
307.164	59.56
307.379	73.9
307.593	118.95
307.807	30.89
308.021	67.75
308.235	49.32
308.449	-48.98
308.663	-32.6
308.877	90.28
309.091	2.22
309.305	94.38
309.519	4.27
309.733	24.75
309.947	-20.31
310.161	67.75
310.374	69.8
310.588	49.32
310.802	-3.93
311.016	2.22
311.23	34.99
311.444	4.27
311.658	0.17
311.872	0.17
312.085	47.27
312.299	41.13
312.513	123.05
312.727	63.66
312.941	16.55
313.154	-46.93
313.368	59.56
313.582	73.9
313.796	32.94
314.009	14.51
314.223	164.01
314.437	18.6
314.651	67.75
314.864	16.55
315.078	-8.02
315.292	73.9
315.505	39.08
315.719	98.47
315.933	131.24
316.146	65.71
316.36	-32.6
316.573	65.71
316.787	22.7
317.001	53.42
317.214	12.46
317.428	43.18
317.641	24.75
317.855	41.13
318.068	73.9
318.282	67.75
318.495	65.71
318.709	16.55
318.922	20.65
319.136	114.86
319.349	59.56
319.563	-20.31
319.776	96.43
319.99	-12.12
320.203	108.71
320.417	43.18
320.63	77.99
320.843	114.86
321.057	82.09
321.27	77.99
321.483	100.52
321.697	80.04
321.91	82.09
322.124	84.14
322.337	-14.17
322.55	65.71
322.763	34.99
322.977	51.37
323.19	8.36
323.403	51.37
323.617	0.17
323.83	51.37
324.043	34.99
324.256	133.29
324.469	51.37
324.683	69.8
324.896	53.42
325.109	106.67
325.322	55.47
325.535	147.62
325.748	55.47
325.962	43.18
326.175	59.56
326.388	116.9
326.601	92.33
326.814	-14.17
327.027	-24.4
327.24	88.23
327.453	24.75
327.666	53.42
327.879	96.43
328.092	61.61
328.305	-12.12
328.518	-8.02
328.731	26.79
328.944	51.37
329.157	32.94
329.37	43.18
329.583	114.86
329.796	92.33
330.009	24.75
330.222	32.94
330.435	94.38
330.648	49.32
330.861	28.84
331.073	104.62
331.286	67.75
331.499	84.14
331.712	67.75
331.925	51.37
332.138	28.84
332.35	73.9
332.563	4.27
332.776	45.23
332.989	-14.17
333.202	43.18
333.414	75.95
333.627	73.9
333.84	67.75
334.053	94.38
334.265	-28.5
334.478	-14.17
334.691	94.38
334.903	108.71
335.116	34.99
335.329	49.32
335.541	77.99
335.754	28.84
335.966	41.13
336.179	34.99
336.392	32.94
336.604	45.23
336.817	133.29
337.029	49.32
337.242	51.37
337.454	32.94
337.667	90.28
337.88	82.09
338.092	-10.07
338.305	86.19
338.517	34.99
338.729	98.47
338.942	116.9
339.154	16.55
339.367	80.04
339.579	65.71
339.792	32.94
340.004	32.94
340.217	16.55
340.429	57.51
340.641	20.65
340.854	-67.41
341.066	32.94
341.278	43.18
341.491	149.67
341.703	131.24
341.915	0.17
342.128	127.14
342.34	94.38
342.552	26.79
342.764	34.99
342.977	-30.55
343.189	123.05
343.401	51.37
343.613	65.71
343.826	65.71
344.038	24.75
344.25	82.09
344.462	67.75
344.674	16.55
344.886	41.13
345.099	98.47
345.311	61.61
345.523	12.46
345.735	-24.4
345.947	69.8
346.159	10.41
346.371	39.08
346.583	-5.97
346.795	153.77
347.007	16.55
347.219	123.05
347.431	90.28
347.643	49.32
347.855	34.99
348.067	90.28
348.279	-8.02
348.491	16.55
348.703	90.28
348.915	123.05
349.127	51.37
349.339	41.13
349.551	41.13
349.763	73.9
349.975	94.38
350.187	65.71
350.399	24.75
350.61	20.65
350.822	-8.02
351.034	67.75
351.246	26.79
351.458	24.75
351.669	45.23
351.881	59.56
352.093	104.62
352.305	84.14
352.517	90.28
352.728	86.19
352.94	69.8
353.152	24.75
353.363	0.17
353.575	61.61
353.787	73.9
353.999	155.82
354.21	143.53
354.422	26.79
354.633	8.36
354.845	118.95
355.057	98.47
355.268	37.03
355.48	147.62
355.692	34.99
355.903	53.42
356.115	41.13
356.326	-5.97
356.538	84.14
356.749	69.8
356.961	114.86
357.172	106.67
357.384	49.32
357.595	155.82
357.807	73.9
358.018	4.27
358.23	100.52
358.441	135.34
358.653	123.05
358.864	69.8
359.075	0.17
359.287	51.37
359.498	82.09
359.709	20.65
359.921	61.61
360.132	16.55
360.344	133.29
360.555	-5.97
360.766	-28.5
360.977	43.18
361.189	-28.5
361.4	-24.4
361.611	164.01
361.823	32.94
362.034	8.36
362.245	-102.23
362.456	30.89
362.667	6.31
362.879	-24.4
363.09	-8.02
363.301	45.23
363.512	59.56
363.723	43.18
363.935	12.46
364.146	59.56
364.357	90.28
364.568	82.09
364.779	59.56
364.99	133.29
365.201	34.99
365.412	139.43
365.623	4.27
365.834	84.14
366.045	16.55
366.256	114.86
366.467	94.38
366.678	-14.17
366.889	102.57
367.1	71.85
367.311	24.75
367.522	49.32
367.733	2.22
367.944	73.9
368.155	45.23
368.366	75.95
368.577	73.9
368.788	106.67
368.999	-3.93
369.209	49.32
369.42	155.82
369.631	127.14
369.842	108.71
370.053	73.9
370.264	98.47
370.474	69.8
370.685	84.14
370.896	135.34
371.107	49.32
371.317	57.51
371.528	6.31
371.739	114.86
371.95	4.27
372.16	106.67
372.371	2.22
372.582	32.94
372.792	90.28
373.003	65.71
373.214	53.42
373.424	51.37
373.635	61.61
373.846	116.9
374.056	90.28
374.267	69.8
374.477	59.56
374.688	32.94
374.898	106.67
375.109	32.94
375.319	98.47
375.53	57.51
375.74	82.09
375.951	90.28
376.161	34.99
376.372	8.36
376.582	77.99
376.793	129.19
377.003	51.37
377.214	57.51
377.424	84.14
377.635	65.71
377.845	67.75
378.055	90.28
378.266	43.18
378.476	80.04
378.686	82.09
378.897	127.14
379.107	61.61
379.317	106.67
379.528	-3.93
379.738	94.38
379.948	8.36
380.158	37.03
380.369	127.14
380.579	114.86
380.789	43.18
380.999	37.03
381.21	73.9
381.42	110.76
381.63	73.9
381.84	125.1
382.05	92.33
382.261	110.76
382.471	69.8
382.681	-8.02
382.891	82.09
383.101	49.32
383.311	53.42
383.521	49.32
383.731	123.05
383.941	84.14
384.151	125.1
384.361	86.19
384.571	32.94
384.781	41.13
384.991	131.24
385.201	125.1
385.411	32.94
385.621	61.61
385.831	12.46
386.041	182.44
386.251	110.76
386.461	133.29
386.671	53.42
386.881	114.86
387.091	82.09
387.301	49.32
387.511	82.09
387.72	80.04
387.93	96.43
388.14	51.37
388.35	110.76
388.56	90.28
388.769	123.05
388.979	110.76
389.189	110.76
389.399	166.06
389.609	59.56
389.818	30.89
390.028	131.24
390.238	90.28
390.447	10.41
390.657	116.9
390.867	61.61
391.076	34.99
391.286	106.67
391.496	61.61
391.705	90.28
391.915	114.86
392.125	153.77
392.334	92.33
392.544	73.9
392.753	65.71
392.963	4.27
393.172	73.9
393.382	133.29
393.591	141.48
393.801	96.43
394.01	112.81
394.22	98.47
394.429	39.08
394.639	30.89
394.848	90.28
395.058	82.09
395.267	129.19
395.477	180.39
395.686	106.67
395.895	168.1
396.105	139.43
396.314	106.67
396.524	32.94
396.733	45.23
396.942	143.53
397.152	133.29
397.361	196.78
397.57	166.06
397.78	63.66
397.989	186.54
398.198	149.67
398.407	49.32
398.617	123.05
398.826	100.52
399.035	110.76
399.244	121
399.453	43.18
399.663	106.67
399.872	133.29
400.081	159.91
400.29	159.91
400.499	90.28
400.708	192.68
400.917	90.28
401.127	141.48
401.336	147.62
401.545	190.63
401.754	194.73
401.963	164.01
402.172	155.82
402.381	155.82
402.59	82.09
402.799	100.52
403.008	180.39
403.217	75.95
403.426	174.25
403.635	88.23
403.844	118.95
404.053	131.24
404.262	110.76
404.471	196.78
404.68	184.49
404.888	272.55
405.097	174.25
405.306	204.97
405.515	166.06
405.724	241.83
405.933	303.27
406.142	204.97
406.35	221.35
406.559	159.91
406.768	209.06
406.977	319.65
407.185	278.69
407.394	209.06
407.603	223.4
407.812	204.97
408.02	278.69
408.229	237.74
408.438	250.02
408.646	209.06
408.855	303.27
409.064	311.46
409.272	301.22
409.481	336.04
409.69	319.65
409.898	286.89
410.107	321.7
410.315	401.57
410.524	331.94
410.733	401.57
410.941	362.66
411.15	393.38
411.358	356.52
411.567	426.15
411.775	428.2
411.984	440.48
412.192	465.06
412.401	467.11
412.609	569.51
412.818	559.27
413.026	544.93
413.234	508.07
413.443	569.51
413.651	510.11
413.86	622.75
414.068	622.75
414.276	719.01
414.485	704.67
414.693	762.02
414.901	802.97
415.11	770.21
415.318	825.5
415.526	796.83
415.734	909.47
415.943	786.59
416.151	903.32
416.359	903.32
416.567	991.39
416.776	1024.16
416.984	1065.11
417.192	1081.5
417.4	1001.63
417.608	1126.55
417.817	1075.35
418.025	1181.85
418.233	1245.34
418.441	1290.39
418.649	1132.7
418.857	1317.01
419.065	1384.6
419.273	1441.94
419.481	1534.1
419.689	1599.63
419.897	1601.68
420.105	1714.32
420.313	1638.55
420.521	1818.77
420.729	1730.7
420.937	1818.77
421.145	1843.34
421.353	1945.74
421.561	2187.4
421.769	2042
421.977	2236.55
422.185	2211.98
422.393	2369.67
422.601	2525.32
422.809	2578.56
423.017	2427.01
423.224	2658.43
423.432	2695.3
423.64	2814.08
423.848	2869.37
424.056	2826.37
424.263	3055.74
424.471	3070.08
424.679	2961.53
424.887	3274.87
425.094	3410.04
425.302	3410.04
425.51	3549.3
425.718	3760.24
425.925	3704.95
426.133	3776.63
426.341	4061.29
426.548	4186.22
426.756	4292.71
426.964	4253.8
427.171	4546.66
427.379	4784.23
427.586	4812.9
427.794	4786.27
428.001	4886.62
428.209	5251.16
428.417	5169.24
428.624	5550.17
428.832	5480.54
429.039	5496.92
429.247	5437.53
429.454	6037.58
429.662	6209.61
429.869	6217.8
430.076	6393.93
430.284	6418.5
430.491	6697.03
430.699	6824
430.906	7030.85
431.114	6950.98
431.321	7151.68
431.528	7596.09
431.736	7944.24
431.943	8124.46
432.15	7985.2
432.358	7934
432.565	8509.48
432.772	8620.07
432.979	8867.88
433.187	9115.68
433.394	9023.52
433.601	9553.94
433.808	9635.86
434.016	9736.21
434.223	9875.48
434.43	10770.44
434.637	10553.35
434.844	11182.08
435.052	11292.67
435.259	11341.82
435.466	11218.94
435.673	11208.7
435.88	11980.79
436.087	12378.09
436.294	12396.53
436.501	12290.03
436.708	12644.33
436.915	12965.86
437.122	13410.27
437.329	13690.84
437.537	13791.19
437.743	14176.21
437.95	14161.87
438.157	14811.08
438.364	15255.49
438.571	15519.68
438.778	15505.34
438.985	16682.92
439.192	15929.27
439.399	16547.76
439.606	15994.81
439.813	17086.37
440.02	18243.48
440.227	17778.59
440.433	17520.54
440.64	18208.66
440.847	18003.86
441.054	18489.23
441.261	20074.36
441.467	19459.97
441.674	20162.42
441.881	20551.54
442.088	20500.34
442.294	20246.39
442.501	20895.6
442.708	21352.29
442.914	21890.91
443.121	22927.18
443.328	22347.61
443.534	24072
443.741	23580.48
443.948	23002.96
444.154	24540.98
444.361	24434.49
444.568	24454.97
444.774	24612.66
444.981	25128.75
445.187	25687.84
445.394	26648.34
445.6	26445.59
445.807	28851.95
446.013	27463.43
446.22	28131.07
446.426	29316.84
446.633	29478.63
446.839	30684.89
447.046	29054.7
447.252	31004.37
447.459	30836.44
447.665	30863.06
447.871	32272.06
448.078	33384.11
448.284	31649.48
448.491	32951.99
448.697	34119.33
448.903	34520.73
449.11	34903.7
449.316	33892.01
449.522	34533.02
449.728	35806.86
449.935	35817.1
450.141	36144.77
450.347	37019.25
450.553	35733.13
450.76	35806.86
450.966	37197.43
451.172	36621.95
451.378	38520.41
451.584	37150.32
451.791	37867.11
451.997	37830.25
452.203	38254.18
452.409	38436.45
452.615	38362.72
452.821	36564.6
453.027	36580.99
453.233	38049.38
453.44	37338.74
453.646	37615.21
453.852	37195.38
454.058	38241.89
454.264	36890.23
454.47	37815.91
454.676	36578.94
454.882	38063.72
455.088	34774.68
455.294	35258
455.5	36003.46
455.705	36050.56
455.911	35030.68
456.117	34078.37
456.323	33623.72
456.529	31983.3
456.735	33113.78
456.941	32241.34
457.147	32024.26
457.352	30852.82
457.558	30758.61
457.764	30973.65
457.97	30265.05
458.176	29779.68
458.381	29376.23
458.587	27985.66
458.793	28055.29
458.999	26494.74
459.204	28569.33
459.41	27614.98
459.616	25786.15
459.821	25845.54
460.027	25999.13
460.233	25161.51
460.438	23998.27
460.644	23983.93
460.85	23097.16
461.055	22984.52
461.261	22769.49
461.466	20899.69
461.672	20367.22
461.878	21741.41
462.083	20199.29
462.289	19810.17
462.494	19656.57
462.7	18900.87
462.905	18362.26
463.111	18782.09
463.316	18892.68
463.522	18943.88
463.727	18515.86
463.932	18550.67
464.138	18073.49
464.343	18130.84
464.549	17731.48
464.754	18268.05
464.959	18409.36
465.165	18184.09
465.37	17172.39
465.575	16844.71
465.781	17653.66
465.986	17346.47
466.191	16734.12
466.397	16582.57
466.602	15550.4
466.807	16365.49
