Data from USB4F104151__45__14-29-53-134.txt Node

Date: Thu Mar 13 14:29:53 EDT 2025
User: louis
Spectrometer: USB4F10415
Trigger mode: 4
Integration Time (sec): 2.500000E-2
Scans to average: 1
Electric dark correction enabled: true
Nonlinearity correction enabled: false
Boxcar width: 0
XAxis mode: Wavelengths
Number of Pixels in Spectrum: 3648
>>>>>Begin Spectral Data<<<<<
178.204	-131.24
178.424	-131.24
178.644	-131.24
178.864	-118.95
179.084	-137.38
179.304	-28.84
179.524	-71.85
179.744	55.12
179.964	32.6
180.184	16.21
180.404	22.36
180.624	-6.31
180.844	48.98
181.064	-90.28
181.283	32.6
181.503	63.32
181.723	-73.9
181.943	-57.51
182.163	53.08
182.383	-0.17
182.602	61.27
182.822	65.36
183.042	73.56
183.262	-65.71
183.482	130.9
183.701	44.88
183.921	-20.65
184.141	-16.55
184.361	14.17
184.58	16.21
184.8	40.79
185.02	34.64
185.239	48.98
185.459	44.88
185.679	65.36
185.898	-75.95
186.118	57.17
186.338	32.6
186.557	34.64
186.777	-30.89
186.997	-55.47
187.216	-6.31
187.436	81.75
187.655	61.27
187.875	87.89
188.095	22.36
188.314	28.5
188.534	108.37
188.753	73.56
188.973	16.21
189.192	59.22
189.412	98.13
189.631	-2.22
189.851	-37.03
190.07	94.04
190.29	-16.55
190.509	-8.36
190.729	-12.46
190.948	81.75
191.168	186.19
191.387	-20.65
191.607	-39.08
191.826	67.41
192.045	-20.65
192.265	67.41
192.484	81.75
192.704	-4.27
192.923	-4.27
193.142	24.4
193.362	48.98
193.581	85.84
193.8	83.8
194.02	91.99
194.239	59.22
194.458	-14.51
194.678	40.79
194.897	51.03
195.116	1.88
195.335	91.99
195.555	16.21
195.774	-14.51
195.993	73.56
196.212	10.07
196.432	-16.55
196.651	-2.22
196.87	-12.46
197.089	32.6
197.308	85.84
197.528	77.65
197.747	18.26
197.966	-20.65
198.185	83.8
198.404	-14.51
198.623	8.02
198.842	40.79
199.062	128.85
199.281	77.65
199.5	-37.03
199.719	46.93
199.938	36.69
200.157	53.08
200.376	36.69
200.595	122.71
200.814	22.36
201.033	-8.36
201.252	67.41
201.471	71.51
201.69	71.51
201.909	91.99
202.128	22.36
202.347	48.98
202.566	94.04
202.785	-16.55
203.004	-37.03
203.223	81.75
203.442	-16.55
203.661	16.21
203.879	24.4
204.098	16.21
204.317	3.93
204.536	79.7
204.755	51.03
204.974	3.93
205.193	24.4
205.411	34.64
205.63	14.17
205.849	61.27
206.068	24.4
206.287	48.98
206.505	61.27
206.724	83.8
206.943	-24.75
207.162	20.31
207.381	14.17
207.599	8.02
207.818	-2.22
208.037	-10.41
208.255	40.79
208.474	-0.17
208.693	-14.51
208.911	32.6
209.13	-8.36
209.349	98.13
209.567	-8.36
209.786	98.13
210.005	20.31
210.223	1.88
210.442	-47.27
210.661	20.31
210.879	28.5
211.098	16.21
211.316	46.93
211.535	98.13
211.753	26.45
211.972	48.98
212.191	98.13
212.409	26.45
212.628	5.97
212.846	-24.75
213.065	51.03
213.283	73.56
213.502	48.98
213.72	-0.17
213.938	36.69
214.157	24.4
214.375	8.02
214.594	38.74
214.812	-4.27
215.031	28.5
215.249	57.17
215.467	48.98
215.686	34.64
215.904	16.21
216.122	77.65
216.341	159.57
216.559	-22.7
216.778	75.6
216.996	12.12
217.214	53.08
217.432	18.26
217.651	-24.75
217.869	61.27
218.087	8.02
218.306	34.64
218.524	77.65
218.742	32.6
218.96	-6.31
219.179	-14.51
219.397	-51.37
219.615	75.6
219.833	57.17
220.051	30.55
220.27	69.46
220.488	124.76
220.706	51.03
220.924	40.79
221.142	34.64
221.36	-0.17
221.578	10.07
221.796	139.09
222.015	51.03
222.233	18.26
222.451	5.97
222.669	-12.46
222.887	40.79
223.105	28.5
223.323	98.13
223.541	-4.27
223.759	61.27
223.977	24.4
224.195	100.18
224.413	65.36
224.631	108.37
224.849	57.17
225.067	122.71
225.285	-32.94
225.503	26.45
225.721	-8.36
225.939	98.13
226.157	16.21
226.375	83.8
226.592	-20.65
226.81	-4.27
227.028	34.64
227.246	81.75
227.464	20.31
227.682	57.17
227.9	55.12
228.117	57.17
228.335	-43.18
228.553	59.22
228.771	36.69
228.989	32.6
229.206	53.08
229.424	-2.22
229.642	34.64
229.86	-37.03
230.077	61.27
230.295	-4.27
230.513	40.79
230.731	36.69
230.948	98.13
231.166	38.74
231.384	-49.32
231.601	30.55
231.819	135
232.037	24.4
232.254	-37.03
232.472	48.98
232.689	-26.79
232.907	98.13
233.125	-10.41
233.342	69.46
233.56	-84.14
233.777	32.6
233.995	51.03
234.213	102.23
234.43	-16.55
234.648	-0.17
234.865	36.69
235.083	94.04
235.3	-4.27
235.518	20.31
235.735	122.71
235.953	8.02
236.17	51.03
236.388	-90.28
236.605	79.7
236.822	20.31
237.04	85.84
237.257	32.6
237.475	-73.9
237.692	18.26
237.909	8.02
238.127	-14.51
238.344	61.27
238.562	57.17
238.779	14.17
238.996	-30.89
239.214	48.98
239.431	67.41
239.648	8.02
239.865	8.02
240.083	57.17
240.3	-28.84
240.517	10.07
240.735	-32.94
240.952	85.84
241.169	61.27
241.386	1.88
241.603	8.02
241.821	-6.31
242.038	16.21
242.255	3.93
242.472	5.97
242.689	126.8
242.907	28.5
243.124	91.99
243.341	-37.03
243.558	28.5
243.775	-82.09
243.992	8.02
244.209	59.22
244.426	61.27
244.643	83.8
244.86	26.45
245.078	14.17
245.295	130.9
245.512	40.79
245.729	26.45
245.946	59.22
246.163	106.32
246.38	16.21
246.597	-4.27
246.814	65.36
247.031	10.07
247.248	69.46
247.464	24.4
247.681	8.02
247.898	89.94
248.115	89.94
248.332	-16.55
248.549	100.18
248.766	32.6
248.983	34.64
249.2	32.6
249.417	67.41
249.633	28.5
249.85	65.36
250.067	42.84
250.284	61.27
250.501	51.03
250.717	57.17
250.934	-41.13
251.151	114.52
251.368	-20.65
251.585	36.69
251.801	48.98
252.018	-47.27
252.235	44.88
252.451	73.56
252.668	-32.94
252.885	57.17
253.102	100.18
253.318	8.02
253.535	14.17
253.752	20.31
253.968	10.07
254.185	16.21
254.401	34.64
254.618	44.88
254.835	26.45
255.051	98.13
255.268	28.5
255.484	28.5
255.701	34.64
255.917	89.94
256.134	-4.27
256.351	3.93
256.567	10.07
256.784	18.26
257	-30.89
257.217	139.09
257.433	61.27
257.65	16.21
257.866	67.41
258.082	24.4
258.299	48.98
258.515	-0.17
258.732	53.08
258.948	48.98
259.165	18.26
259.381	16.21
259.597	20.31
259.814	24.4
260.03	65.36
260.246	34.64
260.463	28.5
260.679	1.88
260.895	26.45
261.112	12.12
261.328	8.02
261.544	32.6
261.761	63.32
261.977	-16.55
262.193	1.88
262.409	12.12
262.626	36.69
262.842	89.94
263.058	-20.65
263.274	61.27
263.49	16.21
263.707	26.45
263.923	77.65
264.139	36.69
264.355	-57.51
264.571	59.22
264.787	83.8
265.004	116.56
265.22	24.4
265.436	36.69
265.652	-16.55
265.868	20.31
266.084	1.88
266.3	55.12
266.516	-0.17
266.732	-6.31
266.948	-0.17
267.164	-0.17
267.38	-12.46
267.596	48.98
267.812	18.26
268.028	79.7
268.244	51.03
268.46	34.64
268.676	12.12
268.892	-26.79
269.108	-0.17
269.324	18.26
269.54	12.12
269.756	91.99
269.972	-12.46
270.188	16.21
270.403	-16.55
270.619	20.31
270.835	20.31
271.051	79.7
271.267	106.32
271.483	3.93
271.698	-4.27
271.914	28.5
272.13	57.17
272.346	20.31
272.562	69.46
272.777	106.32
272.993	8.02
273.209	36.69
273.425	57.17
273.64	-16.55
273.856	1.88
274.072	42.84
274.287	16.21
274.503	24.4
274.719	-47.27
274.934	36.69
275.15	18.26
275.366	48.98
275.581	40.79
275.797	40.79
276.012	63.32
276.228	36.69
276.444	67.41
276.659	83.8
276.875	-32.94
277.09	-0.17
277.306	10.07
277.521	40.79
277.737	3.93
277.952	44.88
278.168	18.26
278.383	75.6
278.599	-32.94
278.814	32.6
279.03	10.07
279.245	65.36
279.461	77.65
279.676	114.52
279.892	73.56
280.107	48.98
280.322	40.79
280.538	40.79
280.753	-51.37
280.969	48.98
281.184	44.88
281.399	67.41
281.615	-10.41
281.83	42.84
282.045	-8.36
282.26	102.23
282.476	1.88
282.691	110.42
282.906	73.56
283.122	26.45
283.337	61.27
283.552	55.12
283.767	28.5
283.983	42.84
284.198	-14.51
284.413	26.45
284.628	-8.36
284.843	34.64
285.058	12.12
285.274	8.02
285.489	8.02
285.704	44.88
285.919	48.98
286.134	5.97
286.349	55.12
286.564	-32.94
286.779	73.56
286.995	-20.65
287.21	-41.13
287.425	81.75
287.64	-4.27
287.855	-0.17
288.07	-32.94
288.285	26.45
288.5	128.85
288.715	73.56
288.93	-32.94
289.145	40.79
289.36	69.46
289.575	32.6
289.79	-4.27
290.004	12.12
290.219	77.65
290.434	40.79
290.649	75.6
290.864	-22.7
291.079	-67.75
291.294	83.8
291.509	10.07
291.724	85.84
291.938	8.02
292.153	96.08
292.368	3.93
292.583	-0.17
292.798	106.32
293.012	48.98
293.227	57.17
293.442	51.03
293.657	63.32
293.871	44.88
294.086	-14.51
294.301	149.33
294.516	8.02
294.73	73.56
294.945	53.08
295.16	3.93
295.374	73.56
295.589	73.56
295.804	-37.03
296.018	28.5
296.233	67.41
296.447	18.26
296.662	59.22
296.877	-8.36
297.091	83.8
297.306	8.02
297.52	34.64
297.735	114.52
297.949	22.36
298.164	12.12
298.378	36.69
298.593	1.88
298.807	-123.05
299.022	73.56
299.236	63.32
299.451	89.94
299.665	-43.18
299.88	1.88
300.094	81.75
300.309	83.8
300.523	48.98
300.737	32.6
300.952	32.6
301.166	94.04
301.381	-6.31
301.595	69.46
301.809	24.4
302.024	40.79
302.238	3.93
302.452	10.07
302.667	16.21
302.881	18.26
303.095	57.17
303.309	57.17
303.524	48.98
303.738	-28.84
303.952	16.21
304.166	48.98
304.381	8.02
304.595	114.52
304.809	-2.22
305.023	51.03
305.237	32.6
305.452	57.17
305.666	53.08
305.88	124.76
306.094	12.12
306.308	87.89
306.522	57.17
306.736	24.4
306.95	-0.17
307.164	16.21
307.379	57.17
307.593	53.08
307.807	91.99
308.021	73.56
308.235	34.64
308.449	67.41
308.663	71.51
308.877	106.32
309.091	20.31
309.305	67.41
309.519	-41.13
309.733	36.69
309.947	-6.31
310.161	73.56
310.374	28.5
310.588	87.89
310.802	-24.75
311.016	24.4
311.23	32.6
311.444	30.55
311.658	40.79
311.872	32.6
312.085	83.8
312.299	81.75
312.513	12.12
312.727	46.93
312.941	-96.43
313.154	18.26
313.368	75.6
313.582	87.89
313.796	-2.22
314.009	51.03
314.223	89.94
314.437	77.65
314.651	40.79
314.864	12.12
315.078	28.5
315.292	-41.13
315.505	55.12
315.719	53.08
315.933	-8.36
316.146	40.79
316.36	-20.65
316.573	44.88
316.787	94.04
317.001	10.07
317.214	-0.17
317.428	20.31
317.641	-12.46
317.855	65.36
318.068	-0.17
318.282	98.13
318.495	63.32
318.709	36.69
318.922	-30.89
319.136	16.21
319.349	106.32
319.563	22.36
319.776	51.03
319.99	-53.42
320.203	126.8
320.417	-67.75
320.63	38.74
320.843	73.56
321.057	42.84
321.27	-14.51
321.483	22.36
321.697	46.93
321.91	36.69
322.124	18.26
322.337	83.8
322.55	42.84
322.763	42.84
322.977	51.03
323.19	61.27
323.403	89.94
323.617	59.22
323.83	163.67
324.043	26.45
324.256	100.18
324.469	-20.65
324.683	28.5
324.896	26.45
325.109	57.17
325.322	20.31
325.535	28.5
325.748	-20.65
325.962	42.84
326.175	42.84
326.388	40.79
326.601	18.26
326.814	89.94
327.027	69.46
327.24	59.22
327.453	-2.22
327.666	108.37
327.879	-14.51
328.092	53.08
328.305	8.02
328.518	-18.6
328.731	-30.89
328.944	10.07
329.157	63.32
329.37	48.98
329.583	114.52
329.796	89.94
330.009	-37.03
330.222	114.52
330.435	108.37
330.648	55.12
330.861	12.12
331.073	81.75
331.286	91.99
331.499	81.75
331.712	34.64
331.925	3.93
332.138	110.42
332.35	73.56
332.563	36.69
332.776	57.17
332.989	53.08
333.202	65.36
333.414	-8.36
333.627	91.99
333.84	81.75
334.053	100.18
334.265	24.4
334.478	42.84
334.691	59.22
334.903	-0.17
335.116	28.5
335.329	51.03
335.541	77.65
335.754	171.86
335.966	-2.22
336.179	28.5
336.392	-10.41
336.604	-65.71
336.817	94.04
337.029	18.26
337.242	24.4
337.454	106.32
337.667	-0.17
337.88	126.8
338.092	44.88
338.305	53.08
338.517	22.36
338.729	1.88
338.942	48.98
339.154	67.41
339.367	-43.18
339.579	-4.27
339.792	65.36
340.004	26.45
340.217	51.03
340.429	59.22
340.641	40.79
340.854	75.6
341.066	48.98
341.278	73.56
341.491	57.17
341.703	75.6
341.915	26.45
342.128	20.31
342.34	36.69
342.552	-12.46
342.764	59.22
342.977	-61.61
343.189	20.31
343.401	16.21
343.613	-47.27
343.826	79.7
344.038	40.79
344.25	73.56
344.462	-16.55
344.674	-20.65
344.886	-12.46
345.099	73.56
345.311	32.6
345.523	116.56
345.735	3.93
345.947	102.23
346.159	22.36
346.371	14.17
346.583	36.69
346.795	116.56
347.007	24.4
347.219	83.8
347.431	34.64
347.643	83.8
347.855	36.69
348.067	122.71
348.279	-8.36
348.491	16.21
348.703	1.88
348.915	3.93
349.127	12.12
349.339	44.88
349.551	-12.46
349.763	69.46
349.975	-14.51
350.187	77.65
350.399	48.98
350.61	-16.55
350.822	20.31
351.034	57.17
351.246	24.4
351.458	53.08
351.669	94.04
351.881	67.41
352.093	71.51
352.305	79.7
352.517	18.26
352.728	130.9
352.94	163.67
353.152	98.13
353.363	36.69
353.575	98.13
353.787	83.8
353.999	30.55
354.21	32.6
354.422	-32.94
354.633	57.17
354.845	18.26
355.057	1.88
355.268	98.13
355.48	20.31
355.692	48.98
355.903	-16.55
356.115	96.08
356.326	51.03
356.538	96.08
356.749	34.64
356.961	149.33
357.172	51.03
357.384	-2.22
357.595	110.42
357.807	-4.27
358.018	28.5
358.23	24.4
358.441	55.12
358.653	91.99
358.864	65.36
359.075	16.21
359.287	73.56
359.498	26.45
359.709	73.56
359.921	67.41
360.132	65.36
360.344	44.88
360.555	-14.51
360.766	114.52
360.977	36.69
361.189	-0.17
361.4	71.51
361.611	67.41
361.823	69.46
362.034	32.6
362.245	42.84
362.456	26.45
362.667	32.6
362.879	67.41
363.09	91.99
363.301	98.13
363.512	75.6
363.723	69.46
363.935	-12.46
364.146	85.84
364.357	57.17
364.568	65.36
364.779	8.02
364.99	75.6
365.201	-8.36
365.412	100.18
365.623	53.08
365.834	89.94
366.045	1.88
366.256	48.98
366.467	85.84
366.678	32.6
366.889	8.02
367.1	36.69
367.311	34.64
367.522	-14.51
367.733	135
367.944	87.89
368.155	48.98
368.366	85.84
368.577	44.88
368.788	124.76
368.999	106.32
369.209	40.79
369.42	141.14
369.631	75.6
369.842	65.36
370.053	28.5
370.264	81.75
370.474	-24.75
370.685	32.6
370.896	-8.36
371.107	89.94
371.317	16.21
371.528	122.71
371.739	53.08
371.95	190.29
372.16	65.36
372.371	36.69
372.582	34.64
372.792	130.9
373.003	46.93
373.214	10.07
373.424	65.36
373.635	61.27
373.846	110.42
374.056	24.4
374.267	53.08
374.477	65.36
374.688	65.36
374.898	28.5
375.109	73.56
375.319	42.84
375.53	57.17
375.74	91.99
375.951	71.51
376.161	85.84
376.372	8.02
376.582	16.21
376.793	40.79
377.003	36.69
377.214	14.17
377.424	61.27
377.635	44.88
377.845	-4.27
378.055	91.99
378.266	83.8
378.476	137.04
378.686	32.6
378.897	116.56
379.107	75.6
379.317	20.31
379.528	48.98
379.738	106.32
379.948	-41.13
380.158	106.32
380.369	24.4
380.579	89.94
380.789	32.6
380.999	51.03
381.21	81.75
381.42	89.94
381.63	-28.84
381.84	65.36
382.05	59.22
382.261	53.08
382.471	53.08
382.681	65.36
382.891	91.99
383.101	98.13
383.311	-16.55
383.521	69.46
383.731	36.69
383.941	100.18
384.151	67.41
384.361	67.41
384.571	-4.27
384.781	75.6
384.991	69.46
385.201	167.76
385.411	122.71
385.621	44.88
385.831	48.98
386.041	-8.36
386.251	83.8
386.461	46.93
386.671	-41.13
386.881	124.76
387.091	-14.51
387.301	34.64
387.511	65.36
387.72	94.04
387.93	75.6
388.14	81.75
388.35	87.89
388.56	98.13
388.769	106.32
388.979	81.75
389.189	81.75
389.399	85.84
389.609	63.32
389.818	94.04
390.028	1.88
390.238	114.52
390.447	53.08
390.657	139.09
390.867	63.32
391.076	10.07
391.286	65.36
391.496	53.08
391.705	53.08
391.915	81.75
392.125	85.84
392.334	-0.17
392.544	139.09
392.753	73.56
392.963	98.13
393.172	96.08
393.382	3.93
393.591	81.75
393.801	106.32
394.01	145.24
394.22	24.4
394.429	48.98
394.639	106.32
394.848	141.14
395.058	102.23
395.267	63.32
395.477	130.9
395.686	141.14
395.895	98.13
396.105	186.19
396.314	81.75
396.524	124.76
396.733	118.61
396.942	130.9
397.152	153.43
397.361	61.27
397.57	143.19
397.78	122.71
397.989	122.71
398.198	159.57
398.407	65.36
398.617	75.6
398.826	110.42
399.035	71.51
399.244	106.32
399.453	141.14
399.663	85.84
399.872	91.99
400.081	81.75
400.29	135
400.499	112.47
400.708	130.9
400.917	130.9
401.127	116.56
401.336	20.31
401.545	233.3
401.754	137.04
401.963	143.19
402.172	114.52
402.381	53.08
402.59	89.94
402.799	149.33
403.008	147.28
403.217	122.71
403.426	214.87
403.635	55.12
403.844	141.14
404.053	130.9
404.262	130.9
404.471	135
404.68	159.57
404.888	173.91
405.097	141.14
405.306	194.39
405.515	163.67
405.724	194.39
405.933	139.09
406.142	151.38
406.35	229.2
406.559	139.09
406.768	180.05
406.977	249.68
407.185	227.15
407.394	188.24
407.603	204.63
407.812	157.52
408.02	221.01
408.229	223.06
408.438	200.53
408.646	188.24
408.855	288.59
409.064	247.63
409.272	272.21
409.481	327.5
409.69	266.07
409.898	339.79
410.107	319.31
410.315	307.02
410.524	360.27
410.733	368.46
410.941	323.41
411.15	345.94
411.358	288.59
411.567	450.38
411.775	343.89
411.984	368.46
412.192	442.19
412.401	376.66
412.609	548.68
412.818	474.96
413.026	507.73
413.234	470.86
413.443	532.3
413.651	517.97
413.86	599.88
414.068	608.08
414.276	669.52
414.485	558.92
414.693	663.37
414.901	771.91
415.11	720.71
415.318	769.87
415.526	704.33
415.734	798.54
415.943	829.26
416.151	868.17
416.359	909.13
416.567	819.02
416.776	874.31
416.984	933.7
417.192	1011.53
417.4	1027.91
417.608	1017.67
417.817	991.05
418.025	1107.78
418.233	1238.85
418.441	1263.43
418.649	1140.55
418.857	1345.34
419.065	1304.39
419.273	1343.3
419.481	1470.27
419.689	1496.89
419.897	1500.99
420.105	1597.24
420.313	1584.96
420.521	1728.31
420.729	1646.4
420.937	1834.81
421.145	1795.9
421.353	1886.01
421.561	1869.62
421.769	2010.93
421.977	2105.14
422.185	2125.62
422.393	2246.45
422.601	2359.09
422.809	2393.9
423.017	2379.57
423.224	2449.2
423.432	2598.7
423.64	2475.82
423.848	2854.7
424.056	2711.34
424.263	2979.62
424.471	2998.06
424.679	2998.06
424.887	3153.7
425.094	3227.43
425.302	3147.56
425.51	3448.61
425.718	3505.95
425.925	3530.53
426.133	3628.83
426.341	3931.93
426.548	4065.05
426.756	3958.55
426.964	4239.12
427.171	4304.66
427.379	4427.54
427.586	4480.78
427.794	4718.35
428.001	4943.63
428.209	5009.16
428.417	4927.24
428.624	5304.07
428.832	5222.15
429.039	5207.81
429.247	5205.77
429.454	5744.38
429.662	6244.09
429.869	5801.72
430.076	6184.69
430.284	5754.62
430.491	6381.3
430.699	6586.1
430.906	6565.62
431.114	6653.68
431.321	6901.48
431.528	6942.44
431.736	7366.37
431.943	7481.06
432.15	7587.55
432.358	7657.18
432.565	7974.62
432.772	7958.24
432.979	8419.03
433.187	8580.82
433.394	8707.79
433.601	8935.12
433.808	9014.99
434.016	9193.16
434.223	9674.43
434.43	10194.62
434.637	9772.74
434.844	10602.16
435.052	10661.55
435.259	10747.57
435.466	10550.96
435.673	10763.95
435.88	11275.95
436.087	12009.12
436.294	11996.83
436.501	11740.83
436.708	11730.59
436.915	12322.46
437.122	12549.78
437.329	13000.33
437.537	13174.41
437.743	13385.35
437.95	13280.91
438.157	13934.21
438.364	14472.82
438.571	14130.81
438.778	14286.46
438.985	15883.87
439.192	15040.11
439.399	15644.26
439.606	15201.9
439.813	16027.23
440.02	17118.8
440.227	16963.15
440.433	16477.79
440.64	17239.63
440.847	16805.46
441.054	17612.36
441.261	18323.01
441.467	18464.32
441.674	18726.46
441.881	19250.74
442.088	19291.69
442.294	19193.39
442.501	19549.74
442.708	19869.22
442.914	20663.83
443.121	21399.05
443.328	21059.09
443.534	22719.99
443.741	21995.01
443.948	21833.22
444.154	23176.69
444.361	23070.2
444.568	23166.45
444.774	23264.75
444.981	23203.32
445.187	23969.26
445.394	24837.59
445.6	24993.24
445.807	27450.8
446.013	25779.66
446.22	26426.82
446.426	27438.51
446.633	27692.46
446.839	28786.08
447.046	27575.73
447.252	29056.41
447.459	29379.99
447.665	28781.98
447.871	30365.06
448.078	31614.32
448.284	29912.46
448.491	30639.49
448.697	31858.03
448.903	32386.41
449.11	32458.09
449.316	32396.65
449.522	32933.21
449.728	33652.05
449.935	33645.91
450.141	33598.8
450.347	34614.6
450.553	33361.24
450.76	33582.42
450.966	34903.36
451.172	34374.98
451.378	35554.61
451.584	34755.91
451.791	35046.72
451.997	35499.32
452.203	36193.58
452.409	36001.07
452.615	35786.04
452.821	34229.58
453.027	33738.07
453.233	35949.87
453.44	34288.97
453.646	34551.11
453.852	34987.33
454.058	35231.04
454.264	34149.71
454.47	34889.02
454.676	33891.66
454.882	35315
455.088	32626.02
455.294	32542.05
455.5	32951.65
455.705	33408.34
455.911	32099.69
456.117	31722.87
456.323	30975.36
456.529	29578.64
456.735	30778.75
456.941	30289.29
457.147	29341.08
457.352	28437.92
457.558	28159.4
457.764	28026.28
457.97	27393.46
458.176	26836.41
458.381	27092.41
458.587	25906.63
458.793	25959.88
458.999	24237.54
459.204	26142.15
459.41	25247.19
459.616	23414.26
459.821	23705.07
460.027	23510.51
460.233	23191.03
460.438	21728.78
460.644	22238.72
460.85	20954.65
461.055	20942.36
461.261	20684.31
461.466	19248.69
461.672	18552.38
461.878	20002.34
462.083	18280
462.289	18015.81
462.494	18148.93
462.7	17102.42
462.905	16752.21
463.111	17362.51
463.316	17346.12
463.522	16959.06
463.727	17032.79
463.932	16821.84
464.138	16574.04
464.343	16918.1
464.549	16197.21
464.754	16784.98
464.959	16668.25
465.165	16236.13
465.37	15699.56
465.575	15275.63
465.781	15771.24
465.986	16135.78
466.191	15435.37
466.397	15206
466.602	14419.58
466.807	15187.57
467.012	14863.99
467.218	14909.04
467.423	14646.9
467.628	14538.36
