Data from USB4F104151__67__14-30-15-053.txt Node

Date: Thu Mar 13 14:30:15 EDT 2025
User: louis
Spectrometer: USB4F10415
Trigger mode: 4
Integration Time (sec): 2.500000E-2
Scans to average: 1
Electric dark correction enabled: true
Nonlinearity correction enabled: false
Boxcar width: 0
XAxis mode: Wavelengths
Number of Pixels in Spectrum: 3648
>>>>>Begin Spectral Data<<<<<
178.204	-176.98
178.424	-176.98
178.644	-176.98
178.864	-230.23
179.084	-107.35
179.304	-107.35
179.524	3.24
179.744	-27.48
179.964	-2.9
180.184	50.35
180.404	38.06
180.624	-11.09
180.844	23.72
181.064	-17.24
181.283	48.3
181.503	-54.1
181.723	56.49
181.943	19.63
182.163	-21.33
182.383	-17.24
182.602	-2.9
182.822	87.21
183.042	-27.48
183.262	-25.43
183.482	38.06
183.701	-11.09
183.921	29.87
184.141	81.07
184.361	50.35
184.58	5.29
184.8	-0.85
185.02	21.67
185.239	-60.24
185.459	-19.29
185.679	58.54
185.898	-43.86
186.118	97.45
186.338	64.68
186.557	31.91
186.777	-74.58
186.997	-15.19
187.216	46.25
187.436	50.35
187.655	62.63
187.875	70.83
188.095	-19.29
188.314	99.5
188.534	5.29
188.753	-47.96
188.973	-7
189.192	-35.67
189.412	-4.95
189.631	29.87
189.851	-39.76
190.07	13.48
190.29	-66.39
190.509	7.34
190.729	-23.38
190.948	142.5
191.168	148.65
191.387	7.34
191.607	1.19
191.826	-35.67
192.045	-60.24
192.265	7.34
192.484	56.49
192.704	-11.09
192.923	19.63
193.142	136.36
193.362	-82.77
193.581	-0.85
193.8	13.48
194.02	7.34
194.239	40.11
194.458	-2.9
194.678	42.15
194.897	11.43
195.116	33.96
195.335	-23.38
195.555	87.21
195.774	25.77
195.993	42.15
196.212	48.3
196.432	46.25
196.651	17.58
196.87	64.68
197.089	64.68
197.308	38.06
197.528	109.74
197.747	-11.09
197.966	21.67
198.185	23.72
198.404	-9.05
198.623	54.44
198.842	21.67
199.062	-11.09
199.281	74.92
199.5	99.5
199.719	54.44
199.938	52.39
200.157	1.19
200.376	74.92
200.595	27.82
200.814	-0.85
201.033	17.58
201.252	54.44
201.471	36.01
201.69	58.54
201.909	7.34
202.128	29.87
202.347	13.48
202.566	7.34
202.785	52.39
203.004	38.06
203.223	64.68
203.442	46.25
203.661	70.83
203.879	-19.29
204.098	13.48
204.317	-25.43
204.536	38.06
204.755	27.82
204.974	64.68
205.193	29.87
205.411	70.83
205.63	-27.48
205.849	103.59
206.068	56.49
206.287	-15.19
206.505	44.2
206.724	-9.05
206.943	5.29
207.162	-39.76
207.381	-50
207.599	13.48
207.818	23.72
208.037	13.48
208.255	-2.9
208.474	21.67
208.693	89.26
208.911	-25.43
209.13	68.78
209.349	54.44
209.567	46.25
209.786	21.67
210.005	62.63
210.223	-27.48
210.442	-27.48
210.661	58.54
210.879	15.53
211.098	40.11
211.316	44.2
211.535	-2.9
211.753	-0.85
211.972	-11.09
212.191	-54.1
212.409	-47.96
212.628	7.34
212.846	9.39
213.065	70.83
213.283	50.35
213.502	-7
213.72	25.77
213.938	46.25
214.157	23.72
214.375	-4.95
214.594	46.25
214.812	40.11
215.031	46.25
215.249	60.59
215.467	5.29
215.686	-2.9
215.904	66.73
216.122	-2.9
216.341	74.92
216.559	62.63
216.778	40.11
216.996	72.87
217.214	-15.19
217.432	31.91
217.651	5.29
217.869	-19.29
218.087	-41.81
218.306	-2.9
218.524	56.49
218.742	36.01
218.96	62.63
219.179	13.48
219.397	5.29
219.615	91.31
219.833	50.35
220.051	-60.24
220.27	29.87
220.488	58.54
220.706	46.25
220.924	-17.24
221.142	1.19
221.36	-17.24
221.578	13.48
221.796	89.26
222.015	33.96
222.233	66.73
222.451	21.67
222.669	46.25
222.887	21.67
223.105	46.25
223.323	70.83
223.541	-43.86
223.759	15.53
223.977	64.68
224.195	40.11
224.413	15.53
224.631	13.48
224.849	7.34
225.067	87.21
225.285	46.25
225.503	-29.52
225.721	31.91
225.939	58.54
226.157	101.55
226.375	79.02
226.592	-31.57
226.81	38.06
227.028	33.96
227.246	62.63
227.464	-33.62
227.682	48.3
227.9	-17.24
228.117	52.39
228.335	13.48
228.553	-37.72
228.771	105.64
228.989	5.29
229.206	-9.05
229.424	11.43
229.642	48.3
229.86	-19.29
230.077	81.07
230.295	7.34
230.513	44.2
230.731	-15.19
230.948	70.83
231.166	119.98
231.384	23.72
231.601	-2.9
231.819	91.31
232.037	-0.85
232.254	13.48
232.472	46.25
232.689	-60.24
232.907	81.07
233.125	31.91
233.342	38.06
233.56	-17.24
233.777	9.39
233.995	1.19
234.213	160.94
234.43	105.64
234.648	-15.19
234.865	-2.9
235.083	144.55
235.3	-17.24
235.518	13.48
235.735	46.25
235.953	64.68
236.17	-33.62
236.388	64.68
236.605	29.87
236.822	81.07
237.04	-0.85
237.257	7.34
237.475	-23.38
237.692	-35.67
237.909	21.67
238.127	40.11
238.344	-11.09
238.562	15.53
238.779	-17.24
238.996	-2.9
239.214	15.53
239.431	-31.57
239.648	29.87
239.865	-50
240.083	-17.24
240.3	29.87
240.517	-27.48
240.735	46.25
240.952	60.59
241.169	31.91
241.386	25.77
241.603	-27.48
241.821	5.29
242.038	70.83
242.255	46.25
242.472	-47.96
242.689	5.29
242.907	21.67
243.124	-33.62
243.341	1.19
243.558	-17.24
243.775	9.39
243.992	-66.39
244.209	-11.09
244.426	124.07
244.643	46.25
244.86	38.06
245.078	70.83
245.295	21.67
245.512	54.44
245.729	29.87
245.946	-9.05
246.163	40.11
246.38	54.44
246.597	-23.38
246.814	9.39
247.031	-13.14
247.248	50.35
247.464	33.96
247.681	-11.09
247.898	54.44
248.115	50.35
248.332	54.44
248.549	-13.14
248.766	17.58
248.983	27.82
249.2	-52.05
249.417	79.02
249.633	21.67
249.85	31.91
250.067	15.53
250.284	-2.9
250.501	103.59
250.717	70.83
250.934	29.87
251.151	25.77
251.368	33.96
251.585	48.3
251.801	29.87
252.018	-2.9
252.235	91.31
252.451	46.25
252.668	-27.48
252.885	-11.09
253.102	-41.81
253.318	17.58
253.535	-27.48
253.752	87.21
253.968	1.19
254.185	-17.24
254.401	31.91
254.618	-9.05
254.835	-52.05
255.051	128.17
255.268	42.15
255.484	50.35
255.701	15.53
255.917	38.06
256.134	-68.44
256.351	81.07
256.567	44.2
256.784	-27.48
257	42.15
257.217	-23.38
257.433	-13.14
257.65	-52.05
257.866	44.2
258.082	-39.76
258.299	-7
258.515	58.54
258.732	-17.24
258.948	-7
259.165	-35.67
259.381	-35.67
259.597	9.39
259.814	1.19
260.03	68.78
260.246	17.58
260.463	42.15
260.679	72.87
260.895	38.06
261.112	66.73
261.328	-9.05
261.544	-74.58
261.761	46.25
261.977	33.96
262.193	5.29
262.409	15.53
262.626	48.3
262.842	81.07
263.058	-50
263.274	119.98
263.49	-31.57
263.707	134.31
263.923	38.06
264.139	-25.43
264.355	29.87
264.571	60.59
264.787	79.02
265.004	70.83
265.22	-58.2
265.436	-23.38
265.652	25.77
265.868	95.4
266.084	31.91
266.3	9.39
266.516	-68.44
266.732	40.11
266.948	62.63
267.164	-35.67
267.38	48.3
267.596	46.25
267.812	140.46
268.028	-17.24
268.244	17.58
268.46	81.07
268.676	-4.95
268.892	50.35
269.108	40.11
269.324	-82.77
269.54	91.31
269.756	58.54
269.972	5.29
270.188	-95.06
270.403	17.58
270.619	15.53
270.835	126.12
271.051	29.87
271.267	-43.86
271.483	3.24
271.698	79.02
271.914	-17.24
272.13	38.06
272.346	-66.39
272.562	101.55
272.777	54.44
272.993	-23.38
273.209	23.72
273.425	36.01
273.64	-9.05
273.856	54.44
274.072	38.06
274.287	21.67
274.503	40.11
274.719	1.19
274.934	-11.09
275.15	-33.62
275.366	62.63
275.581	-39.76
275.797	-33.62
276.012	56.49
276.228	-11.09
276.444	-27.48
276.659	38.06
276.875	29.87
277.09	-19.29
277.306	-25.43
277.521	70.83
277.737	38.06
277.952	72.87
278.168	42.15
278.383	79.02
278.599	79.02
278.814	29.87
279.03	81.07
279.245	103.59
279.461	-23.38
279.676	89.26
279.892	25.77
280.107	-68.44
280.322	21.67
280.538	79.02
280.753	74.92
280.969	29.87
281.184	56.49
281.399	-7
281.615	-7
281.83	50.35
282.045	13.48
282.26	25.77
282.476	-2.9
282.691	85.16
282.906	-15.19
283.122	11.43
283.337	17.58
283.552	42.15
283.767	-19.29
283.983	-19.29
284.198	58.54
284.413	72.87
284.628	-56.15
284.843	56.49
285.058	62.63
285.274	-99.16
285.489	7.34
285.704	-13.14
285.919	15.53
286.134	-64.34
286.349	15.53
286.564	58.54
286.779	56.49
286.995	42.15
287.21	-11.09
287.425	-41.81
287.64	42.15
287.855	40.11
288.07	-27.48
288.285	134.31
288.5	42.15
288.715	76.97
288.93	-2.9
289.145	50.35
289.36	48.3
289.575	15.53
289.79	62.63
290.004	54.44
290.219	52.39
290.434	25.77
290.649	38.06
290.864	-11.09
291.079	-43.86
291.294	15.53
291.509	70.83
291.724	-11.09
291.938	29.87
292.153	-17.24
292.368	9.39
292.583	103.59
292.798	15.53
293.012	-2.9
293.227	79.02
293.442	46.25
293.657	1.19
293.871	46.25
294.086	11.43
294.301	42.15
294.516	66.73
294.73	40.11
294.945	-31.57
295.16	48.3
295.374	-17.24
295.589	103.59
295.804	-64.34
296.018	-21.33
296.233	48.3
296.447	72.87
296.662	70.83
296.877	62.63
297.091	48.3
297.306	19.63
297.52	-41.81
297.735	33.96
297.949	17.58
298.164	-17.24
298.378	13.48
298.593	-7
298.807	15.53
299.022	23.72
299.236	70.83
299.451	70.83
299.665	-35.67
299.88	-15.19
300.094	-15.19
300.309	83.11
300.523	3.24
300.737	70.83
300.952	5.29
301.166	23.72
301.381	-15.19
301.595	5.29
301.809	29.87
302.024	31.91
302.238	-33.62
302.452	31.91
302.667	46.25
302.881	95.4
303.095	21.67
303.309	64.68
303.524	-31.57
303.738	33.96
303.952	-52.05
304.166	95.4
304.381	-64.34
304.595	31.91
304.809	17.58
305.023	72.87
305.237	-2.9
305.452	7.34
305.666	97.45
305.88	56.49
306.094	81.07
306.308	68.78
306.522	40.11
306.736	-58.2
306.95	85.16
307.164	-2.9
307.379	9.39
307.593	115.88
307.807	9.39
308.021	31.91
308.235	91.31
308.449	36.01
308.663	81.07
308.877	40.11
309.091	46.25
309.305	31.91
309.519	-2.9
309.733	103.59
309.947	-25.43
310.161	38.06
310.374	79.02
310.588	60.59
310.802	3.24
311.016	-31.57
311.23	3.24
311.444	33.96
311.658	-7
311.872	70.83
312.085	42.15
312.299	76.97
312.513	64.68
312.727	13.48
312.941	17.58
313.154	111.78
313.368	-31.57
313.582	58.54
313.796	74.92
314.009	13.48
314.223	165.03
314.437	87.21
314.651	74.92
314.864	70.83
315.078	46.25
315.292	-0.85
315.505	-35.67
315.719	66.73
315.933	29.87
316.146	21.67
316.36	-39.76
316.573	85.16
316.787	-50
317.001	7.34
317.214	-9.05
317.428	72.87
317.641	-27.48
317.855	21.67
318.068	29.87
318.282	87.21
318.495	70.83
318.709	103.59
318.922	40.11
319.136	87.21
319.349	62.63
319.563	7.34
319.776	13.48
319.99	-17.24
320.203	46.25
320.417	83.11
320.63	58.54
320.843	95.4
321.057	-2.9
321.27	74.92
321.483	79.02
321.697	70.83
321.91	50.35
322.124	-23.38
322.337	111.78
322.55	-19.29
322.763	42.15
322.977	-25.43
323.19	31.91
323.403	9.39
323.617	23.72
323.83	91.31
324.043	31.91
324.256	95.4
324.469	56.49
324.683	58.54
324.896	-76.63
325.109	62.63
325.322	-0.85
325.535	46.25
325.748	31.91
325.962	50.35
326.175	-19.29
326.388	25.77
326.601	31.91
326.814	-2.9
327.027	79.02
327.24	83.11
327.453	9.39
327.666	62.63
327.879	38.06
328.092	40.11
328.305	79.02
328.518	21.67
328.731	-50
328.944	-0.85
329.157	29.87
329.37	68.78
329.583	56.49
329.796	70.83
330.009	-27.48
330.222	54.44
330.435	-2.9
330.648	17.58
330.861	48.3
331.073	50.35
331.286	38.06
331.499	31.91
331.712	-19.29
331.925	23.72
332.138	-76.63
332.35	42.15
332.563	74.92
332.776	93.35
332.989	-39.76
333.202	-11.09
333.414	40.11
333.627	7.34
333.84	-27.48
334.053	81.07
334.265	-52.05
334.478	1.19
334.691	-0.85
334.903	29.87
335.116	-2.9
335.329	48.3
335.541	25.77
335.754	111.78
335.966	17.58
336.179	11.43
336.392	21.67
336.604	29.87
336.817	72.87
337.029	62.63
337.242	-45.91
337.454	46.25
337.667	29.87
337.88	72.87
338.092	74.92
338.305	70.83
338.517	48.3
338.729	13.48
338.942	81.07
339.154	-15.19
339.367	-70.48
339.579	62.63
339.792	21.67
340.004	83.11
340.217	13.48
340.429	46.25
340.641	-23.38
340.854	-11.09
341.066	3.24
341.278	46.25
341.491	83.11
341.703	31.91
341.915	81.07
342.128	95.4
342.34	7.34
342.552	50.35
342.764	38.06
342.977	11.43
343.189	-35.67
343.401	64.68
343.613	-9.05
343.826	81.07
344.038	-2.9
344.25	54.44
344.462	-41.81
344.674	40.11
344.886	54.44
345.099	21.67
345.311	87.21
345.523	-31.57
345.735	5.29
345.947	66.73
346.159	21.67
346.371	33.96
346.583	-27.48
346.795	101.55
347.007	-27.48
347.219	72.87
347.431	7.34
347.643	54.44
347.855	15.53
348.067	70.83
348.279	-41.81
348.491	81.07
348.703	99.5
348.915	13.48
349.127	29.87
349.339	-2.9
349.551	-23.38
349.763	27.82
349.975	-4.95
350.187	111.78
350.399	64.68
350.61	1.19
350.822	-2.9
351.034	54.44
351.246	-21.33
351.458	46.25
351.669	81.07
351.881	81.07
352.093	146.6
352.305	72.87
352.517	105.64
352.728	87.21
352.94	19.63
353.152	91.31
353.363	-17.24
353.575	21.67
353.787	50.35
353.999	40.11
354.21	79.02
354.422	7.34
354.633	40.11
354.845	1.19
355.057	62.63
355.268	-27.48
355.48	-9.05
355.692	83.11
355.903	50.35
356.115	13.48
356.326	-9.05
356.538	-25.43
356.749	29.87
356.961	64.68
357.172	48.3
357.384	40.11
357.595	107.69
357.807	111.78
358.018	25.77
358.23	46.25
358.441	97.45
358.653	58.54
358.864	72.87
359.075	-43.86
359.287	119.98
359.498	31.91
359.709	-11.09
359.921	99.5
360.132	29.87
360.344	109.74
360.555	74.92
360.766	15.53
360.977	52.39
361.189	64.68
361.4	25.77
361.611	87.21
361.823	50.35
362.034	70.83
362.245	-39.76
362.456	48.3
362.667	50.35
362.879	89.26
363.09	46.25
363.301	62.63
363.512	38.06
363.723	29.87
363.935	-56.15
364.146	85.16
364.357	66.73
364.568	33.96
364.779	-64.34
364.99	95.4
365.201	-7
365.412	64.68
365.623	1.19
365.834	-2.9
366.045	42.15
366.256	105.64
366.467	31.91
366.678	62.63
366.889	29.87
367.1	97.45
367.311	38.06
367.522	54.44
367.733	64.68
367.944	81.07
368.155	70.83
368.366	-2.9
368.577	33.96
368.788	81.07
368.999	5.29
369.209	46.25
369.42	87.21
369.631	146.6
369.842	70.83
370.053	42.15
370.264	79.02
370.474	27.82
370.685	95.4
370.896	72.87
371.107	103.59
371.317	29.87
371.528	17.58
371.739	40.11
371.95	46.25
372.16	76.97
372.371	-0.85
372.582	81.07
372.792	107.69
373.003	9.39
373.214	-11.09
373.424	81.07
373.635	50.35
373.846	97.45
374.056	-0.85
374.267	-15.19
374.477	44.2
374.688	58.54
374.898	93.35
375.109	-0.85
375.319	38.06
375.53	29.87
375.74	40.11
375.951	5.29
376.161	38.06
376.372	52.39
376.582	42.15
376.793	52.39
377.003	40.11
377.214	-11.09
377.424	33.96
377.635	46.25
377.845	89.26
378.055	70.83
378.266	-11.09
378.476	-11.09
378.686	23.72
378.897	97.45
379.107	46.25
379.317	81.07
379.528	9.39
379.738	74.92
379.948	-31.57
380.158	126.12
380.369	-7
380.579	113.83
380.789	70.83
380.999	56.49
381.21	87.21
381.42	64.68
381.63	83.11
381.84	-23.38
382.05	103.59
382.261	72.87
382.471	97.45
382.681	-2.9
382.891	58.54
383.101	25.77
383.311	1.19
383.521	76.97
383.731	38.06
383.941	15.53
384.151	3.24
384.361	62.63
384.571	66.73
384.781	13.48
384.991	136.36
385.201	48.3
385.411	87.21
385.621	81.07
385.831	42.15
386.041	93.35
386.251	42.15
386.461	162.98
386.671	122.02
386.881	111.78
387.091	13.48
387.301	105.64
387.511	46.25
387.72	115.88
387.93	48.3
388.14	-60.24
388.35	-11.09
388.56	146.6
388.769	52.39
388.979	97.45
389.189	38.06
389.399	-27.48
389.609	95.4
389.818	3.24
390.028	54.44
390.238	113.83
390.447	40.11
390.657	81.07
390.867	136.36
391.076	-27.48
391.286	38.06
391.496	29.87
391.705	60.59
391.915	83.11
392.125	105.64
392.334	42.15
392.544	154.79
392.753	-7
392.963	42.15
393.172	38.06
393.382	42.15
393.591	124.07
393.801	-15.19
394.01	76.97
394.22	70.83
394.429	54.44
394.639	5.29
394.848	54.44
395.058	72.87
395.267	132.26
395.477	62.63
395.686	132.26
395.895	103.59
396.105	130.22
396.314	76.97
396.524	95.4
396.733	52.39
396.942	144.55
397.152	111.78
397.361	115.88
397.57	136.36
397.78	66.73
397.989	130.22
398.198	177.32
398.407	132.26
398.617	29.87
398.826	95.4
399.035	44.2
399.244	171.18
399.453	144.55
399.663	154.79
399.872	130.22
400.081	128.17
400.29	160.94
400.499	119.98
400.708	99.5
400.917	97.45
401.127	201.9
401.336	148.65
401.545	185.51
401.754	126.12
401.963	89.26
402.172	40.11
402.381	97.45
402.59	177.32
402.799	162.98
403.008	169.13
403.217	99.5
403.426	175.27
403.635	171.18
403.844	169.13
404.053	91.31
404.262	91.31
404.471	259.24
404.68	122.02
404.888	130.22
405.097	134.31
405.306	160.94
405.515	210.09
405.724	160.94
405.933	240.81
406.142	261.29
406.35	167.08
406.559	195.75
406.768	298.15
406.977	210.09
407.185	173.22
407.394	279.72
407.603	150.7
407.812	205.99
408.02	220.33
408.229	283.81
408.438	306.34
408.646	267.43
408.855	361.64
409.064	300.2
409.272	308.39
409.481	328.87
409.69	277.67
409.898	283.81
410.107	386.21
410.315	398.5
410.524	373.92
410.733	371.88
410.941	390.31
411.15	490.66
411.358	396.45
411.567	523.43
411.775	459.94
411.984	533.67
412.192	504.99
412.401	513.19
412.609	593.06
412.818	498.85
413.026	595.11
413.234	656.54
413.443	595.11
413.651	629.92
413.86	746.66
414.068	705.7
414.276	818.33
414.485	728.22
414.693	787.61
414.901	849.05
415.11	863.39
415.318	851.1
415.526	840.86
415.734	998.56
415.943	916.64
416.151	1025.18
416.359	982.17
416.567	1098.91
416.776	1131.67
416.984	1189.02
417.192	1160.34
417.4	1195.16
417.608	1217.69
417.817	1232.02
418.025	1311.89
418.233	1397.91
418.441	1340.57
418.649	1510.55
418.857	1563.79
419.065	1561.75
419.273	1619.09
419.481	1684.62
419.689	1758.35
419.897	1946.76
420.105	1866.89
420.313	1897.61
420.521	1901.71
420.729	2102.41
420.937	2098.31
421.145	2190.47
421.353	2311.3
421.561	2440.33
421.769	2503.81
421.977	2421.89
422.185	2557.06
422.393	2759.81
422.601	2753.66
422.809	2788.48
423.017	2696.32
423.224	3019.9
423.432	3003.52
423.64	3167.35
423.848	3388.53
424.056	3245.18
424.263	3519.6
424.471	3554.42
424.679	3492.98
424.887	3880.05
425.094	3929.2
425.302	3955.82
425.51	4138.09
425.718	4181.1
425.925	4256.87
426.133	4365.42
426.341	4691.04
426.548	4852.83
426.756	4783.2
426.964	4904.03
427.171	5180.51
427.379	5411.93
427.586	5385.3
427.794	5573.72
428.001	5925.97
428.209	6003.79
428.417	5946.45
428.624	6460.49
428.832	6390.86
429.039	6425.67
429.247	6282.31
429.454	6964.29
429.662	7363.64
429.869	7115.84
430.076	7377.98
430.284	7291.96
430.491	7525.43
430.699	7924.79
430.906	7920.69
431.114	8025.14
431.321	8315.95
431.528	8565.8
431.736	9180.19
431.943	9413.66
432.15	9329.69
432.358	9204.77
432.565	9753.62
432.772	9745.43
432.979	10327.05
433.187	10349.58
433.394	10386.44
433.601	11150.34
433.808	11195.39
434.016	11031.55
434.223	11662.33
434.43	12223.47
434.637	11867.13
434.844	12829.67
435.052	13071.33
435.259	12964.84
435.466	13360.09
435.673	12872.68
435.88	13788.12
436.087	14531.53
436.294	14369.74
436.501	14283.73
436.708	14437.33
436.915	14832.58
437.122	15406.02
437.329	15709.11
437.537	16112.56
437.743	16137.14
437.95	16122.8
438.157	16958.38
438.364	17449.89
438.571	17251.24
438.778	17707.93
438.985	19100.55
439.192	18502.54
439.399	18842.51
439.606	18826.12
439.813	19596.16
440.02	20781.93
440.227	20476.79
440.433	20255.61
440.64	20898.67
440.847	20632.43
441.054	21173.1
441.261	22569.81
441.467	22500.18
441.674	22741.84
441.881	23851.84
442.088	23782.21
442.294	23405.38
442.501	24007.48
442.708	24507.19
442.914	25328.42
443.121	26553.11
443.328	25555.75
443.534	27618.05
443.741	26555.16
443.948	26647.32
444.154	28465.91
444.361	27970.3
444.568	27982.59
444.774	28498.68
444.981	28728.05
445.187	29446.89
445.394	30599.9
445.6	30218.97
445.807	33213.1
446.013	31445.71
446.22	32414.4
446.426	33501.87
446.633	33841.83
446.839	35107.47
447.046	33596.07
447.252	35263.12
447.459	35152.53
447.665	35351.18
447.871	36659.84
448.078	38427.23
448.284	36436.61
448.491	37630.57
448.697	39232.08
448.903	39422.55
449.11	39881.29
449.316	38875.74
449.522	40104.52
449.728	40675.9
449.935	41380.4
450.141	41116.22
450.347	42224.17
450.553	40696.38
450.76	41265.72
450.966	42680.86
451.172	41822.76
451.378	43307.54
451.584	42512.93
451.791	43647.5
451.997	43530.77
452.203	44096.01
452.409	43743.76
452.615	44046.86
452.821	42150.44
453.027	41986.6
453.233	43528.72
453.44	42588.7
453.646	42730.01
453.852	42971.67
454.058	43907.6
454.264	42306.09
454.47	43350.55
454.676	42031.66
454.882	43530.77
455.088	39846.47
455.294	40102.47
455.5	40772.16
455.705	41122.36
455.911	39842.38
456.117	38978.14
456.323	38445.66
456.529	36573.82
456.735	38042.21
456.941	37114.48
457.147	36639.36
457.352	35588.75
457.558	35087
457.764	34982.55
457.97	34374.3
458.176	33264.3
458.381	33925.8
458.587	32101.06
458.793	32303.81
458.999	30569.18
459.204	32783.03
459.41	31677.13
459.616	29410.03
459.821	29457.13
460.027	29440.75
460.233	28875.51
460.438	27820.8
460.644	27777.79
460.85	26381.08
461.055	25901.86
461.261	25641.76
461.466	24261.43
461.672	23307.08
461.878	24836.91
462.083	23307.08
462.289	22733.65
462.494	22580.05
462.7	21457.76
462.905	21042.03
463.111	21838.69
463.316	21826.4
463.522	21234.53
463.727	21304.17
463.932	20872.04
464.138	21074.79
464.343	20931.44
464.549	20325.24
464.754	21080.94
464.959	21001.07
465.165	20546.42
465.37	19919.74
465.575	19526.53
465.781	20249.46
465.986	20059
466.191	19155.85
466.397	19043.21
466.602	18240.4
466.807	18877.32
