Data from USB4F104151__226__14-33-57-789.txt Node

Date: Thu Mar 13 14:33:57 EDT 2025
User: louis
Spectrometer: USB4F10415
Trigger mode: 4
Integration Time (sec): 2.500000E-2
Scans to average: 1
Electric dark correction enabled: true
Nonlinearity correction enabled: false
Boxcar width: 0
XAxis mode: Wavelengths
Number of Pixels in Spectrum: 3648
>>>>>Begin Spectral Data<<<<<
178.204	-168.1
178.424	-168.1
178.644	-168.1
178.864	-145.58
179.084	-174.25
179.304	-2.22
179.524	-6.31
179.744	-20.65
179.964	53.08
180.184	1.88
180.404	3.93
180.624	-20.65
180.844	75.6
181.064	-51.37
181.283	-14.51
181.503	-47.27
181.723	28.5
181.943	-71.85
182.163	59.22
182.383	-22.7
182.602	12.12
182.822	34.64
183.042	3.93
183.262	-6.31
183.482	-80.04
183.701	3.93
183.921	-14.51
184.141	-63.66
184.361	116.56
184.58	-39.08
184.8	3.93
185.02	22.36
185.239	10.07
185.459	51.03
185.679	59.22
185.898	-22.7
186.118	85.84
186.338	24.4
186.557	1.88
186.777	30.55
186.997	-39.08
187.216	-14.51
187.436	61.27
187.655	34.64
187.875	67.41
188.095	59.22
188.314	24.4
188.534	85.84
188.753	-14.51
188.973	32.6
189.192	104.28
189.412	67.41
189.631	18.26
189.851	71.51
190.07	94.04
190.29	-20.65
190.509	-6.31
190.729	-6.31
190.948	71.51
191.168	173.91
191.387	98.13
191.607	3.93
191.826	24.4
192.045	-30.89
192.265	5.97
192.484	38.74
192.704	16.21
192.923	-67.75
193.142	126.8
193.362	55.12
193.581	26.45
193.8	1.88
194.02	77.65
194.239	-18.6
194.458	42.84
194.678	-20.65
194.897	18.26
195.116	102.23
195.335	55.12
195.555	12.12
195.774	18.26
195.993	75.6
196.212	46.93
196.432	48.98
196.651	120.66
196.87	-18.6
197.089	38.74
197.308	55.12
197.528	51.03
197.747	-2.22
197.966	40.79
198.185	75.6
198.404	-28.84
198.623	-47.27
198.842	16.21
199.062	59.22
199.281	85.84
199.5	-18.6
199.719	75.6
199.938	1.88
200.157	87.89
200.376	61.27
200.595	159.57
200.814	51.03
201.033	38.74
201.252	100.18
201.471	51.03
201.69	98.13
201.909	65.36
202.128	40.79
202.347	106.32
202.566	14.17
202.785	51.03
203.004	-100.52
203.223	100.18
203.442	-0.17
203.661	-12.46
203.879	-16.55
204.098	98.13
204.317	57.17
204.536	108.37
204.755	18.26
204.974	69.46
205.193	118.61
205.411	167.76
205.63	28.5
205.849	53.08
206.068	55.12
206.287	-12.46
206.505	46.93
206.724	30.55
206.943	34.64
207.162	1.88
207.381	83.8
207.599	77.65
207.818	34.64
208.037	67.41
208.255	71.51
208.474	51.03
208.693	63.32
208.911	20.31
209.13	34.64
209.349	-24.75
209.567	87.89
209.786	59.22
210.005	-2.22
210.223	61.27
210.442	-47.27
210.661	34.64
210.879	-30.89
211.098	16.21
211.316	-53.42
211.535	-12.46
211.753	42.84
211.972	89.94
212.191	26.45
212.409	20.31
212.628	-14.51
212.846	5.97
213.065	16.21
213.283	59.22
213.502	59.22
213.72	71.51
213.938	46.93
214.157	81.75
214.375	26.45
214.594	26.45
214.812	96.08
215.031	14.17
215.249	-55.47
215.467	28.5
215.686	12.12
215.904	5.97
216.122	55.12
216.341	-18.6
216.559	22.36
216.778	104.28
216.996	44.88
217.214	10.07
217.432	18.26
217.651	-39.08
217.869	1.88
218.087	8.02
218.306	46.93
218.524	87.89
218.742	112.47
218.96	22.36
219.179	46.93
219.397	3.93
219.615	91.99
219.833	65.36
220.051	3.93
220.27	69.46
220.488	34.64
220.706	-26.79
220.924	42.84
221.142	-26.79
221.36	79.7
221.578	-10.41
221.796	12.12
222.015	34.64
222.233	-20.65
222.451	55.12
222.669	-4.27
222.887	42.84
223.105	67.41
223.323	-22.7
223.541	-24.75
223.759	94.04
223.977	42.84
224.195	46.93
224.413	-14.51
224.631	75.6
224.849	-30.89
225.067	59.22
225.285	-18.6
225.503	-16.55
225.721	-30.89
225.939	5.97
226.157	-45.23
226.375	141.14
226.592	5.97
226.81	32.6
227.028	-26.79
227.246	69.46
227.464	1.88
227.682	135
227.9	28.5
228.117	51.03
228.335	55.12
228.553	61.27
228.771	-30.89
228.989	34.64
229.206	36.69
229.424	-12.46
229.642	-37.03
229.86	38.74
230.077	89.94
230.295	-39.08
230.513	42.84
230.731	91.99
230.948	116.56
231.166	63.32
231.384	-39.08
231.601	-20.65
231.819	59.22
232.037	30.55
232.254	69.46
232.472	53.08
232.689	-37.03
232.907	67.41
233.125	-39.08
233.342	42.84
233.56	-41.13
233.777	83.8
233.995	26.45
234.213	59.22
234.43	67.41
234.648	36.69
234.865	-28.84
235.083	100.18
235.3	-14.51
235.518	89.94
235.735	28.5
235.953	18.26
236.17	96.08
236.388	-30.89
236.605	-32.94
236.822	118.61
237.04	10.07
237.257	59.22
237.475	-20.65
237.692	34.64
237.909	83.8
238.127	26.45
238.344	98.13
238.562	-14.51
238.779	-4.27
238.996	36.69
239.214	77.65
239.431	42.84
239.648	-59.56
239.865	36.69
240.083	149.33
240.3	46.93
240.517	-16.55
240.735	85.84
240.952	18.26
241.169	51.03
241.386	20.31
241.603	30.55
241.821	-41.13
242.038	85.84
242.255	116.56
242.472	28.5
242.689	40.79
242.907	132.95
243.124	87.89
243.341	38.74
243.558	-2.22
243.775	1.88
243.992	-39.08
244.209	-2.22
244.426	36.69
244.643	67.41
244.86	-2.22
245.078	10.07
245.295	51.03
245.512	28.5
245.729	-2.22
245.946	-12.46
246.163	-14.51
246.38	-45.23
246.597	69.46
246.814	69.46
247.031	116.56
247.248	83.8
247.464	53.08
247.681	1.88
247.898	10.07
248.115	36.69
248.332	53.08
248.549	26.45
248.766	120.66
248.983	30.55
249.2	-14.51
249.417	79.7
249.633	16.21
249.85	75.6
250.067	38.74
250.284	32.6
250.501	38.74
250.717	89.94
250.934	-43.18
251.151	126.8
251.368	38.74
251.585	53.08
251.801	28.5
252.018	1.88
252.235	53.08
252.451	46.93
252.668	12.12
252.885	126.8
253.102	26.45
253.318	30.55
253.535	79.7
253.752	-41.13
253.968	-43.18
254.185	46.93
254.401	-4.27
254.618	51.03
254.835	-28.84
255.051	67.41
255.268	55.12
255.484	96.08
255.701	100.18
255.917	85.84
256.134	67.41
256.351	10.07
256.567	59.22
256.784	12.12
257	94.04
257.217	30.55
257.433	67.41
257.65	-2.22
257.866	100.18
258.082	51.03
258.299	30.55
258.515	55.12
258.732	51.03
258.948	51.03
259.165	18.26
259.381	1.88
259.597	18.26
259.814	10.07
260.03	-6.31
260.246	46.93
260.463	59.22
260.679	79.7
260.895	-14.51
261.112	26.45
261.328	46.93
261.544	28.5
261.761	110.42
261.977	14.17
262.193	32.6
262.409	46.93
262.626	75.6
262.842	-2.22
263.058	-2.22
263.274	1.88
263.49	59.22
263.707	75.6
263.923	-6.31
264.139	-6.31
264.355	30.55
264.571	51.03
264.787	10.07
265.004	38.74
265.22	83.8
265.436	59.22
265.652	34.64
265.868	51.03
266.084	-4.27
266.3	53.08
266.516	-24.75
266.732	67.41
266.948	12.12
267.164	12.12
267.38	67.41
267.596	30.55
267.812	71.51
268.028	-4.27
268.244	71.51
268.46	94.04
268.676	34.64
268.892	18.26
269.108	-34.99
269.324	-22.7
269.54	20.31
269.756	135
269.972	1.88
270.188	-22.7
270.403	34.64
270.619	116.56
270.835	46.93
271.051	34.64
271.267	-39.08
271.483	12.12
271.698	-8.36
271.914	-14.51
272.13	55.12
272.346	10.07
272.562	16.21
272.777	75.6
272.993	85.84
273.209	10.07
273.425	53.08
273.64	12.12
273.856	51.03
274.072	-2.22
274.287	57.17
274.503	53.08
274.719	143.19
274.934	51.03
275.15	34.64
275.366	81.75
275.581	-6.31
275.797	18.26
276.012	36.69
276.228	24.4
276.444	38.74
276.659	104.28
276.875	10.07
277.09	28.5
277.306	1.88
277.521	3.93
277.737	61.27
277.952	59.22
278.168	85.84
278.383	-8.36
278.599	44.88
278.814	79.7
279.03	108.37
279.245	149.33
279.461	18.26
279.676	55.12
279.892	1.88
280.107	24.4
280.322	20.31
280.538	1.88
280.753	67.41
280.969	67.41
281.184	77.65
281.399	91.99
281.615	26.45
281.83	51.03
282.045	20.31
282.26	22.36
282.476	-34.99
282.691	-14.51
282.906	51.03
283.122	16.21
283.337	-32.94
283.552	67.41
283.767	42.84
283.983	75.6
284.198	-32.94
284.413	40.79
284.628	-34.99
284.843	57.17
285.058	71.51
285.274	71.51
285.489	-4.27
285.704	75.6
285.919	-47.27
286.134	61.27
286.349	67.41
286.564	-0.17
286.779	3.93
286.995	1.88
287.21	-6.31
287.425	100.18
287.64	-4.27
287.855	118.61
288.07	71.51
288.285	94.04
288.5	3.93
288.715	10.07
288.93	24.4
289.145	34.64
289.36	104.28
289.575	20.31
289.79	36.69
290.004	-10.41
290.219	110.42
290.434	91.99
290.649	22.36
290.864	-30.89
291.079	34.64
291.294	-20.65
291.509	77.65
291.724	20.31
291.938	26.45
292.153	20.31
292.368	36.69
292.583	-14.51
292.798	102.23
293.012	8.02
293.227	-20.65
293.442	-100.52
293.657	42.84
293.871	102.23
294.086	36.69
294.301	104.28
294.516	30.55
294.73	100.18
294.945	34.64
295.16	28.5
295.374	30.55
295.589	75.6
295.804	-14.51
296.018	51.03
296.233	141.14
296.447	10.07
296.662	-28.84
296.877	59.22
297.091	22.36
297.306	1.88
297.52	51.03
297.735	59.22
297.949	108.37
298.164	-4.27
298.378	73.56
298.593	75.6
298.807	20.31
299.022	151.38
299.236	71.51
299.451	18.26
299.665	10.07
299.88	36.69
300.094	126.8
300.309	44.88
300.523	67.41
300.737	-2.22
300.952	34.64
301.166	85.84
301.381	1.88
301.595	-28.84
301.809	53.08
302.024	28.5
302.238	14.17
302.452	48.98
302.667	53.08
302.881	75.6
303.095	108.37
303.309	59.22
303.524	-22.7
303.738	59.22
303.952	10.07
304.166	69.46
304.381	-16.55
304.595	61.27
304.809	61.27
305.023	67.41
305.237	-24.75
305.452	51.03
305.666	75.6
305.88	18.26
306.094	57.17
306.308	18.26
306.522	67.41
306.736	59.22
306.95	-47.27
307.164	55.12
307.379	34.64
307.593	132.95
307.807	108.37
308.021	28.5
308.235	59.22
308.449	38.74
308.663	36.69
308.877	61.27
309.091	10.07
309.305	18.26
309.519	-4.27
309.733	46.93
309.947	3.93
310.161	100.18
310.374	79.7
310.588	112.47
310.802	-16.55
311.016	-10.41
311.23	44.88
311.444	69.46
311.658	34.64
311.872	100.18
312.085	157.52
312.299	85.84
312.513	12.12
312.727	26.45
312.941	-6.31
313.154	-12.46
313.368	18.26
313.582	59.22
313.796	22.36
314.009	34.64
314.223	75.6
314.437	44.88
314.651	67.41
314.864	-4.27
315.078	3.93
315.292	-12.46
315.505	55.12
315.719	42.84
315.933	14.17
316.146	-30.89
316.36	-37.03
316.573	108.37
316.787	91.99
317.001	59.22
317.214	-30.89
317.428	42.84
317.641	22.36
317.855	5.97
318.068	102.23
318.282	61.27
318.495	91.99
318.709	57.17
318.922	-14.51
319.136	36.69
319.349	-4.27
319.563	28.5
319.776	32.6
319.99	-43.18
320.203	112.47
320.417	18.26
320.63	71.51
320.843	149.33
321.057	77.65
321.27	46.93
321.483	85.84
321.697	36.69
321.91	20.31
322.124	26.45
322.337	42.84
322.55	42.84
322.763	46.93
322.977	77.65
323.19	24.4
323.403	55.12
323.617	51.03
323.83	67.41
324.043	3.93
324.256	61.27
324.469	38.74
324.683	120.66
324.896	59.22
325.109	59.22
325.322	34.64
325.535	-39.08
325.748	108.37
325.962	96.08
326.175	26.45
326.388	14.17
326.601	67.41
326.814	32.6
327.027	77.65
327.24	128.85
327.453	38.74
327.666	91.99
327.879	36.69
328.092	108.37
328.305	67.41
328.518	-10.41
328.731	87.89
328.944	-20.65
329.157	67.41
329.37	59.22
329.583	167.76
329.796	100.18
330.009	-28.84
330.222	55.12
330.435	59.22
330.648	34.64
330.861	75.6
331.073	42.84
331.286	46.93
331.499	63.32
331.712	36.69
331.925	5.97
332.138	118.61
332.35	126.8
332.563	32.6
332.776	100.18
332.989	79.7
333.202	51.03
333.414	36.69
333.627	3.93
333.84	46.93
334.053	112.47
334.265	-6.31
334.478	-6.31
334.691	85.84
334.903	67.41
335.116	69.46
335.329	69.46
335.541	147.28
335.754	69.46
335.966	65.36
336.179	-0.17
336.392	30.55
336.604	61.27
336.817	26.45
337.029	116.56
337.242	30.55
337.454	87.89
337.667	30.55
337.88	61.27
338.092	98.13
338.305	51.03
338.517	53.08
338.729	91.99
338.942	71.51
339.154	18.26
339.367	-28.84
339.579	42.84
339.792	34.64
340.004	71.51
340.217	124.76
340.429	34.64
340.641	-12.46
340.854	51.03
341.066	24.4
341.278	30.55
341.491	59.22
341.703	20.31
341.915	-37.03
342.128	141.14
342.34	-22.7
342.552	71.51
342.764	85.84
342.977	10.07
343.189	85.84
343.401	157.52
343.613	38.74
343.826	46.93
344.038	34.64
344.25	83.8
344.462	42.84
344.674	79.7
344.886	36.69
345.099	36.69
345.311	22.36
345.523	-26.79
345.735	-20.65
345.947	69.46
346.159	83.8
346.371	71.51
346.583	69.46
346.795	112.47
347.007	14.17
347.219	46.93
347.431	96.08
347.643	118.61
347.855	36.69
348.067	98.13
348.279	53.08
348.491	20.31
348.703	42.84
348.915	34.64
349.127	26.45
349.339	-4.27
349.551	91.99
349.763	51.03
349.975	48.98
350.187	169.81
350.399	126.8
350.61	20.31
350.822	14.17
351.034	24.4
351.246	114.52
351.458	-6.31
351.669	96.08
351.881	106.32
352.093	57.17
352.305	53.08
352.517	79.7
352.728	149.33
352.94	112.47
353.152	59.22
353.363	-4.27
353.575	108.37
353.787	135
353.999	30.55
354.21	65.36
354.422	135
354.633	22.36
354.845	34.64
355.057	26.45
355.268	71.51
355.48	30.55
355.692	79.7
355.903	-18.6
356.115	-18.6
356.326	3.93
356.538	128.85
356.749	-18.6
356.961	83.8
357.172	28.5
357.384	67.41
357.595	83.8
357.807	94.04
358.018	55.12
358.23	46.93
358.441	81.75
358.653	26.45
358.864	-84.14
359.075	100.18
359.287	96.08
359.498	73.56
359.709	87.89
359.921	-2.22
360.132	85.84
360.344	83.8
360.555	24.4
360.766	91.99
360.977	104.28
361.189	20.31
361.4	110.42
361.611	81.75
361.823	149.33
362.034	38.74
362.245	10.07
362.456	42.84
362.667	100.18
362.879	3.93
363.09	59.22
363.301	26.45
363.512	61.27
363.723	30.55
363.935	42.84
364.146	67.41
364.357	63.32
364.568	1.88
364.779	83.8
364.99	51.03
365.201	12.12
365.412	67.41
365.623	34.64
365.834	116.56
366.045	83.8
366.256	26.45
366.467	69.46
366.678	-12.46
366.889	10.07
367.1	28.5
367.311	130.9
367.522	71.51
367.733	165.71
367.944	77.65
368.155	132.95
368.366	69.46
368.577	20.31
368.788	30.55
368.999	5.97
369.209	108.37
369.42	106.32
369.631	100.18
369.842	69.46
370.053	51.03
370.264	20.31
370.474	20.31
370.685	104.28
370.896	110.42
371.107	69.46
371.317	100.18
371.528	34.64
371.739	59.22
371.95	3.93
372.16	65.36
372.371	38.74
372.582	51.03
372.792	91.99
373.003	67.41
373.214	18.26
373.424	89.94
373.635	26.45
373.846	153.43
374.056	87.89
374.267	63.32
374.477	71.51
374.688	-12.46
374.898	46.93
375.109	75.6
375.319	75.6
375.53	91.99
375.74	126.8
375.951	3.93
376.161	130.9
376.372	128.85
376.582	63.32
376.793	28.5
377.003	85.84
377.214	5.97
377.424	81.75
377.635	71.51
377.845	61.27
378.055	79.7
378.266	28.5
378.476	132.95
378.686	38.74
378.897	165.71
379.107	18.26
379.317	71.51
379.528	51.03
379.738	44.88
379.948	-32.94
380.158	106.32
380.369	63.32
380.579	135
380.789	34.64
380.999	91.99
381.21	118.61
381.42	69.46
381.63	36.69
381.84	141.14
382.05	36.69
382.261	100.18
382.471	91.99
382.681	51.03
382.891	116.56
383.101	135
383.311	14.17
383.521	20.31
383.731	65.36
383.941	75.6
384.151	73.56
384.361	18.26
384.571	67.41
384.781	112.47
384.991	116.56
385.201	167.76
385.411	71.51
385.621	108.37
385.831	77.65
386.041	42.84
386.251	53.08
386.461	79.7
386.671	67.41
386.881	91.99
387.091	59.22
387.301	118.61
387.511	118.61
387.72	51.03
387.93	145.24
388.14	20.31
388.35	77.65
388.56	87.89
388.769	132.95
388.979	124.76
389.189	149.33
389.399	28.5
389.609	100.18
389.818	124.76
390.028	75.6
390.238	128.85
390.447	44.88
390.657	169.81
390.867	42.84
391.076	5.97
391.286	75.6
391.496	44.88
391.705	91.99
391.915	79.7
392.125	141.14
392.334	44.88
392.544	169.81
392.753	194.39
392.963	44.88
393.172	116.56
393.382	28.5
393.591	188.24
393.801	153.43
394.01	83.8
394.22	157.52
394.429	126.8
394.639	135
394.848	128.85
395.058	77.65
395.267	100.18
395.477	91.99
395.686	112.47
395.895	202.58
396.105	223.06
396.314	100.18
396.524	145.24
396.733	30.55
396.942	132.95
397.152	135
397.361	126.8
397.57	171.86
397.78	79.7
397.989	135
398.198	161.62
398.407	128.85
398.617	190.29
398.826	175.95
399.035	157.52
399.244	149.33
399.453	135
399.663	147.28
399.872	157.52
400.081	85.84
400.29	157.52
400.499	165.71
400.708	204.63
400.917	96.08
401.127	124.76
401.336	108.37
401.545	231.25
401.754	120.66
401.963	118.61
402.172	135
402.381	157.52
402.59	173.91
402.799	206.67
403.008	151.38
403.217	231.25
403.426	231.25
403.635	149.33
403.844	239.44
404.053	190.29
404.262	83.8
404.471	184.15
404.68	231.25
404.888	249.68
405.097	225.11
405.306	247.63
405.515	255.83
405.724	235.35
405.933	366.42
406.142	300.88
406.35	288.59
406.559	323.41
406.768	255.83
406.977	274.26
407.185	311.12
407.394	325.46
407.603	352.08
407.812	362.32
408.02	378.7
408.229	374.61
408.438	403.28
408.646	325.46
408.855	296.78
409.064	315.22
409.272	399.18
409.481	481.1
409.69	477.01
409.898	460.62
410.107	530.25
410.315	485.2
410.524	493.39
410.733	501.58
410.941	528.21
411.15	603.98
411.358	642.89
411.567	626.51
411.775	583.5
411.984	659.28
412.192	659.28
412.401	665.42
412.609	702.28
412.818	724.81
413.026	753.48
413.234	773.96
413.443	763.72
413.651	849.74
413.86	833.35
414.068	976.71
414.276	1001.29
414.485	1001.29
414.693	1079.11
414.901	1019.72
415.11	1199.94
415.318	1126.21
415.526	1158.98
415.734	1255.23
415.943	1247.04
416.151	1322.82
416.359	1281.86
416.567	1363.78
416.776	1419.07
416.984	1525.57
417.192	1517.37
417.4	1460.03
417.608	1636.16
417.817	1675.07
418.025	1808.19
418.233	1830.71
418.441	1832.76
418.649	1908.54
418.857	2021.17
419.065	2053.94
419.273	2047.8
419.481	2164.53
419.689	2307.89
419.897	2371.38
420.105	2432.82
420.313	2643.76
420.521	2647.85
420.729	2619.18
420.937	2744.11
421.145	2881.32
421.353	3000.1
421.561	3198.76
421.769	3155.75
421.977	3325.73
422.185	3303.2
422.393	3452.7
422.601	3720.99
422.809	3745.56
423.017	3688.22
423.224	3866.39
423.432	4024.09
423.64	4073.24
423.848	4400.91
424.056	4179.73
424.263	4726.54
424.471	4570.9
424.679	4861.71
424.887	4972.3
425.094	5050.12
425.302	5250.82
425.51	5342.98
425.718	5574.4
425.925	5457.67
426.133	5768.96
426.341	6047.48
426.548	6201.08
426.756	6366.96
426.964	6575.86
427.171	6833.9
427.379	6928.11
427.586	7091.95
427.794	7268.07
428.001	7831.26
428.209	7730.91
428.417	7769.82
428.624	8550.1
428.832	8171.22
429.039	8333.01
429.247	8195.8
429.454	9098.95
429.662	9610.95
429.869	9037.52
430.076	9787.07
430.284	9432.77
430.491	10020.54
430.699	10575.54
430.906	10475.19
431.114	10655.41
431.321	10993.33
431.528	11234.99
431.736	11763.36
431.943	12527.25
432.15	12041.89
432.358	12619.41
432.565	13059.73
432.772	12824.21
432.979	13256.33
433.187	13547.14
433.394	13987.46
433.601	14487.16
433.808	14517.88
434.016	14726.77
434.223	14896.75
434.43	16004.71
434.637	16115.3
434.844	16778.84
435.052	16852.56
435.259	17104.46
435.466	17397.32
435.673	17204.81
435.88	17886.79
436.087	18925.11
436.294	19097.14
436.501	18718.26
436.708	18921.01
436.915	19703.34
437.122	20598.3
437.329	20698.65
437.537	21075.48
437.743	21599.76
437.95	21030.42
438.157	22554.11
438.364	22945.27
438.571	22953.46
438.778	23234.03
438.985	25146.84
439.192	24053.22
439.399	25085.4
439.606	24606.17
439.813	25839.05
440.02	27362.74
440.227	26824.12
440.433	26844.6
440.64	27811.24
440.847	27147.7
441.054	28063.15
441.261	29734.29
441.467	29263.25
441.674	30045.58
441.881	31143.29
442.088	31274.36
442.294	31044.99
442.501	31382.9
442.708	31939.95
442.914	33428.82
443.121	34889.02
443.328	33572.18
443.534	36238.64
443.741	35474.74
443.948	34633.03
444.154	37313.82
444.361	37328.16
444.568	37346.59
444.774	37018.91
444.981	37543.19
445.187	38722.82
445.394	40107.25
445.6	39798.01
445.807	43291.84
446.013	42228.94
446.22	42374.35
446.426	44104.88
446.633	44313.78
446.839	45837.47
447.046	43934.9
447.252	46091.41
447.459	46783.63
447.665	46126.23
447.871	48094.33
448.078	50226.26
448.284	47535.23
448.491	48821.36
448.697	50936.91
448.903	51729.47
449.11	52141.11
449.316	51240.01
449.522	51729.47
449.728	53314.6
449.935	53277.74
450.141	53636.13
450.347	54893.58
450.553	52939.82
450.76	53963.81
450.966	55163.92
451.172	54860.82
451.378	56523.77
451.584	55417.86
451.791	56370.17
451.997	56523.77
452.203	57039.85
452.409	56800.24
452.615	56687.6
452.821	54869.01
453.027	54557.72
453.233	56859.63
453.44	54815.76
453.646	55174.16
453.852	55593.99
454.058	56126.46
454.264	54498.33
454.47	56220.67
454.676	54625.3
454.882	56634.36
455.088	52001.85
455.294	52708.4
455.5	53351.46
455.705	53623.84
455.911	51745.86
456.117	50715.73
456.323	50130.01
456.529	47514.75
456.735	49554.53
456.941	48297.08
457.147	47602.81
457.352	45745.31
457.558	45687.96
457.764	45558.94
457.97	44905.64
458.176	43953.33
458.381	43650.24
458.587	42292.43
458.793	41811.16
458.999	39615.74
459.204	42233.04
459.41	41256.16
459.616	38444.3
459.821	38466.83
460.027	38692.1
460.233	37539.1
460.438	35704.12
460.644	36404.52
460.85	34415.94
461.055	34059.6
461.261	33930.58
461.466	31698.29
461.672	30524.8
461.878	32853.34
462.083	30719.36
462.289	30184.84
462.494	29619.6
462.7	28288.42
462.905	27575.73
463.111	28427.68
463.316	28640.67
463.522	27831.72
463.727	28177.83
463.932	28159.4
464.138	27567.54
464.343	27739.57
464.549	27198.9
464.754	28044.71
464.959	27882.92
465.165	27549.1
465.37	26242.5
465.575	25777.61
465.781	26514.88
465.986	26666.43
466.191	25558.48
466.397	25099.73
