Data from USB4F104151__197__14-33-11-352.txt Node

Date: Thu Mar 13 14:33:11 EDT 2025
User: louis
Spectrometer: USB4F10415
Trigger mode: 4
Integration Time (sec): 2.500000E-2
Scans to average: 1
Electric dark correction enabled: true
Nonlinearity correction enabled: false
Boxcar width: 0
XAxis mode: Wavelengths
Number of Pixels in Spectrum: 3648
>>>>>Begin Spectral Data<<<<<
178.204	-93.18
178.424	-93.18
178.644	-93.18
178.864	-228.35
179.084	-125.95
179.304	25.6
179.524	-58.37
179.744	35.84
179.964	25.6
180.184	-72.7
180.404	5.12
180.624	15.36
180.844	66.56
181.064	-29.7
181.283	-21.5
181.503	-1.02
181.723	9.22
181.943	19.46
182.163	80.89
182.383	-5.12
182.602	91.13
182.822	74.75
183.042	41.98
183.262	31.74
183.482	35.84
183.701	99.33
183.921	95.23
184.141	-1.02
184.361	115.71
184.58	13.31
184.8	82.94
185.02	66.56
185.239	74.75
185.459	-11.26
185.679	82.94
185.898	3.07
186.118	17.41
186.338	23.55
186.557	13.31
186.777	-21.5
186.997	21.5
187.216	7.17
187.436	115.71
187.655	74.75
187.875	66.56
188.095	-31.74
188.314	99.33
188.534	50.18
188.753	132.09
188.973	66.56
189.192	80.89
189.412	99.33
189.631	66.56
189.851	78.85
190.07	50.18
190.29	-21.5
190.509	44.03
190.729	66.56
190.948	72.7
191.168	107.52
191.387	95.23
191.607	21.5
191.826	82.94
192.045	11.26
192.265	-15.36
192.484	66.56
192.704	89.09
192.923	-21.5
193.142	164.86
193.362	50.18
193.581	111.61
193.8	37.89
194.02	82.94
194.239	21.5
194.458	35.84
194.678	70.65
194.897	41.98
195.116	29.7
195.335	9.22
195.555	58.37
195.774	62.46
195.993	60.42
196.212	17.41
196.432	33.79
196.651	62.46
196.87	-33.79
197.089	82.94
197.308	29.7
197.528	117.76
197.747	-56.32
197.966	1.02
198.185	95.23
198.404	56.32
198.623	50.18
198.842	115.71
199.062	111.61
199.281	119.81
199.5	95.23
199.719	109.57
199.938	72.7
200.157	66.56
200.376	76.8
200.595	150.53
200.814	72.7
201.033	54.27
201.252	29.7
201.471	84.99
201.69	84.99
201.909	74.75
202.128	78.85
202.347	33.79
202.566	41.98
202.785	89.09
203.004	-25.6
203.223	144.38
203.442	50.18
203.661	33.79
203.879	58.37
204.098	70.65
204.317	54.27
204.536	68.61
204.755	33.79
204.974	66.56
205.193	58.37
205.411	183.29
205.63	101.37
205.849	27.65
206.068	58.37
206.287	84.99
206.505	58.37
206.724	99.33
206.943	27.65
207.162	17.41
207.381	80.89
207.599	58.37
207.818	46.08
208.037	60.42
208.255	109.57
208.474	1.02
208.693	-5.12
208.911	99.33
209.13	37.89
209.349	13.31
209.567	29.7
209.786	148.48
210.005	17.41
210.223	-1.02
210.442	46.08
210.661	84.99
210.879	33.79
211.098	68.61
211.316	74.75
211.535	78.85
211.753	99.33
211.972	33.79
212.191	19.46
212.409	68.61
212.628	58.37
212.846	17.41
213.065	84.99
213.283	148.48
213.502	62.46
213.72	60.42
213.938	3.07
214.157	87.04
214.375	41.98
214.594	50.18
214.812	87.04
215.031	33.79
215.249	101.37
215.467	33.79
215.686	37.89
215.904	41.98
216.122	17.41
216.341	91.13
216.559	164.86
216.778	60.42
216.996	17.41
217.214	74.75
217.432	56.32
217.651	25.6
217.869	35.84
218.087	132.09
218.306	54.27
218.524	91.13
218.742	50.18
218.96	29.7
219.179	78.85
219.397	11.26
219.615	121.85
219.833	25.6
220.051	-48.13
220.27	58.37
220.488	117.76
220.706	87.04
220.924	54.27
221.142	74.75
221.36	74.75
221.578	134.14
221.796	41.98
222.015	117.76
222.233	60.42
222.451	132.09
222.669	17.41
222.887	-1.02
223.105	17.41
223.323	13.31
223.541	-21.5
223.759	25.6
223.977	101.37
224.195	144.38
224.413	105.47
224.631	70.65
224.849	74.75
225.067	107.52
225.285	15.36
225.503	27.65
225.721	-15.36
225.939	82.94
226.157	82.94
226.375	82.94
226.592	7.17
226.81	44.03
227.028	52.22
227.246	52.22
227.464	95.23
227.682	68.61
227.9	84.99
228.117	78.85
228.335	-13.31
228.553	66.56
228.771	35.84
228.989	-13.31
229.206	82.94
229.424	70.65
229.642	66.56
229.86	37.89
230.077	107.52
230.295	44.03
230.513	113.66
230.731	27.65
230.948	132.09
231.166	87.04
231.384	25.6
231.601	33.79
231.819	136.19
232.037	9.22
232.254	41.98
232.472	25.6
232.689	37.89
232.907	25.6
233.125	9.22
233.342	3.07
233.56	-7.17
233.777	66.56
233.995	107.52
234.213	95.23
234.43	68.61
234.648	35.84
234.865	41.98
235.083	-13.31
235.3	103.42
235.518	46.08
235.735	41.98
235.953	68.61
236.17	-29.7
236.388	11.26
236.605	23.55
236.822	101.37
237.04	93.18
237.257	78.85
237.475	87.04
237.692	-7.17
237.909	121.85
238.127	3.07
238.344	164.86
238.562	50.18
238.779	3.07
238.996	25.6
239.214	1.02
239.431	58.37
239.648	13.31
239.865	68.61
240.083	150.53
240.3	31.74
240.517	17.41
240.735	91.13
240.952	46.08
241.169	115.71
241.386	107.52
241.603	84.99
241.821	9.22
242.038	115.71
242.255	29.7
242.472	54.27
242.689	95.23
242.907	97.28
243.124	78.85
243.341	62.46
243.558	50.18
243.775	-23.55
243.992	-15.36
244.209	125.95
244.426	99.33
244.643	54.27
244.86	37.89
245.078	101.37
245.295	70.65
245.512	107.52
245.729	-5.12
245.946	99.33
246.163	76.8
246.38	-15.36
246.597	37.89
246.814	-5.12
247.031	-15.36
247.248	89.09
247.464	84.99
247.681	66.56
247.898	74.75
248.115	123.9
248.332	50.18
248.549	50.18
248.766	99.33
248.983	62.46
249.2	119.81
249.417	1.02
249.633	-19.46
249.85	41.98
250.067	41.98
250.284	101.37
250.501	50.18
250.717	89.09
250.934	-19.46
251.151	41.98
251.368	62.46
251.585	72.7
251.801	140.29
252.018	41.98
252.235	109.57
252.451	-39.94
252.668	60.42
252.885	62.46
253.102	117.76
253.318	41.98
253.535	15.36
253.752	121.85
253.968	35.84
254.185	56.32
254.401	72.7
254.618	84.99
254.835	35.84
255.051	76.8
255.268	58.37
255.484	70.65
255.701	11.26
255.917	21.5
256.134	25.6
256.351	50.18
256.567	50.18
256.784	115.71
257	-21.5
257.217	109.57
257.433	93.18
257.65	103.42
257.866	58.37
258.082	74.75
258.299	44.03
258.515	44.03
258.732	1.02
258.948	41.98
259.165	50.18
259.381	123.9
259.597	58.37
259.814	84.99
260.03	119.81
260.246	1.02
260.463	33.79
260.679	70.65
260.895	68.61
261.112	76.8
261.328	111.61
261.544	9.22
261.761	168.96
261.977	27.65
262.193	9.22
262.409	17.41
262.626	54.27
262.842	64.51
263.058	-41.98
263.274	66.56
263.49	80.89
263.707	58.37
263.923	54.27
264.139	9.22
264.355	21.5
264.571	128
264.787	99.33
265.004	66.56
265.22	44.03
265.436	93.18
265.652	44.03
265.868	33.79
266.084	11.26
266.3	35.84
266.516	123.9
266.732	23.55
266.948	3.07
267.164	66.56
267.38	56.32
267.596	50.18
267.812	29.7
268.028	70.65
268.244	50.18
268.46	95.23
268.676	62.46
268.892	107.52
269.108	-64.51
269.324	84.99
269.54	70.65
269.756	66.56
269.972	29.7
270.188	107.52
270.403	58.37
270.619	93.18
270.835	-11.26
271.051	89.09
271.267	41.98
271.483	54.27
271.698	54.27
271.914	115.71
272.13	87.04
272.346	3.07
272.562	-5.12
272.777	115.71
272.993	-19.46
273.209	5.12
273.425	17.41
273.64	50.18
273.856	80.89
274.072	91.13
274.287	29.7
274.503	82.94
274.719	52.22
274.934	33.79
275.15	70.65
275.366	-29.7
275.581	37.89
275.797	1.02
276.012	74.75
276.228	3.07
276.444	-15.36
276.659	156.67
276.875	35.84
277.09	7.17
277.306	60.42
277.521	111.61
277.737	50.18
277.952	107.52
278.168	111.61
278.383	44.03
278.599	95.23
278.814	121.85
279.03	123.9
279.245	158.72
279.461	17.41
279.676	128
279.892	66.56
280.107	-39.94
280.322	33.79
280.538	29.7
280.753	101.37
280.969	66.56
281.184	99.33
281.399	84.99
281.615	117.76
281.83	23.55
282.045	-3.07
282.26	70.65
282.476	58.37
282.691	99.33
282.906	84.99
283.122	82.94
283.337	50.18
283.552	68.61
283.767	107.52
283.983	123.9
284.198	25.6
284.413	78.85
284.628	87.04
284.843	84.99
285.058	99.33
285.274	9.22
285.489	-39.94
285.704	-7.17
285.919	134.14
286.134	50.18
286.349	66.56
286.564	41.98
286.779	82.94
286.995	11.26
287.21	41.98
287.425	105.47
287.64	-11.26
287.855	48.13
288.07	44.03
288.285	177.15
288.5	-9.22
288.715	123.9
288.93	121.85
289.145	66.56
289.36	66.56
289.575	52.22
289.79	50.18
290.004	3.07
290.219	95.23
290.434	13.31
290.649	93.18
290.864	33.79
291.079	41.98
291.294	-23.55
291.509	-7.17
291.724	68.61
291.938	87.04
292.153	119.81
292.368	33.79
292.583	41.98
292.798	78.85
293.012	58.37
293.227	156.67
293.442	103.42
293.657	82.94
293.871	101.37
294.086	1.02
294.301	166.91
294.516	48.13
294.73	46.08
294.945	25.6
295.16	80.89
295.374	54.27
295.589	66.56
295.804	76.8
296.018	50.18
296.233	140.29
296.447	105.47
296.662	44.03
296.877	107.52
297.091	15.36
297.306	101.37
297.52	150.53
297.735	72.7
297.949	56.32
298.164	82.94
298.378	119.81
298.593	41.98
298.807	27.65
299.022	58.37
299.236	115.71
299.451	78.85
299.665	35.84
299.88	29.7
300.094	99.33
300.309	44.03
300.523	25.6
300.737	27.65
300.952	27.65
301.166	119.81
301.381	13.31
301.595	99.33
301.809	35.84
302.024	33.79
302.238	25.6
302.452	66.56
302.667	19.46
302.881	76.8
303.095	72.7
303.309	74.75
303.524	41.98
303.738	50.18
303.952	-29.7
304.166	35.84
304.381	1.02
304.595	103.42
304.809	87.04
305.023	72.7
305.237	84.99
305.452	62.46
305.666	99.33
305.88	107.52
306.094	41.98
306.308	80.89
306.522	99.33
306.736	54.27
306.95	84.99
307.164	27.65
307.379	101.37
307.593	93.18
307.807	78.85
308.021	115.71
308.235	142.33
308.449	37.89
308.663	91.13
308.877	166.91
309.091	87.04
309.305	173.05
309.519	41.98
309.733	68.61
309.947	-64.51
310.161	54.27
310.374	21.5
310.588	103.42
310.802	3.07
311.016	107.52
311.23	41.98
311.444	76.8
311.658	56.32
311.872	97.28
312.085	115.71
312.299	117.76
312.513	62.46
312.727	74.75
312.941	82.94
313.154	136.19
313.368	41.98
313.582	66.56
313.796	33.79
314.009	58.37
314.223	148.48
314.437	21.5
314.651	95.23
314.864	74.75
315.078	27.65
315.292	103.42
315.505	82.94
315.719	64.51
315.933	21.5
316.146	82.94
316.36	17.41
316.573	142.33
316.787	27.65
317.001	58.37
317.214	11.26
317.428	101.37
317.641	91.13
317.855	93.18
318.068	82.94
318.282	80.89
318.495	103.42
318.709	128
318.922	50.18
319.136	117.76
319.349	150.53
319.563	84.99
319.776	25.6
319.99	99.33
320.203	74.75
320.417	74.75
320.63	113.66
320.843	164.86
321.057	91.13
321.27	95.23
321.483	41.98
321.697	19.46
321.91	87.04
322.124	91.13
322.337	44.03
322.55	13.31
322.763	50.18
322.977	78.85
323.19	44.03
323.403	19.46
323.617	140.29
323.83	115.71
324.043	35.84
324.256	101.37
324.469	29.7
324.683	107.52
324.896	93.18
325.109	58.37
325.322	7.17
325.535	156.67
325.748	91.13
325.962	91.13
326.175	58.37
326.388	101.37
326.601	3.07
326.814	-11.26
327.027	91.13
327.24	84.99
327.453	19.46
327.666	101.37
327.879	101.37
328.092	144.38
328.305	29.7
328.518	9.22
328.731	35.84
328.944	35.84
329.157	91.13
329.37	95.23
329.583	156.67
329.796	123.9
330.009	-58.37
330.222	70.65
330.435	-5.12
330.648	23.55
330.861	1.02
331.073	46.08
331.286	132.09
331.499	78.85
331.712	1.02
331.925	115.71
332.138	35.84
332.35	72.7
332.563	54.27
332.776	103.42
332.989	33.79
333.202	115.71
333.414	33.79
333.627	99.33
333.84	70.65
334.053	80.89
334.265	54.27
334.478	19.46
334.691	78.85
334.903	89.09
335.116	33.79
335.329	66.56
335.541	74.75
335.754	117.76
335.966	48.13
336.179	52.22
336.392	25.6
336.604	82.94
336.817	70.65
337.029	87.04
337.242	60.42
337.454	50.18
337.667	29.7
337.88	97.28
338.092	150.53
338.305	103.42
338.517	-3.07
338.729	91.13
338.942	46.08
339.154	70.65
339.367	66.56
339.579	89.09
339.792	52.22
340.004	66.56
340.217	103.42
340.429	29.7
340.641	37.89
340.854	41.98
341.066	41.98
341.278	162.81
341.491	33.79
341.703	150.53
341.915	87.04
342.128	130.05
342.34	41.98
342.552	64.51
342.764	121.85
342.977	101.37
343.189	89.09
343.401	1.02
343.613	33.79
343.826	64.51
344.038	1.02
344.25	128
344.462	9.22
344.674	68.61
344.886	82.94
345.099	150.53
345.311	87.04
345.523	107.52
345.735	-5.12
345.947	60.42
346.159	21.5
346.371	58.37
346.583	105.47
346.795	150.53
347.007	17.41
347.219	66.56
347.431	44.03
347.643	31.74
347.855	68.61
348.067	156.67
348.279	46.08
348.491	132.09
348.703	76.8
348.915	35.84
349.127	41.98
349.339	140.29
349.551	21.5
349.763	84.99
349.975	68.61
350.187	101.37
350.399	87.04
350.61	115.71
350.822	25.6
351.034	123.9
351.246	125.95
351.458	91.13
351.669	140.29
351.881	107.52
352.093	115.71
352.305	72.7
352.517	11.26
352.728	121.85
352.94	33.79
353.152	107.52
353.363	15.36
353.575	185.34
353.787	168.96
353.999	144.38
354.21	136.19
354.422	62.46
354.633	130.05
354.845	44.03
355.057	54.27
355.268	82.94
355.48	60.42
355.692	99.33
355.903	72.7
356.115	25.6
356.326	54.27
356.538	140.29
356.749	33.79
356.961	76.8
357.172	50.18
357.384	76.8
357.595	93.18
357.807	87.04
358.018	19.46
358.23	46.08
358.441	95.23
358.653	74.75
358.864	72.7
359.075	35.84
359.287	103.42
359.498	177.15
359.709	52.22
359.921	50.18
360.132	125.95
360.344	103.42
360.555	142.33
360.766	103.42
360.977	115.71
361.189	119.81
361.4	107.52
361.611	95.23
361.823	70.65
362.034	50.18
362.245	-15.36
362.456	87.04
362.667	82.94
362.879	37.89
363.09	142.33
363.301	154.62
363.512	76.8
363.723	132.09
363.935	58.37
364.146	107.52
364.357	9.22
364.568	27.65
364.779	-23.55
364.99	115.71
365.201	35.84
365.412	74.75
365.623	50.18
365.834	115.71
366.045	74.75
366.256	80.89
366.467	52.22
366.678	91.13
366.889	58.37
367.1	68.61
367.311	91.13
367.522	52.22
367.733	66.56
367.944	72.7
368.155	113.66
368.366	119.81
368.577	117.76
368.788	103.42
368.999	41.98
369.209	160.77
369.42	70.65
369.631	168.96
369.842	115.71
370.053	27.65
370.264	17.41
370.474	105.47
370.685	115.71
370.896	84.99
371.107	144.38
371.317	123.9
371.528	107.52
371.739	99.33
371.95	54.27
372.16	189.44
372.371	82.94
372.582	117.76
372.792	142.33
373.003	156.67
373.214	52.22
373.424	52.22
373.635	-1.02
373.846	78.85
374.056	70.65
374.267	-5.12
374.477	93.18
374.688	25.6
374.898	111.61
375.109	117.76
375.319	107.52
375.53	84.99
375.74	76.8
375.951	84.99
376.161	74.75
376.372	60.42
376.582	82.94
376.793	101.37
377.003	33.79
377.214	50.18
377.424	140.29
377.635	107.52
377.845	-3.07
378.055	152.57
378.266	-3.07
378.476	103.42
378.686	97.28
378.897	54.27
379.107	113.66
379.317	148.48
379.528	33.79
379.738	115.71
379.948	62.46
380.158	95.23
380.369	60.42
380.579	107.52
380.789	91.13
380.999	111.61
381.21	181.25
381.42	166.91
381.63	44.03
381.84	171.01
382.05	70.65
382.261	205.82
382.471	62.46
382.681	29.7
382.891	134.14
383.101	82.94
383.311	123.9
383.521	91.13
383.731	35.84
383.941	140.29
384.151	128
384.361	93.18
384.571	91.13
384.781	164.86
384.991	154.62
385.201	152.57
385.411	93.18
385.621	50.18
385.831	60.42
386.041	50.18
386.251	25.6
386.461	113.66
386.671	119.81
386.881	91.13
387.091	17.41
387.301	115.71
387.511	87.04
387.72	54.27
387.93	164.86
388.14	41.98
388.35	66.56
388.56	134.14
388.769	156.67
388.979	64.51
389.189	50.18
389.399	95.23
389.609	156.67
389.818	74.75
390.028	74.75
390.238	76.8
390.447	109.57
390.657	201.72
390.867	93.18
391.076	78.85
391.286	123.9
391.496	101.37
391.705	164.86
391.915	156.67
392.125	119.81
392.334	117.76
392.544	82.94
392.753	87.04
392.963	115.71
393.172	201.72
393.382	99.33
393.591	132.09
393.801	50.18
394.01	150.53
394.22	115.71
394.429	140.29
394.639	107.52
394.848	203.77
395.058	132.09
395.267	52.22
395.477	105.47
395.686	140.29
395.895	148.48
396.105	199.68
396.314	160.77
396.524	125.95
396.733	152.57
396.942	173.05
397.152	142.33
397.361	205.82
397.57	123.9
397.78	115.71
397.989	181.25
398.198	181.25
398.407	183.29
398.617	160.77
398.826	91.13
399.035	181.25
399.244	181.25
399.453	99.33
399.663	66.56
399.872	199.68
400.081	128
400.29	168.96
400.499	111.61
400.708	232.44
400.917	115.71
401.127	142.33
401.336	134.14
401.545	214.01
401.754	160.77
401.963	160.77
402.172	101.37
402.381	181.25
402.59	254.97
402.799	158.72
403.008	189.44
403.217	128
403.426	160.77
403.635	193.53
403.844	177.15
404.053	216.06
404.262	216.06
404.471	162.81
404.68	295.93
404.888	322.56
405.097	234.49
405.306	295.93
405.515	265.21
405.724	197.63
405.933	295.93
406.142	222.2
406.35	238.59
406.559	209.92
406.768	271.36
406.977	320.51
407.185	289.79
407.394	322.56
407.603	238.59
407.812	214.01
408.02	429.05
408.229	361.47
408.438	328.7
408.646	281.6
408.855	357.37
409.064	340.99
409.272	377.85
409.481	445.43
409.69	363.51
409.898	386.04
410.107	480.25
410.315	453.63
410.524	470.01
410.733	510.97
410.941	494.58
411.15	543.74
411.358	486.39
411.567	574.46
411.775	443.39
411.984	582.65
412.192	590.84
412.401	586.74
412.609	680.95
412.818	764.92
413.026	680.95
413.234	699.38
413.443	771.06
413.651	738.29
413.86	781.3
414.068	912.37
414.276	922.61
414.485	879.6
414.693	961.52
414.901	1115.12
415.11	1051.63
415.318	953.33
415.526	1078.26
415.734	1180.65
415.943	1098.74
416.151	1117.17
416.359	1160.17
416.567	1205.23
416.776	1362.92
416.984	1422.31
417.192	1334.25
417.4	1344.49
417.608	1375.21
417.817	1467.37
418.025	1502.19
418.233	1721.32
418.441	1575.91
418.649	1713.13
418.857	1821.67
419.065	1870.82
419.273	1745.89
419.481	1876.96
419.689	2081.76
419.897	2059.23
420.105	2085.86
420.313	2141.15
420.521	2229.21
420.729	2304.99
420.937	2362.33
421.145	2419.68
421.353	2565.08
421.561	2614.23
421.769	2675.67
421.977	2862.04
422.185	2829.27
422.393	2868.18
422.601	3167.18
422.809	3171.28
423.017	3197.9
423.224	3177.42
423.432	3498.95
423.64	3554.25
423.848	3777.48
424.056	3709.9
424.263	3933.12
424.471	3806.15
424.679	4080.58
424.887	4172.74
425.094	4520.89
425.302	4350.91
425.51	4541.37
425.718	4744.12
425.925	4752.31
426.133	4953.01
426.341	5270.45
426.548	5245.87
426.756	5256.11
426.964	5426.09
427.171	5776.3
427.379	5903.27
427.586	6052.77
427.794	6263.71
428.001	6661.02
428.209	6742.94
428.417	6648.73
428.624	7193.49
428.832	7109.52
429.039	7052.18
429.247	7218.07
429.454	7693.19
429.662	8297.35
429.869	7797.64
430.076	8283.01
430.284	7918.47
430.491	8418.18
430.699	8919.93
430.906	8991.61
431.114	8993.65
431.321	9374.58
431.528	9343.86
431.736	10072.93
431.943	10797.92
432.15	10195.81
432.358	10445.66
432.565	11049.82
432.772	10869.59
432.979	11473.74
433.187	11529.04
433.394	11678.54
433.601	12448.58
433.808	12370.76
434.016	12329.8
434.223	12804.92
434.43	13853.48
434.637	13407.03
434.844	14453.54
435.052	14443.3
435.259	14332.71
435.466	14279.46
435.673	14529.31
435.88	15160.09
436.087	16014.09
436.294	15983.37
436.501	15737.62
436.708	16155.4
436.915	16368.39
437.122	17359.61
437.329	17357.56
437.537	18137.84
437.743	18324.2
437.95	18066.16
438.157	18940.64
438.364	19645.14
438.571	19501.78
438.778	19923.66
438.985	21473.98
439.192	20501.19
439.399	21289.66
439.606	20730.56
439.813	22086.32
440.02	23194.27
440.227	22721.19
440.433	22280.88
440.64	23241.37
440.847	23087.78
441.054	23765.65
441.261	25504.38
441.467	24863.36
441.674	25203.33
441.881	26331.76
442.088	26219.12
442.294	26147.44
442.501	26630.76
442.708	27032.16
442.914	28201.55
443.121	29284.93
443.328	28349.01
443.534	30448.18
443.741	29850.17
443.948	29413.95
444.154	31803.93
444.361	31367.71
444.568	31455.78
444.774	31527.45
444.981	32150.04
445.187	32936.46
445.394	34179.57
445.6	33757.69
445.807	36839.89
446.013	35480.03
446.22	35813.85
446.426	37306.82
446.633	37345.73
446.839	38736.3
447.046	37200.33
447.252	39190.95
447.459	39633.32
447.665	39281.06
447.871	40901.01
448.078	42572.15
448.284	40495.51
448.491	41685.38
448.697	43114.86
448.903	43716.96
449.11	43960.67
449.316	43405.67
449.522	44290.4
449.728	45250.89
449.935	45414.73
450.141	45517.13
450.347	46922.04
450.553	44917.07
450.76	45586.76
450.966	47100.21
451.172	46633.27
451.378	47950.12
451.584	46774.58
451.791	47849.77
451.997	47745.32
452.203	48587.03
452.409	48775.45
452.615	48142.63
452.821	46338.36
453.027	46084.42
453.233	48576.79
453.44	46659.9
453.646	46991.67
453.852	46901.56
454.058	48208.16
454.264	46469.43
454.47	47493.42
454.676	46539.07
454.882	48034.08
455.088	44054.88
455.294	44177.76
455.5	45046.1
455.705	45535.56
455.911	43678.05
456.117	42887.54
456.323	42563.96
456.529	40061.34
456.735	41824.64
456.941	40575.38
457.147	40188.31
457.352	39045.55
457.558	38678.96
457.764	38721.97
457.97	37749.18
458.176	36823.5
458.381	37056.97
458.587	35260.9
458.793	34849.26
458.999	33767.93
459.204	35545.57
459.41	35140.07
459.616	32604.69
459.821	32770.57
460.027	32152.09
460.233	31840.79
460.438	30337.59
460.644	30386.74
460.85	29184.58
461.055	28467.79
461.261	28525.13
461.466	26655.34
461.672	25594.49
461.878	27664.99
462.083	25563.77
462.289	25086.59
462.494	24767.11
462.7	23739.03
462.905	23208.61
463.111	23900.82
463.316	23925.39
463.522	23427.74
463.727	23419.55
463.932	23161.5
464.138	23104.16
464.343	23364.25
464.549	22645.41
464.754	23591.58
464.959	23134.88
465.165	22962.85
465.37	21981.87
465.575	21154.49
