Data from USB4F104151__129__14-31-22-459.txt Node

Date: Thu Mar 13 14:31:22 EDT 2025
User: louis
Spectrometer: USB4F10415
Trigger mode: 4
Integration Time (sec): 2.500000E-2
Scans to average: 1
Electric dark correction enabled: true
Nonlinearity correction enabled: false
Boxcar width: 0
XAxis mode: Wavelengths
Number of Pixels in Spectrum: 3648
>>>>>Begin Spectral Data<<<<<
178.204	-119.64
178.424	-119.64
178.644	-119.64
178.864	-117.59
179.084	-170.83
179.304	46.25
179.524	-9.05
179.744	-70.48
179.964	60.59
180.184	-7
180.404	3.24
180.624	-19.29
180.844	-62.29
181.064	-9.05
181.283	64.68
181.503	-54.1
181.723	56.49
181.943	-45.91
182.163	89.26
182.383	7.34
182.602	-21.33
182.822	62.63
183.042	11.43
183.262	9.39
183.482	36.01
183.701	19.63
183.921	44.2
184.141	-4.95
184.361	27.82
184.58	44.2
184.8	-19.29
185.02	46.25
185.239	54.44
185.459	7.34
185.679	68.78
185.898	1.19
186.118	9.39
186.338	50.35
186.557	50.35
186.777	-58.2
186.997	33.96
187.216	-27.48
187.436	70.83
187.655	-15.19
187.875	117.93
188.095	-4.95
188.314	48.3
188.534	62.63
188.753	19.63
188.973	103.59
189.192	122.02
189.412	68.78
189.631	29.87
189.851	-0.85
190.07	-13.14
190.29	68.78
190.509	1.19
190.729	-31.57
190.948	111.78
191.168	173.22
191.387	76.97
191.607	-41.81
191.826	68.78
192.045	21.67
192.265	-29.52
192.484	48.3
192.704	25.77
192.923	-45.91
193.142	144.55
193.362	23.72
193.581	76.97
193.8	48.3
194.02	99.5
194.239	-4.95
194.458	-2.9
194.678	27.82
194.897	19.63
195.116	36.01
195.335	7.34
195.555	36.01
195.774	68.78
195.993	52.39
196.212	3.24
196.432	40.11
196.651	13.48
196.87	60.59
197.089	54.44
197.308	-84.82
197.528	29.87
197.747	52.39
197.966	-17.24
198.185	138.41
198.404	17.58
198.623	25.77
198.842	79.02
199.062	50.35
199.281	44.2
199.5	7.34
199.719	56.49
199.938	91.31
200.157	36.01
200.376	52.39
200.595	76.97
200.814	-29.52
201.033	40.11
201.252	109.74
201.471	-9.05
201.69	105.64
201.909	27.82
202.128	52.39
202.347	70.83
202.566	9.39
202.785	-27.48
203.004	-37.72
203.223	101.55
203.442	23.72
203.661	25.77
203.879	83.11
204.098	122.02
204.317	-4.95
204.536	-0.85
204.755	-9.05
204.974	11.43
205.193	5.29
205.411	64.68
205.63	52.39
205.849	5.29
206.068	85.16
206.287	31.91
206.505	27.82
206.724	5.29
206.943	44.2
207.162	7.34
207.381	13.48
207.599	-11.09
207.818	5.29
208.037	-45.91
208.255	76.97
208.474	60.59
208.693	13.48
208.911	95.4
209.13	-9.05
209.349	38.06
209.567	54.44
209.786	44.2
210.005	42.15
210.223	44.2
210.442	-4.95
210.661	40.11
210.879	3.24
211.098	38.06
211.316	68.78
211.535	158.89
211.753	144.55
211.972	68.78
212.191	5.29
212.409	38.06
212.628	27.82
212.846	44.2
213.065	36.01
213.283	95.4
213.502	-11.09
213.72	3.24
213.938	-4.95
214.157	17.58
214.375	42.15
214.594	9.39
214.812	101.55
215.031	5.29
215.249	19.63
215.467	36.01
215.686	11.43
215.904	70.83
216.122	36.01
216.341	68.78
216.559	36.01
216.778	68.78
216.996	93.35
217.214	-45.91
217.432	-29.52
217.651	11.43
217.869	31.91
218.087	105.64
218.306	7.34
218.524	-37.72
218.742	3.24
218.96	-4.95
219.179	74.92
219.397	23.72
219.615	115.88
219.833	64.68
220.051	3.24
220.27	19.63
220.488	33.96
220.706	13.48
220.924	58.54
221.142	-21.33
221.36	19.63
221.578	31.91
221.796	68.78
222.015	29.87
222.233	62.63
222.451	76.97
222.669	-50
222.887	-27.48
223.105	-17.24
223.323	13.48
223.541	50.35
223.759	93.35
223.977	27.82
224.195	85.16
224.413	23.72
224.631	-0.85
224.849	29.87
225.067	142.5
225.285	68.78
225.503	11.43
225.721	-0.85
225.939	36.01
226.157	21.67
226.375	85.16
226.592	-0.85
226.81	23.72
227.028	31.91
227.246	52.39
227.464	29.87
227.682	93.35
227.9	85.16
228.117	-19.29
228.335	64.68
228.553	38.06
228.771	115.88
228.989	64.68
229.206	15.53
229.424	-23.38
229.642	52.39
229.86	29.87
230.077	109.74
230.295	29.87
230.513	27.82
230.731	62.63
230.948	72.87
231.166	68.78
231.384	-37.72
231.601	60.59
231.819	31.91
232.037	-52.05
232.254	36.01
232.472	-0.85
232.689	62.63
232.907	36.01
233.125	56.49
233.342	38.06
233.56	48.3
233.777	27.82
233.995	7.34
234.213	44.2
234.43	48.3
234.648	79.02
234.865	-13.14
235.083	70.83
235.3	66.73
235.518	23.72
235.735	44.2
235.953	95.4
236.17	87.21
236.388	79.02
236.605	62.63
236.822	85.16
237.04	36.01
237.257	46.25
237.475	81.07
237.692	33.96
237.909	-17.24
238.127	11.43
238.344	3.24
238.562	38.06
238.779	83.11
238.996	44.2
239.214	60.59
239.431	103.59
239.648	-33.62
239.865	56.49
240.083	52.39
240.3	36.01
240.517	15.53
240.735	60.59
240.952	52.39
241.169	68.78
241.386	101.55
241.603	5.29
241.821	23.72
242.038	60.59
242.255	36.01
242.472	13.48
242.689	19.63
242.907	33.96
243.124	93.35
243.341	40.11
243.558	107.69
243.775	1.19
243.992	38.06
244.209	36.01
244.426	72.87
244.643	36.01
244.86	-0.85
245.078	48.3
245.295	-7
245.512	117.93
245.729	-19.29
245.946	66.73
246.163	87.21
246.38	15.53
246.597	42.15
246.814	17.58
247.031	-2.9
247.248	13.48
247.464	60.59
247.681	60.59
247.898	-41.81
248.115	50.35
248.332	3.24
248.549	70.83
248.766	117.93
248.983	56.49
249.2	83.11
249.417	66.73
249.633	-29.52
249.85	58.54
250.067	40.11
250.284	52.39
250.501	31.91
250.717	97.45
250.934	38.06
251.151	54.44
251.368	101.55
251.585	85.16
251.801	76.97
252.018	-19.29
252.235	7.34
252.451	-25.43
252.668	15.53
252.885	72.87
253.102	19.63
253.318	9.39
253.535	-2.9
253.752	-80.72
253.968	-2.9
254.185	19.63
254.401	76.97
254.618	1.19
254.835	5.29
255.051	81.07
255.268	64.68
255.484	23.72
255.701	27.82
255.917	38.06
256.134	54.44
256.351	-35.67
256.567	11.43
256.784	19.63
257	-62.29
257.217	183.46
257.433	46.25
257.65	97.45
257.866	23.72
258.082	-2.9
258.299	13.48
258.515	54.44
258.732	54.44
258.948	93.35
259.165	87.21
259.381	-47.96
259.597	38.06
259.814	36.01
260.03	-47.96
260.246	93.35
260.463	17.58
260.679	79.02
260.895	17.58
261.112	101.55
261.328	31.91
261.544	48.3
261.761	68.78
261.977	-29.52
262.193	-70.48
262.409	38.06
262.626	44.2
262.842	89.26
263.058	-9.05
263.274	93.35
263.49	54.44
263.707	76.97
263.923	89.26
264.139	-15.19
264.355	85.16
264.571	60.59
264.787	52.39
265.004	44.2
265.22	-19.29
265.436	9.39
265.652	79.02
265.868	44.2
266.084	52.39
266.3	52.39
266.516	5.29
266.732	-4.95
266.948	36.01
267.164	21.67
267.38	29.87
267.596	46.25
267.812	46.25
268.028	48.3
268.244	-68.44
268.46	40.11
268.676	58.54
268.892	17.58
269.108	27.82
269.324	5.29
269.54	-11.09
269.756	46.25
269.972	68.78
270.188	5.29
270.403	-11.09
270.619	58.54
270.835	85.16
271.051	52.39
271.267	64.68
271.483	9.39
271.698	23.72
271.914	85.16
272.13	89.26
272.346	40.11
272.562	36.01
272.777	97.45
272.993	21.67
273.209	9.39
273.425	64.68
273.64	-29.52
273.856	83.11
274.072	44.2
274.287	113.83
274.503	117.93
274.719	85.16
274.934	3.24
275.15	64.68
275.366	-29.52
275.581	15.53
275.797	27.82
276.012	1.19
276.228	3.24
276.444	-13.14
276.659	142.5
276.875	21.67
277.09	81.07
277.306	21.67
277.521	62.63
277.737	-45.91
277.952	70.83
278.168	56.49
278.383	126.12
278.599	76.97
278.814	79.02
279.03	46.25
279.245	72.87
279.461	23.72
279.676	103.59
279.892	-19.29
280.107	-2.9
280.322	21.67
280.538	68.78
280.753	17.58
280.969	56.49
281.184	-7
281.399	68.78
281.615	54.44
281.83	44.2
282.045	-37.72
282.26	44.2
282.476	-62.29
282.691	85.16
282.906	109.74
283.122	-4.95
283.337	-11.09
283.552	101.55
283.767	-25.43
283.983	64.68
284.198	-4.95
284.413	85.16
284.628	21.67
284.843	109.74
285.058	36.01
285.274	-13.14
285.489	56.49
285.704	103.59
285.919	93.35
286.134	36.01
286.349	27.82
286.564	-4.95
286.779	122.02
286.995	97.45
287.21	21.67
287.425	105.64
287.64	9.39
287.855	62.63
288.07	33.96
288.285	23.72
288.5	44.2
288.715	62.63
288.93	-17.24
289.145	-21.33
289.36	85.16
289.575	-7
289.79	27.82
290.004	40.11
290.219	60.59
290.434	11.43
290.649	-4.95
290.864	52.39
291.079	-4.95
291.294	150.7
291.509	70.83
291.724	19.63
291.938	29.87
292.153	-23.38
292.368	50.35
292.583	122.02
292.798	19.63
293.012	40.11
293.227	85.16
293.442	40.11
293.657	95.4
293.871	68.78
294.086	27.82
294.301	44.2
294.516	103.59
294.73	29.87
294.945	89.26
295.16	-70.48
295.374	-4.95
295.589	54.44
295.804	-50
296.018	60.59
296.233	21.67
296.447	13.48
296.662	58.54
296.877	44.2
297.091	38.06
297.306	62.63
297.52	21.67
297.735	93.35
297.949	36.01
298.164	13.48
298.378	36.01
298.593	97.45
298.807	42.15
299.022	60.59
299.236	91.31
299.451	3.24
299.665	83.11
299.88	50.35
300.094	21.67
300.309	111.78
300.523	38.06
300.737	21.67
300.952	-41.81
301.166	36.01
301.381	7.34
301.595	46.25
301.809	76.97
302.024	46.25
302.238	3.24
302.452	103.59
302.667	79.02
302.881	134.31
303.095	36.01
303.309	23.72
303.524	36.01
303.738	54.44
303.952	46.25
304.166	76.97
304.381	7.34
304.595	97.45
304.809	-33.62
305.023	56.49
305.237	29.87
305.452	66.73
305.666	36.01
305.88	58.54
306.094	29.87
306.308	68.78
306.522	72.87
306.736	89.26
306.95	93.35
307.164	62.63
307.379	44.2
307.593	64.68
307.807	117.93
308.021	117.93
308.235	167.08
308.449	-2.9
308.663	72.87
308.877	103.59
309.091	11.43
309.305	79.02
309.519	66.73
309.733	56.49
309.947	44.2
310.161	52.39
310.374	27.82
310.588	72.87
310.802	9.39
311.016	46.25
311.23	-0.85
311.444	89.26
311.658	54.44
311.872	103.59
312.085	58.54
312.299	29.87
312.513	105.64
312.727	27.82
312.941	-43.86
313.154	5.29
313.368	50.35
313.582	44.2
313.796	91.31
314.009	7.34
314.223	72.87
314.437	70.83
314.651	81.07
314.864	19.63
315.078	23.72
315.292	48.3
315.505	52.39
315.719	-19.29
315.933	87.21
316.146	36.01
316.36	62.63
316.573	68.78
316.787	19.63
317.001	-0.85
317.214	3.24
317.428	109.74
317.641	27.82
317.855	21.67
318.068	93.35
318.282	44.2
318.495	27.82
318.709	119.98
318.922	60.59
319.136	70.83
319.349	101.55
319.563	11.43
319.776	21.67
319.99	-17.24
320.203	38.06
320.417	36.01
320.63	48.3
320.843	85.16
321.057	113.83
321.27	52.39
321.483	-9.05
321.697	60.59
321.91	138.41
322.124	93.35
322.337	-11.09
322.55	-17.24
322.763	36.01
322.977	95.4
323.19	-23.38
323.403	93.35
323.617	31.91
323.83	87.21
324.043	48.3
324.256	38.06
324.469	52.39
324.683	81.07
324.896	-54.1
325.109	11.43
325.322	-19.29
325.535	46.25
325.748	38.06
325.962	-74.58
326.175	19.63
326.388	23.72
326.601	76.97
326.814	-45.91
327.027	52.39
327.24	60.59
327.453	-54.1
327.666	27.82
327.879	21.67
328.092	136.36
328.305	27.82
328.518	44.2
328.731	-19.29
328.944	52.39
329.157	40.11
329.37	21.67
329.583	54.44
329.796	87.21
330.009	-17.24
330.222	93.35
330.435	38.06
330.648	38.06
330.861	27.82
331.073	-50
331.286	70.83
331.499	-45.91
331.712	-37.72
331.925	44.2
332.138	76.97
332.35	68.78
332.563	-9.05
332.776	113.83
332.989	52.39
333.202	93.35
333.414	81.07
333.627	-2.9
333.84	54.44
334.053	3.24
334.265	-50
334.478	5.29
334.691	-25.43
334.903	68.78
335.116	130.22
335.329	87.21
335.541	83.11
335.754	85.16
335.966	83.11
336.179	70.83
336.392	23.72
336.604	101.55
336.817	64.68
337.029	5.29
337.242	111.78
337.454	64.68
337.667	68.78
337.88	95.4
338.092	40.11
338.305	117.93
338.517	79.02
338.729	109.74
338.942	105.64
339.154	23.72
339.367	29.87
339.579	68.78
339.792	23.72
340.004	11.43
340.217	27.82
340.429	91.31
340.641	3.24
340.854	3.24
341.066	31.91
341.278	142.5
341.491	130.22
341.703	1.19
341.915	56.49
342.128	62.63
342.34	27.82
342.552	27.82
342.764	105.64
342.977	36.01
343.189	38.06
343.401	76.97
343.613	31.91
343.826	36.01
344.038	-13.14
344.25	56.49
344.462	58.54
344.674	76.97
344.886	-25.43
345.099	11.43
345.311	13.48
345.523	-43.86
345.735	-13.14
345.947	87.21
346.159	72.87
346.371	95.4
346.583	44.2
346.795	46.25
347.007	81.07
347.219	36.01
347.431	56.49
347.643	36.01
347.855	-29.52
348.067	85.16
348.279	5.29
348.491	48.3
348.703	89.26
348.915	81.07
349.127	15.53
349.339	46.25
349.551	11.43
349.763	68.78
349.975	52.39
350.187	109.74
350.399	85.16
350.61	89.26
350.822	-27.48
351.034	-4.95
351.246	58.54
351.458	97.45
351.669	76.97
351.881	105.64
352.093	103.59
352.305	130.22
352.517	56.49
352.728	-0.85
352.94	60.59
353.152	56.49
353.363	62.63
353.575	97.45
353.787	76.97
353.999	87.21
354.21	64.68
354.422	52.39
354.633	-21.33
354.845	70.83
355.057	27.82
355.268	-4.95
355.48	36.01
355.692	95.4
355.903	3.24
356.115	56.49
356.326	31.91
356.538	97.45
356.749	119.98
356.961	113.83
357.172	-45.91
357.384	93.35
357.595	130.22
357.807	89.26
358.018	72.87
358.23	62.63
358.441	44.2
358.653	60.59
358.864	-13.14
359.075	54.44
359.287	-21.33
359.498	85.16
359.709	44.2
359.921	87.21
360.132	46.25
360.344	-11.09
360.555	29.87
360.766	101.55
360.977	27.82
361.189	-13.14
361.4	81.07
361.611	21.67
361.823	11.43
362.034	52.39
362.245	-17.24
362.456	44.2
362.667	68.78
362.879	60.59
363.09	97.45
363.301	64.68
363.512	111.78
363.723	1.19
363.935	48.3
364.146	105.64
364.357	-11.09
364.568	85.16
364.779	36.01
364.99	60.59
365.201	-21.33
365.412	85.16
365.623	138.41
365.834	44.2
366.045	68.78
366.256	68.78
366.467	117.93
366.678	27.82
366.889	91.31
367.1	27.82
367.311	103.59
367.522	54.44
367.733	136.36
367.944	85.16
368.155	-21.33
368.366	60.59
368.577	7.34
368.788	101.55
368.999	40.11
369.209	36.01
369.42	130.22
369.631	113.83
369.842	56.49
370.053	64.68
370.264	81.07
370.474	-37.72
370.685	68.78
370.896	19.63
371.107	101.55
371.317	70.83
371.528	111.78
371.739	50.35
371.95	31.91
372.16	97.45
372.371	-19.29
372.582	11.43
372.792	87.21
373.003	60.59
373.214	87.21
373.424	72.87
373.635	95.4
373.846	60.59
374.056	103.59
374.267	60.59
374.477	38.06
374.688	46.25
374.898	64.68
375.109	64.68
375.319	58.54
375.53	103.59
375.74	111.78
375.951	85.16
376.161	83.11
376.372	101.55
376.582	7.34
376.793	76.97
377.003	-4.95
377.214	27.82
377.424	40.11
377.635	60.59
377.845	27.82
378.055	76.97
378.266	-9.05
378.476	113.83
378.686	76.97
378.897	132.26
379.107	105.64
379.317	54.44
379.528	40.11
379.738	136.36
379.948	21.67
380.158	76.97
380.369	52.39
380.579	119.98
380.789	179.37
380.999	142.5
381.21	27.82
381.42	134.31
381.63	76.97
381.84	85.16
382.05	19.63
382.261	97.45
382.471	97.45
382.681	3.24
382.891	93.35
383.101	13.48
383.311	11.43
383.521	74.92
383.731	128.17
383.941	130.22
384.151	85.16
384.361	66.73
384.571	76.97
384.781	76.97
384.991	68.78
385.201	56.49
385.411	21.67
385.621	85.16
385.831	62.63
386.041	40.11
386.251	91.31
386.461	105.64
386.671	5.29
386.881	70.83
387.091	58.54
387.301	154.79
387.511	33.96
387.72	93.35
387.93	54.44
388.14	23.72
388.35	40.11
388.56	111.78
388.769	142.5
388.979	60.59
389.189	46.25
389.399	52.39
389.609	128.17
389.818	126.12
390.028	54.44
390.238	58.54
390.447	105.64
390.657	109.74
390.867	119.98
391.076	62.63
391.286	93.35
391.496	72.87
391.705	44.2
391.915	99.5
392.125	91.31
392.334	117.93
392.544	122.02
392.753	76.97
392.963	68.78
393.172	105.64
393.382	31.91
393.591	126.12
393.801	70.83
394.01	97.45
394.22	97.45
394.429	64.68
394.639	72.87
394.848	117.93
395.058	134.31
395.267	68.78
395.477	33.96
395.686	130.22
395.895	187.56
396.105	154.79
396.314	205.99
396.524	46.25
396.733	111.78
396.942	210.09
397.152	95.4
397.361	183.46
397.57	85.16
397.78	117.93
397.989	101.55
398.198	126.12
398.407	70.83
398.617	167.08
398.826	101.55
399.035	132.26
399.244	91.31
399.453	126.12
399.663	134.31
399.872	144.55
400.081	40.11
400.29	89.26
400.499	115.88
400.708	134.31
400.917	128.17
401.127	144.55
401.336	185.51
401.545	238.76
401.754	109.74
401.963	162.98
402.172	150.7
402.381	177.32
402.59	107.69
402.799	117.93
403.008	195.75
403.217	246.95
403.426	167.08
403.635	81.07
403.844	212.14
404.053	134.31
404.262	113.83
404.471	173.22
404.68	232.62
404.888	232.62
405.097	171.18
405.306	228.52
405.515	183.46
405.724	208.04
405.933	244.9
406.142	179.37
406.35	300.2
406.559	222.38
406.768	234.66
406.977	271.53
407.185	277.67
407.394	162.98
407.603	240.81
407.812	228.52
408.02	322.73
408.229	273.57
408.438	244.9
408.646	257.19
408.855	294.05
409.064	337.06
409.272	298.15
409.481	361.64
409.69	404.64
409.898	371.88
410.107	355.49
410.315	441.51
410.524	453.8
410.733	412.84
410.941	369.83
411.15	466.08
411.358	488.61
411.567	470.18
411.775	517.28
411.984	552.1
412.192	535.71
412.401	521.38
412.609	634.02
412.818	564.39
413.026	666.78
413.234	640.16
413.443	662.69
413.651	666.78
413.86	781.47
414.068	840.86
414.276	863.39
414.485	830.62
414.693	869.53
414.901	906.4
415.11	969.88
415.318	863.39
415.526	1068.19
415.734	842.91
415.943	1053.85
416.151	1053.85
416.359	1076.38
416.567	1064.09
416.776	1150.11
416.984	1240.22
417.192	1373.33
417.4	1315.99
417.608	1326.23
417.817	1375.38
418.025	1463.44
418.233	1518.74
418.441	1453.2
418.649	1531.03
418.857	1629.33
419.065	1715.34
419.273	1633.43
419.481	1678.48
419.689	1827.98
419.897	1969.29
420.105	1856.65
420.313	2086.03
420.521	2077.83
420.729	2034.83
420.937	2049.16
421.145	2282.63
421.353	2305.16
421.561	2479.24
421.769	2378.89
421.977	2727.04
422.185	2587.78
422.393	2692.23
422.601	2962.56
422.809	2927.74
423.017	2899.07
423.224	3046.52
423.432	3165.31
423.64	3144.83
423.848	3386.49
424.056	3292.28
424.263	3609.72
424.471	3650.67
424.679	3806.32
424.887	3906.67
425.094	4068.46
425.302	4062.32
425.51	4191.34
425.718	4455.53
425.925	4435.05
426.133	4674.66
426.341	4852.83
426.548	5039.2
426.756	5084.25
426.964	5254.23
427.171	5229.66
427.379	5481.56
427.586	5712.98
427.794	5862.48
428.001	6024.27
428.209	6362.19
428.417	6057.04
428.624	6638.66
428.832	6655.05
429.039	6595.65
429.247	6650.95
429.454	7195.71
429.662	7699.51
429.869	7228.48
430.076	7830.58
430.284	7558.2
430.491	7943.22
430.699	8096.82
430.906	8348.72
431.114	8412.2
431.321	8795.17
431.528	8879.14
431.736	9325.6
431.943	9806.87
432.15	9683.99
432.358	9647.13
432.565	9970.71
432.772	10234.89
432.979	10632.2
433.187	10941.44
433.394	10769.41
433.601	11801.59
433.808	11676.66
434.016	11566.07
434.223	12086.26
434.43	12792.81
434.637	12551.15
434.844	13325.28
435.052	13525.98
435.259	13485.02
435.466	13691.87
435.673	13466.59
435.88	14519.25
436.087	15006.66
436.294	14873.54
436.501	14734.28
436.708	14930.89
436.915	15610.81
437.122	16057.27
437.329	16280.5
437.537	16798.63
437.743	16718.76
437.95	16821.16
438.157	17578.91
438.364	18246.55
438.571	18402.19
438.778	18215.83
438.985	19925.88
439.192	19008.39
439.399	19753.85
439.606	19264.39
439.813	20509.55
440.02	21609.31
440.227	21259.11
440.433	20992.87
440.64	21754.72
440.847	21568.35
441.054	22041.43
441.261	23933.76
441.467	23493.44
441.674	23685.95
441.881	24621.87
442.088	24308.54
442.294	24199.99
442.501	24896.3
442.708	25482.02
442.914	26434.33
443.121	27620.1
443.328	26702.61
443.534	28504.82
443.741	28056.32
443.948	27456.26
444.154	29508.33
444.361	29393.64
444.568	29438.7
444.774	29387.5
444.981	29403.88
445.187	30446.3
445.394	31826.63
445.6	31900.36
445.807	34366.11
446.013	33116.85
446.22	33231.54
446.426	35089.04
446.633	35052.18
446.839	36293.25
447.046	35175.06
447.252	36471.42
447.459	36575.87
447.665	36594.3
447.871	38152.8
448.078	40100.42
448.284	37923.43
448.491	38906.46
448.697	40510.02
448.903	41321.01
449.11	41413.17
449.316	40411.71
449.522	41583.15
449.728	42435.11
449.935	42992.15
450.141	42402.34
450.347	43524.63
450.553	42113.58
450.76	42547.75
450.966	44288.52
451.172	43350.55
451.378	45175.29
451.584	44114.44
451.791	45099.51
451.997	45050.36
452.203	45306.36
452.409	45685.23
452.615	45668.85
452.821	43514.39
453.027	42818.08
453.233	45236.73
453.44	43475.48
453.646	44114.44
453.852	44075.53
454.058	45261.3
454.264	43907.6
454.47	44622.34
454.676	44022.28
454.882	44976.64
455.088	41155.13
455.294	41781.81
455.5	42549.79
455.705	42949.15
455.911	41351.73
456.117	40581.7
456.323	40309.32
456.529	38034.02
456.735	39508.56
456.941	38328.93
457.147	38070.89
457.352	36817.53
457.558	36338.3
457.764	36534.91
457.97	36076.16
458.176	35361.42
458.381	35074.71
458.587	33671.85
458.793	33465
458.999	31449.8
459.204	34024.1
459.41	33198.77
459.616	30819.03
459.821	30978.77
460.027	30894.8
460.233	29950.69
460.438	28564.21
460.644	29059.82
460.85	27448.07
461.055	27071.25
461.261	27038.48
461.466	24845.1
461.672	24429.37
461.878	25920.29
462.083	24369.97
462.289	23948.09
462.494	23399.24
462.7	22334.29
462.905	22043.48
463.111	22823.76
463.316	22901.58
463.522	22250.33
463.727	22195.03
463.932	22106.97
464.138	21771.1
464.343	22096.73
464.549	21298.02
464.754	21666.66
464.959	21855.07
465.165	21437.28
465.37	20630.38
465.575	20140.92
465.781	21115.75
465.986	20976.49
466.191	20380.53
466.397	19680.13
466.602	19032.97
466.807	19757.95
