Data from USB4F104151__256__14-34-19-133.txt Node

Date: Thu Mar 13 14:34:19 EDT 2025
User: louis
Spectrometer: USB4F10415
Trigger mode: 4
Integration Time (sec): 2.500000E-2
Scans to average: 1
Electric dark correction enabled: true
Nonlinearity correction enabled: false
Boxcar width: 0
XAxis mode: Wavelengths
Number of Pixels in Spectrum: 3648
>>>>>Begin Spectral Data<<<<<
178.204	-113.15
178.424	-113.15
178.644	-113.15
178.864	-133.63
179.084	-113.15
179.304	-43.52
179.524	-43.52
179.744	17.92
179.964	58.88
180.184	3.58
180.404	9.73
180.624	-6.66
180.844	-35.33
181.064	-29.18
181.283	60.93
181.503	-37.38
181.723	44.54
181.943	-70.14
182.163	128.51
182.383	11.78
182.602	177.66
182.822	56.83
183.042	42.5
183.262	69.12
183.482	1.54
183.701	11.78
183.921	30.21
184.141	34.3
184.361	99.84
184.58	19.97
184.8	15.87
185.02	-0.51
185.239	75.26
185.459	73.21
185.679	75.26
185.898	50.69
186.118	42.5
186.338	-37.38
186.557	91.65
186.777	50.69
186.997	77.31
187.216	9.73
187.436	118.27
187.655	91.65
187.875	22.02
188.095	-51.71
188.314	34.3
188.534	165.37
188.753	85.5
188.973	67.07
189.192	116.22
189.412	17.92
189.631	120.32
189.851	87.55
190.07	87.55
190.29	17.92
190.509	13.82
190.729	26.11
190.948	30.21
191.168	181.76
191.387	62.98
191.607	50.69
191.826	65.02
192.045	77.31
192.265	52.74
192.484	-4.61
192.704	93.69
192.923	-14.85
193.142	120.32
193.362	-6.66
193.581	85.5
193.8	50.69
194.02	103.93
194.239	60.93
194.458	79.36
194.678	60.93
194.897	62.98
195.116	-10.75
195.335	42.5
195.555	54.78
195.774	34.3
195.993	120.32
196.212	67.07
196.432	-6.66
196.651	38.4
196.87	36.35
197.089	91.65
197.308	62.98
197.528	60.93
197.747	-23.04
197.966	44.54
198.185	42.5
198.404	30.21
198.623	26.11
198.842	50.69
199.062	91.65
199.281	67.07
199.5	50.69
199.719	108.03
199.938	73.21
200.157	99.84
200.376	52.74
200.595	91.65
200.814	42.5
201.033	19.97
201.252	118.27
201.471	56.83
201.69	60.93
201.909	93.69
202.128	40.45
202.347	75.26
202.566	42.5
202.785	89.6
203.004	26.11
203.223	7.68
203.442	105.98
203.661	34.3
203.879	34.3
204.098	34.3
204.317	83.45
204.536	126.46
204.755	126.46
204.974	91.65
205.193	1.54
205.411	87.55
205.63	75.26
205.849	85.5
206.068	17.92
206.287	91.65
206.505	40.45
206.724	83.45
206.943	34.3
207.162	62.98
207.381	11.78
207.599	108.03
207.818	36.35
208.037	44.54
208.255	22.02
208.474	17.92
208.693	62.98
208.911	11.78
209.13	22.02
209.349	108.03
209.567	126.46
209.786	42.5
210.005	91.65
210.223	91.65
210.442	7.68
210.661	89.6
210.879	38.4
211.098	17.92
211.316	60.93
211.535	75.26
211.753	69.12
211.972	93.69
212.191	36.35
212.409	17.92
212.628	-10.75
212.846	-6.66
213.065	38.4
213.283	118.27
213.502	44.54
213.72	11.78
213.938	91.65
214.157	83.45
214.375	44.54
214.594	7.68
214.812	19.97
215.031	38.4
215.249	97.79
215.467	56.83
215.686	26.11
215.904	108.03
216.122	81.41
216.341	52.74
216.559	50.69
216.778	50.69
216.996	93.69
217.214	1.54
217.432	-2.56
217.651	-37.38
217.869	24.06
218.087	60.93
218.306	36.35
218.524	50.69
218.742	52.74
218.96	75.26
219.179	36.35
219.397	69.12
219.615	93.69
219.833	144.89
220.051	83.45
220.27	95.74
220.488	91.65
220.706	11.78
220.924	1.54
221.142	-33.28
221.36	112.13
221.578	83.45
221.796	26.11
222.015	112.13
222.233	77.31
222.451	140.8
222.669	65.02
222.887	126.46
223.105	-14.85
223.323	54.78
223.541	1.54
223.759	87.55
223.977	58.88
224.195	91.65
224.413	50.69
224.631	161.28
224.849	34.3
225.067	161.28
225.285	9.73
225.503	77.31
225.721	50.69
225.939	71.17
226.157	99.84
226.375	161.28
226.592	-14.85
226.81	-6.66
227.028	140.8
227.246	118.27
227.464	-6.66
227.682	58.88
227.9	91.65
228.117	91.65
228.335	91.65
228.553	34.3
228.771	83.45
228.989	34.3
229.206	54.78
229.424	17.92
229.642	50.69
229.86	1.54
230.077	114.17
230.295	11.78
230.513	95.74
230.731	30.21
230.948	36.35
231.166	99.84
231.384	112.13
231.601	44.54
231.819	79.36
232.037	9.73
232.254	11.78
232.472	108.03
232.689	34.3
232.907	42.5
233.125	26.11
233.342	50.69
233.56	54.78
233.777	79.36
233.995	108.03
234.213	71.17
234.43	30.21
234.648	62.98
234.865	91.65
235.083	103.93
235.3	148.99
235.518	34.3
235.735	136.7
235.953	85.5
236.17	1.54
236.388	34.3
236.605	50.69
236.822	142.85
237.04	28.16
237.257	116.22
237.475	26.11
237.692	17.92
237.909	95.74
238.127	67.07
238.344	11.78
238.562	42.5
238.779	28.16
238.996	65.02
239.214	75.26
239.431	93.69
239.648	-4.61
239.865	83.45
240.083	28.16
240.3	1.54
240.517	5.63
240.735	75.26
240.952	60.93
241.169	126.46
241.386	7.68
241.603	11.78
241.821	-2.56
242.038	26.11
242.255	42.5
242.472	-10.75
242.689	71.17
242.907	52.74
243.124	7.68
243.341	30.21
243.558	62.98
243.775	5.63
243.992	26.11
244.209	5.63
244.426	77.31
244.643	46.59
244.86	22.02
245.078	52.74
245.295	120.32
245.512	-23.04
245.729	83.45
245.946	67.07
246.163	54.78
246.38	58.88
246.597	22.02
246.814	-2.56
247.031	83.45
247.248	124.41
247.464	26.11
247.681	50.69
247.898	62.98
248.115	13.82
248.332	13.82
248.549	108.03
248.766	140.8
248.983	58.88
249.2	62.98
249.417	67.07
249.633	9.73
249.85	73.21
250.067	28.16
250.284	36.35
250.501	108.03
250.717	126.46
250.934	-47.62
251.151	-6.66
251.368	71.17
251.585	73.21
251.801	22.02
252.018	-12.8
252.235	60.93
252.451	-12.8
252.668	83.45
252.885	124.41
253.102	24.06
253.318	38.4
253.535	67.07
253.752	17.92
253.968	112.13
254.185	58.88
254.401	58.88
254.618	132.61
254.835	38.4
255.051	122.37
255.268	101.89
255.484	-12.8
255.701	-64
255.917	112.13
256.134	38.4
256.351	32.26
256.567	-27.14
256.784	60.93
257	46.59
257.217	75.26
257.433	105.98
257.65	95.74
257.866	58.88
258.082	-41.47
258.299	54.78
258.515	28.16
258.732	22.02
258.948	58.88
259.165	30.21
259.381	42.5
259.597	60.93
259.814	-8.7
260.03	48.64
260.246	134.65
260.463	157.18
260.679	60.93
260.895	-2.56
261.112	67.07
261.328	50.69
261.544	42.5
261.761	173.57
261.977	-14.85
262.193	30.21
262.409	67.07
262.626	99.84
262.842	50.69
263.058	-18.94
263.274	118.27
263.49	42.5
263.707	91.65
263.923	-10.75
264.139	-59.9
264.355	52.74
264.571	54.78
264.787	50.69
265.004	83.45
265.22	62.98
265.436	67.07
265.652	87.55
265.868	34.3
266.084	1.54
266.3	52.74
266.516	60.93
266.732	-20.99
266.948	101.89
267.164	58.88
267.38	36.35
267.596	101.89
267.812	48.64
268.028	13.82
268.244	9.73
268.46	-2.56
268.676	11.78
268.892	-2.56
269.108	77.31
269.324	19.97
269.54	17.92
269.756	-10.75
269.972	34.3
270.188	75.26
270.403	30.21
270.619	36.35
270.835	3.58
271.051	67.07
271.267	60.93
271.483	11.78
271.698	38.4
271.914	34.3
272.13	26.11
272.346	5.63
272.562	50.69
272.777	77.31
272.993	22.02
273.209	34.3
273.425	101.89
273.64	9.73
273.856	67.07
274.072	60.93
274.287	44.54
274.503	-39.42
274.719	120.32
274.934	26.11
275.15	5.63
275.366	79.36
275.581	9.73
275.797	28.16
276.012	34.3
276.228	34.3
276.444	60.93
276.659	50.69
276.875	-10.75
277.09	11.78
277.306	83.45
277.521	58.88
277.737	89.6
277.952	99.84
278.168	36.35
278.383	83.45
278.599	83.45
278.814	93.69
279.03	81.41
279.245	50.69
279.461	38.4
279.676	34.3
279.892	-64
280.107	3.58
280.322	71.17
280.538	60.93
280.753	1.54
280.969	46.59
281.184	-4.61
281.399	42.5
281.615	17.92
281.83	48.64
282.045	-25.09
282.26	22.02
282.476	30.21
282.691	58.88
282.906	-18.94
283.122	17.92
283.337	46.59
283.552	99.84
283.767	50.69
283.983	110.08
284.198	38.4
284.413	71.17
284.628	9.73
284.843	17.92
285.058	42.5
285.274	85.5
285.489	3.58
285.704	50.69
285.919	17.92
286.134	87.55
286.349	19.97
286.564	62.98
286.779	99.84
286.995	60.93
287.21	-78.33
287.425	58.88
287.64	22.02
287.855	108.03
288.07	11.78
288.285	28.16
288.5	13.82
288.715	62.98
288.93	103.93
289.145	13.82
289.36	75.26
289.575	36.35
289.79	67.07
290.004	-10.75
290.219	19.97
290.434	116.22
290.649	67.07
290.864	15.87
291.079	38.4
291.294	69.12
291.509	46.59
291.724	54.78
291.938	73.21
292.153	69.12
292.368	58.88
292.583	77.31
292.798	5.63
293.012	83.45
293.227	9.73
293.442	71.17
293.657	87.55
293.871	60.93
294.086	85.5
294.301	126.46
294.516	65.02
294.73	60.93
294.945	95.74
295.16	153.09
295.374	65.02
295.589	62.98
295.804	58.88
296.018	73.21
296.233	165.37
296.447	36.35
296.662	58.88
296.877	75.26
297.091	38.4
297.306	87.55
297.52	34.3
297.735	75.26
297.949	-23.04
298.164	65.02
298.378	30.21
298.593	69.12
298.807	19.97
299.022	67.07
299.236	75.26
299.451	62.98
299.665	54.78
299.88	44.54
300.094	46.59
300.309	52.74
300.523	3.58
300.737	128.51
300.952	1.54
301.166	75.26
301.381	-18.94
301.595	73.21
301.809	5.63
302.024	42.5
302.238	-20.99
302.452	108.03
302.667	13.82
302.881	126.46
303.095	122.37
303.309	52.74
303.524	-35.33
303.738	87.55
303.952	26.11
304.166	77.31
304.381	-18.94
304.595	65.02
304.809	58.88
305.023	151.04
305.237	17.92
305.452	44.54
305.666	65.02
305.88	97.79
306.094	65.02
306.308	75.26
306.522	87.55
306.736	87.55
306.95	87.55
307.164	46.59
307.379	50.69
307.593	163.33
307.807	118.27
308.021	91.65
308.235	124.41
308.449	62.98
308.663	99.84
308.877	58.88
309.091	58.88
309.305	77.31
309.519	22.02
309.733	34.3
309.947	9.73
310.161	132.61
310.374	-31.23
310.588	126.46
310.802	-29.18
311.016	91.65
311.23	77.31
311.444	81.41
311.658	58.88
311.872	116.22
312.085	60.93
312.299	108.03
312.513	75.26
312.727	134.65
312.941	36.35
313.154	91.65
313.368	42.5
313.582	95.74
313.796	65.02
314.009	67.07
314.223	67.07
314.437	17.92
314.651	83.45
314.864	40.45
315.078	83.45
315.292	-70.14
315.505	67.07
315.719	62.98
315.933	46.59
316.146	32.26
316.36	22.02
316.573	58.88
316.787	75.26
317.001	60.93
317.214	-4.61
317.428	79.36
317.641	24.06
317.855	118.27
318.068	58.88
318.282	65.02
318.495	132.61
318.709	30.21
318.922	30.21
319.136	30.21
319.349	85.5
319.563	42.5
319.776	11.78
319.99	-10.75
320.203	140.8
320.417	36.35
320.63	34.3
320.843	175.61
321.057	1.54
321.27	13.82
321.483	44.54
321.697	83.45
321.91	114.17
322.124	11.78
322.337	36.35
322.55	-6.66
322.763	81.41
322.977	42.5
323.19	65.02
323.403	54.78
323.617	93.69
323.83	83.45
324.043	44.54
324.256	-6.66
324.469	32.26
324.683	120.32
324.896	85.5
325.109	30.21
325.322	-31.23
325.535	13.82
325.748	58.88
325.962	7.68
326.175	112.13
326.388	42.5
326.601	77.31
326.814	73.21
327.027	50.69
327.24	65.02
327.453	99.84
327.666	157.18
327.879	52.74
328.092	108.03
328.305	75.26
328.518	69.12
328.731	3.58
328.944	75.26
329.157	28.16
329.37	-27.14
329.583	112.13
329.796	116.22
330.009	67.07
330.222	124.41
330.435	140.8
330.648	83.45
330.861	108.03
331.073	32.26
331.286	77.31
331.499	71.17
331.712	56.83
331.925	65.02
332.138	46.59
332.35	44.54
332.563	77.31
332.776	44.54
332.989	48.64
333.202	85.5
333.414	19.97
333.627	38.4
333.84	71.17
334.053	1.54
334.265	26.11
334.478	79.36
334.691	-10.75
334.903	42.5
335.116	28.16
335.329	58.88
335.541	54.78
335.754	126.46
335.966	110.08
336.179	44.54
336.392	83.45
336.604	56.83
336.817	179.71
337.029	9.73
337.242	42.5
337.454	71.17
337.667	38.4
337.88	108.03
338.092	85.5
338.305	50.69
338.517	26.11
338.729	60.93
338.942	73.21
339.154	73.21
339.367	83.45
339.579	116.22
339.792	54.78
340.004	157.18
340.217	54.78
340.429	60.93
340.641	28.16
340.854	28.16
341.066	1.54
341.278	17.92
341.491	169.47
341.703	34.3
341.915	108.03
342.128	108.03
342.34	17.92
342.552	13.82
342.764	103.93
342.977	95.74
343.189	103.93
343.401	83.45
343.613	87.55
343.826	79.36
344.038	85.5
344.25	-23.04
344.462	46.59
344.674	58.88
344.886	54.78
345.099	75.26
345.311	148.99
345.523	-10.75
345.735	46.59
345.947	108.03
346.159	50.69
346.371	11.78
346.583	58.88
346.795	124.41
347.007	44.54
347.219	118.27
347.431	85.5
347.643	83.45
347.855	58.88
348.067	40.45
348.279	75.26
348.491	22.02
348.703	58.88
348.915	46.59
349.127	79.36
349.339	85.5
349.551	79.36
349.763	112.13
349.975	30.21
350.187	108.03
350.399	89.6
350.61	91.65
350.822	42.5
351.034	112.13
351.246	50.69
351.458	46.59
351.669	140.8
351.881	124.41
352.093	128.51
352.305	108.03
352.517	132.61
352.728	54.78
352.94	17.92
353.152	97.79
353.363	95.74
353.575	99.84
353.787	95.74
353.999	67.07
354.21	93.69
354.422	7.68
354.633	62.98
354.845	77.31
355.057	81.41
355.268	89.6
355.48	77.31
355.692	22.02
355.903	116.22
356.115	-25.09
356.326	75.26
356.538	101.89
356.749	91.65
356.961	140.8
357.172	44.54
357.384	60.93
357.595	124.41
357.807	34.3
358.018	17.92
358.23	24.06
358.441	105.98
358.653	36.35
358.864	-6.66
359.075	3.58
359.287	54.78
359.498	34.3
359.709	151.04
359.921	91.65
360.132	34.3
360.344	22.02
360.555	5.63
360.766	67.07
360.977	110.08
361.189	124.41
361.4	26.11
361.611	144.89
361.823	95.74
362.034	42.5
362.245	-23.04
362.456	85.5
362.667	108.03
362.879	77.31
363.09	105.98
363.301	-4.61
363.512	58.88
363.723	69.12
363.935	34.3
364.146	44.54
364.357	-4.61
364.568	134.65
364.779	-23.04
364.99	75.26
365.201	48.64
365.412	157.18
365.623	17.92
365.834	142.85
366.045	99.84
366.256	9.73
366.467	116.22
366.678	83.45
366.889	95.74
367.1	83.45
367.311	116.22
367.522	128.51
367.733	5.63
367.944	99.84
368.155	140.8
368.366	52.74
368.577	159.23
368.788	95.74
368.999	91.65
369.209	50.69
369.42	140.8
369.631	177.66
369.842	52.74
370.053	38.4
370.264	118.27
370.474	83.45
370.685	-6.66
370.896	83.45
371.107	91.65
371.317	52.74
371.528	95.74
371.739	83.45
371.95	44.54
372.16	112.13
372.371	85.5
372.582	103.93
372.792	83.45
373.003	77.31
373.214	11.78
373.424	124.41
373.635	-14.85
373.846	79.36
374.056	52.74
374.267	124.41
374.477	140.8
374.688	77.31
374.898	48.64
375.109	116.22
375.319	50.69
375.53	124.41
375.74	60.93
375.951	46.59
376.161	97.79
376.372	132.61
376.582	128.51
376.793	52.74
377.003	79.36
377.214	93.69
377.424	71.17
377.635	69.12
377.845	52.74
378.055	99.84
378.266	101.89
378.476	60.93
378.686	87.55
378.897	124.41
379.107	60.93
379.317	132.61
379.528	62.98
379.738	42.5
379.948	22.02
380.158	126.46
380.369	91.65
380.579	26.11
380.789	99.84
380.999	99.84
381.21	79.36
381.42	138.75
381.63	58.88
381.84	167.42
382.05	116.22
382.261	91.65
382.471	87.55
382.681	44.54
382.891	52.74
383.101	99.84
383.311	71.17
383.521	58.88
383.731	101.89
383.941	52.74
384.151	151.04
384.361	120.32
384.571	89.6
384.781	101.89
384.991	118.27
385.201	175.61
385.411	151.04
385.621	62.98
385.831	73.21
386.041	48.64
386.251	58.88
386.461	58.88
386.671	50.69
386.881	124.41
387.091	77.31
387.301	103.93
387.511	58.88
387.72	99.84
387.93	5.63
388.14	-4.61
388.35	83.45
388.56	116.22
388.769	71.17
388.979	97.79
389.189	44.54
389.399	101.89
389.609	116.22
389.818	30.21
390.028	19.97
390.238	140.8
390.447	19.97
390.657	110.08
390.867	99.84
391.076	73.21
391.286	50.69
391.496	132.61
391.705	83.45
391.915	93.69
392.125	67.07
392.334	142.85
392.544	126.46
392.753	175.61
392.963	173.57
393.172	89.6
393.382	28.16
393.591	118.27
393.801	42.5
394.01	124.41
394.22	124.41
394.429	124.41
394.639	91.65
394.848	36.35
395.058	79.36
395.267	69.12
395.477	75.26
395.686	67.07
395.895	144.89
396.105	116.22
396.314	112.13
396.524	13.82
396.733	105.98
396.942	110.08
397.152	142.85
397.361	151.04
397.57	148.99
397.78	124.41
397.989	173.57
398.198	255.48
398.407	89.6
398.617	73.21
398.826	126.46
399.035	60.93
399.244	181.76
399.453	130.56
399.663	144.89
399.872	167.42
400.081	112.13
400.29	128.51
400.499	132.61
400.708	183.81
400.917	79.36
401.127	108.03
401.336	148.99
401.545	241.15
401.754	116.22
401.963	232.96
402.172	222.72
402.381	157.18
402.59	124.41
402.799	167.42
403.008	136.7
403.217	173.57
403.426	198.14
403.635	110.08
403.844	108.03
404.053	142.85
404.262	132.61
404.471	222.72
404.68	189.95
404.888	120.32
405.097	187.9
405.306	171.52
405.515	181.76
405.724	153.09
405.933	181.76
406.142	251.39
406.35	290.3
406.559	255.48
406.768	265.72
406.977	232.96
407.185	255.48
407.394	239.1
407.603	140.8
407.812	263.68
408.02	288.25
408.229	333.31
408.438	200.19
408.646	275.96
408.855	310.78
409.064	372.22
409.272	290.3
409.481	411.13
409.69	351.74
409.898	306.68
410.107	366.07
410.315	431.61
410.524	386.55
410.733	443.9
410.941	460.28
411.15	476.66
411.358	437.75
411.567	513.53
411.775	468.47
411.984	536.06
412.192	542.2
412.401	443.9
412.609	534.01
412.818	615.93
413.026	568.82
413.234	634.36
413.443	583.16
413.651	536.06
413.86	650.74
414.068	749.04
414.276	812.53
414.485	703.99
414.693	792.05
414.901	853.49
415.11	919.03
415.318	812.53
415.526	869.87
415.734	927.22
415.943	978.42
416.151	1000.94
416.359	1015.28
416.567	1052.14
416.776	1093.1
416.984	1160.69
417.192	1263.08
417.4	1281.52
417.608	1228.27
417.817	1230.32
418.025	1316.33
418.233	1402.35
418.441	1312.24
418.649	1435.11
418.857	1607.14
419.065	1644.01
419.273	1590.76
419.481	1789.41
419.689	1791.46
419.897	1730.02
420.105	1730.02
420.313	1904.1
420.521	1969.63
420.729	1912.29
420.937	1891.81
421.145	2035.17
421.353	2295.26
421.561	2242.01
421.769	2254.3
421.977	2401.76
422.185	2299.36
422.393	2446.81
422.601	2680.28
422.809	2631.13
423.017	2772.44
423.224	2958.8
423.432	2854.36
423.64	2977.23
423.848	3229.13
424.056	3139.02
424.263	3458.51
424.471	3364.3
424.679	3464.65
424.887	3661.26
425.094	3798.47
425.302	3786.18
425.51	3890.63
425.718	3859.91
425.925	4081.09
426.133	4206.02
426.341	4580.79
426.548	4648.38
426.756	4638.14
426.964	4636.09
427.171	4918.71
427.379	5053.87
427.586	5184.94
427.794	5326.25
428.001	5559.72
428.209	5752.23
428.417	5490.09
428.624	6071.72
428.832	6309.28
429.039	6112.67
429.247	5893.54
429.454	6462.88
429.662	7103.89
429.869	6565.28
430.076	7087.51
430.284	6882.71
430.491	7069.08
430.699	7493.01
430.906	7671.18
431.114	7859.59
431.321	7800.2
431.528	8033.67
431.736	8574.33
431.943	9000.31
432.15	8676.73
432.358	8709.5
432.565	9350.51
432.772	9237.88
432.979	9463.15
433.187	9882.99
433.394	9799.02
433.601	10612.06
433.808	10718.56
434.016	10505.57
434.223	11079
434.43	11496.78
434.637	11359.57
434.844	12236.1
435.052	12383.56
435.259	12354.88
435.466	12690.75
435.673	12299.59
435.88	13139.26
436.087	13823.28
436.294	13583.66
436.501	13366.58
436.708	13593.9
436.915	14046.51
437.122	15041.82
437.329	14869.79
437.537	15236.38
437.743	15465.75
437.95	15205.66
438.157	15942.92
438.364	16735.49
438.571	16764.16
438.778	16635.14
438.985	18298.09
439.192	17233.15
439.399	17935.6
439.606	17642.74
439.813	18801.89
440.02	19612.88
440.227	19375.32
440.433	19184.86
440.64	19778.77
440.847	19690.71
441.054	20161.74
441.261	21503.16
441.467	20982.98
441.674	21781.68
441.881	22725.8
442.088	22262.96
442.294	22178.99
442.501	22807.72
442.708	23059.62
442.914	24177.81
443.121	24835.21
443.328	24325.26
443.534	25785.46
443.741	25412.73
443.948	24855.68
444.154	26874.98
444.361	26559.59
444.568	26582.12
444.774	26940.52
444.981	27128.93
445.187	27425.89
445.394	29170.75
445.6	28746.83
445.807	31423.52
446.013	29922.36
446.22	30256.18
446.426	31790.11
446.633	32080.92
446.839	32930.83
447.046	31904.79
447.252	33473.54
447.459	33285.12
447.665	33430.53
447.871	34831.34
448.078	36068.31
448.284	34604.02
448.491	35601.38
448.697	36770.77
448.903	37884.86
449.11	37669.83
449.316	37073.87
449.522	37643.2
449.728	38722.48
449.935	39160.75
450.141	38904.75
450.347	40049.56
450.553	38540.21
450.76	39250.86
450.966	40450.97
451.172	40262.55
451.378	40893.33
451.584	40141.72
451.791	40999.82
451.997	40881.04
452.203	41765.76
452.409	41458.57
452.615	41679.75
452.821	39754.66
453.027	39912.35
453.233	41472.9
453.44	39695.27
453.646	40143.77
453.852	40276.89
454.058	41059.21
454.264	39922.59
454.47	40778.64
454.676	40100.76
454.882	41323.4
455.088	37600.19
455.294	38454.2
455.5	38796.21
455.705	39117.74
455.911	38015.93
456.117	36871.12
456.323	36633.55
456.529	34515.95
456.735	35812.32
456.941	34814.96
457.147	34591.73
457.352	33287.17
457.558	33063.94
457.764	33002.5
457.97	32465.94
458.176	31886.36
458.381	31671.32
458.587	30149.68
458.793	30276.66
458.999	29004.87
459.204	30411.82
459.41	29752.38
459.616	27522.14
459.821	27894.87
460.027	27778.14
460.233	26995.81
460.438	25762.93
460.644	25916.53
460.85	25021.57
461.055	24630.41
461.261	24403.08
461.466	22701.22
461.672	21814.45
461.878	23676.05
462.083	21677.24
462.289	21583.03
462.494	21173.44
462.7	20485.32
462.905	19784.91
463.111	20311.24
463.316	20325.58
463.522	20167.88
463.727	20196.56
463.932	19920.08
464.138	19481.81
464.343	19686.61
464.549	19025.12
464.754	19852.5
464.959	19719.38
465.165	19604.69
465.37	18496.74
465.575	18146.54
465.781	18836.7
465.986	18982.11
466.191	18138.35
466.397	17741.04
466.602	16829.7
