Data from USB4F104151__254__14-34-16-883.txt Node

Date: Thu Mar 13 14:34:16 EDT 2025
User: louis
Spectrometer: USB4F10415
Trigger mode: 4
Integration Time (sec): 2.500000E-2
Scans to average: 1
Electric dark correction enabled: true
Nonlinearity correction enabled: false
Boxcar width: 0
XAxis mode: Wavelengths
Number of Pixels in Spectrum: 3648
>>>>>Begin Spectral Data<<<<<
178.204	-175.44
178.424	-175.44
178.644	-175.44
178.864	-159.06
179.084	-122.2
179.304	23.21
179.524	-91.48
179.744	-9.56
179.964	80.55
180.184	-9.56
180.404	23.21
180.624	-27.99
180.844	-9.56
181.064	-15.7
181.283	66.22
181.503	-60.76
181.723	31.4
181.943	-3.41
182.163	109.22
182.383	-9.56
182.602	25.26
182.822	41.64
183.042	25.26
183.262	0.68
183.482	-15.7
183.701	68.27
183.921	-9.56
184.141	0.68
184.361	27.31
184.58	25.26
184.8	25.26
185.02	-30.04
185.239	105.13
185.459	4.78
185.679	82.6
185.898	-27.99
186.118	113.32
186.338	39.59
186.557	45.74
186.777	51.88
186.997	-34.13
187.216	-5.46
187.436	33.45
187.655	70.31
187.875	35.5
188.095	27.31
188.314	115.37
188.534	15.02
188.753	15.02
188.973	23.21
189.192	105.13
189.412	125.61
189.631	23.21
189.851	23.21
190.07	-58.71
190.29	39.59
190.509	47.79
190.729	43.69
190.948	70.31
191.168	123.56
191.387	68.27
191.607	10.92
191.826	55.98
192.045	111.27
192.265	10.92
192.484	-40.28
192.704	31.4
192.923	-42.32
193.142	58.03
193.362	-7.51
193.581	133.8
193.8	68.27
194.02	107.18
194.239	-15.7
194.458	78.51
194.678	-11.61
194.897	70.31
195.116	-1.37
195.335	64.17
195.555	43.69
195.774	70.31
195.993	-19.8
196.212	17.07
196.432	12.97
196.651	-23.89
196.87	-38.23
197.089	113.32
197.308	43.69
197.528	47.79
197.747	-46.42
197.966	0.68
198.185	8.87
198.404	10.92
198.623	72.36
198.842	53.93
199.062	86.7
199.281	12.97
199.5	121.51
199.719	-5.46
199.938	133.8
200.157	105.13
200.376	80.55
200.595	43.69
200.814	45.74
201.033	90.79
201.252	105.13
201.471	70.31
201.69	55.98
201.909	49.83
202.128	6.83
202.347	78.51
202.566	-21.85
202.785	-5.46
203.004	21.16
203.223	96.94
203.442	-5.46
203.661	12.97
203.879	-17.75
204.098	6.83
204.317	8.87
204.536	39.59
204.755	17.07
204.974	4.78
205.193	51.88
205.411	146.09
205.63	47.79
205.849	35.5
206.068	58.03
206.287	72.36
206.505	78.51
206.724	-42.32
206.943	35.5
207.162	-9.56
207.381	15.02
207.599	-1.37
207.818	37.55
208.037	15.02
208.255	-3.41
208.474	-7.51
208.693	-23.89
208.911	74.41
209.13	6.83
209.349	-5.46
209.567	-9.56
209.786	39.59
210.005	74.41
210.223	-7.51
210.442	31.4
210.661	-32.08
210.879	45.74
211.098	-1.37
211.316	64.17
211.535	15.02
211.753	-30.04
211.972	-17.75
212.191	-13.65
212.409	55.98
212.628	23.21
212.846	17.07
213.065	35.5
213.283	94.89
213.502	-13.65
213.72	-5.46
213.938	72.36
214.157	8.87
214.375	6.83
214.594	35.5
214.812	29.35
215.031	121.51
215.249	-3.41
215.467	23.21
215.686	6.83
215.904	55.98
216.122	55.98
216.341	96.94
216.559	55.98
216.778	103.08
216.996	55.98
217.214	-17.75
217.432	41.64
217.651	-25.94
217.869	58.03
218.087	35.5
218.306	84.65
218.524	60.07
218.742	43.69
218.96	62.12
219.179	21.16
219.397	-9.56
219.615	64.17
219.833	-15.7
220.051	2.73
220.27	121.51
220.488	62.12
220.706	27.31
220.924	2.73
221.142	6.83
221.36	43.69
221.578	6.83
221.796	27.31
222.015	19.11
222.233	6.83
222.451	80.55
222.669	-1.37
222.887	68.27
223.105	19.11
223.323	-1.37
223.541	15.02
223.759	58.03
223.977	0.68
224.195	66.22
224.413	6.83
224.631	8.87
224.849	17.07
225.067	27.31
225.285	-17.75
225.503	78.51
225.721	-1.37
225.939	25.26
226.157	15.02
226.375	86.7
226.592	12.97
226.81	-15.7
227.028	92.84
227.246	107.18
227.464	31.4
227.682	23.21
227.9	41.64
228.117	31.4
228.335	-5.46
228.553	15.02
228.771	-15.7
228.989	47.79
229.206	35.5
229.424	15.02
229.642	15.02
229.86	98.99
230.077	17.07
230.295	31.4
230.513	-1.37
230.731	127.66
230.948	31.4
231.166	19.11
231.384	-38.23
231.601	96.94
231.819	119.46
232.037	-5.46
232.254	-36.18
232.472	-1.37
232.689	-9.56
232.907	47.79
233.125	51.88
233.342	23.21
233.56	0.68
233.777	25.26
233.995	0.68
234.213	64.17
234.43	47.79
234.648	88.75
234.865	15.02
235.083	58.03
235.3	15.02
235.518	15.02
235.735	72.36
235.953	55.98
236.17	29.35
236.388	64.17
236.605	-13.65
236.822	60.07
237.04	39.59
237.257	2.73
237.475	-50.52
237.692	6.83
237.909	39.59
238.127	-7.51
238.344	-9.56
238.562	15.02
238.779	-9.56
238.996	10.92
239.214	-30.04
239.431	41.64
239.648	-7.51
239.865	19.11
240.083	23.21
240.3	23.21
240.517	-52.56
240.735	6.83
240.952	-21.85
241.169	-5.46
241.386	37.55
241.603	4.78
241.821	-34.13
242.038	72.36
242.255	8.87
242.472	-34.13
242.689	17.07
242.907	33.45
243.124	92.84
243.341	88.75
243.558	-1.37
243.775	19.11
243.992	23.21
244.209	0.68
244.426	113.32
244.643	96.94
244.86	2.73
245.078	15.02
245.295	64.17
245.512	41.64
245.729	39.59
245.946	-9.56
246.163	-34.13
246.38	115.37
246.597	33.45
246.814	39.59
247.031	-1.37
247.248	-13.65
247.464	-34.13
247.681	72.36
247.898	105.13
248.115	47.79
248.332	55.98
248.549	45.74
248.766	137.9
248.983	25.26
249.2	39.59
249.417	68.27
249.633	37.55
249.85	49.83
250.067	-42.32
250.284	31.4
250.501	60.07
250.717	72.36
250.934	39.59
251.151	19.11
251.368	-5.46
251.585	23.21
251.801	41.64
252.018	-9.56
252.235	58.03
252.451	10.92
252.668	84.65
252.885	101.03
253.102	23.21
253.318	88.75
253.535	8.87
253.752	33.45
253.968	19.11
254.185	15.02
254.401	-1.37
254.618	6.83
254.835	33.45
255.051	82.6
255.268	66.22
255.484	66.22
255.701	-9.56
255.917	121.51
256.134	37.55
256.351	55.98
256.567	-75.09
256.784	33.45
257	33.45
257.217	49.83
257.433	74.41
257.65	103.08
257.866	55.98
258.082	-83.28
258.299	23.21
258.515	-17.75
258.732	41.64
258.948	15.02
259.165	10.92
259.381	15.02
259.597	-17.75
259.814	51.88
260.03	23.21
260.246	-83.28
260.463	8.87
260.679	-7.51
260.895	117.42
261.112	64.17
261.328	-11.61
261.544	60.07
261.761	72.36
261.977	35.5
262.193	-15.7
262.409	31.4
262.626	68.27
262.842	105.13
263.058	-23.89
263.274	51.88
263.49	6.83
263.707	62.12
263.923	-15.7
264.139	55.98
264.355	74.41
264.571	86.7
264.787	-32.08
265.004	113.32
265.22	-46.42
265.436	-7.51
265.652	-34.13
265.868	47.79
266.084	64.17
266.3	58.03
266.516	-23.89
266.732	55.98
266.948	-9.56
267.164	-5.46
267.38	92.84
267.596	60.07
267.812	41.64
268.028	68.27
268.244	10.92
268.46	45.74
268.676	-23.89
268.892	15.02
269.108	4.78
269.324	-21.85
269.54	4.78
269.756	31.4
269.972	-5.46
270.188	58.03
270.403	-13.65
270.619	10.92
270.835	25.26
271.051	74.41
271.267	55.98
271.483	23.21
271.698	43.69
271.914	25.26
272.13	35.5
272.346	39.59
272.562	-1.37
272.777	0.68
272.993	-9.56
273.209	-32.08
273.425	98.99
273.64	-17.75
273.856	2.73
274.072	8.87
274.287	-23.89
274.503	115.37
274.719	72.36
274.934	-9.56
275.15	-50.52
275.366	45.74
275.581	-21.85
275.797	80.55
276.012	23.21
276.228	-48.47
276.444	29.35
276.659	96.94
276.875	8.87
277.09	88.75
277.306	29.35
277.521	111.27
277.737	35.5
277.952	88.75
278.168	113.32
278.383	139.94
278.599	27.31
278.814	62.12
279.03	39.59
279.245	25.26
279.461	72.36
279.676	10.92
279.892	55.98
280.107	27.31
280.322	21.16
280.538	17.07
280.753	-7.51
280.969	123.56
281.184	31.4
281.399	64.17
281.615	-9.56
281.83	90.79
282.045	-50.52
282.26	49.83
282.476	39.59
282.691	31.4
282.906	72.36
283.122	88.75
283.337	107.18
283.552	-15.7
283.767	43.69
283.983	2.73
284.198	2.73
284.413	66.22
284.628	31.4
284.843	117.42
285.058	80.55
285.274	33.45
285.489	6.83
285.704	64.17
285.919	-9.56
286.134	64.17
286.349	-17.75
286.564	-9.56
286.779	82.6
286.995	35.5
287.21	-30.04
287.425	6.83
287.64	72.36
287.855	39.59
288.07	-52.56
288.285	47.79
288.5	72.36
288.715	60.07
288.93	31.4
289.145	6.83
289.36	17.07
289.575	-13.65
289.79	15.02
290.004	35.5
290.219	66.22
290.434	31.4
290.649	17.07
290.864	-9.56
291.079	33.45
291.294	39.59
291.509	45.74
291.724	-1.37
291.938	-9.56
292.153	19.11
292.368	15.02
292.583	41.64
292.798	-3.41
293.012	105.13
293.227	43.69
293.442	-9.56
293.657	62.12
293.871	82.6
294.086	15.02
294.301	47.79
294.516	35.5
294.73	12.97
294.945	-1.37
295.16	80.55
295.374	92.84
295.589	98.99
295.804	47.79
296.018	-9.56
296.233	82.6
296.447	55.98
296.662	0.68
296.877	37.55
297.091	66.22
297.306	6.83
297.52	0.68
297.735	55.98
297.949	55.98
298.164	31.4
298.378	94.89
298.593	23.21
298.807	23.21
299.022	39.59
299.236	88.75
299.451	-105.81
299.665	39.59
299.88	68.27
300.094	41.64
300.309	105.13
300.523	35.5
300.737	-25.94
300.952	39.59
301.166	72.36
301.381	47.79
301.595	-1.37
301.809	33.45
302.024	15.02
302.238	-1.37
302.452	47.79
302.667	66.22
302.881	72.36
303.095	64.17
303.309	31.4
303.524	-9.56
303.738	-15.7
303.952	-7.51
304.166	-3.41
304.381	35.5
304.595	84.65
304.809	-11.61
305.023	39.59
305.237	12.97
305.452	39.59
305.666	-5.46
305.88	19.11
306.094	55.98
306.308	8.87
306.522	60.07
306.736	33.45
306.95	47.79
307.164	74.41
307.379	-48.47
307.593	39.59
307.807	121.51
308.021	35.5
308.235	90.79
308.449	-50.52
308.663	-25.94
308.877	96.94
309.091	6.83
309.305	41.64
309.519	15.02
309.733	129.7
309.947	53.93
310.161	-32.08
310.374	33.45
310.588	98.99
310.802	-23.89
311.016	-30.04
311.23	64.17
311.444	27.31
311.658	49.83
311.872	113.32
312.085	17.07
312.299	19.11
312.513	-5.46
312.727	31.4
312.941	-17.75
313.154	17.07
313.368	8.87
313.582	31.4
313.796	25.26
314.009	53.93
314.223	82.6
314.437	39.59
314.651	31.4
314.864	-32.08
315.078	-23.89
315.292	17.07
315.505	66.22
315.719	0.68
315.933	62.12
316.146	-32.08
316.36	-7.51
316.573	6.83
316.787	49.83
317.001	74.41
317.214	-40.28
317.428	55.98
317.641	4.78
317.855	39.59
318.068	6.83
318.282	27.31
318.495	70.31
318.709	133.8
318.922	31.4
319.136	113.32
319.349	-7.51
319.563	39.59
319.776	80.55
319.99	-11.61
320.203	90.79
320.417	29.35
320.63	115.37
320.843	88.75
321.057	10.92
321.27	51.88
321.483	51.88
321.697	80.55
321.91	74.41
322.124	55.98
322.337	21.16
322.55	66.22
322.763	43.69
322.977	2.73
323.19	2.73
323.403	25.26
323.617	101.03
323.83	49.83
324.043	25.26
324.256	49.83
324.469	-75.09
324.683	80.55
324.896	-50.52
325.109	39.59
325.322	-38.23
325.535	96.94
325.748	39.59
325.962	-32.08
326.175	60.07
326.388	64.17
326.601	-3.41
326.814	64.17
327.027	58.03
327.24	66.22
327.453	-62.8
327.666	12.97
327.879	51.88
328.092	15.02
328.305	25.26
328.518	19.11
328.731	-50.52
328.944	68.27
329.157	113.32
329.37	51.88
329.583	98.99
329.796	133.8
330.009	31.4
330.222	15.02
330.435	47.79
330.648	64.17
330.861	39.59
331.073	107.18
331.286	39.59
331.499	109.22
331.712	-13.65
331.925	90.79
332.138	41.64
332.35	43.69
332.563	15.02
332.776	84.65
332.989	0.68
333.202	-34.13
333.414	-7.51
333.627	88.75
333.84	8.87
334.053	0.68
334.265	80.55
334.478	86.7
334.691	55.98
334.903	64.17
335.116	25.26
335.329	8.87
335.541	31.4
335.754	70.31
335.966	-62.8
336.179	88.75
336.392	23.21
336.604	51.88
336.817	90.79
337.029	96.94
337.242	-21.85
337.454	88.75
337.667	-23.89
337.88	15.02
338.092	15.02
338.305	41.64
338.517	-11.61
338.729	98.99
338.942	135.85
339.154	-9.56
339.367	-32.08
339.579	135.85
339.792	2.73
340.004	31.4
340.217	15.02
340.429	35.5
340.641	6.83
340.854	10.92
341.066	64.17
341.278	72.36
341.491	105.13
341.703	123.56
341.915	-34.13
342.128	86.7
342.34	31.4
342.552	-50.52
342.764	47.79
342.977	17.07
343.189	72.36
343.401	17.07
343.613	-27.99
343.826	23.21
344.038	-42.32
344.25	43.69
344.462	-15.7
344.674	49.83
344.886	31.4
345.099	55.98
345.311	31.4
345.523	66.22
345.735	-58.71
345.947	96.94
346.159	35.5
346.371	29.35
346.583	47.79
346.795	131.75
347.007	-9.56
347.219	39.59
347.431	47.79
347.643	-9.56
347.855	-34.13
348.067	41.64
348.279	66.22
348.491	35.5
348.703	58.03
348.915	58.03
349.127	19.11
349.339	115.37
349.551	27.31
349.763	101.03
349.975	51.88
350.187	58.03
350.399	156.33
350.61	49.83
350.822	-17.75
351.034	121.51
351.246	15.02
351.458	39.59
351.669	29.35
351.881	64.17
352.093	41.64
352.305	47.79
352.517	6.83
352.728	96.94
352.94	39.59
353.152	-19.8
353.363	-1.37
353.575	49.83
353.787	94.89
353.999	31.4
354.21	96.94
354.422	-7.51
354.633	19.11
354.845	53.93
355.057	92.84
355.268	137.9
355.48	8.87
355.692	51.88
355.903	53.93
356.115	8.87
356.326	31.4
356.538	23.21
356.749	27.31
356.961	162.47
357.172	33.45
357.384	68.27
357.595	80.55
357.807	47.79
358.018	-7.51
358.23	2.73
358.441	154.28
358.653	64.17
358.864	58.03
359.075	-11.61
359.287	96.94
359.498	107.18
359.709	23.21
359.921	-7.51
360.132	-5.46
360.344	47.79
360.555	31.4
360.766	113.32
360.977	8.87
361.189	33.45
361.4	41.64
361.611	72.36
361.823	53.93
362.034	74.41
362.245	35.5
362.456	8.87
362.667	47.79
362.879	76.46
363.09	-1.37
363.301	33.45
363.512	98.99
363.723	64.17
363.935	41.64
364.146	58.03
364.357	27.31
364.568	-42.32
364.779	27.31
364.99	47.79
365.201	15.02
365.412	53.93
365.623	6.83
365.834	19.11
366.045	80.55
366.256	47.79
366.467	84.65
366.678	23.21
366.889	-66.9
367.1	35.5
367.311	105.13
367.522	64.17
367.733	25.26
367.944	109.22
368.155	23.21
368.366	25.26
368.577	55.98
368.788	92.84
368.999	17.07
369.209	98.99
369.42	121.51
369.631	84.65
369.842	2.73
370.053	6.83
370.264	70.31
370.474	23.21
370.685	39.59
370.896	76.46
371.107	47.79
371.317	84.65
371.528	8.87
371.739	25.26
371.95	88.75
372.16	58.03
372.371	29.35
372.582	15.02
372.792	39.59
373.003	25.26
373.214	31.4
373.424	146.09
373.635	76.46
373.846	131.75
374.056	25.26
374.267	74.41
374.477	72.36
374.688	64.17
374.898	121.51
375.109	64.17
375.319	98.99
375.53	84.65
375.74	94.89
375.951	72.36
376.161	64.17
376.372	72.36
376.582	92.84
376.793	25.26
377.003	31.4
377.214	76.46
377.424	129.7
377.635	105.13
377.845	17.07
378.055	113.32
378.266	74.41
378.476	27.31
378.686	96.94
378.897	31.4
379.107	101.03
379.317	23.21
379.528	6.83
379.738	35.5
379.948	-25.94
380.158	105.13
380.369	10.92
380.579	82.6
380.789	53.93
380.999	125.61
381.21	84.65
381.42	113.32
381.63	-11.61
381.84	47.79
382.05	55.98
382.261	82.6
382.471	109.22
382.681	47.79
382.891	43.69
383.101	49.83
383.311	43.69
383.521	39.59
383.731	80.55
383.941	49.83
384.151	66.22
384.361	96.94
384.571	41.64
384.781	58.03
384.991	129.7
385.201	74.41
385.411	80.55
385.621	96.94
385.831	80.55
386.041	72.36
386.251	121.51
386.461	55.98
386.671	82.6
386.881	66.22
387.091	121.51
387.301	78.51
387.511	139.94
387.72	49.83
387.93	94.89
388.14	27.31
388.35	88.75
388.56	37.55
388.769	51.88
388.979	39.59
389.189	35.5
389.399	25.26
389.609	53.93
389.818	33.45
390.028	33.45
390.238	80.55
390.447	10.92
390.657	88.75
390.867	-34.13
391.076	68.27
391.286	-66.9
391.496	80.55
391.705	68.27
391.915	105.13
392.125	96.94
392.334	113.32
392.544	150.18
392.753	88.75
392.963	74.41
393.172	43.69
393.382	123.56
393.591	154.28
393.801	107.18
394.01	105.13
394.22	107.18
394.429	35.5
394.639	47.79
394.848	35.5
395.058	60.07
395.267	66.22
395.477	211.62
395.686	172.71
395.895	170.66
396.105	148.14
396.314	105.13
396.524	80.55
396.733	82.6
396.942	223.91
397.152	129.7
397.361	47.79
397.57	103.08
397.78	131.75
397.989	107.18
398.198	103.08
398.407	27.31
398.617	152.23
398.826	88.75
399.035	33.45
399.244	105.13
399.453	121.51
399.663	207.53
399.872	92.84
400.081	84.65
400.29	123.56
400.499	49.83
400.708	213.67
400.917	119.46
401.127	15.02
401.336	150.18
401.545	170.66
401.754	172.71
401.963	131.75
402.172	27.31
402.381	23.21
402.59	92.84
402.799	76.46
403.008	64.17
403.217	148.14
403.426	98.99
403.635	113.32
403.844	109.22
404.053	168.62
404.262	180.9
404.471	191.14
404.68	236.2
404.888	170.66
405.097	105.13
405.306	238.25
405.515	160.42
405.724	170.66
405.933	219.82
406.142	197.29
406.35	197.29
406.559	211.62
406.768	162.47
406.977	324.26
407.185	185
407.394	228.01
407.603	211.62
407.812	225.96
408.02	324.26
408.229	301.73
408.438	264.87
408.646	228.01
408.855	260.77
409.064	303.78
409.272	277.16
409.481	271.01
409.69	354.98
409.898	314.02
410.107	297.64
410.315	309.93
410.524	301.73
410.733	334.5
410.941	342.69
411.15	336.55
411.358	432.8
411.567	412.32
411.775	428.71
411.984	486.05
412.192	424.61
412.401	518.82
412.609	522.91
412.818	514.72
413.026	572.07
413.234	557.73
413.443	592.55
413.651	617.12
413.86	596.64
414.068	719.52
414.276	711.33
414.485	711.33
414.693	793.25
414.901	805.53
415.11	776.86
415.318	805.53
415.526	785.05
415.734	899.74
415.943	907.93
416.151	967.32
416.359	979.61
416.567	998.04
416.776	1086.11
416.984	1088.15
417.192	1125.02
417.4	1073.82
417.608	1059.48
417.817	1288.85
418.025	1313.43
418.233	1352.34
418.441	1354.39
418.649	1295
418.857	1497.75
419.065	1481.36
419.273	1407.64
419.481	1514.13
419.689	1647.25
419.897	1686.16
420.105	1686.16
420.313	1804.94
420.521	1819.28
420.729	1944.2
420.937	1905.29
421.145	1979.02
421.353	2030.22
421.561	2181.77
421.769	2202.25
421.977	2259.59
422.185	2312.84
422.393	2364.04
422.601	2601.6
422.809	2630.27
423.017	2601.6
423.224	2685.57
423.432	2730.62
423.64	2992.76
423.848	2960
424.056	3064.44
424.263	3240.57
424.471	3197.56
424.679	3310.2
424.887	3414.65
425.094	3527.28
425.302	3607.16
425.51	3594.87
425.718	3816.05
425.925	3848.82
426.133	4012.65
426.341	4262.51
426.548	4360.81
426.756	4350.57
426.964	4538.98
427.171	4686.44
427.379	4874.85
427.586	5061.21
427.794	5050.97
428.001	5300.83
428.209	5522.01
428.417	5546.58
428.624	5861.97
428.832	5845.59
429.039	5782.1
429.247	5753.43
429.454	6347.34
429.662	6824.51
429.869	6257.23
430.076	6724.16
430.284	6679.11
430.491	7086.65
430.699	7289.4
430.906	7244.35
431.114	7141.95
431.321	7531.06
431.528	7739.96
431.736	8098.35
431.943	8694.31
432.15	8188.46
432.358	8489.51
432.565	8809
432.772	8755.75
432.979	9181.73
433.187	9583.13
433.394	9570.84
433.601	10187.28
433.808	10021.39
434.016	10066.45
434.223	10502.67
434.43	11194.88
434.637	11008.51
434.844	11641.34
435.052	11811.32
435.259	11784.69
435.466	12009.97
435.673	11772.41
435.88	12374.51
436.087	13146.59
436.294	13154.79
436.501	12749.29
436.708	13171.17
436.915	13578.72
437.122	14232.02
437.329	14240.21
437.537	14514.64
437.743	14811.59
437.95	14539.21
438.157	15495.61
438.364	15935.93
438.571	15978.93
438.778	16036.28
438.985	17271.2
439.192	16796.07
439.399	17562.01
439.606	16581.04
439.813	17975.7
440.02	18987.4
440.227	18487.7
440.433	18483.6
440.64	18909.58
440.847	18907.53
441.054	19609.98
441.261	20506.99
441.467	20330.87
441.674	20670.83
441.881	21471.59
442.088	21328.23
442.294	21266.79
442.501	21985.63
442.708	22280.53
442.914	23167.31
443.121	23994.68
443.328	23480.64
443.534	24938.8
443.741	24195.39
443.948	23929.15
444.154	25882.91
444.361	25614.63
444.568	25588
444.774	25561.38
444.981	25870.62
445.187	26874.13
445.394	27861.25
445.6	27611.4
445.807	30247.13
446.013	28999.92
446.22	29378.79
446.426	30511.32
446.633	30908.63
446.839	31873.22
447.046	30470.36
447.252	32612.54
447.459	32407.74
447.665	31953.09
447.871	33255.6
448.078	34969.75
448.284	33181.87
448.491	34562.2
448.697	35592.33
448.903	36249.73
449.11	35801.22
449.316	35459.21
449.522	36530.3
449.728	37185.65
449.935	37613.68
450.141	37744.75
450.347	38107.24
450.553	37165.17
450.76	37873.77
450.966	38762.59
451.172	38447.2
451.378	39708.75
451.584	38512.74
451.791	39653.45
451.997	39598.16
452.203	39977.03
452.409	40282.18
452.615	39549.01
452.821	38439.01
453.027	37814.38
453.233	39514.19
453.44	38312.03
453.646	38809.69
453.852	38664.28
454.058	39802.96
454.264	38703.2
454.47	39454.8
454.676	38258.79
454.882	39555.15
455.088	36493.44
455.294	36669.56
455.5	37443.7
455.705	37714.03
455.911	36096.13
456.117	35715.21
456.323	35508.36
456.529	33358
456.735	34666.65
456.941	33697.96
457.147	33106.1
457.352	32147.65
457.558	31854.79
457.764	32092.35
457.97	31172.82
458.176	30654.68
458.381	30658.77
458.587	29126.89
458.793	29100.27
458.999	27504.9
459.204	29679.85
459.41	28858.61
459.616	26818.83
459.821	26900.75
460.027	26505.49
460.233	26186.01
460.438	25108.78
460.644	25299.24
460.85	24140.09
461.055	23529.8
461.261	23755.07
461.466	21690.72
461.672	21127.53
461.878	22432.08
462.083	20849
462.289	20699.5
462.494	20337.01
462.7	19730.81
462.905	19200.39
463.111	19749.25
463.316	19794.3
463.522	19050.89
463.727	19343.75
463.932	19292.55
464.138	18913.67
464.343	19079.56
464.549	18426.26
464.754	19153.29
464.959	19095.94
465.165	18786.7
465.37	17906.07
465.575	17639.84
465.781	18233.75
465.986	18112.92
466.191	17320.35
466.397	17258.92
466.602	16216.5
466.807	16935.34
467.012	16964.01
467.218	16622
467.423	16374.19
