Data from USB4F104151__75__14-30-28-874.txt Node

Date: Thu Mar 13 14:30:28 EDT 2025
User: louis
Spectrometer: USB4F10415
Trigger mode: 4
Integration Time (sec): 2.500000E-2
Scans to average: 1
Electric dark correction enabled: true
Nonlinearity correction enabled: false
Boxcar width: 0
XAxis mode: Wavelengths
Number of Pixels in Spectrum: 3648
>>>>>Begin Spectral Data<<<<<
178.204	-116.22
178.424	-116.22
178.644	-116.22
178.864	-124.41
179.084	-65.02
179.304	-3.58
179.524	16.9
179.744	-17.92
179.964	47.62
180.184	-48.64
180.404	10.75
180.624	-5.63
180.844	-1.54
181.064	29.18
181.283	-71.17
181.503	-17.92
181.723	61.95
181.943	-40.45
182.163	94.72
182.383	-52.74
182.602	12.8
182.822	64
183.042	33.28
183.262	53.76
183.482	57.86
183.701	111.1
183.921	66.05
184.141	23.04
184.361	129.53
184.58	74.24
184.8	51.71
185.02	-38.4
185.239	98.81
185.459	55.81
185.679	25.09
185.898	-1.54
186.118	96.77
186.338	84.48
186.557	57.86
186.777	-1.54
186.997	2.56
187.216	-7.68
187.436	31.23
187.655	117.25
187.875	64
188.095	10.75
188.314	107.01
188.534	47.62
188.753	10.75
188.973	64
189.192	47.62
189.412	84.48
189.631	80.38
189.851	66.05
190.07	47.62
190.29	-67.07
190.509	88.57
190.729	-1.54
190.948	80.38
191.168	178.69
191.387	68.09
191.607	76.29
191.826	64
192.045	80.38
192.265	88.57
192.484	64
192.704	49.66
192.923	8.7
193.142	123.39
193.362	82.43
193.581	66.05
193.8	49.66
194.02	49.66
194.239	0.51
194.458	47.62
194.678	-15.87
194.897	123.39
195.116	35.33
195.335	23.04
195.555	96.77
195.774	14.85
195.993	66.05
196.212	-9.73
196.432	-34.3
196.651	51.71
196.87	55.81
197.089	92.67
197.308	23.04
197.528	55.81
197.747	27.14
197.966	33.28
198.185	88.57
198.404	-81.41
198.623	98.81
198.842	55.81
199.062	33.28
199.281	113.15
199.5	-7.68
199.719	35.33
199.938	27.14
200.157	72.19
200.376	92.67
200.595	27.14
200.814	33.28
201.033	43.52
201.252	152.06
201.471	-9.73
201.69	39.42
201.909	-3.58
202.128	41.47
202.347	92.67
202.566	-38.4
202.785	10.75
203.004	27.14
203.223	141.82
203.442	31.23
203.661	25.09
203.879	61.95
204.098	31.23
204.317	-32.26
204.536	31.23
204.755	35.33
204.974	-7.68
205.193	8.7
205.411	113.15
205.63	55.81
205.849	8.7
206.068	-13.82
206.287	-32.26
206.505	98.81
206.724	59.9
206.943	-17.92
207.162	49.66
207.381	47.62
207.599	-26.11
207.818	66.05
208.037	-7.68
208.255	23.04
208.474	33.28
208.693	-34.3
208.911	47.62
209.13	-1.54
209.349	33.28
209.567	23.04
209.786	64
210.005	16.9
210.223	-7.68
210.442	-60.93
210.661	-9.73
210.879	29.18
211.098	8.7
211.316	49.66
211.535	14.85
211.753	51.71
211.972	47.62
212.191	-7.68
212.409	20.99
212.628	100.86
212.846	16.9
213.065	12.8
213.283	55.81
213.502	-62.98
213.72	-1.54
213.938	68.09
214.157	31.23
214.375	-17.92
214.594	39.42
214.812	76.29
215.031	68.09
215.249	74.24
215.467	66.05
215.686	80.38
215.904	145.92
216.122	10.75
216.341	94.72
216.559	51.71
216.778	90.62
216.996	82.43
217.214	66.05
217.432	2.56
217.651	-19.97
217.869	55.81
218.087	31.23
218.306	-30.21
218.524	35.33
218.742	6.66
218.96	49.66
219.179	53.76
219.397	66.05
219.615	43.52
219.833	18.94
220.051	55.81
220.27	88.57
220.488	66.05
220.706	33.28
220.924	0.51
221.142	31.23
221.36	-44.54
221.578	10.75
221.796	47.62
222.015	49.66
222.233	47.62
222.451	16.9
222.669	-56.83
222.887	74.24
223.105	47.62
223.323	6.66
223.541	-26.11
223.759	33.28
223.977	4.61
224.195	57.86
224.413	25.09
224.631	4.61
224.849	64
225.067	107.01
225.285	-5.63
225.503	25.09
225.721	8.7
225.939	20.99
226.157	55.81
226.375	57.86
226.592	-24.06
226.81	29.18
227.028	-24.06
227.246	115.2
227.464	14.85
227.682	16.9
227.9	76.29
228.117	82.43
228.335	6.66
228.553	23.04
228.771	90.62
228.989	43.52
229.206	12.8
229.424	-3.58
229.642	39.42
229.86	72.19
230.077	72.19
230.295	45.57
230.513	4.61
230.731	92.67
230.948	23.04
231.166	109.05
231.384	-17.92
231.601	-9.73
231.819	117.25
232.037	14.85
232.254	-48.64
232.472	80.38
232.689	23.04
232.907	90.62
233.125	47.62
233.342	-69.12
233.56	27.14
233.777	29.18
233.995	37.38
234.213	25.09
234.43	96.77
234.648	-9.73
234.865	0.51
235.083	31.23
235.3	-15.87
235.518	98.81
235.735	6.66
235.953	68.09
236.17	80.38
236.388	66.05
236.605	41.47
236.822	66.05
237.04	88.57
237.257	6.66
237.475	-34.3
237.692	-9.73
237.909	53.76
238.127	80.38
238.344	25.09
238.562	35.33
238.779	20.99
238.996	-1.54
239.214	6.66
239.431	66.05
239.648	-38.4
239.865	115.2
240.083	14.85
240.3	39.42
240.517	43.52
240.735	16.9
240.952	150.01
241.169	20.99
241.386	31.23
241.603	70.14
241.821	-9.73
242.038	35.33
242.255	-9.73
242.472	-52.74
242.689	6.66
242.907	39.42
243.124	27.14
243.341	14.85
243.558	-36.35
243.775	76.29
243.992	-19.97
244.209	64
244.426	104.96
244.643	43.52
244.86	23.04
245.078	23.04
245.295	88.57
245.512	-1.54
245.729	-5.63
245.946	68.09
246.163	80.38
246.38	49.66
246.597	55.81
246.814	59.9
247.031	84.48
247.248	55.81
247.464	14.85
247.681	47.62
247.898	113.15
248.115	92.67
248.332	66.05
248.549	25.09
248.766	64
248.983	109.05
249.2	57.86
249.417	104.96
249.633	37.38
249.85	115.2
250.067	47.62
250.284	-13.82
250.501	74.24
250.717	57.86
250.934	16.9
251.151	-1.54
251.368	27.14
251.585	100.86
251.801	-28.16
252.018	10.75
252.235	88.57
252.451	49.66
252.668	-13.82
252.885	-9.73
253.102	31.23
253.318	14.85
253.535	2.56
253.752	6.66
253.968	14.85
254.185	-13.82
254.401	-32.26
254.618	57.86
254.835	-17.92
255.051	76.29
255.268	-9.73
255.484	107.01
255.701	49.66
255.917	-9.73
256.134	76.29
256.351	59.9
256.567	109.05
256.784	57.86
257	27.14
257.217	129.53
257.433	90.62
257.65	33.28
257.866	53.76
258.082	12.8
258.299	64
258.515	53.76
258.732	16.9
258.948	35.33
259.165	-28.16
259.381	23.04
259.597	14.85
259.814	31.23
260.03	41.47
260.246	55.81
260.463	145.92
260.679	84.48
260.895	-13.82
261.112	113.15
261.328	23.04
261.544	-26.11
261.761	80.38
261.977	72.19
262.193	23.04
262.409	-9.73
262.626	49.66
262.842	82.43
263.058	-24.06
263.274	111.1
263.49	68.09
263.707	123.39
263.923	-15.87
264.139	-9.73
264.355	90.62
264.571	33.28
264.787	96.77
265.004	78.33
265.22	55.81
265.436	0.51
265.652	29.18
265.868	113.15
266.084	10.75
266.3	35.33
266.516	14.85
266.732	-19.97
266.948	-1.54
267.164	-22.02
267.38	57.86
267.596	27.14
267.812	25.09
268.028	80.38
268.244	53.76
268.46	23.04
268.676	29.18
268.892	72.19
269.108	57.86
269.324	4.61
269.54	2.56
269.756	59.9
269.972	16.9
270.188	80.38
270.403	23.04
270.619	39.42
270.835	125.44
271.051	25.09
271.267	47.62
271.483	14.85
271.698	98.81
271.914	57.86
272.13	72.19
272.346	53.76
272.562	47.62
272.777	72.19
272.993	55.81
273.209	0.51
273.425	72.19
273.64	-17.92
273.856	94.72
274.072	18.94
274.287	8.7
274.503	88.57
274.719	55.81
274.934	8.7
275.15	10.75
275.366	23.04
275.581	16.9
275.797	39.42
276.012	68.09
276.228	76.29
276.444	68.09
276.659	31.23
276.875	18.94
277.09	104.96
277.306	25.09
277.521	41.47
277.737	-15.87
277.952	145.92
278.168	96.77
278.383	72.19
278.599	6.66
278.814	51.71
279.03	80.38
279.245	88.57
279.461	8.7
279.676	66.05
279.892	-32.26
280.107	-50.69
280.322	-11.78
280.538	66.05
280.753	96.77
280.969	100.86
281.184	72.19
281.399	92.67
281.615	55.81
281.83	55.81
282.045	-26.11
282.26	74.24
282.476	39.42
282.691	80.38
282.906	23.04
283.122	8.7
283.337	72.19
283.552	162.3
283.767	59.9
283.983	80.38
284.198	23.04
284.413	51.71
284.628	-34.3
284.843	-9.73
285.058	35.33
285.274	45.57
285.489	72.19
285.704	115.2
285.919	23.04
286.134	72.19
286.349	35.33
286.564	59.9
286.779	37.38
286.995	-32.26
287.21	2.56
287.425	88.57
287.64	27.14
287.855	64
288.07	18.94
288.285	27.14
288.5	88.57
288.715	100.86
288.93	27.14
289.145	2.56
289.36	53.76
289.575	47.62
289.79	49.66
290.004	84.48
290.219	16.9
290.434	94.72
290.649	47.62
290.864	25.09
291.079	90.62
291.294	16.9
291.509	23.04
291.724	20.99
291.938	4.61
292.153	92.67
292.368	31.23
292.583	66.05
292.798	80.38
293.012	51.71
293.227	43.52
293.442	14.85
293.657	133.63
293.871	84.48
294.086	27.14
294.301	147.97
294.516	80.38
294.73	123.39
294.945	-3.58
295.16	49.66
295.374	53.76
295.589	90.62
295.804	39.42
296.018	-28.16
296.233	84.48
296.447	64
296.662	10.75
296.877	55.81
297.091	55.81
297.306	88.57
297.52	31.23
297.735	31.23
297.949	6.66
298.164	109.05
298.378	-30.21
298.593	6.66
298.807	41.47
299.022	20.99
299.236	113.15
299.451	47.62
299.665	-17.92
299.88	8.7
300.094	39.42
300.309	72.19
300.523	64
300.737	2.56
300.952	-1.54
301.166	104.96
301.381	-19.97
301.595	6.66
301.809	14.85
302.024	55.81
302.238	10.75
302.452	59.9
302.667	23.04
302.881	31.23
303.095	113.15
303.309	131.58
303.524	2.56
303.738	39.42
303.952	66.05
304.166	121.34
304.381	14.85
304.595	-1.54
304.809	51.71
305.023	64
305.237	59.9
305.452	4.61
305.666	113.15
305.88	72.19
306.094	49.66
306.308	55.81
306.522	55.81
306.736	33.28
306.95	33.28
307.164	51.71
307.379	92.67
307.593	96.77
307.807	-1.54
308.021	78.33
308.235	115.2
308.449	8.7
308.663	39.42
308.877	150.01
309.091	49.66
309.305	74.24
309.519	25.09
309.733	55.81
309.947	31.23
310.161	59.9
310.374	127.49
310.588	80.38
310.802	51.71
311.016	-7.68
311.23	84.48
311.444	-30.21
311.658	-1.54
311.872	84.48
312.085	-5.63
312.299	61.95
312.513	35.33
312.727	0.51
312.941	-17.92
313.154	47.62
313.368	10.75
313.582	47.62
313.796	16.9
314.009	92.67
314.223	113.15
314.437	57.86
314.651	59.9
314.864	-42.5
315.078	2.56
315.292	23.04
315.505	2.56
315.719	68.09
315.933	64
316.146	33.28
316.36	-17.92
316.573	66.05
316.787	98.81
317.001	61.95
317.214	20.99
317.428	33.28
317.641	16.9
317.855	61.95
318.068	117.25
318.282	147.97
318.495	82.43
318.709	64
318.922	14.85
319.136	-22.02
319.349	143.87
319.563	23.04
319.776	-22.02
319.99	-58.88
320.203	18.94
320.417	45.57
320.63	29.18
320.843	104.96
321.057	68.09
321.27	23.04
321.483	51.71
321.697	35.33
321.91	96.77
322.124	66.05
322.337	20.99
322.55	27.14
322.763	82.43
322.977	16.9
323.19	94.72
323.403	70.14
323.617	61.95
323.83	55.81
324.043	49.66
324.256	72.19
324.469	0.51
324.683	139.77
324.896	27.14
325.109	47.62
325.322	-17.92
325.535	47.62
325.748	84.48
325.962	64
326.175	-5.63
326.388	25.09
326.601	59.9
326.814	35.33
327.027	82.43
327.24	76.29
327.453	39.42
327.666	47.62
327.879	137.73
328.092	53.76
328.305	123.39
328.518	59.9
328.731	68.09
328.944	20.99
329.157	37.38
329.37	104.96
329.583	90.62
329.796	35.33
330.009	-56.83
330.222	82.43
330.435	16.9
330.648	27.14
330.861	-13.82
331.073	39.42
331.286	-17.92
331.499	-15.87
331.712	82.43
331.925	78.33
332.138	49.66
332.35	145.92
332.563	6.66
332.776	31.23
332.989	-32.26
333.202	88.57
333.414	39.42
333.627	172.54
333.84	88.57
334.053	133.63
334.265	18.94
334.478	39.42
334.691	55.81
334.903	51.71
335.116	-5.63
335.329	-1.54
335.541	51.71
335.754	80.38
335.966	72.19
336.179	14.85
336.392	55.81
336.604	43.52
336.817	45.57
337.029	55.81
337.242	16.9
337.454	162.3
337.667	-22.02
337.88	125.44
338.092	20.99
338.305	25.09
338.517	84.48
338.729	20.99
338.942	23.04
339.154	20.99
339.367	61.95
339.579	121.34
339.792	-52.74
340.004	23.04
340.217	41.47
340.429	33.28
340.641	61.95
340.854	49.66
341.066	90.62
341.278	41.47
341.491	-9.73
341.703	39.42
341.915	27.14
342.128	80.38
342.34	64
342.552	39.42
342.764	6.66
342.977	23.04
343.189	31.23
343.401	55.81
343.613	20.99
343.826	88.57
344.038	23.04
344.25	-22.02
344.462	47.62
344.674	6.66
344.886	80.38
345.099	72.19
345.311	8.7
345.523	10.75
345.735	0.51
345.947	78.33
346.159	88.57
346.371	57.86
346.583	55.81
346.795	82.43
347.007	59.9
347.219	2.56
347.431	18.94
347.643	121.34
347.855	61.95
348.067	47.62
348.279	-38.4
348.491	88.57
348.703	35.33
348.915	14.85
349.127	23.04
349.339	23.04
349.551	55.81
349.763	20.99
349.975	31.23
350.187	72.19
350.399	121.34
350.61	27.14
350.822	-3.58
351.034	27.14
351.246	80.38
351.458	80.38
351.669	96.77
351.881	0.51
352.093	55.81
352.305	100.86
352.517	-1.54
352.728	14.85
352.94	51.71
353.152	107.01
353.363	-38.4
353.575	57.86
353.787	14.85
353.999	59.9
354.21	86.53
354.422	18.94
354.633	68.09
354.845	47.62
355.057	57.86
355.268	33.28
355.48	16.9
355.692	-30.21
355.903	66.05
356.115	-62.98
356.326	-50.69
356.538	145.92
356.749	35.33
356.961	102.91
357.172	64
357.384	55.81
357.595	102.91
357.807	68.09
358.018	70.14
358.23	88.57
358.441	96.77
358.653	6.66
358.864	-26.11
359.075	55.81
359.287	96.77
359.498	109.05
359.709	43.52
359.921	68.09
360.132	33.28
360.344	49.66
360.555	-54.78
360.766	129.53
360.977	41.47
361.189	16.9
361.4	25.09
361.611	82.43
361.823	98.81
362.034	102.91
362.245	33.28
362.456	-24.06
362.667	33.28
362.879	47.62
363.09	47.62
363.301	88.57
363.512	88.57
363.723	27.14
363.935	39.42
364.146	59.9
364.357	43.52
364.568	55.81
364.779	117.25
364.99	137.73
365.201	51.71
365.412	145.92
365.623	0.51
365.834	55.81
366.045	43.52
366.256	96.77
366.467	88.57
366.678	66.05
366.889	66.05
367.1	55.81
367.311	139.77
367.522	47.62
367.733	31.23
367.944	74.24
368.155	-11.78
368.366	41.47
368.577	145.92
368.788	80.38
368.999	6.66
369.209	57.86
369.42	119.29
369.631	145.92
369.842	80.38
370.053	96.77
370.264	107.01
370.474	49.66
370.685	-1.54
370.896	20.99
371.107	66.05
371.317	49.66
371.528	10.75
371.739	2.56
371.95	84.48
372.16	84.48
372.371	27.14
372.582	98.81
372.792	29.18
373.003	72.19
373.214	37.38
373.424	104.96
373.635	47.62
373.846	80.38
374.056	80.38
374.267	64
374.477	66.05
374.688	66.05
374.898	-13.82
375.109	39.42
375.319	64
375.53	98.81
375.74	-1.54
375.951	104.96
376.161	18.94
376.372	84.48
376.582	74.24
376.793	41.47
377.003	74.24
377.214	47.62
377.424	76.29
377.635	61.95
377.845	76.29
378.055	43.52
378.266	47.62
378.476	-1.54
378.686	125.44
378.897	70.14
379.107	80.38
379.317	43.52
379.528	88.57
379.738	104.96
379.948	31.23
380.158	33.28
380.369	4.61
380.579	57.86
380.789	115.2
380.999	55.81
381.21	47.62
381.42	129.53
381.63	98.81
381.84	45.57
382.05	57.86
382.261	59.9
382.471	68.09
382.681	59.9
382.891	119.29
383.101	20.99
383.311	125.44
383.521	-26.11
383.731	111.1
383.941	47.62
384.151	61.95
384.361	-9.73
384.571	109.05
384.781	25.09
384.991	137.73
385.201	94.72
385.411	141.82
385.621	41.47
385.831	6.66
386.041	135.68
386.251	66.05
386.461	113.15
386.671	113.15
386.881	49.66
387.091	158.21
387.301	137.73
387.511	16.9
387.72	127.49
387.93	90.62
388.14	14.85
388.35	33.28
388.56	104.96
388.769	14.85
388.979	20.99
389.189	29.18
389.399	90.62
389.609	121.34
389.818	104.96
390.028	100.86
390.238	109.05
390.447	39.42
390.657	57.86
390.867	72.19
391.076	84.48
391.286	41.47
391.496	33.28
391.705	-9.73
391.915	98.81
392.125	115.2
392.334	55.81
392.544	88.57
392.753	74.24
392.963	25.09
393.172	129.53
393.382	55.81
393.591	90.62
393.801	139.77
394.01	129.53
394.22	64
394.429	111.1
394.639	59.9
394.848	98.81
395.058	94.72
395.267	104.96
395.477	72.19
395.686	147.97
395.895	193.02
396.105	145.92
396.314	104.96
396.524	78.33
396.733	137.73
396.942	139.77
397.152	141.82
397.361	107.01
397.57	117.25
397.78	92.67
397.989	80.38
398.198	227.84
398.407	68.09
398.617	152.06
398.826	104.96
399.035	154.11
399.244	129.53
399.453	190.97
399.663	76.29
399.872	117.25
400.081	111.1
400.29	145.92
400.499	82.43
400.708	64
400.917	154.11
401.127	109.05
401.336	88.57
401.545	147.97
401.754	64
401.963	154.11
402.172	100.86
402.381	164.35
402.59	145.92
402.799	88.57
403.008	162.3
403.217	154.11
403.426	94.72
403.635	29.18
403.844	109.05
404.053	82.43
404.262	145.92
404.471	188.93
404.68	276.99
404.888	188.93
405.097	172.54
405.306	154.11
405.515	170.49
405.724	158.21
405.933	225.79
406.142	236.03
406.35	215.55
406.559	238.08
406.768	166.4
406.977	227.84
407.185	203.26
407.394	279.04
407.603	193.02
407.812	244.22
408.02	297.47
408.229	150.01
408.438	276.99
408.646	238.08
408.855	221.69
409.064	291.32
409.272	236.03
409.481	297.47
409.69	281.08
409.898	252.41
410.107	254.46
410.315	309.76
410.524	356.86
410.733	401.91
410.941	352.76
411.15	463.35
411.358	477.69
411.567	508.41
411.775	375.29
411.984	432.63
412.192	449.02
412.401	473.59
412.609	522.74
412.818	518.65
413.026	602.61
413.234	565.75
413.443	586.23
413.651	643.57
413.86	600.57
414.068	674.29
414.276	612.85
414.485	635.38
414.693	719.35
414.901	776.69
415.11	715.25
415.318	809.46
415.526	823.8
415.734	768.5
415.943	932.34
416.151	971.25
416.359	842.23
416.567	938.48
416.776	1038.83
416.984	1106.42
417.192	1024.5
417.4	1014.26
417.608	985.58
417.817	1049.07
418.025	1180.14
418.233	1165.81
418.441	1243.63
418.649	1243.63
418.857	1352.17
419.065	1466.86
419.273	1456.62
419.481	1401.32
419.689	1507.82
419.897	1542.63
420.105	1628.65
420.313	1630.7
420.521	1681.89
420.729	1841.64
420.937	1733.09
421.145	1817.06
421.353	1989.09
421.561	2060.77
421.769	2243.04
421.977	2171.36
422.185	2122.21
422.393	2263.52
422.601	2367.96
422.809	2374.11
423.017	2548.19
423.224	2572.76
423.432	2767.32
423.64	2605.53
423.848	2890.2
424.056	2720.21
424.263	3058.13
424.471	3021.27
424.679	3013.07
424.887	3297.74
425.094	3303.89
425.302	3258.83
425.51	3635.66
425.718	3637.7
425.925	3613.13
426.133	3791.3
426.341	4016.58
426.548	4209.09
426.756	4137.41
426.964	4192.7
427.171	4497.85
427.379	4618.68
427.586	4624.83
427.794	4643.26
428.001	5005.75
428.209	5138.87
428.417	5036.47
428.624	5405.1
428.832	5587.37
429.039	5364.14
429.247	5478.83
429.454	5880.23
429.662	6271.39
429.869	5872.04
430.076	6398.37
430.284	6189.47
430.491	6408.61
430.699	6859.16
430.906	6662.55
431.114	6920.6
431.321	7111.06
431.528	7334.29
431.736	7733.64
431.943	7987.59
432.15	7932.29
432.358	7887.24
432.565	8335.74
432.772	8223.11
432.979	8821.11
433.187	8700.28
433.394	8907.13
433.601	9415.02
433.808	9601.39
434.016	9496.94
434.223	9787.75
434.43	10453.34
434.637	10234.21
434.844	10977.62
435.052	11082.07
435.259	11010.39
435.466	10926.43
435.673	11092.31
435.88	11608.4
436.087	12271.94
436.294	12400.96
436.501	11876.68
436.708	12204.36
436.915	12558.66
437.122	13316.4
437.329	13191.48
437.537	13572.4
437.743	13711.66
437.95	13580.59
438.157	14504.23
438.364	14858.53
438.571	14524.71
438.778	14852.38
438.985	16365.83
439.192	15776.02
439.399	16294.15
439.606	15816.97
439.813	16529.67
440.02	17658.1
440.227	17135.87
440.433	17051.9
440.64	18057.45
440.847	17467.64
441.054	18161.9
441.261	19253.47
441.467	19103.96
441.674	19562.71
441.881	20226.25
442.088	20250.83
442.294	20033.74
442.501	20254.92
442.708	20672.71
442.914	21387.45
443.121	22329.52
443.328	21948.59
443.534	23294.11
443.741	22577.32
443.948	22368.43
444.154	24113.3
444.361	23890.07
444.568	24058
444.774	23873.68
444.981	24453.26
445.187	25141.38
445.394	26239.09
445.6	25942.13
445.807	28090.45
446.013	26992.74
446.22	27326.56
446.426	28784.71
446.633	28966.98
446.839	29802.55
447.046	28645.45
447.252	30003.25
447.459	30269.49
447.665	30005.3
447.871	31084.58
448.078	32432.15
448.284	31105.06
448.491	32131.09
448.697	33269.76
448.903	33961.98
449.11	33892.35
449.316	33763.32
449.522	33996.79
449.728	34840.56
449.935	35233.77
450.141	35151.85
450.347	36059.1
450.553	34998.25
450.76	35276.77
450.966	36372.44
451.172	35862.49
451.378	36855.76
451.584	36034.52
451.791	36935.63
451.997	36851.66
452.203	37484.48
452.409	37552.07
452.615	37504.96
452.821	35737.57
453.027	35598.3
453.233	37160.9
453.44	36083.67
453.646	36243.41
453.852	36640.72
454.058	37058.51
454.264	35983.32
454.47	36595.67
454.676	35868.64
454.882	37208.01
455.088	33994.75
455.294	34476.02
455.5	34899.95
455.705	35434.47
455.911	33746.94
456.117	32923.66
456.323	32770.06
456.529	31076.39
456.735	32512.02
456.941	31436.83
457.147	30865.45
457.352	29878.33
457.558	29702.2
457.764	29534.27
457.97	28760.14
458.176	28328.02
458.381	28274.77
458.587	27359.33
458.793	27238.5
458.999	25643.13
459.204	27639.9
459.41	26544.23
459.616	24877.19
459.821	25163.9
460.027	24834.18
460.233	24103.06
460.438	23163.04
460.644	23771.29
460.85	22159.53
461.055	21737.65
461.261	22061.23
461.466	20353.23
461.672	19558.61
461.878	21076.16
462.083	19458.26
462.289	19263.71
462.494	19065.05
462.7	18225.39
462.905	17697.01
463.111	18338.02
463.316	18485.48
463.522	17887.47
463.727	18028.78
463.932	17893.61
464.138	17541.36
464.343	17799.41
464.549	17015.04
464.754	17830.13
464.959	17721.59
465.165	17414.39
465.37	16740.61
465.575	16212.23
465.781	17166.59
465.986	16988.41
466.191	16341.25
466.397	16269.58
466.602	15264.02
466.807	15941.9
467.012	15718.67
467.218	15657.23
467.423	15565.07
467.628	15560.98
467.833	16322.82
