Data from USB4F104151__189__14-32-58-631.txt Node

Date: Thu Mar 13 14:32:58 EDT 2025
User: louis
Spectrometer: USB4F10415
Trigger mode: 4
Integration Time (sec): 2.500000E-2
Scans to average: 1
Electric dark correction enabled: true
Nonlinearity correction enabled: false
Boxcar width: 0
XAxis mode: Wavelengths
Number of Pixels in Spectrum: 3648
>>>>>Begin Spectral Data<<<<<
178.204	-152.91
178.424	-152.91
178.644	-152.91
178.864	-157.01
179.084	-161.11
179.304	-54.61
179.524	10.92
179.744	15.02
179.964	12.97
180.184	-32.08
180.404	86.7
180.624	68.27
180.844	-54.61
181.064	-25.94
181.283	39.59
181.503	-38.23
181.723	-27.99
181.943	-19.8
182.163	51.88
182.383	-60.76
182.602	133.8
182.822	27.31
183.042	39.59
183.262	-19.8
183.482	-36.18
183.701	19.11
183.921	27.31
184.141	-21.85
184.361	-3.41
184.58	37.55
184.8	78.51
185.02	-5.46
185.239	113.32
185.459	53.93
185.679	72.36
185.898	-87.38
186.118	101.03
186.338	-40.28
186.557	45.74
186.777	-13.65
186.997	23.21
187.216	-62.8
187.436	92.84
187.655	80.55
187.875	107.18
188.095	-62.8
188.314	60.07
188.534	35.5
188.753	53.93
188.973	-19.8
189.192	17.07
189.412	68.27
189.631	27.31
189.851	10.92
190.07	129.7
190.29	27.31
190.509	19.11
190.729	-21.85
190.948	80.55
191.168	166.57
191.387	78.51
191.607	-11.61
191.826	31.4
192.045	37.55
192.265	21.16
192.484	-38.23
192.704	21.16
192.923	60.07
193.142	76.46
193.362	-21.85
193.581	2.73
193.8	10.92
194.02	10.92
194.239	-3.41
194.458	62.12
194.678	29.35
194.897	51.88
195.116	-44.37
195.335	19.11
195.555	45.74
195.774	-19.8
195.993	51.88
196.212	53.93
196.432	82.6
196.651	10.92
196.87	21.16
197.089	58.03
197.308	64.17
197.528	19.11
197.747	-27.99
197.966	6.83
198.185	139.94
198.404	-11.61
198.623	76.46
198.842	53.93
199.062	12.97
199.281	60.07
199.5	-44.37
199.719	-11.61
199.938	-21.85
200.157	76.46
200.376	39.59
200.595	115.37
200.814	-54.61
201.033	23.21
201.252	121.51
201.471	68.27
201.69	43.69
201.909	19.11
202.128	-3.41
202.347	21.16
202.566	-25.94
202.785	-21.85
203.004	-48.47
203.223	117.42
203.442	27.31
203.661	-13.65
203.879	60.07
204.098	84.65
204.317	41.64
204.536	-5.46
204.755	21.16
204.974	70.31
205.193	47.79
205.411	107.18
205.63	72.36
205.849	76.46
206.068	-11.61
206.287	35.5
206.505	84.65
206.724	70.31
206.943	47.79
207.162	47.79
207.381	43.69
207.599	-25.94
207.818	-25.94
208.037	2.73
208.255	-5.46
208.474	111.27
208.693	25.26
208.911	-30.04
209.13	82.6
209.349	70.31
209.567	37.55
209.786	33.45
210.005	60.07
210.223	-27.99
210.442	-38.23
210.661	47.79
210.879	-34.13
211.098	-13.65
211.316	8.87
211.535	111.27
211.753	4.78
211.972	51.88
212.191	-46.42
212.409	39.59
212.628	49.83
212.846	21.16
213.065	17.07
213.283	6.83
213.502	109.23
213.72	2.73
213.938	19.11
214.157	49.83
214.375	-3.41
214.594	51.88
214.812	35.5
215.031	68.27
215.249	-21.85
215.467	60.07
215.686	-21.85
215.904	51.88
216.122	6.83
216.341	117.42
216.559	60.07
216.778	94.89
216.996	39.59
217.214	-34.13
217.432	19.11
217.651	39.59
217.869	78.51
218.087	4.78
218.306	43.69
218.524	10.92
218.742	29.35
218.96	55.98
219.179	-19.8
219.397	10.92
219.615	64.17
219.833	21.16
220.051	49.83
220.27	17.07
220.488	66.22
220.706	-5.46
220.924	51.88
221.142	-25.94
221.36	-21.85
221.578	84.65
221.796	-1.37
222.015	4.78
222.233	60.07
222.451	94.89
222.669	-3.41
222.887	-1.37
223.105	-19.8
223.323	-17.75
223.541	-101.72
223.759	23.21
223.977	43.69
224.195	43.69
224.413	39.59
224.631	72.36
224.849	66.22
225.067	121.51
225.285	23.21
225.503	-25.94
225.721	-30.04
225.939	43.69
226.157	35.5
226.375	113.32
226.592	-44.37
226.81	35.5
227.028	101.03
227.246	94.89
227.464	-5.46
227.682	64.17
227.9	74.41
228.117	60.07
228.335	10.92
228.553	-11.61
228.771	-27.99
228.989	80.55
229.206	33.45
229.424	19.11
229.642	60.07
229.86	27.31
230.077	21.16
230.295	43.69
230.513	23.21
230.731	39.59
230.948	76.46
231.166	133.8
231.384	51.88
231.601	64.17
231.819	64.17
232.037	-50.52
232.254	15.02
232.472	-9.56
232.689	45.74
232.907	21.16
233.125	15.02
233.342	-9.56
233.56	2.73
233.777	78.51
233.995	-3.41
234.213	2.73
234.43	68.27
234.648	4.78
234.865	2.73
235.083	101.03
235.3	49.83
235.518	45.74
235.735	113.32
235.953	35.5
236.17	-13.65
236.388	10.92
236.605	107.18
236.822	62.12
237.04	127.66
237.257	19.11
237.475	-5.46
237.692	31.4
237.909	19.11
238.127	-44.37
238.344	4.78
238.562	29.35
238.779	-38.23
238.996	-5.46
239.214	-54.61
239.431	27.31
239.648	25.26
239.865	-5.46
240.083	53.93
240.3	45.74
240.517	37.55
240.735	76.46
240.952	66.22
241.169	39.59
241.386	31.4
241.603	-62.8
241.821	15.02
242.038	-54.61
242.255	31.4
242.472	29.35
242.689	-23.89
242.907	72.36
243.124	6.83
243.341	6.83
243.558	55.98
243.775	-1.37
243.992	-11.61
244.209	64.17
244.426	64.17
244.643	117.42
244.86	15.02
245.078	21.16
245.295	39.59
245.512	51.88
245.729	6.83
245.946	68.27
246.163	55.98
246.38	55.98
246.597	37.55
246.814	2.73
247.031	35.5
247.248	49.83
247.464	72.36
247.681	43.69
247.898	21.16
248.115	10.92
248.332	-5.46
248.549	15.02
248.766	74.41
248.983	105.13
249.2	53.93
249.417	-13.65
249.633	29.35
249.85	68.27
250.067	4.78
250.284	6.83
250.501	-13.65
250.717	-19.8
250.934	-15.7
251.151	68.27
251.368	60.07
251.585	23.21
251.801	-5.46
252.018	10.92
252.235	-42.32
252.451	27.31
252.668	-7.51
252.885	-5.46
253.102	101.03
253.318	76.46
253.535	15.02
253.752	8.87
253.968	109.23
254.185	-46.42
254.401	-30.04
254.618	-40.28
254.835	27.31
255.051	72.36
255.268	62.12
255.484	55.98
255.701	-9.56
255.917	15.02
256.134	-46.42
256.351	66.22
256.567	-7.51
256.784	96.94
257	-62.8
257.217	121.51
257.433	127.66
257.65	-11.61
257.866	92.84
258.082	88.75
258.299	45.74
258.515	37.55
258.732	66.22
258.948	10.92
259.165	101.03
259.381	-15.7
259.597	-48.47
259.814	2.73
260.03	35.5
260.246	78.51
260.463	62.12
260.679	53.93
260.895	-21.85
261.112	17.07
261.328	2.73
261.544	19.11
261.761	58.03
261.977	-5.46
262.193	-21.85
262.409	15.02
262.626	21.16
262.842	-30.04
263.058	-38.23
263.274	98.99
263.49	35.5
263.707	107.18
263.923	41.64
264.139	41.64
264.355	51.88
264.571	68.27
264.787	-9.56
265.004	23.21
265.22	8.87
265.436	35.5
265.652	-5.46
265.868	35.5
266.084	21.16
266.3	43.69
266.516	-13.65
266.732	53.93
266.948	-62.8
267.164	10.92
267.38	23.21
267.596	27.31
267.812	78.51
268.028	15.02
268.244	-9.56
268.46	27.31
268.676	15.02
268.892	-54.61
269.108	2.73
269.324	-5.46
269.54	-13.65
269.756	47.79
269.972	-25.94
270.188	68.27
270.403	60.07
270.619	2.73
270.835	47.79
271.051	-52.56
271.267	-21.85
271.483	4.78
271.698	35.5
271.914	-42.32
272.13	-15.7
272.346	84.65
272.562	-5.46
272.777	68.27
272.993	-42.32
273.209	39.59
273.425	51.88
273.64	-27.99
273.856	133.8
274.072	55.98
274.287	25.26
274.503	101.03
274.719	101.03
274.934	-15.7
275.15	-1.37
275.366	-1.37
275.581	19.11
275.797	55.98
276.012	6.83
276.228	39.59
276.444	39.59
276.659	21.16
276.875	31.4
277.09	-1.37
277.306	-3.41
277.521	76.46
277.737	76.46
277.952	19.11
278.168	-34.13
278.383	37.55
278.599	55.98
278.814	-1.37
279.03	-11.61
279.245	121.51
279.461	31.4
279.676	47.79
279.892	-9.56
280.107	-11.61
280.322	-46.42
280.538	43.69
280.753	2.73
280.969	2.73
281.184	15.02
281.399	2.73
281.615	-27.99
281.83	84.65
282.045	-21.85
282.26	-54.61
282.476	27.31
282.691	76.46
282.906	29.35
283.122	-27.99
283.337	29.35
283.552	51.88
283.767	-3.41
283.983	76.46
284.198	-3.41
284.413	51.88
284.628	-50.52
284.843	23.21
285.058	170.66
285.274	-13.65
285.489	15.02
285.704	23.21
285.919	-13.65
286.134	6.83
286.349	-25.94
286.564	-3.41
286.779	27.31
286.995	-11.61
287.21	12.97
287.425	-13.65
287.64	53.93
287.855	-9.56
288.07	-3.41
288.285	51.88
288.5	39.59
288.715	107.18
288.93	-1.37
289.145	-5.46
289.36	125.61
289.575	70.31
289.79	-11.61
290.004	45.74
290.219	2.73
290.434	45.74
290.649	-38.23
290.864	84.65
291.079	2.73
291.294	72.36
291.509	2.73
291.724	-3.41
291.938	21.16
292.153	29.35
292.368	39.59
292.583	-30.04
292.798	10.92
293.012	80.55
293.227	43.69
293.442	70.31
293.657	8.87
293.871	55.98
294.086	4.78
294.301	109.23
294.516	86.7
294.73	43.69
294.945	25.26
295.16	17.07
295.374	23.21
295.589	78.51
295.804	60.07
296.018	15.02
296.233	70.31
296.447	10.92
296.662	-34.13
296.877	43.69
297.091	82.6
297.306	33.45
297.52	25.26
297.735	60.07
297.949	27.31
298.164	51.88
298.378	-11.61
298.593	-13.65
298.807	-17.75
299.022	8.87
299.236	2.73
299.451	15.02
299.665	47.79
299.88	-3.41
300.094	74.41
300.309	80.55
300.523	15.02
300.737	8.87
300.952	62.12
301.166	35.5
301.381	-13.65
301.595	-19.8
301.809	21.16
302.024	47.79
302.238	-50.52
302.452	2.73
302.667	60.07
302.881	58.03
303.095	101.03
303.309	35.5
303.524	6.83
303.738	17.07
303.952	-3.41
304.166	-17.75
304.381	-89.43
304.595	39.59
304.809	-5.46
305.023	-21.85
305.237	-25.94
305.452	2.73
305.666	51.88
305.88	37.55
306.094	60.07
306.308	19.11
306.522	51.88
306.736	68.27
306.95	62.12
307.164	-3.41
307.379	58.03
307.593	66.22
307.807	49.83
308.021	92.84
308.235	10.92
308.449	-93.52
308.663	-54.61
308.877	37.55
309.091	-3.41
309.305	133.8
309.519	-54.61
309.733	19.11
309.947	15.02
310.161	33.45
310.374	43.69
310.588	101.03
310.802	51.88
311.016	-42.32
311.23	45.74
311.444	45.74
311.658	80.55
311.872	-1.37
312.085	94.89
312.299	195.24
312.513	103.08
312.727	92.84
312.941	-13.65
313.154	55.98
313.368	8.87
313.582	49.83
313.796	-19.8
314.009	45.74
314.223	53.93
314.437	8.87
314.651	88.75
314.864	68.27
315.078	4.78
315.292	27.31
315.505	-34.13
315.719	109.23
315.933	-30.04
316.146	35.5
316.36	37.55
316.573	74.41
316.787	29.35
317.001	92.84
317.214	21.16
317.428	19.11
317.641	-21.85
317.855	60.07
318.068	19.11
318.282	29.35
318.495	152.23
318.709	47.79
318.922	-3.41
319.136	68.27
319.349	84.65
319.563	84.65
319.776	49.83
319.99	-38.23
320.203	17.07
320.417	43.69
320.63	94.89
320.843	60.07
321.057	31.4
321.27	-21.85
321.483	-5.46
321.697	70.31
321.91	35.5
322.124	43.69
322.337	45.74
322.55	62.12
322.763	84.65
322.977	35.5
323.19	-77.14
323.403	43.69
323.617	43.69
323.83	92.84
324.043	12.97
324.256	88.75
324.469	21.16
324.683	78.51
324.896	-34.13
325.109	80.55
325.322	-5.46
325.535	64.17
325.748	12.97
325.962	31.4
326.175	4.78
326.388	41.64
326.601	23.21
326.814	111.27
327.027	41.64
327.24	96.94
327.453	-3.41
327.666	43.69
327.879	70.31
328.092	76.46
328.305	35.5
328.518	-11.61
328.731	47.79
328.944	43.69
329.157	60.07
329.37	45.74
329.583	158.38
329.796	111.27
330.009	-9.56
330.222	45.74
330.435	41.64
330.648	37.55
330.861	66.22
331.073	150.18
331.286	53.93
331.499	86.7
331.712	-30.04
331.925	-27.99
332.138	45.74
332.35	27.31
332.563	-5.46
332.776	43.69
332.989	51.88
333.202	-15.7
333.414	55.98
333.627	45.74
333.84	47.79
334.053	86.7
334.265	4.78
334.478	21.16
334.691	15.02
334.903	68.27
335.116	-68.95
335.329	80.55
335.541	2.73
335.754	96.94
335.966	35.5
336.179	-17.75
336.392	-5.46
336.604	-1.37
336.817	47.79
337.029	121.51
337.242	43.69
337.454	19.11
337.667	-13.65
337.88	176.81
338.092	-46.42
338.305	101.03
338.517	35.5
338.729	125.61
338.942	92.84
339.154	35.5
339.367	6.83
339.579	92.84
339.792	-7.51
340.004	10.92
340.217	60.07
340.429	21.16
340.641	27.31
340.854	60.07
341.066	-52.56
341.278	84.65
341.491	84.65
341.703	4.78
341.915	55.98
342.128	43.69
342.34	37.55
342.552	25.26
342.764	-11.61
342.977	2.73
343.189	15.02
343.401	64.17
343.613	60.07
343.826	-21.85
344.038	-3.41
344.25	68.27
344.462	-36.18
344.674	84.65
344.886	74.41
345.099	43.69
345.311	58.03
345.523	-54.61
345.735	-54.61
345.947	53.93
346.159	6.83
346.371	27.31
346.583	6.83
346.795	125.61
347.007	64.17
347.219	23.21
347.431	-15.7
347.643	80.55
347.855	12.97
348.067	33.45
348.279	-13.65
348.491	41.64
348.703	80.55
348.915	35.5
349.127	-5.46
349.339	4.78
349.551	-87.38
349.763	31.4
349.975	-25.94
350.187	68.27
350.399	51.88
350.61	37.55
350.822	96.94
351.034	27.31
351.246	64.17
351.458	76.46
351.669	76.46
351.881	88.75
352.093	35.5
352.305	47.79
352.517	60.07
352.728	19.11
352.94	51.88
353.152	37.55
353.363	27.31
353.575	10.92
353.787	117.42
353.999	10.92
354.21	49.83
354.422	68.27
354.633	62.12
354.845	-17.75
355.057	45.74
355.268	58.03
355.48	-17.75
355.692	-50.52
355.903	10.92
356.115	55.98
356.326	35.5
356.538	125.61
356.749	88.75
356.961	41.64
357.172	19.11
357.384	-7.51
357.595	94.89
357.807	86.7
358.018	68.27
358.23	94.89
358.441	43.69
358.653	35.5
358.864	23.21
359.075	31.4
359.287	-11.61
359.498	4.78
359.709	37.55
359.921	-13.65
360.132	-5.46
360.344	78.51
360.555	-19.8
360.766	43.69
360.977	29.35
361.189	31.4
361.4	15.02
361.611	55.98
361.823	53.93
362.034	37.55
362.245	-15.7
362.456	-9.56
362.667	-5.46
362.879	19.11
363.09	15.02
363.301	29.35
363.512	-17.75
363.723	88.75
363.935	12.97
364.146	113.32
364.357	51.88
364.568	10.92
364.779	-64.85
364.99	117.42
365.201	29.35
365.412	45.74
365.623	-46.42
365.834	-11.61
366.045	-25.94
366.256	45.74
366.467	55.98
366.678	55.98
366.889	43.69
367.1	23.21
367.311	70.31
367.522	2.73
367.733	86.7
367.944	80.55
368.155	58.03
368.366	43.69
368.577	64.17
368.788	84.65
368.999	27.31
369.209	45.74
369.42	55.98
369.631	107.18
369.842	88.75
370.053	10.92
370.264	101.03
370.474	2.73
370.685	17.07
370.896	53.93
371.107	68.27
371.317	-1.37
371.528	80.55
371.739	101.03
371.95	-9.56
372.16	43.69
372.371	6.83
372.582	-27.99
372.792	72.36
373.003	19.11
373.214	-19.8
373.424	51.88
373.635	31.4
373.846	-11.61
374.056	15.02
374.267	27.31
374.477	6.83
374.688	37.55
374.898	-5.46
375.109	53.93
375.319	64.17
375.53	74.41
375.74	-27.99
375.951	113.32
376.161	43.69
376.372	84.65
376.582	2.73
376.793	29.35
377.003	-11.61
377.214	-3.41
377.424	43.69
377.635	-5.46
377.845	76.46
378.055	68.27
378.266	-13.65
378.476	70.31
378.686	8.87
378.897	119.46
379.107	53.93
379.317	53.93
379.528	4.78
379.738	109.23
379.948	17.07
380.158	125.61
380.369	27.31
380.579	119.46
380.789	-52.56
380.999	90.79
381.21	43.69
381.42	111.27
381.63	-1.37
381.84	12.97
382.05	78.51
382.261	74.41
382.471	45.74
382.681	133.8
382.891	51.88
383.101	35.5
383.311	-15.7
383.521	88.75
383.731	86.7
383.941	76.46
384.151	76.46
384.361	70.31
384.571	74.41
384.781	47.79
384.991	141.99
385.201	170.66
385.411	94.89
385.621	53.93
385.831	72.36
386.041	27.31
386.251	49.83
386.461	166.57
386.671	-17.75
386.881	66.22
387.091	43.69
387.301	-5.46
387.511	109.23
387.72	39.59
387.93	43.69
388.14	-27.99
388.35	15.02
388.56	125.61
388.769	109.23
388.979	43.69
389.189	35.5
389.399	51.88
389.609	33.45
389.818	76.46
390.028	10.92
390.238	182.95
390.447	31.4
390.657	105.13
390.867	-36.18
391.076	15.02
391.286	80.55
391.496	158.38
391.705	60.07
391.915	113.32
392.125	160.42
392.334	76.46
392.544	70.31
392.753	78.51
392.963	23.21
393.172	29.35
393.382	27.31
393.591	105.13
393.801	66.22
394.01	58.03
394.22	2.73
394.429	15.02
394.639	70.31
394.848	133.8
395.058	76.46
395.267	0.68
395.477	51.88
395.686	115.37
395.895	113.32
396.105	60.07
396.314	27.31
396.524	35.5
396.733	72.36
396.942	125.61
397.152	78.51
397.361	94.89
397.57	84.65
397.78	27.31
397.989	80.55
398.198	82.6
398.407	78.51
398.617	125.61
398.826	51.88
399.035	68.27
399.244	141.99
399.453	62.12
399.663	43.69
399.872	84.65
400.081	64.17
400.29	154.28
400.499	19.11
400.708	94.89
400.917	103.08
401.127	88.75
401.336	94.89
401.545	127.66
401.754	84.65
401.963	105.13
402.172	62.12
402.381	117.42
402.59	141.99
402.799	113.32
403.008	117.42
403.217	150.18
403.426	84.65
403.635	6.83
403.844	170.66
404.053	92.84
404.262	53.93
404.471	191.14
404.68	137.9
404.888	180.9
405.097	60.07
405.306	162.47
405.515	203.43
405.724	103.08
405.933	182.95
406.142	150.18
406.35	170.66
406.559	117.42
406.768	150.18
406.977	176.81
407.185	191.14
407.394	223.91
407.603	133.8
407.812	209.58
408.02	195.24
408.229	191.14
408.438	281.25
408.646	133.8
408.855	250.53
409.064	211.62
409.272	273.06
409.481	281.25
409.69	232.1
409.898	273.06
410.107	209.58
410.315	260.77
410.524	342.69
410.733	266.92
410.941	318.12
411.15	305.83
411.358	289.45
411.567	350.89
411.775	309.93
411.984	387.75
412.192	381.6
412.401	357.03
412.609	369.32
412.818	453.28
413.026	486.05
413.234	412.32
413.443	449.19
413.651	432.8
413.86	504.48
414.068	559.78
414.276	484
414.485	502.43
414.693	504.48
414.901	625.31
415.11	572.07
415.318	477.86
415.526	563.87
415.734	721.57
415.943	584.35
416.151	715.42
416.359	643.74
416.567	668.32
416.776	723.62
416.984	823.97
417.192	834.21
417.4	725.66
417.608	823.97
417.817	838.3
418.025	889.5
418.233	897.69
418.441	893.6
418.649	938.65
418.857	1034.91
419.065	1049.24
419.273	1065.63
419.481	1088.15
419.689	1118.87
419.897	1192.6
420.105	1157.78
420.313	1274.52
420.521	1219.22
420.729	1348.25
420.937	1342.1
421.145	1338.01
421.353	1415.83
421.561	1493.65
421.769	1501.84
421.977	1612.43
422.185	1671.83
422.393	1684.11
422.601	1788.56
422.809	1649.3
423.017	1800.85
423.224	1823.37
423.432	1890.96
423.64	1933.97
423.848	2218.63
424.056	2112.14
424.263	2095.75
424.471	2167.43
424.679	2149
424.887	2316.94
425.094	2378.37
425.302	2378.37
425.51	2503.3
425.718	2585.22
425.925	2648.71
426.133	2615.94
426.341	2902.65
426.548	2906.75
426.756	3000.96
426.964	2896.51
427.171	3168.89
427.379	3295.86
427.586	3291.77
427.794	3361.4
428.001	3598.96
428.209	3676.79
428.417	3592.82
428.624	3857.01
428.832	3811.95
429.039	4004.46
429.247	3770.99
429.454	4213.35
429.662	4412.01
429.869	4246.12
430.076	4516.45
430.284	4371.05
430.491	4608.61
430.699	4889.18
430.906	4778.59
431.114	4856.42
431.321	5012.06
431.528	5278.3
431.736	5390.94
431.943	5835.35
432.15	5425.75
432.358	5714.52
432.565	6042.19
432.772	5812.82
432.979	6167.12
433.187	6392.39
433.394	6402.63
433.601	6638.15
433.808	6822.47
434.016	6720.07
434.223	7039.55
434.43	7572.02
434.637	7334.46
434.844	7705.14
435.052	7950.9
435.259	7778.87
435.466	7987.76
435.673	7862.83
435.88	8589.86
436.087	8741.41
436.294	8788.52
436.501	8686.12
436.708	8792.61
436.915	9151.01
437.122	9349.66
437.329	9619.99
437.537	9837.08
437.743	10054.16
437.95	9847.32
438.157	10463.75
438.364	10613.26
438.571	10603.02
438.778	10889.73
438.985	11557.37
439.192	11241.98
439.399	11571.71
439.606	11399.68
439.813	12100.08
440.02	12861.93
440.227	12294.64
440.433	12169.71
440.64	12659.18
440.847	12485.1
441.054	12952.04
441.261	13945.3
441.467	13597.15
441.674	13928.92
441.881	14387.66
442.088	14146
442.294	14135.76
442.501	14504.4
442.708	14821.83
442.914	15364.54
443.121	15917.5
443.328	15591.87
443.534	16757.16
443.741	16314.8
443.948	15944.12
444.154	17369.51
444.361	17201.57
444.568	17162.66
444.774	17361.31
444.981	17332.64
445.187	17830.3
445.394	18604.43
445.6	18469.26
445.807	20019.58
446.013	19024.26
446.22	19433.86
446.426	20474.23
446.633	20642.16
446.839	21377.38
447.046	20472.18
447.252	21858.65
447.459	21694.82
447.665	21354.85
447.871	22538.58
448.078	23488.84
448.284	22126.94
448.491	22780.24
448.697	23714.11
448.903	24129.85
449.11	24052.03
449.316	23845.18
449.522	24449.33
449.728	25106.73
449.935	25184.55
450.141	25166.12
450.347	25542.95
450.553	24846.64
450.76	25018.67
450.966	26073.37
451.172	25823.52
451.378	26218.78
451.584	25676.07
451.791	26401.05
451.997	26470.68
452.203	26790.16
452.409	27072.78
452.615	26343.7
452.821	25717.03
453.027	25096.49
453.233	26706.2
453.44	25667.88
453.646	25831.71
453.852	25868.58
454.058	26499.35
454.264	25344.3
454.47	26065.18
454.676	25557.28
454.882	25844
455.088	24267.06
455.294	24570.16
455.5	24848.69
455.705	24998.19
455.911	24265.02
456.117	23353.67
456.323	23218.5
456.529	22069.59
456.735	23058.76
456.941	22247.77
457.147	21918.04
457.352	20842.86
457.558	20996.46
457.764	21141.86
457.97	20670.83
458.176	20097.4
458.381	20119.93
458.587	19087.75
458.793	19157.38
458.999	18098.58
459.204	19356.04
459.41	18842
459.616	17701.28
459.821	17750.43
460.027	17676.7
460.233	17076.65
460.438	16484.78
460.644	16480.69
460.85	15837.62
461.055	15501.76
461.261	15395.26
461.466	14612.94
461.672	13902.29
461.878	15088.07
462.083	14125.52
462.289	13533.66
462.494	13394.4
462.7	12775.91
462.905	12532.2
463.111	13162.98
463.316	13107.68
463.522	12855.78
463.727	12693.99
463.932	13017.57
464.138	12577.26
464.343	12763.62
464.549	12364.27
464.754	12661.23
464.959	12460.52
465.165	12435.95
465.37	11911.67
465.575	11614.71
465.781	12085.75
465.986	12364.27
466.191	11805.17
466.397	11497.98
466.602	10891.78
466.807	11416.06
467.012	11295.23
