Data from USB4F104151__229__14-33-59-039.txt Node

Date: Thu Mar 13 14:33:59 EDT 2025
User: louis
Spectrometer: USB4F10415
Trigger mode: 4
Integration Time (sec): 2.500000E-2
Scans to average: 1
Electric dark correction enabled: true
Nonlinearity correction enabled: false
Boxcar width: 0
XAxis mode: Wavelengths
Number of Pixels in Spectrum: 3648
>>>>>Begin Spectral Data<<<<<
178.204	-102.57
178.424	-102.57
178.644	-102.57
178.864	-178.34
179.084	-159.91
179.304	-43.18
179.524	-24.75
179.744	-61.61
179.964	108.37
180.184	-22.7
180.404	-22.7
180.624	-6.31
180.844	51.03
181.064	3.93
181.283	3.93
181.503	10.07
181.723	3.93
181.943	-75.95
182.163	46.93
182.383	63.32
182.602	81.75
182.822	89.94
183.042	26.45
183.262	28.5
183.482	22.36
183.701	55.12
183.921	-45.23
184.141	46.93
184.361	98.13
184.58	67.41
184.8	40.79
185.02	-16.55
185.239	85.84
185.459	94.04
185.679	116.56
185.898	12.12
186.118	22.36
186.338	30.55
186.557	104.28
186.777	14.17
186.997	59.22
187.216	100.18
187.436	75.6
187.655	51.03
187.875	94.04
188.095	12.12
188.314	-26.79
188.534	59.22
188.753	1.88
188.973	48.98
189.192	91.99
189.412	75.6
189.631	18.26
189.851	18.26
190.07	18.26
190.29	-39.08
190.509	100.18
190.729	36.69
190.948	36.69
191.168	161.62
191.387	67.41
191.607	53.08
191.826	59.22
192.045	28.5
192.265	126.8
192.484	44.88
192.704	42.84
192.923	-4.27
193.142	124.76
193.362	112.47
193.581	34.64
193.8	38.74
194.02	124.76
194.239	-22.7
194.458	67.41
194.678	-2.22
194.897	69.46
195.116	67.41
195.335	104.28
195.555	61.27
195.774	63.32
195.993	85.84
196.212	51.03
196.432	67.41
196.651	26.45
196.87	94.04
197.089	110.42
197.308	34.64
197.528	104.28
197.747	-30.89
197.966	38.74
198.185	91.99
198.404	26.45
198.623	28.5
198.842	96.08
199.062	51.03
199.281	135
199.5	94.04
199.719	5.97
199.938	83.8
200.157	87.89
200.376	26.45
200.595	87.89
200.814	67.41
201.033	30.55
201.252	65.36
201.471	34.64
201.69	100.18
201.909	12.12
202.128	91.99
202.347	96.08
202.566	-18.6
202.785	59.22
203.004	-63.66
203.223	173.91
203.442	67.41
203.661	5.97
203.879	46.93
204.098	51.03
204.317	-28.84
204.536	124.76
204.755	75.6
204.974	75.6
205.193	34.64
205.411	116.56
205.63	-12.46
205.849	85.84
206.068	-14.51
206.287	26.45
206.505	94.04
206.724	-26.79
206.943	-2.22
207.162	46.93
207.381	46.93
207.599	-22.7
207.818	26.45
208.037	10.07
208.255	42.84
208.474	67.41
208.693	112.47
208.911	40.79
209.13	30.55
209.349	34.64
209.567	38.74
209.786	91.99
210.005	100.18
210.223	24.4
210.442	116.56
210.661	46.93
210.879	26.45
211.098	81.75
211.316	10.07
211.535	110.42
211.753	12.12
211.972	118.61
212.191	26.45
212.409	36.69
212.628	65.36
212.846	-34.99
213.065	61.27
213.283	48.98
213.502	10.07
213.72	26.45
213.938	65.36
214.157	102.23
214.375	22.36
214.594	55.12
214.812	108.37
215.031	61.27
215.249	22.36
215.467	34.64
215.686	38.74
215.904	59.22
216.122	69.46
216.341	118.61
216.559	-47.27
216.778	67.41
216.996	26.45
217.214	94.04
217.432	73.56
217.651	-4.27
217.869	67.41
218.087	130.9
218.306	-4.27
218.524	75.6
218.742	85.84
218.96	42.84
219.179	38.74
219.397	96.08
219.615	149.33
219.833	65.36
220.051	16.21
220.27	165.71
220.488	46.93
220.706	61.27
220.924	-18.6
221.142	59.22
221.36	30.55
221.578	77.65
221.796	26.45
222.015	100.18
222.233	61.27
222.451	81.75
222.669	-10.41
222.887	67.41
223.105	8.02
223.323	20.31
223.541	18.26
223.759	26.45
223.977	18.26
224.195	98.13
224.413	67.41
224.631	89.94
224.849	53.08
225.067	96.08
225.285	32.6
225.503	42.84
225.721	-22.7
225.939	-30.89
226.157	28.5
226.375	120.66
226.592	1.88
226.81	91.99
227.028	-22.7
227.246	81.75
227.464	71.51
227.682	67.41
227.9	108.37
228.117	-14.51
228.335	83.8
228.553	18.26
228.771	36.69
228.989	94.04
229.206	65.36
229.424	87.89
229.642	-0.17
229.86	-39.08
230.077	48.98
230.295	30.55
230.513	53.08
230.731	34.64
230.948	118.61
231.166	75.6
231.384	94.04
231.601	26.45
231.819	59.22
232.037	137.04
232.254	42.84
232.472	10.07
232.689	51.03
232.907	22.36
233.125	55.12
233.342	59.22
233.56	34.64
233.777	42.84
233.995	71.51
234.213	132.95
234.43	104.28
234.648	83.8
234.865	55.12
235.083	104.28
235.3	100.18
235.518	137.04
235.735	116.56
235.953	61.27
236.17	34.64
236.388	124.76
236.605	83.8
236.822	83.8
237.04	106.32
237.257	-8.36
237.475	75.6
237.692	112.47
237.909	77.65
238.127	-8.36
238.344	22.36
238.562	28.5
238.779	67.41
238.996	44.88
239.214	28.5
239.431	102.23
239.648	67.41
239.865	53.08
240.083	94.04
240.3	28.5
240.517	46.93
240.735	30.55
240.952	81.75
241.169	59.22
241.386	10.07
241.603	77.65
241.821	89.94
242.038	85.84
242.255	79.7
242.472	-30.89
242.689	124.76
242.907	71.51
243.124	44.88
243.341	1.88
243.558	-39.08
243.775	8.02
243.992	36.69
244.209	77.65
244.426	120.66
244.643	108.37
244.86	46.93
245.078	51.03
245.295	94.04
245.512	-14.51
245.729	10.07
245.946	36.69
246.163	16.21
246.38	110.42
246.597	51.03
246.814	18.26
247.031	83.8
247.248	38.74
247.464	106.32
247.681	30.55
247.898	42.84
248.115	100.18
248.332	12.12
248.549	112.47
248.766	128.85
248.983	55.12
249.2	20.31
249.417	89.94
249.633	53.08
249.85	59.22
250.067	69.46
250.284	5.97
250.501	18.26
250.717	55.12
250.934	53.08
251.151	69.46
251.368	79.7
251.585	132.95
251.801	-10.41
252.018	87.89
252.235	104.28
252.451	42.84
252.668	12.12
252.885	83.8
253.102	38.74
253.318	-2.22
253.535	-6.31
253.752	18.26
253.968	87.89
254.185	28.5
254.401	69.46
254.618	104.28
254.835	1.88
255.051	55.12
255.268	145.24
255.484	38.74
255.701	53.08
255.917	36.69
256.134	63.32
256.351	59.22
256.567	59.22
256.784	61.27
257	-14.51
257.217	67.41
257.433	89.94
257.65	71.51
257.866	83.8
258.082	51.03
258.299	20.31
258.515	57.17
258.732	75.6
258.948	-20.65
259.165	51.03
259.381	-12.46
259.597	57.17
259.814	26.45
260.03	44.88
260.246	118.61
260.463	30.55
260.679	91.99
260.895	51.03
261.112	100.18
261.328	44.88
261.544	71.51
261.761	91.99
261.977	77.65
262.193	26.45
262.409	75.6
262.626	28.5
262.842	26.45
263.058	63.32
263.274	89.94
263.49	20.31
263.707	100.18
263.923	96.08
264.139	38.74
264.355	135
264.571	96.08
264.787	55.12
265.004	104.28
265.22	-12.46
265.436	28.5
265.652	10.07
265.868	53.08
266.084	-53.42
266.3	42.84
266.516	22.36
266.732	89.94
266.948	3.93
267.164	128.85
267.38	73.56
267.596	30.55
267.812	147.28
268.028	114.52
268.244	69.46
268.46	59.22
268.676	57.17
268.892	10.07
269.108	14.17
269.324	71.51
269.54	51.03
269.756	114.52
269.972	14.17
270.188	44.88
270.403	34.64
270.619	67.41
270.835	59.22
271.051	59.22
271.267	-63.66
271.483	28.5
271.698	69.46
271.914	26.45
272.13	5.97
272.346	-12.46
272.562	36.69
272.777	108.37
272.993	26.45
273.209	51.03
273.425	73.56
273.64	18.26
273.856	128.85
274.072	118.61
274.287	26.45
274.503	42.84
274.719	22.36
274.934	75.6
275.15	16.21
275.366	-0.17
275.581	48.98
275.797	132.95
276.012	67.41
276.228	132.95
276.444	122.71
276.659	20.31
276.875	30.55
277.09	100.18
277.306	85.84
277.521	38.74
277.737	75.6
277.952	141.14
278.168	104.28
278.383	61.27
278.599	38.74
278.814	38.74
279.03	51.03
279.245	159.57
279.461	14.17
279.676	55.12
279.892	32.6
280.107	14.17
280.322	14.17
280.538	149.33
280.753	1.88
280.969	85.84
281.184	1.88
281.399	83.8
281.615	34.64
281.83	59.22
282.045	81.75
282.26	26.45
282.476	-14.51
282.691	51.03
282.906	100.18
283.122	42.84
283.337	83.8
283.552	59.22
283.767	59.22
283.983	100.18
284.198	42.84
284.413	87.89
284.628	91.99
284.843	16.21
285.058	124.76
285.274	28.5
285.489	73.56
285.704	79.7
285.919	53.08
286.134	69.46
286.349	126.8
286.564	67.41
286.779	44.88
286.995	38.74
287.21	38.74
287.425	51.03
287.64	16.21
287.855	30.55
288.07	91.99
288.285	106.32
288.5	151.38
288.715	159.57
288.93	40.79
289.145	-14.51
289.36	38.74
289.575	69.46
289.79	116.56
290.004	59.22
290.219	61.27
290.434	77.65
290.649	85.84
290.864	116.56
291.079	5.97
291.294	67.41
291.509	110.42
291.724	-6.31
291.938	46.93
292.153	79.7
292.368	-32.94
292.583	44.88
292.798	200.53
293.012	38.74
293.227	77.65
293.442	83.8
293.657	91.99
293.871	83.8
294.086	61.27
294.301	104.28
294.516	128.85
294.73	112.47
294.945	96.08
295.16	67.41
295.374	28.5
295.589	71.51
295.804	5.97
296.018	120.66
296.233	53.08
296.447	71.51
296.662	48.98
296.877	126.8
297.091	61.27
297.306	55.12
297.52	71.51
297.735	10.07
297.949	1.88
298.164	124.76
298.378	42.84
298.593	83.8
298.807	61.27
299.022	44.88
299.236	108.37
299.451	75.6
299.665	10.07
299.88	67.41
300.094	132.95
300.309	100.18
300.523	110.42
300.737	59.22
300.952	116.56
301.166	59.22
301.381	61.27
301.595	51.03
301.809	38.74
302.024	75.6
302.238	46.93
302.452	137.04
302.667	51.03
302.881	110.42
303.095	22.36
303.309	32.6
303.524	36.69
303.738	34.64
303.952	75.6
304.166	71.51
304.381	-20.65
304.595	53.08
304.809	61.27
305.023	79.7
305.237	1.88
305.452	42.84
305.666	91.99
305.88	132.95
306.094	83.8
306.308	79.7
306.522	104.28
306.736	26.45
306.95	108.37
307.164	75.6
307.379	91.99
307.593	116.56
307.807	124.76
308.021	5.97
308.235	100.18
308.449	51.03
308.663	96.08
308.877	143.19
309.091	79.7
309.305	71.51
309.519	-6.31
309.733	-30.89
309.947	-10.41
310.161	28.5
310.374	98.13
310.588	55.12
310.802	42.84
311.016	110.42
311.23	42.84
311.444	-10.41
311.658	22.36
311.872	124.76
312.085	116.56
312.299	124.76
312.513	118.61
312.727	46.93
312.941	30.55
313.154	18.26
313.368	46.93
313.582	28.5
313.796	108.37
314.009	81.75
314.223	55.12
314.437	110.42
314.651	96.08
314.864	44.88
315.078	48.98
315.292	100.18
315.505	34.64
315.719	130.9
315.933	18.26
316.146	104.28
316.36	36.69
316.573	91.99
316.787	124.76
317.001	100.18
317.214	26.45
317.428	102.23
317.641	-10.41
317.855	110.42
318.068	24.4
318.282	67.41
318.495	83.8
318.709	120.66
318.922	61.27
319.136	116.56
319.349	102.23
319.563	59.22
319.776	75.6
319.99	-12.46
320.203	165.71
320.417	100.18
320.63	100.18
320.843	145.24
321.057	108.37
321.27	102.23
321.483	75.6
321.697	55.12
321.91	34.64
322.124	91.99
322.337	139.09
322.55	-59.56
322.763	108.37
322.977	118.61
323.19	36.69
323.403	-6.31
323.617	36.69
323.83	108.37
324.043	1.88
324.256	96.08
324.469	10.07
324.683	79.7
324.896	149.33
325.109	38.74
325.322	30.55
325.535	116.56
325.748	75.6
325.962	75.6
326.175	42.84
326.388	3.93
326.601	87.89
326.814	10.07
327.027	91.99
327.24	108.37
327.453	38.74
327.666	26.45
327.879	71.51
328.092	122.71
328.305	96.08
328.518	10.07
328.731	36.69
328.944	77.65
329.157	83.8
329.37	79.7
329.583	59.22
329.796	124.76
330.009	53.08
330.222	124.76
330.435	106.32
330.648	69.46
330.861	165.71
331.073	91.99
331.286	94.04
331.499	75.6
331.712	106.32
331.925	67.41
332.138	73.56
332.35	75.6
332.563	96.08
332.776	85.84
332.989	34.64
333.202	67.41
333.414	59.22
333.627	94.04
333.84	22.36
334.053	63.32
334.265	83.8
334.478	126.8
334.691	73.56
334.903	100.18
335.116	59.22
335.329	42.84
335.541	110.42
335.754	151.38
335.966	104.28
336.179	20.31
336.392	5.97
336.604	71.51
336.817	96.08
337.029	75.6
337.242	65.36
337.454	67.41
337.667	10.07
337.88	69.46
338.092	116.56
338.305	26.45
338.517	14.17
338.729	85.84
338.942	44.88
339.154	42.84
339.367	96.08
339.579	75.6
339.792	14.17
340.004	108.37
340.217	-22.7
340.429	69.46
340.641	42.84
340.854	42.84
341.066	57.17
341.278	173.91
341.491	51.03
341.703	53.08
341.915	38.74
342.128	69.46
342.34	59.22
342.552	51.03
342.764	-6.31
342.977	46.93
343.189	55.12
343.401	67.41
343.613	63.32
343.826	120.66
344.038	51.03
344.25	67.41
344.462	83.8
344.674	96.08
344.886	1.88
345.099	85.84
345.311	100.18
345.523	83.8
345.735	51.03
345.947	135
346.159	71.51
346.371	55.12
346.583	81.75
346.795	116.56
347.007	3.93
347.219	85.84
347.431	38.74
347.643	143.19
347.855	42.84
348.067	75.6
348.279	-14.51
348.491	53.08
348.703	83.8
348.915	94.04
349.127	106.32
349.339	141.14
349.551	38.74
349.763	112.47
349.975	126.8
350.187	157.52
350.399	91.99
350.61	126.8
350.822	118.61
351.034	128.85
351.246	77.65
351.458	83.8
351.669	16.21
351.881	96.08
352.093	42.84
352.305	114.52
352.517	77.65
352.728	124.76
352.94	65.36
353.152	100.18
353.363	46.93
353.575	51.03
353.787	141.14
353.999	67.41
354.21	149.33
354.422	22.36
354.633	67.41
354.845	96.08
355.057	79.7
355.268	124.76
355.48	104.28
355.692	28.5
355.903	91.99
356.115	69.46
356.326	26.45
356.538	67.41
356.749	12.12
356.961	171.86
357.172	141.14
357.384	28.5
357.595	91.99
357.807	51.03
358.018	89.94
358.23	46.93
358.441	96.08
358.653	110.42
358.864	59.22
359.075	83.8
359.287	30.55
359.498	124.76
359.709	120.66
359.921	85.84
360.132	83.8
360.344	65.36
360.555	34.64
360.766	108.37
360.977	100.18
361.189	110.42
361.4	77.65
361.611	110.42
361.823	108.37
362.034	173.91
362.245	100.18
362.456	102.23
362.667	96.08
362.879	128.85
363.09	79.7
363.301	94.04
363.512	30.55
363.723	108.37
363.935	51.03
364.146	132.95
364.357	79.7
364.568	38.74
364.779	16.21
364.99	137.04
365.201	-22.7
365.412	85.84
365.623	63.32
365.834	130.9
366.045	61.27
366.256	132.95
366.467	61.27
366.678	69.46
366.889	22.36
367.1	98.13
367.311	190.29
367.522	79.7
367.733	167.76
367.944	75.6
368.155	61.27
368.366	104.28
368.577	110.42
368.788	114.52
368.999	87.89
369.209	1.88
369.42	200.53
369.631	233.3
369.842	91.99
370.053	120.66
370.264	83.8
370.474	-39.08
370.685	110.42
370.896	59.22
371.107	75.6
371.317	120.66
371.528	34.64
371.739	85.84
371.95	83.8
372.16	53.08
372.371	51.03
372.582	42.84
372.792	116.56
373.003	122.71
373.214	75.6
373.424	145.24
373.635	3.93
373.846	83.8
374.056	98.13
374.267	100.18
374.477	83.8
374.688	100.18
374.898	94.04
375.109	141.14
375.319	42.84
375.53	67.41
375.74	110.42
375.951	85.84
376.161	63.32
376.372	116.56
376.582	40.79
376.793	149.33
377.003	-4.27
377.214	1.88
377.424	108.37
377.635	51.03
377.845	116.56
378.055	143.19
378.266	83.8
378.476	159.57
378.686	36.69
378.897	114.52
379.107	108.37
379.317	75.6
379.528	116.56
379.738	110.42
379.948	18.26
380.158	141.14
380.369	59.22
380.579	124.76
380.789	42.84
380.999	135
381.21	28.5
381.42	182.1
381.63	100.18
381.84	139.09
382.05	51.03
382.261	112.47
382.471	143.19
382.681	116.56
382.891	118.61
383.101	159.57
383.311	46.93
383.521	71.51
383.731	81.75
383.941	120.66
384.151	94.04
384.361	116.56
384.571	77.65
384.781	100.18
384.991	171.86
385.201	218.96
385.411	135
385.621	132.95
385.831	77.65
386.041	128.85
386.251	67.41
386.461	69.46
386.671	36.69
386.881	186.19
387.091	114.52
387.301	94.04
387.511	102.23
387.72	149.33
387.93	182.1
388.14	71.51
388.35	171.86
388.56	165.71
388.769	192.34
388.979	161.62
389.189	104.28
389.399	161.62
389.609	94.04
389.818	137.04
390.028	116.56
390.238	132.95
390.447	85.84
390.657	143.19
390.867	124.76
391.076	59.22
391.286	91.99
391.496	67.41
391.705	91.99
391.915	194.39
392.125	110.42
392.334	110.42
392.544	71.51
392.753	190.29
392.963	112.47
393.172	132.95
393.382	104.28
393.591	161.62
393.801	135
394.01	182.1
394.22	69.46
394.429	38.74
394.639	69.46
394.848	141.14
395.058	141.14
395.267	186.19
395.477	184.15
395.686	126.8
395.895	165.71
396.105	208.72
396.314	161.62
396.524	116.56
396.733	75.6
396.942	178
397.152	145.24
397.361	175.95
397.57	165.71
397.78	141.14
397.989	180.05
398.198	223.06
398.407	190.29
398.617	94.04
398.826	157.52
399.035	126.8
399.244	204.63
399.453	173.91
399.663	182.1
399.872	196.43
400.081	108.37
400.29	288.59
400.499	143.19
400.708	151.38
400.917	218.96
401.127	190.29
401.336	167.76
401.545	341.84
401.754	243.54
401.963	214.87
402.172	223.06
402.381	149.33
402.59	165.71
402.799	210.77
403.008	208.72
403.217	257.87
403.426	253.78
403.635	165.71
403.844	212.82
404.053	239.44
404.262	184.15
404.471	321.36
404.68	251.73
404.888	292.69
405.097	221.01
405.306	331.6
405.515	292.69
405.724	237.39
405.933	315.22
406.142	278.35
406.35	315.22
406.559	247.63
406.768	272.21
406.977	372.56
407.185	358.22
407.394	354.13
407.603	300.88
407.812	419.66
408.02	479.05
408.229	292.69
408.438	438.09
408.646	378.7
408.855	390.99
409.064	522.06
409.272	421.71
409.481	468.81
409.69	454.48
409.898	468.81
410.107	487.25
410.315	542.54
410.524	501.58
410.733	634.7
410.941	571.21
411.15	591.69
411.358	608.08
411.567	773.96
411.775	649.04
411.984	706.38
412.192	821.06
412.401	614.22
412.609	765.77
412.818	814.92
413.026	792.39
413.234	806.73
413.443	882.5
413.651	855.88
413.86	927.56
414.068	1005.38
414.276	1136.45
414.485	1015.62
414.693	1075.01
414.901	1150.79
415.11	1144.64
415.318	1148.74
415.526	1238.85
415.734	1316.67
415.943	1363.78
416.151	1380.16
416.359	1363.78
416.567	1404.74
416.776	1515.33
416.984	1492.8
417.192	1513.28
417.4	1595.2
417.608	1617.72
417.817	1730.36
418.025	1656.64
418.233	1980.22
418.441	1986.36
418.649	2010.93
418.857	2111.29
419.065	2152.24
419.273	2074.42
419.481	2213.68
419.689	2352.95
419.897	2520.88
420.105	2461.49
420.313	2574.13
420.521	2766.64
420.729	2658.09
420.937	2729.77
421.145	2950.95
421.353	3059.49
421.561	3020.58
421.769	3176.23
421.977	3430.18
422.185	3270.44
422.393	3630.88
422.601	3714.84
422.809	3682.08
423.017	3878.68
423.224	4077.34
423.432	4030.23
423.64	4136.73
423.848	4394.77
424.056	4396.82
424.263	4644.62
424.471	4728.59
424.679	4800.27
424.887	5056.26
425.094	5125.9
425.302	5207.81
425.51	5369.6
425.718	5547.78
425.925	5766.91
426.133	5910.27
426.341	6090.49
426.548	6344.44
426.756	6553.33
426.964	6463.22
427.171	6792.94
427.379	7112.42
427.586	7204.58
427.794	7548.64
428.001	7618.27
428.209	8154.84
428.417	7800.54
428.624	8603.35
428.832	8365.78
429.039	8599.25
429.247	8408.79
429.454	9141.96
429.662	9903.81
429.869	9541.32
430.076	9891.52
430.284	9547.46
430.491	10008.25
430.699	10610.36
430.906	10507.96
431.114	10770.1
431.321	11189.93
431.528	11341.48
431.736	11937.44
431.943	12658.32
432.15	12412.57
432.358	12390.04
432.565	13207.18
432.772	13078.16
432.979	13635.21
433.187	13921.92
433.394	13837.95
433.601	14855.79
433.808	15109.74
434.016	14906.99
434.223	15357.55
434.43	16438.87
434.637	15947.36
434.844	16926.29
435.052	17307.21
435.259	17165.9
435.466	17569.35
435.673	17299.02
435.88	18419.26
436.087	19250.74
436.294	19205.68
436.501	19260.98
436.708	19299.89
436.915	20033.06
437.122	21011.99
437.329	20829.72
437.537	21437.97
437.743	21714.44
437.95	21571.08
438.157	22719.99
438.364	23467.5
438.571	23399.92
438.778	23926.25
438.985	25552.34
439.192	24614.37
439.399	25451.98
439.606	24700.38
439.813	26744.25
440.02	27747.76
440.227	27143.61
440.433	27047.35
440.64	27729.33
440.847	27803.05
441.054	28286.37
441.261	30569.86
441.467	29883.79
441.674	30391.69
441.881	31604.08
442.088	31425.91
442.294	31139.19
442.501	31915.37
442.708	32339.3
442.914	33641.81
443.121	35192.12
443.328	34305.35
443.534	36752.68
443.741	35831.09
443.948	34925.89
444.154	37817.62
444.361	37672.21
444.568	37590.3
444.774	37696.79
444.981	38006.03
445.187	39154.94
445.394	41008.36
445.6	40580.33
445.807	44178.61
446.013	42446.03
446.22	42855.62
446.426	44686.51
446.633	44903.59
446.839	46521.49
447.046	44815.53
447.252	46447.76
447.459	46943.37
447.665	46953.61
447.871	48737.39
448.078	50709.58
448.284	48266.36
448.491	49744.99
448.697	51645.51
448.903	52374.58
449.11	52597.81
449.316	51641.41
449.522	52790.32
449.728	54211.61
449.935	54483.99
450.141	54328.34
450.347	55450.63
450.553	54004.77
450.76	54246.43
450.966	55671.81
451.172	55432.2
451.378	57021.42
451.584	55770.11
451.791	57228.27
451.997	56757.24
452.203	57891.81
452.409	57881.57
452.615	57390.06
452.821	55604.23
453.027	54389.78
453.233	58100.7
453.44	55409.67
453.646	55802.88
453.852	56278.01
454.058	56943.6
454.264	55606.28
454.47	56531.96
454.676	54832.14
454.882	57175.02
455.088	52536.37
455.294	53169.19
455.5	53908.51
455.705	54328.34
455.911	52497.46
456.117	51330.12
456.323	50746.45
456.529	47928.44
456.735	50445.4
456.941	48774.25
457.147	48313.46
457.352	46693.52
457.558	46462.1
457.764	46556.3
457.97	45581.47
458.176	44397.74
458.381	44678.32
458.587	42347.73
458.793	42228.94
458.999	39775.48
459.204	42661.07
459.41	41782.49
459.616	39243.01
459.821	38911.24
460.027	39146.75
460.233	37987.6
460.438	36429.1
460.644	36855.07
460.85	34915.65
461.055	34379.08
461.261	34366.79
461.466	31970.67
461.672	30774.66
461.878	33037.66
462.083	31212.92
462.289	30492.04
462.494	30135.69
462.7	28683.68
462.905	27860.4
463.111	28800.41
463.316	28939.68
463.522	28560.8
463.727	28409.25
463.932	28284.33
464.138	27590.06
464.343	27932.08
464.549	27561.39
464.754	28165.54
464.959	28065.19
465.165	28007.85
