Data from USB4F104151__5__14-28-22-435.txt Node

Date: Thu Mar 13 14:28:22 EDT 2025
User: louis
Spectrometer: USB4F10415
Trigger mode: 4
Integration Time (sec): 2.500000E-2
Scans to average: 1
Electric dark correction enabled: true
Nonlinearity correction enabled: false
Boxcar width: 0
XAxis mode: Wavelengths
Number of Pixels in Spectrum: 3648
>>>>>Begin Spectral Data<<<<<
178.204	-24.06
178.424	-24.06
178.644	-24.06
178.864	-52.74
179.084	-148.99
179.304	-13.82
179.524	66.05
179.744	-9.73
179.964	20.99
180.184	0.51
180.404	-85.5
180.624	10.75
180.844	-34.3
181.064	-9.73
181.283	27.14
181.503	14.85
181.723	12.8
181.943	4.61
182.163	70.14
182.383	25.09
182.602	74.24
182.822	80.38
183.042	6.66
183.262	-48.64
183.482	33.28
183.701	-7.68
183.921	64
184.141	4.61
184.361	90.62
184.58	45.57
184.8	76.29
185.02	-11.78
185.239	113.15
185.459	4.61
185.679	55.81
185.898	-34.3
186.118	143.87
186.338	20.99
186.557	64
186.777	-3.58
186.997	70.14
187.216	25.09
187.436	45.57
187.655	68.09
187.875	82.43
188.095	18.94
188.314	10.75
188.534	53.76
188.753	49.66
188.973	31.23
189.192	37.38
189.412	49.66
189.631	70.14
189.851	23.04
190.07	78.33
190.29	45.57
190.509	94.72
190.729	43.52
190.948	66.05
191.168	162.3
191.387	80.38
191.607	92.67
191.826	55.81
192.045	68.09
192.265	86.53
192.484	20.99
192.704	-1.54
192.923	-32.26
193.142	66.05
193.362	33.28
193.581	41.47
193.8	4.61
194.02	86.53
194.239	102.91
194.458	70.14
194.678	20.99
194.897	31.23
195.116	45.57
195.335	57.86
195.555	51.71
195.774	-56.83
195.993	88.57
196.212	53.76
196.432	57.86
196.651	-13.82
196.87	14.85
197.089	168.45
197.308	45.57
197.528	102.91
197.747	-60.93
197.966	41.47
198.185	49.66
198.404	61.95
198.623	66.05
198.842	137.73
199.062	76.29
199.281	45.57
199.5	55.81
199.719	96.77
199.938	74.24
200.157	113.15
200.376	16.9
200.595	98.81
200.814	100.86
201.033	78.33
201.252	4.61
201.471	51.71
201.69	51.71
201.909	49.66
202.128	45.57
202.347	14.85
202.566	33.28
202.785	45.57
203.004	12.8
203.223	127.49
203.442	55.81
203.661	90.62
203.879	111.1
204.098	70.14
204.317	70.14
204.536	86.53
204.755	64
204.974	23.04
205.193	12.8
205.411	135.68
205.63	109.05
205.849	39.42
206.068	12.8
206.287	59.9
206.505	111.1
206.724	-5.63
206.943	-19.97
207.162	-28.16
207.381	-114.17
207.599	-15.87
207.818	59.9
208.037	-1.54
208.255	70.14
208.474	14.85
208.693	31.23
208.911	53.76
209.13	-24.06
209.349	-17.92
209.567	37.38
209.786	20.99
210.005	57.86
210.223	47.62
210.442	-65.02
210.661	45.57
210.879	49.66
211.098	27.14
211.316	74.24
211.535	172.54
211.753	37.38
211.972	53.76
212.191	25.09
212.409	-1.54
212.628	12.8
212.846	-9.73
213.065	23.04
213.283	129.53
213.502	2.56
213.72	20.99
213.938	74.24
214.157	25.09
214.375	66.05
214.594	-15.87
214.812	59.9
215.031	70.14
215.249	20.99
215.467	111.1
215.686	37.38
215.904	57.86
216.122	16.9
216.341	53.76
216.559	20.99
216.778	18.94
216.996	111.1
217.214	37.38
217.432	6.66
217.651	-42.5
217.869	-28.16
218.087	59.9
218.306	18.94
218.524	-9.73
218.742	53.76
218.96	-11.78
219.179	45.57
219.397	47.62
219.615	133.63
219.833	98.81
220.051	25.09
220.27	86.53
220.488	59.9
220.706	66.05
220.924	14.85
221.142	59.9
221.36	64
221.578	64
221.796	18.94
222.015	-28.16
222.233	-40.45
222.451	102.91
222.669	0.51
222.887	16.9
223.105	-3.58
223.323	31.23
223.541	41.47
223.759	107.01
223.977	92.67
224.195	39.42
224.413	14.85
224.631	111.1
224.849	-9.73
225.067	123.39
225.285	61.95
225.503	29.18
225.721	-19.97
225.939	-44.54
226.157	80.38
226.375	201.21
226.592	16.9
226.81	68.09
227.028	45.57
227.246	70.14
227.464	121.34
227.682	45.57
227.9	35.33
228.117	55.81
228.335	31.23
228.553	41.47
228.771	57.86
228.989	61.95
229.206	86.53
229.424	-19.97
229.642	49.66
229.86	18.94
230.077	47.62
230.295	45.57
230.513	70.14
230.731	94.72
230.948	82.43
231.166	174.59
231.384	8.7
231.601	39.42
231.819	86.53
232.037	27.14
232.254	-93.69
232.472	53.76
232.689	-17.92
232.907	94.72
233.125	27.14
233.342	-3.58
233.56	-26.11
233.777	61.95
233.995	64
234.213	135.68
234.43	14.85
234.648	53.76
234.865	4.61
235.083	6.66
235.3	43.52
235.518	90.62
235.735	98.81
235.953	86.53
236.17	80.38
236.388	66.05
236.605	29.18
236.822	70.14
237.04	74.24
237.257	39.42
237.475	102.91
237.692	88.57
237.909	70.14
238.127	45.57
238.344	59.9
238.562	23.04
238.779	37.38
238.996	33.28
239.214	-26.11
239.431	94.72
239.648	90.62
239.865	80.38
240.083	84.48
240.3	6.66
240.517	68.09
240.735	55.81
240.952	70.14
241.169	94.72
241.386	35.33
241.603	-11.78
241.821	-93.69
242.038	107.01
242.255	4.61
242.472	-13.82
242.689	8.7
242.907	-3.58
243.124	39.42
243.341	25.09
243.558	31.23
243.775	72.19
243.992	12.8
244.209	70.14
244.426	88.57
244.643	43.52
244.86	33.28
245.078	90.62
245.295	41.47
245.512	12.8
245.729	20.99
245.946	59.9
246.163	86.53
246.38	70.14
246.597	129.53
246.814	66.05
247.031	121.34
247.248	-30.21
247.464	-11.78
247.681	45.57
247.898	64
248.115	78.33
248.332	61.95
248.549	78.33
248.766	119.29
248.983	70.14
249.2	86.53
249.417	53.76
249.633	-22.02
249.85	57.86
250.067	-26.11
250.284	55.81
250.501	100.86
250.717	104.96
250.934	8.7
251.151	25.09
251.368	35.33
251.585	74.24
251.801	45.57
252.018	-15.87
252.235	43.52
252.451	66.05
252.668	39.42
252.885	16.9
253.102	45.57
253.318	-52.74
253.535	39.42
253.752	47.62
253.968	31.23
254.185	41.47
254.401	66.05
254.618	45.57
254.835	27.14
255.051	102.91
255.268	59.9
255.484	31.23
255.701	12.8
255.917	94.72
256.134	47.62
256.351	53.76
256.567	20.99
256.784	-11.78
257	37.38
257.217	70.14
257.433	45.57
257.65	170.49
257.866	98.81
258.082	-19.97
258.299	53.76
258.515	25.09
258.732	66.05
258.948	18.94
259.165	68.09
259.381	4.61
259.597	111.1
259.814	-7.68
260.03	-3.58
260.246	96.77
260.463	70.14
260.679	82.43
260.895	37.38
261.112	80.38
261.328	80.38
261.544	16.9
261.761	72.19
261.977	29.18
262.193	-3.58
262.409	88.57
262.626	25.09
262.842	94.72
263.058	-17.92
263.274	61.95
263.49	49.66
263.707	4.61
263.923	119.29
264.139	20.99
264.355	10.75
264.571	4.61
264.787	31.23
265.004	29.18
265.22	10.75
265.436	20.99
265.652	74.24
265.868	92.67
266.084	12.8
266.3	-5.63
266.516	-17.92
266.732	86.53
266.948	90.62
267.164	78.33
267.38	53.76
267.596	43.52
267.812	55.81
268.028	72.19
268.244	-69.12
268.46	37.38
268.676	-17.92
268.892	68.09
269.108	-19.97
269.324	-9.73
269.54	16.9
269.756	121.34
269.972	39.42
270.188	66.05
270.403	-40.45
270.619	53.76
270.835	41.47
271.051	29.18
271.267	70.14
271.483	41.47
271.698	-19.97
271.914	49.66
272.13	6.66
272.346	53.76
272.562	86.53
272.777	72.19
272.993	96.77
273.209	41.47
273.425	119.29
273.64	41.47
273.856	45.57
274.072	14.85
274.287	102.91
274.503	33.28
274.719	94.72
274.934	37.38
275.15	57.86
275.366	-3.58
275.581	12.8
275.797	25.09
276.012	64
276.228	47.62
276.444	20.99
276.659	37.38
276.875	-19.97
277.09	39.42
277.306	-1.54
277.521	72.19
277.737	6.66
277.952	45.57
278.168	53.76
278.383	64
278.599	78.33
278.814	109.05
279.03	25.09
279.245	47.62
279.461	33.28
279.676	104.96
279.892	29.18
280.107	14.85
280.322	8.7
280.538	53.76
280.753	-11.78
280.969	47.62
281.184	47.62
281.399	94.72
281.615	4.61
281.83	78.33
282.045	14.85
282.26	68.09
282.476	80.38
282.691	78.33
282.906	74.24
283.122	-3.58
283.337	16.9
283.552	55.81
283.767	29.18
283.983	74.24
284.198	72.19
284.413	100.86
284.628	16.9
284.843	94.72
285.058	78.33
285.274	-3.58
285.489	20.99
285.704	127.49
285.919	-44.54
286.134	31.23
286.349	80.38
286.564	53.76
286.779	123.39
286.995	49.66
287.21	-83.45
287.425	20.99
287.64	53.76
287.855	64
288.07	-44.54
288.285	125.44
288.5	-28.16
288.715	53.76
288.93	16.9
289.145	-7.68
289.36	80.38
289.575	104.96
289.79	104.96
290.004	31.23
290.219	143.87
290.434	55.81
290.649	23.04
290.864	64
291.079	80.38
291.294	41.47
291.509	35.33
291.724	127.49
291.938	37.38
292.153	23.04
292.368	23.04
292.583	29.18
292.798	94.72
293.012	88.57
293.227	-44.54
293.442	113.15
293.657	20.99
293.871	94.72
294.086	61.95
294.301	94.72
294.516	29.18
294.73	16.9
294.945	33.28
295.16	14.85
295.374	109.05
295.589	72.19
295.804	6.66
296.018	61.95
296.233	70.14
296.447	39.42
296.662	6.66
296.877	53.76
297.091	59.9
297.306	78.33
297.52	90.62
297.735	94.72
297.949	23.04
298.164	47.62
298.378	53.76
298.593	80.38
298.807	-42.5
299.022	0.51
299.236	47.62
299.451	82.43
299.665	55.81
299.88	78.33
300.094	55.81
300.309	90.62
300.523	96.77
300.737	31.23
300.952	23.04
301.166	25.09
301.381	-1.54
301.595	31.23
301.809	4.61
302.024	37.38
302.238	12.8
302.452	117.25
302.667	-1.54
302.881	70.14
303.095	137.73
303.309	55.81
303.524	37.38
303.738	-38.4
303.952	-36.35
304.166	96.77
304.381	-30.21
304.595	33.28
304.809	-17.92
305.023	92.67
305.237	59.9
305.452	49.66
305.666	102.91
305.88	64
306.094	64
306.308	49.66
306.522	96.77
306.736	131.58
306.95	78.33
307.164	102.91
307.379	-3.58
307.593	129.53
307.807	113.15
308.021	25.09
308.235	68.09
308.449	-28.16
308.663	16.9
308.877	104.96
309.091	31.23
309.305	37.38
309.519	16.9
309.733	64
309.947	14.85
310.161	135.68
310.374	53.76
310.588	49.66
310.802	25.09
311.016	123.39
311.23	27.14
311.444	-7.68
311.658	70.14
311.872	74.24
312.085	27.14
312.299	29.18
312.513	102.91
312.727	66.05
312.941	90.62
313.154	49.66
313.368	152.06
313.582	61.95
313.796	53.76
314.009	90.62
314.223	119.29
314.437	4.61
314.651	61.95
314.864	96.77
315.078	45.57
315.292	39.42
315.505	0.51
315.719	53.76
315.933	64
316.146	70.14
316.36	-26.11
316.573	152.06
316.787	45.57
317.001	61.95
317.214	8.7
317.428	61.95
317.641	4.61
317.855	49.66
318.068	-24.06
318.282	80.38
318.495	127.49
318.709	64
318.922	100.86
319.136	121.34
319.349	61.95
319.563	20.99
319.776	84.48
319.99	98.81
320.203	8.7
320.417	-3.58
320.63	-15.87
320.843	102.91
321.057	41.47
321.27	94.72
321.483	45.57
321.697	139.77
321.91	47.62
322.124	119.29
322.337	45.57
322.55	37.38
322.763	37.38
322.977	80.38
323.19	12.8
323.403	104.96
323.617	39.42
323.83	57.86
324.043	70.14
324.256	18.94
324.469	10.75
324.683	80.38
324.896	80.38
325.109	64
325.322	31.23
325.535	39.42
325.748	94.72
325.962	25.09
326.175	88.57
326.388	102.91
326.601	143.87
326.814	94.72
327.027	4.61
327.24	66.05
327.453	20.99
327.666	-3.58
327.879	66.05
328.092	4.61
328.305	20.99
328.518	31.23
328.731	12.8
328.944	94.72
329.157	20.99
329.37	47.62
329.583	186.88
329.796	119.29
330.009	-3.58
330.222	4.61
330.435	37.38
330.648	119.29
330.861	45.57
331.073	41.47
331.286	117.25
331.499	150.01
331.712	57.86
331.925	49.66
332.138	57.86
332.35	137.73
332.563	23.04
332.776	25.09
332.989	-19.97
333.202	82.43
333.414	82.43
333.627	74.24
333.84	64
334.053	70.14
334.265	20.99
334.478	70.14
334.691	78.33
334.903	74.24
335.116	20.99
335.329	96.77
335.541	88.57
335.754	145.92
335.966	-3.58
336.179	86.53
336.392	61.95
336.604	20.99
336.817	-40.45
337.029	-17.92
337.242	33.28
337.454	86.53
337.667	-9.73
337.88	143.87
338.092	57.86
338.305	94.72
338.517	-15.87
338.729	20.99
338.942	135.68
339.154	-24.06
339.367	-3.58
339.579	61.95
339.792	-42.5
340.004	84.48
340.217	23.04
340.429	90.62
340.641	45.57
340.854	55.81
341.066	45.57
341.278	88.57
341.491	70.14
341.703	4.61
341.915	98.81
342.128	74.24
342.34	14.85
342.552	33.28
342.764	86.53
342.977	72.19
343.189	66.05
343.401	68.09
343.613	37.38
343.826	37.38
344.038	-7.68
344.25	72.19
344.462	20.99
344.674	102.91
344.886	82.43
345.099	100.86
345.311	66.05
345.523	98.81
345.735	37.38
345.947	94.72
346.159	51.71
346.371	96.77
346.583	64
346.795	115.2
347.007	102.91
347.219	31.23
347.431	94.72
347.643	186.88
347.855	70.14
348.067	131.58
348.279	20.99
348.491	80.38
348.703	45.57
348.915	90.62
349.127	20.99
349.339	74.24
349.551	12.8
349.763	107.01
349.975	4.61
350.187	111.1
350.399	143.87
350.61	6.66
350.822	12.8
351.034	37.38
351.246	33.28
351.458	64
351.669	49.66
351.881	86.53
352.093	57.86
352.305	127.49
352.517	78.33
352.728	168.45
352.94	55.81
353.152	92.67
353.363	119.29
353.575	29.18
353.787	127.49
353.999	70.14
354.21	102.91
354.422	6.66
354.633	45.57
354.845	78.33
355.057	33.28
355.268	70.14
355.48	20.99
355.692	-11.78
355.903	8.7
356.115	135.68
356.326	16.9
356.538	152.06
356.749	74.24
356.961	135.68
357.172	39.42
357.384	16.9
357.595	121.34
357.807	29.18
358.018	90.62
358.23	49.66
358.441	248.32
358.653	4.61
358.864	39.42
359.075	53.76
359.287	-3.58
359.498	123.39
359.709	33.28
359.921	12.8
360.132	6.66
360.344	55.81
360.555	-15.87
360.766	96.77
360.977	72.19
361.189	20.99
361.4	61.95
361.611	-28.16
361.823	39.42
362.034	129.53
362.245	4.61
362.456	70.14
362.667	98.81
362.879	61.95
363.09	111.1
363.301	78.33
363.512	39.42
363.723	90.62
363.935	41.47
364.146	102.91
364.357	82.43
364.568	53.76
364.779	6.66
364.99	113.15
365.201	86.53
365.412	137.73
365.623	0.51
365.834	80.38
366.045	66.05
366.256	49.66
366.467	66.05
366.678	70.14
366.889	43.52
367.1	94.72
367.311	47.62
367.522	10.75
367.733	70.14
367.944	70.14
368.155	20.99
368.366	47.62
368.577	55.81
368.788	82.43
368.999	94.72
369.209	88.57
369.42	88.57
369.631	131.58
369.842	98.81
370.053	94.72
370.264	129.53
370.474	51.71
370.685	70.14
370.896	64
371.107	78.33
371.317	70.14
371.528	14.85
371.739	127.49
371.95	88.57
372.16	53.76
372.371	80.38
372.582	119.29
372.792	53.76
373.003	43.52
373.214	64
373.424	25.09
373.635	80.38
373.846	119.29
374.056	66.05
374.267	86.53
374.477	66.05
374.688	139.77
374.898	45.57
375.109	123.39
375.319	59.9
375.53	102.91
375.74	61.95
375.951	-36.35
376.161	23.04
376.372	78.33
376.582	66.05
376.793	61.95
377.003	72.19
377.214	23.04
377.424	100.86
377.635	119.29
377.845	86.53
378.055	121.34
378.266	57.86
378.476	107.01
378.686	94.72
378.897	127.49
379.107	147.97
379.317	104.96
379.528	107.01
379.738	90.62
379.948	-1.54
380.158	78.33
380.369	59.9
380.579	78.33
380.789	39.42
380.999	57.86
381.21	29.18
381.42	152.06
381.63	82.43
381.84	61.95
382.05	55.81
382.261	115.2
382.471	154.11
382.681	29.18
382.891	80.38
383.101	107.01
383.311	12.8
383.521	76.29
383.731	82.43
383.941	94.72
384.151	145.92
384.361	64
384.571	45.57
384.781	31.23
384.991	162.3
385.201	37.38
385.411	145.92
385.621	186.88
385.831	135.68
386.041	45.57
386.251	45.57
386.461	115.2
386.671	57.86
386.881	88.57
387.091	84.48
387.301	119.29
387.511	18.94
387.72	88.57
387.93	72.19
388.14	37.38
388.35	33.28
388.56	86.53
388.769	186.88
388.979	98.81
389.189	70.14
389.399	57.86
389.609	158.21
389.818	70.14
390.028	72.19
390.238	94.72
390.447	147.97
390.657	70.14
390.867	27.14
391.076	25.09
391.286	82.43
391.496	100.86
391.705	20.99
391.915	141.82
392.125	41.47
392.334	104.96
392.544	207.36
392.753	121.34
392.963	90.62
393.172	70.14
393.382	61.95
393.591	180.73
393.801	119.29
394.01	137.73
394.22	178.69
394.429	80.38
394.639	37.38
394.848	119.29
395.058	100.86
395.267	137.73
395.477	90.62
395.686	111.1
395.895	154.11
396.105	209.4
396.314	90.62
396.524	160.25
396.733	133.63
396.942	80.38
397.152	119.29
397.361	145.92
397.57	119.29
397.78	115.2
397.989	127.49
398.198	211.45
398.407	94.72
398.617	193.02
398.826	53.76
399.035	135.68
399.244	137.73
399.453	41.47
399.663	137.73
399.872	152.06
400.081	115.2
400.29	184.83
400.499	117.25
400.708	176.64
400.917	170.49
401.127	125.44
401.336	102.91
401.545	174.59
401.754	139.77
401.963	90.62
402.172	92.67
402.381	137.73
402.59	78.33
402.799	184.83
403.008	150.01
403.217	145.92
403.426	141.82
403.635	213.5
403.844	119.29
404.053	133.63
404.262	201.21
404.471	236.03
404.68	102.91
404.888	152.06
405.097	168.45
405.306	178.69
405.515	205.31
405.724	195.07
405.933	186.88
406.142	236.03
406.35	238.08
406.559	225.79
406.768	207.36
406.977	293.37
407.185	172.54
407.394	258.56
407.603	176.64
407.812	342.52
408.02	279.04
408.229	246.27
408.438	311.8
408.646	270.84
408.855	283.13
409.064	299.52
409.272	303.61
409.481	342.52
409.69	348.67
409.898	360.95
410.107	373.24
410.315	320
410.524	315.9
410.733	389.63
410.941	457.21
411.15	465.4
411.358	436.73
411.567	539.13
411.775	479.74
411.984	496.12
412.192	553.46
412.401	567.8
412.609	610.81
412.818	573.94
413.026	612.85
413.234	631.29
413.443	670.2
413.651	662.01
413.86	596.47
414.068	743.92
414.276	737.78
414.485	717.3
414.693	856.56
414.901	948.72
415.11	831.99
415.318	776.69
415.526	926.19
415.734	989.68
415.943	961.01
416.151	971.25
416.359	1067.5
416.567	1022.45
416.776	1049.07
416.984	1174
417.192	1180.14
417.4	1155.57
417.608	1241.58
417.817	1200.62
418.025	1329.64
418.233	1341.93
418.441	1282.54
418.649	1386.99
418.857	1464.81
419.065	1585.64
419.273	1520.1
419.481	1649.13
419.689	1692.13
419.897	1849.83
420.105	1851.88
420.313	1882.6
420.521	1876.45
420.729	2093.54
420.937	2056.67
421.145	2111.97
421.353	2208.22
421.561	2314.72
421.769	2343.39
421.977	2447.83
422.185	2552.28
422.393	2595.29
422.601	2773.46
422.809	2816.47
423.017	2767.32
423.224	2984.4
423.432	3066.32
423.64	3080.66
423.848	3316.17
424.056	3187.15
424.263	3420.62
424.471	3412.43
424.679	3432.91
424.887	3766.73
425.094	3738.05
425.302	3731.91
425.51	4094.4
425.718	4129.22
425.925	4082.11
426.133	4366.78
426.341	4360.64
426.548	4622.78
426.756	4616.63
426.964	4567.48
427.171	5018.04
427.379	5011.89
427.586	5116.34
427.794	5423.53
428.001	5661.1
428.209	5839.27
428.417	5806.5
428.624	6263.2
428.832	6302.11
429.039	6185.38
429.247	6085.03
429.454	6691.23
429.662	7127.44
429.869	6732.19
430.076	7184.79
430.284	6889.88
430.491	7373.2
430.699	7670.15
430.906	7647.63
431.114	7817.61
431.321	7979.4
431.528	8249.73
431.736	8593.79
431.943	9089.4
432.15	8866.17
432.358	9056.63
432.565	9417.07
432.772	9462.13
432.979	9632.11
433.187	9951.59
433.394	10152.29
433.601	10580.32
433.808	10690.91
434.016	10611.04
434.223	11309.4
434.43	11729.23
434.637	11702.61
434.844	12308.8
435.052	12554.56
435.259	12534.08
435.466	12421.44
435.673	12349.76
435.88	13185.33
436.087	13904.17
436.294	13785.39
436.501	13756.72
436.708	13996.33
436.915	14281
437.122	15112.47
437.329	14838.05
437.537	15384.85
437.743	15593.75
437.95	15171.86
438.157	16343.3
438.364	16664.83
438.571	16894.21
438.778	16818.43
438.985	18766.05
439.192	17686.77
439.399	18077.93
439.606	17926.38
439.813	18591.97
440.02	20076.75
440.227	19783.89
440.433	19644.63
440.64	20261.07
440.847	20009.17
441.054	20506.82
441.261	21788.85
441.467	21442.74
441.674	21778.61
441.881	22792.36
442.088	22448.3
442.294	22155.44
442.501	23019.68
442.708	23494.81
442.914	24459.4
443.121	25385.08
443.328	24780.93
443.534	26835.05
443.741	25690.23
443.948	25350.27
444.154	27261.02
444.361	27310.18
444.568	27070.56
444.774	27230.3
444.981	27279.46
445.187	28262.48
445.394	29458.49
445.6	29020.23
445.807	31766.56
446.013	30365.74
446.22	30871.59
446.426	32372.75
446.633	32704.52
446.839	33568.77
447.046	32102.42
447.252	34209.78
447.459	33912.83
447.665	33574.91
447.871	35280.87
448.078	36904.91
448.284	35039.21
448.491	36141.02
448.697	37300.17
448.903	38315.96
449.11	38260.66
449.316	37928.89
449.522	38350.77
449.728	39288.74
449.935	39714.72
450.141	39475.11
450.347	40462.23
450.553	39217.07
450.76	39505.83
450.966	41138.06
451.172	40378.26
451.378	41574.28
451.584	40591.25
451.791	41785.22
451.997	41211.79
452.203	42190.72
452.409	42604.41
452.615	42110.85
452.821	40357.78
453.027	39931.81
453.233	42491.77
453.44	40210.33
453.646	41099.15
453.852	41166.73
454.058	42133.37
454.264	40677.27
454.47	41463.69
454.676	40380.31
454.882	41486.21
455.088	38051.77
455.294	38784.94
455.5	39139.24
455.705	39657.38
455.911	37834.69
456.117	37355.46
456.323	36962.25
456.529	35094.5
456.735	36134.87
456.941	35452.9
457.147	35280.87
457.352	33990.65
457.558	33253.38
457.764	33961.98
457.97	32884.75
458.176	32329.75
458.381	32294.93
458.587	30445.62
458.793	30578.73
458.999	29245.51
459.204	31043.62
459.41	30074.93
459.616	28616.78
459.821	28303.44
460.027	28268.62
460.233	27701.34
460.438	26200.18
460.644	26243.18
460.85	25104.51
461.055	25118.85
461.261	24645.77
461.466	23251.1
461.672	22153.39
461.878	24105.1
462.083	22126.77
462.289	21989.55
462.494	21762.23
462.7	20838.59
462.905	20234.44
463.111	20908.22
463.316	20816.07
463.522	20371.66
463.727	20549.83
463.932	20746.44
464.138	20080.85
464.343	20259.02
464.549	19560.66
464.754	20375.75
464.959	20097.23
465.165	19886.29
465.37	19183.84
465.575	18555.11
465.781	19208.41
465.986	19306.71
466.191	18753.76
466.397	18323.69
466.602	17293.56
466.807	18055.4
467.012	18186.47
467.218	18086.12
