Data from USB4F104151__199__14-33-12-152.txt Node

Date: Thu Mar 13 14:33:12 EDT 2025
User: louis
Spectrometer: USB4F10415
Trigger mode: 4
Integration Time (sec): 2.500000E-2
Scans to average: 1
Electric dark correction enabled: true
Nonlinearity correction enabled: false
Boxcar width: 0
XAxis mode: Wavelengths
Number of Pixels in Spectrum: 3648
>>>>>Begin Spectral Data<<<<<
178.204	-130.73
178.424	-130.73
178.644	-130.73
178.864	-163.5
179.084	-93.87
179.304	49.49
179.524	-1.71
179.744	16.73
179.964	57.68
180.184	-7.85
180.404	-7.85
180.624	-16.04
180.844	49.49
181.064	-63.15
181.283	-16.04
181.503	-52.91
181.723	-7.85
181.943	-20.14
182.163	84.31
182.383	20.82
182.602	57.68
182.822	16.73
183.042	35.16
183.262	-26.28
183.482	-65.19
183.701	86.36
183.921	4.44
184.141	0.34
184.361	47.44
184.58	82.26
184.8	12.63
185.02	-7.85
185.239	16.73
185.459	26.96
185.679	98.64
185.898	-40.62
186.118	0.34
186.338	127.32
186.557	55.64
186.777	-32.43
186.997	24.92
187.216	65.88
187.436	123.22
187.655	59.73
187.875	61.78
188.095	-13.99
188.314	65.88
188.534	123.22
188.753	20.82
188.973	98.64
189.192	74.07
189.412	80.21
189.631	112.98
189.851	45.4
190.07	82.26
190.29	24.92
190.509	-16.04
190.729	12.63
190.948	22.87
191.168	94.55
191.387	74.07
191.607	10.58
191.826	-16.04
192.045	98.64
192.265	-18.09
192.484	55.64
192.704	6.49
192.923	-13.99
193.142	106.84
193.362	41.3
193.581	33.11
193.8	29.01
194.02	69.97
194.239	2.39
194.458	61.78
194.678	35.16
194.897	-9.9
195.116	45.4
195.335	-20.14
195.555	104.79
195.774	8.53
195.993	57.68
196.212	20.82
196.432	47.44
196.651	26.96
196.87	37.2
197.089	92.5
197.308	82.26
197.528	108.88
197.747	-1.71
197.966	33.11
198.185	84.31
198.404	49.49
198.623	78.16
198.842	-87.72
199.062	61.78
199.281	90.45
199.5	39.25
199.719	10.58
199.938	43.35
200.157	39.25
200.376	92.5
200.595	45.4
200.814	80.21
201.033	61.78
201.252	53.59
201.471	16.73
201.69	104.79
201.909	84.31
202.128	41.3
202.347	96.6
202.566	55.64
202.785	-38.57
203.004	45.4
203.223	145.75
203.442	-3.75
203.661	-26.28
203.879	-32.43
204.098	16.73
204.317	37.2
204.536	119.12
204.755	22.87
204.974	39.25
205.193	4.44
205.411	106.84
205.63	12.63
205.849	92.5
206.068	22.87
206.287	90.45
206.505	-5.8
206.724	8.53
206.943	-5.8
207.162	4.44
207.381	45.4
207.599	-24.23
207.818	115.03
208.037	31.06
208.255	104.79
208.474	26.96
208.693	-28.33
208.911	24.92
209.13	90.45
209.349	29.01
209.567	90.45
209.786	59.73
210.005	78.16
210.223	41.3
210.442	-44.71
210.661	35.16
210.879	39.25
211.098	33.11
211.316	86.36
211.535	76.12
211.753	43.35
211.972	10.58
212.191	41.3
212.409	41.3
212.628	149.84
212.846	-24.23
213.065	106.84
213.283	59.73
213.502	33.11
213.72	43.35
213.938	24.92
214.157	-3.75
214.375	69.97
214.594	-5.8
214.812	-3.75
215.031	29.01
215.249	67.92
215.467	65.88
215.686	53.59
215.904	84.31
216.122	-7.85
216.341	41.3
216.559	84.31
216.778	53.59
216.996	123.22
217.214	59.73
217.432	55.64
217.651	55.64
217.869	37.2
218.087	49.49
218.306	-5.8
218.524	82.26
218.742	0.34
218.96	90.45
219.179	22.87
219.397	24.92
219.615	123.22
219.833	37.2
220.051	72.02
220.27	37.2
220.488	35.16
220.706	6.49
220.924	24.92
221.142	57.68
221.36	45.4
221.578	-13.99
221.796	49.49
222.015	49.49
222.233	65.88
222.451	115.03
222.669	24.92
222.887	-22.19
223.105	33.11
223.323	-30.38
223.541	-7.85
223.759	-44.71
223.977	31.06
224.195	49.49
224.413	41.3
224.631	78.16
224.849	65.88
225.067	98.64
225.285	39.25
225.503	47.44
225.721	41.3
225.939	45.4
226.157	45.4
226.375	67.92
226.592	10.58
226.81	2.39
227.028	106.84
227.246	158.03
227.464	37.2
227.682	43.35
227.9	16.73
228.117	82.26
228.335	33.11
228.553	65.88
228.771	29.01
228.989	51.54
229.206	31.06
229.424	0.34
229.642	26.96
229.86	0.34
230.077	33.11
230.295	102.74
230.513	57.68
230.731	-9.9
230.948	106.84
231.166	82.26
231.384	16.73
231.601	49.49
231.819	102.74
232.037	22.87
232.254	4.44
232.472	76.12
232.689	65.88
232.907	119.12
233.125	6.49
233.342	16.73
233.56	-16.04
233.777	12.63
233.995	59.73
234.213	57.68
234.43	84.31
234.648	29.01
234.865	-7.85
235.083	76.12
235.3	76.12
235.518	53.59
235.735	115.03
235.953	76.12
236.17	69.97
236.388	-9.9
236.605	84.31
236.822	43.35
237.04	33.11
237.257	65.88
237.475	-3.75
237.692	57.68
237.909	-13.99
238.127	10.58
238.344	24.92
238.562	26.96
238.779	2.39
238.996	37.2
239.214	8.53
239.431	51.54
239.648	76.12
239.865	20.82
240.083	76.12
240.3	49.49
240.517	-7.85
240.735	65.88
240.952	20.82
241.169	49.49
241.386	-11.95
241.603	49.49
241.821	24.92
242.038	69.97
242.255	16.73
242.472	57.68
242.689	104.79
242.907	141.65
243.124	139.6
243.341	90.45
243.558	-52.91
243.775	8.53
243.992	8.53
244.209	72.02
244.426	65.88
244.643	24.92
244.86	-89.77
245.078	49.49
245.295	63.83
245.512	43.35
245.729	24.92
245.946	100.69
246.163	33.11
246.38	16.73
246.597	-7.85
246.814	49.49
247.031	-3.75
247.248	108.88
247.464	72.02
247.681	24.92
247.898	117.08
248.115	4.44
248.332	26.96
248.549	65.88
248.766	94.55
248.983	61.78
249.2	35.16
249.417	37.2
249.633	24.92
249.85	24.92
250.067	57.68
250.284	39.25
250.501	2.39
250.717	65.88
250.934	12.63
251.151	86.36
251.368	33.11
251.585	65.88
251.801	-13.99
252.018	82.26
252.235	72.02
252.451	45.4
252.668	63.83
252.885	67.92
253.102	2.39
253.318	12.63
253.535	69.97
253.752	33.11
253.968	51.54
254.185	24.92
254.401	37.2
254.618	-22.19
254.835	8.53
255.051	76.12
255.268	33.11
255.484	49.49
255.701	94.55
255.917	92.5
256.134	-24.23
256.351	135.51
256.567	-13.99
256.784	41.3
257	-34.47
257.217	112.98
257.433	123.22
257.65	4.44
257.866	82.26
258.082	55.64
258.299	51.54
258.515	80.21
258.732	0.34
258.948	22.87
259.165	16.73
259.381	18.77
259.597	0.34
259.814	74.07
260.03	22.87
260.246	-46.76
260.463	96.6
260.679	43.35
260.895	78.16
261.112	16.73
261.328	4.44
261.544	-20.14
261.761	135.51
261.977	26.96
262.193	-61.1
262.409	41.3
262.626	0.34
262.842	82.26
263.058	10.58
263.274	106.84
263.49	82.26
263.707	104.79
263.923	57.68
264.139	0.34
264.355	49.49
264.571	90.45
264.787	12.63
265.004	92.5
265.22	-67.24
265.436	57.68
265.652	102.74
265.868	88.4
266.084	18.77
266.3	84.31
266.516	4.44
266.732	63.83
266.948	90.45
267.164	80.21
267.38	84.31
267.596	37.2
267.812	119.12
268.028	-3.75
268.244	22.87
268.46	57.68
268.676	51.54
268.892	51.54
269.108	10.58
269.324	-57
269.54	82.26
269.756	115.03
269.972	4.44
270.188	49.49
270.403	41.3
270.619	80.21
270.835	74.07
271.051	41.3
271.267	29.01
271.483	12.63
271.698	41.3
271.914	90.45
272.13	-40.62
272.346	63.83
272.562	4.44
272.777	29.01
272.993	-36.52
273.209	61.78
273.425	55.64
273.64	0.34
273.856	151.89
274.072	84.31
274.287	33.11
274.503	72.02
274.719	24.92
274.934	41.3
275.15	-22.19
275.366	26.96
275.581	-32.43
275.797	-5.8
276.012	59.73
276.228	47.44
276.444	16.73
276.659	-22.19
276.875	-48.81
277.09	-22.19
277.306	49.49
277.521	35.16
277.737	57.68
277.952	84.31
278.168	20.82
278.383	121.17
278.599	76.12
278.814	67.92
279.03	108.88
279.245	59.73
279.461	115.03
279.676	-28.33
279.892	61.78
280.107	41.3
280.322	-32.43
280.538	41.3
280.753	-57
280.969	41.3
281.184	-11.95
281.399	80.21
281.615	49.49
281.83	76.12
282.045	-32.43
282.26	24.92
282.476	2.39
282.691	78.16
282.906	49.49
283.122	8.53
283.337	-3.75
283.552	14.68
283.767	8.53
283.983	94.55
284.198	26.96
284.413	102.74
284.628	14.68
284.843	31.06
285.058	90.45
285.274	41.3
285.489	-52.91
285.704	57.68
285.919	88.4
286.134	20.82
286.349	41.3
286.564	-1.71
286.779	-22.19
286.995	29.01
287.21	16.73
287.425	92.5
287.64	59.73
287.855	4.44
288.07	-50.86
288.285	16.73
288.5	8.53
288.715	72.02
288.93	74.07
289.145	-1.71
289.36	164.18
289.575	4.44
289.79	26.96
290.004	-24.23
290.219	86.36
290.434	8.53
290.649	-16.04
290.864	59.73
291.079	-7.85
291.294	49.49
291.509	88.4
291.724	82.26
291.938	98.64
292.153	16.73
292.368	61.78
292.583	100.69
292.798	-28.33
293.012	24.92
293.227	98.64
293.442	-22.19
293.657	61.78
293.871	125.27
294.086	-3.75
294.301	119.12
294.516	72.02
294.73	20.82
294.945	16.73
295.16	8.53
295.374	2.39
295.589	10.58
295.804	-34.47
296.018	8.53
296.233	98.64
296.447	69.97
296.662	12.63
296.877	61.78
297.091	143.7
297.306	74.07
297.52	41.3
297.735	14.68
297.949	106.84
298.164	102.74
298.378	67.92
298.593	90.45
298.807	18.77
299.022	57.68
299.236	110.93
299.451	4.44
299.665	106.84
299.88	20.82
300.094	-13.99
300.309	20.82
300.523	53.59
300.737	43.35
300.952	14.68
301.166	43.35
301.381	92.5
301.595	61.78
301.809	59.73
302.024	59.73
302.238	-3.75
302.452	65.88
302.667	43.35
302.881	49.49
303.095	57.68
303.309	-7.85
303.524	45.4
303.738	12.63
303.952	29.01
304.166	51.54
304.381	-40.62
304.595	76.12
304.809	53.59
305.023	41.3
305.237	2.39
305.452	12.63
305.666	16.73
305.88	94.55
306.094	63.83
306.308	88.4
306.522	26.96
306.736	18.77
306.95	37.2
307.164	8.53
307.379	49.49
307.593	24.92
307.807	33.11
308.021	49.49
308.235	125.27
308.449	57.68
308.663	14.68
308.877	125.27
309.091	35.16
309.305	82.26
309.519	-22.19
309.733	84.31
309.947	-9.9
310.161	22.87
310.374	69.97
310.588	65.88
310.802	35.16
311.016	61.78
311.23	22.87
311.444	-20.14
311.658	127.32
311.872	41.3
312.085	82.26
312.299	37.2
312.513	94.55
312.727	74.07
312.941	16.73
313.154	78.16
313.368	49.49
313.582	-1.71
313.796	119.12
314.009	33.11
314.223	65.88
314.437	49.49
314.651	86.36
314.864	37.2
315.078	-3.75
315.292	24.92
315.505	49.49
315.719	12.63
315.933	49.49
316.146	22.87
316.36	4.44
316.573	59.73
316.787	57.68
317.001	117.08
317.214	16.73
317.428	151.89
317.641	92.5
317.855	74.07
318.068	-11.95
318.282	47.44
318.495	115.03
318.709	69.97
318.922	106.84
319.136	84.31
319.349	53.59
319.563	106.84
319.776	131.41
319.99	-30.38
320.203	61.78
320.417	65.88
320.63	37.2
320.843	45.4
321.057	51.54
321.27	63.83
321.483	106.84
321.697	57.68
321.91	65.88
322.124	45.4
322.337	61.78
322.55	59.73
322.763	51.54
322.977	57.68
323.19	0.34
323.403	33.11
323.617	-16.04
323.83	100.69
324.043	57.68
324.256	49.49
324.469	-1.71
324.683	110.93
324.896	74.07
325.109	98.64
325.322	-13.99
325.535	98.64
325.748	145.75
325.962	117.08
326.175	57.68
326.388	51.54
326.601	51.54
326.814	57.68
327.027	90.45
327.24	139.6
327.453	61.78
327.666	18.77
327.879	49.49
328.092	57.68
328.305	53.59
328.518	31.06
328.731	57.68
328.944	49.49
329.157	57.68
329.37	76.12
329.583	115.03
329.796	133.46
330.009	-38.57
330.222	121.17
330.435	55.64
330.648	39.25
330.861	100.69
331.073	82.26
331.286	92.5
331.499	61.78
331.712	37.2
331.925	65.88
332.138	-5.8
332.35	61.78
332.563	33.11
332.776	100.69
332.989	4.44
333.202	115.03
333.414	59.73
333.627	26.96
333.84	-5.8
334.053	65.88
334.265	65.88
334.478	51.54
334.691	82.26
334.903	18.77
335.116	49.49
335.329	12.63
335.541	139.6
335.754	90.45
335.966	72.02
336.179	0.34
336.392	4.44
336.604	37.2
336.817	65.88
337.029	143.7
337.242	20.82
337.454	96.6
337.667	20.82
337.88	82.26
338.092	57.68
338.305	33.11
338.517	8.53
338.729	98.64
338.942	131.41
339.154	29.01
339.367	-22.19
339.579	82.26
339.792	78.16
340.004	22.87
340.217	-1.71
340.429	-16.04
340.641	-16.04
340.854	41.3
341.066	6.49
341.278	65.88
341.491	98.64
341.703	67.92
341.915	39.25
342.128	100.69
342.34	51.54
342.552	8.53
342.764	-38.57
342.977	41.3
343.189	29.01
343.401	24.92
343.613	6.49
343.826	20.82
344.038	18.77
344.25	78.16
344.462	127.32
344.674	8.53
344.886	35.16
345.099	117.08
345.311	-3.75
345.523	45.4
345.735	57.68
345.947	74.07
346.159	4.44
346.371	76.12
346.583	12.63
346.795	110.93
347.007	78.16
347.219	125.27
347.431	69.97
347.643	76.12
347.855	88.4
348.067	141.65
348.279	12.63
348.491	26.96
348.703	139.6
348.915	55.64
349.127	-28.33
349.339	59.73
349.551	-32.43
349.763	45.4
349.975	47.44
350.187	92.5
350.399	-46.76
350.61	72.02
350.822	51.54
351.034	104.79
351.246	0.34
351.458	37.2
351.669	53.59
351.881	74.07
352.093	129.36
352.305	90.45
352.517	41.3
352.728	160.08
352.94	78.16
353.152	18.77
353.363	76.12
353.575	115.03
353.787	55.64
353.999	59.73
354.21	33.11
354.422	-44.71
354.633	43.35
354.845	49.49
355.057	10.58
355.268	43.35
355.48	90.45
355.692	18.77
355.903	106.84
356.115	133.46
356.326	57.68
356.538	86.36
356.749	74.07
356.961	168.27
357.172	22.87
357.384	37.2
357.595	106.84
357.807	61.78
358.018	0.34
358.23	61.78
358.441	117.08
358.653	61.78
358.864	147.8
359.075	8.53
359.287	49.49
359.498	67.92
359.709	98.64
359.921	35.16
360.132	86.36
360.344	-16.04
360.555	78.16
360.766	65.88
360.977	67.92
361.189	24.92
361.4	12.63
361.611	67.92
361.823	78.16
362.034	82.26
362.245	49.49
362.456	12.63
362.667	82.26
362.879	8.53
363.09	12.63
363.301	72.02
363.512	45.4
363.723	74.07
363.935	57.68
364.146	143.7
364.357	172.37
364.568	43.35
364.779	8.53
364.99	158.03
365.201	24.92
365.412	84.31
365.623	8.53
365.834	65.88
366.045	119.12
366.256	59.73
366.467	57.68
366.678	69.97
366.889	78.16
367.1	37.2
367.311	96.6
367.522	-7.85
367.733	82.26
367.944	137.56
368.155	86.36
368.366	67.92
368.577	106.84
368.788	115.03
368.999	-3.75
369.209	69.97
369.42	131.41
369.631	188.75
369.842	82.26
370.053	119.12
370.264	33.11
370.474	69.97
370.685	90.45
370.896	-7.85
371.107	63.83
371.317	69.97
371.528	39.25
371.739	115.03
371.95	80.21
372.16	49.49
372.371	69.97
372.582	98.64
372.792	49.49
373.003	104.79
373.214	-57
373.424	61.78
373.635	22.87
373.846	115.03
374.056	35.16
374.267	59.73
374.477	53.59
374.688	123.22
374.898	53.59
375.109	49.49
375.319	29.01
375.53	119.12
375.74	63.83
375.951	63.83
376.161	8.53
376.372	100.69
376.582	45.4
376.793	29.01
377.003	74.07
377.214	80.21
377.424	90.45
377.635	-16.04
377.845	108.88
378.055	96.6
378.266	-3.75
378.476	26.96
378.686	74.07
378.897	67.92
379.107	160.08
379.317	67.92
379.528	49.49
379.738	94.55
379.948	12.63
380.158	35.16
380.369	94.55
380.579	127.32
380.789	2.39
380.999	104.79
381.21	74.07
381.42	100.69
381.63	100.69
381.84	33.11
382.05	65.88
382.261	119.12
382.471	102.74
382.681	115.03
382.891	90.45
383.101	155.99
383.311	-13.99
383.521	0.34
383.731	174.42
383.941	133.46
384.151	65.88
384.361	24.92
384.571	61.78
384.781	129.36
384.991	141.65
385.201	205.14
385.411	94.55
385.621	57.68
385.831	86.36
386.041	110.93
386.251	29.01
386.461	92.5
386.671	49.49
386.881	90.45
387.091	18.77
387.301	41.3
387.511	39.25
387.72	104.79
387.93	112.98
388.14	29.01
388.35	117.08
388.56	108.88
388.769	188.75
388.979	74.07
389.189	-5.8
389.399	-46.76
389.609	139.6
389.818	14.68
390.028	127.32
390.238	76.12
390.447	53.59
390.657	106.84
390.867	106.84
391.076	-16.04
391.286	26.96
391.496	115.03
391.705	139.6
391.915	102.74
392.125	110.93
392.334	55.64
392.544	24.92
392.753	106.84
392.963	123.22
393.172	90.45
393.382	65.88
393.591	74.07
393.801	123.22
394.01	67.92
394.22	53.59
394.429	110.93
394.639	104.79
394.848	108.88
395.058	98.64
395.267	90.45
395.477	137.56
395.686	188.75
395.895	123.22
396.105	205.14
396.314	174.42
396.524	43.35
396.733	96.6
396.942	123.22
397.152	123.22
397.361	147.8
397.57	168.27
397.78	158.03
397.989	139.6
398.198	155.99
398.407	-1.71
398.617	174.42
398.826	84.31
399.035	115.03
399.244	115.03
399.453	164.18
399.663	147.8
399.872	164.18
400.081	153.94
400.29	147.8
400.499	82.26
400.708	196.95
400.917	92.5
401.127	155.99
401.336	119.12
401.545	158.03
401.754	192.85
401.963	192.85
402.172	131.41
402.381	137.56
402.59	102.74
402.799	223.57
403.008	164.18
403.217	168.27
403.426	135.51
403.635	110.93
403.844	203.09
404.053	215.38
404.262	205.14
404.471	262.48
404.68	98.64
404.888	194.9
405.097	172.37
405.306	270.67
405.515	166.23
405.724	164.18
405.933	213.33
406.142	233.81
406.35	227.67
406.559	293.2
406.768	303.44
406.977	323.92
407.185	287.06
407.394	254.29
407.603	289.1
407.812	295.25
408.02	270.67
408.229	254.29
408.438	287.06
408.646	328.02
408.855	377.17
409.064	393.55
409.272	414.03
409.481	319.82
409.69	338.26
409.898	313.68
410.107	491.85
410.315	418.13
410.524	377.17
410.733	500.05
410.941	565.58
411.15	657.74
411.358	565.58
411.567	602.44
411.775	620.88
411.984	520.53
412.192	557.39
412.401	532.81
412.609	719.18
412.818	684.36
413.026	655.69
413.234	704.84
413.443	764.23
413.651	807.24
413.86	788.81
414.068	805.19
414.276	903.5
414.485	811.34
414.693	913.74
414.901	960.84
415.11	987.46
415.318	999.75
415.526	1040.71
415.734	1157.44
415.943	1083.72
416.151	1245.51
416.359	1032.52
416.567	1218.88
416.776	1179.97
416.984	1380.67
417.192	1397.06
417.4	1395.01
417.608	1339.71
417.817	1411.39
418.025	1519.93
418.233	1620.28
418.441	1591.61
418.649	1691.96
418.857	1739.07
419.065	1761.59
419.273	1831.23
419.481	1835.32
419.689	2105.65
419.897	2117.94
420.105	2021.69
420.313	2165.04
420.521	2257.2
420.729	2279.73
420.937	2367.79
421.145	2343.22
421.353	2556.21
421.561	2685.23
421.769	2849.07
421.977	2892.07
422.185	2859.31
422.393	3027.24
422.601	3203.36
422.809	3219.75
423.017	3133.73
423.224	3281.19
423.432	3416.35
423.64	3451.17
423.848	3633.44
424.056	3746.08
424.263	3883.29
424.471	3909.91
424.679	4081.94
424.887	4045.08
425.094	4235.54
425.302	4426
425.51	4505.87
425.718	4636.94
425.925	4673.81
426.133	5021.96
426.341	5316.87
426.548	5357.83
426.756	5447.94
426.964	5480.71
427.171	5812.48
427.379	5976.31
427.586	6168.82
427.794	6203.64
428.001	6465.78
428.209	6713.58
428.417	6625.52
428.624	7078.12
428.832	7233.77
429.039	6979.82
429.247	7114.98
429.454	7807.2
429.662	8155.35
429.869	7899.36
430.076	8339.67
430.284	8061.15
430.491	8442.07
430.699	8888.53
430.906	8876.24
431.114	8812.75
431.321	9339.08
431.528	9486.53
431.736	9961.66
431.943	10502.33
432.15	10205.37
432.358	10322.1
432.565	10993.84
432.772	10854.58
432.979	11395.24
433.187	11579.56
433.394	11907.23
433.601	12535.96
433.808	12621.97
434.016	12742.8
434.223	12935.31
434.43	13717.64
434.637	13396.1
434.844	14116.99
435.052	14465.14
435.259	14272.64
435.466	14641.27
435.673	14516.34
435.88	15409.26
436.087	16171.1
436.294	16074.85
436.501	15917.15
436.708	15970.4
436.915	16420.95
437.122	17387.6
437.329	17096.78
437.537	17875.01
437.743	17899.59
437.95	18085.95
438.157	18939.96
438.364	19535.92
438.571	19787.82
438.778	19324.97
438.985	21233.68
439.192	20412.45
439.399	21237.78
439.606	20676.63
439.813	21956.61
440.02	23349.23
440.227	22499.33
440.433	22667.26
440.64	23203.83
440.847	23072.76
441.054	23519.21
441.261	25178.07
441.467	25040.86
441.674	25579.47
441.881	26353.6
442.088	26372.03
442.294	25937.87
442.501	26625.98
442.708	27359.16
442.914	28483.49
443.121	29405.08
443.328	29106.07
443.534	30680.96
443.741	29749.14
443.948	29278.1
444.154	31379.32
444.361	31436.66
444.568	31510.39
444.774	31424.37
444.981	31999.85
445.187	32585.57
445.394	34066.25
445.6	33736.53
445.807	37502.75
446.013	35446.58
446.22	36065.07
446.426	37039.9
446.633	37664.53
446.839	38743.81
447.046	37332.76
447.252	39057.15
447.459	39335.68
447.665	39249.66
447.871	40826.6
448.078	42614.48
448.284	40920.8
448.491	41504.48
448.697	43341.5
448.903	43943.61
449.11	44054.2
449.316	43112.13
449.522	44113.59
449.728	45543.07
449.935	45514.4
450.141	45772.44
450.347	46737.04
450.553	45115.04
450.76	45520.54
450.966	47429.25
451.172	46720.65
451.378	47955.58
451.584	47009.42
451.791	48057.98
451.997	47875.71
452.203	48748.14
452.409	48858.73
452.615	48795.24
452.821	46634.64
453.027	46229.14
453.233	48311.92
453.44	46544.53
453.646	46954.12
453.852	46864.01
454.058	47769.21
454.264	46550.67
454.47	47773.31
454.676	46603.92
454.882	48008.82
455.088	43548.35
455.294	44414.64
455.5	45004.45
455.705	45233.83
455.911	43800.25
456.117	42936.01
456.323	42440.4
456.529	40593.13
456.735	41500.38
456.941	40908.52
457.147	40462.06
457.352	39253.76
457.558	38459.15
457.764	39048.96
457.97	37949.2
458.176	36978.47
458.381	37109.54
458.587	35249.98
458.793	34879.3
458.999	33351.51
459.204	35981.1
459.41	34860.87
459.616	32929.63
459.821	32345.96
460.027	32446.31
460.233	31670.13
460.438	29996.94
460.644	30644.1
460.85	29128.6
461.055	28696.48
461.261	28501.92
461.466	26576.83
461.672	25520.08
461.878	27629.49
462.083	25901
462.289	25372.63
462.494	24860.63
462.7	23816.17
462.905	23074.81
463.111	23826.41
463.316	24233.96
463.522	23871.47
463.727	23699.44
463.932	23461.87
464.138	23052.28
464.343	23390.19
464.549	22573.05
464.754	23402.48
464.959	23238.64
465.165	22925.3
465.37	21958.66
465.575	21233.68
465.781	22327.3
465.986	22378.5
466.191	21471.25
466.397	21166.1
466.602	20299.81
466.807	20940.82
