Data from USB4F104151__179__14-32-45-110.txt Node

Date: Thu Mar 13 14:32:45 EDT 2025
User: louis
Spectrometer: USB4F10415
Trigger mode: 4
Integration Time (sec): 2.500000E-2
Scans to average: 1
Electric dark correction enabled: true
Nonlinearity correction enabled: false
Boxcar width: 0
XAxis mode: Wavelengths
Number of Pixels in Spectrum: 3648
>>>>>Begin Spectral Data<<<<<
178.204	-135
178.424	-135
178.644	-135
178.864	-147.28
179.084	-173.91
179.304	-36.69
179.524	4.27
179.744	20.65
179.964	-3.93
180.184	73.9
180.404	-1.88
180.624	4.27
180.844	4.27
181.064	-3.93
181.283	6.31
181.503	-108.37
181.723	41.13
181.943	12.46
182.163	108.71
182.383	-3.93
182.602	8.36
182.822	-48.98
183.042	69.8
183.262	-44.88
183.482	77.99
183.701	20.65
183.921	45.23
184.141	-3.93
184.361	34.99
184.58	-3.93
184.8	-18.26
185.02	41.13
185.239	149.67
185.459	-57.17
185.679	12.46
185.898	-42.84
186.118	45.23
186.338	0.17
186.557	51.37
186.777	-28.5
186.997	61.61
187.216	-61.27
187.436	77.99
187.655	28.84
187.875	14.51
188.095	-20.31
188.314	114.86
188.534	4.27
188.753	14.51
188.973	-36.69
189.192	20.65
189.412	65.71
189.631	4.27
189.851	4.27
190.07	16.55
190.29	12.46
190.509	-1.88
190.729	14.51
190.948	16.55
191.168	143.53
191.387	37.03
191.607	57.51
191.826	73.9
192.045	-69.46
192.265	16.55
192.484	10.41
192.704	-44.88
192.923	-77.65
193.142	106.67
193.362	47.27
193.581	53.42
193.8	-77.65
194.02	20.65
194.239	20.65
194.458	-26.45
194.678	4.27
194.897	12.46
195.116	96.43
195.335	-10.07
195.555	12.46
195.774	65.71
195.993	49.32
196.212	-10.07
196.432	53.42
196.651	16.55
196.87	51.37
197.089	63.66
197.308	49.32
197.528	-28.5
197.747	-28.5
197.966	63.66
198.185	22.7
198.404	65.71
198.623	86.19
198.842	41.13
199.062	61.61
199.281	80.04
199.5	41.13
199.719	90.28
199.938	28.84
200.157	-55.12
200.376	86.19
200.595	43.18
200.814	22.7
201.033	45.23
201.252	47.27
201.471	24.75
201.69	34.99
201.909	20.65
202.128	77.99
202.347	53.42
202.566	-40.79
202.785	37.03
203.004	-36.69
203.223	92.33
203.442	-14.17
203.661	80.04
203.879	47.27
204.098	-20.31
204.317	-8.02
204.536	96.43
204.755	30.89
204.974	28.84
205.193	61.61
205.411	90.28
205.63	8.36
205.849	82.09
206.068	20.65
206.287	-20.31
206.505	28.84
206.724	6.31
206.943	-32.6
207.162	116.9
207.381	18.6
207.599	14.51
207.818	12.46
208.037	16.55
208.255	2.22
208.474	-12.12
208.693	49.32
208.911	-14.17
209.13	22.7
209.349	-32.6
209.567	-51.03
209.786	37.03
210.005	20.65
210.223	0.17
210.442	-46.93
210.661	28.84
210.879	20.65
211.098	41.13
211.316	80.04
211.535	53.42
211.753	22.7
211.972	-53.08
212.191	53.42
212.409	12.46
212.628	22.7
212.846	12.46
213.065	16.55
213.283	67.75
213.502	8.36
213.72	45.23
213.938	94.38
214.157	61.61
214.375	20.65
214.594	37.03
214.812	12.46
215.031	28.84
215.249	0.17
215.467	-3.93
215.686	63.66
215.904	24.75
216.122	20.65
216.341	69.8
216.559	-42.84
216.778	157.86
216.996	67.75
217.214	12.46
217.432	-59.22
217.651	-28.5
217.869	61.61
218.087	-8.02
218.306	104.62
218.524	6.31
218.742	10.41
218.96	110.76
219.179	37.03
219.397	61.61
219.615	63.66
219.833	24.75
220.051	8.36
220.27	53.42
220.488	28.84
220.706	28.84
220.924	-51.03
221.142	61.61
221.36	24.75
221.578	-20.31
221.796	61.61
222.015	20.65
222.233	12.46
222.451	-12.12
222.669	-26.45
222.887	-20.31
223.105	0.17
223.323	-12.12
223.541	-18.26
223.759	102.57
223.977	12.46
224.195	28.84
224.413	45.23
224.631	49.32
224.849	53.42
225.067	51.37
225.285	47.27
225.503	69.8
225.721	-8.02
225.939	37.03
226.157	4.27
226.375	69.8
226.592	-44.88
226.81	24.75
227.028	-16.21
227.246	84.14
227.464	71.85
227.682	45.23
227.9	-44.88
228.117	77.99
228.335	77.99
228.553	94.38
228.771	65.71
228.989	47.27
229.206	141.48
229.424	10.41
229.642	53.42
229.86	61.61
230.077	10.41
230.295	-36.69
230.513	65.71
230.731	6.31
230.948	82.09
231.166	86.19
231.384	22.7
231.601	47.27
231.819	51.37
232.037	-10.07
232.254	-53.08
232.472	57.51
232.689	-30.55
232.907	53.42
233.125	37.03
233.342	55.47
233.56	39.08
233.777	106.67
233.995	-44.88
234.213	-12.12
234.43	53.42
234.648	34.99
234.865	-30.55
235.083	-12.12
235.3	-1.88
235.518	61.61
235.735	2.22
235.953	-3.93
236.17	28.84
236.388	53.42
236.605	61.61
236.822	39.08
237.04	75.95
237.257	49.32
237.475	-42.84
237.692	88.23
237.909	2.22
238.127	65.71
238.344	45.23
238.562	61.61
238.779	16.55
238.996	80.04
239.214	45.23
239.431	121
239.648	8.36
239.865	28.84
240.083	41.13
240.3	16.55
240.517	12.46
240.735	-16.21
240.952	53.42
241.169	45.23
241.386	55.47
241.603	-5.97
241.821	-26.45
242.038	-1.88
242.255	12.46
242.472	-24.4
242.689	28.84
242.907	37.03
243.124	-12.12
243.341	16.55
243.558	16.55
243.775	24.75
243.992	-10.07
244.209	37.03
244.426	166.06
244.643	0.17
244.86	39.08
245.078	-8.02
245.295	98.47
245.512	30.89
245.729	-36.69
245.946	28.84
246.163	0.17
246.38	14.51
246.597	20.65
246.814	47.27
247.031	8.36
247.248	10.41
247.464	-14.17
247.681	-18.26
247.898	-10.07
248.115	16.55
248.332	-55.12
248.549	45.23
248.766	65.71
248.983	63.66
249.2	55.47
249.417	20.65
249.633	-83.8
249.85	20.65
250.067	88.23
250.284	-59.22
250.501	4.27
250.717	22.7
250.934	-16.21
251.151	14.51
251.368	24.75
251.585	4.27
251.801	16.55
252.018	-16.21
252.235	49.32
252.451	4.27
252.668	22.7
252.885	69.8
253.102	47.27
253.318	-46.93
253.535	-28.5
253.752	-32.6
253.968	-3.93
254.185	-18.26
254.401	16.55
254.618	90.28
254.835	-24.4
255.051	71.85
255.268	45.23
255.484	53.42
255.701	45.23
255.917	-10.07
256.134	-1.88
256.351	2.22
256.567	-16.21
256.784	86.19
257	-51.03
257.217	26.79
257.433	75.95
257.65	14.51
257.866	55.47
258.082	-67.41
258.299	69.8
258.515	86.19
258.732	32.94
258.948	8.36
259.165	67.75
259.381	-3.93
259.597	-12.12
259.814	-26.45
260.03	59.56
260.246	86.19
260.463	16.55
260.679	47.27
260.895	12.46
261.112	77.99
261.328	12.46
261.544	2.22
261.761	55.47
261.977	-3.93
262.193	-10.07
262.409	94.38
262.626	-8.02
262.842	37.03
263.058	45.23
263.274	75.95
263.49	22.7
263.707	86.19
263.923	53.42
264.139	-57.17
264.355	20.65
264.571	65.71
264.787	80.04
265.004	47.27
265.22	49.32
265.436	71.85
265.652	0.17
265.868	-3.93
266.084	30.89
266.3	45.23
266.516	-36.69
266.732	6.31
266.948	45.23
267.164	-20.31
267.38	37.03
267.596	49.32
267.812	16.55
268.028	-46.93
268.244	43.18
268.46	51.37
268.676	-36.69
268.892	12.46
269.108	12.46
269.324	8.36
269.54	-40.79
269.756	61.61
269.972	-44.88
270.188	94.38
270.403	-10.07
270.619	77.99
270.835	22.7
271.051	47.27
271.267	-40.79
271.483	22.7
271.698	53.42
271.914	41.13
272.13	16.55
272.346	71.85
272.562	0.17
272.777	45.23
272.993	6.31
273.209	-44.88
273.425	20.65
273.64	-26.45
273.856	37.03
274.072	6.31
274.287	-44.88
274.503	45.23
274.719	69.8
274.934	-57.17
275.15	-24.4
275.366	-1.88
275.581	-20.31
275.797	53.42
276.012	24.75
276.228	-20.31
276.444	-12.12
276.659	157.86
276.875	-42.84
277.09	-3.93
277.306	-14.17
277.521	39.08
277.737	22.7
277.952	65.71
278.168	12.46
278.383	-16.21
278.599	45.23
278.814	88.23
279.03	28.84
279.245	86.19
279.461	49.32
279.676	94.38
279.892	24.75
280.107	10.41
280.322	22.7
280.538	73.9
280.753	-16.21
280.969	16.55
281.184	-20.31
281.399	20.65
281.615	98.47
281.83	6.31
282.045	-40.79
282.26	-10.07
282.476	37.03
282.691	-3.93
282.906	20.65
283.122	16.55
283.337	55.47
283.552	121
283.767	-20.31
283.983	41.13
284.198	-18.26
284.413	-28.5
284.628	43.18
284.843	2.22
285.058	34.99
285.274	6.31
285.489	-18.26
285.704	57.51
285.919	24.75
286.134	28.84
286.349	32.94
286.564	8.36
286.779	-53.08
286.995	63.66
287.21	-26.45
287.425	96.43
287.64	37.03
287.855	14.51
288.07	-30.55
288.285	53.42
288.5	28.84
288.715	34.99
288.93	-22.36
289.145	-12.12
289.36	37.03
289.575	57.51
289.79	-28.5
290.004	4.27
290.219	69.8
290.434	-12.12
290.649	-20.31
290.864	-26.45
291.079	30.89
291.294	28.84
291.509	18.6
291.724	-1.88
291.938	-30.55
292.153	20.65
292.368	-34.64
292.583	8.36
292.798	18.6
293.012	24.75
293.227	94.38
293.442	12.46
293.657	-16.21
293.871	73.9
294.086	-3.93
294.301	73.9
294.516	104.62
294.73	45.23
294.945	-8.02
295.16	-26.45
295.374	45.23
295.589	69.8
295.804	-38.74
296.018	28.84
296.233	20.65
296.447	47.27
296.662	-40.79
296.877	-3.93
297.091	39.08
297.306	-8.02
297.52	-16.21
297.735	-1.88
297.949	-48.98
298.164	12.46
298.378	37.03
298.593	37.03
298.807	12.46
299.022	-3.93
299.236	84.14
299.451	61.61
299.665	4.27
299.88	12.46
300.094	34.99
300.309	-36.69
300.523	45.23
300.737	28.84
300.952	61.61
301.166	-20.31
301.381	4.27
301.595	-26.45
301.809	-42.84
302.024	45.23
302.238	-46.93
302.452	0.17
302.667	24.75
302.881	0.17
303.095	43.18
303.309	59.56
303.524	-26.45
303.738	-48.98
303.952	77.99
304.166	45.23
304.381	20.65
304.595	24.75
304.809	20.65
305.023	34.99
305.237	-89.94
305.452	129.19
305.666	65.71
305.88	55.47
306.094	77.99
306.308	69.8
306.522	90.28
306.736	-36.69
306.95	104.62
307.164	-10.07
307.379	4.27
307.593	61.61
307.807	90.28
308.021	123.05
308.235	4.27
308.449	-34.64
308.663	37.03
308.877	55.47
309.091	49.32
309.305	80.04
309.519	-3.93
309.733	6.31
309.947	-3.93
310.161	22.7
310.374	47.27
310.588	100.52
310.802	28.84
311.016	-26.45
311.23	0.17
311.444	-10.07
311.658	-5.97
311.872	16.55
312.085	41.13
312.299	-1.88
312.513	8.36
312.727	41.13
312.941	28.84
313.154	49.32
313.368	30.89
313.582	30.89
313.796	121
314.009	37.03
314.223	80.04
314.437	14.51
314.651	67.75
314.864	-61.27
315.078	-1.88
315.292	28.84
315.505	59.56
315.719	24.75
315.933	41.13
316.146	41.13
316.36	-63.32
316.573	106.67
316.787	86.19
317.001	6.31
317.214	-53.08
317.428	32.94
317.641	22.7
317.855	-3.93
318.068	94.38
318.282	-77.65
318.495	139.43
318.709	18.6
318.922	-22.36
319.136	45.23
319.349	55.47
319.563	-63.32
319.776	45.23
319.99	-34.64
320.203	49.32
320.417	37.03
320.63	34.99
320.843	112.81
321.057	16.55
321.27	51.37
321.483	86.19
321.697	92.33
321.91	-3.93
322.124	-36.69
322.337	22.7
322.55	-12.12
322.763	-3.93
322.977	53.42
323.19	-3.93
323.403	61.61
323.617	20.65
323.83	32.94
324.043	-22.36
324.256	6.31
324.469	12.46
324.683	131.24
324.896	-12.12
325.109	20.65
325.322	-44.88
325.535	22.7
325.748	69.8
325.962	20.65
326.175	18.6
326.388	80.04
326.601	65.71
326.814	14.51
327.027	63.66
327.24	84.14
327.453	37.03
327.666	4.27
327.879	153.77
328.092	112.81
328.305	16.55
328.518	24.75
328.731	-71.51
328.944	45.23
329.157	49.32
329.37	22.7
329.583	86.19
329.796	75.95
330.009	80.04
330.222	-1.88
330.435	90.28
330.648	30.89
330.861	20.65
331.073	4.27
331.286	16.55
331.499	37.03
331.712	-28.5
331.925	14.51
332.138	14.51
332.35	0.17
332.563	-1.88
332.776	57.51
332.989	-32.6
333.202	0.17
333.414	55.47
333.627	-28.5
333.84	2.22
334.053	-24.4
334.265	-5.97
334.478	6.31
334.691	32.94
334.903	-87.89
335.116	10.41
335.329	6.31
335.541	20.65
335.754	53.42
335.966	-12.12
336.179	37.03
336.392	28.84
336.604	20.65
336.817	14.51
337.029	69.8
337.242	49.32
337.454	90.28
337.667	45.23
337.88	77.99
338.092	-57.17
338.305	133.29
338.517	-20.31
338.729	0.17
338.942	63.66
339.154	49.32
339.367	12.46
339.579	32.94
339.792	22.7
340.004	45.23
340.217	16.55
340.429	0.17
340.641	-16.21
340.854	20.65
341.066	37.03
341.278	45.23
341.491	57.51
341.703	39.08
341.915	-48.98
342.128	86.19
342.34	-20.31
342.552	-12.12
342.764	59.56
342.977	20.65
343.189	104.62
343.401	24.75
343.613	20.65
343.826	-44.88
344.038	-10.07
344.25	24.75
344.462	20.65
344.674	110.76
344.886	-20.31
345.099	102.57
345.311	20.65
345.523	-1.88
345.735	-38.74
345.947	63.66
346.159	-3.93
346.371	41.13
346.583	-1.88
346.795	16.55
347.007	4.27
347.219	51.37
347.431	84.14
347.643	30.89
347.855	16.55
348.067	43.18
348.279	30.89
348.491	88.23
348.703	0.17
348.915	53.42
349.127	-12.12
349.339	10.41
349.551	-12.12
349.763	12.46
349.975	63.66
350.187	28.84
350.399	49.32
350.61	106.67
350.822	77.99
351.034	73.9
351.246	55.47
351.458	104.62
351.669	-10.07
351.881	28.84
352.093	-1.88
352.305	-26.45
352.517	45.23
352.728	92.33
352.94	-8.02
353.152	86.19
353.363	-22.36
353.575	53.42
353.787	88.23
353.999	4.27
354.21	65.71
354.422	51.37
354.633	-24.4
354.845	14.51
355.057	96.43
355.268	-20.31
355.48	-10.07
355.692	-3.93
355.903	57.51
356.115	22.7
356.326	-91.99
356.538	32.94
356.749	-24.4
356.961	-1.88
357.172	-1.88
357.384	-28.5
357.595	69.8
357.807	67.75
358.018	14.51
358.23	0.17
358.441	94.38
358.653	110.76
358.864	45.23
359.075	37.03
359.287	45.23
359.498	28.84
359.709	63.66
359.921	133.29
360.132	28.84
360.344	22.7
360.555	-24.4
360.766	-28.5
360.977	-40.79
361.189	-1.88
361.4	88.23
361.611	127.14
361.823	37.03
362.034	30.89
362.245	0.17
362.456	8.36
362.667	143.53
362.879	4.27
363.09	-8.02
363.301	-16.21
363.512	0.17
363.723	4.27
363.935	53.42
364.146	75.95
364.357	-20.31
364.568	20.65
364.779	-67.41
364.99	61.61
365.201	-16.21
365.412	-3.93
365.623	30.89
365.834	69.8
366.045	53.42
366.256	65.71
366.467	57.51
366.678	8.36
366.889	61.61
367.1	-32.6
367.311	90.28
367.522	-65.36
367.733	53.42
367.944	61.61
368.155	69.8
368.366	39.08
368.577	18.6
368.788	37.03
368.999	-20.31
369.209	8.36
369.42	108.71
369.631	116.9
369.842	24.75
370.053	16.55
370.264	41.13
370.474	28.84
370.685	-24.4
370.896	47.27
371.107	143.53
371.317	37.03
371.528	73.9
371.739	125.1
371.95	-20.31
372.16	69.8
372.371	18.6
372.582	2.22
372.792	-65.36
373.003	-18.26
373.214	4.27
373.424	32.94
373.635	30.89
373.846	69.8
374.056	37.03
374.267	37.03
374.477	102.57
374.688	-1.88
374.898	86.19
375.109	20.65
375.319	71.85
375.53	51.37
375.74	71.85
375.951	71.85
376.161	-18.26
376.372	82.09
376.582	16.55
376.793	57.51
377.003	94.38
377.214	53.42
377.424	86.19
377.635	-36.69
377.845	-28.5
378.055	161.96
378.266	14.51
378.476	-22.36
378.686	-12.12
378.897	4.27
379.107	73.9
379.317	53.42
379.528	-18.26
379.738	86.19
379.948	-57.17
380.158	67.75
380.369	82.09
380.579	41.13
380.789	55.47
380.999	16.55
381.21	-3.93
381.42	116.9
381.63	-12.12
381.84	-18.26
382.05	16.55
382.261	20.65
382.471	141.48
382.681	24.75
382.891	55.47
383.101	16.55
383.311	6.31
383.521	45.23
383.731	6.31
383.941	53.42
384.151	16.55
384.361	2.22
384.571	24.75
384.781	69.8
384.991	69.8
385.201	53.42
385.411	69.8
385.621	69.8
385.831	24.75
386.041	41.13
386.251	4.27
386.461	6.31
386.671	41.13
386.881	98.47
387.091	28.84
387.301	55.47
387.511	22.7
387.72	73.9
387.93	57.51
388.14	-85.84
388.35	8.36
388.56	127.14
388.769	61.61
388.979	100.52
389.189	-30.55
389.399	-12.12
389.609	4.27
389.818	37.03
390.028	65.71
390.238	53.42
390.447	-32.6
390.657	4.27
390.867	-32.6
391.076	20.65
391.286	129.19
391.496	82.09
391.705	4.27
391.915	63.66
392.125	45.23
392.334	53.42
392.544	106.67
392.753	41.13
392.963	2.22
393.172	71.85
393.382	18.6
393.591	151.72
393.801	6.31
394.01	108.71
394.22	4.27
394.429	24.75
394.639	49.32
394.848	45.23
395.058	14.51
395.267	-53.08
395.477	63.66
395.686	94.38
395.895	127.14
396.105	55.47
396.314	8.36
396.524	63.66
396.733	39.08
396.942	94.38
397.152	67.75
397.361	37.03
397.57	28.84
397.78	104.62
397.989	80.04
398.198	137.38
398.407	92.33
398.617	28.84
398.826	82.09
399.035	69.8
399.244	82.09
399.453	57.51
399.663	88.23
399.872	104.62
400.081	82.09
400.29	188.58
400.499	39.08
400.708	127.14
400.917	69.8
401.127	-16.21
401.336	14.51
401.545	116.9
401.754	159.91
401.963	104.62
402.172	41.13
402.381	43.18
402.59	108.71
402.799	8.36
403.008	92.33
403.217	151.72
403.426	57.51
403.635	20.65
403.844	104.62
404.053	94.38
404.262	14.51
404.471	188.58
404.68	102.57
404.888	61.61
405.097	20.65
405.306	69.8
405.515	108.71
405.724	53.42
405.933	180.39
406.142	71.85
406.35	243.88
406.559	110.76
406.768	100.52
406.977	192.68
407.185	100.52
407.394	159.91
407.603	127.14
407.812	110.76
408.02	184.49
408.229	172.2
408.438	145.58
408.646	129.19
408.855	168.1
409.064	233.64
409.272	159.91
409.481	258.21
409.69	164.01
409.898	237.74
410.107	227.5
410.315	200.87
410.524	168.1
410.733	209.06
410.941	209.06
411.15	274.6
411.358	266.41
411.567	303.27
411.775	274.6
411.984	202.92
412.192	323.75
412.401	315.56
412.609	413.86
412.818	415.91
413.026	370.85
413.234	284.84
413.443	360.61
413.651	372.9
413.86	360.61
414.068	450.72
414.276	422.05
414.485	430.24
414.693	463.01
414.901	489.64
415.11	571.55
415.318	463.01
415.526	589.99
415.734	573.6
415.943	557.22
416.151	577.7
416.359	585.89
416.567	530.59
416.776	608.42
416.984	643.23
417.192	766.11
417.4	690.34
417.608	620.71
417.817	702.62
418.025	809.12
418.233	872.61
418.441	794.78
418.649	798.88
418.857	940.19
419.065	962.72
419.273	905.37
419.481	981.15
419.689	1030.3
419.897	1022.11
420.105	1056.92
420.313	1136.79
420.521	1210.52
420.729	1120.41
420.937	1097.88
421.145	1226.9
421.353	1253.53
421.561	1329.3
421.769	1333.4
421.977	1368.21
422.185	1413.27
422.393	1593.49
422.601	1628.31
422.809	1607.83
423.017	1554.58
423.224	1699.98
423.432	1720.46
423.64	1773.71
423.848	1908.88
424.056	1874.06
424.263	1896.59
424.471	2044.04
424.679	2050.19
424.887	2173.07
425.094	2175.11
425.302	2218.12
425.51	2297.99
425.718	2338.95
425.925	2341
426.133	2324.62
426.341	2701.44
426.548	2652.29
426.756	2752.64
426.964	2691.2
427.171	2863.23
427.379	3059.84
427.586	3049.6
427.794	3190.91
428.001	3256.44
428.209	3426.42
428.417	3426.42
428.624	3563.64
428.832	3547.25
429.039	3526.77
429.247	3510.39
429.454	3956.85
429.662	4098.16
429.869	3952.75
430.076	4108.4
430.284	4061.29
430.491	4292.71
430.699	4550.76
430.906	4517.99
431.114	4544.61
431.321	4665.44
431.528	4819.04
431.736	5029.98
431.943	5206.11
432.15	5046.37
432.358	5167.2
432.565	5668.95
432.772	5537.88
432.979	5754.96
433.187	5742.68
433.394	6049.87
433.601	6221.9
433.808	6320.2
434.016	6262.86
434.223	6525
434.43	7012.42
434.637	6774.85
434.844	7323.71
435.052	7358.52
435.259	7379
435.466	7188.54
435.673	7290.94
435.88	7700.53
436.087	8228.91
436.294	7983.15
436.501	8020.02
436.708	8056.88
436.915	8261.68
437.122	8525.86
437.329	8726.57
437.537	8790.05
437.743	9097.25
437.95	9093.15
438.157	9302.04
438.364	9709.59
438.571	9916.44
438.778	10027.03
438.985	10760.2
439.192	10410
439.399	10545.16
439.606	10340.36
439.813	11184.13
440.02	11702.26
440.227	11425.79
440.433	11276.29
440.64	11714.55
440.847	11616.25
441.054	11948.02
441.261	12765.16
441.467	12447.72
441.674	12595.18
441.881	13508.57
442.088	13101.03
442.294	13076.45
442.501	13277.15
442.708	13774.81
442.914	14489.55
443.121	14671.82
443.328	14438.35
443.534	15347.65
443.741	14929.86
443.948	14847.94
444.154	15818.68
444.361	15775.67
444.568	15790.01
444.774	15929.27
444.981	15986.61
445.187	16539.57
445.394	17239.97
445.6	17235.88
445.807	18382.74
446.013	17909.66
446.22	18153.37
446.426	19038.09
446.633	19187.59
446.839	19638.14
447.046	18843.53
447.252	19947.39
447.459	20057.98
447.665	19654.53
447.871	20627.31
448.078	21751.65
448.284	20346.74
448.491	21350.24
448.697	21854.05
448.903	22089.56
449.11	22447.96
449.316	21907.29
449.522	22632.27
449.728	23019.34
449.935	23107.4
450.141	23281.48
450.347	23584.58
450.553	23048.01
450.76	23070.54
450.966	23719.74
451.172	23859.01
451.378	24375.09
451.584	23648.07
451.791	24323.9
451.997	24108.86
452.203	24688.43
452.409	24770.35
452.615	24600.37
452.821	23736.13
453.027	23560
453.233	24907.57
453.44	23738.18
453.646	23504.71
453.852	23979.84
454.058	24360.76
454.264	23455.56
454.47	24254.26
454.676	23648.07
454.882	24262.46
455.088	22095.71
455.294	22445.91
455.5	22730.58
455.705	23125.83
455.911	22267.73
456.117	21499.75
456.323	21325.67
456.529	20203.38
456.735	21202.79
456.941	20475.76
457.147	20107.13
457.352	19451.78
457.558	19691.39
457.764	19566.46
457.97	18904.97
458.176	18462.61
458.381	18624.4
458.587	17577.89
458.793	17569.69
458.999	16719.79
459.204	18065.3
459.41	17668
459.616	16490.42
459.821	16193.46
460.027	16175.03
460.233	15847.35
460.438	15026.12
460.644	15253.44
460.85	14579.66
461.055	14403.53
461.261	14127.06
461.466	13119.46
461.672	12998.63
461.878	13864.92
462.083	12668.91
462.289	12787.69
462.494	12423.15
462.7	11857.91
462.905	11565.05
463.111	11919.35
463.316	12007.41
463.522	11751.42
463.727	11864.05
463.932	11929.59
464.138	11571.19
464.343	11804.66
464.549	11259.9
464.754	11843.57
464.959	11526.14
465.165	11558.91
465.37	11016.19
465.575	10526.73
465.781	11177.98
465.986	11087.87
466.191	10842.12
466.397	10670.09
466.602	10186.77
466.807	10426.38
467.012	10645.51
467.218	10330.13
467.423	10211.34
467.628	10309.65
467.833	10416.14
