Data from USB4F104151__110__14-31-08-112.txt Node

Date: Thu Mar 13 14:31:08 EDT 2025
User: louis
Spectrometer: USB4F10415
Trigger mode: 4
Integration Time (sec): 2.500000E-2
Scans to average: 1
Electric dark correction enabled: true
Nonlinearity correction enabled: false
Boxcar width: 0
XAxis mode: Wavelengths
Number of Pixels in Spectrum: 3648
>>>>>Begin Spectral Data<<<<<
178.204	-120.32
178.424	-120.32
178.644	-120.32
178.864	-175.61
179.084	-103.93
179.304	8.7
179.524	47.62
179.744	-17.92
179.964	29.18
180.184	45.57
180.404	-44.54
180.624	8.7
180.844	6.66
181.064	-11.78
181.283	-52.74
181.503	-54.78
181.723	35.33
181.943	-48.64
182.163	72.19
182.383	4.61
182.602	-9.73
182.822	35.33
183.042	43.52
183.262	-52.74
183.482	29.18
183.701	10.75
183.921	86.53
184.141	6.66
184.361	51.71
184.58	2.56
184.8	-30.21
185.02	31.23
185.239	49.66
185.459	8.7
185.679	18.94
185.898	12.8
186.118	88.57
186.338	84.48
186.557	45.57
186.777	43.52
186.997	59.9
187.216	55.81
187.436	111.1
187.655	29.18
187.875	10.75
188.095	84.48
188.314	-50.69
188.534	98.81
188.753	59.9
188.973	64
189.192	82.43
189.412	43.52
189.631	-13.82
189.851	10.75
190.07	150.01
190.29	-58.88
190.509	74.24
190.729	-34.3
190.948	55.81
191.168	154.11
191.387	47.62
191.607	-15.87
191.826	-5.63
192.045	12.8
192.265	29.18
192.484	51.71
192.704	-13.82
192.923	2.56
193.142	76.29
193.362	59.9
193.581	43.52
193.8	43.52
194.02	68.09
194.239	31.23
194.458	-30.21
194.678	16.9
194.897	96.77
195.116	18.94
195.335	10.75
195.555	92.67
195.774	59.9
195.993	16.9
196.212	-5.63
196.432	80.38
196.651	-15.87
196.87	12.8
197.089	94.72
197.308	80.38
197.528	86.53
197.747	-28.16
197.966	51.71
198.185	2.56
198.404	-40.45
198.623	176.64
198.842	-75.26
199.062	-34.3
199.281	35.33
199.5	25.09
199.719	-22.02
199.938	92.67
200.157	100.86
200.376	53.76
200.595	6.66
200.814	115.2
201.033	-22.02
201.252	113.15
201.471	20.99
201.69	102.91
201.909	18.94
202.128	39.42
202.347	39.42
202.566	-1.54
202.785	2.56
203.004	-1.54
203.223	100.86
203.442	80.38
203.661	-71.17
203.879	72.19
204.098	-13.82
204.317	14.85
204.536	84.48
204.755	-67.07
204.974	35.33
205.193	-15.87
205.411	76.29
205.63	20.99
205.849	78.33
206.068	35.33
206.287	-5.63
206.505	16.9
206.724	45.57
206.943	-46.59
207.162	59.9
207.381	64
207.599	33.28
207.818	76.29
208.037	31.23
208.255	12.8
208.474	51.71
208.693	2.56
208.911	29.18
209.13	20.99
209.349	37.38
209.567	43.52
209.786	121.34
210.005	84.48
210.223	37.38
210.442	14.85
210.661	84.48
210.879	84.48
211.098	96.77
211.316	49.66
211.535	45.57
211.753	82.43
211.972	43.52
212.191	29.18
212.409	-9.73
212.628	-34.3
212.846	27.14
213.065	96.77
213.283	102.91
213.502	18.94
213.72	-13.82
213.938	35.33
214.157	10.75
214.375	53.76
214.594	61.95
214.812	27.14
215.031	76.29
215.249	14.85
215.467	20.99
215.686	64
215.904	59.9
216.122	-26.11
216.341	45.57
216.559	76.29
216.778	117.25
216.996	49.66
217.214	96.77
217.432	18.94
217.651	-28.16
217.869	43.52
218.087	64
218.306	59.9
218.524	100.86
218.742	10.75
218.96	35.33
219.179	6.66
219.397	45.57
219.615	55.81
219.833	-34.3
220.051	27.14
220.27	72.19
220.488	51.71
220.706	72.19
220.924	53.76
221.142	-22.02
221.36	43.52
221.578	78.33
221.796	94.72
222.015	72.19
222.233	53.76
222.451	68.09
222.669	41.47
222.887	31.23
223.105	10.75
223.323	31.23
223.541	37.38
223.759	27.14
223.977	10.75
224.195	94.72
224.413	76.29
224.631	-22.02
224.849	47.62
225.067	51.71
225.285	61.95
225.503	51.71
225.721	-1.54
225.939	12.8
226.157	47.62
226.375	113.15
226.592	35.33
226.81	-17.92
227.028	61.95
227.246	64
227.464	45.57
227.682	-1.54
227.9	94.72
228.117	39.42
228.335	27.14
228.553	2.56
228.771	-1.54
228.989	39.42
229.206	27.14
229.424	53.76
229.642	-19.97
229.86	-22.02
230.077	27.14
230.295	51.71
230.513	55.81
230.731	64
230.948	25.09
231.166	37.38
231.384	-13.82
231.601	41.47
231.819	129.53
232.037	35.33
232.254	2.56
232.472	27.14
232.689	-5.63
232.907	84.48
233.125	43.52
233.342	10.75
233.56	14.85
233.777	29.18
233.995	-62.98
234.213	64
234.43	10.75
234.648	-17.92
234.865	-17.92
235.083	72.19
235.3	23.04
235.518	64
235.735	80.38
235.953	51.71
236.17	35.33
236.388	20.99
236.605	59.9
236.822	133.63
237.04	27.14
237.257	41.47
237.475	35.33
237.692	53.76
237.909	78.33
238.127	78.33
238.344	-3.58
238.562	70.14
238.779	2.56
238.996	-58.88
239.214	64
239.431	10.75
239.648	45.57
239.865	45.57
240.083	-11.78
240.3	2.56
240.517	-15.87
240.735	18.94
240.952	45.57
241.169	127.49
241.386	27.14
241.603	10.75
241.821	-22.02
242.038	70.14
242.255	18.94
242.472	-7.68
242.689	23.04
242.907	53.76
243.124	10.75
243.341	20.99
243.558	29.18
243.775	49.66
243.992	14.85
244.209	94.72
244.426	84.48
244.643	27.14
244.86	2.56
245.078	61.95
245.295	27.14
245.512	35.33
245.729	25.09
245.946	-5.63
246.163	51.71
246.38	10.75
246.597	123.39
246.814	72.19
247.031	-3.58
247.248	66.05
247.464	-11.78
247.681	55.81
247.898	20.99
248.115	84.48
248.332	0.51
248.549	61.95
248.766	127.49
248.983	100.86
249.2	61.95
249.417	80.38
249.633	-17.92
249.85	76.29
250.067	-13.82
250.284	100.86
250.501	123.39
250.717	121.34
250.934	-69.12
251.151	43.52
251.368	-99.84
251.585	117.25
251.801	92.67
252.018	25.09
252.235	-9.73
252.451	-19.97
252.668	10.75
252.885	61.95
253.102	51.71
253.318	117.25
253.535	4.61
253.752	-46.59
253.968	18.94
254.185	51.71
254.401	59.9
254.618	102.91
254.835	41.47
255.051	86.53
255.268	2.56
255.484	117.25
255.701	31.23
255.917	51.71
256.134	-54.78
256.351	35.33
256.567	68.09
256.784	51.71
257	2.56
257.217	61.95
257.433	6.66
257.65	61.95
257.866	2.56
258.082	23.04
258.299	-13.82
258.515	55.81
258.732	-7.68
258.948	-9.73
259.165	18.94
259.381	4.61
259.597	10.75
259.814	51.71
260.03	70.14
260.246	-1.54
260.463	29.18
260.679	102.91
260.895	29.18
261.112	35.33
261.328	37.38
261.544	27.14
261.761	137.73
261.977	37.38
262.193	-56.83
262.409	53.76
262.626	100.86
262.842	109.05
263.058	100.86
263.274	68.09
263.49	68.09
263.707	59.9
263.923	10.75
264.139	-87.55
264.355	64
264.571	47.62
264.787	59.9
265.004	70.14
265.22	-5.63
265.436	-38.4
265.652	35.33
265.868	2.56
266.084	-3.58
266.3	45.57
266.516	-11.78
266.732	18.94
266.948	-17.92
267.164	117.25
267.38	53.76
267.596	39.42
267.812	150.01
268.028	61.95
268.244	10.75
268.46	104.96
268.676	31.23
268.892	4.61
269.108	14.85
269.324	-69.12
269.54	-19.97
269.756	80.38
269.972	43.52
270.188	45.57
270.403	-1.54
270.619	35.33
270.835	16.9
271.051	-22.02
271.267	-13.82
271.483	76.29
271.698	86.53
271.914	29.18
272.13	53.76
272.346	10.75
272.562	131.58
272.777	53.76
272.993	2.56
273.209	68.09
273.425	59.9
273.64	43.52
273.856	53.76
274.072	-19.97
274.287	31.23
274.503	76.29
274.719	100.86
274.934	-5.63
275.15	55.81
275.366	37.38
275.581	82.43
275.797	14.85
276.012	68.09
276.228	35.33
276.444	4.61
276.659	80.38
276.875	29.18
277.09	14.85
277.306	25.09
277.521	127.49
277.737	4.61
277.952	86.53
278.168	-17.92
278.383	29.18
278.599	-13.82
278.814	51.71
279.03	2.56
279.245	121.34
279.461	51.71
279.676	102.91
279.892	2.56
280.107	23.04
280.322	59.9
280.538	59.9
280.753	-22.02
280.969	-22.02
281.184	-11.78
281.399	68.09
281.615	8.7
281.83	76.29
282.045	0.51
282.26	29.18
282.476	23.04
282.691	47.62
282.906	-11.78
283.122	70.14
283.337	-5.63
283.552	53.76
283.767	-13.82
283.983	18.94
284.198	61.95
284.413	6.66
284.628	37.38
284.843	-11.78
285.058	-13.82
285.274	35.33
285.489	18.94
285.704	43.52
285.919	64
286.134	51.71
286.349	80.38
286.564	35.33
286.779	150.01
286.995	86.53
287.21	39.42
287.425	86.53
287.64	18.94
287.855	27.14
288.07	-48.64
288.285	59.9
288.5	164.35
288.715	53.76
288.93	27.14
289.145	68.09
289.36	84.48
289.575	100.86
289.79	86.53
290.004	4.61
290.219	55.81
290.434	92.67
290.649	39.42
290.864	51.71
291.079	27.14
291.294	94.72
291.509	59.9
291.724	-5.63
291.938	-9.73
292.153	94.72
292.368	-17.92
292.583	35.33
292.798	59.9
293.012	41.47
293.227	100.86
293.442	45.57
293.657	6.66
293.871	43.52
294.086	39.42
294.301	94.72
294.516	88.57
294.73	37.38
294.945	43.52
295.16	37.38
295.374	49.66
295.589	117.25
295.804	20.99
296.018	25.09
296.233	-1.54
296.447	113.15
296.662	-17.92
296.877	86.53
297.091	55.81
297.306	57.86
297.52	53.76
297.735	18.94
297.949	70.14
298.164	41.47
298.378	68.09
298.593	20.99
298.807	-17.92
299.022	10.75
299.236	59.9
299.451	70.14
299.665	29.18
299.88	39.42
300.094	92.67
300.309	41.47
300.523	27.14
300.737	27.14
300.952	84.48
301.166	61.95
301.381	68.09
301.595	-46.59
301.809	12.8
302.024	68.09
302.238	47.62
302.452	84.48
302.667	61.95
302.881	88.57
303.095	0.51
303.309	109.05
303.524	-42.5
303.738	-9.73
303.952	43.52
304.166	92.67
304.381	-1.54
304.595	47.62
304.809	14.85
305.023	47.62
305.237	-13.82
305.452	-22.02
305.666	59.9
305.88	55.81
306.094	43.52
306.308	72.19
306.522	88.57
306.736	68.09
306.95	72.19
307.164	37.38
307.379	86.53
307.593	2.56
307.807	49.66
308.021	80.38
308.235	12.8
308.449	51.71
308.663	72.19
308.877	119.29
309.091	86.53
309.305	84.48
309.519	-5.63
309.733	68.09
309.947	-30.21
310.161	-7.68
310.374	94.72
310.588	78.33
310.802	-97.79
311.016	-5.63
311.23	43.52
311.444	70.14
311.658	92.67
311.872	117.25
312.085	64
312.299	109.05
312.513	49.66
312.727	117.25
312.941	55.81
313.154	12.8
313.368	18.94
313.582	64
313.796	2.56
314.009	27.14
314.223	92.67
314.437	-11.78
314.651	-1.54
314.864	35.33
315.078	-13.82
315.292	35.33
315.505	18.94
315.719	92.67
315.933	47.62
316.146	53.76
316.36	-13.82
316.573	43.52
316.787	51.71
317.001	45.57
317.214	47.62
317.428	100.86
317.641	2.56
317.855	-38.4
318.068	20.99
318.282	12.8
318.495	127.49
318.709	88.57
318.922	53.76
319.136	-22.02
319.349	92.67
319.563	64
319.776	51.71
319.99	18.94
320.203	43.52
320.417	102.91
320.63	51.71
320.843	176.64
321.057	29.18
321.27	92.67
321.483	174.59
321.697	117.25
321.91	27.14
322.124	31.23
322.337	129.53
322.55	27.14
322.763	20.99
322.977	-5.63
323.19	100.86
323.403	53.76
323.617	66.05
323.83	43.52
324.043	47.62
324.256	98.81
324.469	-13.82
324.683	133.63
324.896	39.42
325.109	41.47
325.322	27.14
325.535	154.11
325.748	74.24
325.962	10.75
326.175	92.67
326.388	-19.97
326.601	-3.58
326.814	39.42
327.027	64
327.24	76.29
327.453	-17.92
327.666	47.62
327.879	86.53
328.092	64
328.305	68.09
328.518	20.99
328.731	-9.73
328.944	51.71
329.157	35.33
329.37	-11.78
329.583	86.53
329.796	72.19
330.009	100.86
330.222	43.52
330.435	18.94
330.648	90.62
330.861	27.14
331.073	27.14
331.286	94.72
331.499	51.71
331.712	51.71
331.925	86.53
332.138	20.99
332.35	86.53
332.563	-71.17
332.776	76.29
332.989	96.77
333.202	37.38
333.414	10.75
333.627	51.71
333.84	80.38
334.053	111.1
334.265	59.9
334.478	20.99
334.691	53.76
334.903	49.66
335.116	78.33
335.329	-15.87
335.541	102.91
335.754	100.86
335.966	16.9
336.179	16.9
336.392	82.43
336.604	47.62
336.817	55.81
337.029	100.86
337.242	6.66
337.454	76.29
337.667	55.81
337.88	133.63
338.092	27.14
338.305	117.25
338.517	-46.59
338.729	74.24
338.942	51.71
339.154	29.18
339.367	12.8
339.579	43.52
339.792	2.56
340.004	72.19
340.217	115.2
340.429	-19.97
340.641	20.99
340.854	-42.5
341.066	29.18
341.278	133.63
341.491	109.05
341.703	64
341.915	51.71
342.128	53.76
342.34	16.9
342.552	23.04
342.764	37.38
342.977	14.85
343.189	10.75
343.401	92.67
343.613	27.14
343.826	27.14
344.038	35.33
344.25	72.19
344.462	37.38
344.674	43.52
344.886	55.81
345.099	43.52
345.311	-1.54
345.523	51.71
345.735	-3.58
345.947	-34.3
346.159	84.48
346.371	92.67
346.583	23.04
346.795	86.53
347.007	8.7
347.219	78.33
347.431	51.71
347.643	45.57
347.855	10.75
348.067	84.48
348.279	45.57
348.491	47.62
348.703	-7.68
348.915	27.14
349.127	-30.21
349.339	-5.63
349.551	61.95
349.763	109.05
349.975	27.14
350.187	53.76
350.399	111.1
350.61	29.18
350.822	-1.54
351.034	125.44
351.246	51.71
351.458	86.53
351.669	109.05
351.881	100.86
352.093	45.57
352.305	55.81
352.517	70.14
352.728	86.53
352.94	39.42
353.152	72.19
353.363	76.29
353.575	64
353.787	43.52
353.999	55.81
354.21	100.86
354.422	51.71
354.633	47.62
354.845	43.52
355.057	43.52
355.268	98.81
355.48	92.67
355.692	2.56
355.903	-11.78
356.115	51.71
356.326	27.14
356.538	86.53
356.749	76.29
356.961	109.05
357.172	43.52
357.384	39.42
357.595	59.9
357.807	68.09
358.018	-9.73
358.23	100.86
358.441	55.81
358.653	27.14
358.864	76.29
359.075	76.29
359.287	20.99
359.498	16.9
359.709	76.29
359.921	10.75
360.132	68.09
360.344	23.04
360.555	47.62
360.766	27.14
360.977	78.33
361.189	158.21
361.4	27.14
361.611	100.86
361.823	100.86
362.034	-3.58
362.245	-28.16
362.456	35.33
362.667	154.11
362.879	57.86
363.09	43.52
363.301	37.38
363.512	53.76
363.723	70.14
363.935	51.71
364.146	47.62
364.357	55.81
364.568	82.43
364.779	-13.82
364.99	59.9
365.201	-30.21
365.412	78.33
365.623	88.57
365.834	43.52
366.045	51.71
366.256	80.38
366.467	121.34
366.678	29.18
366.889	59.9
367.1	27.14
367.311	59.9
367.522	51.71
367.733	39.42
367.944	64
368.155	4.61
368.366	27.14
368.577	94.72
368.788	41.47
368.999	51.71
369.209	-3.58
369.42	68.09
369.631	76.29
369.842	133.63
370.053	10.75
370.264	143.87
370.474	14.85
370.685	47.62
370.896	16.9
371.107	100.86
371.317	82.43
371.528	29.18
371.739	127.49
371.95	119.29
372.16	55.81
372.371	57.86
372.582	20.99
372.792	4.61
373.003	84.48
373.214	76.29
373.424	27.14
373.635	20.99
373.846	53.76
374.056	43.52
374.267	80.38
374.477	45.57
374.688	10.75
374.898	59.9
375.109	84.48
375.319	84.48
375.53	82.43
375.74	121.34
375.951	125.44
376.161	133.63
376.372	78.33
376.582	96.77
376.793	-3.58
377.003	20.99
377.214	29.18
377.424	119.29
377.635	37.38
377.845	25.09
378.055	152.06
378.266	94.72
378.476	64
378.686	72.19
378.897	96.77
379.107	121.34
379.317	113.15
379.528	18.94
379.738	90.62
379.948	10.75
380.158	74.24
380.369	61.95
380.579	88.57
380.789	6.66
380.999	70.14
381.21	14.85
381.42	150.01
381.63	-22.02
381.84	53.76
382.05	-13.82
382.261	86.53
382.471	72.19
382.681	68.09
382.891	92.67
383.101	-26.11
383.311	68.09
383.521	143.87
383.731	86.53
383.941	150.01
384.151	68.09
384.361	43.52
384.571	76.29
384.781	109.05
384.991	178.69
385.201	133.63
385.411	53.76
385.621	84.48
385.831	-5.63
386.041	127.49
386.251	12.8
386.461	125.44
386.671	84.48
386.881	150.01
387.091	109.05
387.301	82.43
387.511	55.81
387.72	70.14
387.93	129.53
388.14	86.53
388.35	37.38
388.56	-38.4
388.769	84.48
388.979	45.57
389.189	68.09
389.399	29.18
389.609	113.15
389.818	115.2
390.028	119.29
390.238	45.57
390.447	51.71
390.657	115.2
390.867	109.05
391.076	-22.02
391.286	64
391.496	74.24
391.705	35.33
391.915	137.73
392.125	92.67
392.334	78.33
392.544	92.67
392.753	68.09
392.963	55.81
393.172	100.86
393.382	14.85
393.591	137.73
393.801	125.44
394.01	129.53
394.22	117.25
394.429	51.71
394.639	76.29
394.848	143.87
395.058	84.48
395.267	176.64
395.477	68.09
395.686	84.48
395.895	141.82
396.105	147.97
396.314	113.15
396.524	43.52
396.733	107.01
396.942	20.99
397.152	94.72
397.361	66.05
397.57	141.82
397.78	59.9
397.989	152.06
398.198	174.59
398.407	82.43
398.617	111.1
398.826	113.15
399.035	133.63
399.244	145.92
399.453	104.96
399.663	209.4
399.872	176.64
400.081	109.05
400.29	184.83
400.499	145.92
400.708	174.59
400.917	27.14
401.127	78.33
401.336	135.68
401.545	209.4
401.754	119.29
401.963	182.78
402.172	113.15
402.381	125.44
402.59	74.24
402.799	182.78
403.008	190.97
403.217	219.64
403.426	205.31
403.635	156.16
403.844	223.74
404.053	227.84
404.262	186.88
404.471	307.71
404.68	197.12
404.888	158.21
405.097	184.83
405.306	174.59
405.515	201.21
405.724	233.98
405.933	262.65
406.142	174.59
406.35	297.47
406.559	330.23
406.768	188.93
406.977	256.51
407.185	348.67
407.394	274.94
407.603	285.18
407.812	289.28
408.02	342.52
408.229	313.85
408.438	285.18
408.646	250.36
408.855	260.6
409.064	346.62
409.272	375.29
409.481	305.66
409.69	387.58
409.898	322.04
410.107	395.77
410.315	426.49
410.524	395.77
410.733	489.98
410.941	397.82
411.15	461.3
411.358	467.45
411.567	512.5
411.775	473.59
411.984	526.84
412.192	627.19
412.401	545.27
412.609	535.03
412.818	653.81
413.026	633.33
413.234	707.06
413.443	672.25
413.651	756.21
413.86	756.21
414.068	813.56
414.276	870.9
414.485	776.69
414.693	840.18
414.901	944.63
415.11	850.42
415.318	891.38
415.526	989.68
415.734	1034.74
415.943	1085.94
416.151	1171.95
416.359	1133.04
416.567	1100.27
416.776	1139.18
416.984	1186.29
417.192	1198.57
417.4	1257.96
417.608	1198.57
417.817	1305.07
418.025	1440.23
418.233	1587.69
418.441	1559.02
418.649	1477.1
418.857	1657.32
419.065	1704.42
419.273	1669.61
419.481	1825.25
419.689	1847.78
419.897	1882.6
420.105	2058.72
420.313	2073.06
420.521	2085.34
420.729	2204.13
420.937	2228.7
421.145	2296.28
421.353	2327
421.561	2458.07
421.769	2576.86
421.977	2607.58
422.185	2638.3
422.393	2726.36
422.601	2945.49
422.809	2961.87
423.017	3051.99
423.224	3140.05
423.432	3369.42
423.64	3361.23
423.848	3656.14
424.056	3486.15
424.263	3762.63
424.471	3693
424.679	3860.93
424.887	4080.07
425.094	4092.35
425.302	4198.85
425.51	4311.49
425.718	4409.79
425.925	4452.8
426.133	4544.95
426.341	4979.12
426.548	5210.54
426.756	5114.29
426.964	5228.98
427.171	5716.39
427.379	5618.09
427.586	5710.25
427.794	5900.71
428.001	6033.83
428.209	6367.65
428.417	6236.58
428.624	7029.14
428.832	6793.62
429.039	6744.47
429.247	6771.1
429.454	7401.87
429.662	7842.18
429.869	7225.75
430.076	7813.51
430.284	7621
430.491	7920.01
430.699	8290.69
430.906	8481.15
431.114	8546.69
431.321	8907.13
431.528	9046.39
431.736	9640.3
431.943	9931.11
432.15	9789.8
432.358	9816.43
432.565	10498.4
432.772	10168.68
432.979	11016.54
433.187	10969.43
433.394	11166.04
433.601	11966.79
433.808	12067.14
434.016	11839.82
434.223	12552.51
434.43	12884.28
434.637	12851.52
434.844	13682.99
435.052	13730.09
435.259	13599.02
435.466	14002.47
435.673	13732.14
435.88	14713.12
436.087	15657.23
436.294	15448.34
436.501	15102.23
436.708	15452.44
436.915	15954.19
437.122	16713.98
437.329	16718.08
437.537	17086.72
437.743	17074.43
437.95	17295.61
438.157	18174.19
438.364	18677.99
438.571	19015.9
438.778	18809.06
438.985	20515.01
439.192	19736.79
439.399	20160.72
439.606	19681.49
439.813	20906.18
440.02	22071.47
440.227	21936.31
440.433	21399.74
440.64	22421.67
440.847	21924.02
441.054	22661.29
441.261	24217.74
441.467	24000.66
441.674	24359.05
441.881	25634.94
442.088	25344.13
442.294	24813.7
442.501	25659.51
442.708	26331.25
442.914	26990.69
443.121	28168.27
443.328	27480.16
443.534	29325.38
443.741	28811.34
443.948	28229.71
444.154	29982.77
444.361	30019.64
444.568	30294.07
444.774	30578.73
444.981	30658.6
445.187	31316
445.394	32825.36
445.6	32165.91
445.807	35461.09
446.013	33847.29
446.22	34574.32
446.426	36118.49
446.633	36202.46
446.839	37183.43
447.046	35629.02
447.252	38209.46
447.459	37951.42
447.665	37584.83
447.871	38928.3
448.078	40843.15
448.284	39184.3
448.491	39989.15
448.697	41826.18
448.903	42307.45
449.11	42444.66
449.316	41746.31
449.522	42481.53
449.728	43319.15
449.935	43994.98
450.141	43777.89
450.347	45027.15
450.553	43237.23
450.76	43921.25
450.966	45262.67
451.172	44724.05
451.378	46081.86
451.584	45141.84
451.791	46028.61
451.997	46178.11
452.203	46796.6
452.409	46843.7
452.615	46747.45
452.821	44644.18
453.027	44437.34
453.233	46679.86
453.44	44953.43
453.646	45465.42
453.852	45334.35
454.058	46397.24
454.264	44496.73
454.47	46137.15
454.676	44758.87
454.882	45934.4
455.088	42620.79
455.294	43026.29
455.5	43212.65
455.705	43825
455.911	42499.96
456.117	41383.82
456.323	40755.09
456.529	38401.97
456.735	40282.01
456.941	39137.19
457.147	38477.75
457.352	38000.57
457.558	37183.43
457.764	37289.93
457.97	36415.44
458.176	35600.35
458.381	35557.35
458.587	33814.52
458.793	33861.63
458.999	32370.71
459.204	34607.09
459.41	33490.94
459.616	31082.53
459.821	31621.15
460.027	31309.86
460.233	30316.59
460.438	29169.73
460.644	29478.97
460.85	28010.58
461.055	27449.44
461.261	27381.85
461.466	25520.25
461.672	24932.48
461.878	26486.89
462.083	24549.51
462.289	24096.91
462.494	24121.49
462.7	23296.16
462.905	22460.59
463.111	23058.59
463.316	23160.99
463.522	22479.02
463.727	22804.64
463.932	22710.44
464.138	22227.12
464.343	22626.47
464.549	21852.34
464.754	22687.91
464.959	22573.22
465.165	21819.57
465.37	21047.49
465.575	20588.74
465.781	21313.72
465.986	21616.82
466.191	20992.19
466.397	20422.86
466.602	19734.74
466.807	20127.95
467.012	20418.76
