Data from USB4F104151__122__14-31-17-859.txt Node

Date: Thu Mar 13 14:31:17 EDT 2025
User: louis
Spectrometer: USB4F10415
Trigger mode: 4
Integration Time (sec): 2.500000E-2
Scans to average: 1
Electric dark correction enabled: true
Nonlinearity correction enabled: false
Boxcar width: 0
XAxis mode: Wavelengths
Number of Pixels in Spectrum: 3648
>>>>>Begin Spectral Data<<<<<
178.204	-205.82
178.424	-205.82
178.644	-205.82
178.864	-99.33
179.084	-201.72
179.304	-58.37
179.524	33.79
179.744	-35.84
179.964	89.09
180.184	56.32
180.404	-78.85
180.624	56.32
180.844	-31.74
181.064	7.17
181.283	-50.18
181.503	13.31
181.723	-1.02
181.943	-107.52
182.163	123.9
182.383	-5.12
182.602	91.13
182.822	7.17
183.042	91.13
183.262	-64.51
183.482	15.36
183.701	-29.7
183.921	64.51
184.141	58.37
184.361	33.79
184.58	-54.27
184.8	17.41
185.02	19.46
185.239	111.61
185.459	44.03
185.679	39.94
185.898	7.17
186.118	7.17
186.338	56.32
186.557	39.94
186.777	50.18
186.997	60.42
187.216	44.03
187.436	-13.31
187.655	68.61
187.875	44.03
188.095	44.03
188.314	66.56
188.534	115.71
188.753	31.74
188.973	138.24
189.192	123.9
189.412	15.36
189.631	48.13
189.851	46.08
190.07	-17.41
190.29	50.18
190.509	-17.41
190.729	33.79
190.948	21.5
191.168	164.86
191.387	68.61
191.607	23.55
191.826	27.65
192.045	-17.41
192.265	17.41
192.484	-3.07
192.704	-5.12
192.923	50.18
193.142	89.09
193.362	56.32
193.581	48.13
193.8	-11.26
194.02	64.51
194.239	80.89
194.458	64.51
194.678	58.37
194.897	58.37
195.116	-7.17
195.335	44.03
195.555	105.47
195.774	50.18
195.993	62.46
196.212	3.07
196.432	89.09
196.651	15.36
196.87	60.42
197.089	74.75
197.308	103.42
197.528	76.8
197.747	-39.94
197.966	64.51
198.185	31.74
198.404	-64.51
198.623	48.13
198.842	41.98
199.062	64.51
199.281	113.66
199.5	56.32
199.719	19.46
199.938	84.99
200.157	130.05
200.376	-1.02
200.595	105.47
200.814	80.89
201.033	68.61
201.252	95.23
201.471	23.55
201.69	82.94
201.909	105.47
202.128	-33.79
202.347	78.85
202.566	91.13
202.785	-23.55
203.004	72.7
203.223	138.24
203.442	7.17
203.661	23.55
203.879	27.65
204.098	84.99
204.317	41.98
204.536	93.18
204.755	62.46
204.974	70.65
205.193	48.13
205.411	82.94
205.63	54.27
205.849	39.94
206.068	97.28
206.287	48.13
206.505	84.99
206.724	64.51
206.943	-1.02
207.162	17.41
207.381	54.27
207.599	58.37
207.818	7.17
208.037	35.84
208.255	48.13
208.474	113.66
208.693	9.22
208.911	5.12
209.13	74.75
209.349	93.18
209.567	25.6
209.786	74.75
210.005	-80.89
210.223	48.13
210.442	-19.46
210.661	1.02
210.879	-27.65
211.098	15.36
211.316	31.74
211.535	74.75
211.753	9.22
211.972	25.6
212.191	35.84
212.409	97.28
212.628	7.17
212.846	15.36
213.065	84.99
213.283	60.42
213.502	-23.55
213.72	-54.27
213.938	56.32
214.157	7.17
214.375	-13.31
214.594	31.74
214.812	105.47
215.031	109.57
215.249	-33.79
215.467	33.79
215.686	66.56
215.904	64.51
216.122	-9.22
216.341	64.51
216.559	58.37
216.778	15.36
216.996	60.42
217.214	-72.7
217.432	82.94
217.651	-27.65
217.869	-46.08
218.087	37.89
218.306	33.79
218.524	80.89
218.742	31.74
218.96	64.51
219.179	52.22
219.397	13.31
219.615	168.96
219.833	80.89
220.051	25.6
220.27	35.84
220.488	115.71
220.706	7.17
220.924	50.18
221.142	7.17
221.36	80.89
221.578	23.55
221.796	7.17
222.015	41.98
222.233	89.09
222.451	130.05
222.669	31.74
222.887	41.98
223.105	27.65
223.323	-35.84
223.541	-1.02
223.759	60.42
223.977	15.36
224.195	27.65
224.413	60.42
224.631	56.32
224.849	70.65
225.067	140.29
225.285	23.55
225.503	76.8
225.721	-1.02
225.939	39.94
226.157	56.32
226.375	113.66
226.592	-13.31
226.81	52.22
227.028	37.89
227.246	101.37
227.464	27.65
227.682	80.89
227.9	56.32
228.117	56.32
228.335	123.9
228.553	31.74
228.771	5.12
228.989	17.41
229.206	15.36
229.424	76.8
229.642	-17.41
229.86	-15.36
230.077	150.53
230.295	91.13
230.513	50.18
230.731	105.47
230.948	17.41
231.166	123.9
231.384	80.89
231.601	58.37
231.819	66.56
232.037	31.74
232.254	-9.22
232.472	68.61
232.689	-33.79
232.907	121.85
233.125	19.46
233.342	46.08
233.56	58.37
233.777	-17.41
233.995	1.02
234.213	82.94
234.43	15.36
234.648	35.84
234.865	58.37
235.083	52.22
235.3	64.51
235.518	-11.26
235.735	62.46
235.953	48.13
236.17	1.02
236.388	82.94
236.605	97.28
236.822	132.09
237.04	107.52
237.257	39.94
237.475	-11.26
237.692	5.12
237.909	80.89
238.127	-25.6
238.344	56.32
238.562	48.13
238.779	23.55
238.996	39.94
239.214	39.94
239.431	19.46
239.648	-39.94
239.865	31.74
240.083	15.36
240.3	105.47
240.517	31.74
240.735	31.74
240.952	7.17
241.169	52.22
241.386	-17.41
241.603	93.18
241.821	76.8
242.038	7.17
242.255	74.75
242.472	56.32
242.689	54.27
242.907	125.95
243.124	95.23
243.341	48.13
243.558	48.13
243.775	72.7
243.992	-50.18
244.209	27.65
244.426	107.52
244.643	23.55
244.86	64.51
245.078	7.17
245.295	41.98
245.512	13.31
245.729	17.41
245.946	-3.07
246.163	130.05
246.38	70.65
246.597	15.36
246.814	1.02
247.031	-5.12
247.248	41.98
247.464	41.98
247.681	35.84
247.898	44.03
248.115	58.37
248.332	15.36
248.549	154.62
248.766	52.22
248.983	89.09
249.2	80.89
249.417	134.14
249.633	-21.5
249.85	115.71
250.067	33.79
250.284	-7.17
250.501	56.32
250.717	84.99
250.934	7.17
251.151	72.7
251.368	-1.02
251.585	68.61
251.801	68.61
252.018	66.56
252.235	105.47
252.451	-5.12
252.668	48.13
252.885	76.8
253.102	-9.22
253.318	15.36
253.535	-15.36
253.752	27.65
253.968	62.46
254.185	-48.13
254.401	66.56
254.618	72.7
254.835	72.7
255.051	64.51
255.268	39.94
255.484	46.08
255.701	44.03
255.917	99.33
256.134	-21.5
256.351	134.14
256.567	1.02
256.784	11.26
257	84.99
257.217	15.36
257.433	23.55
257.65	41.98
257.866	37.89
258.082	7.17
258.299	72.7
258.515	21.5
258.732	44.03
258.948	-54.27
259.165	15.36
259.381	-17.41
259.597	44.03
259.814	9.22
260.03	31.74
260.246	39.94
260.463	-3.07
260.679	95.23
260.895	64.51
261.112	121.85
261.328	27.65
261.544	64.51
261.761	84.99
261.977	-7.17
262.193	-1.02
262.409	58.37
262.626	74.75
262.842	3.07
263.058	-13.31
263.274	123.9
263.49	-15.36
263.707	89.09
263.923	66.56
264.139	-54.27
264.355	39.94
264.571	130.05
264.787	39.94
265.004	58.37
265.22	23.55
265.436	66.56
265.652	3.07
265.868	31.74
266.084	25.6
266.3	27.65
266.516	33.79
266.732	31.74
266.948	-13.31
267.164	23.55
267.38	64.51
267.596	52.22
267.812	89.09
268.028	142.33
268.244	17.41
268.46	84.99
268.676	56.32
268.892	91.13
269.108	1.02
269.324	113.66
269.54	17.41
269.756	80.89
269.972	-7.17
270.188	82.94
270.403	11.26
270.619	80.89
270.835	13.31
271.051	64.51
271.267	80.89
271.483	27.65
271.698	15.36
271.914	60.42
272.13	31.74
272.346	56.32
272.562	68.61
272.777	97.28
272.993	33.79
273.209	-50.18
273.425	31.74
273.64	23.55
273.856	115.71
274.072	56.32
274.287	72.7
274.503	93.18
274.719	72.7
274.934	64.51
275.15	50.18
275.366	66.56
275.581	23.55
275.797	50.18
276.012	56.32
276.228	50.18
276.444	68.61
276.659	60.42
276.875	-31.74
277.09	-17.41
277.306	44.03
277.521	89.09
277.737	1.02
277.952	52.22
278.168	84.99
278.383	101.37
278.599	105.47
278.814	68.61
279.03	33.79
279.245	50.18
279.461	29.7
279.676	58.37
279.892	3.07
280.107	-9.22
280.322	76.8
280.538	-5.12
280.753	-21.5
280.969	31.74
281.184	-19.46
281.399	58.37
281.615	44.03
281.83	68.61
282.045	15.36
282.26	101.37
282.476	80.89
282.691	50.18
282.906	46.08
283.122	-15.36
283.337	82.94
283.552	15.36
283.767	66.56
283.983	52.22
284.198	39.94
284.413	39.94
284.628	64.51
284.843	68.61
285.058	60.42
285.274	44.03
285.489	17.41
285.704	48.13
285.919	13.31
286.134	72.7
286.349	58.37
286.564	17.41
286.779	52.22
286.995	54.27
287.21	-37.89
287.425	74.75
287.64	-35.84
287.855	48.13
288.07	-5.12
288.285	35.84
288.5	62.46
288.715	62.46
288.93	58.37
289.145	52.22
289.36	35.84
289.575	50.18
289.79	138.24
290.004	19.46
290.219	105.47
290.434	27.65
290.649	48.13
290.864	93.18
291.079	41.98
291.294	80.89
291.509	58.37
291.724	56.32
291.938	17.41
292.153	64.51
292.368	17.41
292.583	23.55
292.798	150.53
293.012	44.03
293.227	97.28
293.442	66.56
293.657	66.56
293.871	199.68
294.086	72.7
294.301	84.99
294.516	64.51
294.73	31.74
294.945	21.5
295.16	-1.02
295.374	78.85
295.589	125.95
295.804	21.5
296.018	52.22
296.233	121.85
296.447	97.28
296.662	1.02
296.877	113.66
297.091	37.89
297.306	41.98
297.52	72.7
297.735	89.09
297.949	111.61
298.164	76.8
298.378	-7.17
298.593	17.41
298.807	44.03
299.022	56.32
299.236	107.52
299.451	-3.07
299.665	3.07
299.88	50.18
300.094	21.5
300.309	62.46
300.523	64.51
300.737	-11.26
300.952	82.94
301.166	76.8
301.381	31.74
301.595	17.41
301.809	48.13
302.024	7.17
302.238	-41.98
302.452	84.99
302.667	23.55
302.881	58.37
303.095	72.7
303.309	56.32
303.524	99.33
303.738	93.18
303.952	48.13
304.166	74.75
304.381	27.65
304.595	80.89
304.809	-11.26
305.023	107.52
305.237	-29.7
305.452	33.79
305.666	52.22
305.88	162.81
306.094	66.56
306.308	74.75
306.522	66.56
306.736	41.98
306.95	62.46
307.164	44.03
307.379	-41.98
307.593	-1.02
307.807	89.09
308.021	113.66
308.235	93.18
308.449	56.32
308.663	72.7
308.877	17.41
309.091	64.51
309.305	91.13
309.519	-37.89
309.733	119.81
309.947	31.74
310.161	1.02
310.374	39.94
310.588	97.28
310.802	15.36
311.016	72.7
311.23	58.37
311.444	11.26
311.658	115.71
311.872	33.79
312.085	123.9
312.299	64.51
312.513	89.09
312.727	97.28
312.941	1.02
313.154	103.42
313.368	1.02
313.582	29.7
313.796	35.84
314.009	41.98
314.223	93.18
314.437	27.65
314.651	-3.07
314.864	23.55
315.078	33.79
315.292	-7.17
315.505	-1.02
315.719	91.13
315.933	66.56
316.146	48.13
316.36	-23.55
316.573	89.09
316.787	48.13
317.001	52.22
317.214	31.74
317.428	52.22
317.641	21.5
317.855	15.36
318.068	5.12
318.282	89.09
318.495	74.75
318.709	58.37
318.922	97.28
319.136	58.37
319.349	80.89
319.563	48.13
319.776	-1.02
319.99	39.94
320.203	121.85
320.417	105.47
320.63	138.24
320.843	134.14
321.057	117.76
321.27	82.94
321.483	74.75
321.697	107.52
321.91	23.55
322.124	97.28
322.337	-23.55
322.55	82.94
322.763	11.26
322.977	123.9
323.19	-23.55
323.403	-5.12
323.617	82.94
323.83	56.32
324.043	80.89
324.256	101.37
324.469	19.46
324.683	37.89
324.896	134.14
325.109	76.8
325.322	72.7
325.535	89.09
325.748	58.37
325.962	48.13
326.175	25.6
326.388	95.23
326.601	35.84
326.814	80.89
327.027	37.89
327.24	103.42
327.453	-27.65
327.666	82.94
327.879	58.37
328.092	-1.02
328.305	72.7
328.518	84.99
328.731	11.26
328.944	66.56
329.157	80.89
329.37	41.98
329.583	121.85
329.796	50.18
330.009	15.36
330.222	105.47
330.435	97.28
330.648	87.04
330.861	87.04
331.073	76.8
331.286	39.94
331.499	89.09
331.712	31.74
331.925	99.33
332.138	25.6
332.35	140.29
332.563	-31.74
332.776	121.85
332.989	-11.26
333.202	56.32
333.414	48.13
333.627	113.66
333.84	76.8
334.053	52.22
334.265	23.55
334.478	97.28
334.691	29.7
334.903	-25.6
335.116	31.74
335.329	91.13
335.541	35.84
335.754	97.28
335.966	72.7
336.179	64.51
336.392	48.13
336.604	84.99
336.817	48.13
337.029	54.27
337.242	78.85
337.454	74.75
337.667	84.99
337.88	84.99
338.092	154.62
338.305	56.32
338.517	35.84
338.729	33.79
338.942	31.74
339.154	15.36
339.367	60.42
339.579	115.71
339.792	-33.79
340.004	136.19
340.217	56.32
340.429	25.6
340.641	48.13
340.854	27.65
341.066	-1.02
341.278	7.17
341.491	121.85
341.703	-1.02
341.915	31.74
342.128	58.37
342.34	62.46
342.552	25.6
342.764	44.03
342.977	80.89
343.189	52.22
343.401	-1.02
343.613	5.12
343.826	11.26
344.038	37.89
344.25	68.61
344.462	7.17
344.674	107.52
344.886	17.41
345.099	97.28
345.311	-9.22
345.523	-9.22
345.735	41.98
345.947	17.41
346.159	-17.41
346.371	130.05
346.583	-50.18
346.795	142.33
347.007	68.61
347.219	-9.22
347.431	101.37
347.643	117.76
347.855	74.75
348.067	89.09
348.279	15.36
348.491	91.13
348.703	99.33
348.915	37.89
349.127	46.08
349.339	56.32
349.551	7.17
349.763	158.72
349.975	64.51
350.187	99.33
350.399	54.27
350.61	138.24
350.822	78.85
351.034	117.76
351.246	105.47
351.458	93.18
351.669	113.66
351.881	97.28
352.093	101.37
352.305	125.95
352.517	152.57
352.728	107.52
352.94	89.09
353.152	82.94
353.363	48.13
353.575	84.99
353.787	113.66
353.999	72.7
354.21	105.47
354.422	41.98
354.633	41.98
354.845	89.09
355.057	115.71
355.268	74.75
355.48	62.46
355.692	19.46
355.903	146.43
356.115	52.22
356.326	7.17
356.538	66.56
356.749	-1.02
356.961	113.66
357.172	84.99
357.384	15.36
357.595	113.66
357.807	132.09
358.018	19.46
358.23	50.18
358.441	123.9
358.653	121.85
358.864	82.94
359.075	19.46
359.287	-23.55
359.498	132.09
359.709	70.65
359.921	48.13
360.132	97.28
360.344	60.42
360.555	-3.07
360.766	97.28
360.977	7.17
361.189	154.62
361.4	93.18
361.611	154.62
361.823	48.13
362.034	72.7
362.245	60.42
362.456	105.47
362.667	56.32
362.879	5.12
363.09	84.99
363.301	91.13
363.512	72.7
363.723	76.8
363.935	89.09
364.146	72.7
364.357	1.02
364.568	166.91
364.779	39.94
364.99	68.61
365.201	23.55
365.412	136.19
365.623	68.61
365.834	115.71
366.045	1.02
366.256	78.85
366.467	66.56
366.678	76.8
366.889	74.75
367.1	80.89
367.311	89.09
367.522	48.13
367.733	58.37
367.944	113.66
368.155	76.8
368.366	80.89
368.577	115.71
368.788	132.09
368.999	66.56
369.209	39.94
369.42	156.67
369.631	160.77
369.842	97.28
370.053	82.94
370.264	115.71
370.474	-29.7
370.685	39.94
370.896	66.56
371.107	97.28
371.317	109.57
371.528	11.26
371.739	132.09
371.95	107.52
372.16	7.17
372.371	27.65
372.582	44.03
372.792	3.07
373.003	66.56
373.214	66.56
373.424	146.43
373.635	48.13
373.846	162.81
374.056	130.05
374.267	99.33
374.477	60.42
374.688	33.79
374.898	76.8
375.109	89.09
375.319	78.85
375.53	58.37
375.74	146.43
375.951	84.99
376.161	105.47
376.372	123.9
376.582	31.74
376.793	-1.02
377.003	60.42
377.214	111.61
377.424	130.05
377.635	95.23
377.845	87.04
378.055	93.18
378.266	5.12
378.476	60.42
378.686	72.7
378.897	89.09
379.107	64.51
379.317	132.09
379.528	91.13
379.738	130.05
379.948	13.31
380.158	66.56
380.369	89.09
380.579	37.89
380.789	-7.17
380.999	95.23
381.21	107.52
381.42	123.9
381.63	31.74
381.84	80.89
382.05	89.09
382.261	84.99
382.471	146.43
382.681	74.75
382.891	121.85
383.101	74.75
383.311	91.13
383.521	82.94
383.731	68.61
383.941	162.81
384.151	101.37
384.361	84.99
384.571	39.94
384.781	68.61
384.991	125.95
385.201	146.43
385.411	109.57
385.621	-9.22
385.831	72.7
386.041	89.09
386.251	72.7
386.461	39.94
386.671	91.13
386.881	64.51
387.091	68.61
387.301	93.18
387.511	35.84
387.72	121.85
387.93	82.94
388.14	-15.36
388.35	82.94
388.56	146.43
388.769	105.47
388.979	146.43
389.189	109.57
389.399	105.47
389.609	97.28
389.818	84.99
390.028	146.43
390.238	84.99
390.447	23.55
390.657	91.13
390.867	140.29
391.076	27.65
391.286	181.25
391.496	97.28
391.705	121.85
391.915	183.29
392.125	68.61
392.334	140.29
392.544	148.48
392.753	119.81
392.963	109.57
393.172	179.2
393.382	91.13
393.591	132.09
393.801	64.51
394.01	105.47
394.22	132.09
394.429	95.23
394.639	150.53
394.848	191.49
395.058	128
395.267	121.85
395.477	107.52
395.686	166.91
395.895	171.01
396.105	152.57
396.314	117.76
396.524	113.66
396.733	150.53
396.942	177.15
397.152	136.19
397.361	171.01
397.57	158.72
397.78	89.09
397.989	148.48
398.198	187.39
398.407	238.59
398.617	58.37
398.826	105.47
399.035	181.25
399.244	146.43
399.453	121.85
399.663	117.76
399.872	162.81
400.081	121.85
400.29	248.83
400.499	82.94
400.708	191.49
400.917	95.23
401.127	89.09
401.336	179.2
401.545	236.54
401.754	191.49
401.963	222.2
402.172	179.2
402.381	179.2
402.59	181.25
402.799	171.01
403.008	259.07
403.217	146.43
403.426	252.92
403.635	168.96
403.844	189.44
404.053	175.1
404.262	250.88
404.471	166.91
404.68	252.92
404.888	220.16
405.097	183.29
405.306	328.7
405.515	320.51
405.724	228.35
405.933	207.87
406.142	214.01
406.35	220.16
406.559	295.93
406.768	304.12
406.977	306.17
407.185	302.08
407.394	386.04
407.603	273.4
407.812	367.61
408.02	402.43
408.229	343.03
408.438	326.65
408.646	349.18
408.855	388.09
409.064	392.19
409.272	400.38
409.481	474.1
409.69	439.29
409.898	375.8
410.107	490.49
410.315	476.15
410.524	506.87
410.733	494.58
410.941	594.93
411.15	625.65
411.358	582.65
411.567	582.65
411.775	668.66
411.984	646.13
412.192	736.24
412.401	715.77
412.609	699.38
412.818	760.82
413.026	826.36
413.234	740.34
413.443	861.17
413.651	877.55
413.86	842.74
414.068	984.05
414.276	934.9
414.485	945.14
414.693	1072.11
414.901	1139.69
415.11	1160.17
415.318	1199.09
415.526	1113.07
415.734	1162.22
415.943	1170.41
416.151	1281
416.359	1354.73
416.567	1371.12
416.776	1354.73
416.984	1473.51
417.192	1530.86
417.4	1696.74
417.608	1596.39
417.817	1637.35
418.025	1649.64
418.233	1803.24
418.441	1752.04
418.649	1919.97
418.857	1932.26
419.065	1981.41
419.273	2116.58
419.481	2071.52
419.689	2251.74
419.897	2327.52
420.105	2343.9
420.313	2450.39
420.521	2663.38
420.729	2581.46
420.937	2694.1
421.145	2749.4
421.353	2849.75
421.561	2923.48
421.769	3138.51
421.977	3234.77
422.185	3236.81
422.393	3460.04
422.601	3646.41
422.809	3570.63
423.017	3529.67
423.224	3820.49
423.432	3816.39
423.64	3875.78
423.848	4301.76
424.056	4225.98
424.263	4438.97
424.471	4504.51
424.679	4621.24
424.887	4803.51
425.094	4924.34
425.302	5012.4
425.51	5274.54
425.718	5323.69
425.925	5391.28
426.133	5637.03
426.341	5850.02
426.548	6144.93
426.756	6155.17
426.964	6169.51
427.171	6749.08
427.379	6824.86
427.586	6814.62
427.794	7297.94
428.001	7228.31
428.209	7617.42
428.417	7537.55
428.624	8090.5
428.832	8108.93
429.039	7906.18
429.247	8141.7
429.454	8952.7
429.662	9511.79
429.869	8895.35
430.076	9610.09
430.284	9339.76
430.491	9497.46
430.699	10120.04
430.906	10072.93
431.114	10353.51
431.321	10584.93
431.528	10746.72
431.736	11271
431.943	11979.59
432.15	11647.82
432.358	11570
432.565	12376.9
432.772	12299.08
432.979	13024.06
433.187	13304.63
433.394	13302.58
433.601	14234.41
433.808	14312.23
434.016	14162.73
434.223	14707.49
434.43	15760.14
434.637	15420.18
434.844	16292.62
435.052	16409.35
435.259	16497.41
435.466	16442.12
435.673	16259.85
435.88	17451.77
436.087	18354.92
436.294	18414.31
436.501	17933.04
436.708	18127.6
436.915	18860.77
437.122	19989.2
437.329	19948.24
437.537	20495.05
437.743	20392.65
437.95	20611.78
438.157	21299.9
438.364	22172.33
438.571	22413.99
438.778	22479.53
438.985	24341.13
439.192	23599.77
439.399	24011.41
439.606	23523.99
439.813	25424.51
440.02	26614.38
440.227	26079.86
440.433	25563.77
440.64	26634.86
440.847	26264.18
441.054	26956.39
441.261	28869.19
441.467	28387.92
441.674	28752.46
441.881	30134.84
442.088	29911.61
442.294	29850.17
442.501	30493.23
442.708	30896.68
442.914	32057.88
443.121	33370.63
443.328	32819.72
443.534	34695.66
443.741	33954.3
443.948	33307.14
444.154	36004.31
444.361	35805.66
444.568	35860.96
444.774	35717.6
444.981	36327.89
445.187	37507.52
445.394	38721.97
445.6	38375.86
445.807	41771.39
446.013	39924.13
446.22	40886.67
446.426	42353.02
446.633	42785.14
446.839	43774.31
447.046	42199.42
447.252	44732.76
447.459	44611.93
447.665	44675.41
447.871	46516.54
448.078	48310.56
448.284	46049.6
448.491	47194.42
448.697	48992.53
448.903	49590.54
449.11	49778.95
449.316	49330.45
449.522	50352.38
449.728	51294.45
449.935	51712.23
450.141	51724.52
450.347	52920.54
450.553	51155.19
450.76	51605.74
450.966	53434.58
451.172	52730.08
451.378	54122.69
451.584	52996.31
451.791	54558.91
451.997	54462.66
452.203	55271.6
452.409	54948.03
452.615	55095.48
452.821	52771.03
453.027	52949.21
453.233	54753.47
453.44	52750.56
453.646	53405.91
453.852	53315.79
454.058	54939.83
454.264	53111
454.47	54079.69
454.676	52981.98
454.882	54763.71
455.088	49830.15
455.294	50968.82
455.5	51593.45
455.705	52205.8
455.911	49948.93
456.117	48902.42
456.323	48763.16
456.529	46059.84
456.735	47890.73
456.941	46893.36
457.147	46055.75
457.352	44896.59
457.558	44081.5
457.764	44515.67
457.97	43731.3
458.176	42807.67
458.381	42463.61
458.587	40620.44
458.793	40120.73
458.999	38291.9
459.204	41191.82
459.41	40278.43
459.616	37181.9
459.821	37454.28
460.027	37157.32
460.233	36501.97
460.438	34830.83
460.644	35363.3
460.85	33561.09
461.055	33163.78
461.261	33133.06
461.466	30724.65
461.672	29407.81
461.878	31113.77
462.083	29719.1
462.289	29237.83
462.494	28740.17
462.7	27544.16
462.905	26954.34
463.111	27660.89
463.316	27968.09
463.522	27267.68
463.727	27173.47
463.932	27343.45
464.138	26657.39
464.343	26937.96
464.549	26225.26
464.754	26696.3
464.959	26593.9
465.165	26618.47
465.37	25240.19
465.575	24605.32
465.781	25817.72
465.986	25684.6
