Data from USB4F104151__180__14-32-50-508.txt Node

Date: Thu Mar 13 14:32:50 EDT 2025
User: louis
Spectrometer: USB4F10415
Trigger mode: 4
Integration Time (sec): 2.500000E-2
Scans to average: 1
Electric dark correction enabled: true
Nonlinearity correction enabled: false
Boxcar width: 0
XAxis mode: Wavelengths
Number of Pixels in Spectrum: 3648
>>>>>Begin Spectral Data<<<<<
178.204	-100.18
178.424	-100.18
178.644	-100.18
178.864	-137.04
179.084	-102.23
179.304	43.18
179.524	-1.88
179.744	77.99
179.964	45.23
180.184	4.27
180.404	-18.26
180.624	6.31
180.844	-28.5
181.064	-71.51
181.283	-42.84
181.503	-94.04
181.723	80.04
181.943	-67.41
182.163	55.47
182.383	26.79
182.602	51.37
182.822	37.03
183.042	-51.03
183.262	-100.18
183.482	34.99
183.701	-5.97
183.921	-14.17
184.141	14.51
184.361	-5.97
184.58	30.89
184.8	18.6
185.02	-32.6
185.239	96.43
185.459	18.6
185.679	-14.17
185.898	-61.27
186.118	43.18
186.338	2.22
186.557	55.47
186.777	-48.98
186.997	77.99
187.216	71.85
187.436	26.79
187.655	-1.88
187.875	102.57
188.095	-10.07
188.314	28.84
188.534	41.13
188.753	84.14
188.973	43.18
189.192	43.18
189.412	-14.17
189.631	59.56
189.851	106.67
190.07	47.27
190.29	-51.03
190.509	-1.88
190.729	59.56
190.948	-1.88
191.168	190.63
191.387	43.18
191.607	-3.93
191.826	-14.17
192.045	100.52
192.265	39.08
192.484	43.18
192.704	18.6
192.923	-81.75
193.142	55.47
193.362	18.6
193.581	67.75
193.8	-28.5
194.02	67.75
194.239	-10.07
194.458	43.18
194.678	43.18
194.897	84.14
195.116	-10.07
195.335	51.37
195.555	37.03
195.774	57.51
195.993	37.03
196.212	47.27
196.432	-36.69
196.651	30.89
196.87	16.55
197.089	149.67
197.308	-3.93
197.528	39.08
197.747	-12.12
197.966	-5.97
198.185	34.99
198.404	-5.97
198.623	-3.93
198.842	125.1
199.062	51.37
199.281	90.28
199.5	71.85
199.719	10.41
199.938	75.95
200.157	71.85
200.376	121
200.595	108.71
200.814	30.89
201.033	39.08
201.252	112.81
201.471	90.28
201.69	53.42
201.909	75.95
202.128	55.47
202.347	22.7
202.566	28.84
202.785	114.86
203.004	8.36
203.223	149.67
203.442	2.22
203.661	12.46
203.879	67.75
204.098	51.37
204.317	67.75
204.536	26.79
204.755	67.75
204.974	84.14
205.193	39.08
205.411	26.79
205.63	123.05
205.849	2.22
206.068	100.52
206.287	-14.17
206.505	92.33
206.724	-16.21
206.943	-22.36
207.162	22.7
207.381	43.18
207.599	34.99
207.818	12.46
208.037	108.71
208.255	63.66
208.474	26.79
208.693	59.56
208.911	73.9
209.13	14.51
209.349	10.41
209.567	80.04
209.786	28.84
210.005	30.89
210.223	37.03
210.442	53.42
210.661	34.99
210.879	82.09
211.098	86.19
211.316	30.89
211.535	100.52
211.753	8.36
211.972	59.56
212.191	34.99
212.409	102.57
212.628	2.22
212.846	-26.45
213.065	71.85
213.283	45.23
213.502	-75.6
213.72	26.79
213.938	-5.97
214.157	59.56
214.375	47.27
214.594	37.03
214.812	14.51
215.031	51.37
215.249	112.81
215.467	92.33
215.686	22.7
215.904	26.79
216.122	47.27
216.341	47.27
216.559	-20.31
216.778	14.51
216.996	37.03
217.214	75.95
217.432	55.47
217.651	2.22
217.869	32.94
218.087	34.99
218.306	-34.64
218.524	71.85
218.742	24.75
218.96	30.89
219.179	10.41
219.397	71.85
219.615	110.76
219.833	49.32
220.051	10.41
220.27	121
220.488	18.6
220.706	114.86
220.924	12.46
221.142	43.18
221.36	-63.32
221.578	88.23
221.796	30.89
222.015	69.8
222.233	51.37
222.451	51.37
222.669	4.27
222.887	37.03
223.105	26.79
223.323	2.22
223.541	-16.21
223.759	43.18
223.977	10.41
224.195	77.99
224.413	98.47
224.631	30.89
224.849	37.03
225.067	200.87
225.285	18.6
225.503	34.99
225.721	-44.88
225.939	61.61
226.157	135.34
226.375	104.62
226.592	18.6
226.81	106.67
227.028	26.79
227.246	43.18
227.464	61.61
227.682	45.23
227.9	6.31
228.117	14.51
228.335	49.32
228.553	47.27
228.771	84.14
228.989	51.37
229.206	10.41
229.424	45.23
229.642	-1.88
229.86	18.6
230.077	67.75
230.295	92.33
230.513	84.14
230.731	84.14
230.948	41.13
231.166	55.47
231.384	71.85
231.601	69.8
231.819	86.19
232.037	22.7
232.254	-28.5
232.472	-1.88
232.689	26.79
232.907	92.33
233.125	39.08
233.342	-48.98
233.56	-14.17
233.777	92.33
233.995	84.14
234.213	69.8
234.43	26.79
234.648	28.84
234.865	37.03
235.083	108.71
235.3	80.04
235.518	63.66
235.735	43.18
235.953	77.99
236.17	16.55
236.388	2.22
236.605	34.99
236.822	92.33
237.04	82.09
237.257	45.23
237.475	69.8
237.692	-12.12
237.909	96.43
238.127	-61.27
238.344	61.61
238.562	12.46
238.779	-36.69
238.996	-48.98
239.214	0.17
239.431	53.42
239.648	-73.56
239.865	43.18
240.083	75.95
240.3	45.23
240.517	-28.5
240.735	80.04
240.952	39.08
241.169	34.99
241.386	16.55
241.603	22.7
241.821	43.18
242.038	43.18
242.255	18.6
242.472	-22.36
242.689	100.52
242.907	69.8
243.124	34.99
243.341	47.27
243.558	71.85
243.775	43.18
243.992	-10.07
244.209	39.08
244.426	116.9
244.643	39.08
244.86	37.03
245.078	8.36
245.295	10.41
245.512	-77.65
245.729	2.22
245.946	-22.36
246.163	-63.32
246.38	-16.21
246.597	96.43
246.814	-20.31
247.031	22.7
247.248	129.19
247.464	43.18
247.681	90.28
247.898	80.04
248.115	18.6
248.332	-36.69
248.549	67.75
248.766	26.79
248.983	39.08
249.2	-32.6
249.417	18.6
249.633	61.61
249.85	69.8
250.067	47.27
250.284	12.46
250.501	37.03
250.717	69.8
250.934	-22.36
251.151	82.09
251.368	61.61
251.585	121
251.801	20.65
252.018	12.46
252.235	59.56
252.451	0.17
252.668	12.46
252.885	92.33
253.102	92.33
253.318	4.27
253.535	-14.17
253.752	-40.79
253.968	63.66
254.185	-8.02
254.401	24.75
254.618	30.89
254.835	-51.03
255.051	80.04
255.268	-14.17
255.484	65.71
255.701	65.71
255.917	100.52
256.134	-83.8
256.351	37.03
256.567	-30.55
256.784	10.41
257	-1.88
257.217	32.94
257.433	18.6
257.65	59.56
257.866	10.41
258.082	8.36
258.299	-18.26
258.515	-5.97
258.732	34.99
258.948	-34.64
259.165	84.14
259.381	-5.97
259.597	53.42
259.814	26.79
260.03	14.51
260.246	137.38
260.463	-5.97
260.679	129.19
260.895	-22.36
261.112	86.19
261.328	8.36
261.544	67.75
261.761	43.18
261.977	69.8
262.193	-79.7
262.409	61.61
262.626	20.65
262.842	-5.97
263.058	0.17
263.274	82.09
263.49	67.75
263.707	67.75
263.923	18.6
264.139	-34.64
264.355	125.1
264.571	141.48
264.787	-3.93
265.004	110.76
265.22	26.79
265.436	2.22
265.652	-22.36
265.868	94.38
266.084	-30.55
266.3	67.75
266.516	59.56
266.732	47.27
266.948	-8.02
267.164	-30.55
267.38	28.84
267.596	65.71
267.812	141.48
268.028	86.19
268.244	-22.36
268.46	114.86
268.676	51.37
268.892	100.52
269.108	16.55
269.324	22.7
269.54	-10.07
269.756	59.56
269.972	18.6
270.188	45.23
270.403	-20.31
270.619	43.18
270.835	59.56
271.051	8.36
271.267	-5.97
271.483	-24.4
271.698	43.18
271.914	26.79
272.13	37.03
272.346	-30.55
272.562	32.94
272.777	51.37
272.993	0.17
273.209	75.95
273.425	67.75
273.64	84.14
273.856	67.75
274.072	28.84
274.287	69.8
274.503	22.7
274.719	30.89
274.934	26.79
275.15	-51.03
275.366	69.8
275.581	30.89
275.797	26.79
276.012	-14.17
276.228	-22.36
276.444	16.55
276.659	49.32
276.875	-3.93
277.09	4.27
277.306	47.27
277.521	43.18
277.737	34.99
277.952	28.84
278.168	43.18
278.383	-44.88
278.599	71.85
278.814	69.8
279.03	67.75
279.245	67.75
279.461	84.14
279.676	116.9
279.892	-59.22
280.107	-5.97
280.322	26.79
280.538	47.27
280.753	45.23
280.969	-1.88
281.184	-55.12
281.399	32.94
281.615	90.28
281.83	82.09
282.045	-26.45
282.26	57.51
282.476	6.31
282.691	0.17
282.906	86.19
283.122	34.99
283.337	-67.41
283.552	125.1
283.767	30.89
283.983	47.27
284.198	22.7
284.413	45.23
284.628	24.75
284.843	67.75
285.058	39.08
285.274	-20.31
285.489	67.75
285.704	86.19
285.919	-26.45
286.134	-28.5
286.349	22.7
286.564	-22.36
286.779	30.89
286.995	55.47
287.21	75.95
287.425	18.6
287.64	-40.79
287.855	108.71
288.07	2.22
288.285	75.95
288.5	30.89
288.715	51.37
288.93	34.99
289.145	43.18
289.36	92.33
289.575	-12.12
289.79	73.9
290.004	4.27
290.219	4.27
290.434	-30.55
290.649	53.42
290.864	-100.18
291.079	-55.12
291.294	4.27
291.509	-22.36
291.724	-5.97
291.938	34.99
292.153	53.42
292.368	55.47
292.583	22.7
292.798	63.66
293.012	94.38
293.227	53.42
293.442	69.8
293.657	121
293.871	67.75
294.086	18.6
294.301	51.37
294.516	75.95
294.73	6.31
294.945	37.03
295.16	-3.93
295.374	112.81
295.589	-22.36
295.804	-1.88
296.018	-28.5
296.233	53.42
296.447	-30.55
296.662	26.79
296.877	71.85
297.091	26.79
297.306	47.27
297.52	22.7
297.735	86.19
297.949	-14.17
298.164	18.6
298.378	84.14
298.593	18.6
298.807	34.99
299.022	59.56
299.236	49.32
299.451	24.75
299.665	43.18
299.88	26.79
300.094	53.42
300.309	6.31
300.523	75.95
300.737	26.79
300.952	2.22
301.166	63.66
301.381	-5.97
301.595	0.17
301.809	-5.97
302.024	-8.02
302.238	26.79
302.452	108.71
302.667	67.75
302.881	63.66
303.095	112.81
303.309	84.14
303.524	-5.97
303.738	24.75
303.952	4.27
304.166	71.85
304.381	-71.51
304.595	61.61
304.809	-22.36
305.023	-5.97
305.237	20.65
305.452	34.99
305.666	-28.5
305.88	61.61
306.094	92.33
306.308	14.51
306.522	98.47
306.736	92.33
306.95	61.61
307.164	67.75
307.379	59.56
307.593	63.66
307.807	59.56
308.021	-3.93
308.235	26.79
308.449	-18.26
308.663	28.84
308.877	106.67
309.091	34.99
309.305	65.71
309.519	-77.65
309.733	20.65
309.947	2.22
310.161	34.99
310.374	10.41
310.588	116.9
310.802	39.08
311.016	-22.36
311.23	20.65
311.444	30.89
311.658	-42.84
311.872	53.42
312.085	65.71
312.299	22.7
312.513	129.19
312.727	-30.55
312.941	-20.31
313.154	14.51
313.368	28.84
313.582	53.42
313.796	61.61
314.009	53.42
314.223	77.99
314.437	-34.64
314.651	86.19
314.864	45.23
315.078	80.04
315.292	10.41
315.505	0.17
315.719	22.7
315.933	41.13
316.146	86.19
316.36	-20.31
316.573	57.51
316.787	4.27
317.001	69.8
317.214	14.51
317.428	75.95
317.641	43.18
317.855	-22.36
318.068	16.55
318.282	-63.32
318.495	116.9
318.709	57.51
318.922	10.41
319.136	-5.97
319.349	92.33
319.563	41.13
319.776	24.75
319.99	20.65
320.203	84.14
320.417	6.31
320.63	53.42
320.843	125.1
321.057	-5.97
321.27	92.33
321.483	10.41
321.697	34.99
321.91	45.23
322.124	94.38
322.337	86.19
322.55	55.47
322.763	71.85
322.977	18.6
323.19	-32.6
323.403	-22.36
323.617	34.99
323.83	80.04
324.043	26.79
324.256	47.27
324.469	-28.5
324.683	-10.07
324.896	37.03
325.109	-26.45
325.322	77.99
325.535	80.04
325.748	59.56
325.962	51.37
326.175	57.51
326.388	55.47
326.601	82.09
326.814	37.03
327.027	18.6
327.24	110.76
327.453	-20.31
327.666	63.66
327.879	14.51
328.092	32.94
328.305	47.27
328.518	37.03
328.731	20.65
328.944	8.36
329.157	73.9
329.37	86.19
329.583	100.52
329.796	92.33
330.009	-75.6
330.222	92.33
330.435	45.23
330.648	80.04
330.861	16.55
331.073	112.81
331.286	67.75
331.499	116.9
331.712	51.37
331.925	20.65
332.138	20.65
332.35	-12.12
332.563	104.62
332.776	102.57
332.989	59.56
333.202	4.27
333.414	0.17
333.627	59.56
333.84	34.99
334.053	30.89
334.265	121
334.478	4.27
334.691	2.22
334.903	49.32
335.116	4.27
335.329	-28.5
335.541	2.22
335.754	94.38
335.966	-18.26
336.179	75.95
336.392	106.67
336.604	75.95
336.817	0.17
337.029	51.37
337.242	41.13
337.454	34.99
337.667	55.47
337.88	16.55
338.092	37.03
338.305	59.56
338.517	-30.55
338.729	94.38
338.942	116.9
339.154	-28.5
339.367	-28.5
339.579	39.08
339.792	18.6
340.004	75.95
340.217	61.61
340.429	47.27
340.641	-14.17
340.854	67.75
341.066	32.94
341.278	67.75
341.491	92.33
341.703	20.65
341.915	18.6
342.128	75.95
342.34	-22.36
342.552	-36.69
342.764	4.27
342.977	30.89
343.189	41.13
343.401	34.99
343.613	-42.84
343.826	26.79
344.038	14.51
344.25	59.56
344.462	-14.17
344.674	63.66
344.886	-22.36
345.099	20.65
345.311	-55.12
345.523	43.18
345.735	37.03
345.947	30.89
346.159	100.52
346.371	-46.93
346.583	53.42
346.795	96.43
347.007	24.75
347.219	45.23
347.431	59.56
347.643	125.1
347.855	4.27
348.067	141.48
348.279	-30.55
348.491	34.99
348.703	28.84
348.915	45.23
349.127	8.36
349.339	104.62
349.551	26.79
349.763	43.18
349.975	20.65
350.187	61.61
350.399	10.41
350.61	8.36
350.822	-44.88
351.034	51.37
351.246	73.9
351.458	32.94
351.669	71.85
351.881	51.37
352.093	55.47
352.305	-26.45
352.517	55.47
352.728	12.46
352.94	59.56
353.152	51.37
353.363	-5.97
353.575	125.1
353.787	137.38
353.999	92.33
354.21	88.23
354.422	28.84
354.633	16.55
354.845	12.46
355.057	10.41
355.268	43.18
355.48	12.46
355.692	-12.12
355.903	96.43
356.115	-12.12
356.326	-5.97
356.538	82.09
356.749	69.8
356.961	67.75
357.172	45.23
357.384	26.79
357.595	75.95
357.807	51.37
358.018	-14.17
358.23	45.23
358.441	59.56
358.653	41.13
358.864	10.41
359.075	61.61
359.287	84.14
359.498	102.57
359.709	96.43
359.921	75.95
360.132	116.9
360.344	77.99
360.555	-71.51
360.766	47.27
360.977	26.79
361.189	61.61
361.4	55.47
361.611	4.27
361.823	77.99
362.034	92.33
362.245	43.18
362.456	100.52
362.667	90.28
362.879	-28.5
363.09	-30.55
363.301	26.79
363.512	12.46
363.723	-20.31
363.935	16.55
364.146	161.96
364.357	-44.88
364.568	88.23
364.779	-61.27
364.99	39.08
365.201	67.75
365.412	92.33
365.623	26.79
365.834	71.85
366.045	51.37
366.256	-1.88
366.467	161.96
366.678	24.75
366.889	39.08
367.1	26.79
367.311	145.58
367.522	-46.93
367.733	67.75
367.944	133.29
368.155	26.79
368.366	80.04
368.577	59.56
368.788	116.9
368.999	43.18
369.209	49.32
369.42	104.62
369.631	102.57
369.842	59.56
370.053	63.66
370.264	4.27
370.474	-22.36
370.685	32.94
370.896	20.65
371.107	86.19
371.317	51.37
371.528	-22.36
371.739	84.14
371.95	59.56
372.16	14.51
372.371	34.99
372.582	-10.07
372.792	112.81
373.003	51.37
373.214	59.56
373.424	94.38
373.635	67.75
373.846	86.19
374.056	30.89
374.267	127.14
374.477	125.1
374.688	41.13
374.898	61.61
375.109	-22.36
375.319	92.33
375.53	121
375.74	118.95
375.951	14.51
376.161	-1.88
376.372	75.95
376.582	53.42
376.793	108.71
377.003	84.14
377.214	51.37
377.424	84.14
377.635	67.75
377.845	47.27
378.055	100.52
378.266	10.41
378.476	-5.97
378.686	59.56
378.897	118.95
379.107	92.33
379.317	34.99
379.528	61.61
379.738	18.6
379.948	-26.45
380.158	100.52
380.369	18.6
380.579	53.42
380.789	65.71
380.999	84.14
381.21	112.81
381.42	137.38
381.63	28.84
381.84	51.37
382.05	34.99
382.261	100.52
382.471	86.19
382.681	2.22
382.891	102.57
383.101	6.31
383.311	10.41
383.521	22.7
383.731	34.99
383.941	112.81
384.151	-30.55
384.361	73.9
384.571	30.89
384.781	67.75
384.991	145.58
385.201	176.3
385.411	90.28
385.621	22.7
385.831	28.84
386.041	20.65
386.251	26.79
386.461	26.79
386.671	-5.97
386.881	86.19
387.091	65.71
387.301	174.25
387.511	49.32
387.72	59.56
387.93	57.51
388.14	112.81
388.35	57.51
388.56	75.95
388.769	49.32
388.979	53.42
389.189	61.61
389.399	55.47
389.609	67.75
389.818	75.95
390.028	75.95
390.238	90.28
390.447	47.27
390.657	116.9
390.867	96.43
391.076	45.23
391.286	10.41
391.496	6.31
391.705	43.18
391.915	125.1
392.125	75.95
392.334	34.99
392.544	133.29
392.753	77.99
392.963	47.27
393.172	80.04
393.382	-75.6
393.591	94.38
393.801	96.43
394.01	112.81
394.22	30.89
394.429	82.09
394.639	51.37
394.848	53.42
395.058	116.9
395.267	125.1
395.477	77.99
395.686	37.03
395.895	121
396.105	116.9
396.314	71.85
396.524	135.34
396.733	80.04
396.942	139.43
397.152	2.22
397.361	137.38
397.57	108.71
397.78	90.28
397.989	108.71
398.198	147.62
398.407	116.9
398.617	96.43
398.826	121
399.035	166.06
399.244	73.9
399.453	75.95
399.663	102.57
399.872	80.04
400.081	12.46
400.29	112.81
400.499	125.1
400.708	133.29
400.917	96.43
401.127	145.58
401.336	157.86
401.545	209.06
401.754	151.72
401.963	190.63
402.172	51.37
402.381	114.86
402.59	143.53
402.799	92.33
403.008	143.53
403.217	75.95
403.426	51.37
403.635	121
403.844	75.95
404.053	176.3
404.262	86.19
404.471	104.62
404.68	186.54
404.888	86.19
405.097	51.37
405.306	190.63
405.515	161.96
405.724	116.9
405.933	127.14
406.142	110.76
406.35	256.17
406.559	149.67
406.768	135.34
406.977	161.96
407.185	135.34
407.394	200.87
407.603	192.68
407.812	170.15
408.02	243.88
408.229	243.88
408.438	280.74
408.646	225.45
408.855	209.06
409.064	286.89
409.272	194.73
409.481	350.37
409.69	272.55
409.898	250.02
410.107	317.61
410.315	317.61
410.524	342.18
410.733	331.94
410.941	241.83
411.15	323.75
411.358	350.37
411.567	366.76
411.775	420
411.984	381.09
412.192	473.25
412.401	491.68
412.609	487.59
412.818	510.11
413.026	489.64
413.234	471.2
413.443	565.41
413.651	544.93
413.86	579.75
414.068	503.97
414.276	659.62
414.485	657.57
414.693	663.71
414.901	665.76
415.11	735.39
415.318	665.76
415.526	733.34
415.734	712.86
415.943	815.26
416.151	794.78
416.359	856.22
416.567	813.21
416.776	970.91
416.984	993.44
417.192	1044.63
417.4	960.67
417.608	932
417.817	1009.82
418.025	1181.85
418.233	1220.76
418.441	1142.94
418.649	1167.51
418.857	1300.63
419.065	1200.28
419.273	1226.9
419.481	1390.74
419.689	1394.84
419.897	1429.65
420.105	1566.87
420.313	1487
420.521	1591.44
420.729	1626.26
420.937	1616.02
421.145	1757.33
421.353	1837.2
421.561	1972.36
421.769	1896.59
421.977	2115.72
422.185	1964.17
422.393	2107.53
422.601	2347.14
422.809	2295.94
423.017	2257.03
423.224	2443.4
423.432	2406.53
423.64	2590.85
423.848	2644.1
424.056	2631.81
424.263	2889.85
424.471	2844.8
424.679	2928.77
424.887	2898.05
425.094	3192.95
425.302	3305.59
425.51	3274.87
425.718	3453.05
425.925	3485.81
426.133	3573.88
426.341	3780.72
426.548	3868.78
426.756	3852.4
426.964	3913.84
427.171	4126.83
427.379	4180.07
427.586	4395.11
427.794	4477.03
428.001	4575.33
428.209	4876.38
428.417	4909.15
428.624	5062.75
428.832	5232.73
429.039	5171.29
429.247	5001.31
429.454	5572.69
429.662	5828.69
429.869	5498.97
430.076	5900.37
430.284	5736.53
430.491	5765.2
430.699	6436.94
430.906	6375.5
431.114	6467.66
431.321	6674.5
431.528	6875.2
431.736	7358.52
431.943	7522.36
432.15	7448.63
432.358	7430.2
432.565	7876.66
432.772	8034.35
432.979	8304.68
433.187	8409.13
433.394	8525.86
433.601	8996.9
433.808	9072.67
434.016	9013.28
434.223	9312.28
434.43	9717.78
434.637	9947.15
434.844	10496.01
435.052	10659.85
435.259	10450.96
435.466	10631.18
435.673	10237.97
435.88	11233.28
436.087	11700.22
436.294	11622.39
436.501	11278.33
436.708	11532.28
436.915	12038.13
437.122	12470.25
437.329	12543.98
437.537	13025.25
437.743	12945.38
437.95	12875.75
438.157	13885.4
438.364	14147.54
438.571	14010.32
438.778	14208.98
438.985	15304.64
439.192	14772.17
439.399	15353.79
439.606	14806.98
439.813	15751.1
440.02	16519.09
440.227	16519.09
440.433	16164.79
440.64	16783.27
440.847	16443.31
441.054	16969.64
441.261	18253.72
441.467	17864.6
441.674	18272.15
441.881	19132.29
442.088	19058.57
442.294	18472.85
442.501	19017.61
442.708	19539.84
442.914	20250.49
443.121	21284.71
443.328	20690.8
443.534	22091.61
443.741	21374.82
443.948	21122.92
444.154	22796.11
444.361	22753.1
444.568	22882.13
444.774	22914.89
444.981	23148.36
445.187	23969.6
445.394	24706.87
445.6	24284.98
445.807	26576.66
446.013	25513.77
446.22	25909.02
446.426	26904.34
446.633	27598.6
446.839	28120.83
447.046	26892.05
447.252	28655.35
447.459	28561.14
447.665	28407.55
447.871	29607.65
448.078	30844.63
448.284	29134.57
448.491	30455.51
448.697	31553.23
448.903	31944.39
449.11	31991.49
449.316	31741.64
449.522	31844.04
449.728	32845.49
449.935	33162.93
450.141	33164.98
450.347	33609.39
450.553	32507.58
450.76	33076.91
450.966	34227.87
451.172	34021.03
451.378	34795.16
451.584	33922.73
451.791	34770.58
451.997	34616.99
452.203	35202.71
452.409	35391.12
452.615	34922.13
452.821	33701.54
453.027	33420.97
453.233	35133.07
453.44	33595.05
453.646	34211.49
453.852	34045.6
454.058	34672.28
454.264	33433.26
454.47	34203.3
454.676	33627.82
454.882	34924.18
455.088	31729.35
455.294	32503.48
455.5	32872.12
455.705	32849.59
455.911	31520.46
456.117	30947.03
456.323	30721.75
456.529	28778.23
456.735	30303.96
456.941	29693.67
457.147	28964.59
457.352	27928.32
457.558	27678.47
457.764	27766.53
457.97	27301.64
458.176	26636.05
458.381	26474.26
458.587	25304.87
458.793	25200.43
458.999	23908.16
459.204	25421.61
459.41	24842.03
459.616	23506.76
459.821	23416.65
460.027	23152.46
460.233	22890.32
460.438	21823.33
460.644	21911.39
460.85	20819.82
461.055	20555.63
461.261	20262.77
461.466	18579.34
461.672	18309.01
461.878	19756.93
462.083	18358.16
462.289	17979.29
462.494	17766.3
462.7	17309.6
462.905	16498.61
463.111	17029.03
463.316	17409.95
463.522	16979.88
463.727	16879.53
463.932	16670.64
464.138	16699.31
464.343	16764.84
464.549	16224.18
464.754	16680.88
464.959	16672.68
465.165	16439.22
465.37	15738.81
465.575	15650.75
465.781	15820.73
465.986	15992.76
466.191	15511.49
466.397	15175.62
466.602	14297.04
466.807	14821.32
467.012	15153.09
467.218	14878.66
