Data from USB4F104151__271__14-34-38-778.txt Node

Date: Thu Mar 13 14:34:38 EDT 2025
User: louis
Spectrometer: USB4F10415
Trigger mode: 4
Integration Time (sec): 2.500000E-2
Scans to average: 1
Electric dark correction enabled: true
Nonlinearity correction enabled: false
Boxcar width: 0
XAxis mode: Wavelengths
Number of Pixels in Spectrum: 3648
>>>>>Begin Spectral Data<<<<<
178.204	-232.96
178.424	-232.96
178.644	-232.96
178.864	-210.43
179.084	-189.95
179.304	-50.69
179.524	-108.03
179.744	8.7
179.964	2.56
180.184	16.9
180.404	16.9
180.624	68.09
180.844	2.56
181.064	-48.64
181.283	43.52
181.503	-34.3
181.723	82.43
181.943	-99.84
182.163	55.81
182.383	10.75
182.602	49.66
182.822	51.71
183.042	14.85
183.262	53.76
183.482	-7.68
183.701	-26.11
183.921	-73.21
184.141	59.9
184.361	82.43
184.58	27.14
184.8	64
185.02	55.81
185.239	82.43
185.459	47.62
185.679	64
185.898	-75.26
186.118	55.81
186.338	-15.87
186.557	33.28
186.777	-7.68
186.997	-17.92
187.216	64
187.436	43.52
187.655	35.33
187.875	6.66
188.095	-17.92
188.314	33.28
188.534	102.91
188.753	-5.63
188.973	-40.45
189.192	43.52
189.412	18.94
189.631	-26.11
189.851	6.66
190.07	104.96
190.29	-11.78
190.509	-1.54
190.729	49.66
190.948	-3.58
191.168	88.57
191.387	-5.63
191.607	-17.92
191.826	31.23
192.045	-9.73
192.265	-40.45
192.484	49.66
192.704	23.04
192.923	-15.87
193.142	133.63
193.362	20.99
193.581	39.42
193.8	66.05
194.02	53.76
194.239	31.23
194.458	8.7
194.678	84.48
194.897	47.62
195.116	-42.5
195.335	23.04
195.555	-3.58
195.774	14.85
195.993	31.23
196.212	14.85
196.432	6.66
196.651	55.81
196.87	-9.73
197.089	80.38
197.308	88.57
197.528	12.8
197.747	-1.54
197.966	18.94
198.185	92.67
198.404	-1.54
198.623	-46.59
198.842	20.99
199.062	57.86
199.281	98.81
199.5	27.14
199.719	-48.64
199.938	-50.69
200.157	68.09
200.376	39.42
200.595	180.73
200.814	-17.92
201.033	-17.92
201.252	88.57
201.471	-56.83
201.69	84.48
201.909	-15.87
202.128	104.96
202.347	-9.73
202.566	98.81
202.785	-58.88
203.004	-15.87
203.223	141.82
203.442	14.85
203.661	-81.41
203.879	35.33
204.098	90.62
204.317	115.2
204.536	80.38
204.755	-26.11
204.974	39.42
205.193	29.18
205.411	141.82
205.63	49.66
205.849	59.9
206.068	-11.78
206.287	88.57
206.505	92.67
206.724	8.7
206.943	-5.63
207.162	31.23
207.381	27.14
207.599	16.9
207.818	-5.63
208.037	47.62
208.255	-32.26
208.474	14.85
208.693	31.23
208.911	45.57
209.13	-42.5
209.349	41.47
209.567	47.62
209.786	39.42
210.005	29.18
210.223	31.23
210.442	-71.17
210.661	12.8
210.879	-83.45
211.098	-7.68
211.316	39.42
211.535	72.19
211.753	-5.63
211.972	31.23
212.191	41.47
212.409	-26.11
212.628	-38.4
212.846	-34.3
213.065	4.61
213.283	31.23
213.502	-17.92
213.72	31.23
213.938	39.42
214.157	66.05
214.375	47.62
214.594	14.85
214.812	37.38
215.031	10.75
215.249	-1.54
215.467	23.04
215.686	14.85
215.904	59.9
216.122	49.66
216.341	14.85
216.559	39.42
216.778	41.47
216.996	31.23
217.214	-9.73
217.432	-17.92
217.651	27.14
217.869	-42.5
218.087	68.09
218.306	0.51
218.524	43.52
218.742	8.7
218.96	-1.54
219.179	55.81
219.397	6.66
219.615	113.15
219.833	2.56
220.051	29.18
220.27	74.24
220.488	20.99
220.706	82.43
220.924	-1.54
221.142	33.28
221.36	16.9
221.578	39.42
221.796	-1.54
222.015	78.33
222.233	-9.73
222.451	39.42
222.669	18.94
222.887	41.47
223.105	27.14
223.323	-17.92
223.541	-58.88
223.759	14.85
223.977	6.66
224.195	68.09
224.413	14.85
224.631	66.05
224.849	8.7
225.067	94.72
225.285	14.85
225.503	4.61
225.721	-24.06
225.939	55.81
226.157	35.33
226.375	82.43
226.592	-28.16
226.81	-40.45
227.028	88.57
227.246	109.05
227.464	49.66
227.682	33.28
227.9	14.85
228.117	-3.58
228.335	-9.73
228.553	6.66
228.771	14.85
228.989	-26.11
229.206	31.23
229.424	39.42
229.642	76.29
229.86	41.47
230.077	31.23
230.295	25.09
230.513	76.29
230.731	33.28
230.948	55.81
231.166	158.21
231.384	-28.16
231.601	-34.3
231.819	82.43
232.037	-26.11
232.254	-15.87
232.472	6.66
232.689	-28.16
232.907	10.75
233.125	-58.88
233.342	-7.68
233.56	6.66
233.777	-9.73
233.995	-1.54
234.213	47.62
234.43	18.94
234.648	27.14
234.865	-24.06
235.083	-5.63
235.3	80.38
235.518	64
235.735	76.29
235.953	27.14
236.17	41.47
236.388	-34.3
236.605	-1.54
236.822	80.38
237.04	59.9
237.257	88.57
237.475	-54.78
237.692	31.23
237.909	49.66
238.127	4.61
238.344	-13.82
238.562	20.99
238.779	-1.54
238.996	82.43
239.214	-7.68
239.431	102.91
239.648	-28.16
239.865	80.38
240.083	78.33
240.3	2.56
240.517	-17.92
240.735	27.14
240.952	43.52
241.169	35.33
241.386	-1.54
241.603	-46.59
241.821	-34.3
242.038	88.57
242.255	90.62
242.472	37.38
242.689	47.62
242.907	76.29
243.124	-3.58
243.341	6.66
243.558	18.94
243.775	-26.11
243.992	-38.4
244.209	-32.26
244.426	76.29
244.643	53.76
244.86	31.23
245.078	-7.68
245.295	-15.87
245.512	31.23
245.729	-36.35
245.946	-36.35
246.163	23.04
246.38	6.66
246.597	64
246.814	33.28
247.031	70.14
247.248	23.04
247.464	72.19
247.681	14.85
247.898	37.38
248.115	18.94
248.332	-24.06
248.549	-7.68
248.766	76.29
248.983	82.43
249.2	23.04
249.417	64
249.633	-1.54
249.85	41.47
250.067	37.38
250.284	41.47
250.501	-34.3
250.717	39.42
250.934	74.24
251.151	-7.68
251.368	-54.78
251.585	53.76
251.801	-9.73
252.018	-71.17
252.235	18.94
252.451	37.38
252.668	14.85
252.885	0.51
253.102	-44.54
253.318	-9.73
253.535	-22.02
253.752	59.9
253.968	-22.02
254.185	-38.4
254.401	23.04
254.618	98.81
254.835	-71.17
255.051	31.23
255.268	-22.02
255.484	59.9
255.701	25.09
255.917	27.14
256.134	-50.69
256.351	-1.54
256.567	47.62
256.784	31.23
257	2.56
257.217	6.66
257.433	-5.63
257.65	80.38
257.866	-15.87
258.082	-5.63
258.299	-11.78
258.515	78.33
258.732	33.28
258.948	-46.59
259.165	49.66
259.381	41.47
259.597	-11.78
259.814	35.33
260.03	39.42
260.246	-32.26
260.463	20.99
260.679	64
260.895	29.18
261.112	70.14
261.328	6.66
261.544	-26.11
261.761	64
261.977	57.86
262.193	-50.69
262.409	-58.88
262.626	16.9
262.842	27.14
263.058	-60.93
263.274	20.99
263.49	55.81
263.707	55.81
263.923	-42.5
264.139	-7.68
264.355	41.47
264.571	113.15
264.787	90.62
265.004	6.66
265.22	18.94
265.436	-13.82
265.652	-17.92
265.868	-11.78
266.084	-58.88
266.3	64
266.516	29.18
266.732	-11.78
266.948	37.38
267.164	6.66
267.38	90.62
267.596	-17.92
267.812	94.72
268.028	-56.83
268.244	-58.88
268.46	10.75
268.676	-99.84
268.892	2.56
269.108	6.66
269.324	-38.4
269.54	14.85
269.756	-28.16
269.972	-58.88
270.188	41.47
270.403	66.05
270.619	12.8
270.835	84.48
271.051	-17.92
271.267	-11.78
271.483	14.85
271.698	4.61
271.914	-1.54
272.13	-13.82
272.346	2.56
272.562	53.76
272.777	102.91
272.993	68.09
273.209	-19.97
273.425	23.04
273.64	-38.4
273.856	53.76
274.072	8.7
274.287	-75.26
274.503	-1.54
274.719	47.62
274.934	90.62
275.15	-17.92
275.366	-26.11
275.581	55.81
275.797	14.85
276.012	-15.87
276.228	64
276.444	43.52
276.659	23.04
276.875	55.81
277.09	-48.64
277.306	55.81
277.521	23.04
277.737	47.62
277.952	104.96
278.168	16.9
278.383	59.9
278.599	20.99
278.814	72.19
279.03	-34.3
279.245	84.48
279.461	-19.97
279.676	31.23
279.892	0.51
280.107	74.24
280.322	-30.21
280.538	47.62
280.753	4.61
280.969	14.85
281.184	-1.54
281.399	80.38
281.615	104.96
281.83	96.77
282.045	0.51
282.26	51.71
282.476	23.04
282.691	107.01
282.906	96.77
283.122	59.9
283.337	-22.02
283.552	64
283.767	-50.69
283.983	66.05
284.198	-30.21
284.413	88.57
284.628	-32.26
284.843	33.28
285.058	47.62
285.274	66.05
285.489	-1.54
285.704	98.81
285.919	-42.5
286.134	72.19
286.349	-77.31
286.564	-30.21
286.779	47.62
286.995	39.42
287.21	-81.41
287.425	35.33
287.64	25.09
287.855	43.52
288.07	-19.97
288.285	55.81
288.5	123.39
288.715	23.04
288.93	31.23
289.145	-30.21
289.36	68.09
289.575	31.23
289.79	-7.68
290.004	4.61
290.219	59.9
290.434	39.42
290.649	-9.73
290.864	-62.98
291.079	-19.97
291.294	53.76
291.509	64
291.724	-30.21
291.938	23.04
292.153	2.56
292.368	-1.54
292.583	57.86
292.798	88.57
293.012	6.66
293.227	55.81
293.442	0.51
293.657	0.51
293.871	27.14
294.086	66.05
294.301	27.14
294.516	-11.78
294.73	-42.5
294.945	23.04
295.16	2.56
295.374	47.62
295.589	16.9
295.804	27.14
296.018	70.14
296.233	80.38
296.447	31.23
296.662	0.51
296.877	47.62
297.091	-24.06
297.306	41.47
297.52	59.9
297.735	66.05
297.949	96.77
298.164	74.24
298.378	41.47
298.593	18.94
298.807	-52.74
299.022	49.66
299.236	16.9
299.451	-9.73
299.665	39.42
299.88	88.57
300.094	47.62
300.309	12.8
300.523	23.04
300.737	-3.58
300.952	10.75
301.166	16.9
301.381	4.61
301.595	-24.06
301.809	-9.73
302.024	-9.73
302.238	59.9
302.452	84.48
302.667	-32.26
302.881	70.14
303.095	43.52
303.309	8.7
303.524	0.51
303.738	39.42
303.952	-13.82
304.166	2.56
304.381	-24.06
304.595	68.09
304.809	76.29
305.023	0.51
305.237	39.42
305.452	49.66
305.666	-24.06
305.88	92.67
306.094	39.42
306.308	25.09
306.522	31.23
306.736	88.57
306.95	2.56
307.164	49.66
307.379	-40.45
307.593	88.57
307.807	43.52
308.021	80.38
308.235	-15.87
308.449	-15.87
308.663	2.56
308.877	111.1
309.091	2.56
309.305	57.86
309.519	-7.68
309.733	10.75
309.947	12.8
310.161	55.81
310.374	-1.54
310.588	74.24
310.802	39.42
311.016	-30.21
311.23	76.29
311.444	29.18
311.658	2.56
311.872	107.01
312.085	33.28
312.299	57.86
312.513	-1.54
312.727	96.77
312.941	-42.5
313.154	-1.54
313.368	2.56
313.582	-22.02
313.796	64
314.009	31.23
314.223	0.51
314.437	-26.11
314.651	25.09
314.864	-1.54
315.078	-30.21
315.292	66.05
315.505	74.24
315.719	47.62
315.933	0.51
316.146	51.71
316.36	-34.3
316.573	41.47
316.787	31.23
317.001	43.52
317.214	-54.78
317.428	31.23
317.641	2.56
317.855	31.23
318.068	-7.68
318.282	-30.21
318.495	94.72
318.709	33.28
318.922	90.62
319.136	113.15
319.349	55.81
319.563	90.62
319.776	49.66
319.99	2.56
320.203	-22.02
320.417	90.62
320.63	23.04
320.843	74.24
321.057	-5.63
321.27	-1.54
321.483	43.52
321.697	72.19
321.91	33.28
322.124	-9.73
322.337	16.9
322.55	-32.26
322.763	-3.58
322.977	10.75
323.19	61.95
323.403	55.81
323.617	64
323.83	35.33
324.043	-15.87
324.256	47.62
324.469	31.23
324.683	0.51
324.896	-30.21
325.109	33.28
325.322	6.66
325.535	72.19
325.748	8.7
325.962	16.9
326.175	113.15
326.388	29.18
326.601	12.8
326.814	51.71
327.027	16.9
327.24	76.29
327.453	-7.68
327.666	59.9
327.879	6.66
328.092	-17.92
328.305	94.72
328.518	49.66
328.731	-7.68
328.944	16.9
329.157	55.81
329.37	-22.02
329.583	100.86
329.796	47.62
330.009	-26.11
330.222	92.67
330.435	64
330.648	6.66
330.861	2.56
331.073	-3.58
331.286	18.94
331.499	59.9
331.712	-67.07
331.925	14.85
332.138	-30.21
332.35	64
332.563	14.85
332.776	57.86
332.989	-15.87
333.202	41.47
333.414	39.42
333.627	47.62
333.84	10.75
334.053	2.56
334.265	27.14
334.478	-15.87
334.691	29.18
334.903	55.81
335.116	-52.74
335.329	88.57
335.541	64
335.754	98.81
335.966	88.57
336.179	41.47
336.392	51.71
336.604	31.23
336.817	72.19
337.029	-1.54
337.242	55.81
337.454	16.9
337.667	10.75
337.88	72.19
338.092	100.86
338.305	64
338.517	6.66
338.729	35.33
338.942	64
339.154	6.66
339.367	20.99
339.579	35.33
339.792	43.52
340.004	8.7
340.217	18.94
340.429	35.33
340.641	-62.98
340.854	8.7
341.066	31.23
341.278	51.71
341.491	127.49
341.703	-17.92
341.915	31.23
342.128	23.04
342.34	80.38
342.552	14.85
342.764	31.23
342.977	49.66
343.189	59.9
343.401	66.05
343.613	-34.3
343.826	72.19
344.038	8.7
344.25	31.23
344.462	18.94
344.674	4.61
344.886	-5.63
345.099	33.28
345.311	39.42
345.523	-26.11
345.735	-22.02
345.947	-1.54
346.159	18.94
346.371	-50.69
346.583	0.51
346.795	88.57
347.007	-11.78
347.219	49.66
347.431	14.85
347.643	64
347.855	14.85
348.067	70.14
348.279	-50.69
348.491	61.95
348.703	129.53
348.915	-38.4
349.127	23.04
349.339	49.66
349.551	-22.02
349.763	72.19
349.975	-17.92
350.187	100.86
350.399	10.75
350.61	39.42
350.822	-9.73
351.034	-5.63
351.246	2.56
351.458	-7.68
351.669	39.42
351.881	49.66
352.093	137.73
352.305	96.77
352.517	68.09
352.728	59.9
352.94	-24.06
353.152	107.01
353.363	51.71
353.575	33.28
353.787	31.23
353.999	23.04
354.21	49.66
354.422	74.24
354.633	20.99
354.845	14.85
355.057	37.38
355.268	-56.83
355.48	119.29
355.692	-69.12
355.903	33.28
356.115	-1.54
356.326	-32.26
356.538	29.18
356.749	64
356.961	55.81
357.172	0.51
357.384	10.75
357.595	68.09
357.807	51.71
358.018	23.04
358.23	-34.3
358.441	64
358.653	162.3
358.864	-11.78
359.075	31.23
359.287	23.04
359.498	-15.87
359.709	-28.16
359.921	49.66
360.132	64
360.344	96.77
360.555	39.42
360.766	59.9
360.977	-1.54
361.189	88.57
361.4	88.57
361.611	104.96
361.823	98.81
362.034	-15.87
362.245	-54.78
362.456	72.19
362.667	100.86
362.879	31.23
363.09	14.85
363.301	80.38
363.512	-42.5
363.723	-7.68
363.935	49.66
364.146	74.24
364.357	10.75
364.568	31.23
364.779	39.42
364.99	27.14
365.201	92.67
365.412	104.96
365.623	-38.4
365.834	55.81
366.045	16.9
366.256	33.28
366.467	18.94
366.678	-11.78
366.889	35.33
367.1	25.09
367.311	8.7
367.522	-15.87
367.733	35.33
367.944	113.15
368.155	78.33
368.366	59.9
368.577	35.33
368.788	47.62
368.999	47.62
369.209	-26.11
369.42	104.96
369.631	76.29
369.842	31.23
370.053	57.86
370.264	31.23
370.474	59.9
370.685	31.23
370.896	-9.73
371.107	76.29
371.317	64
371.528	14.85
371.739	72.19
371.95	102.91
372.16	43.52
372.371	-26.11
372.582	6.66
372.792	53.76
373.003	76.29
373.214	-13.82
373.424	57.86
373.635	18.94
373.846	14.85
374.056	31.23
374.267	55.81
374.477	72.19
374.688	-19.97
374.898	29.18
375.109	2.56
375.319	-56.83
375.53	129.53
375.74	98.81
375.951	23.04
376.161	27.14
376.372	27.14
376.582	10.75
376.793	88.57
377.003	10.75
377.214	74.24
377.424	66.05
377.635	33.28
377.845	51.71
378.055	66.05
378.266	43.52
378.476	92.67
378.686	49.66
378.897	31.23
379.107	80.38
379.317	49.66
379.528	27.14
379.738	66.05
379.948	-22.02
380.158	66.05
380.369	12.8
380.579	96.77
380.789	59.9
380.999	55.81
381.21	51.71
381.42	121.34
381.63	31.23
381.84	55.81
382.05	104.96
382.261	96.77
382.471	66.05
382.681	-5.63
382.891	109.05
383.101	25.09
383.311	-24.06
383.521	29.18
383.731	33.28
383.941	57.86
384.151	4.61
384.361	88.57
384.571	102.91
384.781	43.52
384.991	100.86
385.201	150.01
385.411	82.43
385.621	35.33
385.831	55.81
386.041	57.86
386.251	41.47
386.461	45.57
386.671	-32.26
386.881	68.09
387.091	6.66
387.301	23.04
387.511	35.33
387.72	74.24
387.93	4.61
388.14	33.28
388.35	66.05
388.56	27.14
388.769	96.77
388.979	86.53
389.189	-9.73
389.399	-13.82
389.609	59.9
389.818	43.52
390.028	55.81
390.238	-24.06
390.447	-30.21
390.657	14.85
390.867	80.38
391.076	25.09
391.286	131.58
391.496	64
391.705	-46.59
391.915	115.2
392.125	49.66
392.334	2.56
392.544	88.57
392.753	59.9
392.963	47.62
393.172	43.52
393.382	23.04
393.591	100.86
393.801	88.57
394.01	139.77
394.22	90.62
394.429	53.76
394.639	43.52
394.848	43.52
395.058	-17.92
395.267	147.97
395.477	158.21
395.686	18.94
395.895	158.21
396.105	164.35
396.314	78.33
396.524	109.05
396.733	145.92
396.942	84.48
397.152	12.8
397.361	-38.4
397.57	4.61
397.78	123.39
397.989	64
398.198	137.73
398.407	72.19
398.617	109.05
398.826	90.62
399.035	23.04
399.244	64
399.453	27.14
399.663	80.38
399.872	64
400.081	23.04
400.29	68.09
400.499	109.05
400.708	131.58
400.917	55.81
401.127	23.04
401.336	18.94
401.545	203.26
401.754	90.62
401.963	88.57
402.172	109.05
402.381	57.86
402.59	47.62
402.799	100.86
403.008	100.86
403.217	139.77
403.426	137.73
403.635	109.05
403.844	96.77
404.053	96.77
404.262	113.15
404.471	121.34
404.68	113.15
404.888	145.92
405.097	117.25
405.306	145.92
405.515	156.16
405.724	170.49
405.933	188.93
406.142	107.01
406.35	88.57
406.559	137.73
406.768	199.16
406.977	188.93
407.185	170.49
407.394	236.03
407.603	107.01
407.812	193.02
408.02	248.32
408.229	227.84
408.438	182.78
408.646	178.69
408.855	219.64
409.064	240.12
409.272	266.75
409.481	279.04
409.69	231.93
409.898	317.95
410.107	338.43
410.315	279.04
410.524	301.56
410.733	287.23
410.941	334.33
411.15	403.96
411.358	342.52
411.567	352.76
411.775	354.81
411.984	365.05
412.192	424.44
412.401	315.9
412.609	457.21
412.818	461.3
413.026	446.97
413.234	516.6
413.443	516.6
413.651	475.64
413.86	502.26
414.068	582.14
414.276	598.52
414.485	571.9
414.693	672.25
414.901	670.2
415.11	627.19
415.318	653.81
415.526	696.82
415.734	719.35
415.943	768.5
416.151	754.16
416.359	748.02
416.567	764.4
416.776	846.32
416.984	920.05
417.192	977.39
417.4	883.19
417.608	948.72
417.817	881.14
418.025	1049.07
418.233	1085.94
418.441	950.77
418.649	975.35
418.857	1122.8
419.065	1231.34
419.273	1155.57
419.481	1264.11
419.689	1255.92
419.897	1329.64
420.105	1423.85
420.313	1386.99
420.521	1513.96
420.729	1567.21
420.937	1575.4
421.145	1602.02
421.353	1690.09
421.561	1696.23
421.769	1714.66
421.977	2019.81
422.185	2009.57
422.393	2095.58
422.601	2056.67
422.809	2114.02
423.017	2095.58
423.224	2175.45
423.432	2288.09
423.64	2400.73
423.848	2603.48
424.056	2447.83
424.263	2550.23
424.471	2574.81
424.679	2712.02
424.887	2771.41
425.094	2873.81
425.302	3006.93
425.51	2998.74
425.718	3074.51
425.925	3097.04
426.133	3238.35
426.341	3523.02
426.548	3551.69
426.756	3660.23
426.964	3660.23
427.171	3854.79
427.379	4028.87
427.586	3957.19
427.794	4024.77
428.001	4448.7
428.209	4483.52
428.417	4563.39
428.624	4901.3
428.832	4590.01
429.039	4688.31
429.247	4639.16
429.454	5071.28
429.662	5589.42
429.869	5241.26
430.076	5429.68
430.284	5269.94
430.491	5573.03
430.699	5904.81
430.906	5843.37
431.114	5964.2
431.321	6052.26
431.528	6386.08
431.736	6717.85
431.943	6799.77
432.15	6857.11
432.358	6859.16
432.565	7158.16
432.772	7260.56
432.979	7403.92
433.187	7698.83
433.394	7758.22
433.601	8329.6
433.808	8327.55
434.016	8339.84
434.223	8477.05
434.43	9017.72
434.637	8925.56
434.844	9394.54
435.052	9529.71
435.259	9681.26
435.466	9648.49
435.673	9515.37
435.88	10129.77
436.087	10684.76
436.294	10617.18
436.501	10412.39
436.708	10582.37
436.915	10985.82
437.122	11518.29
437.329	11383.12
437.537	11831.63
437.743	12085.58
437.95	11878.73
438.157	12448.07
438.364	12833.08
438.571	12931.39
438.778	12853.56
438.985	13967.66
439.192	13474.1
439.399	14108.97
439.606	13943.08
439.813	14799.13
440.02	15284.5
440.227	15028.51
440.433	14829.85
440.64	15530.26
440.847	15085.85
441.054	15601.94
441.261	16894.21
441.467	16445.7
441.674	16789.76
441.881	17344.76
442.088	17088.76
442.294	17156.35
442.501	17735.92
442.708	18102.51
442.914	18829.54
443.121	19495.13
443.328	18602.21
443.534	20170.96
443.741	19628.24
443.948	19333.34
444.154	20711.62
444.361	20854.98
444.568	20660.42
444.774	20920.51
444.981	21215.42
445.187	21452.98
445.394	22372.52
445.6	22423.72
445.807	24471.69
446.013	23367.84
446.22	23836.82
446.426	24850.56
446.633	25194.62
446.839	25878.65
447.046	24639.62
447.252	26132.59
447.459	26067.06
447.665	26079.35
447.871	27105.38
448.078	28211.28
448.284	26988.64
448.491	27566.17
448.697	28616.78
448.903	29378.62
449.11	29411.39
449.316	28842.06
449.522	29589.56
449.728	30216.24
449.935	30462
450.141	30079.03
450.347	31250.47
450.553	30113.84
450.76	30367.79
450.966	31488.03
451.172	31238.18
451.378	32055.32
451.584	31119.4
451.791	31907.87
451.997	31823.9
452.203	32600.08
452.409	32653.33
452.615	32477.2
452.821	31064.1
453.027	30763.05
453.233	32294.93
453.44	31219.75
453.646	31211.56
453.852	31776.8
454.058	32114.71
454.264	31096.87
454.47	31813.66
454.676	31090.73
454.882	32032.79
455.088	29354.05
455.294	29698.11
455.5	30253.11
455.705	30003.25
455.911	29405.25
456.117	28702.79
456.323	28008.53
456.529	26437.74
456.735	27875.41
456.941	27160.67
457.147	26656.87
457.352	25608.31
457.558	25624.7
457.764	25548.92
457.97	25264.25
458.176	24719.49
458.381	24391.82
458.587	23441.56
458.793	23169.18
458.999	22261.93
459.204	23429.27
459.41	22775.97
459.616	21385.4
459.821	21401.79
460.027	21598.39
460.233	21297.34
460.438	19837.14
460.644	20144.33
460.85	19300.57
461.055	18710.75
461.261	18864.35
461.466	17369.33
461.672	16572.68
461.878	18022.64
462.083	16623.87
462.289	16558.34
462.494	16204.04
462.7	15581.46
462.905	15216.92
463.111	15622.42
463.316	15661.33
463.522	15421.72
463.727	15300.89
463.932	15186.2
464.138	15079.71
464.343	15139.1
464.549	14817.57
464.754	15063.32
464.959	14885.15
465.165	14879
465.37	14268.71
465.575	13850.92
465.781	14580
465.986	14420.26
466.191	13973.8
466.397	13863.21
466.602	13193.53
466.807	13502.77
467.012	13400.37
467.218	13404.47
467.423	13273.4
467.628	13521.2
467.833	13844.78
468.038	13334.84
