Data from USB4F104151__205__14-33-21-149.txt Node

Date: Thu Mar 13 14:33:21 EDT 2025
User: louis
Spectrometer: USB4F10415
Trigger mode: 4
Integration Time (sec): 2.500000E-2
Scans to average: 1
Electric dark correction enabled: true
Nonlinearity correction enabled: false
Boxcar width: 0
XAxis mode: Wavelengths
Number of Pixels in Spectrum: 3648
>>>>>Begin Spectral Data<<<<<
178.204	-164.86
178.424	-164.86
178.644	-164.86
178.864	-64.51
179.084	-115.71
179.304	-3.07
179.524	-33.79
179.744	68.61
179.964	82.94
180.184	25.6
180.404	-23.55
180.624	37.89
180.844	-9.22
181.064	-154.62
181.283	15.36
181.503	-60.42
181.723	54.27
181.943	-7.17
182.163	89.09
182.383	58.37
182.602	103.42
182.822	60.42
183.042	-1.02
183.262	66.56
183.482	31.74
183.701	21.5
183.921	80.89
184.141	-27.65
184.361	56.32
184.58	138.24
184.8	13.31
185.02	-23.55
185.239	95.23
185.459	21.5
185.679	46.08
185.898	7.17
186.118	87.04
186.338	121.85
186.557	62.46
186.777	19.46
186.997	-7.17
187.216	35.84
187.436	-11.26
187.655	91.13
187.875	-1.02
188.095	9.22
188.314	33.79
188.534	125.95
188.753	41.98
188.973	66.56
189.192	78.85
189.412	91.13
189.631	50.18
189.851	13.31
190.07	74.75
190.29	37.89
190.509	13.31
190.729	46.08
190.948	93.18
191.168	119.81
191.387	3.07
191.607	37.89
191.826	-39.94
192.045	121.85
192.265	41.98
192.484	17.41
192.704	13.31
192.923	9.22
193.142	177.15
193.362	48.13
193.581	62.46
193.8	17.41
194.02	111.61
194.239	9.22
194.458	21.5
194.678	21.5
194.897	115.71
195.116	39.94
195.335	39.94
195.555	121.85
195.774	80.89
195.993	72.7
196.212	-50.18
196.432	37.89
196.651	39.94
196.87	76.8
197.089	39.94
197.308	72.7
197.528	91.13
197.747	-87.04
197.966	17.41
198.185	115.71
198.404	21.5
198.623	25.6
198.842	111.61
199.062	95.23
199.281	56.32
199.5	35.84
199.719	46.08
199.938	-3.07
200.157	97.28
200.376	70.65
200.595	91.13
200.814	11.26
201.033	62.46
201.252	48.13
201.471	87.04
201.69	113.66
201.909	33.79
202.128	41.98
202.347	111.61
202.566	52.22
202.785	-23.55
203.004	15.36
203.223	78.85
203.442	95.23
203.661	39.94
203.879	54.27
204.098	93.18
204.317	82.94
204.536	62.46
204.755	29.7
204.974	-3.07
205.193	37.89
205.411	70.65
205.63	58.37
205.849	78.85
206.068	29.7
206.287	-11.26
206.505	80.89
206.724	76.8
206.943	9.22
207.162	107.52
207.381	15.36
207.599	31.74
207.818	119.81
208.037	7.17
208.255	-17.41
208.474	50.18
208.693	41.98
208.911	62.46
209.13	91.13
209.349	41.98
209.567	37.89
209.786	87.04
210.005	70.65
210.223	27.65
210.442	25.6
210.661	70.65
210.879	-15.36
211.098	105.47
211.316	21.5
211.535	37.89
211.753	66.56
211.972	29.7
212.191	-60.42
212.409	1.02
212.628	9.22
212.846	-31.74
213.065	93.18
213.283	54.27
213.502	-50.18
213.72	74.75
213.938	5.12
214.157	7.17
214.375	46.08
214.594	35.84
214.812	62.46
215.031	-11.26
215.249	95.23
215.467	70.65
215.686	33.79
215.904	48.13
216.122	70.65
216.341	80.89
216.559	-9.22
216.778	138.24
216.996	58.37
217.214	31.74
217.432	46.08
217.651	74.75
217.869	37.89
218.087	72.7
218.306	95.23
218.524	64.51
218.742	-7.17
218.96	111.61
219.179	-19.46
219.397	37.89
219.615	113.66
219.833	50.18
220.051	-9.22
220.27	144.38
220.488	119.81
220.706	89.09
220.924	48.13
221.142	56.32
221.36	31.74
221.578	5.12
221.796	87.04
222.015	62.46
222.233	29.7
222.451	97.28
222.669	13.31
222.887	128
223.105	-23.55
223.323	70.65
223.541	54.27
223.759	132.09
223.977	56.32
224.195	119.81
224.413	136.19
224.631	115.71
224.849	78.85
225.067	177.15
225.285	99.33
225.503	33.79
225.721	17.41
225.939	15.36
226.157	-3.07
226.375	115.71
226.592	70.65
226.81	74.75
227.028	105.47
227.246	119.81
227.464	70.65
227.682	134.14
227.9	64.51
228.117	70.65
228.335	5.12
228.553	107.52
228.771	25.6
228.989	95.23
229.206	44.03
229.424	46.08
229.642	21.5
229.86	66.56
230.077	115.71
230.295	72.7
230.513	87.04
230.731	82.94
230.948	128
231.166	109.57
231.384	97.28
231.601	89.09
231.819	101.37
232.037	54.27
232.254	7.17
232.472	5.12
232.689	48.13
232.907	128
233.125	62.46
233.342	95.23
233.56	-19.46
233.777	37.89
233.995	19.46
234.213	9.22
234.43	-3.07
234.648	9.22
234.865	54.27
235.083	105.47
235.3	37.89
235.518	56.32
235.735	29.7
235.953	64.51
236.17	5.12
236.388	13.31
236.605	13.31
236.822	111.61
237.04	50.18
237.257	21.5
237.475	70.65
237.692	21.5
237.909	-27.65
238.127	58.37
238.344	177.15
238.562	37.89
238.779	1.02
238.996	-11.26
239.214	82.94
239.431	46.08
239.648	-7.17
239.865	58.37
240.083	17.41
240.3	138.24
240.517	5.12
240.735	52.22
240.952	62.46
241.169	78.85
241.386	27.65
241.603	78.85
241.821	25.6
242.038	103.42
242.255	54.27
242.472	31.74
242.689	46.08
242.907	72.7
243.124	25.6
243.341	-23.55
243.558	95.23
243.775	13.31
243.992	56.32
244.209	87.04
244.426	93.18
244.643	-27.65
244.86	48.13
245.078	132.09
245.295	87.04
245.512	66.56
245.729	-17.41
245.946	70.65
246.163	23.55
246.38	66.56
246.597	103.42
246.814	62.46
247.031	64.51
247.248	29.7
247.464	113.66
247.681	84.99
247.898	78.85
248.115	37.89
248.332	-31.74
248.549	130.05
248.766	166.91
248.983	39.94
249.2	76.8
249.417	58.37
249.633	46.08
249.85	33.79
250.067	72.7
250.284	-17.41
250.501	41.98
250.717	128
250.934	25.6
251.151	76.8
251.368	56.32
251.585	29.7
251.801	25.6
252.018	95.23
252.235	13.31
252.451	-72.7
252.668	99.33
252.885	70.65
253.102	29.7
253.318	72.7
253.535	-1.02
253.752	64.51
253.968	50.18
254.185	46.08
254.401	60.42
254.618	25.6
254.835	5.12
255.051	173.05
255.268	89.09
255.484	103.42
255.701	31.74
255.917	48.13
256.134	39.94
256.351	29.7
256.567	-3.07
256.784	74.75
257	-23.55
257.217	54.27
257.433	7.17
257.65	-11.26
257.866	72.7
258.082	1.02
258.299	33.79
258.515	142.33
258.732	64.51
258.948	134.14
259.165	37.89
259.381	13.31
259.597	78.85
259.814	37.89
260.03	23.55
260.246	78.85
260.463	70.65
260.679	56.32
260.895	23.55
261.112	70.65
261.328	50.18
261.544	33.79
261.761	138.24
261.977	41.98
262.193	5.12
262.409	87.04
262.626	52.22
262.842	93.18
263.058	19.46
263.274	113.66
263.49	50.18
263.707	160.77
263.923	50.18
264.139	11.26
264.355	89.09
264.571	68.61
264.787	76.8
265.004	140.29
265.22	54.27
265.436	21.5
265.652	80.89
265.868	134.14
266.084	39.94
266.3	58.37
266.516	11.26
266.732	11.26
266.948	84.99
267.164	31.74
267.38	19.46
267.596	33.79
267.812	58.37
268.028	82.94
268.244	-1.02
268.46	62.46
268.676	-19.46
268.892	54.27
269.108	13.31
269.324	17.41
269.54	-33.79
269.756	95.23
269.972	87.04
270.188	13.31
270.403	-15.36
270.619	31.74
270.835	103.42
271.051	39.94
271.267	35.84
271.483	89.09
271.698	62.46
271.914	87.04
272.13	13.31
272.346	58.37
272.562	46.08
272.777	19.46
272.993	56.32
273.209	23.55
273.425	64.51
273.64	41.98
273.856	130.05
274.072	7.17
274.287	82.94
274.503	-44.03
274.719	87.04
274.934	134.14
275.15	25.6
275.366	76.8
275.581	29.7
275.797	107.52
276.012	97.28
276.228	103.42
276.444	-17.41
276.659	52.22
276.875	-11.26
277.09	33.79
277.306	33.79
277.521	62.46
277.737	21.5
277.952	95.23
278.168	80.89
278.383	23.55
278.599	62.46
278.814	33.79
279.03	56.32
279.245	78.85
279.461	21.5
279.676	132.09
279.892	11.26
280.107	66.56
280.322	33.79
280.538	78.85
280.753	11.26
280.969	72.7
281.184	37.89
281.399	91.13
281.615	37.89
281.83	115.71
282.045	17.41
282.26	41.98
282.476	95.23
282.691	80.89
282.906	78.85
283.122	82.94
283.337	37.89
283.552	60.42
283.767	46.08
283.983	119.81
284.198	-17.41
284.413	111.61
284.628	17.41
284.843	82.94
285.058	37.89
285.274	62.46
285.489	-5.12
285.704	46.08
285.919	-19.46
286.134	62.46
286.349	60.42
286.564	80.89
286.779	142.33
286.995	70.65
287.21	-50.18
287.425	66.56
287.64	58.37
287.855	70.65
288.07	13.31
288.285	91.13
288.5	80.89
288.715	109.57
288.93	70.65
289.145	99.33
289.36	123.9
289.575	103.42
289.79	35.84
290.004	82.94
290.219	121.85
290.434	74.75
290.649	80.89
290.864	21.5
291.079	111.61
291.294	52.22
291.509	5.12
291.724	13.31
291.938	37.89
292.153	132.09
292.368	62.46
292.583	113.66
292.798	164.86
293.012	54.27
293.227	1.02
293.442	-1.02
293.657	11.26
293.871	78.85
294.086	29.7
294.301	82.94
294.516	91.13
294.73	27.65
294.945	37.89
295.16	70.65
295.374	82.94
295.589	113.66
295.804	5.12
296.018	13.31
296.233	58.37
296.447	132.09
296.662	5.12
296.877	105.47
297.091	132.09
297.306	-1.02
297.52	37.89
297.735	41.98
297.949	25.6
298.164	80.89
298.378	-7.17
298.593	25.6
298.807	37.89
299.022	44.03
299.236	107.52
299.451	58.37
299.665	50.18
299.88	99.33
300.094	21.5
300.309	46.08
300.523	31.74
300.737	29.7
300.952	95.23
301.166	97.28
301.381	9.22
301.595	99.33
301.809	105.47
302.024	64.51
302.238	35.84
302.452	95.23
302.667	13.31
302.881	91.13
303.095	103.42
303.309	9.22
303.524	54.27
303.738	58.37
303.952	29.7
304.166	9.22
304.381	5.12
304.595	91.13
304.809	15.36
305.023	31.74
305.237	-15.36
305.452	5.12
305.666	136.19
305.88	136.19
306.094	95.23
306.308	68.61
306.522	78.85
306.736	117.76
306.95	111.61
307.164	70.65
307.379	17.41
307.593	107.52
307.807	103.42
308.021	87.04
308.235	31.74
308.449	46.08
308.663	31.74
308.877	62.46
309.091	119.81
309.305	56.32
309.519	17.41
309.733	50.18
309.947	31.74
310.161	70.65
310.374	58.37
310.588	48.13
310.802	-1.02
311.016	5.12
311.23	15.36
311.444	52.22
311.658	-17.41
311.872	17.41
312.085	89.09
312.299	78.85
312.513	70.65
312.727	136.19
312.941	78.85
313.154	41.98
313.368	66.56
313.582	54.27
313.796	58.37
314.009	70.65
314.223	103.42
314.437	74.75
314.651	44.03
314.864	128
315.078	1.02
315.292	50.18
315.505	58.37
315.719	50.18
315.933	50.18
316.146	21.5
316.36	39.94
316.573	72.7
316.787	103.42
317.001	95.23
317.214	60.42
317.428	95.23
317.641	-19.46
317.855	87.04
318.068	68.61
318.282	-35.84
318.495	152.57
318.709	84.99
318.922	48.13
319.136	115.71
319.349	132.09
319.563	31.74
319.776	62.46
319.99	33.79
320.203	132.09
320.417	136.19
320.63	62.46
320.843	195.58
321.057	58.37
321.27	66.56
321.483	82.94
321.697	37.89
321.91	25.6
322.124	21.5
322.337	72.7
322.55	78.85
322.763	72.7
322.977	95.23
323.19	33.79
323.403	46.08
323.617	23.55
323.83	27.65
324.043	70.65
324.256	132.09
324.469	84.99
324.683	136.19
324.896	78.85
325.109	152.57
325.322	-41.98
325.535	132.09
325.748	115.71
325.962	21.5
326.175	121.85
326.388	56.32
326.601	66.56
326.814	29.7
327.027	31.74
327.24	78.85
327.453	25.6
327.666	58.37
327.879	87.04
328.092	46.08
328.305	-27.65
328.518	107.52
328.731	74.75
328.944	64.51
329.157	70.65
329.37	-7.17
329.583	74.75
329.796	193.53
330.009	50.18
330.222	66.56
330.435	72.7
330.648	95.23
330.861	-11.26
331.073	50.18
331.286	140.29
331.499	95.23
331.712	78.85
331.925	50.18
332.138	56.32
332.35	23.55
332.563	113.66
332.776	140.29
332.989	60.42
333.202	-1.02
333.414	21.5
333.627	46.08
333.84	56.32
334.053	87.04
334.265	37.89
334.478	70.65
334.691	56.32
334.903	39.94
335.116	25.6
335.329	66.56
335.541	89.09
335.754	97.28
335.966	78.85
336.179	33.79
336.392	-15.36
336.604	80.89
336.817	97.28
337.029	76.8
337.242	117.76
337.454	17.41
337.667	58.37
337.88	97.28
338.092	52.22
338.305	25.6
338.517	37.89
338.729	-1.02
338.942	109.57
339.154	-3.07
339.367	-9.22
339.579	52.22
339.792	82.94
340.004	68.61
340.217	87.04
340.429	70.65
340.641	44.03
340.854	23.55
341.066	17.41
341.278	132.09
341.491	95.23
341.703	7.17
341.915	64.51
342.128	21.5
342.34	74.75
342.552	56.32
342.764	70.65
342.977	154.62
343.189	89.09
343.401	70.65
343.613	7.17
343.826	-1.02
344.038	68.61
344.25	17.41
344.462	70.65
344.674	95.23
344.886	78.85
345.099	119.81
345.311	-3.07
345.523	70.65
345.735	-48.13
345.947	111.61
346.159	134.14
346.371	80.89
346.583	95.23
346.795	103.42
347.007	115.71
347.219	39.94
347.431	146.43
347.643	87.04
347.855	21.5
348.067	111.61
348.279	-3.07
348.491	109.57
348.703	66.56
348.915	62.46
349.127	87.04
349.339	99.33
349.551	-33.79
349.763	99.33
349.975	95.23
350.187	54.27
350.399	27.65
350.61	111.61
350.822	9.22
351.034	95.23
351.246	37.89
351.458	52.22
351.669	44.03
351.881	130.05
352.093	89.09
352.305	-11.26
352.517	93.18
352.728	89.09
352.94	9.22
353.152	54.27
353.363	29.7
353.575	78.85
353.787	103.42
353.999	113.66
354.21	162.81
354.422	33.79
354.633	58.37
354.845	78.85
355.057	103.42
355.268	15.36
355.48	37.89
355.692	9.22
355.903	58.37
356.115	97.28
356.326	64.51
356.538	130.05
356.749	164.86
356.961	113.66
357.172	70.65
357.384	35.84
357.595	111.61
357.807	46.08
358.018	-15.36
358.23	95.23
358.441	156.67
358.653	128
358.864	82.94
359.075	37.89
359.287	5.12
359.498	91.13
359.709	132.09
359.921	21.5
360.132	138.24
360.344	84.99
360.555	97.28
360.766	70.65
360.977	46.08
361.189	130.05
361.4	50.18
361.611	113.66
361.823	56.32
362.034	95.23
362.245	-37.89
362.456	113.66
362.667	95.23
362.879	62.46
363.09	17.41
363.301	74.75
363.512	123.9
363.723	78.85
363.935	115.71
364.146	144.38
364.357	64.51
364.568	62.46
364.779	64.51
364.99	132.09
365.201	-11.26
365.412	39.94
365.623	44.03
365.834	80.89
366.045	95.23
366.256	152.57
366.467	113.66
366.678	64.51
366.889	46.08
367.1	37.89
367.311	64.51
367.522	48.13
367.733	78.85
367.944	64.51
368.155	107.52
368.366	80.89
368.577	111.61
368.788	89.09
368.999	62.46
369.209	68.61
369.42	128
369.631	97.28
369.842	56.32
370.053	128
370.264	89.09
370.474	62.46
370.685	56.32
370.896	50.18
371.107	97.28
371.317	37.89
371.528	152.57
371.739	138.24
371.95	80.89
372.16	105.47
372.371	64.51
372.582	46.08
372.792	117.76
373.003	95.23
373.214	50.18
373.424	89.09
373.635	54.27
373.846	117.76
374.056	15.36
374.267	70.65
374.477	72.7
374.688	54.27
374.898	39.94
375.109	103.42
375.319	29.7
375.53	203.77
375.74	113.66
375.951	54.27
376.161	148.48
376.372	54.27
376.582	89.09
376.793	78.85
377.003	97.28
377.214	39.94
377.424	37.89
377.635	41.98
377.845	50.18
378.055	152.57
378.266	56.32
378.476	46.08
378.686	132.09
378.897	52.22
379.107	123.9
379.317	156.67
379.528	162.81
379.738	171.01
379.948	95.23
380.158	97.28
380.369	95.23
380.579	64.51
380.789	46.08
380.999	91.13
381.21	91.13
381.42	58.37
381.63	78.85
381.84	164.86
382.05	117.76
382.261	181.25
382.471	121.85
382.681	33.79
382.891	91.13
383.101	99.33
383.311	1.02
383.521	95.23
383.731	62.46
383.941	97.28
384.151	78.85
384.361	74.75
384.571	128
384.781	17.41
384.991	152.57
385.201	168.96
385.411	107.52
385.621	46.08
385.831	130.05
386.041	87.04
386.251	64.51
386.461	115.71
386.671	25.6
386.881	101.37
387.091	91.13
387.301	185.34
387.511	87.04
387.72	48.13
387.93	162.81
388.14	62.46
388.35	64.51
388.56	89.09
388.769	119.81
388.979	62.46
389.189	56.32
389.399	103.42
389.609	132.09
389.818	80.89
390.028	70.65
390.238	72.7
390.447	37.89
390.657	48.13
390.867	103.42
391.076	48.13
391.286	121.85
391.496	89.09
391.705	84.99
391.915	91.13
392.125	89.09
392.334	136.19
392.544	138.24
392.753	99.33
392.963	64.51
393.172	130.05
393.382	7.17
393.591	183.29
393.801	91.13
394.01	189.44
394.22	105.47
394.429	152.57
394.639	82.94
394.848	211.96
395.058	111.61
395.267	84.99
395.477	128
395.686	136.19
395.895	189.44
396.105	97.28
396.314	103.42
396.524	113.66
396.733	80.89
396.942	211.96
397.152	168.96
397.361	185.34
397.57	164.86
397.78	111.61
397.989	138.24
398.198	220.16
398.407	99.33
398.617	171.01
398.826	199.68
399.035	123.9
399.244	125.95
399.453	99.33
399.663	128
399.872	168.96
400.081	93.18
400.29	144.38
400.499	62.46
400.708	214.01
400.917	218.11
401.127	148.48
401.336	113.66
401.545	177.15
401.754	179.2
401.963	238.59
402.172	152.57
402.381	119.81
402.59	211.96
402.799	168.96
403.008	222.2
403.217	160.77
403.426	156.67
403.635	111.61
403.844	185.34
404.053	220.16
404.262	195.58
404.471	275.45
404.68	154.62
404.888	185.34
405.097	244.73
405.306	289.79
405.515	246.78
405.724	314.36
405.933	281.6
406.142	193.53
406.35	199.68
406.559	214.01
406.768	271.36
406.977	312.32
407.185	300.03
407.394	328.7
407.603	300.03
407.812	326.65
408.02	326.65
408.229	252.92
408.438	334.84
408.646	373.75
408.855	283.64
409.064	390.14
409.272	306.17
409.481	470.01
409.69	392.19
409.898	373.75
410.107	390.14
410.315	422.91
410.524	406.52
410.733	459.77
410.941	455.67
411.15	517.11
411.358	594.93
411.567	500.73
411.775	594.93
411.984	619.51
412.192	619.51
412.401	646.13
412.609	654.33
412.818	711.67
413.026	687.09
413.234	672.76
413.443	773.11
413.651	701.43
413.86	816.12
414.068	848.88
414.276	957.43
414.485	857.07
414.693	975.86
414.901	988.14
415.11	994.29
415.318	1016.82
415.526	1006.58
415.734	1016.82
415.943	1106.93
416.151	1125.36
416.359	1213.42
416.567	1254.38
416.776	1256.43
416.984	1360.88
417.192	1375.21
417.4	1340.4
417.608	1344.49
417.817	1483.75
418.025	1549.29
418.233	1729.51
418.441	1594.34
418.649	1668.07
418.857	1811.43
419.065	1852.39
419.273	1848.29
419.481	1934.31
419.689	1885.16
419.897	2122.72
420.105	2223.07
420.313	2143.2
420.521	2472.92
420.729	2327.52
420.937	2282.46
421.145	2544.6
421.353	2544.6
421.561	2716.63
421.769	2808.79
421.977	2939.86
422.185	2859.99
422.393	2950.1
422.601	3290.06
422.809	3212.24
423.017	3199.95
423.224	3431.37
423.432	3503.05
423.64	3595.21
423.848	3789.77
424.056	3797.96
424.263	4058.05
424.471	4056
424.679	4135.87
424.887	4283.33
425.094	4379.58
425.302	4527.03
425.51	4654.01
425.718	4701.11
425.925	4864.95
426.133	4854.71
426.341	5118.9
426.548	5538.73
426.756	5565.36
426.964	5481.39
427.171	5872.55
427.379	6040.48
427.586	6101.92
427.794	6300.58
428.001	6685.59
428.209	6949.78
428.417	6618.01
428.624	7144.34
428.832	7402.38
429.039	7342.99
429.247	7181.2
429.454	7873.42
429.662	8326.02
429.869	7799.69
430.076	8352.64
430.284	8219.52
430.491	8377.22
430.699	8938.36
430.906	8995.7
431.114	9110.39
431.321	9286.51
431.528	9624.43
431.736	10201.96
431.943	10711.9
432.15	10285.92
432.358	10670.94
432.565	11121.49
432.772	10976.09
432.979	11500.37
433.187	11578.19
433.394	11656.01
433.601	12530.5
433.808	12608.32
434.016	12426.05
434.223	13001.53
434.43	13751.09
434.637	13472.56
434.844	14478.12
435.052	14953.24
435.259	14359.33
435.466	14832.41
435.673	14562.08
435.88	15438.61
436.087	16521.99
436.294	16171.79
436.501	15665.94
436.708	15999.76
436.915	16814.85
437.122	17640.18
437.329	17437.43
437.537	18033.39
437.743	18086.64
437.95	18172.65
438.157	19151.58
438.364	19870.42
438.571	19524.31
438.778	19757.78
438.985	21615.29
439.192	20605.64
439.399	21314.23
439.606	20828.87
439.813	21902
440.02	23466.65
440.227	22796.96
440.433	22715.05
440.64	23790.23
440.847	23364.25
441.054	24060.56
441.261	25588.35
441.467	25363.07
441.674	25553.53
441.881	26622.57
442.088	26337.9
442.294	25860.73
442.501	26741.35
442.708	27507.29
442.914	28570.19
443.121	29241.92
443.328	28803.66
443.534	30773.8
443.741	30145.08
443.948	29477.44
444.154	31662.62
444.361	31599.13
444.568	31517.22
444.774	31736.35
444.981	32098.84
445.187	33092.1
445.394	34286.07
445.6	33946.11
445.807	37075.4
446.013	35105.26
446.22	35961.31
446.426	37439.94
446.633	37452.23
446.839	39061.93
447.046	37286.34
447.252	39578.02
447.459	39487.91
447.665	39389.61
447.871	41208.2
448.078	42838.39
448.284	40393.11
448.491	41658.76
448.697	43346.28
448.903	44138.85
449.11	44003.68
449.316	43112.81
449.522	44214.62
449.728	45801.8
449.935	45916.48
450.141	45822.28
450.347	46827.83
450.553	45025.62
450.76	46043.46
450.966	47307.05
451.172	46965.04
451.378	48134.43
451.584	47241.52
451.791	47847.72
451.997	48165.15
452.203	48898.33
452.409	48724.25
452.615	48515.36
452.821	46795.06
453.027	46235.97
453.233	48687.39
453.44	46647.61
453.646	47612.2
453.852	47173.94
454.058	48546.08
454.264	47028.53
454.47	47630.63
454.676	46737.72
454.882	48027.94
455.088	44097.89
455.294	45328.72
455.5	45377.87
455.705	45922.63
455.911	44155.23
456.117	43123.05
456.323	42647.93
456.529	40612.24
456.735	42430.84
456.941	41025.93
457.147	40620.44
457.352	39260.58
457.558	38900.14
457.764	39127.47
457.97	38291.9
458.176	37349.83
458.381	37390.79
458.587	35774.94
458.793	35242.47
458.999	33952.25
459.204	36002.27
459.41	34857.45
459.616	32526.86
459.821	32526.86
460.027	32666.13
460.233	31930.9
460.438	30485.04
460.644	30792.23
460.85	29286.98
461.055	28705.35
461.261	28789.32
461.466	26358.38
461.672	25664.12
461.878	27605.59
462.083	25766.52
462.289	25145.98
462.494	25133.7
462.7	24130.19
462.905	23339.68
463.111	23829.14
463.316	24021.65
463.522	23661.21
463.727	23562.9
463.932	23442.07
464.138	23048.86
464.343	23607.96
464.549	22786.72
464.754	23530.14
464.959	23257.76
465.165	22839.97
465.37	21820.08
465.575	21308.09
465.781	22295.21
465.986	22174.38
466.191	21426.87
