Data from USB4F104151__255__14-34-18-833.txt Node

Date: Thu Mar 13 14:34:18 EDT 2025
User: louis
Spectrometer: USB4F10415
Trigger mode: 4
Integration Time (sec): 2.500000E-2
Scans to average: 1
Electric dark correction enabled: true
Nonlinearity correction enabled: false
Boxcar width: 0
XAxis mode: Wavelengths
Number of Pixels in Spectrum: 3648
>>>>>Begin Spectral Data<<<<<
178.204	-166.4
178.424	-166.4
178.644	-166.4
178.864	-158.21
179.084	-51.71
179.304	-16.9
179.524	30.21
179.744	-2.56
179.964	-4.61
180.184	-10.75
180.404	13.82
180.624	69.12
180.844	44.54
181.064	-12.8
181.283	-61.95
181.503	-43.52
181.723	-4.61
181.943	-8.7
182.163	44.54
182.383	79.36
182.602	19.97
182.822	146.94
183.042	71.17
183.262	32.26
183.482	75.26
183.701	5.63
183.921	44.54
184.141	54.78
184.361	89.6
184.58	101.89
184.8	5.63
185.02	34.3
185.239	81.41
185.459	44.54
185.679	101.89
185.898	-111.1
186.118	69.12
186.338	69.12
186.557	22.02
186.777	1.54
186.997	65.02
187.216	19.97
187.436	136.7
187.655	120.32
187.875	114.17
188.095	85.5
188.314	95.74
188.534	71.17
188.753	58.88
188.973	91.65
189.192	60.93
189.412	26.11
189.631	32.26
189.851	60.93
190.07	56.83
190.29	28.16
190.509	-4.61
190.729	26.11
190.948	11.78
191.168	77.31
191.387	128.51
191.607	-4.61
191.826	87.55
192.045	65.02
192.265	-16.9
192.484	13.82
192.704	85.5
192.923	-27.14
193.142	179.71
193.362	-8.7
193.581	142.85
193.8	105.98
194.02	103.93
194.239	11.78
194.458	128.51
194.678	110.08
194.897	13.82
195.116	28.16
195.335	7.68
195.555	22.02
195.774	3.58
195.993	42.5
196.212	19.97
196.432	-20.99
196.651	32.26
196.87	79.36
197.089	101.89
197.308	114.17
197.528	85.5
197.747	-10.75
197.966	54.78
198.185	69.12
198.404	-39.42
198.623	112.13
198.842	3.58
199.062	85.5
199.281	136.7
199.5	44.54
199.719	91.65
199.938	85.5
200.157	120.32
200.376	56.83
200.595	26.11
200.814	73.21
201.033	11.78
201.252	44.54
201.471	75.26
201.69	71.17
201.909	11.78
202.128	118.27
202.347	-23.04
202.566	3.58
202.785	30.21
203.004	11.78
203.223	151.04
203.442	15.87
203.661	87.55
203.879	58.88
204.098	87.55
204.317	85.5
204.536	95.74
204.755	32.26
204.974	126.46
205.193	87.55
205.411	79.36
205.63	122.37
205.849	83.45
206.068	19.97
206.287	138.75
206.505	52.74
206.724	-0.51
206.943	-27.14
207.162	-27.14
207.381	54.78
207.599	13.82
207.818	71.17
208.037	54.78
208.255	-20.99
208.474	73.21
208.693	26.11
208.911	54.78
209.13	81.41
209.349	40.45
209.567	15.87
209.786	56.83
210.005	19.97
210.223	19.97
210.442	-49.66
210.661	52.74
210.879	28.16
211.098	-2.56
211.316	28.16
211.535	15.87
211.753	52.74
211.972	105.98
212.191	75.26
212.409	-0.51
212.628	44.54
212.846	30.21
213.065	44.54
213.283	46.59
213.502	-12.8
213.72	93.69
213.938	38.4
214.157	-37.38
214.375	11.78
214.594	36.35
214.812	36.35
215.031	62.98
215.249	-12.8
215.467	89.6
215.686	38.4
215.904	101.89
216.122	44.54
216.341	65.02
216.559	-16.9
216.778	44.54
216.996	17.92
217.214	46.59
217.432	93.69
217.651	22.02
217.869	46.59
218.087	36.35
218.306	19.97
218.524	151.04
218.742	3.58
218.96	87.55
219.179	42.5
219.397	7.68
219.615	81.41
219.833	85.5
220.051	52.74
220.27	153.09
220.488	54.78
220.706	44.54
220.924	-4.61
221.142	11.78
221.36	89.6
221.578	81.41
221.796	122.37
222.015	-25.09
222.233	34.3
222.451	62.98
222.669	-16.9
222.887	130.56
223.105	58.88
223.323	22.02
223.541	62.98
223.759	36.35
223.977	3.58
224.195	85.5
224.413	136.7
224.631	65.02
224.849	-2.56
225.067	87.55
225.285	44.54
225.503	46.59
225.721	5.63
225.939	71.17
226.157	7.68
226.375	110.08
226.592	24.06
226.81	81.41
227.028	1.54
227.246	118.27
227.464	3.58
227.682	122.37
227.9	-2.56
228.117	99.84
228.335	19.97
228.553	62.98
228.771	65.02
228.989	38.4
229.206	46.59
229.424	22.02
229.642	-43.52
229.86	-16.9
230.077	69.12
230.295	11.78
230.513	97.79
230.731	110.08
230.948	85.5
231.166	118.27
231.384	15.87
231.601	69.12
231.819	65.02
232.037	11.78
232.254	-45.57
232.472	24.06
232.689	-25.09
232.907	54.78
233.125	32.26
233.342	46.59
233.56	-20.99
233.777	-37.38
233.995	19.97
234.213	116.22
234.43	24.06
234.648	67.07
234.865	54.78
235.083	93.69
235.3	7.68
235.518	1.54
235.735	85.5
235.953	46.59
236.17	30.21
236.388	-18.94
236.605	105.98
236.822	48.64
237.04	36.35
237.257	87.55
237.475	11.78
237.692	46.59
237.909	-20.99
238.127	56.83
238.344	81.41
238.562	38.4
238.779	7.68
238.996	-29.18
239.214	101.89
239.431	85.5
239.648	9.73
239.865	24.06
240.083	114.17
240.3	13.82
240.517	-8.7
240.735	22.02
240.952	85.5
241.169	138.75
241.386	77.31
241.603	19.97
241.821	32.26
242.038	134.65
242.255	110.08
242.472	-37.38
242.689	116.22
242.907	44.54
243.124	46.59
243.341	38.4
243.558	-10.75
243.775	36.35
243.992	-51.71
244.209	93.69
244.426	56.83
244.643	3.58
244.86	11.78
245.078	52.74
245.295	24.06
245.512	28.16
245.729	65.02
245.946	5.63
246.163	65.02
246.38	48.64
246.597	19.97
246.814	36.35
247.031	101.89
247.248	101.89
247.464	52.74
247.681	54.78
247.898	126.46
248.115	-0.51
248.332	22.02
248.549	48.64
248.766	54.78
248.983	48.64
249.2	124.41
249.417	36.35
249.633	40.45
249.85	36.35
250.067	7.68
250.284	62.98
250.501	15.87
250.717	128.51
250.934	60.93
251.151	77.31
251.368	-12.8
251.585	44.54
251.801	87.55
252.018	-8.7
252.235	65.02
252.451	30.21
252.668	95.74
252.885	69.12
253.102	52.74
253.318	-4.61
253.535	24.06
253.752	32.26
253.968	36.35
254.185	-29.18
254.401	50.69
254.618	17.92
254.835	28.16
255.051	118.27
255.268	77.31
255.484	89.6
255.701	60.93
255.917	69.12
256.134	36.35
256.351	36.35
256.567	73.21
256.784	-2.56
257	-35.33
257.217	122.37
257.433	19.97
257.65	-4.61
257.866	36.35
258.082	19.97
258.299	40.45
258.515	87.55
258.732	22.02
258.948	11.78
259.165	36.35
259.381	65.02
259.597	85.5
259.814	60.93
260.03	40.45
260.246	19.97
260.463	60.93
260.679	85.5
260.895	44.54
261.112	118.27
261.328	-41.47
261.544	52.74
261.761	85.5
261.977	15.87
262.193	24.06
262.409	87.55
262.626	17.92
262.842	5.63
263.058	40.45
263.274	153.09
263.49	105.98
263.707	69.12
263.923	32.26
264.139	48.64
264.355	-12.8
264.571	62.98
264.787	38.4
265.004	73.21
265.22	93.69
265.436	11.78
265.652	19.97
265.868	36.35
266.084	69.12
266.3	32.26
266.516	11.78
266.732	38.4
266.948	56.83
267.164	112.13
267.38	46.59
267.596	65.02
267.812	89.6
268.028	69.12
268.244	-72.19
268.46	118.27
268.676	-16.9
268.892	79.36
269.108	24.06
269.324	17.92
269.54	-27.14
269.756	95.74
269.972	30.21
270.188	5.63
270.403	24.06
270.619	103.93
270.835	-2.56
271.051	19.97
271.267	48.64
271.483	3.58
271.698	71.17
271.914	56.83
272.13	58.88
272.346	62.98
272.562	114.17
272.777	60.93
272.993	69.12
273.209	-10.75
273.425	-12.8
273.64	24.06
273.856	132.61
274.072	62.98
274.287	-12.8
274.503	62.98
274.719	56.83
274.934	62.98
275.15	65.02
275.366	40.45
275.581	-18.94
275.797	60.93
276.012	7.68
276.228	93.69
276.444	44.54
276.659	69.12
276.875	40.45
277.09	50.69
277.306	44.54
277.521	79.36
277.737	-10.75
277.952	81.41
278.168	69.12
278.383	13.82
278.599	-2.56
278.814	126.46
279.03	15.87
279.245	95.74
279.461	71.17
279.676	13.82
279.892	11.78
280.107	44.54
280.322	-10.75
280.538	42.5
280.753	32.26
280.969	85.5
281.184	30.21
281.399	95.74
281.615	28.16
281.83	34.3
282.045	-12.8
282.26	-29.18
282.476	19.97
282.691	101.89
282.906	103.93
283.122	58.88
283.337	-80.38
283.552	62.98
283.767	-12.8
283.983	48.64
284.198	11.78
284.413	77.31
284.628	24.06
284.843	118.27
285.058	15.87
285.274	36.35
285.489	-61.95
285.704	171.52
285.919	48.64
286.134	-33.28
286.349	15.87
286.564	11.78
286.779	40.45
286.995	95.74
287.21	34.3
287.425	69.12
287.64	69.12
287.855	46.59
288.07	30.21
288.285	1.54
288.5	48.64
288.715	67.07
288.93	50.69
289.145	-12.8
289.36	54.78
289.575	118.27
289.79	67.07
290.004	32.26
290.219	-4.61
290.434	-61.95
290.649	30.21
290.864	52.74
291.079	65.02
291.294	36.35
291.509	-0.51
291.724	36.35
291.938	69.12
292.153	105.98
292.368	1.54
292.583	73.21
292.798	81.41
293.012	13.82
293.227	38.4
293.442	52.74
293.657	71.17
293.871	42.5
294.086	58.88
294.301	118.27
294.516	36.35
294.73	97.79
294.945	34.3
295.16	19.97
295.374	153.09
295.589	144.89
295.804	40.45
296.018	19.97
296.233	153.09
296.447	118.27
296.662	24.06
296.877	85.5
297.091	24.06
297.306	13.82
297.52	28.16
297.735	71.17
297.949	-43.52
298.164	69.12
298.378	52.74
298.593	36.35
298.807	30.21
299.022	26.11
299.236	30.21
299.451	103.93
299.665	7.68
299.88	44.54
300.094	58.88
300.309	30.21
300.523	-4.61
300.737	60.93
300.952	46.59
301.166	24.06
301.381	48.64
301.595	-20.99
301.809	48.64
302.024	32.26
302.238	11.78
302.452	103.93
302.667	-18.94
302.881	99.84
303.095	50.69
303.309	19.97
303.524	38.4
303.738	-10.75
303.952	56.83
304.166	46.59
304.381	-61.95
304.595	105.98
304.809	58.88
305.023	-27.14
305.237	30.21
305.452	30.21
305.666	32.26
305.88	110.08
306.094	52.74
306.308	79.36
306.522	42.5
306.736	75.26
306.95	75.26
307.164	79.36
307.379	19.97
307.593	52.74
307.807	11.78
308.021	108.03
308.235	85.5
308.449	36.35
308.663	-20.99
308.877	120.32
309.091	85.5
309.305	73.21
309.519	-29.18
309.733	52.74
309.947	44.54
310.161	15.87
310.374	54.78
310.588	30.21
310.802	95.74
311.016	3.58
311.23	44.54
311.444	32.26
311.658	-2.56
311.872	89.6
312.085	77.31
312.299	81.41
312.513	95.74
312.727	77.31
312.941	5.63
313.154	101.89
313.368	126.46
313.582	83.45
313.796	44.54
314.009	36.35
314.223	120.32
314.437	19.97
314.651	-4.61
314.864	-35.33
315.078	71.17
315.292	36.35
315.505	48.64
315.719	48.64
315.933	105.98
316.146	112.13
316.36	44.54
316.573	93.69
316.787	103.93
317.001	52.74
317.214	34.3
317.428	71.17
317.641	67.07
317.855	134.65
318.068	97.79
318.282	44.54
318.495	134.65
318.709	93.69
318.922	30.21
319.136	97.79
319.349	60.93
319.563	128.51
319.776	118.27
319.99	3.58
320.203	83.45
320.417	77.31
320.63	120.32
320.843	108.03
321.057	67.07
321.27	87.55
321.483	142.85
321.697	118.27
321.91	124.41
322.124	163.33
322.337	103.93
322.55	52.74
322.763	134.65
322.977	-43.52
323.19	40.45
323.403	-2.56
323.617	103.93
323.83	77.31
324.043	93.69
324.256	30.21
324.469	-14.85
324.683	87.55
324.896	-12.8
325.109	69.12
325.322	36.35
325.535	22.02
325.748	126.46
325.962	15.87
326.175	75.26
326.388	32.26
326.601	22.02
326.814	71.17
327.027	75.26
327.24	93.69
327.453	-25.09
327.666	-10.75
327.879	103.93
328.092	114.17
328.305	69.12
328.518	89.6
328.731	60.93
328.944	69.12
329.157	83.45
329.37	30.21
329.583	114.17
329.796	79.36
330.009	-12.8
330.222	128.51
330.435	105.98
330.648	73.21
330.861	36.35
331.073	46.59
331.286	3.58
331.499	110.08
331.712	36.35
331.925	101.89
332.138	116.22
332.35	54.78
332.563	13.82
332.776	79.36
332.989	-8.7
333.202	-20.99
333.414	95.74
333.627	62.98
333.84	99.84
334.053	85.5
334.265	40.45
334.478	87.55
334.691	134.65
334.903	13.82
335.116	-66.05
335.329	95.74
335.541	103.93
335.754	114.17
335.966	-27.14
336.179	-14.85
336.392	87.55
336.604	128.51
336.817	7.68
337.029	46.59
337.242	48.64
337.454	71.17
337.667	58.88
337.88	112.13
338.092	105.98
338.305	69.12
338.517	19.97
338.729	60.93
338.942	73.21
339.154	-0.51
339.367	38.4
339.579	54.78
339.792	73.21
340.004	161.28
340.217	22.02
340.429	62.98
340.641	42.5
340.854	62.98
341.066	93.69
341.278	62.98
341.491	38.4
341.703	24.06
341.915	28.16
342.128	138.75
342.34	81.41
342.552	24.06
342.764	-4.61
342.977	-2.56
343.189	3.58
343.401	87.55
343.613	-0.51
343.826	73.21
344.038	7.68
344.25	71.17
344.462	22.02
344.674	30.21
344.886	60.93
345.099	103.93
345.311	28.16
345.523	36.35
345.735	-20.99
345.947	112.13
346.159	144.89
346.371	93.69
346.583	48.64
346.795	93.69
347.007	71.17
347.219	83.45
347.431	93.69
347.643	153.09
347.855	44.54
348.067	3.58
348.279	9.73
348.491	67.07
348.703	48.64
348.915	52.74
349.127	69.12
349.339	101.89
349.551	3.58
349.763	112.13
349.975	7.68
350.187	138.75
350.399	71.17
350.61	110.08
350.822	62.98
351.034	112.13
351.246	95.74
351.458	155.13
351.669	122.37
351.881	56.83
352.093	110.08
352.305	128.51
352.517	62.98
352.728	65.02
352.94	65.02
353.152	60.93
353.363	7.68
353.575	77.31
353.787	134.65
353.999	13.82
354.21	165.37
354.422	48.64
354.633	44.54
354.845	93.69
355.057	65.02
355.268	93.69
355.48	77.31
355.692	77.31
355.903	50.69
356.115	79.36
356.326	36.35
356.538	36.35
356.749	32.26
356.961	101.89
357.172	93.69
357.384	-8.7
357.595	171.52
357.807	-12.8
358.018	93.69
358.23	9.73
358.441	114.17
358.653	81.41
358.864	40.45
359.075	87.55
359.287	24.06
359.498	89.6
359.709	60.93
359.921	71.17
360.132	71.17
360.344	101.89
360.555	28.16
360.766	19.97
360.977	91.65
361.189	101.89
361.4	93.69
361.611	126.46
361.823	144.89
362.034	44.54
362.245	56.83
362.456	44.54
362.667	110.08
362.879	-27.14
363.09	128.51
363.301	44.54
363.512	175.61
363.723	81.41
363.935	36.35
364.146	118.27
364.357	7.68
364.568	151.04
364.779	15.87
364.99	118.27
365.201	-18.94
365.412	77.31
365.623	60.93
365.834	24.06
366.045	32.26
366.256	36.35
366.467	30.21
366.678	69.12
366.889	60.93
367.1	13.82
367.311	11.78
367.522	11.78
367.733	65.02
367.944	71.17
368.155	-8.7
368.366	38.4
368.577	97.79
368.788	126.46
368.999	32.26
369.209	120.32
369.42	126.46
369.631	200.19
369.842	48.64
370.053	81.41
370.264	97.79
370.474	-18.94
370.685	42.5
370.896	79.36
371.107	95.74
371.317	52.74
371.528	36.35
371.739	126.46
371.95	71.17
372.16	134.65
372.371	42.5
372.582	15.87
372.792	71.17
373.003	-16.9
373.214	48.64
373.424	79.36
373.635	19.97
373.846	73.21
374.056	54.78
374.267	19.97
374.477	-29.18
374.688	79.36
374.898	19.97
375.109	56.83
375.319	73.21
375.53	138.75
375.74	93.69
375.951	46.59
376.161	62.98
376.372	87.55
376.582	19.97
376.793	114.17
377.003	15.87
377.214	83.45
377.424	50.69
377.635	75.26
377.845	-4.61
378.055	142.85
378.266	44.54
378.476	69.12
378.686	118.27
378.897	103.93
379.107	89.6
379.317	44.54
379.528	56.83
379.738	171.52
379.948	22.02
380.158	87.55
380.369	60.93
380.579	65.02
380.789	75.26
380.999	85.5
381.21	-37.38
381.42	136.7
381.63	93.69
381.84	126.46
382.05	58.88
382.261	169.47
382.471	93.69
382.681	77.31
382.891	60.93
383.101	120.32
383.311	11.78
383.521	32.26
383.731	36.35
383.941	30.21
384.151	87.55
384.361	48.64
384.571	128.51
384.781	93.69
384.991	153.09
385.201	87.55
385.411	120.32
385.621	77.31
385.831	101.89
386.041	69.12
386.251	85.5
386.461	99.84
386.671	136.7
386.881	79.36
387.091	75.26
387.301	38.4
387.511	112.13
387.72	48.64
387.93	142.85
388.14	3.58
388.35	60.93
388.56	87.55
388.769	50.69
388.979	-4.61
389.189	46.59
389.399	105.98
389.609	146.94
389.818	142.85
390.028	77.31
390.238	85.5
390.447	50.69
390.657	87.55
390.867	95.74
391.076	22.02
391.286	24.06
391.496	42.5
391.705	95.74
391.915	118.27
392.125	73.21
392.334	69.12
392.544	192
392.753	112.13
392.963	5.63
393.172	93.69
393.382	114.17
393.591	146.94
393.801	81.41
394.01	136.7
394.22	81.41
394.429	52.74
394.639	89.6
394.848	85.5
395.058	67.07
395.267	144.89
395.477	130.56
395.686	120.32
395.895	93.69
396.105	130.56
396.314	126.46
396.524	177.66
396.733	89.6
396.942	148.99
397.152	159.23
397.361	157.18
397.57	65.02
397.78	169.47
397.989	118.27
398.198	247.29
398.407	126.46
398.617	120.32
398.826	56.83
399.035	97.79
399.244	67.07
399.453	138.75
399.663	142.85
399.872	157.18
400.081	91.65
400.29	167.42
400.499	95.74
400.708	196.09
400.917	54.78
401.127	103.93
401.336	159.23
401.545	187.9
401.754	146.94
401.963	196.09
402.172	167.42
402.381	89.6
402.59	192
402.799	132.61
403.008	138.75
403.217	95.74
403.426	128.51
403.635	171.52
403.844	112.13
404.053	134.65
404.262	220.67
404.471	196.09
404.68	151.04
404.888	163.33
405.097	134.65
405.306	167.42
405.515	194.05
405.724	148.99
405.933	255.48
406.142	202.24
406.35	273.92
406.559	146.94
406.768	196.09
406.977	257.53
407.185	218.62
407.394	228.86
407.603	235
407.812	265.72
408.02	310.78
408.229	296.44
408.438	273.92
408.646	286.2
408.855	273.92
409.064	351.74
409.272	423.42
409.481	404.99
409.69	421.37
409.898	339.45
410.107	396.79
410.315	394.75
410.524	331.26
410.733	378.36
410.941	374.27
411.15	415.23
411.358	488.95
411.567	529.91
411.775	441.85
411.984	509.43
412.192	527.86
412.401	540.15
412.609	589.3
412.818	574.97
413.026	691.7
413.234	609.78
413.443	626.17
413.651	601.59
413.86	673.27
414.068	765.43
414.276	814.58
414.485	701.94
414.693	781.81
414.901	849.4
415.11	794.1
415.318	808.44
415.526	781.81
415.734	939.51
415.943	937.46
416.151	916.98
416.359	1011.18
416.567	1035.76
416.776	1068.53
416.984	1148.4
417.192	1189.36
417.4	1162.73
417.608	1191.41
417.817	1164.78
418.025	1306.09
418.233	1388.01
418.441	1199.6
418.649	1494.51
418.857	1533.42
419.065	1496.55
419.273	1543.66
419.481	1555.94
419.689	1580.52
419.897	1766.89
420.105	1734.12
420.313	1781.22
420.521	2006.5
420.729	1977.83
420.937	2039.26
421.145	2035.17
421.353	2225.63
421.561	2282.97
421.769	2299.36
421.977	2457.05
422.185	2457.05
422.393	2518.49
422.601	2815.45
422.809	2674.14
423.017	2657.75
423.224	2833.88
423.432	2923.99
423.64	2971.09
423.848	3284.43
424.056	3104.21
424.263	3362.25
424.471	3276.24
424.679	3630.54
424.887	3601.87
425.094	3771.85
425.302	3800.52
425.51	3915.2
425.718	3874.24
425.925	4179.39
426.133	4197.82
426.341	4476.35
426.548	4664.76
426.756	4560.31
426.964	4623.8
427.171	4910.52
427.379	5076.4
427.586	5160.37
427.794	5264.82
428.001	5569.96
428.209	5813.67
428.417	5776.81
428.624	6104.48
428.832	6149.54
429.039	6073.76
429.247	5860.77
429.454	6653.34
429.662	6987.16
429.869	6593.95
430.076	7089.56
430.284	6804.89
430.491	7269.78
430.699	7533.97
430.906	7531.92
431.114	7693.71
431.321	8062.34
431.528	8035.72
431.736	8521.09
431.943	8981.88
432.15	8756.6
432.358	8912.25
432.565	9307.51
432.772	9115
432.979	9581.93
433.187	9778.54
433.394	10052.97
433.601	10399.07
433.808	10669.41
434.016	10450.27
434.223	11013.46
434.43	11525.46
434.637	11388.24
434.844	12029.26
435.052	12315.97
435.259	12301.64
435.466	12213.57
435.673	12184.9
435.88	13012.28
436.087	13806.89
436.294	13413.68
436.501	13514.03
436.708	13423.92
436.915	14273.83
437.122	14624.03
437.329	14929.18
437.537	14959.9
437.743	15289.62
437.95	15314.2
438.157	16061.71
438.364	16641.28
438.571	16512.26
438.778	16532.74
438.985	18091.24
439.192	17237.24
439.399	17814.77
439.606	17333.5
439.813	18896.1
440.02	20034.77
440.227	19303.64
440.433	19227.87
440.64	19954.9
440.847	19766.48
441.054	19987.66
441.261	21556.41
441.467	21298.36
441.674	21394.62
441.881	22656.17
442.088	22119.6
442.294	21816.5
442.501	22723.75
442.708	22844.58
442.914	23983.25
443.121	24982.66
443.328	24325.26
443.534	26133.62
443.741	25353.34
443.948	24925.32
444.154	26788.97
444.361	26645.61
444.568	26752.1
444.774	26743.91
444.981	26872.93
445.187	27702.36
445.394	29281.35
445.6	28472.4
445.807	31362.08
446.013	30174.26
446.22	30317.62
446.426	31976.47
446.633	31700
446.839	33123.33
447.046	31400.99
447.252	33403.91
447.459	33430.53
447.665	33483.78
447.871	35107.82
448.078	36197.34
448.284	34622.45
448.491	35429.35
448.697	36531.15
448.903	37397.45
449.11	37319.62
449.316	37028.81
449.522	37323.72
449.728	38753.2
449.935	39312.3
450.141	38929.33
450.347	39893.92
450.553	38833.07
450.76	39074.73
450.966	40444.82
451.172	39750.56
451.378	40958.86
451.584	39953.31
451.791	40946.58
451.997	41175.95
452.203	41485.19
452.409	41575.3
452.615	41714.56
452.821	39881.63
453.027	39498.66
453.233	41008.01
453.44	39799.71
453.646	40172.44
453.852	40446.87
454.058	41390.98
454.264	39746.47
454.47	40565.65
454.676	39764.9
454.882	41401.22
455.088	37231.56
455.294	38167.48
455.5	38652.85
455.705	39134.12
455.911	37870.53
456.117	36834.25
456.323	36422.61
456.529	34278.39
456.735	35410.92
456.941	34849.77
457.147	34536.43
457.352	33600.51
457.558	33186.82
457.764	33022.98
457.97	32435.22
458.176	31937.56
458.381	31671.32
458.587	30581.81
458.793	30579.76
458.999	28550.22
459.204	30577.71
459.41	30016.57
459.616	27841.62
459.821	27688.03
460.027	27806.81
460.233	27151.46
460.438	25926.77
460.644	26256.5
460.85	24718.47
461.055	24413.32
461.261	24519.82
461.466	22500.52
461.672	22092.97
461.878	23379.1
462.083	21804.21
462.289	21695.67
462.494	21161.15
462.7	20184.27
462.905	19823.83
463.111	20339.91
463.316	20655.3
463.522	19948.75
463.727	20221.13
463.932	19891.41
464.138	19481.81
464.343	19975.38
464.549	19193.05
464.754	19995.85
464.959	19436.76
465.165	19418.33
465.37	18562.28
465.575	18332.9
465.781	18892
465.986	18875.62
466.191	18101.48
466.397	17919.21
