Data from USB4F104151__132__14-31-42-403.txt Node

Date: Thu Mar 13 14:31:42 EDT 2025
User: louis
Spectrometer: USB4F10415
Trigger mode: 4
Integration Time (sec): 2.500000E-2
Scans to average: 1
Electric dark correction enabled: true
Nonlinearity correction enabled: false
Boxcar width: 0
XAxis mode: Wavelengths
Number of Pixels in Spectrum: 3648
>>>>>Begin Spectral Data<<<<<
178.204	-163.84
178.424	-163.84
178.644	-163.84
178.864	-151.55
179.084	-122.88
179.304	-12.29
179.524	-43.01
179.744	63.49
179.964	57.34
180.184	-47.1
180.404	-8.19
180.624	20.48
180.844	-47.1
181.064	-24.58
181.283	-12.29
181.503	18.43
181.723	34.82
181.943	-86.01
182.163	96.25
182.383	-40.96
182.602	43.01
182.822	49.15
183.042	59.39
183.262	65.54
183.482	-36.86
183.701	-4.1
183.921	26.62
184.141	92.16
184.361	114.69
184.58	0
184.8	-16.38
185.02	0
185.239	18.43
185.459	45.06
185.679	51.2
185.898	-14.34
186.118	114.69
186.338	32.77
186.557	55.3
186.777	8.19
186.997	-8.19
187.216	40.96
187.436	24.58
187.655	94.21
187.875	73.73
188.095	57.34
188.314	53.25
188.534	94.21
188.753	8.19
188.973	53.25
189.192	147.45
189.412	53.25
189.631	51.2
189.851	30.72
190.07	45.06
190.29	2.05
190.509	32.77
190.729	-22.53
190.948	32.77
191.168	159.74
191.387	20.48
191.607	2.05
191.826	65.54
192.045	38.91
192.265	40.96
192.484	79.87
192.704	24.58
192.923	-16.38
193.142	110.59
193.362	28.67
193.581	86.01
193.8	40.96
194.02	14.34
194.239	34.82
194.458	43.01
194.678	57.34
194.897	20.48
195.116	83.97
195.335	20.48
195.555	102.4
195.774	26.62
195.993	49.15
196.212	24.58
196.432	-20.48
196.651	-36.86
196.87	32.77
197.089	122.88
197.308	34.82
197.528	65.54
197.747	57.34
197.966	24.58
198.185	65.54
198.404	73.73
198.623	73.73
198.842	67.58
199.062	16.38
199.281	32.77
199.5	40.96
199.719	-16.38
199.938	40.96
200.157	90.11
200.376	16.38
200.595	59.39
200.814	43.01
201.033	67.58
201.252	40.96
201.471	57.34
201.69	159.74
201.909	32.77
202.128	45.06
202.347	49.15
202.566	0
202.785	-12.29
203.004	32.77
203.223	129.02
203.442	59.39
203.661	10.24
203.879	30.72
204.098	100.35
204.317	40.96
204.536	81.92
204.755	-12.29
204.974	-4.1
205.193	14.34
205.411	135.17
205.63	57.34
205.849	69.63
206.068	38.91
206.287	0
206.505	-45.06
206.724	65.54
206.943	57.34
207.162	16.38
207.381	22.53
207.599	139.26
207.818	24.58
208.037	51.2
208.255	61.44
208.474	36.86
208.693	106.49
208.911	32.77
209.13	2.05
209.349	14.34
209.567	116.73
209.786	40.96
210.005	106.49
210.223	53.25
210.442	18.43
210.661	20.48
210.879	8.19
211.098	102.4
211.316	18.43
211.535	43.01
211.753	24.58
211.972	63.49
212.191	32.77
212.409	24.58
212.628	108.54
212.846	20.48
213.065	98.3
213.283	163.84
213.502	18.43
213.72	86.01
213.938	38.91
214.157	-26.62
214.375	-36.86
214.594	8.19
214.812	51.2
215.031	61.44
215.249	40.96
215.467	116.73
215.686	65.54
215.904	-12.29
216.122	8.19
216.341	71.68
216.559	20.48
216.778	104.45
216.996	81.92
217.214	24.58
217.432	51.2
217.651	20.48
217.869	155.65
218.087	32.77
218.306	92.16
218.524	71.68
218.742	32.77
218.96	2.05
219.179	26.62
219.397	73.73
219.615	112.64
219.833	10.24
220.051	-14.34
220.27	49.15
220.488	139.26
220.706	40.96
220.924	40.96
221.142	106.49
221.36	36.86
221.578	131.07
221.796	92.16
222.015	2.05
222.233	-12.29
222.451	63.49
222.669	-8.19
222.887	51.2
223.105	32.77
223.323	32.77
223.541	40.96
223.759	55.3
223.977	75.77
224.195	92.16
224.413	71.68
224.631	24.58
224.849	4.1
225.067	118.78
225.285	18.43
225.503	108.54
225.721	-24.58
225.939	10.24
226.157	100.35
226.375	88.06
226.592	-12.29
226.81	49.15
227.028	106.49
227.246	135.17
227.464	-26.62
227.682	57.34
227.9	-16.38
228.117	106.49
228.335	2.05
228.553	92.16
228.771	16.38
228.989	24.58
229.206	100.35
229.424	-57.34
229.642	81.92
229.86	-51.2
230.077	71.68
230.295	-40.96
230.513	16.38
230.731	92.16
230.948	90.11
231.166	57.34
231.384	45.06
231.601	92.16
231.819	0
232.037	49.15
232.254	59.39
232.472	92.16
232.689	-24.58
232.907	57.34
233.125	-8.19
233.342	122.88
233.56	8.19
233.777	8.19
233.995	75.77
234.213	180.22
234.43	12.29
234.648	90.11
234.865	51.2
235.083	51.2
235.3	-36.86
235.518	126.97
235.735	67.58
235.953	61.44
236.17	51.2
236.388	-34.82
236.605	51.2
236.822	118.78
237.04	2.05
237.257	45.06
237.475	16.38
237.692	24.58
237.909	-28.67
238.127	18.43
238.344	81.92
238.562	20.48
238.779	32.77
238.996	0
239.214	2.05
239.431	53.25
239.648	4.1
239.865	57.34
240.083	131.07
240.3	57.34
240.517	4.1
240.735	43.01
240.952	4.1
241.169	20.48
241.386	135.17
241.603	53.25
241.821	-18.43
242.038	116.73
242.255	71.68
242.472	49.15
242.689	135.17
242.907	43.01
243.124	73.73
243.341	-16.38
243.558	-20.48
243.775	94.21
243.992	57.34
244.209	49.15
244.426	51.2
244.643	40.96
244.86	16.38
245.078	40.96
245.295	94.21
245.512	88.06
245.729	67.58
245.946	24.58
246.163	40.96
246.38	81.92
246.597	73.73
246.814	8.19
247.031	-22.53
247.248	59.39
247.464	90.11
247.681	40.96
247.898	49.15
248.115	38.91
248.332	22.53
248.549	53.25
248.766	92.16
248.983	114.69
249.2	49.15
249.417	24.58
249.633	16.38
249.85	26.62
250.067	-12.29
250.284	28.67
250.501	14.34
250.717	61.44
250.934	-16.38
251.151	49.15
251.368	32.77
251.585	120.83
251.801	-38.91
252.018	100.35
252.235	16.38
252.451	4.1
252.668	-30.72
252.885	73.73
253.102	92.16
253.318	65.54
253.535	20.48
253.752	-4.1
253.968	-86.01
254.185	36.86
254.401	32.77
254.618	65.54
254.835	2.05
255.051	73.73
255.268	24.58
255.484	73.73
255.701	57.34
255.917	108.54
256.134	47.1
256.351	83.97
256.567	-24.58
256.784	81.92
257	106.49
257.217	38.91
257.433	40.96
257.65	-12.29
257.866	114.69
258.082	26.62
258.299	40.96
258.515	106.49
258.732	16.38
258.948	22.53
259.165	94.21
259.381	18.43
259.597	34.82
259.814	59.39
260.03	57.34
260.246	55.3
260.463	141.31
260.679	106.49
260.895	47.1
261.112	8.19
261.328	47.1
261.544	-55.3
261.761	124.93
261.977	53.25
262.193	-53.25
262.409	110.59
262.626	108.54
262.842	4.1
263.058	-79.87
263.274	77.82
263.49	98.3
263.707	77.82
263.923	57.34
264.139	-38.91
264.355	59.39
264.571	49.15
264.787	45.06
265.004	124.93
265.22	57.34
265.436	-14.34
265.652	51.2
265.868	43.01
266.084	-45.06
266.3	73.73
266.516	40.96
266.732	92.16
266.948	59.39
267.164	65.54
267.38	8.19
267.596	18.43
267.812	77.82
268.028	20.48
268.244	24.58
268.46	30.72
268.676	90.11
268.892	69.63
269.108	-14.34
269.324	-6.14
269.54	0
269.756	81.92
269.972	-14.34
270.188	90.11
270.403	30.72
270.619	18.43
270.835	28.67
271.051	28.67
271.267	51.2
271.483	22.53
271.698	28.67
271.914	94.21
272.13	16.38
272.346	61.44
272.562	73.73
272.777	2.05
272.993	61.44
273.209	69.63
273.425	30.72
273.64	102.4
273.856	10.24
274.072	59.39
274.287	-18.43
274.503	32.77
274.719	45.06
274.934	8.19
275.15	-45.06
275.366	-4.1
275.581	8.19
275.797	110.59
276.012	-14.34
276.228	-67.58
276.444	57.34
276.659	100.35
276.875	-30.72
277.09	-57.34
277.306	51.2
277.521	20.48
277.737	40.96
277.952	135.17
278.168	61.44
278.383	45.06
278.599	-2.05
278.814	90.11
279.03	81.92
279.245	135.17
279.461	10.24
279.676	71.68
279.892	98.3
280.107	10.24
280.322	77.82
280.538	32.77
280.753	24.58
280.969	8.19
281.184	75.77
281.399	139.26
281.615	49.15
281.83	24.58
282.045	47.1
282.26	16.38
282.476	16.38
282.691	43.01
282.906	24.58
283.122	73.73
283.337	24.58
283.552	-14.34
283.767	32.77
283.983	126.97
284.198	8.19
284.413	-6.14
284.628	10.24
284.843	83.97
285.058	65.54
285.274	-8.19
285.489	-8.19
285.704	79.87
285.919	-22.53
286.134	102.4
286.349	131.07
286.564	34.82
286.779	133.12
286.995	-8.19
287.21	40.96
287.425	40.96
287.64	43.01
287.855	65.54
288.07	-49.15
288.285	65.54
288.5	81.92
288.715	49.15
288.93	-12.29
289.145	22.53
289.36	98.3
289.575	65.54
289.79	73.73
290.004	69.63
290.219	-12.29
290.434	-30.72
290.649	34.82
290.864	2.05
291.079	2.05
291.294	28.67
291.509	36.86
291.724	81.92
291.938	75.77
292.153	90.11
292.368	18.43
292.583	98.3
292.798	38.91
293.012	59.39
293.227	18.43
293.442	59.39
293.657	98.3
293.871	98.3
294.086	79.87
294.301	83.97
294.516	106.49
294.73	114.69
294.945	-22.53
295.16	131.07
295.374	18.43
295.589	100.35
295.804	-8.19
296.018	-2.05
296.233	94.21
296.447	112.64
296.662	24.58
296.877	114.69
297.091	-6.14
297.306	10.24
297.52	26.62
297.735	57.34
297.949	22.53
298.164	81.92
298.378	40.96
298.593	-6.14
298.807	30.72
299.022	86.01
299.236	22.53
299.451	40.96
299.665	36.86
299.88	92.16
300.094	16.38
300.309	53.25
300.523	51.2
300.737	47.1
300.952	6.14
301.166	81.92
301.381	24.58
301.595	51.2
301.809	69.63
302.024	83.97
302.238	24.58
302.452	45.06
302.667	139.26
302.881	6.14
303.095	49.15
303.309	32.77
303.524	77.82
303.738	69.63
303.952	75.77
304.166	49.15
304.381	-59.39
304.595	106.49
304.809	47.1
305.023	-12.29
305.237	92.16
305.452	-16.38
305.666	2.05
305.88	18.43
306.094	34.82
306.308	67.58
306.522	92.16
306.736	57.34
306.95	98.3
307.164	32.77
307.379	40.96
307.593	90.11
307.807	86.01
308.021	73.73
308.235	36.86
308.449	2.05
308.663	-16.38
308.877	106.49
309.091	45.06
309.305	75.77
309.519	28.67
309.733	59.39
309.947	-12.29
310.161	57.34
310.374	67.58
310.588	59.39
310.802	16.38
311.016	73.73
311.23	65.54
311.444	-24.58
311.658	53.25
311.872	59.39
312.085	49.15
312.299	139.26
312.513	73.73
312.727	65.54
312.941	4.1
313.154	65.54
313.368	90.11
313.582	14.34
313.796	112.64
314.009	51.2
314.223	86.01
314.437	67.58
314.651	36.86
314.864	106.49
315.078	10.24
315.292	22.53
315.505	-32.77
315.719	59.39
315.933	118.78
316.146	59.39
316.36	0
316.573	49.15
316.787	94.21
317.001	40.96
317.214	40.96
317.428	73.73
317.641	92.16
317.855	4.1
318.068	51.2
318.282	40.96
318.495	106.49
318.709	81.92
318.922	38.91
319.136	16.38
319.349	96.25
319.563	79.87
319.776	88.06
319.99	20.48
320.203	98.3
320.417	26.62
320.63	61.44
320.843	69.63
321.057	63.49
321.27	24.58
321.483	102.4
321.697	94.21
321.91	100.35
322.124	-6.14
322.337	43.01
322.55	51.2
322.763	65.54
322.977	-24.58
323.19	10.24
323.403	34.82
323.617	139.26
323.83	139.26
324.043	100.35
324.256	51.2
324.469	6.14
324.683	98.3
324.896	83.97
325.109	92.16
325.322	49.15
325.535	28.67
325.748	106.49
325.962	28.67
326.175	98.3
326.388	94.21
326.601	86.01
326.814	83.97
327.027	28.67
327.24	108.54
327.453	16.38
327.666	102.4
327.879	81.92
328.092	83.97
328.305	45.06
328.518	73.73
328.731	-45.06
328.944	49.15
329.157	49.15
329.37	0
329.583	75.77
329.796	81.92
330.009	-16.38
330.222	34.82
330.435	6.14
330.648	34.82
330.861	73.73
331.073	16.38
331.286	108.54
331.499	51.2
331.712	32.77
331.925	61.44
332.138	75.77
332.35	96.25
332.563	49.15
332.776	53.25
332.989	43.01
333.202	0
333.414	77.82
333.627	92.16
333.84	8.19
334.053	40.96
334.265	32.77
334.478	-47.1
334.691	106.49
334.903	53.25
335.116	-8.19
335.329	98.3
335.541	77.82
335.754	114.69
335.966	18.43
336.179	83.97
336.392	4.1
336.604	81.92
336.817	24.58
337.029	8.19
337.242	2.05
337.454	122.88
337.667	-2.05
337.88	116.73
338.092	57.34
338.305	10.24
338.517	45.06
338.729	88.06
338.942	40.96
339.154	83.97
339.367	40.96
339.579	40.96
339.792	20.48
340.004	45.06
340.217	110.59
340.429	90.11
340.641	71.68
340.854	49.15
341.066	59.39
341.278	126.97
341.491	174.08
341.703	83.97
341.915	34.82
342.128	40.96
342.34	98.3
342.552	81.92
342.764	20.48
342.977	0
343.189	116.73
343.401	38.91
343.613	2.05
343.826	61.44
344.038	83.97
344.25	65.54
344.462	90.11
344.674	73.73
344.886	94.21
345.099	26.62
345.311	77.82
345.523	24.58
345.735	-40.96
345.947	43.01
346.159	57.34
346.371	8.19
346.583	67.58
346.795	49.15
347.007	-14.34
347.219	71.68
347.431	-2.05
347.643	165.89
347.855	90.11
348.067	57.34
348.279	10.24
348.491	108.54
348.703	57.34
348.915	26.62
349.127	40.96
349.339	16.38
349.551	12.29
349.763	51.2
349.975	65.54
350.187	90.11
350.399	34.82
350.61	100.35
350.822	92.16
351.034	75.77
351.246	65.54
351.458	157.69
351.669	83.97
351.881	65.54
352.093	73.73
352.305	73.73
352.517	43.01
352.728	137.21
352.94	-4.1
353.152	92.16
353.363	-14.34
353.575	81.92
353.787	163.84
353.999	114.69
354.21	92.16
354.422	0
354.633	34.82
354.845	8.19
355.057	20.48
355.268	86.01
355.48	73.73
355.692	12.29
355.903	49.15
356.115	43.01
356.326	45.06
356.538	28.67
356.749	40.96
356.961	139.26
357.172	96.25
357.384	59.39
357.595	53.25
357.807	47.1
358.018	-4.1
358.23	36.86
358.441	73.73
358.653	57.34
358.864	92.16
359.075	0
359.287	108.54
359.498	90.11
359.709	96.25
359.921	51.2
360.132	98.3
360.344	24.58
360.555	45.06
360.766	22.53
360.977	43.01
361.189	147.45
361.4	110.59
361.611	178.17
361.823	100.35
362.034	63.49
362.245	65.54
362.456	57.34
362.667	81.92
362.879	106.49
363.09	49.15
363.301	139.26
363.512	94.21
363.723	28.67
363.935	81.92
364.146	12.29
364.357	24.58
364.568	116.73
364.779	73.73
364.99	51.2
365.201	83.97
365.412	49.15
365.623	40.96
365.834	40.96
366.045	47.1
366.256	182.27
366.467	108.54
366.678	8.19
366.889	30.72
367.1	100.35
367.311	20.48
367.522	98.3
367.733	36.86
367.944	110.59
368.155	10.24
368.366	108.54
368.577	75.77
368.788	124.93
368.999	4.1
369.209	83.97
369.42	94.21
369.631	114.69
369.842	-10.24
370.053	65.54
370.264	114.69
370.474	67.58
370.685	12.29
370.896	126.97
371.107	178.17
371.317	73.73
371.528	57.34
371.739	104.45
371.95	86.01
372.16	116.73
372.371	59.39
372.582	20.48
372.792	73.73
373.003	45.06
373.214	51.2
373.424	98.3
373.635	69.63
373.846	149.5
374.056	126.97
374.267	8.19
374.477	112.64
374.688	26.62
374.898	2.05
375.109	102.4
375.319	75.77
375.53	77.82
375.74	53.25
375.951	-14.34
376.161	100.35
376.372	59.39
376.582	73.73
376.793	26.62
377.003	40.96
377.214	32.77
377.424	36.86
377.635	59.39
377.845	10.24
378.055	57.34
378.266	43.01
378.476	65.54
378.686	75.77
378.897	28.67
379.107	-24.58
379.317	104.45
379.528	100.35
379.738	126.97
379.948	57.34
380.158	90.11
380.369	32.77
380.579	169.98
380.789	63.49
380.999	61.44
381.21	108.54
381.42	139.26
381.63	0
381.84	49.15
382.05	139.26
382.261	32.77
382.471	55.3
382.681	-12.29
382.891	147.45
383.101	8.19
383.311	77.82
383.521	20.48
383.731	77.82
383.941	122.88
384.151	22.53
384.361	81.92
384.571	100.35
384.781	53.25
384.991	147.45
385.201	141.31
385.411	67.58
385.621	98.3
385.831	131.07
386.041	49.15
386.251	65.54
386.461	83.97
386.671	36.86
386.881	61.44
387.091	40.96
387.301	57.34
387.511	10.24
387.72	98.3
387.93	106.49
388.14	36.86
388.35	16.38
388.56	90.11
388.769	139.26
388.979	65.54
389.189	-14.34
389.399	88.06
389.609	65.54
389.818	79.87
390.028	137.21
390.238	65.54
390.447	63.49
390.657	110.59
390.867	159.74
391.076	100.35
391.286	75.77
391.496	53.25
391.705	108.54
391.915	57.34
392.125	110.59
392.334	45.06
392.544	184.32
392.753	0
392.963	124.93
393.172	106.49
393.382	24.58
393.591	165.89
393.801	38.91
394.01	147.45
394.22	151.55
394.429	92.16
394.639	51.2
394.848	67.58
395.058	106.49
395.267	122.88
395.477	94.21
395.686	147.45
395.895	157.69
396.105	90.11
396.314	51.2
396.524	118.78
396.733	102.4
396.942	90.11
397.152	147.45
397.361	212.99
397.57	71.68
397.78	147.45
397.989	110.59
398.198	188.41
398.407	190.46
398.617	86.01
398.826	126.97
399.035	32.77
399.244	139.26
399.453	165.89
399.663	100.35
399.872	69.63
400.081	106.49
400.29	182.27
400.499	45.06
400.708	116.73
400.917	65.54
401.127	165.89
401.336	81.92
401.545	245.76
401.754	139.26
401.963	147.45
402.172	110.59
402.381	45.06
402.59	172.03
402.799	172.03
403.008	180.22
403.217	163.84
403.426	167.93
403.635	143.36
403.844	186.37
404.053	212.99
404.262	190.46
404.471	100.35
404.68	200.7
404.888	102.4
405.097	178.17
405.306	157.69
405.515	221.18
405.724	198.65
405.933	243.71
406.142	157.69
406.35	256
406.559	190.46
406.768	241.66
406.977	233.47
407.185	227.32
407.394	116.73
407.603	102.4
407.812	167.93
408.02	290.81
408.229	286.72
408.438	239.61
408.646	253.95
408.855	231.42
409.064	290.81
409.272	225.28
409.481	335.87
409.69	327.67
409.898	245.76
410.107	319.48
410.315	380.92
410.524	335.87
410.733	385.02
410.941	421.88
411.15	327.67
411.358	487.42
411.567	499.7
411.775	442.36
411.984	446.46
412.192	532.47
412.401	487.42
412.609	473.08
412.818	540.66
413.026	565.24
413.234	565.24
413.443	528.38
413.651	526.33
413.86	585.72
414.068	630.77
414.276	708.6
414.485	602.1
414.693	757.75
414.901	747.51
415.11	780.28
415.318	802.8
415.526	823.28
415.734	872.43
415.943	831.48
416.151	917.49
416.359	909.3
416.567	901.11
416.776	1038.32
416.984	1101.81
417.192	1112.05
417.4	1048.56
417.608	1015.79
417.817	1122.29
418.025	1220.59
418.233	1327.08
418.441	1212.4
418.649	1329.13
418.857	1286.12
419.065	1400.81
419.273	1470.44
419.481	1452.01
419.689	1558.5
419.897	1691.62
420.105	1544.17
420.313	1742.82
420.521	1906.66
420.729	1740.77
420.937	1837.03
421.145	1943.52
421.353	1986.53
421.561	2203.61
421.769	2246.62
421.977	2254.81
422.185	2179.04
422.393	2252.77
422.601	2484.19
422.809	2420.7
423.017	2426.84
423.224	2465.75
423.432	2605.02
423.64	2617.3
423.848	2947.03
424.056	2785.24
424.263	3071.95
424.471	3041.23
424.679	3110.86
424.887	3276.75
425.094	3264.46
425.302	3366.86
425.51	3518.41
425.718	3622.86
425.925	3692.49
426.133	3692.49
426.341	3989.44
426.548	4202.43
426.756	4159.42
426.964	4093.89
427.171	4458.43
427.379	4505.53
427.586	4603.83
427.794	4673.46
428.001	5017.52
428.209	5070.77
428.417	5167.03
428.624	5482.41
428.832	5443.5
429.039	5316.53
429.247	5480.36
429.454	5957.54
429.662	6348.7
429.869	5980.07
430.076	6328.22
430.284	6254.5
430.491	6340.51
430.699	6743.96
430.906	6774.68
431.114	6897.56
431.321	7098.26
431.528	7266.19
431.736	7692.17
431.943	8208.26
432.15	7798.66
432.358	7960.45
432.565	8363.9
432.772	8195.97
432.979	8783.74
433.187	8939.38
433.394	8996.73
433.601	9559.92
433.808	9527.15
434.016	9371.5
434.223	9985.9
434.43	10485.6
434.637	10401.63
434.844	10950.49
435.052	10925.91
435.259	10882.91
435.466	11298.64
435.673	11050.84
435.88	11689.81
436.087	12232.52
436.294	12273.48
436.501	11886.41
436.708	12410.69
436.915	12486.47
437.122	13002.55
437.329	13369.14
437.537	13825.84
437.743	13756.21
437.95	13786.93
438.157	14210.86
438.364	15007.51
438.571	15048.47
438.778	15212.31
438.985	16252.68
439.192	15546.13
439.399	16099.08
439.606	15759.12
439.813	16469.76
440.02	17741.55
440.227	17323.77
440.433	17198.84
440.64	17997.55
440.847	17620.72
441.054	18106.09
441.261	19187.42
441.467	18824.93
441.674	19521.24
441.881	20356.81
442.088	19865.3
442.294	20127.44
442.501	20176.59
442.708	20909.76
442.914	21233.34
443.121	22300.33
443.328	21737.14
443.534	23316.12
443.741	22556.33
443.948	22224.56
444.154	23881.36
444.361	23854.74
444.568	23744.15
444.774	24034.96
444.981	24086.16
445.187	25378.43
445.394	25716.34
445.6	25841.27
445.807	28225.11
446.013	26887.78
446.22	27180.64
446.426	28374.61
446.633	28776.01
446.839	29535.81
447.046	28589.64
447.252	29969.97
447.459	29988.41
447.665	29808.19
447.871	31290.91
448.078	32546.32
448.284	31184.42
448.491	31942.17
448.697	32955.91
448.903	33793.53
449.11	33467.91
449.316	32845.32
449.522	33641.98
449.728	34829.8
449.935	34876.91
450.141	34862.57
450.347	35786.21
450.553	34364.92
450.76	35261.93
450.966	36054.49
451.172	35915.23
451.378	36937.16
451.584	36089.31
451.791	36566.48
451.997	36855.25
452.203	37383.62
452.409	37350.85
452.615	37268.94
452.821	35927.52
453.027	35268.07
453.233	37676.48
453.44	35687.9
453.646	35698.14
453.852	36152.79
454.058	36613.59
454.264	35689.95
454.47	36748.75
454.676	35634.66
454.882	36797.9
455.088	33666.56
455.294	34082.3
455.5	34262.52
455.705	34598.38
455.911	33250.82
456.117	32736.78
456.323	32552.46
456.529	30490.16
456.735	31702.56
456.941	30811.69
457.147	30279.22
457.352	29253.19
457.558	28892.74
457.764	29529.66
457.97	28626.51
458.176	27844.18
458.381	28124.75
458.587	26832.49
458.793	26873.45
458.999	25034.37
459.204	26865.25
459.41	26320.49
459.616	24458.89
459.821	24340.11
460.027	24536.71
460.233	23959.19
460.438	22689.45
460.644	23148.19
460.85	22204.08
461.055	21612.21
461.261	21323.45
461.466	19855.06
461.672	19025.63
461.878	20311.75
462.083	19160.8
462.289	18736.87
462.494	18415.33
462.7	17561.33
462.905	17532.66
463.111	17960.69
463.316	18175.72
463.522	17639.15
463.727	17561.33
463.932	17477.37
464.138	17364.73
464.343	17334.01
464.549	16908.03
464.754	17555.19
464.959	17170.17
465.165	17125.11
465.37	16328.45
465.575	15984.4
465.781	16535.3
465.986	16668.42
466.191	16084.75
466.397	15838.99
466.602	15097.63
466.807	15531.8
467.012	15288.09
