Data from USB4F104151__217__14-33-49-392.txt Node

Date: Thu Mar 13 14:33:49 EDT 2025
User: louis
Spectrometer: USB4F10415
Trigger mode: 4
Integration Time (sec): 2.500000E-2
Scans to average: 1
Electric dark correction enabled: true
Nonlinearity correction enabled: false
Boxcar width: 0
XAxis mode: Wavelengths
Number of Pixels in Spectrum: 3648
>>>>>Begin Spectral Data<<<<<
178.204	-105.13
178.424	-105.13
178.644	-105.13
178.864	-189.1
179.084	-101.03
179.304	48.47
179.524	-12.97
179.744	17.75
179.964	-6.83
180.184	-74.41
180.404	3.41
180.624	-29.35
180.844	27.99
181.064	-82.6
181.283	101.72
181.503	-0.68
181.723	7.51
181.943	3.41
182.163	111.96
182.383	48.47
182.602	32.08
182.822	64.85
183.042	23.89
183.262	30.04
183.482	7.51
183.701	-25.26
183.921	7.51
184.141	52.56
184.361	81.24
184.58	73.04
184.8	-0.68
185.02	17.75
185.239	32.08
185.459	-0.68
185.679	81.24
185.898	-27.31
186.118	73.04
186.338	64.85
186.557	62.8
186.777	11.61
186.997	17.75
187.216	9.56
187.436	91.48
187.655	15.7
187.875	99.67
188.095	52.56
188.314	23.89
188.534	73.04
188.753	-62.12
188.973	17.75
189.192	87.38
189.412	-8.87
189.631	91.48
189.851	34.13
190.07	40.28
190.29	-8.87
190.509	3.41
190.729	-49.83
190.948	130.39
191.168	197.97
191.387	30.04
191.607	48.47
191.826	101.72
192.045	-15.02
192.265	23.89
192.484	11.61
192.704	17.75
192.923	-58.03
193.142	97.62
193.362	36.18
193.581	128.34
193.8	89.43
194.02	60.76
194.239	34.13
194.458	1.37
194.678	89.43
194.897	-58.03
195.116	9.56
195.335	42.32
195.555	97.62
195.774	32.08
195.993	25.94
196.212	-0.68
196.432	-66.22
196.651	-51.88
196.87	34.13
197.089	138.58
197.308	101.72
197.528	75.09
197.747	27.99
197.966	25.94
198.185	17.75
198.404	-8.87
198.623	40.28
198.842	97.62
199.062	87.38
199.281	116.05
199.5	114
199.719	89.43
199.938	40.28
200.157	56.66
200.376	11.61
200.595	-6.83
200.814	23.89
201.033	50.52
201.252	34.13
201.471	15.7
201.69	60.76
201.909	48.47
202.128	56.66
202.347	73.04
202.566	42.32
202.785	-0.68
203.004	-29.35
203.223	81.24
203.442	91.48
203.661	-49.83
203.879	91.48
204.098	34.13
204.317	97.62
204.536	64.85
204.755	-6.83
204.974	19.8
205.193	19.8
205.411	75.09
205.63	60.76
205.849	19.8
206.068	38.23
206.287	23.89
206.505	38.23
206.724	107.86
206.943	77.14
207.162	1.37
207.381	-0.68
207.599	1.37
207.818	109.91
208.037	-0.68
208.255	32.08
208.474	-15.02
208.693	23.89
208.911	64.85
209.13	44.37
209.349	-17.07
209.567	83.28
209.786	64.85
210.005	58.71
210.223	34.13
210.442	-51.88
210.661	44.37
210.879	48.47
211.098	40.28
211.316	13.65
211.535	77.14
211.753	-15.02
211.972	19.8
212.191	64.85
212.409	-6.83
212.628	91.48
212.846	11.61
213.065	73.04
213.283	134.48
213.502	50.52
213.72	107.86
213.938	40.28
214.157	23.89
214.375	-8.87
214.594	-8.87
214.812	36.18
215.031	-37.55
215.249	-2.73
215.467	21.84
215.686	54.61
215.904	81.24
216.122	-33.45
216.341	34.13
216.559	-12.97
216.778	101.72
216.996	56.66
217.214	7.51
217.432	1.37
217.651	75.09
217.869	30.04
218.087	34.13
218.306	-6.83
218.524	60.76
218.742	27.99
218.96	19.8
219.179	-37.55
219.397	48.47
219.615	85.33
219.833	19.8
220.051	73.04
220.27	97.62
220.488	48.47
220.706	40.28
220.924	-29.35
221.142	42.32
221.36	97.62
221.578	25.94
221.796	44.37
222.015	34.13
222.233	-17.07
222.451	107.86
222.669	58.71
222.887	56.66
223.105	73.04
223.323	48.47
223.541	32.08
223.759	25.94
223.977	-29.35
224.195	126.29
224.413	17.75
224.631	89.43
224.849	13.65
225.067	89.43
225.285	-23.21
225.503	40.28
225.721	27.99
225.939	30.04
226.157	-25.26
226.375	107.86
226.592	17.75
226.81	-21.16
227.028	130.39
227.246	48.47
227.464	-29.35
227.682	83.28
227.9	73.04
228.117	-8.87
228.335	34.13
228.553	19.8
228.771	52.56
228.989	7.51
229.206	40.28
229.424	111.96
229.642	32.08
229.86	15.7
230.077	118.1
230.295	48.47
230.513	79.19
230.731	15.7
230.948	44.37
231.166	71
231.384	-17.07
231.601	5.46
231.819	171.35
232.037	-49.83
232.254	-43.69
232.472	75.09
232.689	56.66
232.907	25.94
233.125	73.04
233.342	64.85
233.56	48.47
233.777	48.47
233.995	-10.92
234.213	87.38
234.43	75.09
234.648	32.08
234.865	97.62
235.083	1.37
235.3	17.75
235.518	40.28
235.735	89.43
235.953	122.2
236.17	3.41
236.388	-0.68
236.605	52.56
236.822	32.08
237.04	23.89
237.257	71
237.475	50.52
237.692	32.08
237.909	34.13
238.127	23.89
238.344	66.9
238.562	42.32
238.779	-15.02
238.996	23.89
239.214	23.89
239.431	9.56
239.648	56.66
239.865	42.32
240.083	3.41
240.3	36.18
240.517	11.61
240.735	15.7
240.952	60.76
241.169	77.14
241.386	-25.26
241.603	-17.07
241.821	-4.78
242.038	81.24
242.255	89.43
242.472	-0.68
242.689	48.47
242.907	116.05
243.124	17.75
243.341	-72.36
243.558	-27.31
243.775	40.28
243.992	-25.26
244.209	71
244.426	181.59
244.643	34.13
244.86	48.47
245.078	44.37
245.295	64.85
245.512	19.8
245.729	-19.11
245.946	85.33
246.163	68.95
246.38	25.94
246.597	7.51
246.814	7.51
247.031	-21.16
247.248	40.28
247.464	109.91
247.681	58.71
247.898	64.85
248.115	83.28
248.332	-82.6
248.549	66.9
248.766	27.99
248.983	99.67
249.2	85.33
249.417	15.7
249.633	11.61
249.85	1.37
250.067	40.28
250.284	-39.59
250.501	7.51
250.717	-15.02
250.934	-17.07
251.151	38.23
251.368	64.85
251.585	118.1
251.801	62.8
252.018	-23.21
252.235	85.33
252.451	-12.97
252.668	48.47
252.885	7.51
253.102	-33.45
253.318	-8.87
253.535	23.89
253.752	-8.87
253.968	116.05
254.185	-47.79
254.401	13.65
254.618	-8.87
254.835	-62.12
255.051	36.18
255.268	56.66
255.484	32.08
255.701	5.46
255.917	19.8
256.134	64.85
256.351	11.61
256.567	25.94
256.784	52.56
257	17.75
257.217	89.43
257.433	56.66
257.65	58.71
257.866	97.62
258.082	77.14
258.299	-37.55
258.515	15.7
258.732	-90.79
258.948	73.04
259.165	34.13
259.381	-12.97
259.597	66.9
259.814	9.56
260.03	89.43
260.246	-25.26
260.463	83.28
260.679	97.62
260.895	83.28
261.112	91.48
261.328	-39.59
261.544	-51.88
261.761	60.76
261.977	-0.68
262.193	-25.26
262.409	32.08
262.626	64.85
262.842	7.51
263.058	60.76
263.274	25.94
263.49	64.85
263.707	105.81
263.923	93.52
264.139	40.28
264.355	114
264.571	81.24
264.787	27.99
265.004	42.32
265.22	64.85
265.436	-29.35
265.652	17.75
265.868	11.61
266.084	36.18
266.3	-47.79
266.516	3.41
266.732	9.56
266.948	3.41
267.164	105.81
267.38	105.81
267.596	32.08
267.812	138.58
268.028	15.7
268.244	23.89
268.46	103.76
268.676	48.47
268.892	44.37
269.108	15.7
269.324	40.28
269.54	-0.68
269.756	44.37
269.972	50.52
270.188	48.47
270.403	68.95
270.619	-2.73
270.835	91.48
271.051	27.99
271.267	58.71
271.483	73.04
271.698	81.24
271.914	-0.68
272.13	25.94
272.346	32.08
272.562	58.71
272.777	97.62
272.993	13.65
273.209	27.99
273.425	27.99
273.64	23.89
273.856	19.8
274.072	36.18
274.287	-58.03
274.503	23.89
274.719	34.13
274.934	7.51
275.15	-90.79
275.366	56.66
275.581	-21.16
275.797	40.28
276.012	52.56
276.228	64.85
276.444	17.75
276.659	142.68
276.875	1.37
277.09	103.76
277.306	32.08
277.521	25.94
277.737	48.47
277.952	-25.26
278.168	7.51
278.383	60.76
278.599	19.8
278.814	-21.16
279.03	52.56
279.245	66.9
279.461	52.56
279.676	87.38
279.892	-74.41
280.107	32.08
280.322	-0.68
280.538	120.15
280.753	23.89
280.969	130.39
281.184	15.7
281.399	66.9
281.615	9.56
281.83	77.14
282.045	-41.64
282.26	-70.31
282.476	48.47
282.691	32.08
282.906	25.94
283.122	66.9
283.337	7.51
283.552	81.24
283.767	-23.21
283.983	56.66
284.198	44.37
284.413	75.09
284.628	36.18
284.843	42.32
285.058	103.76
285.274	56.66
285.489	11.61
285.704	40.28
285.919	23.89
286.134	79.19
286.349	7.51
286.564	-31.4
286.779	68.95
286.995	27.99
287.21	58.71
287.425	9.56
287.64	52.56
287.855	130.39
288.07	15.7
288.285	48.47
288.5	93.52
288.715	36.18
288.93	93.52
289.145	-37.55
289.36	105.81
289.575	-4.78
289.79	64.85
290.004	42.32
290.219	42.32
290.434	23.89
290.649	40.28
290.864	40.28
291.079	64.85
291.294	46.42
291.509	64.85
291.724	27.99
291.938	56.66
292.153	1.37
292.368	-17.07
292.583	66.9
292.798	130.39
293.012	138.58
293.227	71
293.442	105.81
293.657	36.18
293.871	44.37
294.086	-0.68
294.301	64.85
294.516	99.67
294.73	-2.73
294.945	-0.68
295.16	56.66
295.374	118.1
295.589	-0.68
295.804	1.37
296.018	15.7
296.233	95.57
296.447	99.67
296.662	5.46
296.877	9.56
297.091	105.81
297.306	5.46
297.52	23.89
297.735	77.14
297.949	36.18
298.164	44.37
298.378	42.32
298.593	38.23
298.807	85.33
299.022	-8.87
299.236	58.71
299.451	1.37
299.665	93.52
299.88	64.85
300.094	7.51
300.309	-21.16
300.523	79.19
300.737	9.56
300.952	44.37
301.166	15.7
301.381	-29.35
301.595	23.89
301.809	-53.93
302.024	52.56
302.238	19.8
302.452	56.66
302.667	50.52
302.881	68.95
303.095	48.47
303.309	81.24
303.524	11.61
303.738	114
303.952	75.09
304.166	48.47
304.381	-53.93
304.595	23.89
304.809	38.23
305.023	87.38
305.237	19.8
305.452	17.75
305.666	50.52
305.88	-0.68
306.094	52.56
306.308	32.08
306.522	124.24
306.736	19.8
306.95	124.24
307.164	32.08
307.379	-4.78
307.593	138.58
307.807	50.52
308.021	114
308.235	44.37
308.449	-41.64
308.663	34.13
308.877	122.2
309.091	19.8
309.305	116.05
309.519	-21.16
309.733	93.52
309.947	7.51
310.161	54.61
310.374	89.43
310.588	19.8
310.802	66.9
311.016	60.76
311.23	3.41
311.444	-47.79
311.658	5.46
311.872	1.37
312.085	81.24
312.299	97.62
312.513	99.67
312.727	3.41
312.941	68.95
313.154	64.85
313.368	-4.78
313.582	36.18
313.796	48.47
314.009	-39.59
314.223	97.62
314.437	68.95
314.651	64.85
314.864	1.37
315.078	81.24
315.292	-0.68
315.505	9.56
315.719	85.33
315.933	48.47
316.146	81.24
316.36	34.13
316.573	109.91
316.787	95.57
317.001	42.32
317.214	-15.02
317.428	56.66
317.641	-25.26
317.855	79.19
318.068	64.85
318.282	50.52
318.495	146.77
318.709	58.71
318.922	-49.83
319.136	1.37
319.349	-4.78
319.563	32.08
319.776	25.94
319.99	44.37
320.203	23.89
320.417	15.7
320.63	140.63
320.843	40.28
321.057	17.75
321.27	3.41
321.483	105.81
321.697	85.33
321.91	60.76
322.124	89.43
322.337	38.23
322.55	81.24
322.763	66.9
322.977	32.08
323.19	73.04
323.403	159.06
323.617	68.95
323.83	81.24
324.043	38.23
324.256	52.56
324.469	-0.68
324.683	114
324.896	36.18
325.109	93.52
325.322	-37.55
325.535	32.08
325.748	64.85
325.962	23.89
326.175	109.91
326.388	197.97
326.601	71
326.814	-0.68
327.027	142.68
327.24	130.39
327.453	40.28
327.666	23.89
327.879	81.24
328.092	87.38
328.305	-0.68
328.518	23.89
328.731	-25.26
328.944	42.32
329.157	120.15
329.37	77.14
329.583	97.62
329.796	122.2
330.009	40.28
330.222	38.23
330.435	60.76
330.648	159.06
330.861	64.85
331.073	109.91
331.286	68.95
331.499	120.15
331.712	-31.4
331.925	32.08
332.138	25.94
332.35	32.08
332.563	17.75
332.776	73.04
332.989	32.08
333.202	23.89
333.414	30.04
333.627	97.62
333.84	-23.21
334.053	30.04
334.265	23.89
334.478	50.52
334.691	25.94
334.903	48.47
335.116	38.23
335.329	-12.97
335.541	52.56
335.754	154.96
335.966	-6.83
336.179	1.37
336.392	23.89
336.604	73.04
336.817	11.61
337.029	122.2
337.242	75.09
337.454	122.2
337.667	23.89
337.88	64.85
338.092	66.9
338.305	48.47
338.517	48.47
338.729	81.24
338.942	116.05
339.154	73.04
339.367	3.41
339.579	17.75
339.792	23.89
340.004	48.47
340.217	71
340.429	71
340.641	34.13
340.854	32.08
341.066	32.08
341.278	34.13
341.491	132.44
341.703	56.66
341.915	7.51
342.128	56.66
342.34	58.71
342.552	89.43
342.764	54.61
342.977	124.24
343.189	62.8
343.401	23.89
343.613	9.56
343.826	66.9
344.038	60.76
344.25	97.62
344.462	30.04
344.674	97.62
344.886	150.87
345.099	66.9
345.311	56.66
345.523	32.08
345.735	1.37
345.947	66.9
346.159	30.04
346.371	32.08
346.583	101.72
346.795	81.24
347.007	17.75
347.219	48.47
347.431	52.56
347.643	62.8
347.855	-8.87
348.067	48.47
348.279	58.71
348.491	34.13
348.703	81.24
348.915	-17.07
349.127	58.71
349.339	32.08
349.551	9.56
349.763	122.2
349.975	91.48
350.187	71
350.399	-12.97
350.61	91.48
350.822	64.85
351.034	50.52
351.246	38.23
351.458	97.62
351.669	40.28
351.881	42.32
352.093	114
352.305	40.28
352.517	99.67
352.728	105.81
352.94	17.75
353.152	32.08
353.363	50.52
353.575	91.48
353.787	60.76
353.999	93.52
354.21	107.86
354.422	-33.45
354.633	9.56
354.845	79.19
355.057	42.32
355.268	71
355.48	66.9
355.692	114
355.903	95.57
356.115	48.47
356.326	-23.21
356.538	118.1
356.749	56.66
356.961	132.44
357.172	109.91
357.384	-41.64
357.595	128.34
357.807	54.61
358.018	52.56
358.23	15.7
358.441	105.81
358.653	64.85
358.864	81.24
359.075	42.32
359.287	25.94
359.498	81.24
359.709	52.56
359.921	97.62
360.132	99.67
360.344	68.95
360.555	64.85
360.766	68.95
360.977	40.28
361.189	79.19
361.4	44.37
361.611	81.24
361.823	81.24
362.034	3.41
362.245	44.37
362.456	58.71
362.667	25.94
362.879	44.37
363.09	124.24
363.301	7.51
363.512	42.32
363.723	48.47
363.935	85.33
364.146	116.05
364.357	23.89
364.568	40.28
364.779	122.2
364.99	99.67
365.201	60.76
365.412	99.67
365.623	23.89
365.834	73.04
366.045	89.43
366.256	56.66
366.467	-12.97
366.678	38.23
366.889	66.9
367.1	32.08
367.311	73.04
367.522	15.7
367.733	101.72
367.944	42.32
368.155	1.37
368.366	116.05
368.577	58.71
368.788	81.24
368.999	36.18
369.209	25.94
369.42	187.73
369.631	50.52
369.842	32.08
370.053	9.56
370.264	130.39
370.474	-33.45
370.685	95.57
370.896	89.43
371.107	77.14
371.317	75.09
371.528	44.37
371.739	91.48
371.95	56.66
372.16	60.76
372.371	36.18
372.582	27.99
372.792	99.67
373.003	50.52
373.214	101.72
373.424	148.82
373.635	32.08
373.846	185.68
374.056	25.94
374.267	40.28
374.477	134.48
374.688	36.18
374.898	58.71
375.109	-4.78
375.319	5.46
375.53	97.62
375.74	64.85
375.951	-39.59
376.161	-12.97
376.372	66.9
376.582	93.52
376.793	93.52
377.003	32.08
377.214	83.28
377.424	64.85
377.635	34.13
377.845	3.41
378.055	134.48
378.266	-62.12
378.476	71
378.686	58.71
378.897	91.48
379.107	95.57
379.317	122.2
379.528	58.71
379.738	126.29
379.948	23.89
380.158	114
380.369	77.14
380.579	66.9
380.789	114
380.999	40.28
381.21	-2.73
381.42	75.09
381.63	77.14
381.84	118.1
382.05	64.85
382.261	138.58
382.471	122.2
382.681	32.08
382.891	89.43
383.101	118.1
383.311	7.51
383.521	-17.07
383.731	77.14
383.941	146.77
384.151	25.94
384.361	40.28
384.571	91.48
384.781	58.71
384.991	120.15
385.201	161.11
385.411	97.62
385.621	66.9
385.831	68.95
386.041	-17.07
386.251	93.52
386.461	128.34
386.671	93.52
386.881	101.72
387.091	66.9
387.301	77.14
387.511	179.54
387.72	132.44
387.93	58.71
388.14	-8.87
388.35	130.39
388.56	130.39
388.769	107.86
388.979	75.09
389.189	60.76
389.399	103.76
389.609	93.52
389.818	73.04
390.028	87.38
390.238	68.95
390.447	52.56
390.657	157.01
390.867	58.71
391.076	75.09
391.286	122.2
391.496	105.81
391.705	83.28
391.915	75.09
392.125	79.19
392.334	79.19
392.544	173.39
392.753	157.01
392.963	44.37
393.172	204.11
393.382	68.95
393.591	114
393.801	95.57
394.01	132.44
394.22	97.62
394.429	64.85
394.639	163.15
394.848	140.63
395.058	79.19
395.267	40.28
395.477	66.9
395.686	157.01
395.895	103.76
396.105	101.72
396.314	189.78
396.524	97.62
396.733	60.76
396.942	97.62
397.152	95.57
397.361	214.35
397.57	132.44
397.78	206.16
397.989	105.81
398.198	220.5
398.407	142.68
398.617	173.39
398.826	132.44
399.035	148.82
399.244	181.59
399.453	103.76
399.663	222.55
399.872	126.29
400.081	167.25
400.29	136.53
400.499	118.1
400.708	163.15
400.917	183.63
401.127	171.35
401.336	195.92
401.545	228.69
401.754	255.31
401.963	206.16
402.172	116.05
402.381	107.86
402.59	175.44
402.799	140.63
403.008	173.39
403.217	189.78
403.426	208.21
403.635	163.15
403.844	200.02
404.053	228.69
404.262	163.15
404.471	286.03
404.68	197.97
404.888	157.01
405.097	200.02
405.306	253.27
405.515	224.59
405.724	253.27
405.933	255.31
406.142	269.65
406.35	275.79
406.559	308.56
406.768	261.46
406.977	253.27
407.185	386.38
407.394	286.03
407.603	347.47
407.812	312.66
408.02	388.43
408.229	335.18
408.438	367.95
408.646	384.34
408.855	331.09
409.064	333.14
409.272	441.68
409.481	402.77
409.69	425.29
409.898	415.05
410.107	435.53
410.315	548.17
410.524	519.5
410.733	451.92
410.941	462.16
411.15	548.17
411.358	566.6
411.567	683.34
411.775	613.71
411.984	654.67
412.192	654.67
412.401	654.67
412.609	650.57
412.818	695.63
413.026	752.97
413.234	863.56
413.443	834.89
413.651	826.7
413.86	826.7
414.068	916.81
414.276	949.57
414.485	965.96
414.693	1131.84
414.901	1047.88
415.11	1068.36
415.318	1031.49
415.526	1172.8
415.734	1219.91
415.943	1174.85
416.151	1181
416.359	1287.49
416.567	1219.91
416.776	1408.32
416.984	1400.13
417.192	1541.44
417.4	1539.39
417.608	1469.76
417.817	1627.45
418.025	1713.47
418.233	1729.85
418.441	1791.29
418.649	1781.05
418.857	1951.03
419.065	1944.89
419.273	1910.07
419.481	2080.05
419.689	2194.74
419.897	2282.8
420.105	2370.87
420.313	2358.58
420.521	2360.63
420.729	2495.79
420.937	2622.77
421.145	2762.03
421.353	2788.65
421.561	2993.45
421.769	2968.87
421.977	3222.82
422.185	3104.04
422.393	3327.27
422.601	3456.29
422.809	3403.04
423.017	3558.69
423.224	3743
423.432	3757.34
423.64	3980.57
423.848	4236.56
424.056	4089.11
424.263	4386.07
424.471	4457.75
424.679	4510.99
424.887	4750.6
425.094	4988.17
425.302	4867.34
425.51	5053.7
425.718	5350.66
425.925	5459.2
426.133	5639.42
426.341	5774.59
426.548	5934.33
426.756	6020.35
426.964	6022.39
427.171	6491.38
427.379	6675.7
427.586	6868.2
427.794	6958.32
428.001	7382.24
428.209	7636.19
428.417	7279.85
428.624	8053.98
428.832	8076.51
429.039	8051.93
429.247	7961.82
429.454	8754.38
429.662	9202.89
429.869	8772.82
430.076	9053.39
430.284	9053.39
430.491	9585.86
430.699	9942.21
430.906	10003.64
431.114	10077.37
431.321	10511.54
431.528	10767.54
431.736	11103.4
431.943	11609.25
432.15	11658.4
432.358	11584.68
432.565	12199.07
432.772	12225.69
432.979	12754.07
433.187	12999.82
433.394	13178
433.601	13915.26
433.808	14079.1
434.016	13886.59
434.223	14449.78
434.43	15371.37
434.637	15076.46
434.844	15907.94
435.052	16243.81
435.259	16317.53
435.466	16432.22
435.673	16227.42
435.88	17040.47
436.087	18084.93
436.294	18072.64
436.501	17587.27
436.708	18060.35
436.915	18750.52
437.122	19553.32
437.329	19160.11
437.537	20153.38
437.743	20628.51
437.95	20345.89
438.157	21414.93
438.364	22225.92
438.571	21668.87
438.778	22086.66
438.985	23880.68
439.192	23032.82
439.399	23847.91
439.606	23536.62
439.813	24458.21
440.02	26127.3
440.227	25713.61
440.433	25289.68
440.64	26309.57
440.847	26049.48
441.054	26653.63
441.261	28883.87
441.467	28126.12
441.674	28631.97
441.881	29576.08
442.088	29760.4
442.294	29377.43
442.501	30047.11
442.708	30651.27
442.914	31832.94
443.121	33336.15
443.328	32283.5
443.534	34665.28
443.741	33485.65
443.948	33153.88
444.154	36000.56
444.361	35392.31
444.568	35797.81
444.774	35353.4
444.981	36389.67
445.187	36905.76
445.394	38226.7
445.6	37735.19
445.807	41687.77
446.013	39604.99
446.22	40350.45
446.426	42302.16
446.633	42111.7
446.839	43791.03
447.046	42126.03
447.252	44427.95
447.459	44483.25
447.665	44255.92
447.871	45990.55
448.078	48335.48
448.284	45654.68
448.491	47035.02
448.697	48482.93
448.903	49515.11
449.11	49951.32
449.316	48779.88
449.522	49719.9
449.728	51069.51
449.935	51364.42
450.141	51294.79
450.347	52046.4
450.553	50696.78
450.76	51092.04
450.966	53064.24
451.172	52613.68
451.378	53506.6
451.584	52507.19
451.791	53604.9
451.997	53479.97
452.203	54624.79
452.409	55005.71
452.615	54067.74
452.821	52589.11
453.027	51395.14
453.233	54413.85
453.44	52496.95
453.646	52789.81
453.852	52695.6
454.058	53666.34
454.264	52048.44
454.47	53062.19
454.676	51817.02
454.882	53379.62
455.088	49453.67
455.294	49855.07
455.5	50188.89
455.705	51098.19
455.911	49087.08
456.117	48525.94
456.323	47442.56
456.529	45519.52
456.735	47280.77
456.941	45882.01
457.147	44675.76
457.352	43621.05
457.558	43496.13
457.764	43328.19
457.97	42541.77
458.176	41714.39
458.381	41267.94
458.587	39418.62
458.793	39785.21
458.999	37069.6
459.204	40217.33
459.41	39283.45
459.616	36444.97
459.821	36670.25
460.027	36670.25
460.233	35443.51
460.438	33760.08
460.644	34308.94
460.85	32828.26
461.055	32156.52
461.261	32291.69
461.466	29995.92
461.672	28935.07
461.878	31140.73
462.083	28644.26
462.289	28642.21
462.494	28412.84
462.7	26530.75
462.905	25918.41
463.111	26960.83
463.316	27280.31
463.522	26686.4
463.727	27108.28
463.932	26850.24
464.138	26186.69
464.343	26459.07
464.549	25760.72
464.754	26577.86
464.959	26012.62
465.165	26391.49
465.37	24873.95
465.575	24443.87
465.781	25160.66
465.986	25285.59
466.191	24671.2
466.397	23972.84
466.602	22875.13
466.807	23800.81
467.012	23897.06
