Data from USB4F104151__306__14-35-02-421.txt Node

Date: Thu Mar 13 14:35:02 EDT 2025
User: louis
Spectrometer: USB4F10415
Trigger mode: 4
Integration Time (sec): 2.500000E-2
Scans to average: 1
Electric dark correction enabled: true
Nonlinearity correction enabled: false
Boxcar width: 0
XAxis mode: Wavelengths
Number of Pixels in Spectrum: 3648
>>>>>Begin Spectral Data<<<<<
178.204	-162.13
178.424	-162.13
178.644	-162.13
178.864	-139.6
179.084	-180.56
179.304	5.8
179.524	-0.34
179.744	-29.01
179.964	89.77
180.184	-14.68
180.404	-61.78
180.624	-43.35
180.844	22.19
181.064	-6.49
181.283	-31.06
181.503	22.19
181.723	46.76
181.943	-14.68
182.163	116.39
182.383	11.95
182.602	20.14
182.822	50.86
183.042	75.43
183.262	50.86
183.482	-0.34
183.701	-20.82
183.921	-31.06
184.141	-49.49
184.361	32.43
184.58	-10.58
184.8	38.57
185.02	-4.44
185.239	30.38
185.459	-6.49
185.679	-35.16
185.898	-59.73
186.118	54.95
186.338	59.05
186.557	50.86
186.777	-72.02
186.997	-12.63
187.216	-14.68
187.436	75.43
187.655	9.9
187.875	71.34
188.095	30.38
188.314	-14.68
188.534	100.01
188.753	52.91
188.973	-6.49
189.192	136.87
189.412	46.76
189.631	-12.63
189.851	20.14
190.07	-12.63
190.29	1.71
190.509	42.67
190.729	22.19
190.948	67.24
191.168	61.1
191.387	20.14
191.607	-10.58
191.826	28.33
192.045	-10.58
192.265	-37.2
192.484	-16.73
192.704	-22.87
192.923	-20.82
193.142	91.82
193.362	-18.77
193.581	65.19
193.8	54.95
194.02	124.58
194.239	42.67
194.458	-2.39
194.678	-4.44
194.897	-4.44
195.116	7.85
195.335	18.09
195.555	75.43
195.774	46.76
195.993	7.85
196.212	28.33
196.432	-45.4
196.651	18.09
196.87	26.28
197.089	136.87
197.308	44.71
197.528	13.99
197.747	-94.55
197.966	28.33
198.185	79.53
198.404	-4.44
198.623	38.57
198.842	104.11
199.062	79.53
199.281	-12.63
199.5	59.05
199.719	32.43
199.938	71.34
200.157	9.9
200.376	97.96
200.595	63.15
200.814	38.57
201.033	-6.49
201.252	28.33
201.471	9.9
201.69	26.28
201.909	26.28
202.128	75.43
202.347	44.71
202.566	9.9
202.785	-10.58
203.004	-10.58
203.223	110.25
203.442	18.09
203.661	3.75
203.879	36.52
204.098	18.09
204.317	42.67
204.536	91.82
204.755	36.52
204.974	34.47
205.193	1.71
205.411	108.2
205.63	26.28
205.849	97.96
206.068	44.71
206.287	-4.44
206.505	-14.68
206.724	-14.68
206.943	3.75
207.162	34.47
207.381	18.09
207.599	-14.68
207.818	59.05
208.037	18.09
208.255	-37.2
208.474	-61.78
208.693	13.99
208.911	75.43
209.13	22.19
209.349	30.38
209.567	42.67
209.786	-6.49
210.005	13.99
210.223	34.47
210.442	34.47
210.661	42.67
210.879	9.9
211.098	-37.2
211.316	-37.2
211.535	30.38
211.753	-18.77
211.972	89.77
212.191	-43.35
212.409	87.72
212.628	11.95
212.846	1.71
213.065	38.57
213.283	61.1
213.502	52.91
213.72	-67.92
213.938	-59.73
214.157	26.28
214.375	-22.87
214.594	-20.82
214.812	3.75
215.031	9.9
215.249	42.67
215.467	83.63
215.686	9.9
215.904	50.86
216.122	46.76
216.341	34.47
216.559	-14.68
216.778	20.14
216.996	7.85
217.214	9.9
217.432	50.86
217.651	22.19
217.869	20.14
218.087	50.86
218.306	26.28
218.524	42.67
218.742	3.75
218.96	26.28
219.179	1.71
219.397	59.05
219.615	102.06
219.833	3.75
220.051	20.14
220.27	26.28
220.488	36.52
220.706	46.76
220.924	36.52
221.142	13.99
221.36	20.14
221.578	93.87
221.796	1.71
222.015	38.57
222.233	48.81
222.451	63.15
222.669	-12.63
222.887	57
223.105	52.91
223.323	26.28
223.541	-39.25
223.759	5.8
223.977	9.9
224.195	132.78
224.413	91.82
224.631	91.82
224.849	42.67
225.067	59.05
225.285	-45.4
225.503	57
225.721	-72.02
225.939	50.86
226.157	-31.06
226.375	73.39
226.592	11.95
226.81	67.24
227.028	75.43
227.246	163.5
227.464	34.47
227.682	-29.01
227.9	13.99
228.117	59.05
228.335	-20.82
228.553	42.67
228.771	34.47
228.989	-2.39
229.206	-47.44
229.424	-2.39
229.642	-14.68
229.86	-16.73
230.077	67.24
230.295	102.06
230.513	50.86
230.731	36.52
230.948	87.72
231.166	69.29
231.384	20.14
231.601	26.28
231.819	61.1
232.037	-78.16
232.254	3.75
232.472	100.01
232.689	46.76
232.907	63.15
233.125	9.9
233.342	18.09
233.56	-61.78
233.777	50.86
233.995	38.57
234.213	81.58
234.43	-18.77
234.648	22.19
234.865	59.05
235.083	69.29
235.3	11.95
235.518	42.67
235.735	83.63
235.953	9.9
236.17	40.62
236.388	18.09
236.605	77.48
236.822	54.95
237.04	63.15
237.257	50.86
237.475	-0.34
237.692	-65.88
237.909	63.15
238.127	-31.06
238.344	59.05
238.562	67.24
238.779	1.71
238.996	26.28
239.214	-8.53
239.431	34.47
239.648	-8.53
239.865	75.43
240.083	34.47
240.3	-18.77
240.517	-104.79
240.735	-47.44
240.952	-12.63
241.169	102.06
241.386	57
241.603	26.28
241.821	26.28
242.038	34.47
242.255	32.43
242.472	-29.01
242.689	13.99
242.907	48.81
243.124	-2.39
243.341	-16.73
243.558	-80.21
243.775	-47.44
243.992	-18.77
244.209	48.81
244.426	46.76
244.643	126.63
244.86	28.33
245.078	-61.78
245.295	1.71
245.512	11.95
245.729	75.43
245.946	-6.49
246.163	44.71
246.38	36.52
246.597	77.48
246.814	-2.39
247.031	-67.92
247.248	30.38
247.464	22.19
247.681	36.52
247.898	79.53
248.115	-16.73
248.332	30.38
248.549	52.91
248.766	-26.96
248.983	32.43
249.2	11.95
249.417	26.28
249.633	50.86
249.85	87.72
250.067	-20.82
250.284	-8.53
250.501	22.19
250.717	26.28
250.934	-72.02
251.151	-51.54
251.368	28.33
251.585	36.52
251.801	63.15
252.018	-22.87
252.235	57
252.451	26.28
252.668	-37.2
252.885	-10.58
253.102	24.23
253.318	7.85
253.535	-6.49
253.752	5.8
253.968	-6.49
254.185	13.99
254.401	42.67
254.618	57
254.835	30.38
255.051	59.05
255.268	9.9
255.484	93.87
255.701	28.33
255.917	77.48
256.134	61.1
256.351	30.38
256.567	-20.82
256.784	-14.68
257	-6.49
257.217	52.91
257.433	26.28
257.65	-2.39
257.866	75.43
258.082	1.71
258.299	-12.63
258.515	5.8
258.732	-20.82
258.948	-12.63
259.165	18.09
259.381	-37.2
259.597	42.67
259.814	42.67
260.03	93.87
260.246	3.75
260.463	83.63
260.679	79.53
260.895	-4.44
261.112	26.28
261.328	26.28
261.544	22.19
261.761	75.43
261.977	-35.16
262.193	-22.87
262.409	44.71
262.626	5.8
262.842	5.8
263.058	-4.44
263.274	42.67
263.49	22.19
263.707	52.91
263.923	26.28
264.139	-31.06
264.355	42.67
264.571	9.9
264.787	59.05
265.004	-22.87
265.22	11.95
265.436	77.48
265.652	20.14
265.868	18.09
266.084	3.75
266.3	-2.39
266.516	59.05
266.732	112.3
266.948	54.95
267.164	34.47
267.38	1.71
267.596	1.71
267.812	136.87
268.028	-67.92
268.244	-47.44
268.46	18.09
268.676	-22.87
268.892	32.43
269.108	-39.25
269.324	114.34
269.54	-18.77
269.756	18.09
269.972	-20.82
270.188	50.86
270.403	-10.58
270.619	50.86
270.835	-43.35
271.051	46.76
271.267	-6.49
271.483	-6.49
271.698	50.86
271.914	26.28
272.13	71.34
272.346	-20.82
272.562	7.85
272.777	18.09
272.993	5.8
273.209	-14.68
273.425	52.91
273.64	-6.49
273.856	5.8
274.072	52.91
274.287	-29.01
274.503	42.67
274.719	50.86
274.934	34.47
275.15	-22.87
275.366	34.47
275.581	52.91
275.797	-4.44
276.012	18.09
276.228	38.57
276.444	91.82
276.659	59.05
276.875	9.9
277.09	59.05
277.306	-2.39
277.521	-49.49
277.737	20.14
277.952	110.25
278.168	-39.25
278.383	54.95
278.599	1.71
278.814	13.99
279.03	42.67
279.245	11.95
279.461	9.9
279.676	46.76
279.892	-43.35
280.107	22.19
280.322	-26.96
280.538	-14.68
280.753	52.91
280.969	24.23
281.184	18.09
281.399	85.67
281.615	1.71
281.83	112.3
282.045	-92.5
282.26	-2.39
282.476	-4.44
282.691	97.96
282.906	22.19
283.122	46.76
283.337	30.38
283.552	3.75
283.767	-6.49
283.983	71.34
284.198	16.04
284.413	77.48
284.628	13.99
284.843	1.71
285.058	-31.06
285.274	20.14
285.489	36.52
285.704	65.19
285.919	-14.68
286.134	28.33
286.349	44.71
286.564	-14.68
286.779	-10.58
286.995	40.62
287.21	1.71
287.425	34.47
287.64	-26.96
287.855	36.52
288.07	-12.63
288.285	44.71
288.5	110.25
288.715	50.86
288.93	85.67
289.145	13.99
289.36	95.91
289.575	30.38
289.79	95.91
290.004	36.52
290.219	118.44
290.434	75.43
290.649	134.82
290.864	11.95
291.079	-37.2
291.294	50.86
291.509	18.09
291.724	81.58
291.938	26.28
292.153	116.39
292.368	-22.87
292.583	5.8
292.798	34.47
293.012	20.14
293.227	30.38
293.442	95.91
293.657	5.8
293.871	73.39
294.086	89.77
294.301	73.39
294.516	61.1
294.73	40.62
294.945	-39.25
295.16	50.86
295.374	59.05
295.589	44.71
295.804	-35.16
296.018	85.67
296.233	34.47
296.447	30.38
296.662	38.57
296.877	-80.21
297.091	69.29
297.306	71.34
297.52	-39.25
297.735	26.28
297.949	87.72
298.164	5.8
298.378	-29.01
298.593	3.75
298.807	-12.63
299.022	-4.44
299.236	18.09
299.451	77.48
299.665	40.62
299.88	26.28
300.094	42.67
300.309	-6.49
300.523	44.71
300.737	-4.44
300.952	42.67
301.166	28.33
301.381	-20.82
301.595	46.76
301.809	79.53
302.024	38.57
302.238	9.9
302.452	83.63
302.667	34.47
302.881	63.15
303.095	59.05
303.309	-12.63
303.524	-10.58
303.738	11.95
303.952	34.47
304.166	69.29
304.381	-35.16
304.595	83.63
304.809	36.52
305.023	67.24
305.237	11.95
305.452	67.24
305.666	59.05
305.88	22.19
306.094	-24.92
306.308	20.14
306.522	46.76
306.736	118.44
306.95	61.1
307.164	40.62
307.379	71.34
307.593	75.43
307.807	59.05
308.021	-6.49
308.235	69.29
308.449	-10.58
308.663	11.95
308.877	87.72
309.091	50.86
309.305	67.24
309.519	-55.64
309.733	28.33
309.947	1.71
310.161	110.25
310.374	1.71
310.588	52.91
310.802	22.19
311.016	18.09
311.23	83.63
311.444	1.71
311.658	-12.63
311.872	52.91
312.085	50.86
312.299	28.33
312.513	134.82
312.727	-31.06
312.941	18.09
313.154	44.71
313.368	13.99
313.582	-14.68
313.796	-18.77
314.009	1.71
314.223	57
314.437	59.05
314.651	24.23
314.864	50.86
315.078	-26.96
315.292	87.72
315.505	34.47
315.719	91.82
315.933	59.05
316.146	38.57
316.36	73.39
316.573	5.8
316.787	46.76
317.001	54.95
317.214	-63.83
317.428	30.38
317.641	-26.96
317.855	20.14
318.068	42.67
318.282	38.57
318.495	71.34
318.709	75.43
318.922	81.58
319.136	1.71
319.349	151.21
319.563	40.62
319.776	48.81
319.99	18.09
320.203	22.19
320.417	30.38
320.63	11.95
320.843	67.24
321.057	11.95
321.27	-16.73
321.483	104.11
321.697	116.39
321.91	-14.68
322.124	34.47
322.337	83.63
322.55	-29.01
322.763	18.09
322.977	11.95
323.19	-29.01
323.403	18.09
323.617	-10.58
323.83	42.67
324.043	112.3
324.256	22.19
324.469	-31.06
324.683	18.09
324.896	36.52
325.109	7.85
325.322	-53.59
325.535	34.47
325.748	52.91
325.962	54.95
326.175	42.67
326.388	112.3
326.601	24.23
326.814	-18.77
327.027	20.14
327.24	28.33
327.453	-55.64
327.666	7.85
327.879	13.99
328.092	120.49
328.305	63.15
328.518	-43.35
328.731	-59.73
328.944	18.09
329.157	-18.77
329.37	77.48
329.583	77.48
329.796	67.24
330.009	13.99
330.222	79.53
330.435	50.86
330.648	71.34
330.861	11.95
331.073	46.76
331.286	20.14
331.499	42.67
331.712	-20.82
331.925	-14.68
332.138	18.09
332.35	91.82
332.563	-6.49
332.776	85.67
332.989	-39.25
333.202	30.38
333.414	-4.44
333.627	42.67
333.84	108.2
334.053	59.05
334.265	28.33
334.478	-6.49
334.691	46.76
334.903	-0.34
335.116	50.86
335.329	-10.58
335.541	9.9
335.754	106.15
335.966	-6.49
336.179	11.95
336.392	-22.87
336.604	28.33
336.817	34.47
337.029	48.81
337.242	104.11
337.454	95.91
337.667	26.28
337.88	83.63
338.092	26.28
338.305	13.99
338.517	9.9
338.729	65.19
338.942	34.47
339.154	75.43
339.367	26.28
339.579	9.9
339.792	1.71
340.004	34.47
340.217	69.29
340.429	69.29
340.641	34.47
340.854	9.9
341.066	71.34
341.278	52.91
341.491	61.1
341.703	9.9
341.915	-14.68
342.128	20.14
342.34	71.34
342.552	-16.73
342.764	89.77
342.977	26.28
343.189	67.24
343.401	-22.87
343.613	26.28
343.826	34.47
344.038	28.33
344.25	26.28
344.462	-18.77
344.674	26.28
344.886	77.48
345.099	11.95
345.311	-37.2
345.523	63.15
345.735	-10.58
345.947	-12.63
346.159	59.05
346.371	11.95
346.583	13.99
346.795	91.82
347.007	-31.06
347.219	50.86
347.431	-8.53
347.643	59.05
347.855	18.09
348.067	110.25
348.279	75.43
348.491	18.09
348.703	36.52
348.915	-0.34
349.127	-6.49
349.339	-22.87
349.551	34.47
349.763	40.62
349.975	3.75
350.187	52.91
350.399	59.05
350.61	48.81
350.822	-20.82
351.034	61.1
351.246	24.23
351.458	77.48
351.669	83.63
351.881	69.29
352.093	44.71
352.305	-12.63
352.517	75.43
352.728	44.71
352.94	13.99
353.152	54.95
353.363	22.19
353.575	69.29
353.787	67.24
353.999	34.47
354.21	104.11
354.422	83.63
354.633	52.91
354.845	42.67
355.057	59.05
355.268	71.34
355.48	42.67
355.692	-22.87
355.903	38.57
356.115	5.8
356.326	-86.36
356.538	83.63
356.749	-6.49
356.961	118.44
357.172	50.86
357.384	83.63
357.595	81.58
357.807	-2.39
358.018	1.71
358.23	28.33
358.441	24.23
358.653	-10.58
358.864	26.28
359.075	-65.88
359.287	9.9
359.498	52.91
359.709	102.06
359.921	5.8
360.132	71.34
360.344	79.53
360.555	-24.92
360.766	-10.58
360.977	26.28
361.189	52.91
361.4	22.19
361.611	28.33
361.823	57
362.034	81.58
362.245	73.39
362.456	44.71
362.667	36.52
362.879	50.86
363.09	42.67
363.301	61.1
363.512	65.19
363.723	95.91
363.935	-18.77
364.146	59.05
364.357	42.67
364.568	61.1
364.779	67.24
364.99	87.72
365.201	-12.63
365.412	83.63
365.623	-41.3
365.834	59.05
366.045	44.71
366.256	93.87
366.467	38.57
366.678	36.52
366.889	69.29
367.1	34.47
367.311	24.23
367.522	-20.82
367.733	42.67
367.944	120.49
368.155	54.95
368.366	91.82
368.577	44.71
368.788	108.2
368.999	-78.16
369.209	44.71
369.42	159.4
369.631	157.35
369.842	91.82
370.053	44.71
370.264	108.2
370.474	26.28
370.685	83.63
370.896	83.63
371.107	11.95
371.317	81.58
371.528	-2.39
371.739	46.76
371.95	77.48
372.16	112.3
372.371	13.99
372.582	28.33
372.792	9.9
373.003	83.63
373.214	67.24
373.424	85.67
373.635	34.47
373.846	75.43
374.056	-22.87
374.267	50.86
374.477	118.44
374.688	63.15
374.898	48.81
375.109	48.81
375.319	95.91
375.53	100.01
375.74	89.77
375.951	69.29
376.161	-4.44
376.372	140.97
376.582	67.24
376.793	38.57
377.003	61.1
377.214	-51.54
377.424	63.15
377.635	130.73
377.845	1.71
378.055	-2.39
378.266	-29.01
378.476	-4.44
378.686	69.29
378.897	120.49
379.107	91.82
379.317	13.99
379.528	124.58
379.738	65.19
379.948	9.9
380.158	61.1
380.369	34.47
380.579	50.86
380.789	-47.44
380.999	13.99
381.21	116.39
381.42	36.52
381.63	-47.44
381.84	73.39
382.05	48.81
382.261	95.91
382.471	120.49
382.681	116.39
382.891	83.63
383.101	108.2
383.311	-18.77
383.521	11.95
383.731	91.82
383.941	73.39
384.151	13.99
384.361	67.24
384.571	95.91
384.781	59.05
384.991	120.49
385.201	63.15
385.411	67.24
385.621	165.54
385.831	95.91
386.041	100.01
386.251	69.29
386.461	93.87
386.671	22.19
386.881	34.47
387.091	5.8
387.301	52.91
387.511	44.71
387.72	87.72
387.93	57
388.14	-16.73
388.35	77.48
388.56	147.11
388.769	93.87
388.979	59.05
389.189	85.67
389.399	67.24
389.609	71.34
389.818	26.28
390.028	69.29
390.238	116.39
390.447	-6.49
390.657	77.48
390.867	48.81
391.076	50.86
391.286	61.1
391.496	77.48
391.705	52.91
391.915	95.91
392.125	69.29
392.334	75.43
392.544	126.63
392.753	38.57
392.963	32.43
393.172	28.33
393.382	81.58
393.591	231.08
393.801	100.01
394.01	77.48
394.22	9.9
394.429	42.67
394.639	67.24
394.848	22.19
395.058	122.54
395.267	5.8
395.477	93.87
395.686	116.39
395.895	132.78
396.105	149.16
396.314	54.95
396.524	151.21
396.733	36.52
396.942	128.68
397.152	161.45
397.361	124.58
397.57	106.15
397.78	83.63
397.989	91.82
398.198	247.46
398.407	75.43
398.617	157.35
398.826	132.78
399.035	163.5
399.244	79.53
399.453	50.86
399.663	173.74
399.872	161.45
400.081	9.9
400.29	175.78
400.499	83.63
400.708	192.17
400.917	140.97
401.127	102.06
401.336	97.96
401.545	200.36
401.754	167.59
401.963	140.97
402.172	126.63
402.381	100.01
402.59	171.69
402.799	87.72
403.008	91.82
403.217	151.21
403.426	159.4
403.635	104.11
403.844	140.97
404.053	186.02
404.262	218.79
404.471	239.27
404.68	153.26
404.888	151.21
405.097	171.69
405.306	175.78
405.515	151.21
405.724	179.88
405.933	239.27
406.142	175.78
406.35	173.74
406.559	206.5
406.768	198.31
406.977	284.33
407.185	226.98
407.394	208.55
407.603	224.94
407.812	265.89
408.02	351.91
408.229	331.43
408.438	304.81
408.646	288.42
408.855	292.52
409.064	325.29
409.272	390.82
409.481	394.92
409.69	296.61
409.898	413.35
410.107	431.78
410.315	349.86
410.524	378.53
410.733	439.97
410.941	378.53
411.15	396.96
411.358	446.12
411.567	538.27
411.775	513.7
411.984	421.54
412.192	468.64
412.401	507.55
412.609	675.49
412.818	665.25
413.026	661.15
413.234	657.06
413.443	677.54
413.651	638.62
413.86	673.44
414.068	771.74
414.276	839.33
414.485	738.98
414.693	865.95
414.901	853.66
415.11	880.29
415.318	779.93
415.526	886.43
415.734	888.48
415.943	994.97
416.151	1037.98
416.359	956.06
416.567	1060.51
416.776	1064.6
416.984	1173.14
417.192	1250.97
417.4	1177.24
417.608	1146.52
417.817	1236.63
418.025	1277.59
418.233	1377.94
418.441	1379.99
418.649	1410.71
418.857	1582.74
419.065	1566.35
419.273	1529.49
419.481	1672.85
419.689	1746.58
419.897	1820.3
420.105	1937.04
420.313	2004.62
420.521	2035.34
420.729	1992.33
420.937	1992.33
421.145	2182.79
421.353	2266.76
421.561	2371.21
421.769	2426.5
421.977	2524.8
422.185	2530.95
422.393	2690.69
422.601	2832
422.809	2862.72
423.017	2811.52
423.224	2991.74
423.432	3135.1
423.64	3090.04
423.848	3501.69
424.056	3253.88
424.263	3516.02
424.471	3618.42
424.679	3516.02
424.887	3817.07
425.094	3974.77
425.302	3987.05
425.51	4154.99
425.718	4040.3
425.925	4261.48
426.133	4417.13
426.341	4656.74
426.548	4757.09
426.756	4857.44
426.964	4796
427.171	5064.29
427.379	5344.86
427.586	5383.77
427.794	5537.37
428.001	5809.75
428.209	6145.61
428.417	5914.19
428.624	6432.33
428.832	6334.03
429.039	6241.87
429.247	6405.7
429.454	7022.14
429.662	7085.63
429.869	6966.85
430.076	7489.08
430.284	7198.27
430.491	7382.59
430.699	7833.14
430.906	7802.42
431.114	7945.78
431.321	8306.22
431.528	8562.22
431.736	8853.03
431.943	9473.56
432.15	9174.56
432.358	9459.23
432.565	9610.78
432.772	9801.24
432.979	10135.06
433.187	10489.35
433.394	10348.04
433.601	10974.72
433.808	11081.22
434.016	11134.46
434.223	11490.81
434.43	12269.04
434.637	11906.55
434.844	12641.77
435.052	13100.51
435.259	12883.43
435.466	13037.03
435.673	12889.57
435.88	13768.15
436.087	14491.09
436.294	14470.61
436.501	14282.19
436.708	14333.39
436.915	14593.48
437.122	15463.87
437.329	15472.06
437.537	15728.06
437.743	16205.24
437.95	15914.42
438.157	16819.63
438.364	17567.13
438.571	17391.01
438.778	17636.77
438.985	18781.58
439.192	18449.81
439.399	18894.22
439.606	18353.55
439.813	19670.4
440.02	20854.12
440.227	20282.74
440.433	20151.67
440.64	20923.76
440.847	20458.87
441.054	21196.14
441.261	22519.12
441.467	22482.26
441.674	22850.89
441.881	23582.02
442.088	23477.57
442.294	23276.87
442.501	23690.56
442.708	24206.65
442.914	25361.7
443.121	26281.24
443.328	25650.47
443.534	27327.75
443.741	26678.55
443.948	26293.53
444.154	28323.07
444.361	28028.16
444.568	28343.55
444.774	27966.72
444.981	28685.56
445.187	29246.7
445.394	30614.74
445.6	30393.56
445.807	33113.27
446.013	31591.62
446.22	32267.45
446.426	33502.38
446.633	33684.65
446.839	34987.16
447.046	33442.99
447.252	35228.82
447.459	35464.33
447.665	35183.76
447.871	36881.53
448.078	38362.21
448.284	36304
448.491	37426.29
448.697	38759.52
448.903	39916.62
449.11	39152.73
449.316	38972.5
449.522	39746.64
449.728	40911.93
449.935	40744
450.141	40862.78
450.347	42095.66
450.553	40307.78
450.76	41432.11
450.966	42548.26
451.172	42005.55
451.378	43461.65
451.584	42605.6
451.791	43228.18
451.997	43338.77
452.203	43938.83
452.409	43949.07
452.615	43699.22
452.821	42144.81
453.027	41872.43
453.233	43951.12
453.44	42007.59
453.646	42675.23
453.852	42687.52
454.058	43367.44
454.264	41593.9
454.47	43052.06
454.676	41749.55
454.882	43338.77
455.088	39642.19
455.294	40348.74
455.5	40707.13
455.705	41174.07
455.911	39695.44
456.117	38866.01
456.323	38577.25
456.529	35978.37
456.735	37770.35
456.941	36689.02
457.147	36527.23
457.352	35126.42
457.558	34841.75
457.764	35093.65
457.97	34307.23
458.176	33293.49
458.381	33711.27
458.587	31988.93
458.793	31741.13
458.999	30035.17
459.204	32341.18
459.41	31368.4
459.616	29312.24
459.821	29154.54
460.027	29353.19
460.233	28235
460.438	27204.88
460.644	27317.51
460.85	25888.03
461.055	25752.87
461.261	25373.99
461.466	23704.9
461.672	23235.91
461.878	24884.53
462.083	22963.53
462.289	22642
462.494	22492.5
462.7	21376.36
462.905	21122.41
463.111	21708.13
463.316	21640.54
463.522	20948.33
463.727	21011.82
463.932	21126.5
464.138	21015.91
464.343	20983.15
464.549	20190.58
464.754	20612.46
464.959	20907.37
465.165	20794.73
465.37	19727.74
465.575	19031.43
465.781	20000.12
465.986	19973.5
466.191	19211.65
466.397	18650.51
466.602	17870.23
466.807	18773.39
