Data from USB4F104151__8__14-28-26-084.txt Node

Date: Thu Mar 13 14:28:26 EDT 2025
User: louis
Spectrometer: USB4F10415
Trigger mode: 4
Integration Time (sec): 2.500000E-2
Scans to average: 1
Electric dark correction enabled: true
Nonlinearity correction enabled: false
Boxcar width: 0
XAxis mode: Wavelengths
Number of Pixels in Spectrum: 3648
>>>>>Begin Spectral Data<<<<<
178.204	-104.28
178.424	-104.28
178.644	-104.28
178.864	-122.71
179.084	-108.37
179.304	-51.03
179.524	47.27
179.744	-8.02
179.964	75.95
180.184	-10.07
180.404	55.47
180.624	-44.88
180.844	-10.07
181.064	-65.36
181.283	-26.45
181.503	6.31
181.723	30.89
181.943	-75.6
182.163	84.14
182.383	-14.17
182.602	51.37
182.822	-48.98
183.042	10.41
183.262	65.71
183.482	-81.75
183.701	-10.07
183.921	0.17
184.141	8.36
184.361	-30.55
184.58	-22.36
184.8	-26.45
185.02	4.27
185.239	98.47
185.459	61.61
185.679	30.89
185.898	-71.51
186.118	104.62
186.338	0.17
186.557	69.8
186.777	43.18
186.997	26.79
187.216	41.13
187.436	102.57
187.655	24.75
187.875	96.43
188.095	26.79
188.314	96.43
188.534	100.52
188.753	63.66
188.973	18.6
189.192	39.08
189.412	51.37
189.631	6.31
189.851	43.18
190.07	73.9
190.29	-55.12
190.509	18.6
190.729	55.47
190.948	16.55
191.168	194.73
191.387	88.23
191.607	41.13
191.826	-100.18
192.045	37.03
192.265	-5.97
192.484	26.79
192.704	-63.32
192.923	16.55
193.142	155.82
193.362	0.17
193.581	43.18
193.8	-34.64
194.02	57.51
194.239	-1.88
194.458	67.75
194.678	71.85
194.897	75.95
195.116	-1.88
195.335	-30.55
195.555	39.08
195.774	-24.4
195.993	-1.88
196.212	57.51
196.432	22.7
196.651	16.55
196.87	24.75
197.089	71.85
197.308	-10.07
197.528	98.47
197.747	26.79
197.966	39.08
198.185	59.56
198.404	18.6
198.623	6.31
198.842	39.08
199.062	22.7
199.281	6.31
199.5	28.84
199.719	104.62
199.938	-36.69
200.157	63.66
200.376	102.57
200.595	112.81
200.814	82.09
201.033	22.7
201.252	51.37
201.471	6.31
201.69	18.6
201.909	-22.36
202.128	104.62
202.347	69.8
202.566	-48.98
202.785	22.7
203.004	57.51
203.223	149.67
203.442	59.56
203.661	88.23
203.879	147.62
204.098	-30.55
204.317	4.27
204.536	-8.02
204.755	24.75
204.974	82.09
205.193	71.85
205.411	-1.88
205.63	88.23
205.849	45.23
206.068	41.13
206.287	28.84
206.505	67.75
206.724	32.94
206.943	16.55
207.162	-18.26
207.381	118.95
207.599	10.41
207.818	28.84
208.037	18.6
208.255	55.47
208.474	100.52
208.693	43.18
208.911	22.7
209.13	2.22
209.349	22.7
209.567	43.18
209.786	63.66
210.005	16.55
210.223	18.6
210.442	-38.74
210.661	30.89
210.879	-32.6
211.098	39.08
211.316	-8.02
211.535	80.04
211.753	10.41
211.972	80.04
212.191	49.32
212.409	-10.07
212.628	41.13
212.846	22.7
213.065	47.27
213.283	39.08
213.502	-18.26
213.72	-10.07
213.938	88.23
214.157	80.04
214.375	-10.07
214.594	112.81
214.812	30.89
215.031	51.37
215.249	6.31
215.467	-16.21
215.686	65.71
215.904	55.47
216.122	14.51
216.341	63.66
216.559	63.66
216.778	82.09
216.996	14.51
217.214	96.43
217.432	-8.02
217.651	-10.07
217.869	26.79
218.087	0.17
218.306	0.17
218.524	16.55
218.742	14.51
218.96	24.75
219.179	51.37
219.397	96.43
219.615	73.9
219.833	43.18
220.051	14.51
220.27	37.03
220.488	51.37
220.706	18.6
220.924	-34.64
221.142	39.08
221.36	24.75
221.578	30.89
221.796	-24.4
222.015	53.42
222.233	28.84
222.451	39.08
222.669	-24.4
222.887	10.41
223.105	4.27
223.323	43.18
223.541	61.61
223.759	-32.6
223.977	30.89
224.195	8.36
224.413	59.56
224.631	123.05
224.849	-10.07
225.067	75.95
225.285	-1.88
225.503	30.89
225.721	-108.37
225.939	59.56
226.157	77.99
226.375	82.09
226.592	26.79
226.81	14.51
227.028	98.47
227.246	80.04
227.464	-53.08
227.682	-24.4
227.9	65.71
228.117	57.51
228.335	-10.07
228.553	80.04
228.771	59.56
228.989	47.27
229.206	73.9
229.424	-42.84
229.642	24.75
229.86	14.51
230.077	39.08
230.295	-1.88
230.513	32.94
230.731	-1.88
230.948	71.85
231.166	14.51
231.384	22.7
231.601	41.13
231.819	71.85
232.037	14.51
232.254	-57.17
232.472	82.09
232.689	63.66
232.907	73.9
233.125	55.47
233.342	-34.64
233.56	16.55
233.777	80.04
233.995	47.27
234.213	106.67
234.43	39.08
234.648	63.66
234.865	-38.74
235.083	84.14
235.3	16.55
235.518	59.56
235.735	94.38
235.953	104.62
236.17	98.47
236.388	-24.4
236.605	47.27
236.822	63.66
237.04	59.56
237.257	14.51
237.475	-59.22
237.692	39.08
237.909	14.51
238.127	41.13
238.344	34.99
238.562	20.65
238.779	-16.21
238.996	24.75
239.214	39.08
239.431	96.43
239.648	6.31
239.865	22.7
240.083	-10.07
240.3	88.23
240.517	-30.55
240.735	-8.02
240.952	30.89
241.169	145.58
241.386	-16.21
241.603	77.99
241.821	-59.22
242.038	59.56
242.255	106.67
242.472	137.38
242.689	96.43
242.907	71.85
243.124	6.31
243.341	51.37
243.558	-57.17
243.775	47.27
243.992	32.94
244.209	104.62
244.426	14.51
244.643	30.89
244.86	-26.45
245.078	28.84
245.295	55.47
245.512	88.23
245.729	-5.97
245.946	108.71
246.163	20.65
246.38	-3.93
246.597	51.37
246.814	55.47
247.031	-1.88
247.248	0.17
247.464	-18.26
247.681	10.41
247.898	16.55
248.115	75.95
248.332	49.32
248.549	94.38
248.766	121
248.983	129.19
249.2	28.84
249.417	80.04
249.633	39.08
249.85	153.77
250.067	39.08
250.284	71.85
250.501	30.89
250.717	-3.93
250.934	6.31
251.151	0.17
251.368	28.84
251.585	80.04
251.801	30.89
252.018	-34.64
252.235	65.71
252.451	-40.79
252.668	26.79
252.885	55.47
253.102	24.75
253.318	26.79
253.535	-28.5
253.752	32.94
253.968	75.95
254.185	-20.31
254.401	20.65
254.618	90.28
254.835	32.94
255.051	92.33
255.268	71.85
255.484	16.55
255.701	-18.26
255.917	34.99
256.134	26.79
256.351	22.7
256.567	-18.26
256.784	12.46
257	-61.27
257.217	22.7
257.433	-18.26
257.65	24.75
257.866	51.37
258.082	22.7
258.299	-59.22
258.515	39.08
258.732	14.51
258.948	-59.22
259.165	86.19
259.381	-5.97
259.597	16.55
259.814	28.84
260.03	22.7
260.246	16.55
260.463	39.08
260.679	6.31
260.895	43.18
261.112	39.08
261.328	-1.88
261.544	26.79
261.761	98.47
261.977	-40.79
262.193	-10.07
262.409	102.57
262.626	65.71
262.842	94.38
263.058	8.36
263.274	-8.02
263.49	-5.97
263.707	75.95
263.923	59.56
264.139	-63.32
264.355	14.51
264.571	41.13
264.787	41.13
265.004	96.43
265.22	57.51
265.436	12.46
265.652	2.22
265.868	84.14
266.084	6.31
266.3	16.55
266.516	32.94
266.732	41.13
266.948	65.71
267.164	84.14
267.38	12.46
267.596	92.33
267.812	88.23
268.028	71.85
268.244	6.31
268.46	18.6
268.676	45.23
268.892	39.08
269.108	22.7
269.324	4.27
269.54	51.37
269.756	88.23
269.972	90.28
270.188	10.41
270.403	8.36
270.619	47.27
270.835	73.9
271.051	106.67
271.267	-10.07
271.483	63.66
271.698	14.51
271.914	26.79
272.13	24.75
272.346	55.47
272.562	41.13
272.777	59.56
272.993	-32.6
273.209	47.27
273.425	88.23
273.64	0.17
273.856	49.32
274.072	69.8
274.287	-1.88
274.503	55.47
274.719	26.79
274.934	51.37
275.15	-16.21
275.366	6.31
275.581	-32.6
275.797	34.99
276.012	59.56
276.228	53.42
276.444	-16.21
276.659	59.56
276.875	30.89
277.09	39.08
277.306	-79.7
277.521	65.71
277.737	-24.4
277.952	30.89
278.168	41.13
278.383	63.66
278.599	-10.07
278.814	96.43
279.03	65.71
279.245	39.08
279.461	8.36
279.676	75.95
279.892	-28.5
280.107	26.79
280.322	18.6
280.538	-18.26
280.753	14.51
280.969	24.75
281.184	39.08
281.399	80.04
281.615	39.08
281.83	96.43
282.045	39.08
282.26	30.89
282.476	82.09
282.691	63.66
282.906	6.31
283.122	43.18
283.337	-22.36
283.552	-10.07
283.767	22.7
283.983	92.33
284.198	-14.17
284.413	16.55
284.628	90.28
284.843	-16.21
285.058	67.75
285.274	55.47
285.489	-26.45
285.704	69.8
285.919	-5.97
286.134	43.18
286.349	8.36
286.564	34.99
286.779	26.79
286.995	51.37
287.21	-61.27
287.425	-22.36
287.64	6.31
287.855	75.95
288.07	-22.36
288.285	14.51
288.5	80.04
288.715	-40.79
288.93	-42.84
289.145	47.27
289.36	12.46
289.575	-32.6
289.79	39.08
290.004	-1.88
290.219	121
290.434	22.7
290.649	-14.17
290.864	-26.45
291.079	41.13
291.294	47.27
291.509	49.32
291.724	-26.45
291.938	-5.97
292.153	6.31
292.368	32.94
292.583	63.66
292.798	57.51
293.012	34.99
293.227	34.99
293.442	10.41
293.657	73.9
293.871	86.19
294.086	125.1
294.301	129.19
294.516	-26.45
294.73	24.75
294.945	16.55
295.16	108.71
295.374	71.85
295.589	65.71
295.804	6.31
296.018	14.51
296.233	118.95
296.447	63.66
296.662	2.22
296.877	71.85
297.091	114.86
297.306	129.19
297.52	-5.97
297.735	47.27
297.949	-18.26
298.164	55.47
298.378	71.85
298.593	55.47
298.807	-59.22
299.022	45.23
299.236	-24.4
299.451	65.71
299.665	75.95
299.88	30.89
300.094	90.28
300.309	8.36
300.523	77.99
300.737	24.75
300.952	96.43
301.166	32.94
301.381	14.51
301.595	51.37
301.809	63.66
302.024	-10.07
302.238	88.23
302.452	104.62
302.667	71.85
302.881	137.38
303.095	14.51
303.309	24.75
303.524	-3.93
303.738	121
303.952	63.66
304.166	80.04
304.381	39.08
304.595	92.33
304.809	-22.36
305.023	34.99
305.237	71.85
305.452	2.22
305.666	84.14
305.88	84.14
306.094	57.51
306.308	-30.55
306.522	30.89
306.736	112.81
306.95	14.51
307.164	20.65
307.379	45.23
307.593	112.81
307.807	59.56
308.021	20.65
308.235	12.46
308.449	4.27
308.663	6.31
308.877	137.38
309.091	47.27
309.305	114.86
309.519	-1.88
309.733	82.09
309.947	-46.93
310.161	55.47
310.374	49.32
310.588	57.51
310.802	14.51
311.016	63.66
311.23	-18.26
311.444	34.99
311.658	30.89
311.872	172.2
312.085	84.14
312.299	80.04
312.513	32.94
312.727	45.23
312.941	32.94
313.154	24.75
313.368	-44.88
313.582	-18.26
313.796	80.04
314.009	37.03
314.223	49.32
314.437	129.19
314.651	18.6
314.864	82.09
315.078	71.85
315.292	-12.12
315.505	55.47
315.719	6.31
315.933	88.23
316.146	26.79
316.36	22.7
316.573	100.52
316.787	55.47
317.001	55.47
317.214	41.13
317.428	96.43
317.641	18.6
317.855	8.36
318.068	82.09
318.282	59.56
318.495	94.38
318.709	55.47
318.922	-42.84
319.136	0.17
319.349	26.79
319.563	-8.02
319.776	82.09
319.99	-65.36
320.203	92.33
320.417	75.95
320.63	106.67
320.843	139.43
321.057	45.23
321.27	-16.21
321.483	65.71
321.697	55.47
321.91	65.71
322.124	112.81
322.337	61.61
322.55	-48.98
322.763	43.18
322.977	10.41
323.19	39.08
323.403	43.18
323.617	-22.36
323.83	131.24
324.043	30.89
324.256	88.23
324.469	49.32
324.683	71.85
324.896	6.31
325.109	55.47
325.322	-63.32
325.535	75.95
325.748	-1.88
325.962	-10.07
326.175	67.75
326.388	51.37
326.601	69.8
326.814	39.08
327.027	-10.07
327.24	39.08
327.453	16.55
327.666	88.23
327.879	12.46
328.092	45.23
328.305	51.37
328.518	153.77
328.731	86.19
328.944	71.85
329.157	82.09
329.37	30.89
329.583	145.58
329.796	102.57
330.009	30.89
330.222	47.27
330.435	73.9
330.648	-32.6
330.861	-51.03
331.073	0.17
331.286	129.19
331.499	47.27
331.712	-10.07
331.925	47.27
332.138	4.27
332.35	65.71
332.563	108.71
332.776	92.33
332.989	-8.02
333.202	73.9
333.414	-5.97
333.627	73.9
333.84	77.99
334.053	6.31
334.265	131.24
334.478	69.8
334.691	112.81
334.903	30.89
335.116	18.6
335.329	73.9
335.541	49.32
335.754	61.61
335.966	43.18
336.179	22.7
336.392	-8.02
336.604	0.17
336.817	12.46
337.029	98.47
337.242	-10.07
337.454	47.27
337.667	-24.4
337.88	110.76
338.092	82.09
338.305	49.32
338.517	0.17
338.729	92.33
338.942	75.95
339.154	47.27
339.367	16.55
339.579	61.61
339.792	-26.45
340.004	88.23
340.217	71.85
340.429	-20.31
340.641	71.85
340.854	0.17
341.066	65.71
341.278	153.77
341.491	71.85
341.703	121
341.915	73.9
342.128	4.27
342.34	16.55
342.552	22.7
342.764	55.47
342.977	96.43
343.189	112.81
343.401	30.89
343.613	45.23
343.826	53.42
344.038	47.27
344.25	67.75
344.462	14.51
344.674	59.56
344.886	63.66
345.099	98.47
345.311	114.86
345.523	37.03
345.735	22.7
345.947	34.99
346.159	16.55
346.371	8.36
346.583	14.51
346.795	114.86
347.007	47.27
347.219	102.57
347.431	20.65
347.643	131.24
347.855	-10.07
348.067	77.99
348.279	-22.36
348.491	104.62
348.703	55.47
348.915	39.08
349.127	-57.17
349.339	0.17
349.551	82.09
349.763	116.9
349.975	41.13
350.187	39.08
350.399	-34.64
350.61	121
350.822	41.13
351.034	16.55
351.246	-18.26
351.458	69.8
351.669	39.08
351.881	-5.97
352.093	104.62
352.305	-18.26
352.517	-5.97
352.728	18.6
352.94	32.94
353.152	147.62
353.363	-16.21
353.575	80.04
353.787	125.1
353.999	98.47
354.21	75.95
354.422	10.41
354.633	49.32
354.845	0.17
355.057	67.75
355.268	32.94
355.48	65.71
355.692	55.47
355.903	4.27
356.115	106.67
356.326	24.75
356.538	149.67
356.749	6.31
356.961	67.75
357.172	80.04
357.384	26.79
357.595	67.75
357.807	39.08
358.018	20.65
358.23	47.27
358.441	63.66
358.653	14.51
358.864	77.99
359.075	43.18
359.287	121
359.498	41.13
359.709	53.42
359.921	51.37
360.132	59.56
360.344	-1.88
360.555	37.03
360.766	43.18
360.977	65.71
361.189	6.31
361.4	47.27
361.611	67.75
361.823	121
362.034	82.09
362.245	77.99
362.456	114.86
362.667	55.47
362.879	-1.88
363.09	114.86
363.301	71.85
363.512	41.13
363.723	37.03
363.935	71.85
364.146	88.23
364.357	98.47
364.568	100.52
364.779	10.41
364.99	100.52
365.201	30.89
365.412	121
365.623	30.89
365.834	86.19
366.045	30.89
366.256	80.04
366.467	51.37
366.678	57.51
366.889	106.67
367.1	18.6
367.311	37.03
367.522	57.51
367.733	108.71
367.944	43.18
368.155	63.66
368.366	59.56
368.577	73.9
368.788	84.14
368.999	12.46
369.209	90.28
369.42	100.52
369.631	161.96
369.842	82.09
370.053	26.79
370.264	82.09
370.474	88.23
370.685	92.33
370.896	34.99
371.107	41.13
371.317	57.51
371.528	2.22
371.739	53.42
371.95	49.32
372.16	121
372.371	-32.6
372.582	24.75
372.792	92.33
373.003	47.27
373.214	28.84
373.424	8.36
373.635	14.51
373.846	65.71
374.056	-5.97
374.267	65.71
374.477	153.77
374.688	30.89
374.898	90.28
375.109	22.7
375.319	80.04
375.53	104.62
375.74	-18.26
375.951	71.85
376.161	47.27
376.372	98.47
376.582	57.51
376.793	43.18
377.003	55.47
377.214	63.66
377.424	57.51
377.635	88.23
377.845	34.99
378.055	73.9
378.266	67.75
378.476	55.47
378.686	-18.26
378.897	90.28
379.107	90.28
379.317	104.62
379.528	12.46
379.738	88.23
379.948	16.55
380.158	57.51
380.369	57.51
380.579	43.18
380.789	39.08
380.999	71.85
381.21	59.56
381.42	121
381.63	45.23
381.84	63.66
382.05	59.56
382.261	116.9
382.471	90.28
382.681	106.67
382.891	104.62
383.101	14.51
383.311	24.75
383.521	65.71
383.731	65.71
383.941	139.43
384.151	65.71
384.361	112.81
384.571	82.09
384.781	112.81
384.991	98.47
385.201	127.14
385.411	125.1
385.621	65.71
385.831	123.05
386.041	-1.88
386.251	69.8
386.461	104.62
386.671	24.75
386.881	77.99
387.091	55.47
387.301	57.51
387.511	96.43
387.72	96.43
387.93	118.95
388.14	12.46
388.35	53.42
388.56	45.23
388.769	174.25
388.979	71.85
389.189	57.51
389.399	104.62
389.609	86.19
389.818	82.09
390.028	75.95
390.238	96.43
390.447	30.89
390.657	67.75
390.867	-36.69
391.076	123.05
391.286	108.71
391.496	104.62
391.705	-22.36
391.915	59.56
392.125	114.86
392.334	98.47
392.544	106.67
392.753	47.27
392.963	55.47
393.172	55.47
393.382	118.95
393.591	63.66
393.801	14.51
394.01	98.47
394.22	108.71
394.429	59.56
394.639	153.77
394.848	166.06
395.058	106.67
395.267	32.94
395.477	121
395.686	63.66
395.895	92.33
396.105	194.73
396.314	137.38
396.524	59.56
396.733	121
396.942	186.54
397.152	88.23
397.361	174.25
397.57	43.18
397.78	96.43
397.989	137.38
398.198	112.81
398.407	129.19
398.617	131.24
398.826	121
399.035	161.96
399.244	121
399.453	102.57
399.663	75.95
399.872	161.96
400.081	75.95
400.29	161.96
400.499	71.85
400.708	164.01
400.917	125.1
401.127	149.67
401.336	63.66
401.545	186.54
401.754	161.96
401.963	141.48
402.172	123.05
402.381	129.19
402.59	190.63
402.799	188.58
403.008	184.49
403.217	121
403.426	178.34
403.635	149.67
403.844	180.39
404.053	114.86
404.262	133.29
404.471	194.73
404.68	194.73
404.888	207.02
405.097	182.44
405.306	223.4
405.515	247.97
405.724	149.67
405.933	276.65
406.142	260.26
406.35	211.11
406.559	284.84
406.768	243.88
406.977	286.89
407.185	235.69
407.394	268.45
407.603	178.34
407.812	333.99
408.02	235.69
408.229	344.23
408.438	311.46
408.646	305.32
408.855	348.33
409.064	360.61
409.272	379.04
409.481	346.28
409.69	452.77
409.898	440.48
410.107	422.05
410.315	448.68
410.524	469.16
410.733	467.11
410.941	428.2
411.15	473.25
411.358	477.35
411.567	475.3
411.775	587.94
411.984	575.65
412.192	559.27
412.401	555.17
412.609	637.09
412.818	706.72
413.026	686.24
413.234	671.9
413.443	698.53
413.651	694.43
413.86	764.06
414.068	845.98
414.276	794.78
414.485	794.78
414.693	882.85
414.901	995.48
415.11	929.95
415.318	1005.72
415.526	952.48
415.734	1077.4
415.943	1013.92
416.151	1054.87
416.359	1130.65
416.567	1151.13
416.776	1194.14
416.984	1259.67
417.192	1226.9
417.4	1312.92
417.608	1325.21
417.817	1419.41
418.025	1400.98
418.233	1446.04
418.441	1595.54
418.649	1685.65
418.857	1835.15
419.065	1755.28
419.273	1734.8
419.481	1853.58
419.689	1931.41
419.897	2121.87
420.105	1908.88
420.313	2152.59
420.521	2103.43
420.729	2304.14
420.937	2146.44
421.145	2365.57
421.353	2605.19
421.561	2549.89
421.769	2640
421.977	2676.87
422.185	2637.95
422.393	2840.7
422.601	3070.08
422.809	3033.21
423.017	3176.57
423.224	3223.67
423.432	3367.03
423.64	3348.6
423.848	3688.56
424.056	3661.94
424.263	3860.59
424.471	3831.92
424.679	3899.5
424.887	4130.92
425.094	4212.84
425.302	4282.47
425.51	4487.27
425.718	4653.16
425.925	4741.22
426.133	4685.92
426.341	5075.04
426.548	5277.79
426.756	5167.2
426.964	5290.07
427.171	5460.06
427.379	5883.98
427.586	5761.11
427.794	6123.6
428.001	6408.26
428.209	6465.61
428.417	6438.98
428.624	6957.12
428.832	6682.69
429.039	6834.24
429.247	6776.9
429.454	7286.84
429.662	7927.86
429.869	7448.63
430.076	7882.8
430.284	7847.99
430.491	8159.28
430.699	8529.96
430.906	8464.43
431.114	8685.61
431.321	9213.98
431.528	9201.69
431.736	9715.73
431.943	10135.57
432.15	9984.02
432.358	10141.71
432.565	10528.78
432.772	10485.77
432.979	11048.96
433.187	11323.39
433.394	11395.07
433.601	12005.36
433.808	12161.01
434.016	12081.14
434.223	12560.36
434.43	13049.83
434.637	13035.49
434.844	13850.58
435.052	14057.43
435.259	13858.78
435.466	13957.08
435.673	13785.05
435.88	14890.95
436.087	15740.86
436.294	15382.46
436.501	15411.14
436.708	15484.86
436.915	15984.57
437.122	16777.13
437.329	16930.73
437.537	17315.75
437.743	17737.63
437.95	17624.99
438.157	18380.69
438.364	18755.47
438.571	18861.96
438.778	18898.83
438.985	20688.75
439.192	19810.17
439.399	20569.97
439.606	20420.47
439.813	21253.99
440.02	22472.53
440.227	22181.72
440.433	21933.92
440.64	22591.31
440.847	22439.76
441.054	22837.07
441.261	24547.12
441.467	24332.09
441.674	24635.19
441.881	25165.61
442.088	25452.33
442.294	25331.5
442.501	26011.42
442.708	26101.53
442.914	27492.1
443.121	28311.29
443.328	27555.59
443.534	29896.42
443.741	28579.57
443.948	28395.26
444.154	30625.5
444.361	30574.3
444.568	30699.22
444.774	30336.73
444.981	30975.7
445.187	31487.69
445.394	33031.86
445.6	32853.69
445.807	35716.75
446.013	34694.81
446.22	34961.05
446.426	36109.96
446.633	36394.62
446.839	37795.43
447.046	36116.1
447.252	37994.09
447.459	38106.73
447.665	37877.35
447.871	40062.54
448.078	41231.93
448.284	39308.88
448.491	40670.78
448.697	42141.22
448.903	42675.74
449.11	42970.65
449.316	42411.56
449.522	42952.22
449.728	43963.92
449.935	44426.76
450.141	43818.51
450.347	45198.84
450.553	43757.07
450.76	44097.03
450.966	45989.36
451.172	45620.72
451.378	46538.21
451.584	45262.33
451.791	46409.19
451.997	46460.39
452.203	47164.89
452.409	47285.72
452.615	47103.45
452.821	45094.39
453.027	45067.77
453.233	47551.96
453.44	45766.13
453.646	46212.59
453.852	46204.39
454.058	47033.82
454.264	45383.16
454.47	46364.14
454.676	45444.6
454.882	46665.19
455.088	42819.1
455.294	43310.61
455.5	44328.45
455.705	44731.9
455.911	42843.68
456.117	41596.46
456.323	41545.26
456.529	39536.21
456.735	40871.48
456.941	39949.9
457.147	39220.82
457.352	38381.15
457.558	37981.8
457.764	37813.87
457.97	37097.08
458.176	36404.86
458.381	36413.06
458.587	34623.13
458.793	34692.76
458.999	32669.37
459.204	34907.8
459.41	33857.19
459.616	31815.37
459.821	31819.46
460.027	32145.09
460.233	31160.02
460.438	29796.07
460.644	30170.85
460.85	28157.69
461.055	28116.73
461.261	28071.68
461.466	26103.58
461.672	24862.51
461.878	26945.3
462.083	25222.95
462.289	24811.31
462.494	24553.27
462.7	23754.56
462.905	22706
463.111	23412.55
463.316	23463.75
463.522	22826.83
463.727	23050.06
463.932	23344.97
464.138	22691.66
464.343	22740.82
464.549	22064.99
464.754	22933.32
464.959	22640.47
465.165	22388.57
465.37	21698.4
465.575	20742
465.781	21634.91
465.986	21837.66
466.191	21045.1
466.397	20707.18
466.602	19636.1
466.807	20567.92
