Data from USB4F104151__302__14-34-59-396.txt Node

Date: Thu Mar 13 14:34:59 EDT 2025
User: louis
Spectrometer: USB4F10415
Trigger mode: 4
Integration Time (sec): 2.500000E-2
Scans to average: 1
Electric dark correction enabled: true
Nonlinearity correction enabled: false
Boxcar width: 0
XAxis mode: Wavelengths
Number of Pixels in Spectrum: 3648
>>>>>Begin Spectral Data<<<<<
178.204	-104.96
178.424	-104.96
178.644	-104.96
178.864	-137.73
179.084	-133.63
179.304	-23.04
179.524	-6.66
179.744	17.92
179.964	58.88
180.184	-74.24
180.404	42.5
180.624	-18.94
180.844	34.3
181.064	-16.9
181.283	-8.7
181.503	26.11
181.723	-31.23
181.943	-23.04
182.163	5.63
182.383	22.02
182.602	5.63
182.822	79.36
183.042	19.97
183.262	3.58
183.482	79.36
183.701	5.63
183.921	58.88
184.141	-4.61
184.361	24.06
184.58	62.98
184.8	40.45
185.02	58.88
185.239	112.13
185.459	79.36
185.679	46.59
185.898	5.63
186.118	15.87
186.338	46.59
186.557	26.11
186.777	-10.75
186.997	75.26
187.216	71.17
187.436	99.84
187.655	-16.9
187.875	105.98
188.095	1.54
188.314	144.89
188.534	89.6
188.753	62.98
188.973	112.13
189.192	30.21
189.412	46.59
189.631	1.54
189.851	34.3
190.07	87.55
190.29	-35.33
190.509	5.63
190.729	54.78
190.948	120.32
191.168	212.48
191.387	67.07
191.607	79.36
191.826	5.63
192.045	56.83
192.265	5.63
192.484	54.78
192.704	22.02
192.923	5.63
193.142	138.75
193.362	-2.56
193.581	79.36
193.8	-10.75
194.02	48.64
194.239	5.63
194.458	26.11
194.678	-27.14
194.897	91.65
195.116	-96.77
195.335	79.36
195.555	9.73
195.774	56.83
195.993	34.3
196.212	48.64
196.432	54.78
196.651	40.45
196.87	40.45
197.089	105.98
197.308	77.31
197.528	81.41
197.747	46.59
197.966	48.64
198.185	46.59
198.404	54.78
198.623	22.02
198.842	40.45
199.062	136.7
199.281	114.17
199.5	-18.94
199.719	65.02
199.938	71.17
200.157	79.36
200.376	9.73
200.595	91.65
200.814	71.17
201.033	81.41
201.252	151.04
201.471	-14.85
201.69	71.17
201.909	71.17
202.128	1.54
202.347	17.92
202.566	-0.51
202.785	22.02
203.004	-18.94
203.223	112.13
203.442	19.97
203.661	-14.85
203.879	97.79
204.098	22.02
204.317	32.26
204.536	101.89
204.755	34.3
204.974	54.78
205.193	42.5
205.411	163.33
205.63	124.41
205.849	7.68
206.068	44.54
206.287	65.02
206.505	24.06
206.724	26.11
206.943	73.21
207.162	71.17
207.381	93.69
207.599	67.07
207.818	73.21
208.037	46.59
208.255	-27.14
208.474	30.21
208.693	-14.85
208.911	54.78
209.13	71.17
209.349	17.92
209.567	54.78
209.786	112.13
210.005	46.59
210.223	-49.66
210.442	-18.94
210.661	46.59
210.879	71.17
211.098	40.45
211.316	9.73
211.535	48.64
211.753	-0.51
211.972	75.26
212.191	-23.04
212.409	48.64
212.628	24.06
212.846	-2.56
213.065	95.74
213.283	42.5
213.502	77.31
213.72	56.83
213.938	95.74
214.157	128.51
214.375	95.74
214.594	11.78
214.812	54.78
215.031	65.02
215.249	-68.09
215.467	62.98
215.686	15.87
215.904	97.79
216.122	-14.85
216.341	5.63
216.559	-2.56
216.778	81.41
216.996	58.88
217.214	62.98
217.432	24.06
217.651	-68.09
217.869	36.35
218.087	30.21
218.306	40.45
218.524	71.17
218.742	17.92
218.96	83.45
219.179	3.58
219.397	38.4
219.615	87.55
219.833	-2.56
220.051	-72.19
220.27	120.32
220.488	91.65
220.706	40.45
220.924	-10.75
221.142	54.78
221.36	79.36
221.578	62.98
221.796	-4.61
222.015	114.17
222.233	58.88
222.451	67.07
222.669	42.5
222.887	108.03
223.105	-2.56
223.323	105.98
223.541	11.78
223.759	120.32
223.977	-35.33
224.195	67.07
224.413	69.12
224.631	26.11
224.849	-14.85
225.067	58.88
225.285	-0.51
225.503	-78.33
225.721	-25.09
225.939	54.78
226.157	5.63
226.375	105.98
226.592	38.4
226.81	97.79
227.028	71.17
227.246	110.08
227.464	-35.33
227.682	110.08
227.9	34.3
228.117	50.69
228.335	38.4
228.553	56.83
228.771	108.03
228.989	-8.7
229.206	24.06
229.424	-41.47
229.642	32.26
229.86	38.4
230.077	87.55
230.295	15.87
230.513	40.45
230.731	24.06
230.948	116.22
231.166	101.89
231.384	-35.33
231.601	1.54
231.819	95.74
232.037	-8.7
232.254	54.78
232.472	24.06
232.689	40.45
232.907	22.02
233.125	5.63
233.342	5.63
233.56	71.17
233.777	58.88
233.995	38.4
234.213	38.4
234.43	65.02
234.648	30.21
234.865	62.98
235.083	75.26
235.3	-10.75
235.518	-8.7
235.735	85.5
235.953	73.21
236.17	9.73
236.388	46.59
236.605	65.02
236.822	62.98
237.04	116.22
237.257	122.37
237.475	46.59
237.692	34.3
237.909	40.45
238.127	-2.56
238.344	22.02
238.562	79.36
238.779	-27.14
238.996	-37.38
239.214	9.73
239.431	73.21
239.648	-25.09
239.865	26.11
240.083	38.4
240.3	138.75
240.517	87.55
240.735	30.21
240.952	65.02
241.169	136.7
241.386	-35.33
241.603	50.69
241.821	-25.09
242.038	105.98
242.255	91.65
242.472	-27.14
242.689	62.98
242.907	105.98
243.124	-10.75
243.341	17.92
243.558	-25.09
243.775	48.64
243.992	30.21
244.209	30.21
244.426	24.06
244.643	136.7
244.86	24.06
245.078	95.74
245.295	58.88
245.512	38.4
245.729	5.63
245.946	62.98
246.163	73.21
246.38	19.97
246.597	34.3
246.814	-31.23
247.031	-43.52
247.248	40.45
247.464	73.21
247.681	101.89
247.898	7.68
248.115	60.93
248.332	42.5
248.549	-23.04
248.766	132.61
248.983	81.41
249.2	26.11
249.417	71.17
249.633	42.5
249.85	114.17
250.067	24.06
250.284	124.41
250.501	75.26
250.717	56.83
250.934	3.58
251.151	58.88
251.368	81.41
251.585	79.36
251.801	62.98
252.018	9.73
252.235	22.02
252.451	38.4
252.668	13.82
252.885	73.21
253.102	-16.9
253.318	-2.56
253.535	58.88
253.752	5.63
253.968	-27.14
254.185	89.6
254.401	19.97
254.618	81.41
254.835	46.59
255.051	210.43
255.268	83.45
255.484	-35.33
255.701	38.4
255.917	1.54
256.134	24.06
256.351	54.78
256.567	38.4
256.784	22.02
257	-76.29
257.217	89.6
257.433	22.02
257.65	32.26
257.866	87.55
258.082	-27.14
258.299	79.36
258.515	34.3
258.732	-2.56
258.948	-35.33
259.165	73.21
259.381	17.92
259.597	95.74
259.814	71.17
260.03	34.3
260.246	-57.86
260.463	75.26
260.679	9.73
260.895	34.3
261.112	-55.81
261.328	56.83
261.544	62.98
261.761	-8.7
261.977	24.06
262.193	-31.23
262.409	22.02
262.626	13.82
262.842	65.02
263.058	54.78
263.274	19.97
263.49	30.21
263.707	161.28
263.923	62.98
264.139	9.73
264.355	56.83
264.571	93.69
264.787	73.21
265.004	11.78
265.22	58.88
265.436	32.26
265.652	22.02
265.868	5.63
266.084	-74.24
266.3	48.64
266.516	-47.62
266.732	13.82
266.948	71.17
267.164	44.54
267.38	95.74
267.596	91.65
267.812	62.98
268.028	19.97
268.244	36.35
268.46	103.93
268.676	52.74
268.892	-18.94
269.108	-25.09
269.324	56.83
269.54	-47.62
269.756	48.64
269.972	-43.52
270.188	44.54
270.403	38.4
270.619	-2.56
270.835	5.63
271.051	62.98
271.267	52.74
271.483	95.74
271.698	52.74
271.914	56.83
272.13	-0.51
272.346	-18.94
272.562	7.68
272.777	40.45
272.993	22.02
273.209	30.21
273.425	24.06
273.64	34.3
273.856	22.02
274.072	17.92
274.287	22.02
274.503	58.88
274.719	69.12
274.934	15.87
275.15	17.92
275.366	60.93
275.581	38.4
275.797	-16.9
276.012	110.08
276.228	36.35
276.444	73.21
276.659	54.78
276.875	73.21
277.09	17.92
277.306	40.45
277.521	17.92
277.737	5.63
277.952	48.64
278.168	118.27
278.383	83.45
278.599	-2.56
278.814	177.66
279.03	-14.85
279.245	1.54
279.461	34.3
279.676	105.98
279.892	-33.28
280.107	13.82
280.322	30.21
280.538	34.3
280.753	32.26
280.969	144.89
281.184	5.63
281.399	91.65
281.615	11.78
281.83	5.63
282.045	54.78
282.26	91.65
282.476	32.26
282.691	97.79
282.906	-0.51
283.122	58.88
283.337	-33.28
283.552	28.16
283.767	36.35
283.983	87.55
284.198	-2.56
284.413	-8.7
284.628	-14.85
284.843	-16.9
285.058	42.5
285.274	7.68
285.489	9.73
285.704	138.75
285.919	5.63
286.134	87.55
286.349	13.82
286.564	13.82
286.779	144.89
286.995	38.4
287.21	38.4
287.425	58.88
287.64	46.59
287.855	-6.66
288.07	46.59
288.285	40.45
288.5	116.22
288.715	114.17
288.93	-18.94
289.145	89.6
289.36	9.73
289.575	26.11
289.79	50.69
290.004	22.02
290.219	89.6
290.434	-18.94
290.649	5.63
290.864	24.06
291.079	99.84
291.294	73.21
291.509	-45.57
291.724	-49.66
291.938	36.35
292.153	-18.94
292.368	1.54
292.583	75.26
292.798	34.3
293.012	44.54
293.227	75.26
293.442	28.16
293.657	38.4
293.871	118.27
294.086	73.21
294.301	132.61
294.516	83.45
294.73	50.69
294.945	-37.38
295.16	13.82
295.374	7.68
295.589	58.88
295.804	-31.23
296.018	-64
296.233	46.59
296.447	30.21
296.662	34.3
296.877	71.17
297.091	62.98
297.306	26.11
297.52	83.45
297.735	65.02
297.949	69.12
298.164	67.07
298.378	7.68
298.593	-6.66
298.807	30.21
299.022	91.65
299.236	17.92
299.451	36.35
299.665	-16.9
299.88	105.98
300.094	50.69
300.309	48.64
300.523	22.02
300.737	46.59
300.952	62.98
301.166	5.63
301.381	24.06
301.595	13.82
301.809	9.73
302.024	62.98
302.238	19.97
302.452	108.03
302.667	-25.09
302.881	54.78
303.095	97.79
303.309	48.64
303.524	44.54
303.738	99.84
303.952	-14.85
304.166	81.41
304.381	-31.23
304.595	30.21
304.809	9.73
305.023	38.4
305.237	-10.75
305.452	9.73
305.666	38.4
305.88	38.4
306.094	95.74
306.308	28.16
306.522	103.93
306.736	83.45
306.95	17.92
307.164	71.17
307.379	112.13
307.593	79.36
307.807	79.36
308.021	32.26
308.235	42.5
308.449	58.88
308.663	95.74
308.877	120.32
309.091	-2.56
309.305	71.17
309.519	13.82
309.733	97.79
309.947	3.58
310.161	67.07
310.374	75.26
310.588	79.36
310.802	89.6
311.016	38.4
311.23	87.55
311.444	54.78
311.658	50.69
311.872	87.55
312.085	112.13
312.299	136.7
312.513	71.17
312.727	48.64
312.941	48.64
313.154	38.4
313.368	9.73
313.582	85.5
313.796	71.17
314.009	-25.09
314.223	54.78
314.437	58.88
314.651	50.69
314.864	28.16
315.078	30.21
315.292	1.54
315.505	46.59
315.719	105.98
315.933	89.6
316.146	38.4
316.36	42.5
316.573	146.94
316.787	71.17
317.001	24.06
317.214	-35.33
317.428	81.41
317.641	58.88
317.855	32.26
318.068	28.16
318.282	50.69
318.495	42.5
318.709	42.5
318.922	79.36
319.136	103.93
319.349	38.4
319.563	50.69
319.776	71.17
319.99	34.3
320.203	87.55
320.417	67.07
320.63	22.02
320.843	103.93
321.057	40.45
321.27	54.78
321.483	42.5
321.697	50.69
321.91	87.55
322.124	38.4
322.337	120.32
322.55	-49.66
322.763	-14.85
322.977	30.21
323.19	60.93
323.403	65.02
323.617	75.26
323.83	118.27
324.043	32.26
324.256	130.56
324.469	9.73
324.683	93.69
324.896	13.82
325.109	32.26
325.322	9.73
325.535	122.37
325.748	73.21
325.962	58.88
326.175	97.79
326.388	114.17
326.601	138.75
326.814	56.83
327.027	75.26
327.24	91.65
327.453	26.11
327.666	120.32
327.879	42.5
328.092	108.03
328.305	46.59
328.518	24.06
328.731	42.5
328.944	-2.56
329.157	97.79
329.37	42.5
329.583	144.89
329.796	140.8
330.009	24.06
330.222	130.56
330.435	146.94
330.648	138.75
330.861	71.17
331.073	-0.51
331.286	114.17
331.499	97.79
331.712	73.21
331.925	30.21
332.138	62.98
332.35	87.55
332.563	36.35
332.776	71.17
332.989	75.26
333.202	5.63
333.414	7.68
333.627	99.84
333.84	48.64
334.053	114.17
334.265	-2.56
334.478	97.79
334.691	81.41
334.903	-25.09
335.116	136.7
335.329	26.11
335.541	-10.75
335.754	50.69
335.966	24.06
336.179	22.02
336.392	32.26
336.604	60.93
336.817	89.6
337.029	65.02
337.242	-51.71
337.454	79.36
337.667	30.21
337.88	120.32
338.092	75.26
338.305	13.82
338.517	7.68
338.729	130.56
338.942	142.85
339.154	75.26
339.367	26.11
339.579	30.21
339.792	-10.75
340.004	26.11
340.217	54.78
340.429	69.12
340.641	32.26
340.854	19.97
341.066	-4.61
341.278	40.45
341.491	136.7
341.703	75.26
341.915	11.78
342.128	95.74
342.34	81.41
342.552	81.41
342.764	73.21
342.977	5.63
343.189	38.4
343.401	81.41
343.613	42.5
343.826	19.97
344.038	-18.94
344.25	71.17
344.462	1.54
344.674	54.78
344.886	34.3
345.099	30.21
345.311	93.69
345.523	54.78
345.735	40.45
345.947	-2.56
346.159	30.21
346.371	13.82
346.583	79.36
346.795	169.47
347.007	56.83
347.219	50.69
347.431	83.45
347.643	95.74
347.855	62.98
348.067	95.74
348.279	58.88
348.491	5.63
348.703	30.21
348.915	46.59
349.127	5.63
349.339	50.69
349.551	13.82
349.763	110.08
349.975	91.65
350.187	67.07
350.399	112.13
350.61	99.84
350.822	71.17
351.034	40.45
351.246	-2.56
351.458	22.02
351.669	81.41
351.881	71.17
352.093	67.07
352.305	87.55
352.517	87.55
352.728	128.51
352.94	87.55
353.152	15.87
353.363	13.82
353.575	-18.94
353.787	9.73
353.999	65.02
354.21	116.22
354.422	5.63
354.633	89.6
354.845	13.82
355.057	56.83
355.268	32.26
355.48	48.64
355.692	-4.61
355.903	38.4
356.115	1.54
356.326	36.35
356.538	97.79
356.749	38.4
356.961	110.08
357.172	58.88
357.384	22.02
357.595	126.46
357.807	34.3
358.018	40.45
358.23	136.7
358.441	110.08
358.653	79.36
358.864	32.26
359.075	22.02
359.287	52.74
359.498	103.93
359.709	9.73
359.921	48.64
360.132	71.17
360.344	71.17
360.555	26.11
360.766	116.22
360.977	97.79
361.189	50.69
361.4	89.6
361.611	171.52
361.823	103.93
362.034	62.98
362.245	-16.9
362.456	22.02
362.667	60.93
362.879	56.83
363.09	120.32
363.301	71.17
363.512	58.88
363.723	34.3
363.935	56.83
364.146	101.89
364.357	56.83
364.568	83.45
364.779	-20.99
364.99	116.22
365.201	-2.56
365.412	103.93
365.623	24.06
365.834	75.26
366.045	-16.9
366.256	112.13
366.467	67.07
366.678	136.7
366.889	95.74
367.1	-2.56
367.311	62.98
367.522	62.98
367.733	112.13
367.944	56.83
368.155	103.93
368.366	153.09
368.577	87.55
368.788	22.02
368.999	26.11
369.209	13.82
369.42	144.89
369.631	148.99
369.842	128.51
370.053	13.82
370.264	120.32
370.474	5.63
370.685	1.54
370.896	89.6
371.107	40.45
371.317	71.17
371.528	56.83
371.739	71.17
371.95	95.74
372.16	79.36
372.371	120.32
372.582	-43.52
372.792	15.87
373.003	91.65
373.214	48.64
373.424	38.4
373.635	108.03
373.846	155.13
374.056	103.93
374.267	81.41
374.477	-2.56
374.688	48.64
374.898	24.06
375.109	22.02
375.319	58.88
375.53	71.17
375.74	124.41
375.951	13.82
376.161	101.89
376.372	130.56
376.582	-10.75
376.793	38.4
377.003	30.21
377.214	56.83
377.424	103.93
377.635	103.93
377.845	-90.62
378.055	136.7
378.266	-14.85
378.476	50.69
378.686	71.17
378.897	114.17
379.107	132.61
379.317	73.21
379.528	58.88
379.738	161.28
379.948	71.17
380.158	73.21
380.369	13.82
380.579	34.3
380.789	52.74
380.999	32.26
381.21	81.41
381.42	138.75
381.63	-23.04
381.84	71.17
382.05	89.6
382.261	71.17
382.471	79.36
382.681	52.74
382.891	122.37
383.101	48.64
383.311	38.4
383.521	75.26
383.731	99.84
383.941	122.37
384.151	89.6
384.361	62.98
384.571	58.88
384.781	95.74
384.991	163.33
385.201	-4.61
385.411	146.94
385.621	79.36
385.831	30.21
386.041	67.07
386.251	87.55
386.461	95.74
386.671	26.11
386.881	128.51
387.091	75.26
387.301	28.16
387.511	46.59
387.72	71.17
387.93	65.02
388.14	-39.42
388.35	79.36
388.56	124.41
388.769	103.93
388.979	71.17
389.189	-23.04
389.399	87.55
389.609	73.21
389.818	112.13
390.028	54.78
390.238	56.83
390.447	87.55
390.657	83.45
390.867	124.41
391.076	136.7
391.286	114.17
391.496	103.93
391.705	54.78
391.915	148.99
392.125	56.83
392.334	79.36
392.544	155.13
392.753	112.13
392.963	42.5
393.172	65.02
393.382	112.13
393.591	103.93
393.801	75.26
394.01	87.55
394.22	42.5
394.429	75.26
394.639	38.4
394.848	58.88
395.058	44.54
395.267	108.03
395.477	130.56
395.686	99.84
395.895	179.71
396.105	153.09
396.314	77.31
396.524	48.64
396.733	181.76
396.942	161.28
397.152	62.98
397.361	161.28
397.57	87.55
397.78	105.98
397.989	112.13
398.198	208.38
398.407	62.98
398.617	93.69
398.826	116.22
399.035	71.17
399.244	140.8
399.453	103.93
399.663	134.65
399.872	161.28
400.081	114.17
400.29	187.9
400.499	93.69
400.708	130.56
400.917	146.94
401.127	124.41
401.336	103.93
401.545	177.66
401.754	155.13
401.963	222.72
402.172	122.37
402.381	194.05
402.59	116.22
402.799	83.45
403.008	165.37
403.217	112.13
403.426	175.61
403.635	140.8
403.844	226.81
404.053	161.28
404.262	148.99
404.471	194.05
404.68	210.43
404.888	153.09
405.097	159.23
405.306	173.57
405.515	235
405.724	171.52
405.933	169.47
406.142	224.76
406.35	198.14
406.559	185.85
406.768	271.87
406.977	286.2
407.185	230.91
407.394	181.76
407.603	194.05
407.812	218.62
408.02	304.64
408.229	286.2
408.438	226.81
408.646	243.2
408.855	278.01
409.064	251.39
409.272	265.72
409.481	392.7
409.69	357.88
409.898	392.7
410.107	402.94
410.315	415.23
410.524	333.31
410.733	411.13
410.941	447.99
411.15	468.47
411.358	376.31
411.567	476.66
411.775	431.61
411.984	423.42
412.192	548.34
412.401	521.72
412.609	601.59
412.818	634.36
413.026	572.92
413.234	501.24
413.443	546.3
413.651	615.93
413.86	595.45
414.068	802.29
414.276	757.24
414.485	769.52
414.693	689.65
414.901	820.72
415.11	749.04
415.318	722.42
415.526	841.2
415.734	851.44
415.943	843.25
416.151	941.55
416.359	908.79
416.567	931.31
416.776	1015.28
416.984	1140.21
417.192	1089.01
417.4	1150.45
417.608	1132.01
417.817	1170.93
418.025	1320.43
418.233	1455.59
418.441	1271.28
418.649	1396.2
418.857	1463.79
419.065	1498.6
419.273	1543.66
419.481	1594.86
419.689	1611.24
419.897	1687.01
420.105	1781.22
420.313	1795.56
420.521	1883.62
420.729	1918.43
420.937	1912.29
421.145	1963.49
421.353	2051.55
421.561	2258.4
421.769	2258.4
421.977	2438.62
422.185	2393.56
422.393	2407.9
422.601	2704.85
422.809	2629.08
423.017	2639.32
423.224	2803.16
423.432	2917.84
423.64	2940.37
423.848	3206.61
424.056	3102.16
424.263	3294.67
424.471	3444.17
424.679	3450.32
424.887	3556.81
425.094	3773.89
425.302	3612.1
425.51	3749.32
425.718	3827.14
425.925	3917.25
426.133	4058.56
426.341	4404.67
426.548	4527.55
426.756	4472.25
426.964	4597.18
427.171	4920.76
427.379	4904.37
427.586	5008.82
427.794	5148.08
428.001	5338.54
428.209	5668.27
428.417	5645.74
428.624	6063.52
428.832	5895.59
429.039	5993.89
429.247	5926.31
429.454	6436.25
429.662	6929.81
429.869	6428.06
430.076	6929.81
430.284	6714.78
430.491	7007.64
430.699	7345.55
430.906	7568.78
431.114	7511.44
431.321	7652.75
431.528	7992.71
431.736	8381.82
431.943	8848.76
432.15	8375.68
432.358	8467.84
432.565	9133.43
432.772	9188.72
432.979	9514.35
433.187	9696.62
433.394	9647.47
433.601	10220.9
433.808	10528.1
434.016	10337.63
434.223	10691.93
434.43	11515.22
434.637	11281.75
434.844	11851.08
435.052	12107.08
435.259	12006.73
435.466	11967.82
435.673	12285.25
435.88	12698.94
436.087	13421.88
436.294	13391.16
436.501	13315.38
436.708	13489.46
436.915	13972.78
437.122	14376.23
437.329	14255.4
437.537	15039.77
437.743	14832.93
437.95	15179.03
438.157	15709.46
438.364	16385.29
438.571	16401.67
438.778	16319.75
438.985	17749.23
439.192	17073.4
439.399	17923.31
439.606	17317.11
439.813	18177.26
440.02	19254.49
440.227	18963.68
440.433	18986.21
440.64	19403.99
440.847	19383.51
441.054	19614.93
441.261	21435.58
441.467	20778.18
441.674	21542.07
441.881	21763.25
442.088	22041.78
442.294	21796.02
442.501	22246.57
442.708	22777
442.914	23712.92
443.121	24603.78
443.328	23964.82
443.534	25902.2
443.741	25031.81
443.948	24382.6
444.154	26418.28
444.361	26328.17
444.568	26362.99
444.774	26184.82
444.981	26924.13
445.187	27253.86
445.394	28423.25
445.6	28255.31
445.807	30805.03
446.013	29537.34
446.22	30338.1
446.426	31241.25
446.633	31681.56
446.839	32490.51
447.046	31319.07
447.252	33059.85
447.459	33141.77
447.665	33063.94
447.871	34350.07
448.078	35886.04
448.284	34169.85
448.491	34941.93
448.697	36035.55
448.903	36760.53
449.11	37149.64
449.316	36590.55
449.522	37112.78
449.728	38280.12
449.935	38540.21
450.141	38675.38
450.347	39138.22
450.553	38171.58
450.76	38706.1
450.966	39730.08
451.172	39259.05
451.378	40235.93
451.584	39469.99
451.791	40481.69
451.997	40323.99
452.203	41010.06
452.409	41304.97
452.615	40917.9
452.821	39054.25
453.027	39089.07
453.233	40950.67
453.44	39293.86
453.646	39668.64
453.852	39852.96
454.058	40149.92
454.264	38896.56
454.47	40217.5
454.676	39037.87
454.882	40534.93
455.088	36967.37
455.294	37381.06
455.5	38007.74
455.705	38304.7
455.911	37256.14
456.117	36164.57
456.323	36094.94
456.529	33758.2
456.735	35337.19
456.941	34219
457.147	33852.41
457.352	32660.49
457.558	32640.01
457.764	32410.64
457.97	31826.97
458.176	30876.71
458.381	31319.07
458.587	29498.43
458.793	29350.98
458.999	28265.55
459.204	29912.12
459.41	29580.35
459.616	27221.09
459.821	27501.66
460.027	27380.83
460.233	26545.26
460.438	25400.44
460.644	25566.33
460.85	24628.36
461.055	24087.7
461.261	24016.02
461.466	22248.62
461.672	21503.16
461.878	22817.96
462.083	21521.59
462.289	21198.01
462.494	20808.9
462.7	19952.85
462.905	19393.75
463.111	19918.03
463.316	19985.62
463.522	19836.11
463.727	19447
463.932	19592.41
464.138	19354.84
464.343	19512.53
464.549	19047.65
464.754	19492.05
464.959	19340.5
465.165	19483.86
465.37	18351.34
465.575	18136.3
465.781	18650.34
465.986	18660.58
466.191	17984.75
466.397	17726.71
466.602	16655.62
466.807	17581.3
467.012	17245.43
