Data from USB4F104151__102__14-30-52-392.txt Node

Date: Thu Mar 13 14:30:52 EDT 2025
User: louis
Spectrometer: USB4F10415
Trigger mode: 4
Integration Time (sec): 2.500000E-2
Scans to average: 1
Electric dark correction enabled: true
Nonlinearity correction enabled: false
Boxcar width: 0
XAxis mode: Wavelengths
Number of Pixels in Spectrum: 3648
>>>>>Begin Spectral Data<<<<<
178.204	-117.25
178.424	-117.25
178.644	-117.25
178.864	-139.77
179.084	-152.06
179.304	-10.75
179.524	-2.56
179.744	-20.99
179.964	-18.94
180.184	3.58
180.404	-29.18
180.624	3.58
180.844	24.06
181.064	-41.47
181.283	-68.09
181.503	52.74
181.723	108.03
181.943	-20.99
182.163	69.12
182.383	-16.9
182.602	118.27
182.822	122.37
183.042	85.5
183.262	-12.8
183.482	-27.14
183.701	9.73
183.921	-37.38
184.141	-2.56
184.361	56.83
184.58	42.5
184.8	60.93
185.02	3.58
185.239	118.27
185.459	28.16
185.679	62.98
185.898	30.21
186.118	9.73
186.338	69.12
186.557	5.63
186.777	3.58
186.997	5.63
187.216	3.58
187.436	67.07
187.655	126.46
187.875	13.82
188.095	69.12
188.314	89.6
188.534	40.45
188.753	46.59
188.973	75.26
189.192	44.54
189.412	44.54
189.631	56.83
189.851	36.35
190.07	85.5
190.29	-8.7
190.509	13.82
190.729	-4.61
190.948	30.21
191.168	183.81
191.387	69.12
191.607	-45.57
191.826	30.21
192.045	50.69
192.265	54.78
192.484	44.54
192.704	77.31
192.923	36.35
193.142	44.54
193.362	67.07
193.581	110.08
193.8	110.08
194.02	15.87
194.239	36.35
194.458	101.89
194.678	-2.56
194.897	81.41
195.116	71.17
195.335	46.59
195.555	50.69
195.774	28.16
195.993	69.12
196.212	46.59
196.432	-4.61
196.651	54.78
196.87	26.11
197.089	77.31
197.308	85.5
197.528	36.35
197.747	-12.8
197.966	95.74
198.185	103.93
198.404	58.88
198.623	-2.56
198.842	73.21
199.062	112.13
199.281	101.89
199.5	3.58
199.719	138.75
199.938	60.93
200.157	52.74
200.376	65.02
200.595	44.54
200.814	83.45
201.033	3.58
201.252	81.41
201.471	73.21
201.69	13.82
201.909	30.21
202.128	73.21
202.347	60.93
202.566	114.17
202.785	-78.33
203.004	13.82
203.223	85.5
203.442	11.78
203.661	7.68
203.879	101.89
204.098	19.97
204.317	19.97
204.536	85.5
204.755	128.51
204.974	97.79
205.193	99.84
205.411	77.31
205.63	38.4
205.849	62.98
206.068	48.64
206.287	28.16
206.505	54.78
206.724	60.93
206.943	56.83
207.162	-45.57
207.381	93.69
207.599	30.21
207.818	73.21
208.037	24.06
208.255	60.93
208.474	116.22
208.693	52.74
208.911	19.97
209.13	7.68
209.349	28.16
209.567	11.78
209.786	36.35
210.005	60.93
210.223	-20.99
210.442	-20.99
210.661	60.93
210.879	48.64
211.098	38.4
211.316	62.98
211.535	3.58
211.753	60.93
211.972	40.45
212.191	60.93
212.409	101.89
212.628	24.06
212.846	15.87
213.065	40.45
213.283	54.78
213.502	7.68
213.72	-2.56
213.938	-12.8
214.157	56.83
214.375	60.93
214.594	34.3
214.812	77.31
215.031	28.16
215.249	38.4
215.467	-10.75
215.686	5.63
215.904	28.16
216.122	38.4
216.341	7.68
216.559	-18.94
216.778	40.45
216.996	130.56
217.214	38.4
217.432	-12.8
217.651	19.97
217.869	75.26
218.087	-8.7
218.306	48.64
218.524	11.78
218.742	38.4
218.96	71.17
219.179	-29.18
219.397	30.21
219.615	136.7
219.833	-33.28
220.051	52.74
220.27	83.45
220.488	38.4
220.706	11.78
220.924	7.68
221.142	11.78
221.36	-14.85
221.578	87.55
221.796	7.68
222.015	30.21
222.233	120.32
222.451	69.12
222.669	-20.99
222.887	85.5
223.105	44.54
223.323	19.97
223.541	44.54
223.759	48.64
223.977	44.54
224.195	62.98
224.413	30.21
224.631	32.26
224.849	95.74
225.067	60.93
225.285	-57.86
225.503	44.54
225.721	-45.57
225.939	19.97
226.157	-18.94
226.375	132.61
226.592	11.78
226.81	97.79
227.028	17.92
227.246	120.32
227.464	56.83
227.682	114.17
227.9	65.02
228.117	-23.04
228.335	7.68
228.553	3.58
228.771	60.93
228.989	56.83
229.206	77.31
229.424	-33.28
229.642	52.74
229.86	62.98
230.077	134.65
230.295	46.59
230.513	-12.8
230.731	54.78
230.948	28.16
231.166	101.89
231.384	79.36
231.601	85.5
231.819	120.32
232.037	112.13
232.254	-43.52
232.472	101.89
232.689	-12.8
232.907	79.36
233.125	19.97
233.342	56.83
233.56	11.78
233.777	-29.18
233.995	24.06
234.213	69.12
234.43	46.59
234.648	1.54
234.865	22.02
235.083	97.79
235.3	65.02
235.518	52.74
235.735	112.13
235.953	85.5
236.17	-16.9
236.388	44.54
236.605	36.35
236.822	116.22
237.04	46.59
237.257	-20.99
237.475	24.06
237.692	60.93
237.909	75.26
238.127	58.88
238.344	46.59
238.562	110.08
238.779	-20.99
238.996	52.74
239.214	79.36
239.431	101.89
239.648	42.5
239.865	38.4
240.083	67.07
240.3	-27.14
240.517	-4.61
240.735	79.36
240.952	77.31
241.169	87.55
241.386	58.88
241.603	30.21
241.821	28.16
242.038	110.08
242.255	36.35
242.472	34.3
242.689	36.35
242.907	157.18
243.124	3.58
243.341	28.16
243.558	7.68
243.775	-33.28
243.992	73.21
244.209	42.5
244.426	69.12
244.643	60.93
244.86	62.98
245.078	28.16
245.295	99.84
245.512	50.69
245.729	52.74
245.946	56.83
246.163	95.74
246.38	34.3
246.597	36.35
246.814	28.16
247.031	65.02
247.248	9.73
247.464	112.13
247.681	85.5
247.898	95.74
248.115	44.54
248.332	97.79
248.549	81.41
248.766	101.89
248.983	19.97
249.2	3.58
249.417	69.12
249.633	46.59
249.85	-10.75
250.067	30.21
250.284	69.12
250.501	52.74
250.717	19.97
250.934	-27.14
251.151	-10.75
251.368	-10.75
251.585	30.21
251.801	54.78
252.018	48.64
252.235	81.41
252.451	-20.99
252.668	48.64
252.885	36.35
253.102	19.97
253.318	89.6
253.535	-27.14
253.752	22.02
253.968	36.35
254.185	-49.66
254.401	40.45
254.618	130.56
254.835	28.16
255.051	75.26
255.268	105.98
255.484	36.35
255.701	60.93
255.917	151.04
256.134	-10.75
256.351	5.63
256.567	-12.8
256.784	24.06
257	-20.99
257.217	44.54
257.433	112.13
257.65	85.5
257.866	-16.9
258.082	38.4
258.299	1.54
258.515	73.21
258.732	60.93
258.948	-51.71
259.165	-0.51
259.381	11.78
259.597	54.78
259.814	7.68
260.03	-25.09
260.246	44.54
260.463	54.78
260.679	22.02
260.895	-4.61
261.112	69.12
261.328	79.36
261.544	7.68
261.761	159.23
261.977	36.35
262.193	-29.18
262.409	3.58
262.626	28.16
262.842	30.21
263.058	-31.23
263.274	93.69
263.49	36.35
263.707	19.97
263.923	46.59
264.139	22.02
264.355	30.21
264.571	62.98
264.787	40.45
265.004	15.87
265.22	60.93
265.436	56.83
265.652	103.93
265.868	116.22
266.084	77.31
266.3	60.93
266.516	19.97
266.732	114.17
266.948	13.82
267.164	11.78
267.38	110.08
267.596	56.83
267.812	91.65
268.028	-68.09
268.244	30.21
268.46	32.26
268.676	-33.28
268.892	-27.14
269.108	48.64
269.324	36.35
269.54	46.59
269.756	101.89
269.972	-12.8
270.188	11.78
270.403	11.78
270.619	81.41
270.835	93.69
271.051	28.16
271.267	-8.7
271.483	-37.38
271.698	85.5
271.914	52.74
272.13	28.16
272.346	7.68
272.562	48.64
272.777	-12.8
272.993	19.97
273.209	28.16
273.425	77.31
273.64	52.74
273.856	60.93
274.072	48.64
274.287	60.93
274.503	40.45
274.719	-82.43
274.934	-4.61
275.15	30.21
275.366	44.54
275.581	11.78
275.797	44.54
276.012	81.41
276.228	15.87
276.444	128.51
276.659	56.83
276.875	-27.14
277.09	48.64
277.306	-0.51
277.521	69.12
277.737	3.58
277.952	126.46
278.168	32.26
278.383	62.98
278.599	26.11
278.814	65.02
279.03	15.87
279.245	44.54
279.461	5.63
279.676	130.56
279.892	36.35
280.107	-14.85
280.322	-49.66
280.538	46.59
280.753	52.74
280.969	60.93
281.184	110.08
281.399	46.59
281.615	-12.8
281.83	30.21
282.045	3.58
282.26	65.02
282.476	24.06
282.691	9.73
282.906	15.87
283.122	-0.51
283.337	24.06
283.552	52.74
283.767	89.6
283.983	22.02
284.198	52.74
284.413	56.83
284.628	3.58
284.843	83.45
285.058	87.55
285.274	34.3
285.489	24.06
285.704	30.21
285.919	77.31
286.134	17.92
286.349	13.82
286.564	101.89
286.779	89.6
286.995	-10.75
287.21	52.74
287.425	11.78
287.64	-12.8
287.855	73.21
288.07	28.16
288.285	89.6
288.5	60.93
288.715	54.78
288.93	22.02
289.145	89.6
289.36	-16.9
289.575	28.16
289.79	110.08
290.004	93.69
290.219	95.74
290.434	30.21
290.649	44.54
290.864	9.73
291.079	48.64
291.294	52.74
291.509	65.02
291.724	19.97
291.938	22.02
292.153	52.74
292.368	69.12
292.583	85.5
292.798	44.54
293.012	44.54
293.227	79.36
293.442	40.45
293.657	85.5
293.871	161.28
294.086	24.06
294.301	112.13
294.516	144.89
294.73	9.73
294.945	60.93
295.16	19.97
295.374	34.3
295.589	101.89
295.804	95.74
296.018	1.54
296.233	69.12
296.447	15.87
296.662	-18.94
296.877	95.74
297.091	69.12
297.306	44.54
297.52	3.58
297.735	93.69
297.949	97.79
298.164	85.5
298.378	124.41
298.593	79.36
298.807	13.82
299.022	42.5
299.236	114.17
299.451	93.69
299.665	17.92
299.88	52.74
300.094	93.69
300.309	24.06
300.523	22.02
300.737	-2.56
300.952	83.45
301.166	26.11
301.381	-23.04
301.595	44.54
301.809	-8.7
302.024	-18.94
302.238	69.12
302.452	118.27
302.667	-16.9
302.881	87.55
303.095	85.5
303.309	65.02
303.524	-37.38
303.738	15.87
303.952	85.5
304.166	85.5
304.381	71.17
304.595	110.08
304.809	-4.61
305.023	103.93
305.237	28.16
305.452	40.45
305.666	87.55
305.88	-8.7
306.094	62.98
306.308	110.08
306.522	40.45
306.736	75.26
306.95	81.41
307.164	71.17
307.379	44.54
307.593	95.74
307.807	60.93
308.021	69.12
308.235	36.35
308.449	3.58
308.663	-10.75
308.877	77.31
309.091	11.78
309.305	95.74
309.519	15.87
309.733	136.7
309.947	60.93
310.161	28.16
310.374	3.58
310.588	46.59
310.802	38.4
311.016	-18.94
311.23	56.83
311.444	5.63
311.658	85.5
311.872	22.02
312.085	52.74
312.299	48.64
312.513	65.02
312.727	62.98
312.941	28.16
313.154	69.12
313.368	46.59
313.582	83.45
313.796	69.12
314.009	-0.51
314.223	73.21
314.437	17.92
314.651	-4.61
314.864	24.06
315.078	91.65
315.292	36.35
315.505	15.87
315.719	60.93
315.933	30.21
316.146	95.74
316.36	71.17
316.573	134.65
316.787	56.83
317.001	11.78
317.214	44.54
317.428	79.36
317.641	65.02
317.855	52.74
318.068	19.97
318.282	3.58
318.495	85.5
318.709	114.17
318.922	-18.94
319.136	75.26
319.349	99.84
319.563	128.51
319.776	24.06
319.99	7.68
320.203	52.74
320.417	44.54
320.63	30.21
320.843	93.69
321.057	89.6
321.27	101.89
321.483	130.56
321.697	79.36
321.91	60.93
322.124	93.69
322.337	83.45
322.55	-14.85
322.763	54.78
322.977	13.82
323.19	-16.9
323.403	110.08
323.617	-2.56
323.83	120.32
324.043	95.74
324.256	112.13
324.469	36.35
324.683	77.31
324.896	99.84
325.109	69.12
325.322	-25.09
325.535	95.74
325.748	89.6
325.962	77.31
326.175	24.06
326.388	44.54
326.601	93.69
326.814	75.26
327.027	54.78
327.24	118.27
327.453	54.78
327.666	52.74
327.879	71.17
328.092	58.88
328.305	22.02
328.518	91.65
328.731	44.54
328.944	3.58
329.157	114.17
329.37	11.78
329.583	77.31
329.796	81.41
330.009	-8.7
330.222	85.5
330.435	38.4
330.648	69.12
330.861	52.74
331.073	58.88
331.286	77.31
331.499	54.78
331.712	44.54
331.925	134.65
332.138	30.21
332.35	126.46
332.563	30.21
332.776	130.56
332.989	11.78
333.202	60.93
333.414	67.07
333.627	44.54
333.84	58.88
334.053	15.87
334.265	48.64
334.478	50.69
334.691	28.16
334.903	17.92
335.116	15.87
335.329	40.45
335.541	34.3
335.754	167.42
335.966	-2.56
336.179	54.78
336.392	101.89
336.604	79.36
336.817	128.51
337.029	38.4
337.242	36.35
337.454	44.54
337.667	22.02
337.88	71.17
338.092	38.4
338.305	44.54
338.517	38.4
338.729	146.94
338.942	71.17
339.154	24.06
339.367	91.65
339.579	-25.09
339.792	58.88
340.004	44.54
340.217	36.35
340.429	73.21
340.641	38.4
340.854	69.12
341.066	-4.61
341.278	77.31
341.491	110.08
341.703	62.98
341.915	85.5
342.128	136.7
342.34	44.54
342.552	56.83
342.764	42.5
342.977	24.06
343.189	69.12
343.401	77.31
343.613	11.78
343.826	69.12
344.038	81.41
344.25	85.5
344.462	85.5
344.674	36.35
344.886	69.12
345.099	34.3
345.311	36.35
345.523	48.64
345.735	15.87
345.947	46.59
346.159	38.4
346.371	101.89
346.583	28.16
346.795	62.98
347.007	24.06
347.219	40.45
347.431	36.35
347.643	105.98
347.855	11.78
348.067	144.89
348.279	44.54
348.491	60.93
348.703	167.42
348.915	44.54
349.127	38.4
349.339	11.78
349.551	-29.18
349.763	126.46
349.975	132.61
350.187	46.59
350.399	138.75
350.61	54.78
350.822	101.89
351.034	28.16
351.246	24.06
351.458	89.6
351.669	19.97
351.881	60.93
352.093	54.78
352.305	54.78
352.517	28.16
352.728	85.5
352.94	52.74
353.152	69.12
353.363	15.87
353.575	110.08
353.787	83.45
353.999	-4.61
354.21	97.79
354.422	60.93
354.633	69.12
354.845	126.46
355.057	99.84
355.268	52.74
355.48	24.06
355.692	52.74
355.903	56.83
356.115	93.69
356.326	56.83
356.538	142.85
356.749	46.59
356.961	112.13
357.172	79.36
357.384	83.45
357.595	183.81
357.807	85.5
358.018	11.78
358.23	60.93
358.441	122.37
358.653	71.17
358.864	48.64
359.075	56.83
359.287	77.31
359.498	73.21
359.709	54.78
359.921	36.35
360.132	122.37
360.344	60.93
360.555	11.78
360.766	67.07
360.977	-2.56
361.189	110.08
361.4	87.55
361.611	85.5
361.823	128.51
362.034	89.6
362.245	-10.75
362.456	77.31
362.667	7.68
362.879	44.54
363.09	44.54
363.301	118.27
363.512	122.37
363.723	19.97
363.935	91.65
364.146	52.74
364.357	50.69
364.568	136.7
364.779	19.97
364.99	151.04
365.201	60.93
365.412	85.5
365.623	-4.61
365.834	116.22
366.045	46.59
366.256	134.65
366.467	52.74
366.678	87.55
366.889	81.41
367.1	5.63
367.311	89.6
367.522	128.51
367.733	62.98
367.944	110.08
368.155	54.78
368.366	62.98
368.577	105.98
368.788	134.65
368.999	81.41
369.209	89.6
369.42	136.7
369.631	136.7
369.842	122.37
370.053	87.55
370.264	77.31
370.474	46.59
370.685	28.16
370.896	-12.8
371.107	105.98
371.317	93.69
371.528	40.45
371.739	71.17
371.95	93.69
372.16	167.42
372.371	60.93
372.582	65.02
372.792	62.98
373.003	114.17
373.214	11.78
373.424	40.45
373.635	118.27
373.846	54.78
374.056	36.35
374.267	60.93
374.477	36.35
374.688	118.27
374.898	30.21
375.109	101.89
375.319	22.02
375.53	87.55
375.74	54.78
375.951	26.11
376.161	28.16
376.372	11.78
376.582	11.78
376.793	60.93
377.003	54.78
377.214	36.35
377.424	19.97
377.635	65.02
377.845	28.16
378.055	112.13
378.266	28.16
378.476	110.08
378.686	26.11
378.897	46.59
379.107	89.6
379.317	79.36
379.528	30.21
379.738	50.69
379.948	44.54
380.158	9.73
380.369	52.74
380.579	95.74
380.789	67.07
380.999	28.16
381.21	62.98
381.42	77.31
381.63	69.12
381.84	52.74
382.05	62.98
382.261	65.02
382.471	167.42
382.681	97.79
382.891	105.98
383.101	56.83
383.311	28.16
383.521	3.58
383.731	108.03
383.941	11.78
384.151	54.78
384.361	11.78
384.571	105.98
384.781	87.55
384.991	167.42
385.201	83.45
385.411	118.27
385.621	183.81
385.831	83.45
386.041	54.78
386.251	38.4
386.461	161.28
386.671	46.59
386.881	87.55
387.091	22.02
387.301	142.85
387.511	134.65
387.72	122.37
387.93	167.42
388.14	24.06
388.35	140.8
388.56	36.35
388.769	73.21
388.979	44.54
389.189	73.21
389.399	77.31
389.609	101.89
389.818	44.54
390.028	52.74
390.238	128.51
390.447	44.54
390.657	97.79
390.867	91.65
391.076	-2.56
391.286	38.4
391.496	105.98
391.705	138.75
391.915	144.89
392.125	130.56
392.334	60.93
392.544	153.09
392.753	54.78
392.963	77.31
393.172	44.54
393.382	38.4
393.591	167.42
393.801	128.51
394.01	151.04
394.22	77.31
394.429	85.5
394.639	62.98
394.848	192
395.058	136.7
395.267	87.55
395.477	110.08
395.686	151.04
395.895	183.81
396.105	148.99
396.314	134.65
396.524	93.69
396.733	126.46
396.942	134.65
397.152	183.81
397.361	185.85
397.57	101.89
397.78	87.55
397.989	187.9
398.198	177.66
398.407	165.37
398.617	177.66
398.826	153.09
399.035	122.37
399.244	163.33
399.453	200.19
399.663	122.37
399.872	159.23
400.081	60.93
400.29	151.04
400.499	126.46
400.708	212.48
400.917	114.17
401.127	167.42
401.336	151.04
401.545	79.36
401.754	142.85
401.963	208.38
402.172	204.28
402.381	167.42
402.59	136.7
402.799	148.99
403.008	194.05
403.217	196.09
403.426	167.42
403.635	165.37
403.844	241.15
404.053	183.81
404.262	124.41
404.471	267.77
404.68	175.61
404.888	243.2
405.097	192
405.306	224.76
405.515	155.13
405.724	161.28
405.933	192
406.142	216.57
406.35	216.57
406.559	216.57
406.768	243.2
406.977	380.41
407.185	310.78
407.394	273.92
407.603	253.44
407.812	339.45
408.02	335.35
408.229	388.6
408.438	296.44
408.646	290.3
408.855	339.45
409.064	351.74
409.272	335.35
409.481	364.03
409.69	400.89
409.898	413.18
410.107	441.85
410.315	470.52
410.524	454.14
410.733	423.42
410.941	462.33
411.15	454.14
411.358	482.81
411.567	552.44
411.775	536.06
411.984	609.78
412.192	593.4
412.401	611.83
412.609	681.46
412.818	644.6
413.026	685.56
413.234	679.41
413.443	777.72
413.651	736.76
413.86	761.33
414.068	855.54
414.276	749.04
414.485	949.75
414.693	853.49
414.901	937.46
415.11	1000.94
415.318	882.16
415.526	1027.57
415.734	1074.67
415.943	1062.38
416.151	1187.31
416.359	1160.69
416.567	1191.41
416.776	1148.4
416.984	1293.8
417.192	1357.29
417.4	1365.48
417.608	1474.03
417.817	1439.21
418.025	1431.02
418.233	1644.01
418.441	1537.51
418.649	1629.67
418.857	1779.17
419.065	1852.9
419.273	1863.14
419.481	1822.18
419.689	1897.96
419.897	1994.21
420.105	2088.42
420.313	2160.1
420.521	2272.73
420.729	2305.5
420.937	2315.74
421.145	2430.43
421.353	2586.07
421.561	2657.75
421.769	2788.82
421.977	2797.01
422.185	2784.73
422.393	3003.86
422.601	3120.59
422.809	3108.3
423.017	3235.28
423.224	3163.6
423.432	3444.17
423.64	3550.67
423.848	3773.89
424.056	3632.58
424.263	3960.26
424.471	3909.06
424.679	4001.22
424.887	4306.37
425.094	4439.48
425.302	4281.79
425.51	4527.55
425.718	4611.51
425.925	4660.66
426.133	5019.06
426.341	5103.03
426.548	5346.73
426.756	5361.07
426.964	5567.92
427.171	5735.85
427.379	5920.17
427.586	6026.66
427.794	6122.91
428.001	6483.36
428.209	6696.35
428.417	6454.69
428.624	7083.41
428.832	6974.87
429.039	6925.72
429.247	6962.58
429.454	7726.47
429.662	8084.87
429.869	7597.45
430.076	8138.12
430.284	7894.41
430.491	8246.66
430.699	8719.74
430.906	8908.15
431.114	8865.14
431.321	9092.47
431.528	9422.19
431.736	9907.56
431.943	10507.62
432.15	10331.49
432.358	10184.04
432.565	10837.34
432.772	10554.72
432.979	11392.34
433.187	11726.16
433.394	11638.09
433.601	12377.41
433.808	12477.76
434.016	12164.42
434.223	12774.72
434.43	13661.49
434.637	13440.31
434.844	14421.28
435.052	14286.12
435.259	14335.27
435.466	14673.18
435.673	14335.27
435.88	15273.24
436.087	15990.03
436.294	15977.74
436.501	15615.25
436.708	15969.55
436.915	16569.6
437.122	17376.5
437.329	17272.06
437.537	17820.91
437.743	18146.54
437.95	17855.73
438.157	18908.38
438.364	19309.79
438.571	19520.73
438.778	19655.89
438.985	21372.09
439.192	20417.74
439.399	21048.51
439.606	20262.09
439.813	21470.39
440.02	23112.86
440.227	22707.37
440.433	22465.71
440.64	23489.69
440.847	22754.47
441.054	23493.79
441.261	25234.56
441.467	24839.3
441.674	24956.04
441.881	26313.84
442.088	26160.24
442.294	25891.96
442.501	26692.71
442.708	27133.03
442.914	28230.74
443.121	29465.66
443.328	28322.9
443.534	30727.21
443.741	29525.05
443.948	29144.13
444.154	31691.8
444.361	31179.81
444.568	31265.83
444.774	31513.63
444.981	31632.41
445.187	32300.05
445.394	33872.89
445.6	33526.78
445.807	36842.45
446.013	35259.37
446.22	35914.72
446.426	37137.35
446.633	37430.21
446.839	38859.7
447.046	37608.39
447.252	38945.71
447.459	39285.67
447.665	39402.41
447.871	40922
448.078	42562.42
448.284	40661.91
448.491	41325.45
448.697	43080.56
448.903	43787.11
449.11	44122.97
449.316	43555.69
449.522	44133.21
449.728	45341.52
449.935	45720.39
450.141	45654.86
450.347	46742.33
450.553	45026.13
450.76	45642.57
450.966	47022.9
451.172	46410.56
451.378	47913.76
451.584	46953.27
451.791	47555.37
451.997	47618.86
452.203	48562.97
452.409	48548.64
452.615	48298.78
452.821	46572.35
453.027	46453.56
453.233	48737.05
453.44	46277.44
453.646	47272.75
453.852	47459.12
454.058	47979.3
454.264	46805.81
454.47	47416.11
454.676	46435.13
454.882	48026.4
455.088	43930.47
455.294	44428.12
455.5	45284.17
455.705	46060.35
455.911	44374.87
456.117	43092.85
456.323	42287.99
456.529	40606.61
456.735	42144.64
456.941	41149.32
457.147	40414.1
457.352	39318.44
457.558	38964.14
457.764	38994.86
457.97	38087.61
458.176	37362.63
458.381	37032.91
458.587	35302.37
458.793	35728.35
458.999	33776.64
459.204	35871.71
459.41	35320.81
459.616	32787.47
459.821	32982.02
460.027	32789.52
460.233	31876.12
460.438	30317.62
460.644	30477.36
460.85	29207.62
461.055	29041.73
461.261	28734.54
461.466	26580.07
461.672	25820.28
461.878	27749.46
462.083	25973.88
462.289	25523.32
462.494	25054.34
462.7	24200.33
462.905	23043.23
463.111	24398.99
463.316	24413.32
463.522	23786.65
463.727	23563.42
463.932	23493.79
464.138	23649.43
464.343	23442.59
464.549	22809.76
464.754	23561.37
464.959	23250.08
465.165	23192.73
465.37	22150.32
465.575	21617.85
465.781	22281.39
465.986	22396.07
466.191	21585.08
466.397	21308.6
