Data from USB4F104151__297__14-34-56-272.txt Node

Date: Thu Mar 13 14:34:56 EDT 2025
User: louis
Spectrometer: USB4F10415
Trigger mode: 4
Integration Time (sec): 2.500000E-2
Scans to average: 1
Electric dark correction enabled: true
Nonlinearity correction enabled: false
Boxcar width: 0
XAxis mode: Wavelengths
Number of Pixels in Spectrum: 3648
>>>>>Begin Spectral Data<<<<<
178.204	-228.35
178.424	-228.35
178.644	-228.35
178.864	-166.91
179.084	-156.67
179.304	-29.7
179.524	7.17
179.744	-23.55
179.964	-3.07
180.184	-3.07
180.404	44.03
180.624	72.7
180.844	-44.03
181.064	-56.32
181.283	39.94
181.503	-11.26
181.723	7.17
181.943	23.55
182.163	111.61
182.383	-31.74
182.602	54.27
182.822	3.07
183.042	56.32
183.262	37.89
183.482	29.7
183.701	11.26
183.921	-64.51
184.141	-35.84
184.361	15.36
184.58	-31.74
184.8	35.84
185.02	21.5
185.239	80.89
185.459	99.33
185.679	70.65
185.898	5.12
186.118	21.5
186.338	-11.26
186.557	11.26
186.777	46.08
186.997	-9.22
187.216	62.46
187.436	-3.07
187.655	1.02
187.875	21.5
188.095	-5.12
188.314	72.7
188.534	46.08
188.753	-11.26
188.973	39.94
189.192	80.89
189.412	41.98
189.631	-11.26
189.851	107.52
190.07	91.13
190.29	31.74
190.509	58.37
190.729	-3.07
190.948	101.37
191.168	156.67
191.387	89.09
191.607	-1.02
191.826	64.51
192.045	29.7
192.265	-27.65
192.484	-11.26
192.704	78.85
192.923	15.36
193.142	95.23
193.362	31.74
193.581	128
193.8	46.08
194.02	99.33
194.239	37.89
194.458	21.5
194.678	-27.65
194.897	5.12
195.116	29.7
195.335	54.27
195.555	-13.31
195.774	41.98
195.993	54.27
196.212	31.74
196.432	17.41
196.651	105.47
196.87	1.02
197.089	130.05
197.308	68.61
197.528	62.46
197.747	19.46
197.966	25.6
198.185	13.31
198.404	1.02
198.623	-1.02
198.842	-7.17
199.062	41.98
199.281	78.85
199.5	-5.12
199.719	82.94
199.938	41.98
200.157	44.03
200.376	52.22
200.595	78.85
200.814	15.36
201.033	111.61
201.252	72.7
201.471	46.08
201.69	117.76
201.909	54.27
202.128	56.32
202.347	46.08
202.566	25.6
202.785	-39.94
203.004	-25.6
203.223	89.09
203.442	21.5
203.661	-17.41
203.879	54.27
204.098	46.08
204.317	-9.22
204.536	23.55
204.755	39.94
204.974	39.94
205.193	5.12
205.411	105.47
205.63	-21.5
205.849	13.31
206.068	33.79
206.287	41.98
206.505	15.36
206.724	37.89
206.943	-35.84
207.162	15.36
207.381	7.17
207.599	-5.12
207.818	13.31
208.037	29.7
208.255	-27.65
208.474	13.31
208.693	41.98
208.911	80.89
209.13	-19.46
209.349	33.79
209.567	54.27
209.786	25.6
210.005	31.74
210.223	-33.79
210.442	31.74
210.661	70.65
210.879	58.37
211.098	15.36
211.316	35.84
211.535	70.65
211.753	54.27
211.972	54.27
212.191	-17.41
212.409	115.71
212.628	21.5
212.846	58.37
213.065	37.89
213.283	48.13
213.502	-3.07
213.72	-23.55
213.938	105.47
214.157	89.09
214.375	23.55
214.594	13.31
214.812	21.5
215.031	115.71
215.249	37.89
215.467	46.08
215.686	72.7
215.904	62.46
216.122	52.22
216.341	119.81
216.559	80.89
216.778	9.22
216.996	46.08
217.214	60.42
217.432	-29.7
217.651	35.84
217.869	46.08
218.087	23.55
218.306	70.65
218.524	-11.26
218.742	-9.22
218.96	29.7
219.179	39.94
219.397	95.23
219.615	87.04
219.833	48.13
220.051	-13.31
220.27	72.7
220.488	62.46
220.706	25.6
220.924	17.41
221.142	-15.36
221.36	7.17
221.578	50.18
221.796	39.94
222.015	56.32
222.233	-44.03
222.451	5.12
222.669	-11.26
222.887	46.08
223.105	-17.41
223.323	-23.55
223.541	15.36
223.759	48.13
223.977	-3.07
224.195	54.27
224.413	13.31
224.631	95.23
224.849	-11.26
225.067	72.7
225.285	21.5
225.503	1.02
225.721	-56.32
225.939	21.5
226.157	70.65
226.375	105.47
226.592	37.89
226.81	9.22
227.028	62.46
227.246	78.85
227.464	17.41
227.682	-27.65
227.9	-23.55
228.117	50.18
228.335	5.12
228.553	17.41
228.771	-3.07
228.989	82.94
229.206	70.65
229.424	62.46
229.642	9.22
229.86	13.31
230.077	54.27
230.295	70.65
230.513	111.61
230.731	58.37
230.948	99.33
231.166	27.65
231.384	-7.17
231.601	48.13
231.819	58.37
232.037	82.94
232.254	-23.55
232.472	37.89
232.689	39.94
232.907	128
233.125	-15.36
233.342	13.31
233.56	-44.03
233.777	-5.12
233.995	1.02
234.213	37.89
234.43	48.13
234.648	41.98
234.865	50.18
235.083	119.81
235.3	-52.22
235.518	48.13
235.735	80.89
235.953	62.46
236.17	-39.94
236.388	33.79
236.605	111.61
236.822	21.5
237.04	-37.89
237.257	37.89
237.475	-21.5
237.692	50.18
237.909	35.84
238.127	29.7
238.344	50.18
238.562	9.22
238.779	-7.17
238.996	5.12
239.214	13.31
239.431	105.47
239.648	11.26
239.865	27.65
240.083	41.98
240.3	56.32
240.517	-39.94
240.735	-9.22
240.952	39.94
241.169	25.6
241.386	13.31
241.603	54.27
241.821	-9.22
242.038	70.65
242.255	50.18
242.472	23.55
242.689	91.13
242.907	7.17
243.124	27.65
243.341	41.98
243.558	9.22
243.775	-66.56
243.992	-68.61
244.209	64.51
244.426	89.09
244.643	-44.03
244.86	-7.17
245.078	33.79
245.295	113.66
245.512	-35.84
245.729	56.32
245.946	62.46
246.163	31.74
246.38	25.6
246.597	5.12
246.814	54.27
247.031	66.56
247.248	136.19
247.464	68.61
247.681	5.12
247.898	-35.84
248.115	27.65
248.332	7.17
248.549	76.8
248.766	60.42
248.983	46.08
249.2	50.18
249.417	84.99
249.633	15.36
249.85	105.47
250.067	76.8
250.284	21.5
250.501	78.85
250.717	-3.07
250.934	9.22
251.151	89.09
251.368	46.08
251.585	97.28
251.801	33.79
252.018	-68.61
252.235	107.52
252.451	29.7
252.668	-3.07
252.885	50.18
253.102	48.13
253.318	13.31
253.535	1.02
253.752	25.6
253.968	37.89
254.185	-23.55
254.401	21.5
254.618	70.65
254.835	13.31
255.051	168.96
255.268	54.27
255.484	74.75
255.701	-7.17
255.917	31.74
256.134	48.13
256.351	56.32
256.567	25.6
256.784	29.7
257	27.65
257.217	41.98
257.433	64.51
257.65	21.5
257.866	107.52
258.082	-1.02
258.299	-107.52
258.515	39.94
258.732	-27.65
258.948	-9.22
259.165	78.85
259.381	-5.12
259.597	41.98
259.814	21.5
260.03	35.84
260.246	13.31
260.463	41.98
260.679	46.08
260.895	23.55
261.112	52.22
261.328	17.41
261.544	70.65
261.761	23.55
261.977	54.27
262.193	41.98
262.409	70.65
262.626	7.17
262.842	130.05
263.058	-74.75
263.274	46.08
263.49	87.04
263.707	91.13
263.923	15.36
264.139	46.08
264.355	33.79
264.571	25.6
264.787	46.08
265.004	35.84
265.22	78.85
265.436	-11.26
265.652	-17.41
265.868	41.98
266.084	-27.65
266.3	-3.07
266.516	46.08
266.732	-17.41
266.948	-25.6
267.164	-27.65
267.38	1.02
267.596	15.36
267.812	80.89
268.028	72.7
268.244	-93.18
268.46	15.36
268.676	58.37
268.892	62.46
269.108	-35.84
269.324	27.65
269.54	31.74
269.756	62.46
269.972	5.12
270.188	17.41
270.403	21.5
270.619	111.61
270.835	97.28
271.051	31.74
271.267	15.36
271.483	62.46
271.698	17.41
271.914	44.03
272.13	37.89
272.346	48.13
272.562	9.22
272.777	58.37
272.993	50.18
273.209	29.7
273.425	87.04
273.64	54.27
273.856	-5.12
274.072	5.12
274.287	52.22
274.503	64.51
274.719	41.98
274.934	13.31
275.15	78.85
275.366	-7.17
275.581	5.12
275.797	80.89
276.012	15.36
276.228	62.46
276.444	33.79
276.659	62.46
276.875	31.74
277.09	-3.07
277.306	95.23
277.521	56.32
277.737	29.7
277.952	82.94
278.168	56.32
278.383	7.17
278.599	33.79
278.814	7.17
279.03	7.17
279.245	76.8
279.461	-11.26
279.676	21.5
279.892	13.31
280.107	37.89
280.322	5.12
280.538	134.14
280.753	50.18
280.969	72.7
281.184	-39.94
281.399	70.65
281.615	95.23
281.83	121.85
282.045	44.03
282.26	-1.02
282.476	27.65
282.691	62.46
282.906	56.32
283.122	-33.79
283.337	5.12
283.552	62.46
283.767	-33.79
283.983	64.51
284.198	37.89
284.413	29.7
284.628	-1.02
284.843	46.08
285.058	-1.02
285.274	82.94
285.489	-68.61
285.704	68.61
285.919	-19.46
286.134	-1.02
286.349	25.6
286.564	44.03
286.779	54.27
286.995	3.07
287.21	-54.27
287.425	-1.02
287.64	35.84
287.855	54.27
288.07	-41.98
288.285	31.74
288.5	31.74
288.715	54.27
288.93	23.55
289.145	29.7
289.36	54.27
289.575	27.65
289.79	64.51
290.004	13.31
290.219	31.74
290.434	103.42
290.649	17.41
290.864	78.85
291.079	52.22
291.294	50.18
291.509	9.22
291.724	52.22
291.938	46.08
292.153	46.08
292.368	64.51
292.583	52.22
292.798	80.89
293.012	148.48
293.227	15.36
293.442	13.31
293.657	21.5
293.871	95.23
294.086	-11.26
294.301	21.5
294.516	78.85
294.73	62.46
294.945	27.65
295.16	-33.79
295.374	156.67
295.589	37.89
295.804	-5.12
296.018	3.07
296.233	48.13
296.447	97.28
296.662	31.74
296.877	70.65
297.091	25.6
297.306	-1.02
297.52	23.55
297.735	46.08
297.949	25.6
298.164	56.32
298.378	58.37
298.593	99.33
298.807	39.94
299.022	117.76
299.236	46.08
299.451	-3.07
299.665	41.98
299.88	46.08
300.094	13.31
300.309	109.57
300.523	41.98
300.737	9.22
300.952	68.61
301.166	89.09
301.381	15.36
301.595	9.22
301.809	7.17
302.024	68.61
302.238	48.13
302.452	140.29
302.667	-23.55
302.881	13.31
303.095	80.89
303.309	54.27
303.524	37.89
303.738	78.85
303.952	-25.6
304.166	111.61
304.381	-27.65
304.595	72.7
304.809	44.03
305.023	72.7
305.237	5.12
305.452	107.52
305.666	64.51
305.88	97.28
306.094	41.98
306.308	78.85
306.522	54.27
306.736	70.65
306.95	72.7
307.164	66.56
307.379	17.41
307.593	113.66
307.807	17.41
308.021	62.46
308.235	66.56
308.449	13.31
308.663	-60.42
308.877	105.47
309.091	-25.6
309.305	1.02
309.519	78.85
309.733	76.8
309.947	54.27
310.161	58.37
310.374	103.42
310.588	50.18
310.802	-3.07
311.016	25.6
311.23	37.89
311.444	29.7
311.658	72.7
311.872	74.75
312.085	62.46
312.299	103.42
312.513	119.81
312.727	54.27
312.941	17.41
313.154	-27.65
313.368	17.41
313.582	82.94
313.796	31.74
314.009	78.85
314.223	72.7
314.437	109.57
314.651	130.05
314.864	19.46
315.078	64.51
315.292	33.79
315.505	7.17
315.719	70.65
315.933	29.7
316.146	23.55
316.36	1.02
316.573	82.94
316.787	89.09
317.001	17.41
317.214	29.7
317.428	37.89
317.641	-23.55
317.855	46.08
318.068	39.94
318.282	99.33
318.495	84.99
318.709	70.65
318.922	62.46
319.136	66.56
319.349	13.31
319.563	64.51
319.776	3.07
319.99	19.46
320.203	17.41
320.417	82.94
320.63	48.13
320.843	29.7
321.057	89.09
321.27	91.13
321.483	-33.79
321.697	109.57
321.91	13.31
322.124	80.89
322.337	70.65
322.55	62.46
322.763	29.7
322.977	9.22
323.19	-5.12
323.403	7.17
323.617	46.08
323.83	132.09
324.043	-3.07
324.256	15.36
324.469	17.41
324.683	72.7
324.896	17.41
325.109	-3.07
325.322	17.41
325.535	62.46
325.748	95.23
325.962	39.94
326.175	78.85
326.388	130.05
326.601	99.33
326.814	15.36
327.027	-9.22
327.24	115.71
327.453	41.98
327.666	15.36
327.879	105.47
328.092	136.19
328.305	128
328.518	41.98
328.731	72.7
328.944	82.94
329.157	66.56
329.37	54.27
329.583	78.85
329.796	146.43
330.009	31.74
330.222	74.75
330.435	-25.6
330.648	48.13
330.861	21.5
331.073	66.56
331.286	-11.26
331.499	72.7
331.712	17.41
331.925	46.08
332.138	87.04
332.35	78.85
332.563	-39.94
332.776	39.94
332.989	41.98
333.202	89.09
333.414	-3.07
333.627	-5.12
333.84	58.37
334.053	97.28
334.265	46.08
334.478	17.41
334.691	44.03
334.903	64.51
335.116	125.95
335.329	37.89
335.541	105.47
335.754	101.37
335.966	48.13
336.179	68.61
336.392	48.13
336.604	54.27
336.817	89.09
337.029	89.09
337.242	48.13
337.454	46.08
337.667	72.7
337.88	160.77
338.092	9.22
338.305	93.18
338.517	-7.17
338.729	58.37
338.942	74.75
339.154	115.71
339.367	13.31
339.579	89.09
339.792	-54.27
340.004	74.75
340.217	46.08
340.429	84.99
340.641	58.37
340.854	25.6
341.066	29.7
341.278	56.32
341.491	50.18
341.703	44.03
341.915	-31.74
342.128	84.99
342.34	48.13
342.552	-11.26
342.764	52.22
342.977	82.94
343.189	64.51
343.401	48.13
343.613	-11.26
343.826	64.51
344.038	54.27
344.25	33.79
344.462	-23.55
344.674	-27.65
344.886	58.37
345.099	46.08
345.311	46.08
345.523	54.27
345.735	3.07
345.947	48.13
346.159	62.46
346.371	78.85
346.583	11.26
346.795	89.09
347.007	33.79
347.219	62.46
347.431	46.08
347.643	46.08
347.855	21.5
348.067	29.7
348.279	21.5
348.491	41.98
348.703	46.08
348.915	46.08
349.127	54.27
349.339	56.32
349.551	56.32
349.763	115.71
349.975	39.94
350.187	82.94
350.399	78.85
350.61	33.79
350.822	37.89
351.034	80.89
351.246	21.5
351.458	128
351.669	64.51
351.881	91.13
352.093	111.61
352.305	29.7
352.517	107.52
352.728	111.61
352.94	64.51
353.152	70.65
353.363	-33.79
353.575	89.09
353.787	99.33
353.999	29.7
354.21	136.19
354.422	3.07
354.633	-11.26
354.845	87.04
355.057	25.6
355.268	39.94
355.48	39.94
355.692	46.08
355.903	60.42
356.115	-3.07
356.326	-21.5
356.538	152.57
356.749	5.12
356.961	95.23
357.172	41.98
357.384	37.89
357.595	97.28
357.807	78.85
358.018	41.98
358.23	31.74
358.441	162.81
358.653	82.94
358.864	76.8
359.075	82.94
359.287	50.18
359.498	109.57
359.709	50.18
359.921	56.32
360.132	82.94
360.344	123.9
360.555	25.6
360.766	56.32
360.977	29.7
361.189	138.24
361.4	23.55
361.611	97.28
361.823	37.89
362.034	93.18
362.245	78.85
362.456	17.41
362.667	111.61
362.879	35.84
363.09	21.5
363.301	89.09
363.512	48.13
363.723	54.27
363.935	70.65
364.146	87.04
364.357	-3.07
364.568	138.24
364.779	-25.6
364.99	78.85
365.201	-9.22
365.412	103.42
365.623	56.32
365.834	50.18
366.045	-11.26
366.256	62.46
366.467	58.37
366.678	25.6
366.889	48.13
367.1	13.31
367.311	21.5
367.522	33.79
367.733	76.8
367.944	95.23
368.155	9.22
368.366	113.66
368.577	29.7
368.788	89.09
368.999	31.74
369.209	95.23
369.42	99.33
369.631	121.85
369.842	99.33
370.053	80.89
370.264	50.18
370.474	76.8
370.685	89.09
370.896	5.12
371.107	101.37
371.317	70.65
371.528	111.61
371.739	154.62
371.95	-13.31
372.16	91.13
372.371	-1.02
372.582	91.13
372.792	132.09
373.003	29.7
373.214	91.13
373.424	144.38
373.635	105.47
373.846	62.46
374.056	56.32
374.267	25.6
374.477	105.47
374.688	23.55
374.898	1.02
375.109	37.89
375.319	46.08
375.53	123.9
375.74	3.07
375.951	70.65
376.161	87.04
376.372	58.37
376.582	87.04
376.793	21.5
377.003	13.31
377.214	89.09
377.424	66.56
377.635	113.66
377.845	70.65
378.055	87.04
378.266	89.09
378.476	70.65
378.686	11.26
378.897	119.81
379.107	103.42
379.317	152.57
379.528	-39.94
379.738	99.33
379.948	48.13
380.158	148.48
380.369	121.85
380.579	154.62
380.789	72.7
380.999	113.66
381.21	33.79
381.42	95.23
381.63	37.89
381.84	78.85
382.05	62.46
382.261	54.27
382.471	115.71
382.681	21.5
382.891	62.46
383.101	95.23
383.311	128
383.521	46.08
383.731	177.15
383.941	82.94
384.151	91.13
384.361	123.9
384.571	66.56
384.781	78.85
384.991	136.19
385.201	152.57
385.411	70.65
385.621	121.85
385.831	72.7
386.041	1.02
386.251	44.03
386.461	128
386.671	97.28
386.881	56.32
387.091	62.46
387.301	70.65
387.511	50.18
387.72	113.66
387.93	99.33
388.14	11.26
388.35	95.23
388.56	103.42
388.769	46.08
388.979	64.51
389.189	37.89
389.399	119.81
389.609	78.85
389.818	54.27
390.028	111.61
390.238	17.41
390.447	70.65
390.657	78.85
390.867	29.7
391.076	72.7
391.286	70.65
391.496	39.94
391.705	78.85
391.915	123.9
392.125	105.47
392.334	152.57
392.544	80.89
392.753	25.6
392.963	31.74
393.172	80.89
393.382	27.65
393.591	130.05
393.801	109.57
394.01	93.18
394.22	76.8
394.429	105.47
394.639	95.23
394.848	80.89
395.058	166.91
395.267	128
395.477	154.62
395.686	128
395.895	78.85
396.105	164.86
396.314	70.65
396.524	117.76
396.733	130.05
396.942	173.05
397.152	70.65
397.361	128
397.57	156.67
397.78	78.85
397.989	138.24
398.198	177.15
398.407	72.7
398.617	160.77
398.826	154.62
399.035	152.57
399.244	93.18
399.453	103.42
399.663	209.92
399.872	152.57
400.081	101.37
400.29	173.05
400.499	21.5
400.708	156.67
400.917	99.33
401.127	203.77
401.336	111.61
401.545	154.62
401.754	181.25
401.963	138.24
402.172	56.32
402.381	148.48
402.59	140.29
402.799	119.81
403.008	119.81
403.217	136.19
403.426	187.39
403.635	134.14
403.844	111.61
404.053	173.05
404.262	91.13
404.471	171.01
404.68	197.63
404.888	205.82
405.097	193.53
405.306	193.53
405.515	267.26
405.724	185.34
405.933	164.86
406.142	242.68
406.35	214.01
406.559	238.59
406.768	265.21
406.977	283.64
407.185	302.08
407.394	259.07
407.603	211.96
407.812	252.92
408.02	238.59
408.229	326.65
408.438	324.6
408.646	308.22
408.855	279.55
409.064	381.95
409.272	324.6
409.481	410.62
409.69	375.8
409.898	416.76
410.107	410.62
410.315	381.95
410.524	324.6
410.733	418.81
410.941	498.68
411.15	492.54
411.358	545.78
411.567	566.26
411.775	517.11
411.984	447.48
412.192	531.45
412.401	543.74
412.609	648.18
412.818	676.85
413.026	625.65
413.234	693.24
413.443	744.44
413.651	775.16
413.86	793.59
414.068	807.92
414.276	893.94
414.485	859.12
414.693	826.36
414.901	938.99
415.11	922.61
415.318	998.38
415.526	934.9
415.734	1070.06
415.943	1121.26
416.151	1197.04
416.359	1156.08
416.567	1160.17
416.776	1332.2
416.984	1336.3
417.192	1350.64
417.4	1334.25
417.608	1336.3
417.817	1389.55
418.025	1520.62
418.233	1627.11
418.441	1586.15
418.649	1471.47
418.857	1752.04
419.065	1827.81
419.273	1643.49
419.481	1809.38
419.689	1913.83
419.897	2055.14
420.105	2073.57
420.313	2130.91
420.521	2216.93
420.729	2245.6
420.937	2431.96
421.145	2460.63
421.353	2587.61
421.561	2675.67
421.769	2644.95
421.977	2790.36
422.185	2755.54
422.393	2880.47
422.601	2982.87
422.809	3195.86
423.017	3167.18
423.224	3242.96
423.432	3404.75
423.64	3343.31
423.848	3703.75
424.056	3734.47
424.263	3994.56
424.471	3886.02
424.679	4019.14
424.887	4307.9
425.094	4172.74
425.302	4361.15
425.51	4496.32
425.718	4717.5
425.925	4760.5
426.133	4815.8
426.341	5268.4
426.548	5424.05
426.756	5307.31
426.964	5407.66
427.171	5692.33
427.379	5903.27
427.586	6038.44
427.794	6163.36
428.001	6437.79
428.209	6699.93
428.417	6689.69
428.624	7087
428.832	7125.91
429.039	6962.07
429.247	7130
429.454	7697.29
429.662	8340.35
429.869	7777.16
430.076	8190.85
430.284	8072.07
430.491	8256.39
430.699	8786.81
430.906	8684.41
431.114	8893.3
431.321	9110.39
431.528	9483.12
431.736	9839.47
431.943	10478.43
432.15	10232.68
432.358	10320.74
432.565	10861.4
432.772	10836.83
432.979	11187.03
433.187	11461.46
433.394	11604.81
433.601	12245.83
433.808	12426.05
434.016	12301.12
434.223	12847.93
434.43	13390.64
434.637	13202.23
434.844	14138.15
435.052	14486.31
435.259	14185.26
435.466	14351.14
435.673	14443.3
435.88	15250.2
436.087	16059.15
436.294	15889.17
436.501	15602.45
436.708	15864.59
436.915	16605.95
437.122	17337.08
437.329	17408.76
437.537	17638.13
437.743	17961.71
437.95	17720.05
438.157	18778.85
438.364	19432.15
438.571	19505.88
438.778	19473.11
438.985	21211.84
439.192	20402.89
439.399	20992.7
439.606	20368.07
439.813	22000.3
440.02	23102.11
440.227	22581.93
440.433	22528.68
440.64	22919.84
440.847	22901.41
441.054	23327.39
441.261	24922.76
441.467	24699.53
441.674	25215.62
441.881	26104.43
442.088	26137.2
442.294	25909.88
442.501	26491.5
442.708	26899.05
442.914	28002.9
443.121	29291.07
443.328	27988.56
443.534	30218.8
443.741	29430.33
443.948	28918.34
444.154	31334.95
444.361	31341.09
444.568	31552.03
444.774	31347.23
444.981	31750.68
445.187	32463.38
445.394	33784.32
445.6	33671.68
445.807	36803.02
446.013	35013.1
446.22	35168.74
446.426	36893.13
446.633	37120.46
446.839	38640.05
447.046	36938.19
447.252	39418.28
447.459	39090.6
447.665	38916.53
447.871	40929.68
448.078	42117.5
448.284	40526.23
448.491	41220.49
448.697	42668.4
448.903	43731.3
449.11	43759.97
449.316	43239.79
449.522	44071.26
449.728	45187.41
449.935	45459.79
450.141	45496.65
450.347	46719.29
450.553	44796.24
450.76	45910.34
450.966	47112.5
451.172	46311.74
451.378	47366.45
451.584	46475.58
451.791	47700.26
451.997	47456.56
452.203	48335.13
452.409	48103.71
452.615	47966.5
452.821	46317.89
453.027	45873.48
453.233	48750.87
453.44	45826.37
453.646	46780.73
453.852	47040.82
454.058	47724.84
454.264	46299.45
454.47	47642.92
454.676	46092.61
454.882	47536.43
455.088	43727.2
455.294	44296.54
455.5	45117.78
455.705	45109.58
455.911	43786.6
456.117	42832.24
456.323	42330.49
456.529	40108.44
456.735	41419.14
456.941	40796.56
457.147	40069.53
457.352	38861.23
457.558	38347.19
457.764	38138.3
457.97	37818.81
458.176	36930
458.381	36905.42
458.587	35400.16
458.793	35238.37
458.999	33430.02
459.204	35590.62
459.41	34785.77
459.616	32490
459.821	32203.28
460.027	32723.47
460.233	31722.01
460.438	30104.12
460.644	30337.59
460.85	29342.27
461.055	28617.29
461.261	28482.13
461.466	26208.88
461.672	25522.81
461.878	27226.72
462.083	25797.24
462.289	25010.82
462.494	24924.8
462.7	23823
462.905	23149.21
463.111	23782.04
463.316	24210.06
463.522	23341.72
463.727	23427.74
463.932	23466.65
464.138	23102.11
464.343	23548.57
464.549	22457
464.754	23329.44
464.959	23009.95
465.165	22925.99
465.37	21779.12
465.575	21453.5
465.781	22186.67
465.986	21918.39
466.191	21527.22
466.397	21158.59
466.602	20046.54
466.807	20628.17
467.012	20781.76
467.218	20517.57
467.423	20261.58
467.628	20568.77
