Data from USB4F104151__239__14-34-06-811.txt Node

Date: Thu Mar 13 14:34:06 EDT 2025
User: louis
Spectrometer: USB4F10415
Trigger mode: 4
Integration Time (sec): 2.500000E-2
Scans to average: 1
Electric dark correction enabled: true
Nonlinearity correction enabled: false
Boxcar width: 0
XAxis mode: Wavelengths
Number of Pixels in Spectrum: 3648
>>>>>Begin Spectral Data<<<<<
178.204	-108.03
178.424	-108.03
178.644	-108.03
178.864	-179.71
179.084	-99.84
179.304	-50.69
179.524	2.56
179.744	-1.54
179.964	61.95
180.184	-3.58
180.404	-32.26
180.624	18.94
180.844	-5.63
181.064	-52.74
181.283	10.75
181.503	-5.63
181.723	57.86
181.943	-15.87
182.163	86.53
182.383	-3.58
182.602	82.43
182.822	109.05
183.042	72.19
183.262	-46.59
183.482	94.72
183.701	4.61
183.921	41.47
184.141	16.9
184.361	39.42
184.58	66.05
184.8	16.9
185.02	29.18
185.239	70.14
185.459	31.23
185.679	98.81
185.898	64
186.118	104.96
186.338	61.95
186.557	14.85
186.777	-1.54
186.997	51.71
187.216	64
187.436	51.71
187.655	55.81
187.875	45.57
188.095	45.57
188.314	74.24
188.534	23.04
188.753	-3.58
188.973	39.42
189.192	64
189.412	68.09
189.631	66.05
189.851	80.38
190.07	104.96
190.29	16.9
190.509	8.7
190.729	45.57
190.948	37.38
191.168	145.92
191.387	113.15
191.607	39.42
191.826	20.99
192.045	72.19
192.265	70.14
192.484	55.81
192.704	-19.97
192.923	25.09
193.142	111.1
193.362	33.28
193.581	96.77
193.8	23.04
194.02	-3.58
194.239	-1.54
194.458	14.85
194.678	41.47
194.897	33.28
195.116	-17.92
195.335	64
195.555	-26.11
195.774	37.38
195.993	102.91
196.212	66.05
196.432	37.38
196.651	49.66
196.87	20.99
197.089	61.95
197.308	86.53
197.528	92.67
197.747	-30.21
197.966	109.05
198.185	100.86
198.404	8.7
198.623	72.19
198.842	23.04
199.062	102.91
199.281	100.86
199.5	72.19
199.719	20.99
199.938	78.33
200.157	47.62
200.376	-11.78
200.595	37.38
200.814	2.56
201.033	53.76
201.252	78.33
201.471	55.81
201.69	127.49
201.909	27.14
202.128	64
202.347	4.61
202.566	-11.78
202.785	37.38
203.004	45.57
203.223	152.06
203.442	53.76
203.661	61.95
203.879	84.48
204.098	45.57
204.317	61.95
204.536	90.62
204.755	59.9
204.974	51.71
205.193	39.42
205.411	127.49
205.63	94.72
205.849	37.38
206.068	-24.06
206.287	78.33
206.505	23.04
206.724	14.85
206.943	-7.68
207.162	4.61
207.381	86.53
207.599	102.91
207.818	47.62
208.037	66.05
208.255	-52.74
208.474	55.81
208.693	18.94
208.911	6.66
209.13	39.42
209.349	107.01
209.567	74.24
209.786	119.29
210.005	53.76
210.223	64
210.442	27.14
210.661	84.48
210.879	68.09
211.098	66.05
211.316	70.14
211.535	78.33
211.753	104.96
211.972	53.76
212.191	14.85
212.409	64
212.628	6.66
212.846	-17.92
213.065	49.66
213.283	64
213.502	6.66
213.72	66.05
213.938	-7.68
214.157	20.99
214.375	41.47
214.594	-17.92
214.812	90.62
215.031	18.94
215.249	47.62
215.467	88.57
215.686	8.7
215.904	70.14
216.122	49.66
216.341	37.38
216.559	20.99
216.778	86.53
216.996	115.2
217.214	78.33
217.432	80.38
217.651	53.76
217.869	16.9
218.087	78.33
218.306	4.61
218.524	61.95
218.742	53.76
218.96	70.14
219.179	55.81
219.397	78.33
219.615	193.02
219.833	80.38
220.051	20.99
220.27	94.72
220.488	68.09
220.706	49.66
220.924	-15.87
221.142	61.95
221.36	-7.68
221.578	66.05
221.796	57.86
222.015	152.06
222.233	55.81
222.451	102.91
222.669	20.99
222.887	20.99
223.105	-5.63
223.323	86.53
223.541	31.23
223.759	96.77
223.977	98.81
224.195	37.38
224.413	31.23
224.631	74.24
224.849	29.18
225.067	129.53
225.285	74.24
225.503	49.66
225.721	-17.92
225.939	86.53
226.157	45.57
226.375	107.01
226.592	-24.06
226.81	37.38
227.028	61.95
227.246	150.01
227.464	8.7
227.682	37.38
227.9	86.53
228.117	37.38
228.335	59.9
228.553	14.85
228.771	82.43
228.989	43.52
229.206	41.47
229.424	74.24
229.642	96.77
229.86	-11.78
230.077	82.43
230.295	70.14
230.513	35.33
230.731	4.61
230.948	129.53
231.166	113.15
231.384	20.99
231.601	80.38
231.819	84.48
232.037	-9.73
232.254	57.86
232.472	-1.54
232.689	-11.78
232.907	57.86
233.125	41.47
233.342	-42.5
233.56	-40.45
233.777	37.38
233.995	39.42
234.213	107.01
234.43	-1.54
234.648	37.38
234.865	111.1
235.083	-17.92
235.3	53.76
235.518	111.1
235.735	90.62
235.953	49.66
236.17	12.8
236.388	4.61
236.605	39.42
236.822	164.35
237.04	90.62
237.257	55.81
237.475	-40.45
237.692	37.38
237.909	53.76
238.127	2.56
238.344	86.53
238.562	68.09
238.779	-11.78
238.996	53.76
239.214	-1.54
239.431	94.72
239.648	88.57
239.865	37.38
240.083	119.29
240.3	86.53
240.517	70.14
240.735	45.57
240.952	90.62
241.169	111.1
241.386	68.09
241.603	61.95
241.821	33.28
242.038	78.33
242.255	14.85
242.472	12.8
242.689	57.86
242.907	96.77
243.124	25.09
243.341	-3.58
243.558	4.61
243.775	57.86
243.992	31.23
244.209	80.38
244.426	113.15
244.643	82.43
244.86	-3.58
245.078	72.19
245.295	86.53
245.512	23.04
245.729	70.14
245.946	74.24
246.163	82.43
246.38	31.23
246.597	80.38
246.814	20.99
247.031	86.53
247.248	127.49
247.464	57.86
247.681	70.14
247.898	57.86
248.115	59.9
248.332	12.8
248.549	51.71
248.766	109.05
248.983	25.09
249.2	23.04
249.417	96.77
249.633	20.99
249.85	86.53
250.067	61.95
250.284	55.81
250.501	57.86
250.717	57.86
250.934	16.9
251.151	53.76
251.368	25.09
251.585	80.38
251.801	39.42
252.018	70.14
252.235	57.86
252.451	29.18
252.668	51.71
252.885	61.95
253.102	-11.78
253.318	37.38
253.535	45.57
253.752	29.18
253.968	49.66
254.185	4.61
254.401	-13.82
254.618	61.95
254.835	61.95
255.051	154.11
255.268	55.81
255.484	41.47
255.701	74.24
255.917	55.81
256.134	-1.54
256.351	53.76
256.567	-5.63
256.784	8.7
257	12.8
257.217	61.95
257.433	25.09
257.65	66.05
257.866	94.72
258.082	86.53
258.299	12.8
258.515	127.49
258.732	55.81
258.948	57.86
259.165	53.76
259.381	49.66
259.597	70.14
259.814	96.77
260.03	82.43
260.246	25.09
260.463	113.15
260.679	47.62
260.895	2.56
261.112	72.19
261.328	23.04
261.544	37.38
261.761	82.43
261.977	37.38
262.193	20.99
262.409	86.53
262.626	133.63
262.842	4.61
263.058	-19.97
263.274	147.97
263.49	96.77
263.707	90.62
263.923	70.14
264.139	55.81
264.355	20.99
264.571	107.01
264.787	53.76
265.004	86.53
265.22	70.14
265.436	31.23
265.652	-1.54
265.868	33.28
266.084	0.51
266.3	61.95
266.516	57.86
266.732	72.19
266.948	16.9
267.164	61.95
267.38	53.76
267.596	47.62
267.812	119.29
268.028	113.15
268.244	51.71
268.46	119.29
268.676	-1.54
268.892	127.49
269.108	-19.97
269.324	25.09
269.54	8.7
269.756	86.53
269.972	86.53
270.188	64
270.403	41.47
270.619	0.51
270.835	59.9
271.051	61.95
271.267	20.99
271.483	49.66
271.698	51.71
271.914	25.09
272.13	23.04
272.346	90.62
272.562	45.57
272.777	131.58
272.993	45.57
273.209	123.39
273.425	39.42
273.64	-3.58
273.856	72.19
274.072	49.66
274.287	31.23
274.503	66.05
274.719	53.76
274.934	31.23
275.15	41.47
275.366	33.28
275.581	31.23
275.797	25.09
276.012	41.47
276.228	25.09
276.444	53.76
276.659	-42.5
276.875	-24.06
277.09	53.76
277.306	78.33
277.521	37.38
277.737	20.99
277.952	129.53
278.168	0.51
278.383	6.66
278.599	70.14
278.814	102.91
279.03	49.66
279.245	86.53
279.461	31.23
279.676	127.49
279.892	35.33
280.107	59.9
280.322	23.04
280.538	61.95
280.753	39.42
280.969	57.86
281.184	16.9
281.399	80.38
281.615	0.51
281.83	29.18
282.045	37.38
282.26	59.9
282.476	61.95
282.691	-32.26
282.906	61.95
283.122	29.18
283.337	4.61
283.552	82.43
283.767	33.28
283.983	98.81
284.198	111.1
284.413	96.77
284.628	57.86
284.843	70.14
285.058	76.29
285.274	55.81
285.489	41.47
285.704	70.14
285.919	53.76
286.134	25.09
286.349	78.33
286.564	80.38
286.779	37.38
286.995	0.51
287.21	80.38
287.425	109.05
287.64	37.38
287.855	53.76
288.07	-11.78
288.285	57.86
288.5	94.72
288.715	102.91
288.93	16.9
289.145	88.57
289.36	29.18
289.575	37.38
289.79	45.57
290.004	68.09
290.219	78.33
290.434	61.95
290.649	88.57
290.864	-32.26
291.079	4.61
291.294	115.2
291.509	55.81
291.724	45.57
291.938	70.14
292.153	41.47
292.368	41.47
292.583	53.76
292.798	119.29
293.012	88.57
293.227	70.14
293.442	78.33
293.657	115.2
293.871	158.21
294.086	123.39
294.301	90.62
294.516	78.33
294.73	86.53
294.945	53.76
295.16	37.38
295.374	117.25
295.589	82.43
295.804	39.42
296.018	47.62
296.233	27.14
296.447	27.14
296.662	-42.5
296.877	66.05
297.091	123.39
297.306	12.8
297.52	31.23
297.735	47.62
297.949	53.76
298.164	57.86
298.378	53.76
298.593	66.05
298.807	-3.58
299.022	61.95
299.236	64
299.451	29.18
299.665	31.23
299.88	4.61
300.094	72.19
300.309	82.43
300.523	94.72
300.737	29.18
300.952	66.05
301.166	102.91
301.381	35.33
301.595	16.9
301.809	150.01
302.024	59.9
302.238	12.8
302.452	129.53
302.667	47.62
302.881	131.58
303.095	109.05
303.309	61.95
303.524	88.57
303.738	111.1
303.952	45.57
304.166	94.72
304.381	-54.78
304.595	61.95
304.809	33.28
305.023	74.24
305.237	102.91
305.452	59.9
305.666	119.29
305.88	59.9
306.094	86.53
306.308	86.53
306.522	55.81
306.736	45.57
306.95	119.29
307.164	23.04
307.379	72.19
307.593	127.49
307.807	76.29
308.021	82.43
308.235	10.75
308.449	12.8
308.663	-1.54
308.877	90.62
309.091	55.81
309.305	20.99
309.519	53.76
309.733	41.47
309.947	55.81
310.161	61.95
310.374	119.29
310.588	139.77
310.802	-1.54
311.016	20.99
311.23	53.76
311.444	6.66
311.658	-7.68
311.872	100.86
312.085	12.8
312.299	123.39
312.513	156.16
312.727	49.66
312.941	20.99
313.154	47.62
313.368	18.94
313.582	61.95
313.796	100.86
314.009	33.28
314.223	53.76
314.437	74.24
314.651	72.19
314.864	-7.68
315.078	86.53
315.292	55.81
315.505	6.66
315.719	78.33
315.933	78.33
316.146	80.38
316.36	59.9
316.573	-11.78
316.787	131.58
317.001	37.38
317.214	80.38
317.428	16.9
317.641	4.61
317.855	61.95
318.068	78.33
318.282	96.77
318.495	94.72
318.709	90.62
318.922	37.38
319.136	39.42
319.349	84.48
319.563	111.1
319.776	41.47
319.99	20.99
320.203	94.72
320.417	94.72
320.63	70.14
320.843	86.53
321.057	53.76
321.27	98.81
321.483	43.52
321.697	88.57
321.91	70.14
322.124	88.57
322.337	129.53
322.55	4.61
322.763	66.05
322.977	104.96
323.19	12.8
323.403	53.76
323.617	45.57
323.83	70.14
324.043	-60.93
324.256	139.77
324.469	47.62
324.683	78.33
324.896	35.33
325.109	111.1
325.322	37.38
325.535	131.58
325.748	57.86
325.962	27.14
326.175	86.53
326.388	104.96
326.601	82.43
326.814	25.09
327.027	70.14
327.24	113.15
327.453	-50.69
327.666	66.05
327.879	129.53
328.092	47.62
328.305	41.47
328.518	4.61
328.731	53.76
328.944	92.67
329.157	53.76
329.37	57.86
329.583	94.72
329.796	109.05
330.009	-58.88
330.222	59.9
330.435	49.66
330.648	86.53
330.861	29.18
331.073	61.95
331.286	16.9
331.499	49.66
331.712	14.85
331.925	88.57
332.138	61.95
332.35	86.53
332.563	-19.97
332.776	41.47
332.989	70.14
333.202	61.95
333.414	119.29
333.627	168.45
333.84	31.23
334.053	47.62
334.265	4.61
334.478	6.66
334.691	18.94
334.903	96.77
335.116	96.77
335.329	94.72
335.541	61.95
335.754	94.72
335.966	59.9
336.179	111.1
336.392	51.71
336.604	0.51
336.817	104.96
337.029	-52.74
337.242	139.77
337.454	135.68
337.667	80.38
337.88	143.87
338.092	78.33
338.305	47.62
338.517	23.04
338.729	66.05
338.942	61.95
339.154	70.14
339.367	-50.69
339.579	104.96
339.792	-3.58
340.004	78.33
340.217	37.38
340.429	49.66
340.641	-24.06
340.854	88.57
341.066	59.9
341.278	78.33
341.491	102.91
341.703	53.76
341.915	14.85
342.128	94.72
342.34	12.8
342.552	72.19
342.764	53.76
342.977	41.47
343.189	66.05
343.401	129.53
343.613	74.24
343.826	150.01
344.038	117.25
344.25	137.73
344.462	-3.58
344.674	55.81
344.886	64
345.099	119.29
345.311	94.72
345.523	31.23
345.735	20.99
345.947	90.62
346.159	47.62
346.371	66.05
346.583	41.47
346.795	131.58
347.007	121.34
347.219	127.49
347.431	20.99
347.643	72.19
347.855	70.14
348.067	162.3
348.279	35.33
348.491	61.95
348.703	74.24
348.915	29.18
349.127	127.49
349.339	45.57
349.551	37.38
349.763	53.76
349.975	55.81
350.187	119.29
350.399	127.49
350.61	45.57
350.822	92.67
351.034	127.49
351.246	49.66
351.458	35.33
351.669	88.57
351.881	139.77
352.093	109.05
352.305	107.01
352.517	70.14
352.728	115.2
352.94	86.53
353.152	88.57
353.363	64
353.575	135.68
353.787	115.2
353.999	70.14
354.21	190.97
354.422	14.85
354.633	135.68
354.845	158.21
355.057	86.53
355.268	64
355.48	115.2
355.692	109.05
355.903	74.24
356.115	35.33
356.326	20.99
356.538	94.72
356.749	82.43
356.961	137.73
357.172	57.86
357.384	37.38
357.595	131.58
357.807	23.04
358.018	102.91
358.23	61.95
358.441	131.58
358.653	111.1
358.864	86.53
359.075	66.05
359.287	80.38
359.498	137.73
359.709	55.81
359.921	80.38
360.132	96.77
360.344	104.96
360.555	12.8
360.766	104.96
360.977	61.95
361.189	45.57
361.4	0.51
361.611	121.34
361.823	154.11
362.034	57.86
362.245	31.23
362.456	78.33
362.667	96.77
362.879	84.48
363.09	10.75
363.301	92.67
363.512	12.8
363.723	45.57
363.935	41.47
364.146	47.62
364.357	-11.78
364.568	123.39
364.779	45.57
364.99	45.57
365.201	31.23
365.412	137.73
365.623	29.18
365.834	135.68
366.045	119.29
366.256	90.62
366.467	176.64
366.678	33.28
366.889	107.01
367.1	37.38
367.311	84.48
367.522	29.18
367.733	129.53
367.944	25.09
368.155	127.49
368.366	78.33
368.577	102.91
368.788	143.87
368.999	135.68
369.209	164.35
369.42	82.43
369.631	96.77
369.842	72.19
370.053	96.77
370.264	139.77
370.474	37.38
370.685	119.29
370.896	90.62
371.107	86.53
371.317	70.14
371.528	135.68
371.739	51.71
371.95	72.19
372.16	115.2
372.371	2.56
372.582	33.28
372.792	127.49
373.003	100.86
373.214	43.52
373.424	55.81
373.635	82.43
373.846	94.72
374.056	104.96
374.267	107.01
374.477	188.93
374.688	82.43
374.898	64
375.109	100.86
375.319	119.29
375.53	94.72
375.74	107.01
375.951	94.72
376.161	80.38
376.372	111.1
376.582	107.01
376.793	86.53
377.003	80.38
377.214	20.99
377.424	100.86
377.635	66.05
377.845	39.42
378.055	61.95
378.266	94.72
378.476	37.38
378.686	25.09
378.897	64
379.107	115.2
379.317	94.72
379.528	115.2
379.738	55.81
379.948	-34.3
380.158	88.57
380.369	72.19
380.579	88.57
380.789	33.28
380.999	141.82
381.21	123.39
381.42	70.14
381.63	86.53
381.84	61.95
382.05	37.38
382.261	121.34
382.471	168.45
382.681	29.18
382.891	61.95
383.101	111.1
383.311	41.47
383.521	86.53
383.731	88.57
383.941	178.69
384.151	80.38
384.361	195.07
384.571	78.33
384.781	70.14
384.991	164.35
385.201	145.92
385.411	109.05
385.621	135.68
385.831	123.39
386.041	88.57
386.251	111.1
386.461	37.38
386.671	102.91
386.881	80.38
387.091	20.99
387.301	127.49
387.511	72.19
387.72	137.73
387.93	94.72
388.14	66.05
388.35	70.14
388.56	96.77
388.769	49.66
388.979	102.91
389.189	61.95
389.399	84.48
389.609	135.68
389.818	133.63
390.028	49.66
390.238	137.73
390.447	96.77
390.657	78.33
390.867	94.72
391.076	90.62
391.286	98.81
391.496	133.63
391.705	90.62
391.915	86.53
392.125	94.72
392.334	143.87
392.544	107.01
392.753	55.81
392.963	152.06
393.172	78.33
393.382	184.83
393.591	129.53
393.801	102.91
394.01	133.63
394.22	86.53
394.429	121.34
394.639	143.87
394.848	197.12
395.058	154.11
395.267	201.21
395.477	158.21
395.686	145.92
395.895	172.54
396.105	264.7
396.314	72.19
396.524	119.29
396.733	39.42
396.942	233.98
397.152	113.15
397.361	125.44
397.57	186.88
397.78	102.91
397.989	162.3
398.198	238.08
398.407	82.43
398.617	176.64
398.826	152.06
399.035	96.77
399.244	211.45
399.453	115.2
399.663	203.26
399.872	147.97
400.081	160.25
400.29	225.79
400.499	139.77
400.708	211.45
400.917	199.16
401.127	221.69
401.336	170.49
401.545	180.73
401.754	139.77
401.963	102.91
402.172	197.12
402.381	72.19
402.59	164.35
402.799	193.02
403.008	176.64
403.217	229.88
403.426	143.87
403.635	193.02
403.844	193.02
404.053	86.53
404.262	260.6
404.471	238.08
404.68	242.17
404.888	186.88
405.097	305.66
405.306	256.51
405.515	209.4
405.724	233.98
405.933	283.13
406.142	211.45
406.35	342.52
406.559	309.76
406.768	279.04
406.977	244.22
407.185	299.52
407.394	315.9
407.603	336.38
407.812	367.1
408.02	324.09
408.229	344.57
408.438	430.59
408.646	338.43
408.855	346.62
409.064	293.37
409.272	383.48
409.481	385.53
409.69	369.15
409.898	442.87
410.107	516.6
410.315	446.97
410.524	545.27
410.733	485.88
410.941	569.85
411.15	567.8
411.358	614.9
411.567	659.96
411.775	619
411.984	606.71
412.192	711.16
412.401	647.67
412.609	752.12
412.818	799.22
413.026	766.45
413.234	782.84
413.443	823.8
413.651	768.5
413.86	823.8
414.068	963.06
414.276	981.49
414.485	956.91
414.693	938.48
414.901	1036.78
415.11	1081.84
415.318	1059.31
415.526	1221.1
415.734	1118.7
415.943	1192.43
416.151	1245.68
416.359	1247.72
416.567	1323.5
416.776	1294.83
416.984	1432.04
417.192	1475.05
417.4	1442.28
417.608	1487.34
417.817	1546.73
418.025	1661.41
418.233	1802.72
418.441	1821.16
418.649	1876.45
418.857	1853.92
419.065	2013.67
419.273	1929.7
419.481	1970.66
419.689	2142.69
419.897	2277.85
420.105	2335.2
420.313	2327
420.521	2564.57
420.729	2601.43
420.937	2576.86
421.145	2744.79
421.353	2691.54
421.561	2904.53
421.769	2906.58
421.977	3082.7
422.185	3064.27
422.393	3240.4
422.601	3506.63
422.809	3473.87
423.017	3473.87
423.224	3617.22
423.432	3699.14
423.64	3627.46
423.848	4153.79
424.056	3957.19
424.263	4409.79
424.471	4264.38
424.679	4420.03
424.887	4723.13
425.094	4671.93
425.302	4684.22
425.51	5056.95
425.718	5020.08
425.925	5112.24
426.133	5476.78
426.341	5626.28
426.548	5831.08
426.756	5894.57
426.964	5896.61
427.171	6095.27
427.379	6535.58
427.586	6527.39
427.794	6650.27
428.001	7119.25
428.209	7395.73
428.417	7313.81
428.624	7780.75
428.832	7747.98
429.039	7754.12
429.247	7770.51
429.454	8378.75
429.662	8872.31
429.869	8405.38
430.076	9154.93
430.284	8685.95
430.491	9261.43
430.699	9664.88
430.906	9691.5
431.114	9720.17
431.321	10230.12
431.528	10228.07
431.736	11217.24
431.943	11542.86
432.15	11133.27
432.358	11284.82
432.565	11903.31
432.772	11757.9
432.979	12425.54
433.187	12489.03
433.394	12683.58
433.601	13547.83
433.808	13836.59
434.016	13676.85
434.223	14043.43
434.43	15135
434.637	14766.37
434.844	15483.16
435.052	15841.55
435.259	15894.8
435.466	15847.69
435.673	15960.33
435.88	16615.68
436.087	17744.11
436.294	17643.76
436.501	16943.36
436.708	17834.22
436.915	18366.7
437.122	18880.74
437.329	19007.71
437.537	19747.03
437.743	19910.86
437.95	19615.96
438.157	20834.5
438.364	21381.31
438.571	21209.28
438.778	21446.84
438.985	23572.63
439.192	22417.58
439.399	23009.44
439.606	22456.49
439.813	24033.43
440.02	25565.31
440.227	24707.21
440.433	24852.61
440.64	25585.79
440.847	25614.46
441.054	25860.21
441.261	27943
441.467	27404.38
441.674	28076.12
441.881	28956.74
442.088	28627.02
442.294	28618.83
442.501	29130.82
442.708	29884.47
442.914	30818.35
443.121	32110.61
443.328	31770.65
443.534	33677.31
443.741	32542.74
443.948	32153.62
444.154	34469.87
444.361	34322.42
444.568	34543.6
444.774	34443.25
444.981	34914.28
445.187	35899.36
445.394	36986.83
445.6	36696.02
445.807	40361.88
446.013	38692.79
446.22	39229.35
446.426	41144.2
446.633	41432.97
446.839	42641.27
447.046	40718.23
447.252	43179.89
447.459	43192.17
447.665	43151.21
447.871	45080.4
448.078	46722.87
448.284	44423
448.491	45541.19
448.697	47241.01
448.903	48236.32
449.11	47851.3
449.316	47658.79
449.522	48469.79
449.728	49501.96
449.935	50063.11
450.141	49829.64
450.347	50351.87
450.553	49399.57
450.76	49770.25
450.966	51721.96
451.172	50867.96
451.378	52442.85
451.584	50890.49
451.791	52381.41
451.997	52590.3
452.203	53569.23
452.409	53239.51
452.615	53081.81
452.821	51001.08
453.027	50544.38
453.233	52862.68
453.44	51181.3
453.646	51474.16
453.852	51793.64
454.058	52557.53
454.264	50884.34
454.47	52029.16
454.676	50986.74
454.882	52692.7
455.088	48127.78
455.294	48715.54
455.5	49528.59
455.705	50112.26
455.911	48242.46
456.117	47357.74
456.323	46618.42
456.529	44334.94
456.735	46165.82
456.941	45195.09
457.147	44498.78
457.352	42884.98
457.558	42391.42
457.764	42780.53
457.97	41654.15
458.176	40824.72
458.381	41308.04
458.587	38764.46
458.793	38830
458.999	36941.77
459.204	39606.18
459.41	38604.72
459.616	35770.33
459.821	35915.74
460.027	35835.87
460.233	35141.61
460.438	33470.47
460.644	33931.26
460.85	32385.04
461.055	31477.79
461.261	31651.87
461.466	29048.9
461.672	28352.59
461.878	30292.02
462.083	28637.26
462.289	27756.63
462.494	27492.44
462.7	26380.4
462.905	25655.42
463.111	26267.76
463.316	26587.24
463.522	25872.5
463.727	26071.15
463.932	25935.99
464.138	25688.18
464.343	25469.05
464.549	25284.73
464.754	25542.78
464.959	25692.28
465.165	25579.64
465.37	24021.14
465.575	23769.24
465.781	24488.07
465.986	24602.76
466.191	23787.67
466.397	23349.4
466.602	22427.82
