Data from USB4F104151__135__14-31-45-601.txt Node

Date: Thu Mar 13 14:31:45 EDT 2025
User: louis
Spectrometer: USB4F10415
Trigger mode: 4
Integration Time (sec): 2.500000E-2
Scans to average: 1
Electric dark correction enabled: true
Nonlinearity correction enabled: false
Boxcar width: 0
XAxis mode: Wavelengths
Number of Pixels in Spectrum: 3648
>>>>>Begin Spectral Data<<<<<
178.204	-84.31
178.424	-84.31
178.644	-84.31
178.864	-178.51
179.084	-205.14
179.304	-57.68
179.524	38.57
179.744	-18.77
179.964	34.47
180.184	-24.92
180.404	-43.35
180.624	28.33
180.844	-2.39
181.064	32.43
181.283	-49.49
181.503	13.99
181.723	48.81
181.943	24.23
182.163	112.3
182.383	-18.77
182.602	16.04
182.822	22.19
183.042	22.19
183.262	-63.83
183.482	79.53
183.701	-39.25
183.921	30.38
184.141	22.19
184.361	13.99
184.58	-6.49
184.8	54.95
185.02	-33.11
185.239	83.63
185.459	-55.64
185.679	24.23
185.898	-22.87
186.118	61.1
186.338	71.34
186.557	65.19
186.777	5.8
186.997	-41.3
187.216	26.28
187.436	71.34
187.655	-22.87
187.875	79.53
188.095	38.57
188.314	132.78
188.534	40.62
188.753	44.71
188.973	-6.49
189.192	13.99
189.412	50.86
189.631	95.91
189.851	71.34
190.07	50.86
190.29	18.09
190.509	13.99
190.729	-26.96
190.948	104.11
191.168	165.54
191.387	54.95
191.607	46.76
191.826	73.39
192.045	40.62
192.265	22.19
192.484	83.63
192.704	67.24
192.923	-29.01
193.142	171.69
193.362	38.57
193.581	57
193.8	32.43
194.02	91.82
194.239	9.9
194.458	95.91
194.678	-26.96
194.897	26.28
195.116	-0.34
195.335	24.23
195.555	87.72
195.774	18.09
195.993	-26.96
196.212	95.91
196.432	-8.53
196.651	-22.87
196.87	-8.53
197.089	128.68
197.308	-22.87
197.528	57
197.747	46.76
197.966	13.99
198.185	112.3
198.404	20.14
198.623	18.09
198.842	38.57
199.062	73.39
199.281	71.34
199.5	-35.16
199.719	63.15
199.938	67.24
200.157	34.47
200.376	75.43
200.595	38.57
200.814	32.43
201.033	1.71
201.252	22.19
201.471	65.19
201.69	112.3
201.909	24.23
202.128	38.57
202.347	59.05
202.566	48.81
202.785	-0.34
203.004	46.76
203.223	165.54
203.442	-4.44
203.661	44.71
203.879	38.57
204.098	112.3
204.317	-22.87
204.536	65.19
204.755	63.15
204.974	54.95
205.193	-10.58
205.411	100.01
205.63	108.2
205.849	46.76
206.068	16.04
206.287	13.99
206.505	67.24
206.724	36.52
206.943	-31.06
207.162	40.62
207.381	32.43
207.599	5.8
207.818	-26.96
208.037	63.15
208.255	67.24
208.474	81.58
208.693	69.29
208.911	75.43
209.13	34.47
209.349	34.47
209.567	67.24
209.786	40.62
210.005	38.57
210.223	40.62
210.442	61.1
210.661	54.95
210.879	13.99
211.098	26.28
211.316	9.9
211.535	22.19
211.753	5.8
211.972	63.15
212.191	38.57
212.409	-2.39
212.628	46.76
212.846	63.15
213.065	69.29
213.283	61.1
213.502	5.8
213.72	61.1
213.938	13.99
214.157	32.43
214.375	46.76
214.594	16.04
214.812	91.82
215.031	26.28
215.249	-14.68
215.467	-2.39
215.686	24.23
215.904	87.72
216.122	13.99
216.341	24.23
216.559	-26.96
216.778	83.63
216.996	75.43
217.214	46.76
217.432	1.71
217.651	36.52
217.869	18.09
218.087	-41.3
218.306	-35.16
218.524	13.99
218.742	-18.77
218.96	46.76
219.179	40.62
219.397	52.91
219.615	116.39
219.833	79.53
220.051	-26.96
220.27	48.81
220.488	89.77
220.706	71.34
220.924	-57.68
221.142	-65.88
221.36	63.15
221.578	13.99
221.796	42.67
222.015	50.86
222.233	30.38
222.451	104.11
222.669	61.1
222.887	32.43
223.105	30.38
223.323	34.47
223.541	-16.73
223.759	71.34
223.977	-14.68
224.195	48.81
224.413	59.05
224.631	9.9
224.849	32.43
225.067	85.67
225.285	-35.16
225.503	91.82
225.721	-14.68
225.939	-10.58
226.157	48.81
226.375	97.96
226.592	9.9
226.81	73.39
227.028	54.95
227.246	77.48
227.464	-29.01
227.682	77.48
227.9	73.39
228.117	63.15
228.335	36.52
228.553	87.72
228.771	22.19
228.989	44.71
229.206	-26.96
229.424	18.09
229.642	-43.35
229.86	-76.12
230.077	1.71
230.295	95.91
230.513	124.58
230.731	89.77
230.948	40.62
231.166	85.67
231.384	9.9
231.601	1.71
231.819	73.39
232.037	-18.77
232.254	-16.73
232.472	-24.92
232.689	63.15
232.907	48.81
233.125	-8.53
233.342	59.05
233.56	-6.49
233.777	42.67
233.995	9.9
234.213	89.77
234.43	-16.73
234.648	30.38
234.865	-16.73
235.083	79.53
235.3	24.23
235.518	16.04
235.735	126.63
235.953	73.39
236.17	48.81
236.388	-59.73
236.605	22.19
236.822	30.38
237.04	16.04
237.257	48.81
237.475	7.85
237.692	81.58
237.909	11.95
238.127	11.95
238.344	-39.25
238.562	32.43
238.779	13.99
238.996	-2.39
239.214	-10.58
239.431	71.34
239.648	18.09
239.865	73.39
240.083	95.91
240.3	16.04
240.517	38.57
240.735	54.95
240.952	73.39
241.169	79.53
241.386	18.09
241.603	24.23
241.821	-8.53
242.038	40.62
242.255	40.62
242.472	-0.34
242.689	79.53
242.907	116.39
243.124	59.05
243.341	44.71
243.558	52.91
243.775	-2.39
243.992	-6.49
244.209	57
244.426	124.58
244.643	136.87
244.86	5.8
245.078	22.19
245.295	67.24
245.512	30.38
245.729	1.71
245.946	120.49
246.163	38.57
246.38	30.38
246.597	32.43
246.814	97.96
247.031	30.38
247.248	-22.87
247.464	50.86
247.681	-6.49
247.898	38.57
248.115	-2.39
248.332	-10.58
248.549	91.82
248.766	116.39
248.983	95.91
249.2	-14.68
249.417	79.53
249.633	-16.73
249.85	75.43
250.067	-24.92
250.284	5.8
250.501	5.8
250.717	63.15
250.934	46.76
251.151	32.43
251.368	-33.11
251.585	30.38
251.801	-12.63
252.018	18.09
252.235	-31.06
252.451	50.86
252.668	16.04
252.885	9.9
253.102	54.95
253.318	18.09
253.535	3.75
253.752	-18.77
253.968	30.38
254.185	54.95
254.401	-8.53
254.618	83.63
254.835	40.62
255.051	46.76
255.268	40.62
255.484	67.24
255.701	1.71
255.917	120.49
256.134	-53.59
256.351	1.71
256.567	-10.58
256.784	75.43
257	18.09
257.217	46.76
257.433	24.23
257.65	-0.34
257.866	116.39
258.082	-2.39
258.299	34.47
258.515	16.04
258.732	-20.82
258.948	34.47
259.165	13.99
259.381	42.67
259.597	9.9
259.814	30.38
260.03	38.57
260.246	26.28
260.463	67.24
260.679	-18.77
260.895	97.96
261.112	9.9
261.328	-2.39
261.544	106.15
261.761	132.78
261.977	73.39
262.193	1.71
262.409	63.15
262.626	30.38
262.842	44.71
263.058	63.15
263.274	75.43
263.49	104.11
263.707	13.99
263.923	71.34
264.139	13.99
264.355	-10.58
264.571	42.67
264.787	48.81
265.004	153.26
265.22	91.82
265.436	42.67
265.652	26.28
265.868	1.71
266.084	-14.68
266.3	48.81
266.516	9.9
266.732	71.34
266.948	5.8
267.164	69.29
267.38	50.86
267.596	-10.58
267.812	112.3
268.028	22.19
268.244	57
268.46	38.57
268.676	13.99
268.892	-24.92
269.108	-63.83
269.324	-31.06
269.54	46.76
269.756	93.87
269.972	18.09
270.188	-2.39
270.403	18.09
270.619	-35.16
270.835	20.14
271.051	13.99
271.267	63.15
271.483	-43.35
271.698	34.47
271.914	32.43
272.13	46.76
272.346	-6.49
272.562	-4.44
272.777	87.72
272.993	46.76
273.209	83.63
273.425	30.38
273.64	30.38
273.856	16.04
274.072	26.28
274.287	57
274.503	75.43
274.719	104.11
274.934	13.99
275.15	-65.88
275.366	-0.34
275.581	18.09
275.797	97.96
276.012	-8.53
276.228	44.71
276.444	-0.34
276.659	87.72
276.875	1.71
277.09	89.77
277.306	40.62
277.521	48.81
277.737	22.19
277.952	136.87
278.168	-2.39
278.383	-10.58
278.599	-8.53
278.814	54.95
279.03	65.19
279.245	95.91
279.461	24.23
279.676	40.62
279.892	-39.25
280.107	34.47
280.322	46.76
280.538	116.39
280.753	-22.87
280.969	67.24
281.184	136.87
281.399	114.34
281.615	16.04
281.83	63.15
282.045	20.14
282.26	13.99
282.476	54.95
282.691	26.28
282.906	-49.49
283.122	38.57
283.337	48.81
283.552	-14.68
283.767	-39.25
283.983	87.72
284.198	-35.16
284.413	81.58
284.628	59.05
284.843	50.86
285.058	95.91
285.274	67.24
285.489	-43.35
285.704	79.53
285.919	22.19
286.134	63.15
286.349	-16.73
286.564	46.76
286.779	-26.96
286.995	26.28
287.21	38.57
287.425	24.23
287.64	52.91
287.855	26.28
288.07	5.8
288.285	89.77
288.5	95.91
288.715	73.39
288.93	65.19
289.145	18.09
289.36	38.57
289.575	1.71
289.79	11.95
290.004	-2.39
290.219	67.24
290.434	38.57
290.649	18.09
290.864	-2.39
291.079	77.48
291.294	71.34
291.509	42.67
291.724	38.57
291.938	46.76
292.153	65.19
292.368	95.91
292.583	50.86
292.798	26.28
293.012	63.15
293.227	22.19
293.442	-0.34
293.657	34.47
293.871	75.43
294.086	38.57
294.301	181.93
294.516	40.62
294.73	54.95
294.945	-20.82
295.16	71.34
295.374	91.82
295.589	89.77
295.804	24.23
296.018	69.29
296.233	161.45
296.447	73.39
296.662	46.76
296.877	106.15
297.091	95.91
297.306	79.53
297.52	-4.44
297.735	71.34
297.949	110.25
298.164	112.3
298.378	22.19
298.593	54.95
298.807	-6.49
299.022	81.58
299.236	63.15
299.451	7.85
299.665	-0.34
299.88	34.47
300.094	13.99
300.309	-14.68
300.523	-78.16
300.737	81.58
300.952	50.86
301.166	5.8
301.381	11.95
301.595	26.28
301.809	77.48
302.024	13.99
302.238	5.8
302.452	48.81
302.667	24.23
302.881	95.91
303.095	50.86
303.309	34.47
303.524	40.62
303.738	61.1
303.952	30.38
304.166	108.2
304.381	18.09
304.595	83.63
304.809	59.05
305.023	81.58
305.237	34.47
305.452	5.8
305.666	63.15
305.88	57
306.094	57
306.308	24.23
306.522	122.54
306.736	24.23
306.95	18.09
307.164	-22.87
307.379	95.91
307.593	71.34
307.807	108.2
308.021	67.24
308.235	28.33
308.449	24.23
308.663	-43.35
308.877	85.67
309.091	-18.77
309.305	46.76
309.519	-31.06
309.733	79.53
309.947	50.86
310.161	40.62
310.374	79.53
310.588	24.23
310.802	-43.35
311.016	13.99
311.23	-4.44
311.444	40.62
311.658	22.19
311.872	30.38
312.085	89.77
312.299	79.53
312.513	102.06
312.727	5.8
312.941	71.34
313.154	132.78
313.368	5.8
313.582	24.23
313.796	22.19
314.009	73.39
314.223	46.76
314.437	-33.11
314.651	30.38
314.864	-39.25
315.078	34.47
315.292	-6.49
315.505	67.24
315.719	22.19
315.933	-26.96
316.146	87.72
316.36	-31.06
316.573	61.1
316.787	85.67
317.001	34.47
317.214	30.38
317.428	71.34
317.641	-31.06
317.855	9.9
318.068	7.85
318.282	155.3
318.495	83.63
318.709	130.73
318.922	54.95
319.136	42.67
319.349	-0.34
319.563	-2.39
319.776	-14.68
319.99	46.76
320.203	75.43
320.417	30.38
320.63	52.91
320.843	87.72
321.057	59.05
321.27	9.9
321.483	65.19
321.697	73.39
321.91	20.14
322.124	69.29
322.337	130.73
322.55	5.8
322.763	59.05
322.977	24.23
323.19	-6.49
323.403	67.24
323.617	57
323.83	71.34
324.043	26.28
324.256	26.28
324.469	1.71
324.683	79.53
324.896	-22.87
325.109	32.43
325.322	-8.53
325.535	81.58
325.748	38.57
325.962	34.47
326.175	32.43
326.388	71.34
326.601	48.81
326.814	83.63
327.027	28.33
327.24	54.95
327.453	-26.96
327.666	9.9
327.879	112.3
328.092	30.38
328.305	75.43
328.518	40.62
328.731	5.8
328.944	67.24
329.157	54.95
329.37	-61.78
329.583	169.64
329.796	44.71
330.009	46.76
330.222	63.15
330.435	95.91
330.648	59.05
330.861	13.99
331.073	42.67
331.286	26.28
331.499	46.76
331.712	18.09
331.925	67.24
332.138	147.11
332.35	71.34
332.563	-2.39
332.776	34.47
332.989	46.76
333.202	24.23
333.414	120.49
333.627	7.85
333.84	-10.58
334.053	46.76
334.265	-10.58
334.478	-35.16
334.691	79.53
334.903	5.8
335.116	50.86
335.329	63.15
335.541	71.34
335.754	22.19
335.966	5.8
336.179	22.19
336.392	73.39
336.604	67.24
336.817	18.09
337.029	120.49
337.242	-29.01
337.454	87.72
337.667	1.71
337.88	79.53
338.092	38.57
338.305	57
338.517	71.34
338.729	46.76
338.942	-2.39
339.154	7.85
339.367	61.1
339.579	22.19
339.792	-18.77
340.004	5.8
340.217	32.43
340.429	22.19
340.641	3.75
340.854	54.95
341.066	-16.73
341.278	124.58
341.491	5.8
341.703	104.11
341.915	30.38
342.128	71.34
342.34	89.77
342.552	-0.34
342.764	54.95
342.977	48.81
343.189	73.39
343.401	65.19
343.613	13.99
343.826	30.38
344.038	30.38
344.25	57
344.462	-18.77
344.674	-2.39
344.886	32.43
345.099	73.39
345.311	73.39
345.523	50.86
345.735	-6.49
345.947	108.2
346.159	38.57
346.371	9.9
346.583	42.67
346.795	155.3
347.007	-26.96
347.219	11.95
347.431	93.87
347.643	100.01
347.855	13.99
348.067	71.34
348.279	-6.49
348.491	46.76
348.703	75.43
348.915	30.38
349.127	71.34
349.339	77.48
349.551	50.86
349.763	71.34
349.975	38.57
350.187	149.16
350.399	130.73
350.61	63.15
350.822	59.05
351.034	24.23
351.246	79.53
351.458	46.76
351.669	-35.16
351.881	83.63
352.093	91.82
352.305	65.19
352.517	126.63
352.728	81.58
352.94	3.75
353.152	67.24
353.363	24.23
353.575	36.52
353.787	59.05
353.999	73.39
354.21	52.91
354.422	30.38
354.633	57
354.845	28.33
355.057	112.3
355.268	87.72
355.48	9.9
355.692	40.62
355.903	-53.59
356.115	-43.35
356.326	-26.96
356.538	93.87
356.749	16.04
356.961	130.73
357.172	42.67
357.384	36.52
357.595	122.54
357.807	-8.53
358.018	-35.16
358.23	-14.68
358.441	116.39
358.653	46.76
358.864	61.1
359.075	54.95
359.287	61.1
359.498	97.96
359.709	40.62
359.921	52.91
360.132	13.99
360.344	-2.39
360.555	-6.49
360.766	30.38
360.977	-8.53
361.189	50.86
361.4	106.15
361.611	13.99
361.823	91.82
362.034	59.05
362.245	7.85
362.456	57
362.667	46.76
362.879	16.04
363.09	54.95
363.301	79.53
363.512	50.86
363.723	67.24
363.935	73.39
364.146	102.06
364.357	5.8
364.568	67.24
364.779	22.19
364.99	71.34
365.201	81.58
365.412	91.82
365.623	22.19
365.834	40.62
366.045	-55.64
366.256	79.53
366.467	136.87
366.678	5.8
366.889	54.95
367.1	73.39
367.311	136.87
367.522	40.62
367.733	136.87
367.944	38.57
368.155	65.19
368.366	79.53
368.577	77.48
368.788	38.57
368.999	-35.16
369.209	26.28
369.42	136.87
369.631	114.34
369.842	-2.39
370.053	-10.58
370.264	22.19
370.474	13.99
370.685	7.85
370.896	73.39
371.107	120.49
371.317	67.24
371.528	83.63
371.739	69.29
371.95	73.39
372.16	91.82
372.371	50.86
372.582	22.19
372.792	1.71
373.003	73.39
373.214	40.62
373.424	114.34
373.635	44.71
373.846	89.77
374.056	-2.39
374.267	161.45
374.477	38.57
374.688	95.91
374.898	32.43
375.109	130.73
375.319	38.57
375.53	149.16
375.74	85.67
375.951	59.05
376.161	57
376.372	89.77
376.582	30.38
376.793	89.77
377.003	83.63
377.214	87.72
377.424	18.09
377.635	18.09
377.845	26.28
378.055	145.06
378.266	-14.68
378.476	40.62
378.686	83.63
378.897	-8.53
379.107	5.8
379.317	48.81
379.528	20.14
379.738	83.63
379.948	-51.54
380.158	54.95
380.369	36.52
380.579	124.58
380.789	79.53
380.999	44.71
381.21	196.26
381.42	106.15
381.63	48.81
381.84	89.77
382.05	89.77
382.261	26.28
382.471	102.06
382.681	22.19
382.891	79.53
383.101	128.68
383.311	32.43
383.521	7.85
383.731	-2.39
383.941	95.91
384.151	46.76
384.361	38.57
384.571	57
384.781	5.8
384.991	122.54
385.201	149.16
385.411	120.49
385.621	32.43
385.831	124.58
386.041	91.82
386.251	32.43
386.461	42.67
386.671	36.52
386.881	-18.77
387.091	95.91
387.301	140.97
387.511	151.21
387.72	50.86
387.93	71.34
388.14	46.76
388.35	73.39
388.56	79.53
388.769	71.34
388.979	34.47
389.189	18.09
389.399	-4.44
389.609	71.34
389.818	97.96
390.028	153.26
390.238	52.91
390.447	67.24
390.657	46.76
390.867	36.52
391.076	54.95
391.286	120.49
391.496	106.15
391.705	128.68
391.915	108.2
392.125	104.11
392.334	67.24
392.544	38.57
392.753	46.76
392.963	97.96
393.172	5.8
393.382	7.85
393.591	95.91
393.801	18.09
394.01	198.31
394.22	122.54
394.429	87.72
394.639	83.63
394.848	34.47
395.058	73.39
395.267	124.58
395.477	128.68
395.686	155.3
395.895	165.54
396.105	222.89
396.314	100.01
396.524	124.58
396.733	79.53
396.942	75.43
397.152	145.06
397.361	177.83
397.57	120.49
397.78	75.43
397.989	155.3
398.198	165.54
398.407	69.29
398.617	110.25
398.826	26.28
399.035	48.81
399.244	173.74
399.453	89.77
399.663	145.06
399.872	186.02
400.081	57
400.29	161.45
400.499	120.49
400.708	128.68
400.917	161.45
401.127	155.3
401.336	138.92
401.545	153.26
401.754	120.49
401.963	102.06
402.172	140.97
402.381	95.91
402.59	177.83
402.799	124.58
403.008	136.87
403.217	196.26
403.426	100.01
403.635	81.58
403.844	210.6
404.053	140.97
404.262	136.87
404.471	218.79
404.68	190.12
404.888	220.84
405.097	169.64
405.306	208.55
405.515	188.07
405.724	177.83
405.933	116.39
406.142	149.16
406.35	196.26
406.559	212.65
406.768	132.78
406.977	245.41
407.185	229.03
407.394	222.89
407.603	243.37
407.812	208.55
408.02	280.23
408.229	294.57
408.438	339.62
408.646	261.8
408.855	263.85
409.064	278.18
409.272	241.32
409.481	339.62
409.69	308.9
409.898	353.96
410.107	337.57
410.315	374.44
410.524	308.9
410.733	401.06
410.941	403.11
411.15	433.83
411.358	474.79
411.567	460.45
411.775	419.49
411.984	382.63
412.192	472.74
412.401	474.79
412.609	556.71
412.818	575.14
413.026	542.37
413.234	687.78
413.443	472.74
413.651	609.95
413.86	661.15
414.068	685.73
414.276	663.2
414.485	655.01
414.693	712.35
414.901	868
415.11	829.09
415.318	759.46
415.526	884.38
415.734	882.33
415.943	915.1
416.151	1013.4
416.359	962.2
416.567	968.35
416.776	896.67
416.984	1076.89
417.192	1183.38
417.4	1203.86
417.608	1134.23
417.817	1121.95
418.025	1263.26
418.233	1326.74
418.441	1318.55
418.649	1357.46
418.857	1513.11
419.065	1547.92
419.273	1480.34
419.481	1513.11
419.689	1570.45
419.897	1730.19
420.105	1676.95
420.313	1818.25
420.521	1848.97
420.729	1957.52
420.937	1853.07
421.145	2023.05
421.353	2070.16
421.561	2195.08
421.769	2219.66
421.977	2436.74
422.185	2250.38
422.393	2434.69
422.601	2662.02
422.809	2592.39
423.017	2582.15
423.224	2768.51
423.432	2891.39
423.64	2803.33
423.848	3094.14
424.056	3069.56
424.263	3335.8
424.471	3290.74
424.679	3348.09
424.887	3446.39
425.094	3524.21
425.302	3624.56
425.51	3800.69
425.718	3954.29
425.925	3833.46
426.133	4023.92
426.341	4208.23
426.548	4388.46
426.756	4499.05
426.964	4429.42
427.171	4900.45
427.379	4734.56
427.586	4882.02
427.794	5168.73
428.001	5297.75
428.209	5559.89
428.417	5514.84
428.624	5985.87
428.832	5848.66
429.039	5854.8
429.247	5908.05
429.454	6288.97
429.662	6782.53
429.869	6282.83
430.076	6886.98
430.284	6624.84
430.491	6741.57
430.699	7460.41
430.906	7235.13
431.114	7337.53
431.321	7542.33
431.528	7902.77
431.736	8341.04
431.943	8691.24
432.15	8355.37
432.358	8369.71
432.565	8853.03
432.772	8996.39
432.979	9461.27
433.187	9342.49
433.394	9483.8
433.601	10143.25
433.808	10245.65
434.016	10102.29
434.223	10679.82
434.43	11218.43
434.637	11007.49
434.844	11664.89
435.052	11697.66
435.259	11640.31
435.466	11855.35
435.673	11617.79
435.88	12404.21
436.087	13057.51
436.294	13084.13
436.501	12801.51
436.708	13166.05
436.915	13426.14
437.122	14198.23
437.329	14054.87
437.537	14587.34
437.743	14833.1
437.95	14558.67
438.157	15467.97
438.364	15887.8
438.571	15900.09
438.778	15701.44
438.985	17298.85
439.192	16764.33
439.399	17190.31
439.606	16872.87
439.813	17941.91
440.02	18584.98
440.227	18445.71
440.433	17986.97
440.64	19064.2
440.847	19006.86
441.054	19254.66
441.261	20501.87
441.467	20100.47
441.674	20667.76
441.881	21357.92
442.088	21409.12
442.294	21167.46
442.501	21515.62
442.708	22240.6
442.914	22963.53
443.121	23770.43
443.328	22795.6
443.534	25013.55
443.741	24108.35
443.948	23917.89
444.154	25693.47
444.361	25343.27
444.568	25578.79
444.774	25384.23
444.981	26002.72
445.187	26668.31
445.394	27542.79
445.6	27426.06
445.807	29969.63
446.013	28990.7
446.22	29482.22
446.426	30264.54
446.633	30854.36
446.839	31786.18
447.046	30553.3
447.252	32021.7
447.459	32218.3
447.665	31605.96
447.871	33586.35
448.078	34581.66
448.284	32976.05
448.491	33727.66
448.697	35071.12
448.903	35810.44
449.11	35667.08
449.316	35165.33
449.522	35732.62
449.728	37074.04
449.935	37446.77
450.141	37307.51
450.347	38022.25
450.553	37104.76
450.76	37379.18
450.966	38667.36
451.172	38431.84
451.378	39275.6
451.584	38399.07
451.791	38923.35
451.997	38997.08
452.203	39572.56
452.409	39978.06
452.615	39478.35
452.821	38200.42
453.027	37688.43
453.233	39300.18
453.44	37856.36
453.646	38380.64
453.852	38530.14
454.058	39197.78
454.264	38001.77
454.47	38650.97
454.676	37930.09
454.882	39130.2
455.088	35644.55
455.294	36078.72
455.5	36877.43
455.705	36940.92
455.911	35585.16
456.117	35001.49
456.323	34581.66
456.529	32556.22
456.735	34180.26
456.941	33012.91
457.147	32552.12
457.352	31388.88
457.558	31263.95
457.764	31704.26
457.97	30680.28
458.176	30033.12
458.381	30037.22
458.587	28437.75
458.793	28458.23
458.999	27202.83
459.204	28818.67
459.41	28314.87
459.616	26338.58
459.821	26174.75
460.027	26058.01
460.233	25632.04
460.438	24208.7
460.644	24612.15
460.85	23539.01
461.055	23067.98
461.261	22828.37
461.466	21134.7
461.672	20608.37
461.878	22009.18
462.083	20608.37
462.289	20317.56
462.494	20012.41
462.7	19060.1
462.905	18627.98
463.111	19150.21
463.316	19275.14
463.522	18646.41
463.727	18978.19
463.932	18965.9
464.138	18347.41
464.343	18750.86
464.549	18011.54
464.754	18679.18
464.959	18433.43
465.165	18353.55
465.37	17481.12
465.575	17175.97
465.781	17827.23
465.986	17481.12
466.191	17225.12
466.397	16915.88
466.602	16072.12
466.807	16563.63
467.012	16516.53
467.218	16367.02
