Data from USB4F104151__3__14-28-21-560.txt Node

Date: Thu Mar 13 14:28:21 EDT 2025
User: louis
Spectrometer: USB4F10415
Trigger mode: 4
Integration Time (sec): 2.500000E-2
Scans to average: 1
Electric dark correction enabled: true
Nonlinearity correction enabled: false
Boxcar width: 0
XAxis mode: Wavelengths
Number of Pixels in Spectrum: 3648
>>>>>Begin Spectral Data<<<<<
178.204	-206.16
178.424	-206.16
178.644	-206.16
178.864	-140.63
179.084	-150.87
179.304	-15.7
179.524	-3.41
179.744	94.89
179.964	21.16
180.184	15.02
180.404	-34.13
180.624	-27.99
180.844	15.02
181.064	-19.8
181.283	0.68
181.503	-68.95
181.723	23.21
181.943	0.68
182.163	21.16
182.383	17.07
182.602	84.65
182.822	-60.76
183.042	64.17
183.262	41.64
183.482	-5.46
183.701	74.41
183.921	-23.89
184.141	-11.61
184.361	88.75
184.58	12.97
184.8	12.97
185.02	-50.52
185.239	23.21
185.459	78.51
185.679	31.4
185.898	51.88
186.118	17.07
186.338	43.69
186.557	115.37
186.777	-1.37
186.997	-83.28
187.216	37.55
187.436	74.41
187.655	-19.8
187.875	23.21
188.095	4.78
188.314	88.75
188.534	53.93
188.753	-17.75
188.973	27.31
189.192	62.12
189.412	-3.41
189.631	51.88
189.851	74.41
190.07	148.14
190.29	15.02
190.509	29.35
190.729	58.03
190.948	82.6
191.168	105.13
191.387	47.79
191.607	-58.71
191.826	15.02
192.045	6.83
192.265	23.21
192.484	105.13
192.704	-19.8
192.923	35.5
193.142	111.27
193.362	94.89
193.581	62.12
193.8	10.92
194.02	111.27
194.239	-7.51
194.458	53.93
194.678	25.26
194.897	70.31
195.116	37.55
195.335	15.02
195.555	43.69
195.774	-3.41
195.993	-66.9
196.212	-1.37
196.432	-19.8
196.651	-3.41
196.87	-34.13
197.089	135.85
197.308	23.21
197.528	94.89
197.747	-15.7
197.966	74.41
198.185	113.32
198.404	41.64
198.623	78.51
198.842	125.61
199.062	135.85
199.281	78.51
199.5	21.16
199.719	96.94
199.938	47.79
200.157	109.23
200.376	82.6
200.595	-13.65
200.814	119.46
201.033	-19.8
201.252	39.59
201.471	47.79
201.69	47.79
201.909	-34.13
202.128	111.27
202.347	23.21
202.566	-34.13
202.785	-11.61
203.004	29.35
203.223	127.66
203.442	70.31
203.661	-27.99
203.879	45.74
204.098	103.08
204.317	17.07
204.536	74.41
204.755	80.55
204.974	33.45
205.193	51.88
205.411	82.6
205.63	29.35
205.849	39.59
206.068	62.12
206.287	53.93
206.505	113.32
206.724	-7.51
206.943	92.84
207.162	-48.47
207.381	45.74
207.599	-7.51
207.818	12.97
208.037	21.16
208.255	127.66
208.474	4.78
208.693	58.03
208.911	23.21
209.13	90.79
209.349	70.31
209.567	74.41
209.786	55.98
210.005	41.64
210.223	0.68
210.442	21.16
210.661	80.55
210.879	27.31
211.098	37.55
211.316	41.64
211.535	45.74
211.753	64.17
211.972	21.16
212.191	-46.42
212.409	23.21
212.628	4.78
212.846	31.4
213.065	37.55
213.283	4.78
213.502	41.64
213.72	47.79
213.938	43.69
214.157	-38.23
214.375	51.88
214.594	25.26
214.812	43.69
215.031	29.35
215.249	25.26
215.467	55.98
215.686	-11.61
215.904	45.74
216.122	90.79
216.341	62.12
216.559	-11.61
216.778	113.32
216.996	62.12
217.214	31.4
217.432	29.35
217.651	21.16
217.869	12.97
218.087	-32.08
218.306	31.4
218.524	17.07
218.742	-19.8
218.96	0.68
219.179	4.78
219.397	137.9
219.615	53.93
219.833	96.94
220.051	23.21
220.27	107.18
220.488	90.79
220.706	39.59
220.924	-9.56
221.142	31.4
221.36	-23.89
221.578	58.03
221.796	12.97
222.015	53.93
222.233	29.35
222.451	62.12
222.669	-52.56
222.887	74.41
223.105	21.16
223.323	-23.89
223.541	12.97
223.759	72.36
223.977	27.31
224.195	119.46
224.413	15.02
224.631	29.35
224.849	-19.8
225.067	109.23
225.285	37.55
225.503	105.13
225.721	-17.75
225.939	98.99
226.157	103.08
226.375	148.14
226.592	-5.46
226.81	86.7
227.028	-11.61
227.246	62.12
227.464	0.68
227.682	37.55
227.9	-27.99
228.117	17.07
228.335	23.21
228.553	-19.8
228.771	29.35
228.989	86.7
229.206	70.31
229.424	72.36
229.642	45.74
229.86	94.89
230.077	123.56
230.295	-19.8
230.513	103.08
230.731	37.55
230.948	86.7
231.166	94.89
231.384	23.21
231.601	70.31
231.819	49.83
232.037	-48.47
232.254	-32.08
232.472	64.17
232.689	4.78
232.907	123.56
233.125	41.64
233.342	39.59
233.56	-36.18
233.777	58.03
233.995	78.51
234.213	23.21
234.43	17.07
234.648	105.13
234.865	29.35
235.083	80.55
235.3	6.83
235.518	115.37
235.735	105.13
235.953	53.93
236.17	15.02
236.388	45.74
236.605	-50.52
236.822	88.75
237.04	101.03
237.257	37.55
237.475	23.21
237.692	45.74
237.909	10.92
238.127	37.55
238.344	4.78
238.562	-1.37
238.779	-5.46
238.996	-30.04
239.214	37.55
239.431	76.46
239.648	-3.41
239.865	68.27
240.083	115.37
240.3	21.16
240.517	62.12
240.735	70.31
240.952	-15.7
241.169	113.32
241.386	0.68
241.603	72.36
241.821	6.83
242.038	-58.71
242.255	80.55
242.472	4.78
242.689	72.36
242.907	94.89
243.124	33.45
243.341	47.79
243.558	-19.8
243.775	-9.56
243.992	6.83
244.209	96.94
244.426	172.71
244.643	37.55
244.86	33.45
245.078	66.22
245.295	45.74
245.512	10.92
245.729	17.07
245.946	29.35
246.163	37.55
246.38	2.73
246.597	29.35
246.814	15.02
247.031	111.27
247.248	41.64
247.464	-3.41
247.681	121.51
247.898	60.07
248.115	-17.75
248.332	12.97
248.549	31.4
248.766	127.66
248.983	62.12
249.2	86.7
249.417	80.55
249.633	-7.51
249.85	-3.41
250.067	23.21
250.284	94.89
250.501	47.79
250.717	43.69
250.934	-48.47
251.151	51.88
251.368	45.74
251.585	39.59
251.801	-116.05
252.018	-50.52
252.235	39.59
252.451	43.69
252.668	21.16
252.885	12.97
253.102	51.88
253.318	45.74
253.535	-11.61
253.752	137.9
253.968	17.07
254.185	21.16
254.401	25.26
254.618	-1.37
254.835	94.89
255.051	135.85
255.268	43.69
255.484	39.59
255.701	-11.61
255.917	53.93
256.134	70.31
256.351	6.83
256.567	-32.08
256.784	21.16
257	-25.94
257.217	58.03
257.433	17.07
257.65	58.03
257.866	45.74
258.082	-42.32
258.299	27.31
258.515	49.83
258.732	23.21
258.948	-7.51
259.165	33.45
259.381	35.5
259.597	8.87
259.814	25.26
260.03	6.83
260.246	55.98
260.463	76.46
260.679	80.55
260.895	10.92
261.112	115.37
261.328	33.45
261.544	-36.18
261.761	41.64
261.977	53.93
262.193	-17.75
262.409	21.16
262.626	62.12
262.842	96.94
263.058	-23.89
263.274	82.6
263.49	148.14
263.707	107.18
263.923	27.31
264.139	8.87
264.355	82.6
264.571	78.51
264.787	41.64
265.004	94.89
265.22	25.26
265.436	31.4
265.652	53.93
265.868	82.6
266.084	8.87
266.3	23.21
266.516	-27.99
266.732	17.07
266.948	103.08
267.164	19.11
267.38	62.12
267.596	45.74
267.812	88.75
268.028	53.93
268.244	78.51
268.46	55.98
268.676	-36.18
268.892	76.46
269.108	29.35
269.324	6.83
269.54	-21.84
269.756	33.45
269.972	-52.56
270.188	25.26
270.403	6.83
270.619	10.92
270.835	-11.61
271.051	12.97
271.267	84.65
271.483	23.21
271.698	39.59
271.914	121.51
272.13	80.55
272.346	72.36
272.562	72.36
272.777	4.78
272.993	23.21
273.209	94.89
273.425	127.66
273.64	37.55
273.856	152.23
274.072	37.55
274.287	-91.48
274.503	86.7
274.719	62.12
274.934	41.64
275.15	-50.52
275.366	21.16
275.581	33.45
275.797	90.79
276.012	58.03
276.228	23.21
276.444	96.94
276.659	111.27
276.875	19.11
277.09	37.55
277.306	-3.41
277.521	-1.37
277.737	23.21
277.952	27.31
278.168	41.64
278.383	27.31
278.599	53.93
278.814	66.22
279.03	-11.61
279.245	8.87
279.461	58.03
279.676	66.22
279.892	-3.41
280.107	-5.46
280.322	-9.56
280.538	74.41
280.753	29.35
280.969	111.27
281.184	-9.56
281.399	121.51
281.615	64.17
281.83	98.99
282.045	0.68
282.26	27.31
282.476	-56.66
282.691	12.97
282.906	55.98
283.122	72.36
283.337	-21.84
283.552	33.45
283.767	70.31
283.983	88.75
284.198	2.73
284.413	70.31
284.628	-48.47
284.843	53.93
285.058	29.35
285.274	49.83
285.489	101.03
285.704	141.99
285.919	-13.65
286.134	98.99
286.349	47.79
286.564	-15.7
286.779	78.51
286.995	-5.46
287.21	78.51
287.425	86.7
287.64	37.55
287.855	4.78
288.07	-40.28
288.285	21.16
288.5	111.27
288.715	64.17
288.93	6.83
289.145	25.26
289.36	94.89
289.575	-64.85
289.79	74.41
290.004	-9.56
290.219	55.98
290.434	-7.51
290.649	10.92
290.864	21.16
291.079	23.21
291.294	88.75
291.509	72.36
291.724	94.89
291.938	21.16
292.153	45.74
292.368	74.41
292.583	-21.84
292.798	0.68
293.012	80.55
293.227	94.89
293.442	-3.41
293.657	107.18
293.871	37.55
294.086	78.51
294.301	43.69
294.516	27.31
294.73	-5.46
294.945	72.36
295.16	37.55
295.374	88.75
295.589	82.6
295.804	29.35
296.018	39.59
296.233	109.23
296.447	29.35
296.662	-9.56
296.877	66.22
297.091	47.79
297.306	29.35
297.52	41.64
297.735	45.74
297.949	119.46
298.164	15.02
298.378	-27.99
298.593	6.83
298.807	12.97
299.022	78.51
299.236	45.74
299.451	-3.41
299.665	109.23
299.88	121.51
300.094	25.26
300.309	31.4
300.523	53.93
300.737	41.64
300.952	-25.94
301.166	62.12
301.381	-30.04
301.595	12.97
301.809	-3.41
302.024	80.55
302.238	78.51
302.452	70.31
302.667	-17.75
302.881	68.27
303.095	62.12
303.309	78.51
303.524	-73.04
303.738	-3.41
303.952	107.18
304.166	29.35
304.381	-19.8
304.595	98.99
304.809	23.21
305.023	37.55
305.237	-30.04
305.452	41.64
305.666	70.31
305.88	176.81
306.094	49.83
306.308	74.41
306.522	121.51
306.736	51.88
306.95	-34.13
307.164	55.98
307.379	21.16
307.593	0.68
307.807	37.55
308.021	31.4
308.235	21.16
308.449	-17.75
308.663	39.59
308.877	96.94
309.091	21.16
309.305	92.84
309.519	-73.04
309.733	15.02
309.947	4.78
310.161	107.18
310.374	45.74
310.588	49.83
310.802	39.59
311.016	-1.37
311.23	49.83
311.444	4.78
311.658	53.93
311.872	86.7
312.085	62.12
312.299	39.59
312.513	37.55
312.727	78.51
312.941	58.03
313.154	-3.41
313.368	86.7
313.582	-3.41
313.796	47.79
314.009	29.35
314.223	78.51
314.437	-66.9
314.651	86.7
314.864	21.16
315.078	0.68
315.292	-1.37
315.505	41.64
315.719	-68.95
315.933	37.55
316.146	-32.08
316.36	41.64
316.573	137.9
316.787	68.27
317.001	88.75
317.214	51.88
317.428	29.35
317.641	4.78
317.855	55.98
318.068	35.5
318.282	86.7
318.495	68.27
318.709	43.69
318.922	-1.37
319.136	37.55
319.349	90.79
319.563	37.55
319.776	27.31
319.99	21.16
320.203	78.51
320.417	-3.41
320.63	68.27
320.843	66.22
321.057	111.27
321.27	88.75
321.483	29.35
321.697	111.27
321.91	29.35
322.124	98.99
322.337	53.93
322.55	-11.61
322.763	6.83
322.977	-11.61
323.19	6.83
323.403	58.03
323.617	8.87
323.83	78.51
324.043	-3.41
324.256	47.79
324.469	33.45
324.683	33.45
324.896	62.12
325.109	62.12
325.322	-13.65
325.535	119.46
325.748	35.5
325.962	27.31
326.175	72.36
326.388	49.83
326.601	-32.08
326.814	88.75
327.027	-5.46
327.24	101.03
327.453	70.31
327.666	103.08
327.879	117.42
328.092	66.22
328.305	90.79
328.518	33.45
328.731	25.26
328.944	23.21
329.157	25.26
329.37	70.31
329.583	135.85
329.796	39.59
330.009	12.97
330.222	33.45
330.435	74.41
330.648	111.27
330.861	-9.56
331.073	72.36
331.286	137.9
331.499	33.45
331.712	-9.56
331.925	64.17
332.138	-11.61
332.35	80.55
332.563	47.79
332.776	154.28
332.989	64.17
333.202	55.98
333.414	25.26
333.627	80.55
333.84	-1.37
334.053	33.45
334.265	10.92
334.478	96.94
334.691	86.7
334.903	72.36
335.116	29.35
335.329	94.89
335.541	-9.56
335.754	43.69
335.966	62.12
336.179	19.11
336.392	29.35
336.604	4.78
336.817	84.65
337.029	78.51
337.242	10.92
337.454	-9.56
337.667	23.21
337.88	-3.41
338.092	53.93
338.305	80.55
338.517	-32.08
338.729	39.59
338.942	76.46
339.154	15.02
339.367	45.74
339.579	47.79
339.792	35.5
340.004	70.31
340.217	92.84
340.429	6.83
340.641	41.64
340.854	68.27
341.066	-25.94
341.278	21.16
341.491	64.17
341.703	107.18
341.915	-87.38
342.128	47.79
342.34	35.5
342.552	78.51
342.764	21.16
342.977	127.66
343.189	29.35
343.401	-3.41
343.613	-34.13
343.826	55.98
344.038	8.87
344.25	148.14
344.462	23.21
344.674	103.08
344.886	53.93
345.099	6.83
345.311	15.02
345.523	82.6
345.735	45.74
345.947	27.31
346.159	-7.51
346.371	-11.61
346.583	19.11
346.795	139.94
347.007	96.94
347.219	27.31
347.431	55.98
347.643	135.85
347.855	6.83
348.067	78.51
348.279	29.35
348.491	88.75
348.703	113.32
348.915	21.16
349.127	21.16
349.339	98.99
349.551	103.08
349.763	94.89
349.975	64.17
350.187	58.03
350.399	78.51
350.61	78.51
350.822	78.51
351.034	119.46
351.246	94.89
351.458	82.6
351.669	4.78
351.881	23.21
352.093	-3.41
352.305	29.35
352.517	86.7
352.728	127.66
352.94	62.12
353.152	51.88
353.363	-19.8
353.575	70.31
353.787	84.65
353.999	37.55
354.21	64.17
354.422	33.45
354.633	55.98
354.845	29.35
355.057	62.12
355.268	72.36
355.48	25.26
355.692	-19.8
355.903	21.16
356.115	6.83
356.326	6.83
356.538	139.94
356.749	55.98
356.961	86.7
357.172	-23.89
357.384	72.36
357.595	141.99
357.807	45.74
358.018	31.4
358.23	111.27
358.441	135.85
358.653	49.83
358.864	53.93
359.075	-9.56
359.287	66.22
359.498	78.51
359.709	29.35
359.921	23.21
360.132	47.79
360.344	-3.41
360.555	49.83
360.766	119.46
360.977	62.12
361.189	66.22
361.4	55.98
361.611	78.51
361.823	19.11
362.034	31.4
362.245	15.02
362.456	51.88
362.667	146.09
362.879	21.16
363.09	72.36
363.301	94.89
363.512	113.32
363.723	86.7
363.935	47.79
364.146	29.35
364.357	62.12
364.568	-19.8
364.779	-56.66
364.99	68.27
365.201	70.31
365.412	53.93
365.623	-40.28
365.834	41.64
366.045	53.93
366.256	37.55
366.467	131.75
366.678	82.6
366.889	49.83
367.1	-9.56
367.311	160.42
367.522	-7.51
367.733	-5.46
367.944	92.84
368.155	29.35
368.366	33.45
368.577	111.27
368.788	37.55
368.999	105.13
369.209	80.55
369.42	45.74
369.631	144.04
369.842	33.45
370.053	90.79
370.264	131.75
370.474	78.51
370.685	55.98
370.896	47.79
371.107	131.75
371.317	80.55
371.528	47.79
371.739	113.32
371.95	58.03
372.16	64.17
372.371	-19.8
372.582	45.74
372.792	101.03
373.003	113.32
373.214	119.46
373.424	135.85
373.635	33.45
373.846	70.31
374.056	-23.89
374.267	121.51
374.477	107.18
374.688	53.93
374.898	144.04
375.109	37.55
375.319	31.4
375.53	64.17
375.74	45.74
375.951	53.93
376.161	84.65
376.372	121.51
376.582	94.89
376.793	98.99
377.003	51.88
377.214	-3.41
377.424	82.6
377.635	103.08
377.845	39.59
378.055	39.59
378.266	21.16
378.476	119.46
378.686	111.27
378.897	90.79
379.107	144.04
379.317	41.64
379.528	37.55
379.738	49.83
379.948	8.87
380.158	105.13
380.369	-5.46
380.579	86.7
380.789	111.27
380.999	-19.8
381.21	160.42
381.42	121.51
381.63	25.26
381.84	6.83
382.05	29.35
382.261	144.04
382.471	4.78
382.681	25.26
382.891	70.31
383.101	98.99
383.311	62.12
383.521	45.74
383.731	107.18
383.941	-3.41
384.151	78.51
384.361	72.36
384.571	70.31
384.781	90.79
384.991	137.9
385.201	74.41
385.411	-34.13
385.621	103.08
385.831	55.98
386.041	49.83
386.251	45.74
386.461	94.89
386.671	-3.41
386.881	94.89
387.091	103.08
387.301	96.94
387.511	119.46
387.72	103.08
387.93	111.27
388.14	35.5
388.35	113.32
388.56	64.17
388.769	86.7
388.979	72.36
389.189	12.97
389.399	105.13
389.609	88.75
389.818	101.03
390.028	127.66
390.238	121.51
390.447	47.79
390.657	4.78
390.867	45.74
391.076	86.7
391.286	107.18
391.496	60.07
391.705	113.32
391.915	103.08
392.125	107.18
392.334	41.64
392.544	113.32
392.753	78.51
392.963	-7.51
393.172	119.46
393.382	35.5
393.591	174.76
393.801	72.36
394.01	90.79
394.22	115.37
394.429	78.51
394.639	62.12
394.848	170.66
395.058	133.8
395.267	115.37
395.477	144.04
395.686	94.89
395.895	236.2
396.105	176.81
396.314	144.04
396.524	156.33
396.733	144.04
396.942	152.23
397.152	127.66
397.361	113.32
397.57	86.7
397.78	55.98
397.989	115.37
398.198	131.75
398.407	78.51
398.617	94.89
398.826	135.85
399.035	170.66
399.244	156.33
399.453	43.69
399.663	76.46
399.872	33.45
400.081	86.7
400.29	160.42
400.499	78.51
400.708	180.9
400.917	72.36
401.127	168.62
401.336	96.94
401.545	201.38
401.754	146.09
401.963	170.66
402.172	103.08
402.381	109.23
402.59	117.42
402.799	146.09
403.008	185
403.217	123.56
403.426	103.08
403.635	144.04
403.844	201.38
404.053	178.86
404.262	156.33
404.471	225.96
404.68	203.43
404.888	160.42
405.097	199.34
405.306	121.51
405.515	154.28
405.724	191.14
405.933	221.86
406.142	228.01
406.35	242.34
406.559	172.71
406.768	242.34
406.977	279.21
407.185	303.78
407.394	342.69
407.603	275.11
407.812	271.01
408.02	303.78
408.229	242.34
408.438	332.45
408.646	250.53
408.855	324.26
409.064	350.89
409.272	383.65
409.481	301.73
409.69	299.69
409.898	332.45
410.107	348.84
410.315	389.8
410.524	311.97
410.733	389.8
410.941	393.89
411.15	508.58
411.358	459.43
411.567	471.72
411.775	494.24
411.984	508.58
412.192	549.54
412.401	563.87
412.609	559.78
412.818	506.53
413.026	672.42
413.234	647.84
413.443	692.9
413.651	653.98
413.86	721.57
414.068	762.53
414.276	789.15
414.485	709.28
414.693	807.58
414.901	842.4
415.11	856.73
415.318	875.17
415.526	914.08
415.734	924.32
415.943	1112.73
416.151	1004.19
416.359	1030.81
416.567	1061.53
416.776	1133.21
416.984	1090.2
417.192	1211.03
417.4	1258.14
417.608	1192.6
417.817	1299.09
418.025	1372.82
418.233	1401.49
418.441	1454.74
418.649	1536.66
418.857	1512.08
419.065	1628.82
419.273	1594
419.481	1706.64
419.689	1806.99
419.897	1862.29
420.105	1872.53
420.313	1759.89
420.521	2212.49
420.729	1915.53
420.937	2103.95
421.145	2120.33
421.353	2288.26
421.561	2392.71
421.769	2335.37
421.977	2609.79
422.185	2523.78
422.393	2570.88
422.601	2824.83
422.809	2853.5
423.017	2810.5
423.224	2968.19
423.432	3019.39
423.64	3031.68
423.848	3240.57
424.056	3224.19
424.263	3601.01
424.471	3592.82
424.679	3637.88
424.887	3828.34
425.094	3986.03
425.302	3912.3
425.51	3953.26
425.718	3879.54
425.925	4280.94
426.133	4260.46
426.341	4575.84
426.548	4706.91
426.756	4862.56
426.964	4876.9
427.171	5239.39
427.379	5251.67
427.586	5292.63
427.794	5382.74
428.001	5632.6
428.209	6005.33
428.417	5698.13
428.624	6459.98
428.832	6234.7
429.039	6394.44
429.247	6304.33
429.454	6793.8
429.662	7338.55
429.869	6826.56
430.076	7303.74
430.284	7080.51
430.491	7402.04
430.699	7961.14
430.906	7746.1
431.114	7828.02
431.321	8167.98
431.528	8206.89
431.736	9056.8
431.943	9220.64
432.15	9183.77
432.358	9085.47
432.565	9660.95
432.772	9777.69
432.979	10050.07
433.187	10328.59
433.394	10312.21
433.601	11028.99
433.808	11069.95
434.016	11022.85
434.223	11436.54
434.43	12194.29
434.637	11764.22
434.844	12548.59
435.052	12720.62
435.259	12489.2
435.466	12898.79
435.673	12587.5
435.88	13468.13
436.087	14432.72
436.294	14236.11
436.501	13898.2
436.708	14350.8
436.915	14889.42
437.122	15231.43
437.329	15294.91
437.537	15813.05
437.743	15995.32
437.95	15813.05
438.157	16806.31
438.364	17117.61
438.571	17383.84
438.778	17461.66
438.985	19044.74
439.192	18203.03
439.399	18913.67
439.606	18338.19
439.813	19229.06
440.02	20762.99
440.227	20214.13
440.433	19904.89
440.64	20736.37
440.847	20384.12
441.054	20996.46
441.261	22427.99
441.467	22036.83
441.674	22548.82
441.881	23294.28
442.088	23177.54
442.294	23220.55
442.501	23707.97
442.708	24277.3
442.914	24981.81
443.121	26521.88
443.328	25110.83
443.534	27400.46
443.741	26540.31
443.948	25948.45
444.154	27795.71
444.361	27459.85
444.568	28012.8
444.774	28031.23
444.981	28143.87
445.187	28842.23
445.394	30157.02
445.6	30083.3
445.807	32837.81
446.013	31647.94
446.22	31910.08
446.426	33140.91
446.633	33362.09
446.839	34539.68
447.046	33005.75
447.252	34707.61
447.459	34957.46
447.665	34590.87
447.871	36419.71
448.078	37910.63
448.284	36219.01
448.491	37195.89
448.697	38756.44
448.903	39057.49
449.11	39266.39
449.316	38627.42
449.522	39221.33
449.728	40441.92
449.935	40529.98
450.141	40157.25
450.347	41734.19
450.553	40118.34
450.76	40937.53
450.966	41998.38
451.172	41599.02
451.378	42809.37
451.584	42053.67
451.791	42723.36
451.997	42553.38
452.203	43192.34
452.409	43274.26
452.615	43147.29
452.821	41498.67
453.027	41459.76
453.233	43327.51
453.44	41728.05
453.646	41971.75
453.852	42330.15
454.058	42790.94
454.264	41553.97
454.47	42688.54
454.676	41369.65
454.882	42262.57
455.088	38953.05
455.294	39852.11
455.5	40654.91
455.705	40892.47
455.911	39243.86
456.117	38500.45
456.323	38049.89
456.529	35522.7
456.735	37107.83
456.941	36169.86
457.147	36020.36
457.352	34879.64
457.558	34594.97
457.764	34445.47
457.97	34293.92
458.176	33466.54
458.381	33472.68
458.587	31654.09
458.793	31394
458.999	29929.7
459.204	32544.95
459.41	31049.94
459.616	29200.62
459.821	29180.14
460.027	28780.79
460.233	28498.17
460.438	27158.8
460.644	27314.44
460.85	25956.64
461.055	25645.35
461.261	25772.32
461.466	23570.75
461.672	23167.31
461.878	24609.08
462.083	22780.24
462.289	22581.59
462.494	22272.34
462.7	21346.66
462.905	20515.19
463.111	21389.67
463.316	21524.83
463.522	21186.92
463.727	20947.31
463.932	20959.59
464.138	20681.07
464.343	20730.22
464.549	20121.98
464.754	21006.7
464.959	20492.66
465.165	20506.99
465.37	19784.06
465.575	18971.02
465.781	20238.71
465.986	19980.67
466.191	19188.1
