Data from USB4F104151__221__14-33-53-690.txt Node

Date: Thu Mar 13 14:33:53 EDT 2025
User: louis
Spectrometer: USB4F10415
Trigger mode: 4
Integration Time (sec): 2.500000E-2
Scans to average: 1
Electric dark correction enabled: true
Nonlinearity correction enabled: false
Boxcar width: 0
XAxis mode: Wavelengths
Number of Pixels in Spectrum: 3648
>>>>>Begin Spectral Data<<<<<
178.204	-163.67
178.424	-163.67
178.644	-163.67
178.864	-159.57
179.084	-75.6
179.304	-26.45
179.524	14.51
179.744	53.42
179.964	8.36
180.184	-8.02
180.404	-71.51
180.624	-65.36
180.844	-24.4
181.064	-3.93
181.283	55.47
181.503	65.71
181.723	2.22
181.943	-42.84
182.163	75.95
182.383	32.94
182.602	84.14
182.822	24.75
183.042	106.67
183.262	-3.93
183.482	73.9
183.701	-8.02
183.921	24.75
184.141	16.55
184.361	53.42
184.58	18.6
184.8	75.95
185.02	-32.6
185.239	18.6
185.459	-32.6
185.679	34.99
185.898	20.65
186.118	-3.93
186.338	88.23
186.557	37.03
186.777	-63.32
186.997	-57.17
187.216	-30.55
187.436	141.48
187.655	57.51
187.875	73.9
188.095	-8.02
188.314	88.23
188.534	94.38
188.753	8.36
188.973	73.9
189.192	100.52
189.412	116.9
189.631	-5.97
189.851	-5.97
190.07	94.38
190.29	-85.84
190.509	106.67
190.729	39.08
190.948	123.05
191.168	164.01
191.387	82.09
191.607	65.71
191.826	41.13
192.045	-16.21
192.265	41.13
192.484	8.36
192.704	16.55
192.923	24.75
193.142	155.82
193.362	37.03
193.581	114.86
193.8	92.33
194.02	75.95
194.239	20.65
194.458	-8.02
194.678	-16.21
194.897	-16.21
195.116	24.75
195.335	-16.21
195.555	-14.17
195.774	49.32
195.993	92.33
196.212	26.79
196.432	53.42
196.651	-57.17
196.87	94.38
197.089	114.86
197.308	34.99
197.528	51.37
197.747	-28.5
197.966	32.94
198.185	73.9
198.404	30.89
198.623	61.61
198.842	24.75
199.062	88.23
199.281	18.6
199.5	-8.02
199.719	-3.93
199.938	43.18
200.157	43.18
200.376	37.03
200.595	110.76
200.814	57.51
201.033	57.51
201.252	116.9
201.471	53.42
201.69	61.61
201.909	49.32
202.128	24.75
202.347	0.17
202.566	82.09
202.785	-12.12
203.004	12.46
203.223	135.34
203.442	26.79
203.661	-36.69
203.879	8.36
204.098	67.75
204.317	-5.97
204.536	32.94
204.755	41.13
204.974	45.23
205.193	-14.17
205.411	-12.12
205.63	-46.93
205.849	26.79
206.068	43.18
206.287	57.51
206.505	59.56
206.724	51.37
206.943	-18.26
207.162	-8.02
207.381	4.27
207.599	-12.12
207.818	47.27
208.037	24.75
208.255	4.27
208.474	-14.17
208.693	-55.12
208.911	8.36
209.13	57.51
209.349	10.41
209.567	-8.02
209.786	92.33
210.005	37.03
210.223	-20.31
210.442	49.32
210.661	-1.88
210.879	20.65
211.098	49.32
211.316	28.84
211.535	18.6
211.753	32.94
211.972	57.51
212.191	-12.12
212.409	12.46
212.628	30.89
212.846	-36.69
213.065	65.71
213.283	24.75
213.502	22.7
213.72	0.17
213.938	47.27
214.157	-38.74
214.375	32.94
214.594	16.55
214.812	135.34
215.031	57.51
215.249	84.14
215.467	-65.36
215.686	-14.17
215.904	61.61
216.122	90.28
216.341	92.33
216.559	49.32
216.778	98.47
216.996	24.75
217.214	69.8
217.432	-16.21
217.651	-73.56
217.869	20.65
218.087	49.32
218.306	10.41
218.524	32.94
218.742	65.71
218.96	39.08
219.179	24.75
219.397	-3.93
219.615	106.67
219.833	55.47
220.051	0.17
220.27	129.19
220.488	-16.21
220.706	16.55
220.924	-22.36
221.142	37.03
221.36	51.37
221.578	65.71
221.796	10.41
222.015	-3.93
222.233	84.14
222.451	180.39
222.669	26.79
222.887	84.14
223.105	84.14
223.323	34.99
223.541	32.94
223.759	24.75
223.977	32.94
224.195	55.47
224.413	98.47
224.631	49.32
224.849	8.36
225.067	92.33
225.285	4.27
225.503	26.79
225.721	63.66
225.939	24.75
226.157	0.17
226.375	112.81
226.592	4.27
226.81	30.89
227.028	67.75
227.246	102.57
227.464	43.18
227.682	75.95
227.9	61.61
228.117	-8.02
228.335	104.62
228.553	24.75
228.771	73.9
228.989	32.94
229.206	14.51
229.424	22.7
229.642	-40.79
229.86	-24.4
230.077	57.51
230.295	34.99
230.513	82.09
230.731	34.99
230.948	57.51
231.166	45.23
231.384	67.75
231.601	22.7
231.819	-16.21
232.037	41.13
232.254	24.75
232.472	49.32
232.689	53.42
232.907	34.99
233.125	8.36
233.342	-24.4
233.56	-10.07
233.777	-46.93
233.995	51.37
234.213	118.95
234.43	14.51
234.648	16.55
234.865	37.03
235.083	49.32
235.3	-12.12
235.518	28.84
235.735	59.56
235.953	90.28
236.17	18.6
236.388	32.94
236.605	61.61
236.822	135.34
237.04	34.99
237.257	32.94
237.475	-22.36
237.692	-22.36
237.909	32.94
238.127	-40.79
238.344	37.03
238.562	67.75
238.779	-16.21
238.996	18.6
239.214	28.84
239.431	90.28
239.648	41.13
239.865	-10.07
240.083	77.99
240.3	30.89
240.517	45.23
240.735	98.47
240.952	51.37
241.169	30.89
241.386	57.51
241.603	69.8
241.821	12.46
242.038	61.61
242.255	108.71
242.472	-32.6
242.689	82.09
242.907	8.36
243.124	28.84
243.341	-137.04
243.558	69.8
243.775	12.46
243.992	-8.02
244.209	37.03
244.426	123.05
244.643	98.47
244.86	-8.02
245.078	75.95
245.295	24.75
245.512	32.94
245.729	18.6
245.946	49.32
246.163	24.75
246.38	30.89
246.597	-3.93
246.814	45.23
247.031	73.9
247.248	73.9
247.464	69.8
247.681	127.14
247.898	22.7
248.115	88.23
248.332	10.41
248.549	10.41
248.766	90.28
248.983	2.22
249.2	-40.79
249.417	75.95
249.633	45.23
249.85	65.71
250.067	32.94
250.284	20.65
250.501	34.99
250.717	57.51
250.934	12.46
251.151	98.47
251.368	18.6
251.585	37.03
251.801	57.51
252.018	-53.08
252.235	110.76
252.451	10.41
252.668	49.32
252.885	37.03
253.102	32.94
253.318	69.8
253.535	30.89
253.752	49.32
253.968	49.32
254.185	-5.97
254.401	-3.93
254.618	4.27
254.835	-79.7
255.051	51.37
255.268	90.28
255.484	65.71
255.701	-38.74
255.917	53.42
256.134	12.46
256.351	0.17
256.567	77.99
256.784	20.65
257	-40.79
257.217	61.61
257.433	57.51
257.65	-8.02
257.866	57.51
258.082	12.46
258.299	-24.4
258.515	61.61
258.732	12.46
258.948	2.22
259.165	100.52
259.381	0.17
259.597	8.36
259.814	32.94
260.03	39.08
260.246	-8.02
260.463	2.22
260.679	32.94
260.895	65.71
261.112	26.79
261.328	8.36
261.544	-30.55
261.761	118.95
261.977	-14.17
262.193	26.79
262.409	88.23
262.626	67.75
262.842	20.65
263.058	34.99
263.274	49.32
263.49	24.75
263.707	73.9
263.923	51.37
264.139	14.51
264.355	47.27
264.571	45.23
264.787	55.47
265.004	32.94
265.22	67.75
265.436	57.51
265.652	86.19
265.868	75.95
266.084	4.27
266.3	16.55
266.516	10.41
266.732	26.79
266.948	51.37
267.164	41.13
267.38	16.55
267.596	98.47
267.812	106.67
268.028	63.66
268.244	51.37
268.46	77.99
268.676	53.42
268.892	114.86
269.108	-30.55
269.324	51.37
269.54	67.75
269.756	65.71
269.972	53.42
270.188	-51.03
270.403	41.13
270.619	-48.98
270.835	61.61
271.051	57.51
271.267	65.71
271.483	32.94
271.698	51.37
271.914	32.94
272.13	2.22
272.346	20.65
272.562	90.28
272.777	67.75
272.993	6.31
273.209	-28.5
273.425	28.84
273.64	20.65
273.856	67.75
274.072	34.99
274.287	51.37
274.503	30.89
274.719	65.71
274.934	84.14
275.15	51.37
275.366	37.03
275.581	0.17
275.797	57.51
276.012	22.7
276.228	67.75
276.444	45.23
276.659	32.94
276.875	8.36
277.09	-40.79
277.306	2.22
277.521	57.51
277.737	94.38
277.952	41.13
278.168	82.09
278.383	37.03
278.599	75.95
278.814	82.09
279.03	69.8
279.245	147.62
279.461	49.32
279.676	28.84
279.892	0.17
280.107	37.03
280.322	-28.5
280.538	114.86
280.753	-1.88
280.969	39.08
281.184	8.36
281.399	77.99
281.615	98.47
281.83	73.9
282.045	-14.17
282.26	92.33
282.476	6.31
282.691	59.56
282.906	20.65
283.122	41.13
283.337	-73.56
283.552	114.86
283.767	-14.17
283.983	106.67
284.198	24.75
284.413	57.51
284.628	-22.36
284.843	71.85
285.058	123.05
285.274	41.13
285.489	-30.55
285.704	90.28
285.919	65.71
286.134	102.57
286.349	14.51
286.564	32.94
286.779	116.9
286.995	-40.79
287.21	-32.6
287.425	47.27
287.64	51.37
287.855	28.84
288.07	-44.88
288.285	28.84
288.5	92.33
288.715	8.36
288.93	-32.6
289.145	12.46
289.36	59.56
289.575	-65.36
289.79	92.33
290.004	49.32
290.219	108.71
290.434	12.46
290.649	86.19
290.864	4.27
291.079	14.51
291.294	73.9
291.509	26.79
291.724	57.51
291.938	59.56
292.153	75.95
292.368	-44.88
292.583	51.37
292.798	43.18
293.012	26.79
293.227	24.75
293.442	10.41
293.657	18.6
293.871	37.03
294.086	65.71
294.301	8.36
294.516	80.04
294.73	65.71
294.945	8.36
295.16	82.09
295.374	-28.5
295.589	0.17
295.804	59.56
296.018	55.47
296.233	75.95
296.447	57.51
296.662	43.18
296.877	67.75
297.091	4.27
297.306	32.94
297.52	98.47
297.735	24.75
297.949	59.56
298.164	10.41
298.378	49.32
298.593	12.46
298.807	10.41
299.022	67.75
299.236	43.18
299.451	8.36
299.665	8.36
299.88	53.42
300.094	59.56
300.309	4.27
300.523	-8.02
300.737	-14.17
300.952	37.03
301.166	16.55
301.381	28.84
301.595	34.99
301.809	45.23
302.024	14.51
302.238	26.79
302.452	147.62
302.667	-26.45
302.881	82.09
303.095	51.37
303.309	73.9
303.524	4.27
303.738	6.31
303.952	34.99
304.166	53.42
304.381	10.41
304.595	135.34
304.809	-5.97
305.023	86.19
305.237	-14.17
305.452	80.04
305.666	0.17
305.88	67.75
306.094	110.76
306.308	96.43
306.522	131.24
306.736	92.33
306.95	-3.93
307.164	90.28
307.379	61.61
307.593	65.71
307.807	26.79
308.021	41.13
308.235	37.03
308.449	16.55
308.663	14.51
308.877	86.19
309.091	135.34
309.305	32.94
309.519	-22.36
309.733	10.41
309.947	-40.79
310.161	65.71
310.374	69.8
310.588	28.84
310.802	69.8
311.016	18.6
311.23	49.32
311.444	24.75
311.658	82.09
311.872	84.14
312.085	65.71
312.299	139.43
312.513	98.47
312.727	37.03
312.941	51.37
313.154	98.47
313.368	32.94
313.582	114.86
313.796	37.03
314.009	12.46
314.223	32.94
314.437	26.79
314.651	47.27
314.864	-16.21
315.078	6.31
315.292	-5.97
315.505	-22.36
315.719	65.71
315.933	75.95
316.146	12.46
316.36	37.03
316.573	6.31
316.787	20.65
317.001	22.7
317.214	-40.79
317.428	34.99
317.641	-12.12
317.855	61.61
318.068	-40.79
318.282	32.94
318.495	61.61
318.709	59.56
318.922	92.33
319.136	39.08
319.349	92.33
319.563	53.42
319.776	-8.02
319.99	-8.02
320.203	102.57
320.417	41.13
320.63	94.38
320.843	151.72
321.057	57.51
321.27	69.8
321.483	90.28
321.697	112.81
321.91	57.51
322.124	-18.26
322.337	-5.97
322.55	-3.93
322.763	28.84
322.977	4.27
323.19	28.84
323.403	65.71
323.617	102.57
323.83	57.51
324.043	0.17
324.256	84.14
324.469	18.6
324.683	32.94
324.896	-30.55
325.109	65.71
325.322	18.6
325.535	131.24
325.748	121
325.962	20.65
326.175	55.47
326.388	65.71
326.601	118.95
326.814	32.94
327.027	26.79
327.24	123.05
327.453	-3.93
327.666	98.47
327.879	65.71
328.092	0.17
328.305	37.03
328.518	26.79
328.731	0.17
328.944	65.71
329.157	32.94
329.37	65.71
329.583	139.43
329.796	129.19
330.009	-12.12
330.222	90.28
330.435	82.09
330.648	45.23
330.861	59.56
331.073	75.95
331.286	135.34
331.499	98.47
331.712	-34.64
331.925	51.37
332.138	22.7
332.35	82.09
332.563	-1.88
332.776	69.8
332.989	-8.02
333.202	110.76
333.414	57.51
333.627	98.47
333.84	65.71
334.053	61.61
334.265	0.17
334.478	-30.55
334.691	14.51
334.903	41.13
335.116	51.37
335.329	53.42
335.541	14.51
335.754	102.57
335.966	-8.02
336.179	2.22
336.392	30.89
336.604	28.84
336.817	30.89
337.029	108.71
337.242	24.75
337.454	96.43
337.667	53.42
337.88	57.51
338.092	53.42
338.305	47.27
338.517	32.94
338.729	73.9
338.942	114.86
339.154	32.94
339.367	8.36
339.579	4.27
339.792	84.14
340.004	41.13
340.217	49.32
340.429	28.84
340.641	57.51
340.854	-16.21
341.066	-16.21
341.278	90.28
341.491	30.89
341.703	106.67
341.915	4.27
342.128	67.75
342.34	-22.36
342.552	106.67
342.764	-8.02
342.977	43.18
343.189	90.28
343.401	45.23
343.613	16.55
343.826	49.32
344.038	-3.93
344.25	-12.12
344.462	-24.4
344.674	-5.97
344.886	16.55
345.099	16.55
345.311	164.01
345.523	41.13
345.735	-10.07
345.947	47.27
346.159	8.36
346.371	139.43
346.583	8.36
346.795	98.47
347.007	49.32
347.219	67.75
347.431	-22.36
347.643	98.47
347.855	45.23
348.067	106.67
348.279	71.85
348.491	61.61
348.703	67.75
348.915	61.61
349.127	-24.4
349.339	55.47
349.551	57.51
349.763	22.7
349.975	57.51
350.187	69.8
350.399	41.13
350.61	16.55
350.822	67.75
351.034	43.18
351.246	104.62
351.458	49.32
351.669	26.79
351.881	20.65
352.093	22.7
352.305	110.76
352.517	131.24
352.728	176.3
352.94	98.47
353.152	94.38
353.363	28.84
353.575	39.08
353.787	71.85
353.999	123.05
354.21	43.18
354.422	57.51
354.633	10.41
354.845	100.52
355.057	18.6
355.268	102.57
355.48	53.42
355.692	65.71
355.903	139.43
356.115	4.27
356.326	51.37
356.538	145.58
356.749	106.67
356.961	145.58
357.172	-32.6
357.384	12.46
357.595	116.9
357.807	8.36
358.018	41.13
358.23	77.99
358.441	121
358.653	69.8
358.864	69.8
359.075	-46.93
359.287	65.71
359.498	43.18
359.709	32.94
359.921	34.99
360.132	67.75
360.344	24.75
360.555	18.6
360.766	90.28
360.977	57.51
361.189	127.14
361.4	16.55
361.611	131.24
361.823	32.94
362.034	57.51
362.245	0.17
362.456	75.95
362.667	73.9
362.879	121
363.09	8.36
363.301	12.46
363.512	69.8
363.723	16.55
363.935	43.18
364.146	24.75
364.357	2.22
364.568	69.8
364.779	18.6
364.99	104.62
365.201	82.09
365.412	30.89
365.623	-30.55
365.834	114.86
366.045	16.55
366.256	67.75
366.467	77.99
366.678	-28.5
366.889	16.55
367.1	100.52
367.311	73.9
367.522	26.79
367.733	106.67
367.944	129.19
368.155	84.14
368.366	82.09
368.577	8.36
368.788	125.1
368.999	12.46
369.209	67.75
369.42	114.86
369.631	77.99
369.842	106.67
370.053	-73.56
370.264	47.27
370.474	53.42
370.685	77.99
370.896	41.13
371.107	90.28
371.317	92.33
371.528	51.37
371.739	61.61
371.95	98.47
372.16	65.71
372.371	86.19
372.582	69.8
372.792	82.09
373.003	125.1
373.214	16.55
373.424	84.14
373.635	51.37
373.846	94.38
374.056	-8.02
374.267	32.94
374.477	24.75
374.688	82.09
374.898	94.38
375.109	32.94
375.319	131.24
375.53	73.9
375.74	65.71
375.951	37.03
376.161	26.79
376.372	51.37
376.582	-28.5
376.793	108.71
377.003	49.32
377.214	22.7
377.424	32.94
377.635	98.47
377.845	45.23
378.055	82.09
378.266	-10.07
378.476	139.43
378.686	94.38
378.897	69.8
379.107	53.42
379.317	59.56
379.528	67.75
379.738	43.18
379.948	16.55
380.158	123.05
380.369	92.33
380.579	59.56
380.789	49.32
380.999	41.13
381.21	100.52
381.42	157.86
381.63	28.84
381.84	41.13
382.05	73.9
382.261	102.57
382.471	82.09
382.681	90.28
382.891	104.62
383.101	114.86
383.311	65.71
383.521	96.43
383.731	94.38
383.941	41.13
384.151	164.01
384.361	90.28
384.571	172.2
384.781	16.55
384.991	114.86
385.201	90.28
385.411	139.43
385.621	32.94
385.831	145.58
386.041	73.9
386.251	16.55
386.461	147.62
386.671	82.09
386.881	10.41
387.091	92.33
387.301	86.19
387.511	22.7
387.72	90.28
387.93	123.05
388.14	-65.36
388.35	86.19
388.56	82.09
388.769	-3.93
388.979	43.18
389.189	65.71
389.399	90.28
389.609	127.14
389.818	114.86
390.028	94.38
390.238	92.33
390.447	147.62
390.657	106.67
390.867	102.57
391.076	49.32
391.286	110.76
391.496	108.71
391.705	98.47
391.915	133.29
392.125	92.33
392.334	90.28
392.544	200.87
392.753	8.36
392.963	90.28
393.172	164.01
393.382	16.55
393.591	133.29
393.801	114.86
394.01	98.47
394.22	90.28
394.429	67.75
394.639	45.23
394.848	104.62
395.058	116.9
395.267	139.43
395.477	0.17
395.686	123.05
395.895	112.81
396.105	131.24
396.314	100.52
396.524	90.28
396.733	141.48
396.942	67.75
397.152	157.86
397.361	168.1
397.57	98.47
397.78	100.52
397.989	155.82
398.198	149.67
398.407	45.23
398.617	94.38
398.826	141.48
399.035	145.58
399.244	114.86
399.453	102.57
399.663	88.23
399.872	217.26
400.081	84.14
400.29	182.44
400.499	164.01
400.708	204.97
400.917	45.23
401.127	123.05
401.336	116.9
401.545	239.78
401.754	133.29
401.963	108.71
402.172	98.47
402.381	123.05
402.59	86.19
402.799	123.05
403.008	184.49
403.217	172.2
403.426	172.2
403.635	125.1
403.844	254.12
404.053	77.99
404.262	172.2
404.471	164.01
404.68	164.01
404.888	174.25
405.097	164.01
405.306	192.68
405.515	229.54
405.724	166.06
405.933	264.36
406.142	223.4
406.35	198.82
406.559	139.43
406.768	217.26
406.977	329.89
407.185	258.21
407.394	270.5
407.603	200.87
407.812	319.65
408.02	374.95
408.229	282.79
408.438	299.17
408.646	290.98
408.855	319.65
409.064	393.38
409.272	372.9
409.481	442.53
409.69	352.42
409.898	348.33
410.107	413.86
410.315	495.78
410.524	450.72
410.733	516.26
410.941	497.83
411.15	516.26
411.358	508.07
411.567	540.83
411.775	540.83
411.984	573.6
412.192	565.41
412.401	630.95
412.609	663.71
412.818	702.62
413.026	600.23
413.234	700.58
413.443	690.34
413.651	759.97
413.86	673.95
414.068	831.65
414.276	815.26
414.485	770.21
414.693	837.79
414.901	985.24
415.11	956.57
415.318	886.94
415.526	958.62
415.734	999.58
415.943	1032.35
416.151	1155.23
416.359	1034.39
416.567	1126.55
416.776	1138.84
416.984	1263.77
417.192	1327.25
417.4	1314.97
417.608	1231
417.817	1360.02
418.025	1429.65
418.233	1550.48
418.441	1573.01
418.649	1466.52
418.857	1622.16
419.065	1720.46
419.273	1769.62
419.481	1818.77
419.689	1876.11
419.897	1949.84
420.105	1982.6
420.313	2031.76
420.521	2134.15
420.729	2123.91
420.937	2220.17
421.145	2369.67
421.353	2490.5
421.561	2650.24
421.769	2609.28
421.977	2746.5
422.185	2664.58
422.393	2875.52
422.601	3129.47
422.809	2992.25
423.017	3047.55
423.224	3235.96
423.432	3295.35
423.64	3348.6
423.848	3580.02
424.056	3512.44
424.263	3846.26
424.471	3840.11
424.679	3901.55
424.887	3948.65
425.094	4292.71
425.302	4210.79
425.51	4417.64
425.718	4538.47
425.925	4401.26
426.133	4735.07
426.341	5077.09
426.548	5275.74
426.756	5193.82
426.964	5374.04
427.171	5658.71
427.379	5644.37
427.586	5861.46
427.794	5832.79
428.001	6334.54
428.209	6594.63
428.417	6391.88
428.624	6715.46
428.832	6864.96
429.039	6936.64
429.247	6826.05
429.454	7292.99
429.662	7981.1
429.869	7422.01
430.076	7995.44
430.284	7733.3
430.491	8044.59
430.699	8542.25
430.906	8527.91
431.114	8757.29
431.321	9109.54
431.528	9224.22
431.736	9754.65
431.943	10027.03
432.15	9852.95
432.358	9873.43
432.565	10473.48
432.772	10323.98
432.979	11016.19
433.187	11055.11
433.394	11413.5
433.601	11999.22
433.808	11886.58
434.016	12111.86
434.223	12402.67
434.43	13393.89
434.637	12861.41
434.844	13764.57
435.052	14079.96
435.259	14010.32
435.466	14094.29
435.673	14079.96
435.88	14888.9
436.087	15488.96
436.294	15290.31
436.501	15343.55
436.708	15601.6
436.915	16195.51
437.122	16744.36
437.329	16719.79
437.537	17418.14
437.743	17520.54
437.95	17414.05
438.157	18319.25
438.364	18864.01
438.571	18947.98
438.778	19048.33
438.985	20631.41
439.192	19838.84
439.399	20428.66
439.606	20021.11
439.813	21196.65
440.02	22591.31
440.227	21962.59
440.433	22081.37
440.64	22335.32
440.847	22302.55
441.054	22988.62
441.261	24547.12
441.467	24266.55
441.674	24776.5
441.881	25542.44
442.088	25237.29
442.294	25257.77
442.501	25610.02
442.708	26240.79
442.914	27631.37
443.121	28219.13
443.328	27748.1
443.534	29941.47
443.741	28903.15
443.948	28331.77
444.154	30539.48
444.361	30246.62
444.568	30365.4
444.774	30680.79
444.981	31022.8
445.187	31405.77
445.394	32812.73
445.6	32741.05
445.807	35567.24
446.013	34248.35
446.22	34774.68
446.426	36556.41
446.633	36796.03
446.839	38129.25
447.046	35759.75
447.252	38026.85
447.459	38293.09
447.665	37963.37
447.871	39624.27
448.078	41238.07
448.284	39253.59
448.491	40107.59
448.697	42235.43
448.903	42520.1
449.11	42612.26
449.316	42202.66
449.522	43066.91
449.728	43767.31
449.935	44291.59
450.141	44432.9
450.347	45366.77
450.553	43568.66
450.76	44539.4
450.966	46001.64
451.172	45458.93
451.378	46405.09
451.584	45602.29
451.791	46573.03
451.997	46411.24
452.203	46999.01
452.409	47486.42
452.615	46534.12
452.821	44901.89
453.027	44588.55
453.233	47236.57
453.44	45166.07
453.646	45327.86
453.852	45587.96
454.058	46513.64
454.264	45141.5
454.47	46079.47
454.676	44649.99
454.882	46247.4
455.088	42411.56
455.294	42976.79
455.5	43914.76
455.705	44303.88
455.911	42358.31
456.117	41651.76
456.323	40851
456.529	38954.58
456.735	40947.26
456.941	39317.07
457.147	38841.95
457.352	37768.81
457.558	37217.91
457.764	37584.49
457.97	36431.49
458.176	35542.67
458.381	35808.9
458.587	34100.9
458.793	34143.91
458.999	32388.8
459.204	34530.97
459.41	33437.36
459.616	31747.78
459.821	31360.72
460.027	31358.67
460.233	30990.03
460.438	29120.24
460.644	29325.04
460.85	28262.14
461.055	27690.76
461.261	27737.86
461.466	25356.07
461.672	24921.9
461.878	26316.57
462.083	24674.1
462.289	24385.33
462.494	24246.07
462.7	22792.01
462.905	22423.38
463.111	22736.72
463.316	23195.46
463.522	22710.1
463.727	22914.89
463.932	22765.39
464.138	22116.19
464.343	22601.55
464.549	22005.59
464.754	22673.23
464.959	22708.05
465.165	22060.89
465.37	21188.46
465.575	20746.09
465.781	21677.92
465.986	21571.43
466.191	20989.8
466.397	20422.52
466.602	19566.46
466.807	20049.78
