Data from USB4F104151__304__14-34-59-971.txt Node

Date: Thu Mar 13 14:34:59 EDT 2025
User: louis
Spectrometer: USB4F10415
Trigger mode: 4
Integration Time (sec): 2.500000E-2
Scans to average: 1
Electric dark correction enabled: true
Nonlinearity correction enabled: false
Boxcar width: 0
XAxis mode: Wavelengths
Number of Pixels in Spectrum: 3648
>>>>>Begin Spectral Data<<<<<
178.204	-161.79
178.424	-161.79
178.644	-161.79
178.864	-169.98
179.084	-94.21
179.304	-32.77
179.524	-6.14
179.744	-43.01
179.964	59.39
180.184	2.05
180.404	10.24
180.624	20.48
180.844	-4.1
181.064	-4.1
181.283	-24.58
181.503	30.72
181.723	-8.19
181.943	-22.53
182.163	96.25
182.383	34.82
182.602	67.58
182.822	110.59
183.042	28.67
183.262	-32.77
183.482	-10.24
183.701	-6.14
183.921	120.83
184.141	20.48
184.361	108.54
184.58	18.43
184.8	108.54
185.02	14.34
185.239	67.58
185.459	26.62
185.679	75.77
185.898	-45.06
186.118	92.16
186.338	45.06
186.557	59.39
186.777	34.82
186.997	65.54
187.216	20.48
187.436	67.58
187.655	34.82
187.875	59.39
188.095	126.97
188.314	77.82
188.534	-18.43
188.753	59.39
188.973	26.62
189.192	137.21
189.412	102.4
189.631	34.82
189.851	49.15
190.07	75.77
190.29	-14.34
190.509	6.14
190.729	4.1
190.948	141.31
191.168	200.7
191.387	75.77
191.607	45.06
191.826	102.4
192.045	75.77
192.265	53.25
192.484	116.73
192.704	71.68
192.923	2.05
193.142	112.64
193.362	69.63
193.581	98.3
193.8	14.34
194.02	75.77
194.239	-36.86
194.458	-4.1
194.678	63.49
194.897	6.14
195.116	45.06
195.335	47.1
195.555	92.16
195.774	43.01
195.993	73.73
196.212	83.97
196.432	51.2
196.651	55.3
196.87	26.62
197.089	53.25
197.308	75.77
197.528	47.1
197.747	-12.29
197.966	20.48
198.185	92.16
198.404	34.82
198.623	131.07
198.842	4.1
199.062	43.01
199.281	63.49
199.5	30.72
199.719	45.06
199.938	65.54
200.157	34.82
200.376	38.91
200.595	10.24
200.814	-6.14
201.033	-55.3
201.252	106.49
201.471	-34.82
201.69	59.39
201.909	22.53
202.128	51.2
202.347	61.44
202.566	67.58
202.785	-47.1
203.004	12.29
203.223	92.16
203.442	43.01
203.661	83.97
203.879	71.68
204.098	92.16
204.317	61.44
204.536	71.68
204.755	51.2
204.974	59.39
205.193	47.1
205.411	116.73
205.63	30.72
205.849	149.5
206.068	-10.24
206.287	22.53
206.505	104.45
206.724	12.29
206.943	-40.96
207.162	102.4
207.381	26.62
207.599	12.29
207.818	40.96
208.037	-8.19
208.255	67.58
208.474	108.54
208.693	-6.14
208.911	124.93
209.13	34.82
209.349	141.31
209.567	71.68
209.786	20.48
210.005	-14.34
210.223	12.29
210.442	-20.48
210.661	12.29
210.879	34.82
211.098	96.25
211.316	79.87
211.535	63.49
211.753	26.62
211.972	55.3
212.191	59.39
212.409	-2.05
212.628	94.21
212.846	-14.34
213.065	129.02
213.283	75.77
213.502	102.4
213.72	55.3
213.938	75.77
214.157	10.24
214.375	59.39
214.594	86.01
214.812	69.63
215.031	90.11
215.249	-14.34
215.467	55.3
215.686	38.91
215.904	55.3
216.122	40.96
216.341	86.01
216.559	-14.34
216.778	28.67
216.996	126.97
217.214	53.25
217.432	12.29
217.651	-71.68
217.869	94.21
218.087	51.2
218.306	34.82
218.524	40.96
218.742	10.24
218.96	83.97
219.179	18.43
219.397	34.82
219.615	88.06
219.833	110.59
220.051	6.14
220.27	51.2
220.488	67.58
220.706	30.72
220.924	34.82
221.142	0
221.36	34.82
221.578	-34.82
221.796	34.82
222.015	22.53
222.233	79.87
222.451	118.78
222.669	47.1
222.887	94.21
223.105	20.48
223.323	22.53
223.541	14.34
223.759	36.86
223.977	4.1
224.195	116.73
224.413	-28.67
224.631	55.3
224.849	65.54
225.067	86.01
225.285	34.82
225.503	43.01
225.721	-71.68
225.939	55.3
226.157	18.43
226.375	174.08
226.592	0
226.81	-2.05
227.028	118.78
227.246	18.43
227.464	51.2
227.682	69.63
227.9	71.68
228.117	112.64
228.335	61.44
228.553	10.24
228.771	83.97
228.989	22.53
229.206	-6.14
229.424	-20.48
229.642	-4.1
229.86	38.91
230.077	88.06
230.295	26.62
230.513	43.01
230.731	75.77
230.948	126.97
231.166	83.97
231.384	2.05
231.601	-18.43
231.819	118.78
232.037	71.68
232.254	4.1
232.472	26.62
232.689	34.82
232.907	28.67
233.125	92.16
233.342	100.35
233.56	30.72
233.777	26.62
233.995	6.14
234.213	79.87
234.43	53.25
234.648	102.4
234.865	-38.91
235.083	34.82
235.3	47.1
235.518	67.58
235.735	114.69
235.953	100.35
236.17	69.63
236.388	16.38
236.605	34.82
236.822	86.01
237.04	88.06
237.257	28.67
237.475	47.1
237.692	45.06
237.909	57.34
238.127	4.1
238.344	86.01
238.562	36.86
238.779	75.77
238.996	6.14
239.214	-10.24
239.431	30.72
239.648	77.82
239.865	6.14
240.083	43.01
240.3	71.68
240.517	51.2
240.735	2.05
240.952	53.25
241.169	4.1
241.386	61.44
241.603	65.54
241.821	-6.14
242.038	55.3
242.255	129.02
242.472	18.43
242.689	75.77
242.907	81.92
243.124	34.82
243.341	-30.72
243.558	-24.58
243.775	-28.67
243.992	-20.48
244.209	36.86
244.426	165.89
244.643	114.69
244.86	110.59
245.078	4.1
245.295	-14.34
245.512	4.1
245.729	43.01
245.946	94.21
246.163	16.38
246.38	77.82
246.597	45.06
246.814	43.01
247.031	79.87
247.248	12.29
247.464	43.01
247.681	104.45
247.898	14.34
248.115	71.68
248.332	20.48
248.549	83.97
248.766	126.97
248.983	108.54
249.2	10.24
249.417	36.86
249.633	94.21
249.85	69.63
250.067	2.05
250.284	26.62
250.501	102.4
250.717	65.54
250.934	36.86
251.151	-34.82
251.368	-34.82
251.585	86.01
251.801	30.72
252.018	36.86
252.235	75.77
252.451	53.25
252.668	-38.91
252.885	71.68
253.102	98.3
253.318	28.67
253.535	47.1
253.752	-71.68
253.968	110.59
254.185	-18.43
254.401	20.48
254.618	18.43
254.835	6.14
255.051	129.02
255.268	116.73
255.484	63.49
255.701	100.35
255.917	10.24
256.134	67.58
256.351	12.29
256.567	-40.96
256.784	55.3
257	30.72
257.217	51.2
257.433	-4.1
257.65	120.83
257.866	118.78
258.082	18.43
258.299	-36.86
258.515	36.86
258.732	75.77
258.948	61.44
259.165	43.01
259.381	-2.05
259.597	83.97
259.814	8.19
260.03	53.25
260.246	47.1
260.463	112.64
260.679	174.08
260.895	-18.43
261.112	92.16
261.328	53.25
261.544	2.05
261.761	126.97
261.977	20.48
262.193	-14.34
262.409	4.1
262.626	104.45
262.842	75.77
263.058	14.34
263.274	6.14
263.49	57.34
263.707	0
263.923	2.05
264.139	-4.1
264.355	53.25
264.571	133.12
264.787	69.63
265.004	18.43
265.22	73.73
265.436	10.24
265.652	34.82
265.868	59.39
266.084	96.25
266.3	-2.05
266.516	-20.48
266.732	102.4
266.948	43.01
267.164	100.35
267.38	79.87
267.596	59.39
267.812	57.34
268.028	83.97
268.244	43.01
268.46	83.97
268.676	-14.34
268.892	53.25
269.108	59.39
269.324	18.43
269.54	51.2
269.756	67.58
269.972	-30.72
270.188	26.62
270.403	47.1
270.619	30.72
270.835	26.62
271.051	79.87
271.267	-6.14
271.483	133.12
271.698	88.06
271.914	2.05
272.13	40.96
272.346	94.21
272.562	47.1
272.777	120.83
272.993	38.91
273.209	86.01
273.425	40.96
273.64	30.72
273.856	8.19
274.072	131.07
274.287	2.05
274.503	18.43
274.719	51.2
274.934	124.93
275.15	-63.49
275.366	63.49
275.581	-47.1
275.797	20.48
276.012	94.21
276.228	22.53
276.444	61.44
276.659	43.01
276.875	38.91
277.09	-65.53
277.306	-45.06
277.521	63.49
277.737	69.63
277.952	69.63
278.168	79.87
278.383	73.73
278.599	73.73
278.814	65.54
279.03	63.49
279.245	145.41
279.461	43.01
279.676	94.21
279.892	28.67
280.107	61.44
280.322	-30.72
280.538	-22.53
280.753	26.62
280.969	104.45
281.184	-4.1
281.399	63.49
281.615	26.62
281.83	8.19
282.045	30.72
282.26	8.19
282.476	59.39
282.691	-34.82
282.906	36.86
283.122	122.88
283.337	2.05
283.552	14.34
283.767	26.62
283.983	165.89
284.198	79.87
284.413	18.43
284.628	-6.14
284.843	-14.34
285.058	96.25
285.274	34.82
285.489	-36.86
285.704	67.58
285.919	-4.1
286.134	79.87
286.349	-71.68
286.564	34.82
286.779	98.3
286.995	-49.15
287.21	-6.14
287.425	18.43
287.64	24.58
287.855	116.73
288.07	47.1
288.285	36.86
288.5	77.82
288.715	57.34
288.93	10.24
289.145	67.58
289.36	20.48
289.575	-10.24
289.79	51.2
290.004	18.43
290.219	104.45
290.434	14.34
290.649	26.62
290.864	-16.38
291.079	4.1
291.294	110.59
291.509	55.3
291.724	10.24
291.938	-10.24
292.153	126.97
292.368	-20.48
292.583	75.77
292.798	110.59
293.012	77.82
293.227	55.3
293.442	20.48
293.657	61.44
293.871	67.58
294.086	-34.82
294.301	98.3
294.516	75.77
294.73	-6.14
294.945	8.19
295.16	75.77
295.374	83.97
295.589	73.73
295.804	-45.06
296.018	2.05
296.233	43.01
296.447	73.73
296.662	14.34
296.877	135.17
297.091	59.39
297.306	139.26
297.52	69.63
297.735	51.2
297.949	30.72
298.164	22.53
298.378	34.82
298.593	53.25
298.807	-4.1
299.022	2.05
299.236	102.4
299.451	12.29
299.665	34.82
299.88	36.86
300.094	90.11
300.309	34.82
300.523	77.82
300.737	73.73
300.952	83.97
301.166	75.77
301.381	-22.53
301.595	45.06
301.809	2.05
302.024	26.62
302.238	51.2
302.452	34.82
302.667	129.02
302.881	63.49
303.095	124.93
303.309	51.2
303.524	73.73
303.738	40.96
303.952	2.05
304.166	-14.34
304.381	-32.77
304.595	126.97
304.809	57.34
305.023	10.24
305.237	45.06
305.452	67.58
305.666	112.64
305.88	96.25
306.094	59.39
306.308	30.72
306.522	106.49
306.736	53.25
306.95	53.25
307.164	36.86
307.379	114.69
307.593	14.34
307.807	83.97
308.021	57.34
308.235	71.68
308.449	26.62
308.663	18.43
308.877	110.59
309.091	43.01
309.305	94.21
309.519	-40.96
309.733	26.62
309.947	8.19
310.161	28.67
310.374	83.97
310.588	88.06
310.802	-8.19
311.016	10.24
311.23	30.72
311.444	77.82
311.658	12.29
311.872	112.64
312.085	34.82
312.299	79.87
312.513	77.82
312.727	47.1
312.941	83.97
313.154	88.06
313.368	-38.91
313.582	92.16
313.796	120.83
314.009	94.21
314.223	126.97
314.437	69.63
314.651	30.72
314.864	69.63
315.078	-10.24
315.292	-4.1
315.505	26.62
315.719	149.5
315.933	26.62
316.146	28.67
316.36	51.2
316.573	2.05
316.787	96.25
317.001	26.62
317.214	-36.86
317.428	18.43
317.641	120.83
317.855	30.72
318.068	-22.53
318.282	49.15
318.495	174.08
318.709	40.96
318.922	18.43
319.136	77.82
319.349	-2.05
319.563	34.82
319.776	102.4
319.99	51.2
320.203	30.72
320.417	24.58
320.63	116.73
320.843	36.86
321.057	73.73
321.27	59.39
321.483	55.3
321.697	71.68
321.91	69.63
322.124	114.69
322.337	75.77
322.55	61.44
322.763	38.91
322.977	4.1
323.19	43.01
323.403	28.67
323.617	55.3
323.83	88.06
324.043	59.39
324.256	51.2
324.469	20.48
324.683	51.2
324.896	-34.82
325.109	65.54
325.322	24.58
325.535	126.97
325.748	112.64
325.962	22.53
326.175	51.2
326.388	92.16
326.601	34.82
326.814	51.2
327.027	26.62
327.24	34.82
327.453	6.14
327.666	65.54
327.879	34.82
328.092	108.54
328.305	14.34
328.518	83.97
328.731	69.63
328.944	47.1
329.157	36.86
329.37	28.67
329.583	133.12
329.796	116.73
330.009	-28.67
330.222	69.63
330.435	151.55
330.648	92.16
330.861	79.87
331.073	26.62
331.286	135.17
331.499	53.25
331.712	6.14
331.925	83.97
332.138	4.1
332.35	47.1
332.563	4.1
332.776	26.62
332.989	49.15
333.202	-4.1
333.414	26.62
333.627	90.11
333.84	18.43
334.053	110.59
334.265	34.82
334.478	51.2
334.691	6.14
334.903	88.06
335.116	16.38
335.329	22.53
335.541	-2.05
335.754	157.69
335.966	18.43
336.179	30.72
336.392	59.39
336.604	-2.05
336.817	36.86
337.029	51.2
337.242	63.49
337.454	32.77
337.667	28.67
337.88	67.58
338.092	108.54
338.305	61.44
338.517	53.25
338.729	133.12
338.942	69.63
339.154	-38.91
339.367	83.97
339.579	73.73
339.792	55.3
340.004	75.77
340.217	75.77
340.429	71.68
340.641	-10.24
340.854	120.83
341.066	34.82
341.278	133.12
341.491	200.7
341.703	96.25
341.915	67.58
342.128	40.96
342.34	69.63
342.552	83.97
342.764	24.58
342.977	51.2
343.189	83.97
343.401	18.43
343.613	12.29
343.826	30.72
344.038	20.48
344.25	-57.34
344.462	-4.1
344.674	-26.62
344.886	92.16
345.099	100.35
345.311	100.35
345.523	-4.1
345.735	53.25
345.947	71.68
346.159	18.43
346.371	12.29
346.583	86.01
346.795	69.63
347.007	77.82
347.219	98.3
347.431	36.86
347.643	53.25
347.855	51.2
348.067	112.64
348.279	10.24
348.491	137.21
348.703	92.16
348.915	53.25
349.127	53.25
349.339	92.16
349.551	59.39
349.763	124.93
349.975	20.48
350.187	67.58
350.399	59.39
350.61	49.15
350.822	61.44
351.034	34.82
351.246	43.01
351.458	47.1
351.669	65.54
351.881	20.48
352.093	104.45
352.305	2.05
352.517	38.91
352.728	88.06
352.94	69.63
353.152	104.45
353.363	43.01
353.575	-4.1
353.787	157.69
353.999	55.3
354.21	104.45
354.422	47.1
354.633	71.68
354.845	53.25
355.057	73.73
355.268	104.45
355.48	77.82
355.692	-30.72
355.903	28.67
356.115	61.44
356.326	-69.63
356.538	94.21
356.749	28.67
356.961	69.63
357.172	28.67
357.384	67.58
357.595	102.4
357.807	149.5
358.018	59.39
358.23	63.49
358.441	77.82
358.653	43.01
358.864	47.1
359.075	-4.1
359.287	141.31
359.498	-4.1
359.709	86.01
359.921	88.06
360.132	-12.29
360.344	26.62
360.555	71.68
360.766	28.67
360.977	65.54
361.189	34.82
361.4	108.54
361.611	100.35
361.823	28.67
362.034	96.25
362.245	4.1
362.456	0
362.667	81.92
362.879	18.43
363.09	81.92
363.301	26.62
363.512	20.48
363.723	94.21
363.935	18.43
364.146	79.87
364.357	12.29
364.568	67.58
364.779	77.82
364.99	79.87
365.201	-12.29
365.412	83.97
365.623	-30.72
365.834	20.48
366.045	94.21
366.256	141.31
366.467	67.58
366.678	67.58
366.889	75.77
367.1	102.4
367.311	75.77
367.522	20.48
367.733	75.77
367.944	192.51
368.155	-12.29
368.366	143.36
368.577	92.16
368.788	75.77
368.999	24.58
369.209	45.06
369.42	135.17
369.631	122.88
369.842	106.49
370.053	18.43
370.264	77.82
370.474	53.25
370.685	69.63
370.896	51.2
371.107	96.25
371.317	143.36
371.528	100.35
371.739	106.49
371.95	2.05
372.16	-6.14
372.371	-26.62
372.582	65.54
372.792	36.86
373.003	98.3
373.214	12.29
373.424	112.64
373.635	14.34
373.846	100.35
374.056	100.35
374.267	86.01
374.477	59.39
374.688	0
374.898	40.96
375.109	75.77
375.319	92.16
375.53	102.4
375.74	40.96
375.951	71.68
376.161	92.16
376.372	81.92
376.582	59.39
376.793	65.54
377.003	10.24
377.214	53.25
377.424	88.06
377.635	135.17
377.845	28.67
378.055	92.16
378.266	36.86
378.476	69.63
378.686	63.49
378.897	59.39
379.107	86.01
379.317	106.49
379.528	4.1
379.738	86.01
379.948	83.97
380.158	108.54
380.369	59.39
380.579	83.97
380.789	14.34
380.999	149.5
381.21	43.01
381.42	169.98
381.63	92.16
381.84	40.96
382.05	12.29
382.261	24.58
382.471	92.16
382.681	43.01
382.891	114.69
383.101	108.54
383.311	-4.1
383.521	118.78
383.731	55.3
383.941	124.93
384.151	0
384.361	12.29
384.571	38.91
384.781	36.86
384.991	149.5
385.201	137.21
385.411	75.77
385.621	151.55
385.831	126.97
386.041	108.54
386.251	34.82
386.461	139.26
386.671	135.17
386.881	92.16
387.091	151.55
387.301	92.16
387.511	22.53
387.72	92.16
387.93	30.72
388.14	59.39
388.35	73.73
388.56	75.77
388.769	79.87
388.979	79.87
389.189	34.82
389.399	-2.05
389.609	104.45
389.818	83.97
390.028	55.3
390.238	129.02
390.447	18.43
390.657	61.44
390.867	30.72
391.076	-38.91
391.286	83.97
391.496	118.78
391.705	106.49
391.915	149.5
392.125	129.02
392.334	108.54
392.544	133.12
392.753	-22.53
392.963	26.62
393.172	67.58
393.382	-28.67
393.591	106.49
393.801	71.68
394.01	188.41
394.22	83.97
394.429	120.83
394.639	71.68
394.848	92.16
395.058	59.39
395.267	102.4
395.477	124.93
395.686	75.77
395.895	174.08
396.105	206.84
396.314	61.44
396.524	102.4
396.733	57.34
396.942	182.27
397.152	157.69
397.361	83.97
397.57	83.97
397.78	86.01
397.989	108.54
398.198	245.76
398.407	100.35
398.617	36.86
398.826	88.06
399.035	96.25
399.244	133.12
399.453	167.93
399.663	77.82
399.872	129.02
400.081	75.77
400.29	149.5
400.499	75.77
400.708	108.54
400.917	133.12
401.127	137.21
401.336	149.5
401.545	153.6
401.754	178.17
401.963	157.69
402.172	47.1
402.381	104.45
402.59	104.45
402.799	94.21
403.008	200.7
403.217	202.75
403.426	206.84
403.635	126.97
403.844	180.22
404.053	233.47
404.262	137.21
404.471	192.51
404.68	258.04
404.888	190.46
405.097	165.89
405.306	190.46
405.515	206.84
405.724	198.65
405.933	251.9
406.142	141.31
406.35	208.89
406.559	198.65
406.768	260.09
406.977	266.24
407.185	221.18
407.394	264.19
407.603	120.83
407.812	223.23
408.02	264.19
408.229	305.15
408.438	305.15
408.646	249.85
408.855	311.29
409.064	288.76
409.272	356.35
409.481	362.49
409.69	278.52
409.898	241.66
410.107	378.87
410.315	382.97
410.524	331.77
410.733	430.07
410.941	397.31
411.15	434.17
411.358	419.83
411.567	509.94
411.775	460.79
411.984	458.75
412.192	540.66
412.401	518.14
412.609	638.97
412.818	552.95
413.026	577.53
413.234	567.29
413.443	688.12
413.651	608.25
413.86	651.25
414.068	747.51
414.276	765.94
414.485	759.8
414.693	790.52
414.901	804.85
415.11	770.04
415.318	821.24
415.526	890.87
415.734	923.63
415.943	780.28
416.151	983.03
416.359	1019.89
416.567	1026.03
416.776	1054.7
416.984	1136.62
417.192	1183.73
417.4	1083.38
417.608	1128.43
417.817	1320.94
418.025	1210.35
418.233	1337.32
418.441	1310.7
418.649	1370.09
418.857	1490.92
419.065	1570.79
419.273	1525.74
419.481	1517.54
419.689	1665
419.897	1718.25
420.105	1697.77
420.313	1814.5
420.521	1832.93
420.729	1861.6
420.937	1918.95
421.145	1867.75
421.353	2164.7
421.561	2172.89
421.769	2217.95
421.977	2385.88
422.185	2328.54
422.393	2516.95
422.601	2641.88
422.809	2617.3
423.017	2684.89
423.224	2756.57
423.432	2815.96
423.64	2861.01
423.848	3246.03
424.056	2979.79
424.263	3434.44
424.471	3323.85
424.679	3508.17
424.887	3610.57
425.094	3663.82
425.302	3635.14
425.51	3991.49
425.718	3921.86
425.925	3911.62
426.133	4173.76
426.341	4419.52
426.548	4618.17
426.756	4581.31
426.964	4509.63
427.171	4745.14
427.379	4921.27
427.586	5007.28
427.794	5302.19
428.001	5416.88
428.209	5609.39
428.417	5556.14
428.624	5918.63
428.832	6023.08
429.039	5910.44
429.247	6143.91
429.454	6514.59
429.662	7077.78
429.869	6436.77
430.076	6932.37
430.284	6729.63
430.491	7141.27
430.699	7544.72
430.906	7450.51
431.114	7573.39
431.321	7749.51
431.528	7886.73
431.736	8517.5
431.943	8939.38
432.15	8529.79
432.358	8716.15
432.565	9201.52
432.772	9238.39
432.979	9529.2
433.187	10004.33
433.394	9877.35
433.601	10483.55
433.808	10549.09
434.016	10266.47
434.223	10897.24
434.43	11396.95
434.637	11300.69
434.844	11880.27
435.052	11994.95
435.259	12089.16
435.466	12220.23
435.673	12269.38
435.88	12822.33
436.087	13707.05
436.294	13475.63
436.501	13170.49
436.708	13449.01
436.915	14059.31
437.122	14296.87
437.329	14731.04
437.537	14964.51
437.743	15175.45
437.95	15267.61
438.157	15988.49
438.364	16508.68
438.571	16312.07
438.778	16590.59
438.985	17938.16
439.192	17067.77
439.399	17696.5
439.606	17221.37
439.813	18517.73
440.02	19521.24
440.227	19154.65
440.433	19238.62
440.64	19597.01
440.847	19580.63
441.054	20123.34
441.261	21108.41
441.467	20833.99
441.674	21583.54
441.881	22202.03
442.088	22230.7
442.294	21978.8
442.501	22030
442.708	23129.76
442.914	23793.3
443.121	24747.65
443.328	24252.05
443.534	26113.65
443.741	25028.23
443.948	24313.49
444.154	26658.41
444.361	26773.1
444.568	26445.42
444.774	26109.55
444.981	26836.58
445.187	27493.98
445.394	28681.8
445.6	28542.54
445.807	31237.67
446.013	29771.32
446.22	30185.01
446.426	31669.79
446.633	31415.84
446.839	33060.36
447.046	31174.18
447.252	33326.6
447.459	33234.44
447.665	33132.04
447.871	34369.01
448.078	35937.76
448.284	34358.77
448.491	35786.21
448.697	36650.45
448.903	37430.72
449.11	37576.13
449.316	36795.85
449.522	37449.16
449.728	38471.09
449.935	38559.16
450.141	38622.64
450.347	39519.65
450.553	38124.99
450.76	38862.25
450.966	39886.24
451.172	39663.01
451.378	40734.1
451.584	39972.25
451.791	40654.23
451.997	40869.26
452.203	41303.43
452.409	41393.54
452.615	40895.89
452.821	39300.52
453.027	39443.88
453.233	41072.01
453.44	39620
453.646	39869.86
453.852	39882.14
454.058	40592.79
454.264	39591.33
454.47	40369.56
454.676	39509.41
454.882	40785.3
455.088	37234.12
455.294	38254.01
455.5	38481.33
455.705	38751.66
455.911	37318.09
456.117	36443.6
456.323	36201.94
456.529	34297.33
456.735	35689.95
456.941	34428.4
457.147	34004.47
457.352	33314.31
457.558	32929.29
457.764	32605.71
457.97	32239.12
458.176	31299.11
458.381	31358.5
458.587	30008.89
458.793	29984.31
458.999	28501.58
459.204	30010.93
459.41	29607.48
459.616	27639.39
459.821	27883.09
460.027	27455.07
460.233	26984.04
460.438	25665.14
460.644	25779.83
460.85	24532.62
461.055	24059.54
461.261	24258.19
461.466	22191.79
461.672	21774
461.878	23142.05
462.083	21511.86
462.289	21309.11
462.494	20825.79
462.7	20276.94
462.905	19633.88
463.111	20326.09
463.316	20254.41
463.522	19693.27
463.727	19777.23
463.932	19799.76
464.138	19406.55
464.343	19574.49
464.549	19042.01
464.754	19803.86
464.959	19670.74
465.165	19449.56
465.37	18474.73
465.575	17874.67
465.781	18724.58
465.986	18859.74
466.191	18099.95
466.397	17817.33
466.602	17114.87
466.807	17430.26
467.012	17510.13
