Data from USB4F104151__249__14-34-13-884.txt Node

Date: Thu Mar 13 14:34:13 EDT 2025
User: louis
Spectrometer: USB4F10415
Trigger mode: 4
Integration Time (sec): 2.500000E-2
Scans to average: 1
Electric dark correction enabled: true
Nonlinearity correction enabled: false
Boxcar width: 0
XAxis mode: Wavelengths
Number of Pixels in Spectrum: 3648
>>>>>Begin Spectral Data<<<<<
178.204	-145.41
178.424	-145.41
178.644	-145.41
178.864	-202.75
179.084	-147.45
179.304	8.19
179.524	43.01
179.744	12.29
179.964	40.96
180.184	16.38
180.404	0
180.624	-65.53
180.844	-24.58
181.064	-40.96
181.283	-14.34
181.503	18.43
181.723	6.14
181.943	-40.96
182.163	106.49
182.383	-28.67
182.602	34.82
182.822	-18.43
183.042	124.93
183.262	-53.25
183.482	65.54
183.701	34.82
183.921	57.34
184.141	-14.34
184.361	98.3
184.58	61.44
184.8	-14.34
185.02	-20.48
185.239	81.92
185.459	-69.63
185.679	24.58
185.898	-69.63
186.118	106.49
186.338	18.43
186.557	36.86
186.777	-61.44
186.997	-96.25
187.216	14.34
187.436	53.25
187.655	81.92
187.875	18.43
188.095	22.53
188.314	-2.05
188.534	100.35
188.753	12.29
188.973	28.67
189.192	24.58
189.412	26.62
189.631	10.24
189.851	77.82
190.07	114.69
190.29	18.43
190.509	114.69
190.729	6.14
190.948	57.34
191.168	53.25
191.387	63.49
191.607	-47.1
191.826	106.49
192.045	61.44
192.265	8.19
192.484	49.15
192.704	24.58
192.923	-36.86
193.142	104.45
193.362	57.34
193.581	90.11
193.8	-22.53
194.02	108.54
194.239	26.62
194.458	32.77
194.678	-28.67
194.897	47.1
195.116	-16.38
195.335	40.96
195.555	34.82
195.774	65.54
195.993	67.58
196.212	8.19
196.432	32.77
196.651	75.77
196.87	102.4
197.089	59.39
197.308	26.62
197.528	40.96
197.747	-18.43
197.966	12.29
198.185	88.06
198.404	-2.05
198.623	18.43
198.842	88.06
199.062	8.19
199.281	57.34
199.5	43.01
199.719	-10.24
199.938	43.01
200.157	16.38
200.376	8.19
200.595	65.54
200.814	-8.19
201.033	36.86
201.252	92.16
201.471	77.82
201.69	14.34
201.909	40.96
202.128	14.34
202.347	32.77
202.566	-8.19
202.785	22.53
203.004	8.19
203.223	116.73
203.442	71.68
203.661	-86.01
203.879	-63.49
204.098	0
204.317	0
204.536	49.15
204.755	59.39
204.974	61.44
205.193	55.3
205.411	110.59
205.63	40.96
205.849	59.39
206.068	0
206.287	43.01
206.505	96.25
206.724	-32.77
206.943	32.77
207.162	49.15
207.381	-16.38
207.599	69.63
207.818	40.96
208.037	81.92
208.255	32.77
208.474	45.06
208.693	8.19
208.911	63.49
209.13	55.3
209.349	16.38
209.567	16.38
209.786	30.72
210.005	47.1
210.223	22.53
210.442	-28.67
210.661	61.44
210.879	8.19
211.098	2.05
211.316	137.21
211.535	8.19
211.753	36.86
211.972	16.38
212.191	-40.96
212.409	73.73
212.628	2.05
212.846	-10.24
213.065	63.49
213.283	47.1
213.502	-26.62
213.72	0
213.938	77.82
214.157	-14.34
214.375	49.15
214.594	-14.34
214.812	51.2
215.031	16.38
215.249	10.24
215.467	55.3
215.686	18.43
215.904	86.01
216.122	24.58
216.341	65.54
216.559	67.58
216.778	10.24
216.996	-2.05
217.214	32.77
217.432	12.29
217.651	18.43
217.869	22.53
218.087	61.44
218.306	26.62
218.524	32.77
218.742	-8.19
218.96	4.1
219.179	43.01
219.397	28.67
219.615	47.1
219.833	45.06
220.051	-16.38
220.27	100.35
220.488	32.77
220.706	8.19
220.924	-22.53
221.142	73.73
221.36	-43.01
221.578	83.97
221.796	-36.86
222.015	92.16
222.233	-6.14
222.451	45.06
222.669	69.63
222.887	-8.19
223.105	-18.43
223.323	59.39
223.541	38.91
223.759	-8.19
223.977	24.58
224.195	73.73
224.413	10.24
224.631	32.77
224.849	-4.1
225.067	83.97
225.285	-10.24
225.503	32.77
225.721	-16.38
225.939	0
226.157	57.34
226.375	122.88
226.592	-6.14
226.81	26.62
227.028	-12.29
227.246	67.58
227.464	86.01
227.682	18.43
227.9	61.44
228.117	36.86
228.335	24.58
228.553	-38.91
228.771	86.01
228.989	2.05
229.206	4.1
229.424	-4.1
229.642	49.15
229.86	16.38
230.077	32.77
230.295	114.69
230.513	22.53
230.731	10.24
230.948	79.87
231.166	98.3
231.384	-22.53
231.601	-8.19
231.819	90.11
232.037	-6.14
232.254	20.48
232.472	43.01
232.689	20.48
232.907	26.62
233.125	-18.43
233.342	-106.49
233.56	-36.86
233.777	4.1
233.995	40.96
234.213	8.19
234.43	-71.68
234.648	36.86
234.865	-8.19
235.083	49.15
235.3	104.45
235.518	34.82
235.735	122.88
235.953	75.77
236.17	-24.58
236.388	57.34
236.605	20.48
236.822	73.73
237.04	100.35
237.257	32.77
237.475	-10.24
237.692	-6.14
237.909	6.14
238.127	-8.19
238.344	69.63
238.562	24.58
238.779	18.43
238.996	34.82
239.214	-16.38
239.431	-6.14
239.648	57.34
239.865	24.58
240.083	57.34
240.3	-4.1
240.517	28.67
240.735	67.58
240.952	10.24
241.169	55.3
241.386	90.11
241.603	16.38
241.821	-18.43
242.038	51.2
242.255	20.48
242.472	18.43
242.689	12.29
242.907	65.54
243.124	45.06
243.341	-12.29
243.558	22.53
243.775	40.96
243.992	40.96
244.209	147.45
244.426	-8.19
244.643	24.58
244.86	-32.77
245.078	0
245.295	28.67
245.512	20.48
245.729	67.58
245.946	-4.1
246.163	38.91
246.38	81.92
246.597	12.29
246.814	49.15
247.031	40.96
247.248	45.06
247.464	57.34
247.681	51.2
247.898	49.15
248.115	47.1
248.332	36.86
248.549	73.73
248.766	73.73
248.983	55.3
249.2	-28.67
249.417	20.48
249.633	-40.96
249.85	51.2
250.067	49.15
250.284	8.19
250.501	-12.29
250.717	51.2
250.934	63.49
251.151	28.67
251.368	-53.25
251.585	81.92
251.801	18.43
252.018	-10.24
252.235	0
252.451	-20.48
252.668	-36.86
252.885	12.29
253.102	-16.38
253.318	16.38
253.535	-6.14
253.752	-8.19
253.968	-22.53
254.185	12.29
254.401	-12.29
254.618	92.16
254.835	24.58
255.051	-20.48
255.268	2.05
255.484	77.82
255.701	4.1
255.917	12.29
256.134	28.67
256.351	24.58
256.567	12.29
256.784	24.58
257	0
257.217	-12.29
257.433	32.77
257.65	-10.24
257.866	26.62
258.082	20.48
258.299	-40.96
258.515	-24.58
258.732	28.67
258.948	-12.29
259.165	43.01
259.381	-14.34
259.597	57.34
259.814	-16.38
260.03	8.19
260.246	8.19
260.463	92.16
260.679	163.84
260.895	47.1
261.112	122.88
261.328	26.62
261.544	94.21
261.761	92.16
261.977	16.38
262.193	18.43
262.409	79.87
262.626	12.29
262.842	65.54
263.058	-22.53
263.274	49.15
263.49	-12.29
263.707	34.82
263.923	43.01
264.139	6.14
264.355	14.34
264.571	157.69
264.787	49.15
265.004	79.87
265.22	114.69
265.436	26.62
265.652	-22.53
265.868	-6.14
266.084	-63.49
266.3	26.62
266.516	8.19
266.732	51.2
266.948	73.73
267.164	10.24
267.38	-2.05
267.596	90.11
267.812	24.58
268.028	49.15
268.244	-47.1
268.46	10.24
268.676	-30.72
268.892	47.1
269.108	-16.38
269.324	-38.91
269.54	-16.38
269.756	-32.77
269.972	-40.96
270.188	16.38
270.403	-28.67
270.619	10.24
270.835	51.2
271.051	32.77
271.267	-55.3
271.483	-20.48
271.698	16.38
271.914	32.77
272.13	-32.77
272.346	16.38
272.562	28.67
272.777	79.87
272.993	81.92
273.209	4.1
273.425	8.19
273.64	-14.34
273.856	20.48
274.072	67.58
274.287	36.86
274.503	79.87
274.719	81.92
274.934	100.35
275.15	-59.39
275.366	-14.34
275.581	-16.38
275.797	20.48
276.012	36.86
276.228	43.01
276.444	-20.48
276.659	102.4
276.875	16.38
277.09	-4.1
277.306	34.82
277.521	-26.62
277.737	0
277.952	24.58
278.168	0
278.383	32.77
278.599	8.19
278.814	55.3
279.03	57.34
279.245	57.34
279.461	38.91
279.676	8.19
279.892	-90.11
280.107	-2.05
280.322	-61.44
280.538	45.06
280.753	-16.38
280.969	61.44
281.184	-24.58
281.399	86.01
281.615	69.63
281.83	40.96
282.045	-36.86
282.26	-6.14
282.476	65.54
282.691	4.1
282.906	49.15
283.122	-16.38
283.337	-22.53
283.552	10.24
283.767	24.58
283.983	40.96
284.198	-55.3
284.413	40.96
284.628	-6.14
284.843	45.06
285.058	53.25
285.274	-6.14
285.489	0
285.704	90.11
285.919	32.77
286.134	32.77
286.349	24.58
286.564	2.05
286.779	28.67
286.995	65.54
287.21	40.96
287.425	94.21
287.64	40.96
287.855	102.4
288.07	-18.43
288.285	32.77
288.5	36.86
288.715	73.73
288.93	-20.48
289.145	18.43
289.36	49.15
289.575	18.43
289.79	32.77
290.004	57.34
290.219	59.39
290.434	-47.1
290.649	0
290.864	8.19
291.079	-4.1
291.294	14.34
291.509	59.39
291.724	10.24
291.938	-18.43
292.153	-20.48
292.368	-20.48
292.583	145.41
292.798	59.39
293.012	0
293.227	57.34
293.442	20.48
293.657	-8.19
293.871	116.73
294.086	122.88
294.301	57.34
294.516	55.3
294.73	40.96
294.945	69.63
295.16	65.54
295.374	34.82
295.589	57.34
295.804	-83.97
296.018	106.49
296.233	53.25
296.447	8.19
296.662	81.92
296.877	40.96
297.091	28.67
297.306	6.14
297.52	22.53
297.735	-6.14
297.949	16.38
298.164	73.73
298.378	81.92
298.593	24.58
298.807	-40.96
299.022	32.77
299.236	4.1
299.451	0
299.665	98.3
299.88	0
300.094	32.77
300.309	-12.29
300.523	-4.1
300.737	67.58
300.952	36.86
301.166	4.1
301.381	16.38
301.595	18.43
301.809	51.2
302.024	-20.48
302.238	57.34
302.452	110.59
302.667	0
302.881	143.36
303.095	30.72
303.309	36.86
303.524	-2.05
303.738	16.38
303.952	-73.73
304.166	51.2
304.381	59.39
304.595	12.29
304.809	100.35
305.023	-20.48
305.237	24.58
305.452	10.24
305.666	32.77
305.88	16.38
306.094	90.11
306.308	75.77
306.522	-57.34
306.736	30.72
306.95	83.97
307.164	73.73
307.379	-47.1
307.593	59.39
307.807	86.01
308.021	43.01
308.235	10.24
308.449	26.62
308.663	45.06
308.877	79.87
309.091	-8.19
309.305	-6.14
309.519	-71.68
309.733	94.21
309.947	32.77
310.161	2.05
310.374	-22.53
310.588	36.86
310.802	-6.14
311.016	32.77
311.23	-22.53
311.444	0
311.658	-2.05
311.872	59.39
312.085	92.16
312.299	10.24
312.513	-57.34
312.727	114.69
312.941	-38.91
313.154	36.86
313.368	34.82
313.582	49.15
313.796	18.43
314.009	77.82
314.223	20.48
314.437	65.54
314.651	65.54
314.864	16.38
315.078	67.58
315.292	34.82
315.505	98.3
315.719	-8.19
315.933	83.97
316.146	-22.53
316.36	-16.38
316.573	90.11
316.787	79.87
317.001	81.92
317.214	-2.05
317.428	43.01
317.641	10.24
317.855	86.01
318.068	61.44
318.282	2.05
318.495	114.69
318.709	59.39
318.922	36.86
319.136	67.58
319.349	49.15
319.563	40.96
319.776	0
319.99	8.19
320.203	20.48
320.417	0
320.63	102.4
320.843	94.21
321.057	57.34
321.27	100.35
321.483	65.54
321.697	106.49
321.91	14.34
322.124	18.43
322.337	49.15
322.55	10.24
322.763	-24.58
322.977	73.73
323.19	65.54
323.403	43.01
323.617	24.58
323.83	77.82
324.043	26.62
324.256	18.43
324.469	75.77
324.683	114.69
324.896	-24.58
325.109	49.15
325.322	-40.96
325.535	83.97
325.748	129.02
325.962	28.67
326.175	-12.29
326.388	53.25
326.601	36.86
326.814	-16.38
327.027	40.96
327.24	94.21
327.453	-57.34
327.666	40.96
327.879	16.38
328.092	16.38
328.305	34.82
328.518	-24.58
328.731	26.62
328.944	-8.19
329.157	65.54
329.37	71.68
329.583	71.68
329.796	2.05
330.009	-28.67
330.222	-16.38
330.435	18.43
330.648	16.38
330.861	57.34
331.073	16.38
331.286	73.73
331.499	4.1
331.712	18.43
331.925	40.96
332.138	-12.29
332.35	24.58
332.563	-30.72
332.776	116.73
332.989	-24.58
333.202	0
333.414	32.77
333.627	86.01
333.84	18.43
334.053	8.19
334.265	55.3
334.478	-22.53
334.691	51.2
334.903	45.06
335.116	-36.86
335.329	-28.67
335.541	10.24
335.754	49.15
335.966	30.72
336.179	45.06
336.392	-4.1
336.604	112.64
336.817	28.67
337.029	102.4
337.242	-14.34
337.454	-8.19
337.667	34.82
337.88	0
338.092	86.01
338.305	-16.38
338.517	-12.29
338.729	53.25
338.942	100.35
339.154	-8.19
339.367	-22.53
339.579	-8.19
339.792	-24.58
340.004	-6.14
340.217	28.67
340.429	-30.72
340.641	-24.58
340.854	49.15
341.066	-14.34
341.278	79.87
341.491	30.72
341.703	73.73
341.915	2.05
342.128	20.48
342.34	-12.29
342.552	26.62
342.764	43.01
342.977	28.67
343.189	16.38
343.401	49.15
343.613	-45.06
343.826	24.58
344.038	-32.77
344.25	59.39
344.462	69.63
344.674	-49.15
344.886	2.05
345.099	83.97
345.311	98.3
345.523	-6.14
345.735	51.2
345.947	34.82
346.159	108.54
346.371	-45.06
346.583	16.38
346.795	159.74
347.007	0
347.219	69.63
347.431	49.15
347.643	14.34
347.855	8.19
348.067	108.54
348.279	14.34
348.491	43.01
348.703	26.62
348.915	-16.38
349.127	-45.06
349.339	-4.1
349.551	-16.38
349.763	57.34
349.975	49.15
350.187	77.82
350.399	24.58
350.61	26.62
350.822	-49.15
351.034	-12.29
351.246	28.67
351.458	10.24
351.669	34.82
351.881	40.96
352.093	114.69
352.305	40.96
352.517	2.05
352.728	69.63
352.94	-12.29
353.152	28.67
353.363	36.86
353.575	55.3
353.787	137.21
353.999	-24.58
354.21	40.96
354.422	26.62
354.633	98.3
354.845	53.25
355.057	2.05
355.268	-22.53
355.48	61.44
355.692	55.3
355.903	18.43
356.115	65.54
356.326	-24.58
356.538	98.3
356.749	-4.1
356.961	16.38
357.172	6.14
357.384	0
357.595	65.54
357.807	0
358.018	-53.25
358.23	98.3
358.441	43.01
358.653	57.34
358.864	40.96
359.075	-32.77
359.287	20.48
359.498	32.77
359.709	32.77
359.921	22.53
360.132	-22.53
360.344	-57.34
360.555	-18.43
360.766	65.54
360.977	86.01
361.189	49.15
361.4	34.82
361.611	139.26
361.823	81.92
362.034	0
362.245	92.16
362.456	51.2
362.667	98.3
362.879	-20.48
363.09	-51.2
363.301	8.19
363.512	67.58
363.723	0
363.935	-10.24
364.146	83.97
364.357	-14.34
364.568	34.82
364.779	-6.14
364.99	57.34
365.201	-47.1
365.412	61.44
365.623	8.19
365.834	45.06
366.045	36.86
366.256	49.15
366.467	30.72
366.678	-4.1
366.889	34.82
367.1	-16.38
367.311	53.25
367.522	16.38
367.733	-30.72
367.944	67.58
368.155	28.67
368.366	26.62
368.577	98.3
368.788	81.92
368.999	24.58
369.209	57.34
369.42	67.58
369.631	32.77
369.842	16.38
370.053	0
370.264	61.44
370.474	63.49
370.685	114.69
370.896	40.96
371.107	92.16
371.317	-43.01
371.528	43.01
371.739	61.44
371.95	2.05
372.16	81.92
372.371	36.86
372.582	16.38
372.792	43.01
373.003	18.43
373.214	-4.1
373.424	49.15
373.635	-8.19
373.846	110.59
374.056	59.39
374.267	12.29
374.477	86.01
374.688	32.77
374.898	51.2
375.109	63.49
375.319	8.19
375.53	108.54
375.74	40.96
375.951	106.49
376.161	69.63
376.372	77.82
376.582	73.73
376.793	49.15
377.003	20.48
377.214	57.34
377.424	18.43
377.635	75.77
377.845	-73.73
378.055	57.34
378.266	-22.53
378.476	77.82
378.686	51.2
378.897	49.15
379.107	106.49
379.317	43.01
379.528	40.96
379.738	45.06
379.948	43.01
380.158	30.72
380.369	8.19
380.579	86.01
380.789	28.67
380.999	36.86
381.21	92.16
381.42	116.73
381.63	51.2
381.84	92.16
382.05	131.07
382.261	102.4
382.471	49.15
382.681	40.96
382.891	53.25
383.101	67.58
383.311	-12.29
383.521	43.01
383.731	26.62
383.941	57.34
384.151	30.72
384.361	32.77
384.571	-28.67
384.781	92.16
384.991	116.73
385.201	98.3
385.411	94.21
385.621	77.82
385.831	81.92
386.041	-8.19
386.251	90.11
386.461	106.49
386.671	122.88
386.881	-8.19
387.091	24.58
387.301	151.55
387.511	32.77
387.72	81.92
387.93	14.34
388.14	57.34
388.35	49.15
388.56	124.93
388.769	49.15
388.979	47.1
389.189	10.24
389.399	32.77
389.609	24.58
389.818	69.63
390.028	43.01
390.238	32.77
390.447	86.01
390.657	92.16
390.867	57.34
391.076	47.1
391.286	67.58
391.496	32.77
391.705	88.06
391.915	73.73
392.125	143.36
392.334	73.73
392.544	139.26
392.753	73.73
392.963	69.63
393.172	90.11
393.382	8.19
393.591	73.73
393.801	73.73
394.01	51.2
394.22	26.62
394.429	71.68
394.639	106.49
394.848	57.34
395.058	100.35
395.267	81.92
395.477	92.16
395.686	122.88
395.895	176.13
396.105	81.92
396.314	165.89
396.524	149.5
396.733	116.73
396.942	57.34
397.152	100.35
397.361	106.49
397.57	59.39
397.78	143.36
397.989	81.92
398.198	155.65
398.407	30.72
398.617	98.3
398.826	53.25
399.035	120.83
399.244	131.07
399.453	114.69
399.663	18.43
399.872	98.3
400.081	129.02
400.29	110.59
400.499	122.88
400.708	122.88
400.917	116.73
401.127	51.2
401.336	28.67
401.545	208.89
401.754	167.93
401.963	190.46
402.172	159.74
402.381	45.06
402.59	67.58
402.799	145.41
403.008	221.18
403.217	94.21
403.426	139.26
403.635	49.15
403.844	98.3
404.053	163.84
404.262	81.92
404.471	237.56
404.68	180.22
404.888	139.26
405.097	122.88
405.306	151.55
405.515	225.28
405.724	81.92
405.933	200.7
406.142	233.47
406.35	215.04
406.559	159.74
406.768	206.84
406.977	180.22
407.185	182.27
407.394	210.94
407.603	196.61
407.812	204.8
408.02	301.05
408.229	237.56
408.438	299
408.646	174.08
408.855	264.19
409.064	278.52
409.272	290.81
409.481	311.29
409.69	323.58
409.898	262.14
410.107	442.36
410.315	354.3
410.524	294.91
410.733	344.06
410.941	356.35
411.15	428.03
411.358	450.55
411.567	499.7
411.775	423.93
411.984	448.51
412.192	507.9
412.401	493.56
412.609	567.29
412.818	583.67
413.026	569.34
413.234	561.14
413.443	534.52
413.651	638.97
413.86	606.2
414.068	655.35
414.276	747.51
414.485	722.93
414.693	731.12
414.901	790.52
415.11	856.05
415.318	755.7
415.526	755.7
415.734	901.11
415.943	843.76
416.151	966.64
416.359	974.83
416.567	884.72
416.776	966.64
416.984	1073.14
417.192	1069.04
417.4	1130.48
417.608	1093.62
417.817	1210.35
418.025	1183.73
418.233	1394.67
418.441	1275.88
418.649	1322.99
418.857	1540.07
419.065	1476.59
419.273	1460.2
419.481	1574.89
419.689	1658.85
419.897	1712.1
420.105	1665
420.313	1765.35
420.521	1888.23
420.729	1873.89
420.937	1886.18
421.145	1978.34
421.353	2031.59
421.561	2267.1
421.769	2338.78
421.977	2318.3
422.185	2371.55
422.393	2482.14
422.601	2572.25
422.809	2652.12
423.017	2656.22
423.224	2707.41
423.432	2787.29
423.64	2844.63
423.848	3129.3
424.056	2981.84
424.263	3200.98
424.471	3217.36
424.679	3278.8
424.887	3416.01
425.094	3534.79
425.302	3655.62
425.51	3723.21
425.718	3936.2
425.925	3895.24
426.133	4044.74
426.341	4427.71
426.548	4349.89
426.756	4339.65
426.964	4464.57
427.171	4681.66
427.379	4734.9
427.586	4876.21
427.794	4956.08
428.001	5357.49
428.209	5455.79
428.417	5390.25
428.624	5900.2
428.832	5793.7
429.039	5746.6
429.247	5892.01
429.454	6414.24
429.662	6803.35
429.869	6266.78
430.076	6635.42
430.284	6563.74
430.491	6807.45
430.699	7268.24
430.906	7194.51
431.114	7387.02
431.321	7532.43
431.528	7974.79
431.736	8097.67
431.943	8603.52
432.15	8507.26
432.358	8595.32
432.565	8996.73
432.772	8955.77
432.979	9389.94
433.187	9547.63
433.394	9533.29
433.601	10108.77
433.808	10463.07
434.016	10272.61
434.223	10579.81
434.43	11231.06
434.637	10864.47
434.844	11773.77
435.052	11839.31
435.259	11712.33
435.466	11943.75
435.673	11923.27
435.88	12498.75
436.087	13332.28
436.294	13184.82
436.501	13070.14
436.708	13229.88
436.915	13659.95
437.122	14239.53
437.329	14282.53
437.537	14839.58
437.743	14712.61
437.95	14774.05
438.157	15630.1
438.364	16170.76
438.571	16019.21
438.778	16189.19
438.985	17532.66
439.192	16785.15
439.399	17354.49
439.606	17137.4
439.813	18231.02
440.02	19033.82
440.227	18714.34
440.433	18470.63
440.64	19232.47
440.847	18898.66
441.054	19498.71
441.261	20836.03
441.467	20401.86
441.674	20909.76
441.881	21716.66
442.088	21634.74
442.294	21542.58
442.501	21966.51
442.708	22498.98
442.914	23373.47
443.121	24133.26
443.328	23471.77
443.534	25071.23
443.741	24905.35
443.948	24368.78
444.154	25824.89
444.361	25730.68
444.568	25648.76
444.774	25671.29
444.981	26506.86
445.187	26910.31
445.394	28079.7
445.6	27784.79
445.807	30541.36
446.013	28855.88
446.22	29615.68
446.426	30766.63
446.633	31211.04
446.839	32226.84
447.046	30697
447.252	32423.44
447.459	32697.87
447.665	32294.42
447.871	33623.55
448.078	35005.93
448.284	33066.5
448.491	34080.25
448.697	36093.4
448.903	36584.91
449.11	36537.81
449.316	35692
449.522	36328.92
449.728	37467.59
449.935	38104.51
450.141	37782.98
450.347	38725.04
450.553	37717.44
450.76	37864.89
450.966	39189.93
451.172	39112.11
451.378	40045.98
451.584	38972.85
451.791	39941.53
451.997	39818.66
452.203	40316.31
452.409	40267.16
452.615	40158.62
452.821	38753.71
453.027	38266.3
453.233	39976.35
453.44	38612.4
453.646	38909.36
453.852	38954.41
454.058	40213.91
454.264	38593.97
454.47	39679.39
454.676	38485.43
454.882	39951.77
455.088	36318.68
455.294	37033.42
455.5	37508.55
455.705	37686.72
455.911	36312.53
456.117	36068.83
456.323	35188.2
456.529	33375.75
456.735	34874.86
456.941	33891.83
457.147	33508.86
457.352	32220.69
457.558	32142.87
457.764	31716.89
457.97	31628.83
458.176	30735.91
458.381	30725.68
458.587	29236.8
458.793	29394.5
458.999	27960.92
459.204	29699.64
459.41	28730.95
459.616	26877.54
459.821	27065.95
460.027	26877.54
460.233	26119.79
460.438	24931.97
460.644	25169.54
460.85	23897.75
461.055	23772.82
461.261	23750.29
461.466	22079.15
461.672	21059.26
461.878	22822.56
462.083	20883.14
462.289	20743.88
462.494	20444.87
462.7	19619.54
462.905	19293.91
463.111	19816.15
463.316	19652.31
463.522	19465.94
463.727	19384.02
463.932	19052.25
464.138	18929.38
464.343	19142.36
464.549	18527.97
464.754	19207.9
464.959	19023.58
465.165	18935.52
465.37	18063.08
465.575	17368.82
465.781	18210.54
465.986	18300.65
466.191	17596.15
466.397	17254.14
466.602	16293.64
466.807	16998.14
467.012	17297.14
467.218	16908.03
467.423	16750.34
467.628	16914.17
467.833	17420.02
