Data from USB4F104151__72__14-30-24-450.txt Node

Date: Thu Mar 13 14:30:24 EDT 2025
User: louis
Spectrometer: USB4F10415
Trigger mode: 4
Integration Time (sec): 2.500000E-2
Scans to average: 1
Electric dark correction enabled: true
Nonlinearity correction enabled: false
Boxcar width: 0
XAxis mode: Wavelengths
Number of Pixels in Spectrum: 3648
>>>>>Begin Spectral Data<<<<<
178.204	-79.7
178.424	-79.7
178.644	-79.7
178.864	-145.24
179.084	-145.24
179.304	75.95
179.524	4.27
179.744	-46.93
179.964	63.66
180.184	-38.74
180.404	51.37
180.624	-63.32
180.844	6.31
181.064	-44.88
181.283	-12.12
181.503	2.22
181.723	2.22
181.943	12.46
182.163	63.66
182.383	45.23
182.602	67.75
182.822	34.99
183.042	49.32
183.262	-18.26
183.482	-12.12
183.701	-20.31
183.921	6.31
184.141	26.79
184.361	104.62
184.58	53.42
184.8	34.99
185.02	53.42
185.239	94.38
185.459	26.79
185.679	102.57
185.898	-5.97
186.118	77.99
186.338	12.46
186.557	67.75
186.777	-30.55
186.997	73.9
187.216	26.79
187.436	116.9
187.655	86.19
187.875	118.95
188.095	-30.55
188.314	-18.26
188.534	-14.17
188.753	28.84
188.973	82.09
189.192	92.33
189.412	92.33
189.631	94.38
189.851	-18.26
190.07	43.18
190.29	2.22
190.509	43.18
190.729	10.41
190.948	100.52
191.168	110.76
191.387	71.85
191.607	108.71
191.826	77.99
192.045	-10.07
192.265	20.65
192.484	59.56
192.704	51.37
192.923	2.22
193.142	94.38
193.362	37.03
193.581	118.95
193.8	43.18
194.02	69.8
194.239	-1.88
194.458	75.95
194.678	41.13
194.897	67.75
195.116	-12.12
195.335	100.52
195.555	82.09
195.774	18.6
195.993	43.18
196.212	-20.31
196.432	37.03
196.651	-3.93
196.87	-20.31
197.089	166.06
197.308	51.37
197.528	51.37
197.747	37.03
197.966	53.42
198.185	149.67
198.404	4.27
198.623	69.8
198.842	137.38
199.062	75.95
199.281	55.47
199.5	39.08
199.719	16.55
199.938	-14.17
200.157	28.84
200.376	4.27
200.595	51.37
200.814	92.33
201.033	43.18
201.252	100.52
201.471	86.19
201.69	34.99
201.909	59.56
202.128	84.14
202.347	39.08
202.566	45.23
202.785	34.99
203.004	-18.26
203.223	100.52
203.442	2.22
203.661	28.84
203.879	127.14
204.098	86.19
204.317	-12.12
204.536	30.89
204.755	22.7
204.974	84.14
205.193	-20.31
205.411	123.05
205.63	51.37
205.849	34.99
206.068	59.56
206.287	49.32
206.505	37.03
206.724	92.33
206.943	4.27
207.162	86.19
207.381	92.33
207.599	-12.12
207.818	34.99
208.037	77.99
208.255	43.18
208.474	84.14
208.693	84.14
208.911	39.08
209.13	16.55
209.349	10.41
209.567	110.76
209.786	14.51
210.005	-1.88
210.223	4.27
210.442	37.03
210.661	53.42
210.879	-14.17
211.098	4.27
211.316	96.43
211.535	82.09
211.753	30.89
211.972	26.79
212.191	32.94
212.409	2.22
212.628	16.55
212.846	51.37
213.065	45.23
213.283	-18.26
213.502	43.18
213.72	75.95
213.938	18.6
214.157	28.84
214.375	55.47
214.594	-1.88
214.812	75.95
215.031	6.31
215.249	26.79
215.467	37.03
215.686	75.95
215.904	110.76
216.122	28.84
216.341	125.1
216.559	69.8
216.778	37.03
216.996	92.33
217.214	-5.97
217.432	116.9
217.651	8.36
217.869	80.04
218.087	80.04
218.306	69.8
218.524	10.41
218.742	55.47
218.96	131.24
219.179	53.42
219.397	57.51
219.615	92.33
219.833	26.79
220.051	65.71
220.27	80.04
220.488	96.43
220.706	-12.12
220.924	39.08
221.142	32.94
221.36	18.6
221.578	114.86
221.796	-14.17
222.015	94.38
222.233	45.23
222.451	34.99
222.669	30.89
222.887	51.37
223.105	-10.07
223.323	-22.36
223.541	22.7
223.759	51.37
223.977	67.75
224.195	98.47
224.413	100.52
224.631	84.14
224.849	30.89
225.067	129.19
225.285	84.14
225.503	-38.74
225.721	-1.88
225.939	59.56
226.157	51.37
226.375	75.95
226.592	-36.69
226.81	-5.97
227.028	47.27
227.246	61.61
227.464	47.27
227.682	20.65
227.9	14.51
228.117	59.56
228.335	43.18
228.553	82.09
228.771	51.37
228.989	51.37
229.206	55.47
229.424	18.6
229.642	26.79
229.86	53.42
230.077	51.37
230.295	80.04
230.513	108.71
230.731	73.9
230.948	41.13
231.166	53.42
231.384	14.51
231.601	53.42
231.819	125.1
232.037	59.56
232.254	-18.26
232.472	28.84
232.689	8.36
232.907	82.09
233.125	104.62
233.342	-44.88
233.56	-59.22
233.777	34.99
233.995	8.36
234.213	75.95
234.43	69.8
234.648	121
234.865	39.08
235.083	157.86
235.3	4.27
235.518	69.8
235.735	63.66
235.953	94.38
236.17	108.71
236.388	37.03
236.605	10.41
236.822	110.76
237.04	123.05
237.257	20.65
237.475	-22.36
237.692	125.1
237.909	26.79
238.127	77.99
238.344	51.37
238.562	-75.6
238.779	-51.03
238.996	4.27
239.214	77.99
239.431	67.75
239.648	30.89
239.865	92.33
240.083	34.99
240.3	51.37
240.517	16.55
240.735	22.7
240.952	92.33
241.169	100.52
241.386	92.33
241.603	34.99
241.821	88.23
242.038	90.28
242.255	34.99
242.472	-28.5
242.689	45.23
242.907	92.33
243.124	12.46
243.341	51.37
243.558	-22.36
243.775	24.75
243.992	10.41
244.209	75.95
244.426	125.1
244.643	10.41
244.86	30.89
245.078	12.46
245.295	16.55
245.512	-36.69
245.729	0.17
245.946	4.27
246.163	10.41
246.38	26.79
246.597	65.71
246.814	57.51
247.031	41.13
247.248	67.75
247.464	43.18
247.681	80.04
247.898	55.47
248.115	92.33
248.332	61.61
248.549	106.67
248.766	110.76
248.983	-14.17
249.2	6.31
249.417	77.99
249.633	8.36
249.85	67.75
250.067	67.75
250.284	67.75
250.501	92.33
250.717	75.95
250.934	4.27
251.151	112.81
251.368	12.46
251.585	92.33
251.801	34.99
252.018	67.75
252.235	77.99
252.451	10.41
252.668	69.8
252.885	59.56
253.102	-53.08
253.318	6.31
253.535	18.6
253.752	14.51
253.968	18.6
254.185	-30.55
254.401	10.41
254.618	92.33
254.835	28.84
255.051	116.9
255.268	14.51
255.484	47.27
255.701	47.27
255.917	53.42
256.134	-18.26
256.351	86.19
256.567	22.7
256.784	10.41
257	63.66
257.217	108.71
257.433	51.37
257.65	73.9
257.866	104.62
258.082	-14.17
258.299	34.99
258.515	80.04
258.732	2.22
258.948	34.99
259.165	61.61
259.381	-5.97
259.597	71.85
259.814	75.95
260.03	-8.02
260.246	94.38
260.463	53.42
260.679	129.19
260.895	69.8
261.112	47.27
261.328	16.55
261.544	26.79
261.761	153.77
261.977	61.61
262.193	10.41
262.409	18.6
262.626	-3.93
262.842	55.47
263.058	67.75
263.274	67.75
263.49	61.61
263.707	18.6
263.923	53.42
264.139	59.56
264.355	67.75
264.571	-8.02
264.787	26.79
265.004	80.04
265.22	71.85
265.436	37.03
265.652	30.89
265.868	43.18
266.084	12.46
266.3	18.6
266.516	14.51
266.732	-5.97
266.948	75.95
267.164	75.95
267.38	194.73
267.596	-5.97
267.812	22.7
268.028	84.14
268.244	-14.17
268.46	32.94
268.676	18.6
268.892	104.62
269.108	2.22
269.324	118.95
269.54	12.46
269.756	45.23
269.972	-5.97
270.188	84.14
270.403	-18.26
270.619	10.41
270.835	67.75
271.051	-46.93
271.267	55.47
271.483	-69.46
271.698	88.23
271.914	28.84
272.13	8.36
272.346	75.95
272.562	18.6
272.777	84.14
272.993	55.47
273.209	-12.12
273.425	108.71
273.64	-30.55
273.856	86.19
274.072	41.13
274.287	112.81
274.503	82.09
274.719	77.99
274.934	-3.93
275.15	45.23
275.366	51.37
275.581	69.8
275.797	37.03
276.012	-22.36
276.228	80.04
276.444	67.75
276.659	67.75
276.875	6.31
277.09	8.36
277.306	37.03
277.521	104.62
277.737	34.99
277.952	84.14
278.168	94.38
278.383	63.66
278.599	123.05
278.814	86.19
279.03	6.31
279.245	65.71
279.461	14.51
279.676	108.71
279.892	-5.97
280.107	4.27
280.322	28.84
280.538	82.09
280.753	10.41
280.969	28.84
281.184	20.65
281.399	94.38
281.615	75.95
281.83	92.33
282.045	-30.55
282.26	-22.36
282.476	-44.88
282.691	-26.45
282.906	147.62
283.122	0.17
283.337	-18.26
283.552	59.56
283.767	34.99
283.983	22.7
284.198	53.42
284.413	51.37
284.628	26.79
284.843	-14.17
285.058	55.47
285.274	94.38
285.489	24.75
285.704	32.94
285.919	12.46
286.134	-18.26
286.349	75.95
286.564	59.56
286.779	125.1
286.995	34.99
287.21	10.41
287.425	14.51
287.64	-8.02
287.855	108.71
288.07	-5.97
288.285	45.23
288.5	129.19
288.715	2.22
288.93	53.42
289.145	-20.31
289.36	26.79
289.575	28.84
289.79	92.33
290.004	-30.55
290.219	108.71
290.434	-12.12
290.649	-10.07
290.864	32.94
291.079	34.99
291.294	-22.36
291.509	49.32
291.724	67.75
291.938	8.36
292.153	47.27
292.368	88.23
292.583	14.51
292.798	141.48
293.012	49.32
293.227	116.9
293.442	34.99
293.657	30.89
293.871	18.6
294.086	-12.12
294.301	143.53
294.516	45.23
294.73	127.14
294.945	75.95
295.16	63.66
295.374	86.19
295.589	100.52
295.804	34.99
296.018	37.03
296.233	77.99
296.447	18.6
296.662	2.22
296.877	102.57
297.091	22.7
297.306	39.08
297.52	53.42
297.735	4.27
297.949	63.66
298.164	116.9
298.378	43.18
298.593	129.19
298.807	53.42
299.022	20.65
299.236	67.75
299.451	24.75
299.665	55.47
299.88	43.18
300.094	75.95
300.309	45.23
300.523	108.71
300.737	-22.36
300.952	45.23
301.166	129.19
301.381	10.41
301.595	30.89
301.809	16.55
302.024	118.95
302.238	30.89
302.452	108.71
302.667	34.99
302.881	34.99
303.095	26.79
303.309	90.28
303.524	26.79
303.738	53.42
303.952	2.22
304.166	80.04
304.381	34.99
304.595	84.14
304.809	-14.17
305.023	57.51
305.237	34.99
305.452	84.14
305.666	104.62
305.88	14.51
306.094	67.75
306.308	110.76
306.522	73.9
306.736	86.19
306.95	100.52
307.164	14.51
307.379	-69.46
307.593	67.75
307.807	125.1
308.021	67.75
308.235	121
308.449	-16.21
308.663	75.95
308.877	137.38
309.091	-16.21
309.305	108.71
309.519	-106.32
309.733	96.43
309.947	4.27
310.161	20.65
310.374	61.61
310.588	106.67
310.802	-48.98
311.016	-3.93
311.23	71.85
311.444	86.19
311.658	14.51
311.872	84.14
312.085	37.03
312.299	53.42
312.513	75.95
312.727	18.6
312.941	-30.55
313.154	84.14
313.368	16.55
313.582	114.86
313.796	14.51
314.009	2.22
314.223	92.33
314.437	69.8
314.651	114.86
314.864	6.31
315.078	20.65
315.292	-36.69
315.505	43.18
315.719	63.66
315.933	63.66
316.146	22.7
316.36	-32.6
316.573	-3.93
316.787	28.84
317.001	53.42
317.214	18.6
317.428	118.95
317.641	-36.69
317.855	45.23
318.068	26.79
318.282	84.14
318.495	67.75
318.709	67.75
318.922	-26.45
319.136	133.29
319.349	59.56
319.563	34.99
319.776	-1.88
319.99	47.27
320.203	69.8
320.417	18.6
320.63	55.47
320.843	71.85
321.057	94.38
321.27	22.7
321.483	30.89
321.697	98.47
321.91	30.89
322.124	26.79
322.337	75.95
322.55	51.37
322.763	100.52
322.977	55.47
323.19	-3.93
323.403	37.03
323.617	2.22
323.83	82.09
324.043	8.36
324.256	75.95
324.469	-5.97
324.683	51.37
324.896	24.75
325.109	20.65
325.322	4.27
325.535	75.95
325.748	86.19
325.962	30.89
326.175	-20.31
326.388	141.48
326.601	65.71
326.814	32.94
327.027	53.42
327.24	112.81
327.453	-67.41
327.666	39.08
327.879	34.99
328.092	80.04
328.305	114.86
328.518	67.75
328.731	34.99
328.944	77.99
329.157	116.9
329.37	69.8
329.583	45.23
329.796	90.28
330.009	55.47
330.222	-12.12
330.435	116.9
330.648	71.85
330.861	-24.4
331.073	67.75
331.286	100.52
331.499	86.19
331.712	43.18
331.925	82.09
332.138	61.61
332.35	104.62
332.563	88.23
332.776	100.52
332.989	-12.12
333.202	71.85
333.414	104.62
333.627	-12.12
333.84	133.29
334.053	71.85
334.265	77.99
334.478	22.7
334.691	45.23
334.903	43.18
335.116	80.04
335.329	71.85
335.541	59.56
335.754	88.23
335.966	61.61
336.179	77.99
336.392	45.23
336.604	75.95
336.817	49.32
337.029	141.48
337.242	55.47
337.454	59.56
337.667	102.57
337.88	145.58
338.092	118.95
338.305	108.71
338.517	37.03
338.729	26.79
338.942	32.94
339.154	28.84
339.367	-63.32
339.579	-8.02
339.792	88.23
340.004	75.95
340.217	63.66
340.429	34.99
340.641	-3.93
340.854	-71.51
341.066	20.65
341.278	61.61
341.491	129.19
341.703	6.31
341.915	53.42
342.128	108.71
342.34	-1.88
342.552	-16.21
342.764	47.27
342.977	22.7
343.189	55.47
343.401	71.85
343.613	-14.17
343.826	110.76
344.038	14.51
344.25	108.71
344.462	-20.31
344.674	59.56
344.886	10.41
345.099	125.1
345.311	61.61
345.523	53.42
345.735	-38.74
345.947	10.41
346.159	4.27
346.371	37.03
346.583	100.52
346.795	86.19
347.007	30.89
347.219	41.13
347.431	-67.41
347.643	80.04
347.855	53.42
348.067	28.84
348.279	61.61
348.491	55.47
348.703	-1.88
348.915	-5.97
349.127	6.31
349.339	104.62
349.551	-61.27
349.763	139.43
349.975	92.33
350.187	151.72
350.399	67.75
350.61	30.89
350.822	-32.6
351.034	80.04
351.246	-34.64
351.458	92.33
351.669	94.38
351.881	92.33
352.093	69.8
352.305	69.8
352.517	43.18
352.728	71.85
352.94	12.46
353.152	141.48
353.363	39.08
353.575	43.18
353.787	143.53
353.999	4.27
354.21	108.71
354.422	51.37
354.633	37.03
354.845	37.03
355.057	96.43
355.268	34.99
355.48	63.66
355.692	-18.26
355.903	73.9
356.115	28.84
356.326	10.41
356.538	161.96
356.749	67.75
356.961	75.95
357.172	55.47
357.384	69.8
357.595	-14.17
357.807	47.27
358.018	67.75
358.23	84.14
358.441	69.8
358.653	100.52
358.864	43.18
359.075	69.8
359.287	47.27
359.498	112.81
359.709	67.75
359.921	45.23
360.132	43.18
360.344	10.41
360.555	2.22
360.766	59.56
360.977	43.18
361.189	84.14
361.4	20.65
361.611	100.52
361.823	176.3
362.034	108.71
362.245	-12.12
362.456	88.23
362.667	86.19
362.879	61.61
363.09	24.75
363.301	53.42
363.512	43.18
363.723	75.95
363.935	10.41
364.146	170.15
364.357	18.6
364.568	77.99
364.779	-1.88
364.99	18.6
365.201	75.95
365.412	143.53
365.623	55.47
365.834	112.81
366.045	102.57
366.256	108.71
366.467	51.37
366.678	90.28
366.889	59.56
367.1	86.19
367.311	22.7
367.522	106.67
367.733	59.56
367.944	94.38
368.155	51.37
368.366	63.66
368.577	30.89
368.788	26.79
368.999	59.56
369.209	88.23
369.42	86.19
369.631	121
369.842	18.6
370.053	102.57
370.264	125.1
370.474	18.6
370.685	118.95
370.896	69.8
371.107	100.52
371.317	4.27
371.528	100.52
371.739	121
371.95	80.04
372.16	155.82
372.371	-10.07
372.582	51.37
372.792	71.85
373.003	133.29
373.214	127.14
373.424	24.75
373.635	34.99
373.846	116.9
374.056	94.38
374.267	47.27
374.477	108.71
374.688	37.03
374.898	-30.55
375.109	26.79
375.319	69.8
375.53	137.38
375.74	55.47
375.951	26.79
376.161	143.53
376.372	84.14
376.582	90.28
376.793	116.9
377.003	26.79
377.214	22.7
377.424	59.56
377.635	67.75
377.845	-34.64
378.055	100.52
378.266	14.51
378.476	112.81
378.686	129.19
378.897	59.56
379.107	39.08
379.317	57.51
379.528	45.23
379.738	123.05
379.948	41.13
380.158	145.58
380.369	96.43
380.579	190.63
380.789	125.1
380.999	53.42
381.21	67.75
381.42	127.14
381.63	59.56
381.84	61.61
382.05	-1.88
382.261	100.52
382.471	151.72
382.681	43.18
382.891	123.05
383.101	84.14
383.311	39.08
383.521	26.79
383.731	71.85
383.941	51.37
384.151	20.65
384.361	116.9
384.571	71.85
384.781	88.23
384.991	133.29
385.201	73.9
385.411	92.33
385.621	67.75
385.831	75.95
386.041	88.23
386.251	43.18
386.461	67.75
386.671	47.27
386.881	63.66
387.091	2.22
387.301	86.19
387.511	108.71
387.72	102.57
387.93	104.62
388.14	121
388.35	96.43
388.56	86.19
388.769	100.52
388.979	53.42
389.189	-22.36
389.399	51.37
389.609	84.14
389.818	147.62
390.028	84.14
390.238	69.8
390.447	37.03
390.657	37.03
390.867	2.22
391.076	59.56
391.286	98.47
391.496	53.42
391.705	43.18
391.915	53.42
392.125	116.9
392.334	24.75
392.544	59.56
392.753	51.37
392.963	-18.26
393.172	116.9
393.382	37.03
393.591	141.48
393.801	71.85
394.01	121
394.22	133.29
394.429	116.9
394.639	32.94
394.848	137.38
395.058	108.71
395.267	102.57
395.477	123.05
395.686	43.18
395.895	184.49
396.105	118.95
396.314	125.1
396.524	151.72
396.733	98.47
396.942	127.14
397.152	149.67
397.361	149.67
397.57	86.19
397.78	129.19
397.989	176.3
398.198	231.59
398.407	86.19
398.617	190.63
398.826	135.34
399.035	116.9
399.244	133.29
399.453	92.33
399.663	71.85
399.872	166.06
400.081	108.71
400.29	190.63
400.499	63.66
400.708	159.91
400.917	127.14
401.127	159.91
401.336	143.53
401.545	149.67
401.754	207.02
401.963	129.19
402.172	118.95
402.381	112.81
402.59	149.67
402.799	137.38
403.008	157.86
403.217	121
403.426	186.54
403.635	100.52
403.844	110.76
404.053	98.47
404.262	157.86
404.471	260.26
404.68	182.44
404.888	172.2
405.097	110.76
405.306	116.9
405.515	157.86
405.724	247.97
405.933	174.25
406.142	125.1
406.35	215.21
406.559	247.97
406.768	219.3
406.977	200.87
407.185	272.55
407.394	266.41
407.603	170.15
407.812	264.36
408.02	266.41
408.229	268.45
408.438	282.79
408.646	288.93
408.855	278.69
409.064	295.08
409.272	331.94
409.481	346.28
409.69	268.45
409.898	297.13
410.107	338.09
410.315	338.09
410.524	372.9
410.733	460.96
410.941	430.24
411.15	397.48
411.358	356.52
411.567	489.64
411.775	473.25
411.984	518.31
412.192	477.35
412.401	432.29
412.609	626.85
412.818	559.27
413.026	536.74
413.234	602.27
413.443	708.77
413.651	678.05
413.86	682.14
414.068	649.38
414.276	712.86
414.485	682.14
414.693	749.73
414.901	841.89
415.11	700.58
415.318	780.45
415.526	884.89
415.734	995.48
415.943	972.96
416.151	944.28
416.359	995.48
416.567	1044.63
416.776	1095.83
416.984	1153.18
417.192	1118.36
417.4	1083.55
417.608	1132.7
417.817	1101.98
418.025	1319.06
418.233	1470.61
418.441	1304.73
418.649	1417.37
418.857	1599.63
419.065	1419.41
419.273	1411.22
419.481	1536.15
419.689	1675.41
419.897	1616.02
420.105	1734.8
420.313	1822.86
420.521	1929.36
420.729	1861.77
420.937	2017.42
421.145	2009.23
421.353	2128.01
421.561	2230.41
421.769	2306.18
421.977	2332.81
422.185	2322.57
422.393	2357.38
422.601	2586.76
422.809	2623.62
423.017	2680.96
423.224	2760.83
423.432	2779.26
423.64	2875.52
423.848	3035.26
424.056	3018.88
424.263	3248.25
424.471	3201.15
424.679	3270.78
424.887	3340.41
425.094	3719.28
425.302	3637.36
425.51	3721.33
425.718	3870.83
425.925	3874.93
426.133	3930.22
426.341	4161.64
426.548	4376.68
426.756	4438.12
426.964	4425.83
427.171	4819.04
427.379	4950.11
427.586	5052.51
427.794	5058.65
428.001	5328.99
428.209	5558.36
428.417	5435.48
428.624	5908.56
428.832	5785.68
429.039	5941.33
429.247	6015.05
429.454	6438.98
429.662	6781
429.869	6279.24
430.076	6797.38
430.284	6668.36
430.491	7082.05
430.699	7309.37
430.906	7467.06
431.114	7436.35
431.321	7622.71
431.528	8091.7
431.736	8378.41
431.943	8874.02
432.15	8439.85
432.358	8685.61
432.565	9091.1
432.772	9021.47
432.979	9486.36
433.187	9580.57
433.394	9629.72
433.601	10235.92
433.808	10125.33
434.016	10119.18
434.223	10657.8
434.43	11374.59
434.637	11053.06
434.844	11905.01
435.052	11847.67
435.259	11857.91
435.466	11997.17
435.673	11952.12
435.88	12752.87
436.087	13275.1
436.294	13324.26
436.501	13209.57
436.708	13094.88
436.915	13864.92
437.122	14235.6
437.329	14069.72
437.537	14804.94
437.743	15128.52
437.95	14809.03
438.157	15310.79
438.364	16193.46
438.571	16062.39
438.778	16146.36
438.985	17696.67
439.192	16777.13
439.399	17657.76
439.606	17188.77
439.813	18134.93
440.02	18980.75
440.227	18730.89
440.433	18571.15
440.64	19355.52
440.847	19013.51
441.054	19419.01
441.261	20791.15
441.467	20551.54
441.674	20918.12
441.881	21786.46
442.088	21501.79
442.294	21536.61
442.501	21913.44
442.708	22419.28
442.914	23365.45
443.121	24612.66
443.328	23596.87
443.534	25286.44
443.741	24371
443.948	24229.69
444.154	26179.36
444.361	25845.54
444.568	25732.9
444.774	25976.61
444.981	26285.85
445.187	26926.86
445.394	28159.74
445.6	27668.23
445.807	30813.91
446.013	29239.02
446.22	29875.94
446.426	30752.47
446.633	30926.55
446.839	31981.25
447.046	30482.14
447.252	32702.14
447.459	32403.13
447.665	32292.54
447.871	34119.33
448.078	35188.37
448.284	33668.78
448.491	34385.57
448.697	36120.2
448.903	36347.52
449.11	36359.81
449.316	36081.28
449.522	36796.03
449.728	37541.49
449.935	37752.43
450.141	37881.45
450.347	38934.1
450.553	37434.99
450.76	38297.19
450.966	39343.7
451.172	38678.11
451.378	39611.98
451.584	38751.84
451.791	39818.83
451.997	39958.09
452.203	40359.49
452.409	40472.13
452.615	39919.18
452.821	39022.17
453.027	38512.22
453.233	40377.92
453.44	38792.79
453.646	39003.74
453.852	39124.57
454.058	39593.55
454.264	38544.99
454.47	39149.14
454.676	38555.23
454.882	39683.66
455.088	36017.8
455.294	36937.34
455.5	37332.59
455.705	37973.61
455.911	36175.49
456.117	35327.63
456.323	35092.12
456.529	33423.02
456.735	34586.27
456.941	33437.36
457.147	33066.67
457.352	32272.06
457.558	31780.55
457.764	31801.03
457.97	31106.77
458.176	30246.62
458.381	30525.14
458.587	29011.7
458.793	29003.5
458.999	27383.56
459.204	29431.53
459.41	28833.52
459.616	26674.96
459.821	26763.03
460.027	26726.16
460.233	25986.85
460.438	25249.58
460.644	25251.63
460.85	23840.57
461.055	23834.43
461.261	23504.71
461.466	21657.44
461.672	21063.53
461.878	22619.99
462.083	21292.9
462.289	20569.97
462.494	20432.75
462.7	19476.35
462.905	19074.95
463.111	19462.02
463.316	19627.9
463.522	19462.02
463.727	19367.81
463.932	19130.25
464.138	18851.72
464.343	19068.81
464.549	18409.36
464.754	19208.07
464.959	18993.03
465.165	18632.59
465.37	17950.62
465.575	17655.71
465.781	18010.01
465.986	18141.08
466.191	17387.43
466.397	17016.74
