Data from USB4F104151__241__14-34-09-312.txt Node

Date: Thu Mar 13 14:34:09 EDT 2025
User: louis
Spectrometer: USB4F10415
Trigger mode: 4
Integration Time (sec): 2.500000E-2
Scans to average: 1
Electric dark correction enabled: true
Nonlinearity correction enabled: false
Boxcar width: 0
XAxis mode: Wavelengths
Number of Pixels in Spectrum: 3648
>>>>>Begin Spectral Data<<<<<
178.204	-143.02
178.424	-143.02
178.644	-143.02
178.864	-210.6
179.084	-165.54
179.304	2.39
179.524	-24.23
179.744	20.82
179.964	20.82
180.184	8.53
180.404	22.87
180.624	-9.9
180.844	-59.05
181.064	-22.19
181.283	47.44
181.503	-81.58
181.723	74.07
181.943	-20.14
182.163	86.36
182.383	-50.86
182.602	49.49
182.822	-38.57
183.042	-22.19
183.262	0.34
183.482	-16.04
183.701	-44.71
183.921	-28.33
184.141	-34.47
184.361	-18.09
184.58	-16.04
184.8	-3.75
185.02	-7.85
185.239	20.82
185.459	-18.09
185.679	43.35
185.898	29.01
186.118	12.63
186.338	49.49
186.557	-61.1
186.777	-126.63
186.997	-42.67
187.216	-11.95
187.436	80.21
187.655	41.3
187.875	4.44
188.095	-30.38
188.314	24.92
188.534	-44.71
188.753	59.73
188.973	12.63
189.192	86.36
189.412	12.63
189.631	12.63
189.851	29.01
190.07	135.51
190.29	-18.09
190.509	-11.95
190.729	6.49
190.948	37.2
191.168	69.97
191.387	8.53
191.607	18.77
191.826	14.68
192.045	37.2
192.265	0.34
192.484	-20.14
192.704	4.44
192.923	-77.48
193.142	45.4
193.362	80.21
193.581	22.87
193.8	20.82
194.02	10.58
194.239	74.07
194.458	86.36
194.678	-73.39
194.897	16.73
195.116	-52.91
195.335	-40.62
195.555	26.96
195.774	-3.75
195.993	63.83
196.212	-18.09
196.432	-20.14
196.651	6.49
196.87	-18.09
197.089	90.45
197.308	59.73
197.528	55.64
197.747	-20.14
197.966	6.49
198.185	98.64
198.404	-52.91
198.623	55.64
198.842	33.11
199.062	6.49
199.281	78.16
199.5	6.49
199.719	41.3
199.938	110.93
200.157	22.87
200.376	43.35
200.595	-1.71
200.814	-13.99
201.033	-112.3
201.252	80.21
201.471	22.87
201.69	57.68
201.909	-3.75
202.128	53.59
202.347	-11.95
202.566	31.06
202.785	90.45
203.004	49.49
203.223	45.4
203.442	-3.75
203.661	-1.71
203.879	-7.85
204.098	37.2
204.317	-69.29
204.536	-5.8
204.755	37.2
204.974	31.06
205.193	-16.04
205.411	160.08
205.63	-3.75
205.849	16.73
206.068	-3.75
206.287	-36.52
206.505	-26.28
206.724	6.49
206.943	82.26
207.162	41.3
207.381	-24.23
207.599	10.58
207.818	4.44
208.037	37.2
208.255	29.01
208.474	37.2
208.693	18.77
208.911	-34.47
209.13	53.59
209.349	24.92
209.567	-26.28
209.786	-7.85
210.005	39.25
210.223	0.34
210.442	-61.1
210.661	14.68
210.879	24.92
211.098	-26.28
211.316	29.01
211.535	12.63
211.753	-48.81
211.972	39.25
212.191	-11.95
212.409	37.2
212.628	16.73
212.846	-75.43
213.065	49.49
213.283	57.68
213.502	-52.91
213.72	-16.04
213.938	-20.14
214.157	-40.62
214.375	-7.85
214.594	10.58
214.812	59.73
215.031	-46.76
215.249	37.2
215.467	14.68
215.686	63.83
215.904	-18.09
216.122	-100.01
216.341	102.74
216.559	-32.43
216.778	53.59
216.996	-9.9
217.214	0.34
217.432	6.49
217.651	12.63
217.869	-28.33
218.087	45.4
218.306	-16.04
218.524	82.26
218.742	-3.75
218.96	8.53
219.179	2.39
219.397	26.96
219.615	39.25
219.833	-9.9
220.051	14.68
220.27	12.63
220.488	18.77
220.706	20.82
220.924	31.06
221.142	14.68
221.36	-7.85
221.578	-34.47
221.796	20.82
222.015	-69.29
222.233	-3.75
222.451	100.69
222.669	-34.47
222.887	65.88
223.105	4.44
223.323	59.73
223.541	-93.87
223.759	29.01
223.977	-34.47
224.195	16.73
224.413	86.36
224.631	74.07
224.849	-57
225.067	117.08
225.285	82.26
225.503	57.68
225.721	-108.2
225.939	29.01
226.157	45.4
226.375	100.69
226.592	31.06
226.81	14.68
227.028	57.68
227.246	47.44
227.464	-9.9
227.682	16.73
227.9	41.3
228.117	65.88
228.335	-34.47
228.553	22.87
228.771	-48.81
228.989	-3.75
229.206	37.2
229.424	-52.91
229.642	-16.04
229.86	-32.43
230.077	-9.9
230.295	-1.71
230.513	61.78
230.731	20.82
230.948	59.73
231.166	53.59
231.384	82.26
231.601	-52.91
231.819	-16.04
232.037	49.49
232.254	-48.81
232.472	51.54
232.689	-11.95
232.907	-1.71
233.125	0.34
233.342	-9.9
233.56	29.01
233.777	24.92
233.995	-7.85
234.213	39.25
234.43	41.3
234.648	22.87
234.865	12.63
235.083	29.01
235.3	74.07
235.518	-1.71
235.735	6.49
235.953	53.59
236.17	20.82
236.388	-1.71
236.605	29.01
236.822	131.41
237.04	22.87
237.257	41.3
237.475	39.25
237.692	-36.52
237.909	-18.09
238.127	-28.33
238.344	-7.85
238.562	53.59
238.779	8.53
238.996	-36.52
239.214	35.16
239.431	59.73
239.648	-16.04
239.865	-1.71
240.083	80.21
240.3	12.63
240.517	-18.09
240.735	20.82
240.952	39.25
241.169	86.36
241.386	39.25
241.603	41.3
241.821	-42.67
242.038	37.2
242.255	-5.8
242.472	-52.91
242.689	20.82
242.907	65.88
243.124	-59.05
243.341	-30.38
243.558	0.34
243.775	18.77
243.992	-83.63
244.209	-11.95
244.426	155.99
244.643	47.44
244.86	-42.67
245.078	94.55
245.295	-1.71
245.512	63.83
245.729	-30.38
245.946	39.25
246.163	29.01
246.38	-36.52
246.597	-85.67
246.814	4.44
247.031	45.4
247.248	20.82
247.464	45.4
247.681	-16.04
247.898	20.82
248.115	78.16
248.332	12.63
248.549	-9.9
248.766	151.89
248.983	102.74
249.2	-24.23
249.417	-20.14
249.633	-9.9
249.85	29.01
250.067	45.4
250.284	14.68
250.501	-48.81
250.717	61.78
250.934	-57
251.151	-11.95
251.368	29.01
251.585	29.01
251.801	-11.95
252.018	-69.29
252.235	43.35
252.451	-13.99
252.668	-59.05
252.885	55.64
253.102	-11.95
253.318	4.44
253.535	37.2
253.752	8.53
253.968	-3.75
254.185	-16.04
254.401	-42.67
254.618	115.03
254.835	-36.52
255.051	96.6
255.268	45.4
255.484	-77.48
255.701	-13.99
255.917	-11.95
256.134	0.34
256.351	-1.71
256.567	-42.67
256.784	14.68
257	-1.71
257.217	6.49
257.433	-11.95
257.65	31.06
257.866	82.26
258.082	-18.09
258.299	-20.14
258.515	14.68
258.732	-5.8
258.948	-50.86
259.165	-7.85
259.381	-44.71
259.597	20.82
259.814	47.44
260.03	29.01
260.246	-46.76
260.463	16.73
260.679	-28.33
260.895	37.2
261.112	-34.47
261.328	39.25
261.544	29.01
261.761	14.68
261.977	-11.95
262.193	-11.95
262.409	-9.9
262.626	14.68
262.842	16.73
263.058	4.44
263.274	39.25
263.49	12.63
263.707	41.3
263.923	31.06
264.139	-20.14
264.355	-79.53
264.571	24.92
264.787	45.4
265.004	88.4
265.22	12.63
265.436	14.68
265.652	57.68
265.868	0.34
266.084	-61.1
266.3	35.16
266.516	-50.86
266.732	45.4
266.948	14.68
267.164	-1.71
267.38	6.49
267.596	-3.75
267.812	51.54
268.028	20.82
268.244	29.01
268.46	67.92
268.676	-11.95
268.892	102.74
269.108	-83.63
269.324	14.68
269.54	-22.19
269.756	29.01
269.972	20.82
270.188	55.64
270.403	-18.09
270.619	6.49
270.835	12.63
271.051	67.92
271.267	143.7
271.483	-36.52
271.698	41.3
271.914	20.82
272.13	-20.14
272.346	4.44
272.562	20.82
272.777	-16.04
272.993	-67.24
273.209	16.73
273.425	26.96
273.64	-3.75
273.856	20.82
274.072	12.63
274.287	-42.67
274.503	65.88
274.719	45.4
274.934	-3.75
275.15	6.49
275.366	-61.1
275.581	-11.95
275.797	49.49
276.012	78.16
276.228	33.11
276.444	8.53
276.659	35.16
276.875	-75.43
277.09	-24.23
277.306	88.4
277.521	12.63
277.737	0.34
277.952	37.2
278.168	49.49
278.383	-52.91
278.599	12.63
278.814	-26.28
279.03	29.01
279.245	90.45
279.461	47.44
279.676	20.82
279.892	-54.95
280.107	12.63
280.322	-34.47
280.538	61.78
280.753	35.16
280.969	41.3
281.184	-24.23
281.399	53.59
281.615	29.01
281.83	69.97
282.045	-32.43
282.26	-16.04
282.476	-20.14
282.691	12.63
282.906	90.45
283.122	43.35
283.337	29.01
283.552	-7.85
283.767	-46.76
283.983	12.63
284.198	26.96
284.413	80.21
284.628	-18.09
284.843	53.59
285.058	72.02
285.274	-46.76
285.489	-85.67
285.704	78.16
285.919	41.3
286.134	37.2
286.349	24.92
286.564	-42.67
286.779	33.11
286.995	-3.75
287.21	-48.81
287.425	80.21
287.64	29.01
287.855	26.96
288.07	-28.33
288.285	-34.47
288.5	69.97
288.715	37.2
288.93	37.2
289.145	-26.28
289.36	61.78
289.575	-11.95
289.79	20.82
290.004	-50.86
290.219	47.44
290.434	-18.09
290.649	-69.29
290.864	33.11
291.079	41.3
291.294	29.01
291.509	16.73
291.724	-26.28
291.938	47.44
292.153	-1.71
292.368	-28.33
292.583	41.3
292.798	45.4
293.012	53.59
293.227	-48.81
293.442	16.73
293.657	135.51
293.871	-36.52
294.086	-28.33
294.301	74.07
294.516	72.02
294.73	-9.9
294.945	-48.81
295.16	8.53
295.374	-5.8
295.589	31.06
295.804	43.35
296.018	45.4
296.233	20.82
296.447	45.4
296.662	-102.06
296.877	65.88
297.091	35.16
297.306	-50.86
297.52	-44.71
297.735	-30.38
297.949	31.06
298.164	2.39
298.378	14.68
298.593	12.63
298.807	-50.86
299.022	0.34
299.236	45.4
299.451	41.3
299.665	10.58
299.88	37.2
300.094	82.26
300.309	14.68
300.523	35.16
300.737	-57
300.952	-22.19
301.166	-26.28
301.381	-9.9
301.595	-28.33
301.809	84.31
302.024	-11.95
302.238	-3.75
302.452	41.3
302.667	-26.28
302.881	-18.09
303.095	41.3
303.309	39.25
303.524	-36.52
303.738	-44.71
303.952	2.39
304.166	-30.38
304.381	-46.76
304.595	78.16
304.809	0.34
305.023	-32.43
305.237	-11.95
305.452	-1.71
305.666	0.34
305.88	82.26
306.094	-26.28
306.308	57.68
306.522	49.49
306.736	39.25
306.95	-3.75
307.164	-44.71
307.379	78.16
307.593	131.41
307.807	61.78
308.021	-11.95
308.235	86.36
308.449	-42.67
308.663	26.96
308.877	61.78
309.091	69.97
309.305	45.4
309.519	0.34
309.733	74.07
309.947	0.34
310.161	0.34
310.374	20.82
310.588	-28.33
310.802	-20.14
311.016	-5.8
311.23	-5.8
311.444	4.44
311.658	63.83
311.872	127.32
312.085	51.54
312.299	55.64
312.513	12.63
312.727	55.64
312.941	-20.14
313.154	16.73
313.368	12.63
313.582	-48.81
313.796	-24.23
314.009	-38.57
314.223	0.34
314.437	53.59
314.651	37.2
314.864	45.4
315.078	2.39
315.292	67.92
315.505	20.82
315.719	53.59
315.933	26.96
316.146	20.82
316.36	-32.43
316.573	57.68
316.787	16.73
317.001	-7.85
317.214	-24.23
317.428	24.92
317.641	29.01
317.855	-28.33
318.068	69.97
318.282	26.96
318.495	45.4
318.709	37.2
318.922	49.49
319.136	74.07
319.349	90.45
319.563	86.36
319.776	69.97
319.99	-61.1
320.203	8.53
320.417	-9.9
320.63	74.07
320.843	76.12
321.057	127.32
321.27	10.58
321.483	-42.67
321.697	22.87
321.91	20.82
322.124	69.97
322.337	69.97
322.55	-42.67
322.763	35.16
322.977	4.44
323.19	53.59
323.403	4.44
323.617	6.49
323.83	45.4
324.043	-24.23
324.256	-7.85
324.469	0.34
324.683	57.68
324.896	-16.04
325.109	-50.86
325.322	-77.48
325.535	63.83
325.748	98.64
325.962	47.44
326.175	2.39
326.388	61.78
326.601	61.78
326.814	12.63
327.027	-24.23
327.24	74.07
327.453	-67.24
327.666	4.44
327.879	8.53
328.092	39.25
328.305	63.83
328.518	22.87
328.731	-40.62
328.944	-1.71
329.157	61.78
329.37	63.83
329.583	74.07
329.796	65.88
330.009	-16.04
330.222	49.49
330.435	-16.04
330.648	61.78
330.861	45.4
331.073	39.25
331.286	-3.75
331.499	94.55
331.712	41.3
331.925	-20.14
332.138	53.59
332.35	74.07
332.563	-5.8
332.776	102.74
332.989	-38.57
333.202	-36.52
333.414	33.11
333.627	65.88
333.84	-57
334.053	-9.9
334.265	-36.52
334.478	20.82
334.691	63.83
334.903	-3.75
335.116	-20.14
335.329	4.44
335.541	0.34
335.754	88.4
335.966	-9.9
336.179	4.44
336.392	-1.71
336.604	37.2
336.817	12.63
337.029	57.68
337.242	45.4
337.454	78.16
337.667	86.36
337.88	22.87
338.092	-40.62
338.305	84.31
338.517	2.39
338.729	-3.75
338.942	45.4
339.154	-50.86
339.367	24.92
339.579	45.4
339.792	-9.9
340.004	96.6
340.217	35.16
340.429	90.45
340.641	53.59
340.854	-26.28
341.066	-34.47
341.278	31.06
341.491	135.51
341.703	29.01
341.915	-16.04
342.128	112.98
342.34	10.58
342.552	-108.2
342.764	2.39
342.977	37.2
343.189	8.53
343.401	29.01
343.613	-3.75
343.826	12.63
344.038	-44.71
344.25	43.35
344.462	-22.19
344.674	-11.95
344.886	22.87
345.099	57.68
345.311	0.34
345.523	-26.28
345.735	2.39
345.947	69.97
346.159	16.73
346.371	88.4
346.583	10.58
346.795	53.59
347.007	67.92
347.219	-28.33
347.431	-9.9
347.643	-22.19
347.855	-54.95
348.067	76.12
348.279	35.16
348.491	22.87
348.703	-1.71
348.915	12.63
349.127	-26.28
349.339	24.92
349.551	-20.14
349.763	16.73
349.975	55.64
350.187	49.49
350.399	82.26
350.61	47.44
350.822	-36.52
351.034	41.3
351.246	-5.8
351.458	6.49
351.669	53.59
351.881	47.44
352.093	39.25
352.305	37.2
352.517	29.01
352.728	6.49
352.94	-1.71
353.152	55.64
353.363	29.01
353.575	-5.8
353.787	53.59
353.999	35.16
354.21	61.78
354.422	4.44
354.633	14.68
354.845	104.79
355.057	31.06
355.268	16.73
355.48	12.63
355.692	-38.57
355.903	14.68
356.115	-13.99
356.326	4.44
356.538	33.11
356.749	39.25
356.961	31.06
357.172	33.11
357.384	-81.58
357.595	76.12
357.807	-11.95
358.018	39.25
358.23	37.2
358.441	100.69
358.653	74.07
358.864	55.64
359.075	8.53
359.287	37.2
359.498	20.82
359.709	12.63
359.921	-32.43
360.132	61.78
360.344	49.49
360.555	-9.9
360.766	16.73
360.977	63.83
361.189	98.64
361.4	35.16
361.611	20.82
361.823	57.68
362.034	-50.86
362.245	-38.57
362.456	-16.04
362.667	90.45
362.879	86.36
363.09	-28.33
363.301	59.73
363.512	-26.28
363.723	37.2
363.935	-54.95
364.146	47.44
364.357	41.3
364.568	-3.75
364.779	-59.05
364.99	45.4
365.201	-16.04
365.412	121.17
365.623	-40.62
365.834	-3.75
366.045	-24.23
366.256	57.68
366.467	8.53
366.678	61.78
366.889	94.55
367.1	4.44
367.311	-36.52
367.522	-24.23
367.733	0.34
367.944	33.11
368.155	24.92
368.366	47.44
368.577	127.32
368.788	84.31
368.999	20.82
369.209	-42.67
369.42	24.92
369.631	115.03
369.842	29.01
370.053	-7.85
370.264	55.64
370.474	55.64
370.685	69.97
370.896	-9.9
371.107	102.74
371.317	37.2
371.528	22.87
371.739	86.36
371.95	16.73
372.16	100.69
372.371	12.63
372.582	53.59
372.792	-16.04
373.003	57.68
373.214	37.2
373.424	37.2
373.635	61.78
373.846	102.74
374.056	26.96
374.267	20.82
374.477	35.16
374.688	69.97
374.898	-42.67
375.109	45.4
375.319	4.44
375.53	78.16
375.74	12.63
375.951	39.25
376.161	65.88
376.372	12.63
376.582	4.44
376.793	72.02
377.003	31.06
377.214	55.64
377.424	90.45
377.635	67.92
377.845	8.53
378.055	78.16
378.266	20.82
378.476	4.44
378.686	-34.47
378.897	-42.67
379.107	-24.23
379.317	53.59
379.528	37.2
379.738	33.11
379.948	-34.47
380.158	78.16
380.369	82.26
380.579	41.3
380.789	37.2
380.999	78.16
381.21	24.92
381.42	94.55
381.63	24.92
381.84	31.06
382.05	47.44
382.261	57.68
382.471	63.83
382.681	-85.67
382.891	123.22
383.101	37.2
383.311	-22.19
383.521	53.59
383.731	29.01
383.941	45.4
384.151	12.63
384.361	47.44
384.571	-48.81
384.781	41.3
384.991	29.01
385.201	69.97
385.411	14.68
385.621	69.97
385.831	49.49
386.041	55.64
386.251	53.59
386.461	86.36
386.671	67.92
386.881	86.36
387.091	-7.85
387.301	37.2
387.511	69.97
387.72	22.87
387.93	57.68
388.14	-24.23
388.35	31.06
388.56	166.23
388.769	74.07
388.979	78.16
389.189	-9.9
389.399	170.32
389.609	47.44
389.818	45.4
390.028	16.73
390.238	72.02
390.447	16.73
390.657	69.97
390.867	-1.71
391.076	-44.71
391.286	80.21
391.496	104.79
391.705	8.53
391.915	141.65
392.125	135.51
392.334	55.64
392.544	12.63
392.753	29.01
392.963	8.53
393.172	12.63
393.382	151.89
393.591	176.47
393.801	31.06
394.01	153.94
394.22	53.59
394.429	37.2
394.639	22.87
394.848	92.5
395.058	53.59
395.267	20.82
395.477	63.83
395.686	110.93
395.895	102.74
396.105	127.32
396.314	65.88
396.524	104.79
396.733	67.92
396.942	139.6
397.152	86.36
397.361	108.88
397.57	72.02
397.78	-3.75
397.989	86.36
398.198	86.36
398.407	149.84
398.617	88.4
398.826	82.26
399.035	69.97
399.244	92.5
399.453	80.21
399.663	90.45
399.872	61.78
400.081	51.54
400.29	145.75
400.499	31.06
400.708	168.27
400.917	110.93
401.127	78.16
401.336	135.51
401.545	153.94
401.754	127.32
401.963	129.36
402.172	145.75
402.381	74.07
402.59	47.44
402.799	102.74
403.008	112.98
403.217	147.8
403.426	119.12
403.635	104.79
403.844	170.32
404.053	125.27
404.262	106.84
404.471	172.37
404.68	180.56
404.888	168.27
405.097	151.89
405.306	119.12
405.515	198.99
405.724	115.03
405.933	215.38
406.142	221.52
406.35	174.42
406.559	180.56
406.768	176.47
406.977	209.23
407.185	223.57
407.394	215.38
407.603	235.86
407.812	209.23
408.02	270.67
408.229	291.15
408.438	282.96
408.646	282.96
408.855	201.04
409.064	364.88
409.272	282.96
409.481	192.85
409.69	248.15
409.898	366.93
410.107	330.06
410.315	487.76
410.524	368.98
410.733	325.97
410.941	401.74
411.15	403.79
411.358	395.6
411.567	467.28
411.775	495.95
411.984	504.14
412.192	553.29
412.401	508.24
412.609	504.14
412.818	469.33
413.026	575.82
413.234	528.72
413.443	622.92
413.651	608.59
413.86	692.55
414.068	667.98
414.276	700.75
414.485	663.88
414.693	678.22
414.901	938.31
415.11	823.62
415.318	803.15
415.526	835.91
415.734	866.63
415.943	913.74
416.151	981.32
416.359	966.98
416.567	964.93
416.776	1001.8
416.984	1098.05
417.192	1130.82
417.4	1110.34
417.608	1069.38
417.817	1263.94
418.025	1323.33
418.233	1415.49
418.441	1321.28
418.649	1368.38
418.857	1462.59
419.065	1503.55
419.273	1421.63
419.481	1638.72
419.689	1646.91
419.897	1714.49
420.105	1796.41
420.313	1839.42
420.521	1884.47
420.729	1941.82
420.937	1847.61
421.145	2021.69
421.353	2150.71
421.561	2289.97
421.769	2421.04
421.977	2416.94
422.185	2361.65
422.393	2478.38
422.601	2752.81
422.809	2674.99
423.017	2695.47
423.224	2920.74
423.432	2953.51
423.64	2947.37
423.848	3219.75
424.056	3111.21
424.263	3371.3
424.471	3332.39
424.679	3469.6
424.887	3635.49
425.094	3799.32
425.302	3791.13
425.51	3887.39
425.718	3946.78
425.925	4065.56
426.133	4083.99
426.341	4464.91
426.548	4636.94
426.756	4469.01
426.964	4774.16
427.171	5021.96
427.379	4964.62
427.586	5134.6
427.794	5280
428.001	5501.19
428.209	5787.9
428.417	5724.41
428.624	6183.16
428.832	5970.17
429.039	6136.06
429.247	5902.59
429.454	6764.78
429.662	6904.04
429.869	6590.7
430.076	7102.7
430.284	6686.96
430.491	7112.94
430.699	7495.91
430.906	7500
431.114	7610.59
431.321	8016.09
431.528	8122.59
431.736	8548.56
431.943	8927.44
432.15	8802.51
432.358	8773.84
432.565	9345.22
432.772	9322.7
432.979	9693.38
433.187	9918.65
433.394	9818.3
433.601	10473.65
433.808	10565.81
434.016	10565.81
434.223	11063.47
434.43	11565.22
434.637	11350.18
434.844	12071.07
435.052	12458.14
435.259	12384.41
435.466	12408.98
435.673	12173.47
435.88	13095.05
436.087	13609.09
436.294	13668.48
436.501	13453.45
436.708	13578.37
436.915	14078.08
437.122	14669.94
437.329	14766.2
437.537	15308.91
437.743	15790.18
437.95	15382.63
438.157	16070.75
438.364	16541.78
438.571	16730.2
438.778	16683.09
438.985	18243.65
439.192	17657.93
439.399	18018.37
439.606	17803.33
439.813	18880.57
440.02	19925.03
440.227	19488.81
440.433	19331.12
440.64	19705.9
440.847	19716.14
441.054	20140.07
441.261	21508.11
441.467	21331.98
441.674	21891.08
441.881	22568.96
442.088	22263.81
442.294	22198.27
442.501	22810.62
442.708	23152.63
442.914	23941.1
443.121	25460.69
443.328	24641.5
443.534	26312.64
443.741	25618.38
443.948	25049.05
444.154	27013.05
444.361	26597.31
444.568	27289.52
444.774	26732.48
444.981	27367.35
445.187	28143.53
445.394	29151.13
445.6	28823.45
445.807	31764.34
446.013	30222.22
446.22	30582.66
446.426	32024.43
446.633	32302.95
446.839	33331.03
447.046	32042.86
447.252	33783.63
447.459	33529.69
447.665	33838.93
447.871	35399.48
448.078	36658.98
448.284	35163.96
448.491	35854.13
448.697	37236.51
448.903	37861.14
449.11	38006.55
449.316	37166.88
449.522	38110.99
449.728	38762.25
449.935	39114.5
450.141	39431.93
450.347	40232.69
450.553	39339.77
450.76	39487.23
450.966	40916.71
451.172	40511.21
451.378	40947.43
451.584	40799.97
451.791	41590.49
451.997	41666.27
452.203	42458.83
452.409	42045.14
452.615	41924.31
452.821	40701.67
453.027	39911.16
453.233	42256.08
453.44	40038.13
453.646	40773.35
453.852	40449.77
454.058	41551.58
454.264	40283.89
454.47	41500.38
454.676	40265.45
454.882	41533.15
455.088	38170.38
455.294	38555.4
455.5	38948.61
455.705	39524.09
455.911	37869.33
456.117	37113.63
456.323	36812.58
456.529	34930.5
456.735	36149.04
456.941	35288.89
457.147	34361.16
457.352	33664.85
457.558	33328.98
457.764	33183.58
457.97	32481.13
458.176	31946.61
458.381	32282.47
458.587	30842.75
458.793	30103.43
458.999	28821.41
459.204	31113.08
459.41	29908.88
459.616	28370.85
459.821	28139.43
460.027	27625.39
460.233	27197.37
460.438	26144.71
460.644	26398.66
460.85	25067.48
461.055	24840.15
461.261	24737.76
461.466	22917.11
461.672	22013.96
461.878	23758.83
462.083	22075.4
462.289	21639.18
462.494	21583.88
462.7	20957.21
462.905	20043.81
463.111	20326.43
463.316	20799.51
463.522	20447.26
463.727	20246.56
463.932	20244.51
464.138	19890.21
464.343	20011.04
464.549	19255.34
464.754	20080.67
464.959	19845.16
465.165	19494.96
465.37	18954.29
465.575	18366.53
465.781	18915.38
465.986	19111.99
466.191	18446.4
466.397	18237.5
466.602	17297.49
