Data from USB4F104151__167__14-32-22-341.txt Node

Date: Thu Mar 13 14:32:22 EDT 2025
User: louis
Spectrometer: USB4F10415
Trigger mode: 4
Integration Time (sec): 2.500000E-2
Scans to average: 1
Electric dark correction enabled: true
Nonlinearity correction enabled: false
Boxcar width: 0
XAxis mode: Wavelengths
Number of Pixels in Spectrum: 3648
>>>>>Begin Spectral Data<<<<<
178.204	-194.39
178.424	-194.39
178.644	-194.39
178.864	-135
179.084	-218.96
179.304	-55.12
179.524	26.79
179.744	45.23
179.964	22.7
180.184	-26.45
180.404	-12.12
180.624	6.31
180.844	24.75
181.064	-59.22
181.283	63.66
181.503	-32.6
181.723	-3.93
181.943	-120.66
182.163	53.42
182.383	-30.55
182.602	88.23
182.822	26.79
183.042	-12.12
183.262	-28.5
183.482	18.6
183.701	47.27
183.921	0.17
184.141	-75.6
184.361	71.85
184.58	-14.17
184.8	-30.55
185.02	-75.6
185.239	55.47
185.459	39.08
185.679	-51.03
185.898	4.27
186.118	75.95
186.338	2.22
186.557	-26.45
186.777	-36.69
186.997	-44.88
187.216	-53.08
187.436	51.37
187.655	-1.88
187.875	-10.07
188.095	45.23
188.314	59.56
188.534	-12.12
188.753	102.57
188.973	-40.79
189.192	43.18
189.412	-38.74
189.631	18.6
189.851	-57.17
190.07	53.42
190.29	-34.64
190.509	2.22
190.729	55.47
190.948	10.41
191.168	164.01
191.387	47.27
191.607	-30.55
191.826	59.56
192.045	10.41
192.265	-10.07
192.484	-46.93
192.704	-59.22
192.923	-42.84
193.142	104.62
193.362	-1.88
193.581	20.65
193.8	4.27
194.02	53.42
194.239	-18.26
194.458	-55.12
194.678	43.18
194.897	10.41
195.116	43.18
195.335	-5.97
195.555	12.46
195.774	59.56
195.993	-100.18
196.212	28.84
196.432	37.03
196.651	-22.36
196.87	-38.74
197.089	75.95
197.308	-10.07
197.528	108.71
197.747	-106.32
197.966	28.84
198.185	-3.93
198.404	-53.08
198.623	-22.36
198.842	51.37
199.062	100.52
199.281	94.38
199.5	-10.07
199.719	4.27
199.938	-3.93
200.157	-3.93
200.376	18.6
200.595	63.66
200.814	2.22
201.033	26.79
201.252	67.75
201.471	4.27
201.69	34.99
201.909	47.27
202.128	-1.88
202.347	-63.32
202.566	2.22
202.785	-55.12
203.004	-36.69
203.223	61.61
203.442	-22.36
203.661	-3.93
203.879	-14.17
204.098	12.46
204.317	6.31
204.536	41.13
204.755	18.6
204.974	14.51
205.193	41.13
205.411	53.42
205.63	-30.55
205.849	2.22
206.068	57.51
206.287	12.46
206.505	94.38
206.724	-104.28
206.943	39.08
207.162	18.6
207.381	-30.55
207.599	20.65
207.818	65.71
208.037	-118.61
208.255	-16.21
208.474	-3.93
208.693	34.99
208.911	0.17
209.13	12.46
209.349	-55.12
209.567	51.37
209.786	73.9
210.005	-14.17
210.223	-1.88
210.442	16.55
210.661	-14.17
210.879	-26.45
211.098	-22.36
211.316	-22.36
211.535	45.23
211.753	-63.32
211.972	53.42
212.191	2.22
212.409	28.84
212.628	0.17
212.846	-18.26
213.065	-28.5
213.283	55.47
213.502	10.41
213.72	-20.31
213.938	51.37
214.157	53.42
214.375	24.75
214.594	-18.26
214.812	65.71
215.031	-57.17
215.249	-67.41
215.467	4.27
215.686	10.41
215.904	112.81
216.122	-16.21
216.341	-14.17
216.559	2.22
216.778	18.6
216.996	65.71
217.214	-36.69
217.432	-22.36
217.651	10.41
217.869	-48.98
218.087	59.56
218.306	14.51
218.524	49.32
218.742	-24.4
218.96	10.41
219.179	0.17
219.397	-51.03
219.615	34.99
219.833	80.04
220.051	10.41
220.27	63.66
220.488	-14.17
220.706	26.79
220.924	71.85
221.142	-20.31
221.36	-26.45
221.578	67.75
221.796	12.46
222.015	-46.93
222.233	51.37
222.451	22.7
222.669	-69.46
222.887	-51.03
223.105	-1.88
223.323	-16.21
223.541	-79.7
223.759	-20.31
223.977	14.51
224.195	100.52
224.413	24.75
224.631	47.27
224.849	30.89
225.067	67.75
225.285	2.22
225.503	-5.97
225.721	-38.74
225.939	-14.17
226.157	-3.93
226.375	-3.93
226.592	14.51
226.81	-38.74
227.028	20.65
227.246	71.85
227.464	-10.07
227.682	53.42
227.9	51.37
228.117	-42.84
228.335	20.65
228.553	2.22
228.771	51.37
228.989	57.51
229.206	-22.36
229.424	-3.93
229.642	-20.31
229.86	-20.31
230.077	45.23
230.295	12.46
230.513	-5.97
230.731	28.84
230.948	43.18
231.166	-3.93
231.384	-59.22
231.601	55.47
231.819	67.75
232.037	-26.45
232.254	-30.55
232.472	55.47
232.689	-20.31
232.907	18.6
233.125	-22.36
233.342	-10.07
233.56	-26.45
233.777	-63.32
233.995	2.22
234.213	34.99
234.43	-38.74
234.648	-40.79
234.865	18.6
235.083	77.99
235.3	-46.93
235.518	-36.69
235.735	71.85
235.953	18.6
236.17	4.27
236.388	26.79
236.605	-3.93
236.822	100.52
237.04	47.27
237.257	-22.36
237.475	26.79
237.692	-1.88
237.909	-12.12
238.127	75.95
238.344	-3.93
238.562	-20.31
238.779	-75.6
238.996	-18.26
239.214	-51.03
239.431	2.22
239.648	-42.84
239.865	24.75
240.083	112.81
240.3	18.6
240.517	-81.75
240.735	-53.08
240.952	-12.12
241.169	69.8
241.386	67.75
241.603	-22.36
241.821	2.22
242.038	26.79
242.255	43.18
242.472	-22.36
242.689	-18.26
242.907	12.46
243.124	-30.55
243.341	-20.31
243.558	-63.32
243.775	-24.4
243.992	-30.55
244.209	69.8
244.426	51.37
244.643	53.42
244.86	-16.21
245.078	32.94
245.295	82.09
245.512	-1.88
245.729	18.6
245.946	-46.93
246.163	-8.02
246.38	28.84
246.597	-28.5
246.814	39.08
247.031	-22.36
247.248	-59.22
247.464	28.84
247.681	-22.36
247.898	16.55
248.115	-18.26
248.332	-32.6
248.549	-5.97
248.766	133.29
248.983	-14.17
249.2	-42.84
249.417	59.56
249.633	43.18
249.85	-5.97
250.067	-73.56
250.284	45.23
250.501	-38.74
250.717	2.22
250.934	-67.41
251.151	10.41
251.368	16.55
251.585	61.61
251.801	28.84
252.018	-5.97
252.235	30.89
252.451	-10.07
252.668	10.41
252.885	-28.5
253.102	18.6
253.318	18.6
253.535	-5.97
253.752	-3.93
253.968	-55.12
254.185	-34.64
254.401	-38.74
254.618	28.84
254.835	55.47
255.051	59.56
255.268	53.42
255.484	71.85
255.701	12.46
255.917	-14.17
256.134	-44.88
256.351	10.41
256.567	-36.69
256.784	-28.5
257	10.41
257.217	67.75
257.433	53.42
257.65	4.27
257.866	92.33
258.082	-14.17
258.299	-26.45
258.515	-42.84
258.732	43.18
258.948	-30.55
259.165	65.71
259.381	14.51
259.597	18.6
259.814	-46.93
260.03	59.56
260.246	43.18
260.463	86.19
260.679	26.79
260.895	-55.12
261.112	26.79
261.328	-5.97
261.544	59.56
261.761	18.6
261.977	2.22
262.193	-18.26
262.409	94.38
262.626	106.67
262.842	18.6
263.058	-32.6
263.274	34.99
263.49	12.46
263.707	10.41
263.923	-10.07
264.139	-63.32
264.355	-12.12
264.571	20.65
264.787	34.99
265.004	90.28
265.22	55.47
265.436	-48.98
265.652	-16.21
265.868	-30.55
266.084	-22.36
266.3	-10.07
266.516	-40.79
266.732	88.23
266.948	43.18
267.164	4.27
267.38	75.95
267.596	14.51
267.812	75.95
268.028	6.31
268.244	-100.18
268.46	14.51
268.676	-87.89
268.892	18.6
269.108	-5.97
269.324	-87.89
269.54	-55.12
269.756	10.41
269.972	-22.36
270.188	20.65
270.403	-63.32
270.619	-22.36
270.835	-8.02
271.051	43.18
271.267	-79.7
271.483	18.6
271.698	14.51
271.914	55.47
272.13	18.6
272.346	67.75
272.562	61.61
272.777	-18.26
272.993	18.6
273.209	0.17
273.425	26.79
273.64	-55.12
273.856	10.41
274.072	-10.07
274.287	59.56
274.503	-22.36
274.719	-14.17
274.934	51.37
275.15	-14.17
275.366	-16.21
275.581	34.99
275.797	10.41
276.012	77.99
276.228	39.08
276.444	4.27
276.659	94.38
276.875	20.65
277.09	-1.88
277.306	37.03
277.521	71.85
277.737	-16.21
277.952	10.41
278.168	39.08
278.383	49.32
278.599	34.99
278.814	86.19
279.03	34.99
279.245	75.95
279.461	-48.98
279.676	-3.93
279.892	-55.12
280.107	-22.36
280.322	-91.99
280.538	59.56
280.753	-18.26
280.969	65.71
281.184	-20.31
281.399	108.71
281.615	8.36
281.83	14.51
282.045	30.89
282.26	-5.97
282.476	18.6
282.691	28.84
282.906	-14.17
283.122	18.6
283.337	-24.4
283.552	14.51
283.767	18.6
283.983	34.99
284.198	-89.94
284.413	49.32
284.628	-18.26
284.843	-14.17
285.058	43.18
285.274	2.22
285.489	-3.93
285.704	34.99
285.919	4.27
286.134	-26.45
286.349	-36.69
286.564	-18.26
286.779	53.42
286.995	18.6
287.21	-53.08
287.425	84.14
287.64	-53.08
287.855	94.38
288.07	-16.21
288.285	-10.07
288.5	-3.93
288.715	39.08
288.93	49.32
289.145	-1.88
289.36	-20.31
289.575	10.41
289.79	26.79
290.004	-14.17
290.219	39.08
290.434	6.31
290.649	-42.84
290.864	20.65
291.079	41.13
291.294	63.66
291.509	71.85
291.724	-22.36
291.938	-63.32
292.153	71.85
292.368	45.23
292.583	-28.5
292.798	26.79
293.012	43.18
293.227	-8.02
293.442	-5.97
293.657	69.8
293.871	4.27
294.086	37.03
294.301	114.86
294.516	59.56
294.73	-12.12
294.945	-22.36
295.16	-46.93
295.374	75.95
295.589	-38.74
295.804	-69.46
296.018	45.23
296.233	45.23
296.447	-5.97
296.662	-3.93
296.877	20.65
297.091	51.37
297.306	47.27
297.52	26.79
297.735	2.22
297.949	-18.26
298.164	10.41
298.378	41.13
298.593	20.65
298.807	-73.56
299.022	41.13
299.236	61.61
299.451	55.47
299.665	12.46
299.88	-14.17
300.094	-20.31
300.309	18.6
300.523	16.55
300.737	-30.55
300.952	-1.88
301.166	82.09
301.381	-18.26
301.595	-36.69
301.809	-32.6
302.024	14.51
302.238	0.17
302.452	-5.97
302.667	-55.12
302.881	59.56
303.095	26.79
303.309	10.41
303.524	14.51
303.738	4.27
303.952	-46.93
304.166	-30.55
304.381	-85.84
304.595	61.61
304.809	10.41
305.023	-28.5
305.237	45.23
305.452	-14.17
305.666	2.22
305.88	84.14
306.094	-5.97
306.308	77.99
306.522	22.7
306.736	34.99
306.95	59.56
307.164	14.51
307.379	12.46
307.593	39.08
307.807	-18.26
308.021	49.32
308.235	41.13
308.449	20.65
308.663	10.41
308.877	45.23
309.091	-3.93
309.305	6.31
309.519	39.08
309.733	32.94
309.947	-73.56
310.161	41.13
310.374	30.89
310.588	26.79
310.802	2.22
311.016	-77.65
311.23	59.56
311.444	10.41
311.658	71.85
311.872	45.23
312.085	61.61
312.299	51.37
312.513	34.99
312.727	6.31
312.941	-65.36
313.154	-34.64
313.368	18.6
313.582	-20.31
313.796	28.84
314.009	-46.93
314.223	53.42
314.437	39.08
314.651	14.51
314.864	12.46
315.078	-1.88
315.292	-96.08
315.505	-71.51
315.719	18.6
315.933	-20.31
316.146	20.65
316.36	-3.93
316.573	67.75
316.787	65.71
317.001	-30.55
317.214	12.46
317.428	108.71
317.641	-106.32
317.855	-38.74
318.068	24.75
318.282	-44.88
318.495	26.79
318.709	-38.74
318.922	18.6
319.136	43.18
319.349	61.61
319.563	61.61
319.776	-8.02
319.99	-94.04
320.203	-3.93
320.417	26.79
320.63	61.61
320.843	-3.93
321.057	-51.03
321.27	-34.64
321.483	18.6
321.697	6.31
321.91	41.13
322.124	55.47
322.337	26.79
322.55	47.27
322.763	-3.93
322.977	0.17
323.19	14.51
323.403	-1.88
323.617	-36.69
323.83	51.37
324.043	6.31
324.256	-20.31
324.469	-22.36
324.683	84.14
324.896	12.46
325.109	10.41
325.322	-87.89
325.535	-20.31
325.748	104.62
325.962	18.6
326.175	34.99
326.388	43.18
326.601	59.56
326.814	69.8
327.027	22.7
327.24	59.56
327.453	-63.32
327.666	28.84
327.879	-34.64
328.092	43.18
328.305	-38.74
328.518	20.65
328.731	30.89
328.944	18.6
329.157	-38.74
329.37	22.7
329.583	49.32
329.796	43.18
330.009	18.6
330.222	41.13
330.435	-10.07
330.648	59.56
330.861	2.22
331.073	20.65
331.286	61.61
331.499	26.79
331.712	-26.45
331.925	69.8
332.138	10.41
332.35	-32.6
332.563	34.99
332.776	-38.74
332.989	-30.55
333.202	-63.32
333.414	45.23
333.627	-3.93
333.84	0.17
334.053	-10.07
334.265	-18.26
334.478	26.79
334.691	-38.74
334.903	4.27
335.116	-40.79
335.329	34.99
335.541	30.89
335.754	61.61
335.966	-22.36
336.179	18.6
336.392	-30.55
336.604	-96.08
336.817	4.27
337.029	84.14
337.242	55.47
337.454	12.46
337.667	-46.93
337.88	104.62
338.092	-20.31
338.305	-46.93
338.517	-53.08
338.729	-16.21
338.942	41.13
339.154	14.51
339.367	-83.8
339.579	61.61
339.792	-42.84
340.004	30.89
340.217	12.46
340.429	4.27
340.641	45.23
340.854	63.66
341.066	-46.93
341.278	20.65
341.491	-16.21
341.703	14.51
341.915	-38.74
342.128	43.18
342.34	34.99
342.552	61.61
342.764	-30.55
342.977	41.13
343.189	80.04
343.401	10.41
343.613	-16.21
343.826	51.37
344.038	-3.93
344.25	10.41
344.462	18.6
344.674	34.99
344.886	2.22
345.099	-14.17
345.311	34.99
345.523	12.46
345.735	20.65
345.947	12.46
346.159	30.89
346.371	24.75
346.583	-22.36
346.795	92.33
347.007	-38.74
347.219	77.99
347.431	59.56
347.643	88.23
347.855	-46.93
348.067	75.95
348.279	4.27
348.491	34.99
348.703	69.8
348.915	43.18
349.127	-46.93
349.339	47.27
349.551	-14.17
349.763	-5.97
349.975	28.84
350.187	43.18
350.399	26.79
350.61	4.27
350.822	6.31
351.034	47.27
351.246	67.75
351.458	61.61
351.669	8.36
351.881	26.79
352.093	75.95
352.305	63.66
352.517	24.75
352.728	63.66
352.94	34.99
353.152	45.23
353.363	10.41
353.575	-42.84
353.787	100.52
353.999	-18.26
354.21	77.99
354.422	2.22
354.633	-48.98
354.845	20.65
355.057	12.46
355.268	4.27
355.48	24.75
355.692	-116.56
355.903	51.37
356.115	61.61
356.326	-55.12
356.538	145.58
356.749	4.27
356.961	67.75
357.172	-63.32
357.384	18.6
357.595	47.27
357.807	-12.12
358.018	16.55
358.23	-8.02
358.441	67.75
358.653	12.46
358.864	32.94
359.075	-36.69
359.287	-24.4
359.498	28.84
359.709	12.46
359.921	28.84
360.132	-10.07
360.344	-30.55
360.555	-20.31
360.766	59.56
360.977	34.99
361.189	-18.26
361.4	18.6
361.611	4.27
361.823	84.14
362.034	18.6
362.245	-34.64
362.456	41.13
362.667	96.43
362.879	2.22
363.09	-14.17
363.301	6.31
363.512	-36.69
363.723	-1.88
363.935	-40.79
364.146	16.55
364.357	6.31
364.568	-3.93
364.779	20.65
364.99	96.43
365.201	0.17
365.412	75.95
365.623	20.65
365.834	10.41
366.045	-20.31
366.256	55.47
366.467	84.14
366.678	12.46
366.889	37.03
367.1	-53.08
367.311	63.66
367.522	26.79
367.733	92.33
367.944	-30.55
368.155	26.79
368.366	-22.36
368.577	22.7
368.788	51.37
368.999	-34.64
369.209	71.85
369.42	82.09
369.631	116.9
369.842	-102.23
370.053	59.56
370.264	6.31
370.474	10.41
370.685	10.41
370.896	-5.97
371.107	59.56
371.317	-5.97
371.528	30.89
371.739	-34.64
371.95	53.42
372.16	55.47
372.371	34.99
372.582	10.41
372.792	155.82
373.003	47.27
373.214	51.37
373.424	67.75
373.635	-34.64
373.846	37.03
374.056	96.43
374.267	63.66
374.477	34.99
374.688	10.41
374.898	10.41
375.109	4.27
375.319	12.46
375.53	110.76
375.74	20.65
375.951	-16.21
376.161	-1.88
376.372	39.08
376.582	-22.36
376.793	55.47
377.003	-36.69
377.214	-32.6
377.424	-5.97
377.635	10.41
377.845	18.6
378.055	92.33
378.266	-55.12
378.476	63.66
378.686	8.36
378.897	-18.26
379.107	51.37
379.317	30.89
379.528	-87.89
379.738	2.22
379.948	-14.17
380.158	92.33
380.369	-87.89
380.579	22.7
380.789	-48.98
380.999	102.57
381.21	32.94
381.42	69.8
381.63	45.23
381.84	18.6
382.05	51.37
382.261	86.19
382.471	73.9
382.681	55.47
382.891	22.7
383.101	22.7
383.311	-53.08
383.521	16.55
383.731	10.41
383.941	41.13
384.151	37.03
384.361	-30.55
384.571	26.79
384.781	51.37
384.991	77.99
385.201	92.33
385.411	84.14
385.621	34.99
385.831	6.31
386.041	51.37
386.251	53.42
386.461	92.33
386.671	20.65
386.881	37.03
387.091	24.75
387.301	65.71
387.511	47.27
387.72	8.36
387.93	51.37
388.14	-1.88
388.35	2.22
388.56	116.9
388.769	47.27
388.979	67.75
389.189	18.6
389.399	-36.69
389.609	-42.84
389.818	34.99
390.028	51.37
390.238	75.95
390.447	30.89
390.657	28.84
390.867	-3.93
391.076	-22.36
391.286	59.56
391.496	73.9
391.705	-32.6
391.915	92.33
392.125	84.14
392.334	2.22
392.544	-8.02
392.753	26.79
392.963	0.17
393.172	26.79
393.382	-46.93
393.591	104.62
393.801	30.89
394.01	157.86
394.22	53.42
394.429	43.18
394.639	26.79
394.848	59.56
395.058	37.03
395.267	121
395.477	16.55
395.686	37.03
395.895	139.43
396.105	86.19
396.314	37.03
396.524	59.56
396.733	-44.88
396.942	106.67
397.152	-46.93
397.361	116.9
397.57	43.18
397.78	100.52
397.989	118.95
398.198	174.25
398.407	30.89
398.617	49.32
398.826	77.99
399.035	-18.26
399.244	116.9
399.453	104.62
399.663	84.14
399.872	67.75
400.081	6.31
400.29	153.77
400.499	137.38
400.708	104.62
400.917	8.36
401.127	77.99
401.336	96.43
401.545	82.09
401.754	77.99
401.963	43.18
402.172	22.7
402.381	100.52
402.59	34.99
402.799	51.37
403.008	198.82
403.217	14.51
403.426	73.9
403.635	84.14
403.844	59.56
404.053	116.9
404.262	71.85
404.471	178.34
404.68	116.9
404.888	75.95
405.097	137.38
405.306	149.67
405.515	137.38
405.724	141.48
405.933	166.06
406.142	108.71
406.35	227.5
406.559	174.25
406.768	149.67
406.977	235.69
407.185	102.57
407.394	243.88
407.603	135.34
407.812	145.58
408.02	266.41
408.229	264.36
408.438	182.44
408.646	250.02
408.855	186.54
409.064	192.68
409.272	176.3
409.481	252.07
409.69	174.25
409.898	264.36
410.107	278.69
410.315	290.98
410.524	256.17
410.733	354.47
410.941	235.69
411.15	239.78
411.358	293.03
411.567	379.04
411.775	340.13
411.984	309.41
412.192	358.57
412.401	389.28
412.609	448.68
412.818	444.58
413.026	438.44
413.234	401.57
413.443	426.15
413.651	469.16
413.86	450.72
414.068	544.93
414.276	536.74
414.485	463.01
414.693	501.92
414.901	616.61
415.11	698.53
415.318	682.14
415.526	714.91
415.734	723.1
415.943	714.91
416.151	745.63
416.359	673.95
416.567	821.41
416.776	837.79
416.984	841.89
417.192	952.48
417.4	948.38
417.608	989.34
417.817	975
418.025	1061.02
418.233	1108.12
418.441	1038.49
418.649	1104.03
418.857	1132.7
419.065	1175.7
419.273	1206.42
419.481	1255.58
419.689	1329.3
419.897	1407.13
420.105	1403.03
420.313	1421.46
420.521	1575.06
420.729	1616.02
420.937	1435.8
421.145	1519.76
421.353	1665.17
421.561	1714.32
421.769	1804.43
421.977	1806.48
422.185	1869.97
422.393	2087.05
422.601	2177.16
422.809	2152.59
423.017	2164.87
423.224	2121.87
423.432	2341
423.64	2353.29
423.848	2459.78
424.056	2435.21
424.263	2510.98
424.471	2644.1
424.679	2748.54
424.887	2900.09
425.094	3053.69
425.302	2861.18
425.51	3108.99
425.718	3037.31
425.925	3125.37
426.133	3203.19
426.341	3438.71
426.548	3553.4
426.756	3563.64
426.964	3618.93
427.171	3803.25
427.379	4014.19
427.586	3926.13
427.794	4077.68
428.001	4372.58
428.209	4517.99
428.417	4417.64
428.624	4884.58
428.832	4638.82
429.039	4663.4
429.247	4773.99
429.454	5169.24
429.662	5619.8
429.869	5132.38
430.076	5515.35
430.284	5310.55
430.491	5714
430.699	5924.94
430.906	5910.61
431.114	6056.01
431.321	6295.63
431.528	6412.36
431.736	6717.51
431.943	6969.41
432.15	6991.94
432.358	6996.03
432.565	7315.52
432.772	7186.49
432.979	7665.72
433.187	7665.72
433.394	7739.44
433.601	8247.34
433.808	8409.13
434.016	8294.44
434.223	8460.33
434.43	9041.95
434.637	9064.48
434.844	9512.99
435.052	9740.31
435.259	9760.79
435.466	9998.35
435.673	9617.43
435.88	10217.49
436.087	10801.16
436.294	10682.38
436.501	10188.82
436.708	10729.48
436.915	11184.13
437.122	11577.34
437.329	11581.43
437.537	11964.4
437.743	12378.09
437.95	11999.22
438.157	12552.17
438.364	13203.43
438.571	12998.63
438.778	13121.51
438.985	14391.25
439.192	13762.52
439.399	14036.95
439.606	13772.76
439.813	14778.31
440.02	15611.84
440.227	15359.94
440.433	15001.54
440.64	15601.6
440.847	15382.46
441.054	15925.18
441.261	16893.86
441.467	16590.77
441.674	17174.44
441.881	17520.54
442.088	17602.46
442.294	17622.94
442.501	17846.17
442.708	18163.61
442.914	18923.4
443.121	19593.09
443.328	19081.1
443.534	20371.32
443.741	19867.52
443.948	19625.86
444.154	21311.33
444.361	21006.19
444.568	21075.82
444.774	20594.54
444.981	21233.51
445.187	21755.74
445.394	22902.61
445.6	22587.22
445.807	25014.06
446.013	23514.95
446.22	24018.75
446.426	25163.56
446.633	25188.14
446.839	26072.86
447.046	25198.38
447.252	26324.76
447.459	26341.14
447.665	26165.02
447.871	27510.53
448.078	28403.45
448.284	27318.03
448.491	28317.43
448.697	28849.91
448.903	29476.58
449.11	29966.05
449.316	29066.99
449.522	29763.3
449.728	30602.97
449.935	30772.95
450.141	30934.74
450.347	31424.2
450.553	30299.87
450.76	30861.01
450.966	31819.46
451.172	31610.57
451.378	32427.71
451.584	31731.4
451.791	32394.94
451.997	32304.83
452.203	32933.56
452.409	33031.86
452.615	32513.72
452.821	31119.06
453.027	30828.24
453.233	32536.25
453.44	31295.18
453.646	31463.11
453.852	31885
454.058	32483
454.264	31035.09
454.47	32061.12
454.676	31311.56
454.882	32104.13
455.088	29374.19
455.294	29761.25
455.5	30242.53
455.705	30430.94
455.911	29470.44
456.117	28671.73
456.323	28184.32
456.529	27051.79
456.735	28114.69
456.941	27524.87
457.147	26959.63
457.352	26226.46
457.558	25708.32
457.764	25726.75
457.97	25519.91
458.176	24776.5
458.381	24686.39
458.587	23686.98
458.793	23521.09
458.999	22081.37
459.204	23691.07
459.41	23279.43
459.616	21575.52
459.821	21817.18
460.027	21716.83
460.233	21235.56
460.438	20219.77
460.644	20418.42
460.85	19335.04
461.055	18964.36
461.261	19138.44
461.466	17571.74
461.672	17196.96
461.878	18296.72
462.083	16986.02
462.289	16824.23
462.494	16508.85
462.7	16086.97
462.905	15415.23
463.111	15996.85
463.316	16230.32
463.522	15632.32
463.727	15892.41
463.932	15830.97
464.138	15169.48
464.343	15409.09
464.549	14827.46
464.754	15368.13
464.959	15583.16
465.165	15189.95
465.37	14649.29
465.575	14481.36
465.781	14903.24
