Data from USB4F104151__210__14-33-31-122.txt Node

Date: Thu Mar 13 14:33:31 EDT 2025
User: louis
Spectrometer: USB4F10415
Trigger mode: 4
Integration Time (sec): 2.500000E-2
Scans to average: 1
Electric dark correction enabled: true
Nonlinearity correction enabled: false
Boxcar width: 0
XAxis mode: Wavelengths
Number of Pixels in Spectrum: 3648
>>>>>Begin Spectral Data<<<<<
178.204	-94.55
178.424	-94.55
178.644	-94.55
178.864	-131.41
179.084	-211.28
179.304	-37.2
179.524	-2.39
179.744	-31.06
179.964	65.19
180.184	-59.73
180.404	13.99
180.624	-63.83
180.844	7.85
181.064	44.71
181.283	30.38
181.503	-16.73
181.723	48.81
181.943	7.85
182.163	30.38
182.383	30.38
182.602	104.11
182.822	7.85
183.042	-20.82
183.262	54.95
183.482	126.63
183.701	-2.39
183.921	5.8
184.141	40.62
184.361	-4.44
184.58	-2.39
184.8	52.91
185.02	46.76
185.239	3.75
185.459	30.38
185.679	28.33
185.898	36.52
186.118	93.87
186.338	77.48
186.557	110.25
186.777	30.38
186.997	-18.77
187.216	40.62
187.436	122.54
187.655	-41.3
187.875	69.29
188.095	-4.44
188.314	32.43
188.534	63.15
188.753	-0.34
188.973	32.43
189.192	48.81
189.412	-14.68
189.631	73.39
189.851	-18.77
190.07	69.29
190.29	3.75
190.509	7.85
190.729	-8.53
190.948	81.58
191.168	157.35
191.387	-22.87
191.607	-0.34
191.826	42.67
192.045	32.43
192.265	20.14
192.484	11.95
192.704	11.95
192.923	-4.44
193.142	126.63
193.362	13.99
193.581	79.53
193.8	22.19
194.02	46.76
194.239	69.29
194.458	-20.82
194.678	28.33
194.897	46.76
195.116	18.09
195.335	24.23
195.555	81.58
195.774	13.99
195.993	89.77
196.212	28.33
196.432	73.39
196.651	44.71
196.87	44.71
197.089	138.92
197.308	7.85
197.528	20.14
197.747	3.75
197.966	5.8
198.185	77.48
198.404	5.8
198.623	63.15
198.842	95.91
199.062	52.91
199.281	-26.96
199.5	52.91
199.719	57
199.938	36.52
200.157	126.63
200.376	28.33
200.595	-12.63
200.814	24.23
201.033	3.75
201.252	20.14
201.471	3.75
201.69	85.67
201.909	54.95
202.128	71.34
202.347	30.38
202.566	69.29
202.785	-41.3
203.004	26.28
203.223	69.29
203.442	108.2
203.661	93.87
203.879	38.57
204.098	13.99
204.317	16.04
204.536	104.11
204.755	85.67
204.974	40.62
205.193	-2.39
205.411	151.21
205.63	-0.34
205.849	-4.44
206.068	61.1
206.287	-2.39
206.505	69.29
206.724	11.95
206.943	40.62
207.162	89.77
207.381	36.52
207.599	-0.34
207.818	34.47
208.037	13.99
208.255	-4.44
208.474	28.33
208.693	32.43
208.911	69.29
209.13	28.33
209.349	-18.77
209.567	61.1
209.786	100.01
210.005	57
210.223	34.47
210.442	30.38
210.661	20.14
210.879	79.53
211.098	28.33
211.316	89.77
211.535	71.34
211.753	11.95
211.972	69.29
212.191	-37.2
212.409	16.04
212.628	69.29
212.846	28.33
213.065	32.43
213.283	36.52
213.502	-2.39
213.72	30.38
213.938	63.15
214.157	42.67
214.375	44.71
214.594	54.95
214.812	22.19
215.031	-22.87
215.249	30.38
215.467	67.24
215.686	26.28
215.904	81.58
216.122	-4.44
216.341	89.77
216.559	73.39
216.778	61.1
216.996	46.76
217.214	44.71
217.432	71.34
217.651	13.99
217.869	73.39
218.087	32.43
218.306	120.49
218.524	77.48
218.742	5.8
218.96	28.33
219.179	-12.63
219.397	-12.63
219.615	95.91
219.833	11.95
220.051	42.67
220.27	63.15
220.488	20.14
220.706	106.15
220.924	-22.87
221.142	13.99
221.36	16.04
221.578	63.15
221.796	28.33
222.015	28.33
222.233	52.91
222.451	151.21
222.669	57
222.887	-12.63
223.105	16.04
223.323	-8.53
223.541	-12.63
223.759	134.82
223.977	28.33
224.195	85.67
224.413	91.82
224.631	13.99
224.849	34.47
225.067	175.78
225.285	-33.11
225.503	57
225.721	34.47
225.939	85.67
226.157	-10.58
226.375	128.68
226.592	20.14
226.81	32.43
227.028	52.91
227.246	73.39
227.464	89.77
227.682	5.8
227.9	-29.01
228.117	28.33
228.335	61.1
228.553	5.8
228.771	13.99
228.989	20.14
229.206	28.33
229.424	13.99
229.642	-16.73
229.86	38.57
230.077	77.48
230.295	44.71
230.513	77.48
230.731	63.15
230.948	24.23
231.166	50.86
231.384	-4.44
231.601	-0.34
231.819	59.05
232.037	52.91
232.254	16.04
232.472	67.24
232.689	26.28
232.907	44.71
233.125	36.52
233.342	28.33
233.56	13.99
233.777	26.28
233.995	61.1
234.213	110.25
234.43	20.14
234.648	7.85
234.865	22.19
235.083	79.53
235.3	-4.44
235.518	5.8
235.735	46.76
235.953	102.06
236.17	59.05
236.388	11.95
236.605	73.39
236.822	38.57
237.04	44.71
237.257	61.1
237.475	-35.16
237.692	22.19
237.909	104.11
238.127	3.75
238.344	-4.44
238.562	13.99
238.779	59.05
238.996	-14.68
239.214	28.33
239.431	77.48
239.648	26.28
239.865	44.71
240.083	44.71
240.3	3.75
240.517	9.9
240.735	30.38
240.952	61.1
241.169	46.76
241.386	11.95
241.603	44.71
241.821	-4.44
242.038	48.81
242.255	69.29
242.472	1.71
242.689	11.95
242.907	-20.82
243.124	-29.01
243.341	42.67
243.558	75.43
243.775	61.1
243.992	7.85
244.209	122.54
244.426	-8.53
244.643	120.49
244.86	30.38
245.078	38.57
245.295	-10.58
245.512	69.29
245.729	11.95
245.946	61.1
246.163	13.99
246.38	24.23
246.597	52.91
246.814	1.71
247.031	46.76
247.248	110.25
247.464	54.95
247.681	28.33
247.898	50.86
248.115	40.62
248.332	-29.01
248.549	85.67
248.766	104.11
248.983	85.67
249.2	85.67
249.417	95.91
249.633	61.1
249.85	57
250.067	5.8
250.284	7.85
250.501	22.19
250.717	44.71
250.934	-12.63
251.151	-18.77
251.368	-14.68
251.585	-16.73
251.801	24.23
252.018	-12.63
252.235	54.95
252.451	-37.2
252.668	87.72
252.885	81.58
253.102	7.85
253.318	67.24
253.535	3.75
253.752	-4.44
253.968	-12.63
254.185	48.81
254.401	16.04
254.618	114.34
254.835	52.91
255.051	67.24
255.268	16.04
255.484	5.8
255.701	11.95
255.917	-20.82
256.134	26.28
256.351	69.29
256.567	-41.3
256.784	20.14
257	-86.36
257.217	54.95
257.433	52.91
257.65	24.23
257.866	75.43
258.082	-69.97
258.299	13.99
258.515	9.9
258.732	-53.59
258.948	40.62
259.165	40.62
259.381	-20.82
259.597	13.99
259.814	50.86
260.03	30.38
260.246	71.34
260.463	5.8
260.679	77.48
260.895	5.8
261.112	63.15
261.328	-18.77
261.544	-4.44
261.761	110.25
261.977	102.06
262.193	-35.16
262.409	54.95
262.626	24.23
262.842	36.52
263.058	38.57
263.274	89.77
263.49	5.8
263.707	52.91
263.923	69.29
264.139	-8.53
264.355	5.8
264.571	3.75
264.787	97.96
265.004	93.87
265.22	61.1
265.436	32.43
265.652	-43.35
265.868	3.75
266.084	42.67
266.3	-2.39
266.516	69.29
266.732	3.75
266.948	-10.58
267.164	50.86
267.38	24.23
267.596	63.15
267.812	69.29
268.028	32.43
268.244	9.9
268.46	79.53
268.676	71.34
268.892	-4.44
269.108	-10.58
269.324	24.23
269.54	26.28
269.756	71.34
269.972	79.53
270.188	40.62
270.403	32.43
270.619	3.75
270.835	63.15
271.051	34.47
271.267	46.76
271.483	22.19
271.698	65.19
271.914	30.38
272.13	20.14
272.346	40.62
272.562	61.1
272.777	79.53
272.993	13.99
273.209	7.85
273.425	85.67
273.64	-61.78
273.856	52.91
274.072	16.04
274.287	-4.44
274.503	54.95
274.719	151.21
274.934	7.85
275.15	16.04
275.366	9.9
275.581	-24.92
275.797	95.91
276.012	3.75
276.228	-29.01
276.444	83.63
276.659	85.67
276.875	93.87
277.09	44.71
277.306	-59.73
277.521	32.43
277.737	5.8
277.952	36.52
278.168	24.23
278.383	81.58
278.599	48.81
278.814	59.05
279.03	38.57
279.245	128.68
279.461	24.23
279.676	102.06
279.892	-61.78
280.107	112.3
280.322	28.33
280.538	-26.96
280.753	26.28
280.969	54.95
281.184	5.8
281.399	11.95
281.615	40.62
281.83	3.75
282.045	20.14
282.26	65.19
282.476	85.67
282.691	77.48
282.906	3.75
283.122	85.67
283.337	13.99
283.552	79.53
283.767	20.14
283.983	38.57
284.198	-2.39
284.413	48.81
284.628	13.99
284.843	5.8
285.058	20.14
285.274	32.43
285.489	-20.82
285.704	91.82
285.919	5.8
286.134	46.76
286.349	-10.58
286.564	38.57
286.779	46.76
286.995	-2.39
287.21	28.33
287.425	126.63
287.64	24.23
287.855	36.52
288.07	-12.63
288.285	28.33
288.5	30.38
288.715	104.11
288.93	44.71
289.145	5.8
289.36	118.44
289.575	-61.78
289.79	130.73
290.004	7.85
290.219	30.38
290.434	-12.63
290.649	-47.44
290.864	-14.68
291.079	36.52
291.294	-16.73
291.509	9.9
291.724	22.19
291.938	11.95
292.153	77.48
292.368	54.95
292.583	-55.64
292.798	65.19
293.012	24.23
293.227	46.76
293.442	-16.73
293.657	81.58
293.871	71.34
294.086	11.95
294.301	161.45
294.516	69.29
294.73	26.28
294.945	61.1
295.16	52.91
295.374	67.24
295.589	36.52
295.804	63.15
296.018	3.75
296.233	134.82
296.447	122.54
296.662	13.99
296.877	-20.82
297.091	63.15
297.306	52.91
297.52	40.62
297.735	30.38
297.949	36.52
298.164	69.29
298.378	63.15
298.593	52.91
298.807	-8.53
299.022	44.71
299.236	28.33
299.451	36.52
299.665	16.04
299.88	11.95
300.094	40.62
300.309	71.34
300.523	73.39
300.737	-2.39
300.952	-26.96
301.166	79.53
301.381	11.95
301.595	24.23
301.809	63.15
302.024	65.19
302.238	3.75
302.452	114.34
302.667	52.91
302.881	106.15
303.095	65.19
303.309	40.62
303.524	36.52
303.738	36.52
303.952	36.52
304.166	34.47
304.381	-98.64
304.595	71.34
304.809	54.95
305.023	120.49
305.237	46.76
305.452	5.8
305.666	63.15
305.88	16.04
306.094	16.04
306.308	20.14
306.522	89.77
306.736	-4.44
306.95	11.95
307.164	28.33
307.379	57
307.593	28.33
307.807	65.19
308.021	61.1
308.235	61.1
308.449	-4.44
308.663	77.48
308.877	85.67
309.091	52.91
309.305	26.28
309.519	-12.63
309.733	69.29
309.947	-2.39
310.161	106.15
310.374	36.52
310.588	18.09
310.802	34.47
311.016	40.62
311.23	18.09
311.444	3.75
311.658	-53.59
311.872	38.57
312.085	61.1
312.299	85.67
312.513	112.3
312.727	-0.34
312.941	-24.92
313.154	140.97
313.368	20.14
313.582	-16.73
313.796	28.33
314.009	20.14
314.223	83.63
314.437	118.44
314.651	36.52
314.864	-16.73
315.078	11.95
315.292	-2.39
315.505	24.23
315.719	118.44
315.933	52.91
316.146	118.44
316.36	-20.82
316.573	34.47
316.787	22.19
317.001	48.81
317.214	83.63
317.428	69.29
317.641	-10.58
317.855	40.62
318.068	59.05
318.282	77.48
318.495	89.77
318.709	67.24
318.922	104.11
319.136	-6.49
319.349	128.68
319.563	-4.44
319.776	3.75
319.99	52.91
320.203	136.87
320.417	93.87
320.63	69.29
320.843	89.77
321.057	40.62
321.27	11.95
321.483	87.72
321.697	102.06
321.91	24.23
322.124	112.3
322.337	61.1
322.55	-20.82
322.763	85.67
322.977	85.67
323.19	-26.96
323.403	77.48
323.617	40.62
323.83	97.96
324.043	-41.3
324.256	77.48
324.469	85.67
324.683	71.34
324.896	-4.44
325.109	-4.44
325.322	30.38
325.535	9.9
325.748	-0.34
325.962	-26.96
326.175	54.95
326.388	67.24
326.601	59.05
326.814	57
327.027	65.19
327.24	138.92
327.453	-35.16
327.666	52.91
327.879	40.62
328.092	126.63
328.305	26.28
328.518	57
328.731	22.19
328.944	36.52
329.157	13.99
329.37	34.47
329.583	71.34
329.796	42.67
330.009	-20.82
330.222	61.1
330.435	38.57
330.648	106.15
330.861	26.28
331.073	89.77
331.286	118.44
331.499	120.49
331.712	9.9
331.925	36.52
332.138	-2.39
332.35	36.52
332.563	-45.4
332.776	36.52
332.989	-24.92
333.202	61.1
333.414	-4.44
333.627	-12.63
333.84	54.95
334.053	20.14
334.265	-20.82
334.478	57
334.691	71.34
334.903	77.48
335.116	-2.39
335.329	44.71
335.541	71.34
335.754	114.34
335.966	79.53
336.179	65.19
336.392	71.34
336.604	77.48
336.817	77.48
337.029	93.87
337.242	69.29
337.454	48.81
337.667	-2.39
337.88	48.81
338.092	48.81
338.305	36.52
338.517	46.76
338.729	73.39
338.942	91.82
339.154	-45.4
339.367	50.86
339.579	136.87
339.792	48.81
340.004	30.38
340.217	28.33
340.429	18.09
340.641	18.09
340.854	-0.34
341.066	85.67
341.278	120.49
341.491	85.67
341.703	36.52
341.915	52.91
342.128	151.21
342.34	97.96
342.552	46.76
342.764	128.68
342.977	110.25
343.189	40.62
343.401	22.19
343.613	-45.4
343.826	102.06
344.038	65.19
344.25	73.39
344.462	16.04
344.674	104.11
344.886	13.99
345.099	42.67
345.311	110.25
345.523	59.05
345.735	-26.96
345.947	52.91
346.159	40.62
346.371	28.33
346.583	57
346.795	102.06
347.007	128.68
347.219	40.62
347.431	-29.01
347.643	93.87
347.855	-4.44
348.067	85.67
348.279	1.71
348.491	93.87
348.703	93.87
348.915	13.99
349.127	-47.44
349.339	79.53
349.551	-29.01
349.763	126.63
349.975	-8.53
350.187	100.01
350.399	38.57
350.61	69.29
350.822	52.91
351.034	91.82
351.246	44.71
351.458	116.39
351.669	42.67
351.881	97.96
352.093	54.95
352.305	44.71
352.517	5.8
352.728	122.54
352.94	3.75
353.152	52.91
353.363	44.71
353.575	54.95
353.787	110.25
353.999	69.29
354.21	89.77
354.422	52.91
354.633	-31.06
354.845	32.43
355.057	48.81
355.268	48.81
355.48	57
355.692	77.48
355.903	-33.11
356.115	77.48
356.326	-10.58
356.538	57
356.749	75.43
356.961	77.48
357.172	16.04
357.384	122.54
357.595	50.86
357.807	3.75
358.018	24.23
358.23	38.57
358.441	108.2
358.653	48.81
358.864	28.33
359.075	11.95
359.287	34.47
359.498	93.87
359.709	61.1
359.921	69.29
360.132	46.76
360.344	79.53
360.555	48.81
360.766	102.06
360.977	54.95
361.189	79.53
361.4	-20.82
361.611	126.63
361.823	48.81
362.034	93.87
362.245	7.85
362.456	5.8
362.667	38.57
362.879	52.91
363.09	65.19
363.301	22.19
363.512	85.67
363.723	54.95
363.935	44.71
364.146	85.67
364.357	36.52
364.568	57
364.779	-37.2
364.99	77.48
365.201	44.71
365.412	61.1
365.623	11.95
365.834	20.14
366.045	108.2
366.256	85.67
366.467	89.77
366.678	128.68
366.889	50.86
367.1	-24.92
367.311	85.67
367.522	57
367.733	69.29
367.944	85.67
368.155	54.95
368.366	48.81
368.577	104.11
368.788	93.87
368.999	46.76
369.209	81.58
369.42	110.25
369.631	126.63
369.842	69.29
370.053	85.67
370.264	52.91
370.474	48.81
370.685	54.95
370.896	-18.77
371.107	38.57
371.317	24.23
371.528	102.06
371.739	132.78
371.95	36.52
372.16	36.52
372.371	1.71
372.582	20.14
372.792	52.91
373.003	85.67
373.214	69.29
373.424	11.95
373.635	32.43
373.846	85.67
374.056	52.91
374.267	-22.87
374.477	46.76
374.688	120.49
374.898	79.53
375.109	46.76
375.319	52.91
375.53	83.63
375.74	71.34
375.951	85.67
376.161	20.14
376.372	22.19
376.582	38.57
376.793	81.58
377.003	7.85
377.214	52.91
377.424	5.8
377.635	61.1
377.845	50.86
378.055	69.29
378.266	30.38
378.476	77.48
378.686	16.04
378.897	102.06
379.107	75.43
379.317	75.43
379.528	54.95
379.738	81.58
379.948	46.76
380.158	126.63
380.369	48.81
380.579	85.67
380.789	65.19
380.999	91.82
381.21	28.33
381.42	171.69
381.63	3.75
381.84	28.33
382.05	20.14
382.261	20.14
382.471	151.21
382.681	61.1
382.891	77.48
383.101	20.14
383.311	-4.44
383.521	36.52
383.731	93.87
383.941	143.02
384.151	102.06
384.361	34.47
384.571	54.95
384.781	93.87
384.991	54.95
385.201	114.34
385.411	85.67
385.621	57
385.831	89.77
386.041	28.33
386.251	73.39
386.461	-16.73
386.671	77.48
386.881	126.63
387.091	61.1
387.301	52.91
387.511	110.25
387.72	118.44
387.93	149.16
388.14	-29.01
388.35	85.67
388.56	130.73
388.769	134.82
388.979	85.67
389.189	73.39
389.399	110.25
389.609	73.39
389.818	143.02
390.028	65.19
390.238	108.2
390.447	42.67
390.657	108.2
390.867	71.34
391.076	63.15
391.286	36.52
391.496	73.39
391.705	145.06
391.915	126.63
392.125	59.05
392.334	46.76
392.544	61.1
392.753	134.82
392.963	130.73
393.172	118.44
393.382	40.62
393.591	134.82
393.801	54.95
394.01	106.15
394.22	32.43
394.429	85.67
394.639	54.95
394.848	104.11
395.058	122.54
395.267	48.81
395.477	143.02
395.686	175.78
395.895	118.44
396.105	91.82
396.314	54.95
396.524	114.34
396.733	159.4
396.942	126.63
397.152	138.92
397.361	175.78
397.57	124.58
397.78	153.26
397.989	116.39
398.198	196.26
398.407	120.49
398.617	163.5
398.826	159.4
399.035	118.44
399.244	192.17
399.453	93.87
399.663	44.71
399.872	110.25
400.081	163.5
400.29	136.87
400.499	120.49
400.708	183.98
400.917	112.3
401.127	151.21
401.336	110.25
401.545	218.79
401.754	116.39
401.963	210.6
402.172	126.63
402.381	134.82
402.59	136.87
402.799	224.94
403.008	188.07
403.217	153.26
403.426	122.54
403.635	149.16
403.844	183.98
404.053	161.45
404.262	224.94
404.471	259.75
404.68	216.74
404.888	106.15
405.097	181.93
405.306	192.17
405.515	196.26
405.724	222.89
405.933	226.98
406.142	188.07
406.35	257.7
406.559	239.27
406.768	274.09
406.977	229.03
407.185	290.47
407.394	261.8
407.603	233.13
407.812	286.37
408.02	243.37
408.229	269.99
408.438	290.47
408.646	302.76
408.855	327.33
409.064	347.81
409.272	317.09
409.481	358.05
409.69	343.72
409.898	282.28
410.107	347.81
410.315	413.35
410.524	405.16
410.733	499.36
410.941	421.54
411.15	360.1
411.358	448.16
411.567	429.73
411.775	519.84
411.984	605.86
412.192	454.31
412.401	577.19
412.609	544.42
412.818	655.01
413.026	593.57
413.234	620.19
413.443	650.91
413.651	667.3
413.86	765.6
414.068	786.08
414.276	851.61
414.485	816.8
414.693	847.52
414.901	898.72
415.11	937.63
415.318	913.05
415.526	1011.36
415.734	999.07
415.943	1044.12
416.151	1076.89
416.359	1056.41
416.567	1044.12
416.776	1142.43
416.984	1222.3
417.192	1177.24
417.4	1199.77
417.608	1224.34
417.817	1341.08
418.025	1275.54
418.233	1486.48
418.441	1375.89
418.649	1578.64
418.857	1549.97
419.065	1707.66
419.273	1707.66
419.481	1717.9
419.689	1867.41
419.897	1932.94
420.105	1900.17
420.313	2021
420.521	2190.99
420.729	2004.62
420.937	2053.77
421.145	2281.1
421.353	2414.21
421.561	2475.65
421.769	2590.34
421.977	2649.73
422.185	2659.97
422.393	2807.42
422.601	2848.38
422.809	2805.38
423.017	2887.29
423.224	3047.04
423.432	3192.44
423.64	3174.01
423.848	3520.12
424.056	3403.38
424.263	3643
424.471	3708.53
424.679	3683.95
424.887	4071.02
425.094	4103.79
425.302	4081.26
425.51	4241
425.718	4251.24
425.925	4540.01
426.133	4628.07
426.341	4970.08
426.548	5008.99
426.756	5060.19
426.964	5076.57
427.171	5381.72
427.379	5500.5
427.586	5738.07
427.794	5893.71
428.001	6110.8
428.209	6336.07
428.417	6245.96
428.624	6536.77
428.832	6712.9
429.039	6573.64
429.247	6475.34
429.454	7435.83
429.662	7652.92
429.869	7177.79
430.076	7865.91
430.284	7460.41
430.491	7829.04
430.699	8212.01
430.906	8375.85
431.114	8373.8
431.321	8814.12
431.528	8961.57
431.736	9555.48
431.943	9801.24
432.15	9459.23
432.358	9733.65
432.565	10231.31
432.772	10286.61
432.979	10591.75
433.187	10720.78
433.394	11058.69
433.601	11617.79
433.808	11775.48
434.016	11597.31
434.223	11972.08
434.43	12615.15
434.637	12488.17
434.844	13372.89
435.052	13424.09
435.259	13508.06
435.466	13573.6
435.673	13352.41
435.88	14241.23
436.087	15113.67
436.294	14962.12
436.501	14548.43
436.708	15060.42
436.915	15502.78
437.122	16256.43
437.329	16403.89
437.537	16569.77
437.743	16928.17
437.95	17003.94
438.157	17659.29
438.364	18148.76
438.571	18124.18
438.778	18498.96
438.985	19885.44
439.192	19160.45
439.399	19998.07
439.606	19068.3
439.813	20618.61
440.02	21488.99
440.227	21083.5
440.433	21003.63
440.64	21871.96
440.847	21417.32
441.054	22177.11
441.261	23518.53
441.467	23381.32
441.674	23760.19
441.881	24636.72
442.088	24388.92
442.294	24333.62
442.501	24700.21
442.708	25240.87
442.914	26215.71
443.121	27467.02
443.328	26776.85
443.534	28441.85
443.741	27688.2
443.948	27292.94
444.154	29127.92
444.361	29113.58
444.568	29162.73
444.774	29164.78
444.981	29732.07
445.187	30457.05
445.394	31761.61
445.6	31296.72
445.807	34081.95
446.013	32613.56
446.22	33318.06
446.426	34649.24
446.633	35165.33
446.839	36478.08
447.046	34473.12
447.252	36603
447.459	36779.13
447.665	36879.48
447.871	37856.36
448.078	39730.25
448.284	37807.21
448.491	38739.04
448.697	40119.37
448.903	41096.25
449.11	41223.22
449.316	40324.16
449.522	41268.28
449.728	42269.73
449.935	42318.88
450.141	42386.47
450.347	43271.19
450.553	41677.87
450.76	42556.45
450.966	44276.74
451.172	43140.12
451.378	45057.02
451.584	44071.95
451.791	44803.07
451.997	44956.67
452.203	45876.21
452.409	45442.04
452.615	45325.3
452.821	43566.1
453.027	43017.24
453.233	45261.82
453.44	43623.44
453.646	43975.69
453.852	44252.17
454.058	45542.39
454.264	43328.53
454.47	44606.47
454.676	43498.51
454.882	45052.92
455.088	41092.15
455.294	41638.96
455.5	42138.66
455.705	42794.01
455.911	41065.53
456.117	40238.15
456.323	39658.57
456.529	37842.03
456.735	39504.98
456.941	38249.57
457.147	38173.8
457.352	36459.65
457.558	36177.03
457.764	36553.85
457.97	35720.33
458.176	34897.05
458.381	34696.35
458.587	33168.56
458.793	33078.45
458.999	31749.32
459.204	33625.26
459.41	32890.04
459.616	30725.33
459.821	30850.26
460.027	30754.01
460.233	29752.55
460.438	28689.65
460.644	28665.08
460.85	27294.99
461.055	26615.06
461.261	26940.69
461.466	24796.46
461.672	24147.26
461.878	25867.55
462.083	24112.44
462.289	23860.54
462.494	23303.5
462.7	22328.66
462.905	21933.4
463.111	22533.46
463.316	22451.54
463.522	21929.31
463.727	21970.27
463.932	22019.42
464.138	21736.8
464.343	21935.45
464.549	21192.04
464.754	21798.24
464.959	21896.54
465.165	21222.76
465.37	20301.17
465.575	20014.46
465.781	20272.5
465.986	20706.67
466.191	19815.8
466.397	19735.93
466.602	18599.31
466.807	19414.4
467.012	19578.24
467.218	19033.48
