Data from USB4F104151__220__14-33-53-265.txt Node

Date: Thu Mar 13 14:33:53 EDT 2025
User: louis
Spectrometer: USB4F10415
Trigger mode: 4
Integration Time (sec): 2.500000E-2
Scans to average: 1
Electric dark correction enabled: true
Nonlinearity correction enabled: false
Boxcar width: 0
XAxis mode: Wavelengths
Number of Pixels in Spectrum: 3648
>>>>>Begin Spectral Data<<<<<
178.204	-173.39
178.424	-173.39
178.644	-173.39
178.864	-120.15
179.084	-157.01
179.304	47.79
179.524	-79.19
179.744	-52.56
179.964	35.5
180.184	-42.32
180.404	35.5
180.624	70.31
180.844	23.21
181.064	-54.61
181.283	21.16
181.503	43.69
181.723	-48.47
181.943	-144.72
182.163	125.61
182.383	29.35
182.602	0.68
182.822	152.23
183.042	80.55
183.262	6.83
183.482	4.78
183.701	4.78
183.921	31.4
184.141	2.73
184.361	21.16
184.58	55.98
184.8	-62.8
185.02	84.65
185.239	23.21
185.459	-58.71
185.679	19.11
185.898	60.07
186.118	23.21
186.338	76.46
186.557	-9.56
186.777	31.4
186.997	127.66
187.216	4.78
187.436	70.31
187.655	92.84
187.875	43.69
188.095	68.27
188.314	101.03
188.534	60.07
188.753	21.16
188.973	-13.65
189.192	94.89
189.412	86.7
189.631	72.36
189.851	33.45
190.07	84.65
190.29	96.94
190.509	-5.46
190.729	35.5
190.948	70.31
191.168	92.84
191.387	94.89
191.607	-46.42
191.826	-11.61
192.045	37.55
192.265	37.55
192.484	-19.8
192.704	31.4
192.923	55.98
193.142	129.7
193.362	-7.51
193.581	31.4
193.8	88.75
194.02	60.07
194.239	80.55
194.458	10.92
194.678	103.08
194.897	113.32
195.116	4.78
195.335	55.98
195.555	51.88
195.774	45.74
195.993	21.16
196.212	21.16
196.432	8.87
196.651	35.5
196.87	-17.75
197.089	58.03
197.308	107.18
197.528	76.46
197.747	2.73
197.966	19.11
198.185	51.88
198.404	-40.28
198.623	80.55
198.842	123.56
199.062	43.69
199.281	115.37
199.5	53.93
199.719	101.03
199.938	70.31
200.157	35.5
200.376	70.31
200.595	111.27
200.814	-30.04
201.033	19.11
201.252	49.83
201.471	2.73
201.69	101.03
201.909	43.69
202.128	27.31
202.347	60.07
202.566	35.5
202.785	27.31
203.004	0.68
203.223	76.46
203.442	60.07
203.661	35.5
203.879	92.84
204.098	27.31
204.317	53.93
204.536	111.27
204.755	55.98
204.974	109.22
205.193	-38.23
205.411	74.41
205.63	78.51
205.849	39.59
206.068	125.61
206.287	-11.61
206.505	121.51
206.724	6.83
206.943	19.11
207.162	4.78
207.381	60.07
207.599	72.36
207.818	43.69
208.037	55.98
208.255	60.07
208.474	53.93
208.693	-21.85
208.911	68.27
209.13	45.74
209.349	125.61
209.567	-3.41
209.786	72.36
210.005	82.6
210.223	60.07
210.442	29.35
210.661	62.12
210.879	31.4
211.098	2.73
211.316	68.27
211.535	115.37
211.753	27.31
211.972	47.79
212.191	-46.42
212.409	55.98
212.628	49.83
212.846	10.92
213.065	51.88
213.283	-13.65
213.502	6.83
213.72	29.35
213.938	6.83
214.157	-1.37
214.375	117.42
214.594	-30.04
214.812	-32.08
215.031	62.12
215.249	33.45
215.467	62.12
215.686	80.55
215.904	43.69
216.122	35.5
216.341	51.88
216.559	55.98
216.778	43.69
216.996	-32.08
217.214	2.73
217.432	47.79
217.651	27.31
217.869	72.36
218.087	39.59
218.306	39.59
218.524	43.69
218.742	53.93
218.96	68.27
219.179	113.32
219.397	21.16
219.615	15.02
219.833	68.27
220.051	-54.61
220.27	55.98
220.488	60.07
220.706	35.5
220.924	-77.14
221.142	6.83
221.36	86.7
221.578	76.46
221.796	86.7
222.015	80.55
222.233	51.88
222.451	70.31
222.669	-44.37
222.887	62.12
223.105	-36.18
223.323	43.69
223.541	-56.66
223.759	2.73
223.977	27.31
224.195	92.84
224.413	23.21
224.631	146.09
224.849	-34.13
225.067	115.37
225.285	62.12
225.503	66.22
225.721	-27.99
225.939	96.94
226.157	43.69
226.375	121.51
226.592	55.98
226.81	-11.61
227.028	117.42
227.246	88.75
227.464	45.74
227.682	166.57
227.9	60.07
228.117	150.18
228.335	43.69
228.553	21.16
228.771	25.26
228.989	43.69
229.206	78.51
229.424	74.41
229.642	39.59
229.86	10.92
230.077	37.55
230.295	31.4
230.513	84.65
230.731	80.55
230.948	109.22
231.166	-17.75
231.384	49.83
231.601	82.6
231.819	109.22
232.037	51.88
232.254	19.11
232.472	27.31
232.689	-5.46
232.907	105.13
233.125	101.03
233.342	43.69
233.56	103.08
233.777	62.12
233.995	55.98
234.213	55.98
234.43	19.11
234.648	86.7
234.865	-36.18
235.083	113.32
235.3	68.27
235.518	43.69
235.735	76.46
235.953	109.22
236.17	23.21
236.388	23.21
236.605	19.11
236.822	101.03
237.04	27.31
237.257	27.31
237.475	15.02
237.692	35.5
237.909	68.27
238.127	35.5
238.344	29.35
238.562	49.83
238.779	-46.42
238.996	-11.61
239.214	113.32
239.431	133.8
239.648	-5.46
239.865	25.26
240.083	45.74
240.3	111.27
240.517	29.35
240.735	17.07
240.952	86.7
241.169	19.11
241.386	72.36
241.603	49.83
241.821	-54.61
242.038	45.74
242.255	74.41
242.472	-30.04
242.689	82.6
242.907	92.84
243.124	10.92
243.341	-21.85
243.558	-30.04
243.775	-11.61
243.992	-5.46
244.209	94.89
244.426	55.98
244.643	12.97
244.86	33.45
245.078	84.65
245.295	47.79
245.512	43.69
245.729	49.83
245.946	76.46
246.163	-17.75
246.38	53.93
246.597	43.69
246.814	23.21
247.031	66.22
247.248	76.46
247.464	37.55
247.681	68.27
247.898	51.88
248.115	43.69
248.332	-9.56
248.549	150.18
248.766	92.84
248.983	37.55
249.2	96.94
249.417	43.69
249.633	-13.65
249.85	64.17
250.067	8.87
250.284	62.12
250.501	72.36
250.717	68.27
250.934	23.21
251.151	92.84
251.368	-13.65
251.585	-9.56
251.801	60.07
252.018	12.97
252.235	88.75
252.451	2.73
252.668	39.59
252.885	113.32
253.102	35.5
253.318	62.12
253.535	80.55
253.752	80.55
253.968	27.31
254.185	23.21
254.401	6.83
254.618	39.59
254.835	-5.46
255.051	127.66
255.268	-27.99
255.484	92.84
255.701	-11.61
255.917	-5.46
256.134	-7.51
256.351	70.31
256.567	-79.19
256.784	113.32
257	-50.52
257.217	51.88
257.433	10.92
257.65	60.07
257.866	70.31
258.082	-48.47
258.299	49.83
258.515	60.07
258.732	19.11
258.948	21.16
259.165	-30.04
259.381	-13.65
259.597	49.83
259.814	-77.14
260.03	55.98
260.246	60.07
260.463	101.03
260.679	137.9
260.895	78.51
261.112	84.65
261.328	15.02
261.544	39.59
261.761	154.28
261.977	53.93
262.193	41.64
262.409	64.17
262.626	92.84
262.842	35.5
263.058	47.79
263.274	35.5
263.49	35.5
263.707	144.04
263.923	123.56
264.139	51.88
264.355	70.31
264.571	27.31
264.787	43.69
265.004	111.27
265.22	43.69
265.436	-44.37
265.652	19.11
265.868	68.27
266.084	68.27
266.3	74.41
266.516	74.41
266.732	10.92
266.948	47.79
267.164	41.64
267.38	-38.23
267.596	23.21
267.812	150.18
268.028	76.46
268.244	43.69
268.46	25.26
268.676	78.51
268.892	53.93
269.108	60.07
269.324	-3.41
269.54	-54.61
269.756	55.98
269.972	55.98
270.188	29.35
270.403	43.69
270.619	4.78
270.835	78.51
271.051	-17.75
271.267	31.4
271.483	12.97
271.698	76.46
271.914	68.27
272.13	84.65
272.346	39.59
272.562	35.5
272.777	76.46
272.993	76.46
273.209	98.99
273.425	62.12
273.64	47.79
273.856	88.75
274.072	-3.41
274.287	72.36
274.503	31.4
274.719	107.18
274.934	31.4
275.15	-13.65
275.366	53.93
275.581	8.87
275.797	27.31
276.012	-5.46
276.228	-58.71
276.444	72.36
276.659	88.75
276.875	-5.46
277.09	-1.37
277.306	39.59
277.521	96.94
277.737	2.73
277.952	80.55
278.168	68.27
278.383	84.65
278.599	70.31
278.814	19.11
279.03	92.84
279.245	43.69
279.461	72.36
279.676	-19.8
279.892	2.73
280.107	6.83
280.322	43.69
280.538	92.84
280.753	29.35
280.969	51.88
281.184	43.69
281.399	121.51
281.615	68.27
281.83	23.21
282.045	-9.56
282.26	113.32
282.476	15.02
282.691	117.42
282.906	72.36
283.122	80.55
283.337	43.69
283.552	27.31
283.767	4.78
283.983	82.6
284.198	51.88
284.413	47.79
284.628	0.68
284.843	76.46
285.058	92.84
285.274	43.69
285.489	-25.94
285.704	68.27
285.919	58.03
286.134	113.32
286.349	39.59
286.564	64.17
286.779	47.79
286.995	70.31
287.21	39.59
287.425	35.5
287.64	90.79
287.855	68.27
288.07	-19.8
288.285	64.17
288.5	70.31
288.715	41.64
288.93	2.73
289.145	33.45
289.36	-19.8
289.575	64.17
289.79	78.51
290.004	17.07
290.219	78.51
290.434	29.35
290.649	29.35
290.864	-11.61
291.079	-11.61
291.294	37.55
291.509	43.69
291.724	17.07
291.938	60.07
292.153	35.5
292.368	-11.61
292.583	47.79
292.798	53.93
293.012	62.12
293.227	41.64
293.442	70.31
293.657	117.42
293.871	37.55
294.086	-15.7
294.301	53.93
294.516	12.97
294.73	4.78
294.945	37.55
295.16	-36.18
295.374	-3.41
295.589	174.76
295.804	19.11
296.018	39.59
296.233	109.22
296.447	51.88
296.662	-5.46
296.877	70.31
297.091	76.46
297.306	12.97
297.52	47.79
297.735	72.36
297.949	27.31
298.164	158.38
298.378	51.88
298.593	35.5
298.807	-50.52
299.022	55.98
299.236	72.36
299.451	-5.46
299.665	23.21
299.88	12.97
300.094	55.98
300.309	43.69
300.523	80.55
300.737	72.36
300.952	2.73
301.166	92.84
301.381	19.11
301.595	19.11
301.809	29.35
302.024	109.22
302.238	117.42
302.452	84.65
302.667	-1.37
302.881	137.9
303.095	64.17
303.309	45.74
303.524	-19.8
303.738	10.92
303.952	35.5
304.166	12.97
304.381	51.88
304.595	125.61
304.809	43.69
305.023	19.11
305.237	96.94
305.452	-3.41
305.666	62.12
305.88	-34.13
306.094	70.31
306.308	98.99
306.522	53.93
306.736	27.31
306.95	84.65
307.164	21.16
307.379	60.07
307.593	133.8
307.807	80.55
308.021	92.84
308.235	90.79
308.449	37.55
308.663	-7.51
308.877	82.6
309.091	17.07
309.305	80.55
309.519	-9.56
309.733	37.55
309.947	96.94
310.161	121.51
310.374	8.87
310.588	43.69
310.802	35.5
311.016	72.36
311.23	62.12
311.444	-17.75
311.658	-5.46
311.872	2.73
312.085	86.7
312.299	47.79
312.513	72.36
312.727	6.83
312.941	-3.41
313.154	92.84
313.368	21.16
313.582	101.03
313.796	27.31
314.009	21.16
314.223	103.08
314.437	84.65
314.651	105.13
314.864	82.6
315.078	2.73
315.292	-1.37
315.505	-25.94
315.719	105.13
315.933	109.22
316.146	76.46
316.36	-23.89
316.573	113.32
316.787	82.6
317.001	49.83
317.214	60.07
317.428	37.55
317.641	-34.13
317.855	51.88
318.068	-15.7
318.282	-17.75
318.495	74.41
318.709	33.45
318.922	51.88
319.136	90.79
319.349	127.66
319.563	125.61
319.776	64.17
319.99	76.46
320.203	72.36
320.417	72.36
320.63	144.04
320.843	131.75
321.057	2.73
321.27	19.11
321.483	35.5
321.697	76.46
321.91	148.14
322.124	62.12
322.337	6.83
322.55	-25.94
322.763	62.12
322.977	64.17
323.19	55.98
323.403	113.32
323.617	19.11
323.83	60.07
324.043	-1.37
324.256	92.84
324.469	19.11
324.683	84.65
324.896	15.02
325.109	51.88
325.322	-44.37
325.535	62.12
325.748	23.21
325.962	96.94
326.175	64.17
326.388	133.8
326.601	58.03
326.814	41.64
327.027	21.16
327.24	39.59
327.453	-44.37
327.666	76.46
327.879	27.31
328.092	109.22
328.305	62.12
328.518	-1.37
328.731	43.69
328.944	68.27
329.157	70.31
329.37	58.03
329.583	68.27
329.796	96.94
330.009	6.83
330.222	60.07
330.435	33.45
330.648	35.5
330.861	96.94
331.073	68.27
331.286	86.7
331.499	15.02
331.712	51.88
331.925	84.65
332.138	74.41
332.35	15.02
332.563	6.83
332.776	64.17
332.989	55.98
333.202	-7.51
333.414	12.97
333.627	33.45
333.84	68.27
334.053	51.88
334.265	68.27
334.478	-7.51
334.691	8.87
334.903	68.27
335.116	39.59
335.329	53.93
335.541	-30.04
335.754	29.35
335.966	-36.18
336.179	15.02
336.392	39.59
336.604	33.45
336.817	101.03
337.029	117.42
337.242	76.46
337.454	45.74
337.667	113.32
337.88	117.42
338.092	60.07
338.305	78.51
338.517	19.11
338.729	154.28
338.942	103.08
339.154	47.79
339.367	29.35
339.579	84.65
339.792	60.07
340.004	84.65
340.217	47.79
340.429	47.79
340.641	-27.99
340.854	119.46
341.066	-9.56
341.278	45.74
341.491	191.14
341.703	74.41
341.915	101.03
342.128	19.11
342.34	10.92
342.552	4.78
342.764	51.88
342.977	-42.32
343.189	19.11
343.401	45.74
343.613	84.65
343.826	105.13
344.038	-17.75
344.25	64.17
344.462	62.12
344.674	64.17
344.886	10.92
345.099	53.93
345.311	68.27
345.523	55.98
345.735	60.07
345.947	92.84
346.159	80.55
346.371	133.8
346.583	29.35
346.795	86.7
347.007	-5.46
347.219	144.04
347.431	70.31
347.643	119.46
347.855	45.74
348.067	174.76
348.279	12.97
348.491	96.94
348.703	62.12
348.915	117.42
349.127	15.02
349.339	103.08
349.551	-38.23
349.763	101.03
349.975	111.27
350.187	53.93
350.399	111.27
350.61	113.32
350.822	35.5
351.034	103.08
351.246	2.73
351.458	43.69
351.669	43.69
351.881	109.22
352.093	27.31
352.305	121.51
352.517	78.51
352.728	86.7
352.94	76.46
353.152	62.12
353.363	68.27
353.575	103.08
353.787	131.75
353.999	76.46
354.21	141.99
354.422	15.02
354.633	86.7
354.845	92.84
355.057	64.17
355.268	-9.56
355.48	94.89
355.692	10.92
355.903	2.73
356.115	133.8
356.326	-1.37
356.538	103.08
356.749	141.99
356.961	96.94
357.172	29.35
357.384	29.35
357.595	176.81
357.807	10.92
358.018	62.12
358.23	78.51
358.441	129.7
358.653	68.27
358.864	68.27
359.075	51.88
359.287	103.08
359.498	146.09
359.709	0.68
359.921	53.93
360.132	115.37
360.344	105.13
360.555	78.51
360.766	152.23
360.977	101.03
361.189	84.65
361.4	76.46
361.611	131.75
361.823	15.02
362.034	45.74
362.245	101.03
362.456	31.4
362.667	37.55
362.879	68.27
363.09	96.94
363.301	35.5
363.512	43.69
363.723	-46.42
363.935	51.88
364.146	80.55
364.357	70.31
364.568	76.46
364.779	-23.89
364.99	23.21
365.201	35.5
365.412	103.08
365.623	10.92
365.834	58.03
366.045	55.98
366.256	92.84
366.467	51.88
366.678	68.27
366.889	45.74
367.1	55.98
367.311	109.22
367.522	51.88
367.733	49.83
367.944	103.08
368.155	92.84
368.366	41.64
368.577	86.7
368.788	119.46
368.999	86.7
369.209	105.13
369.42	182.95
369.631	176.81
369.842	68.27
370.053	47.79
370.264	68.27
370.474	51.88
370.685	125.61
370.896	35.5
371.107	158.38
371.317	113.32
371.528	47.79
371.739	107.18
371.95	84.65
372.16	17.07
372.371	-7.51
372.582	27.31
372.792	35.5
373.003	35.5
373.214	4.78
373.424	-52.56
373.635	29.35
373.846	123.56
374.056	109.22
374.267	43.69
374.477	35.5
374.688	119.46
374.898	103.08
375.109	135.85
375.319	53.93
375.53	29.35
375.74	43.69
375.951	76.46
376.161	47.79
376.372	141.99
376.582	72.36
376.793	117.42
377.003	68.27
377.214	72.36
377.424	29.35
377.635	41.64
377.845	148.14
378.055	60.07
378.266	47.79
378.476	80.55
378.686	68.27
378.897	125.61
379.107	78.51
379.317	19.11
379.528	-3.41
379.738	111.27
379.948	10.92
380.158	88.75
380.369	41.64
380.579	84.65
380.789	92.84
380.999	121.51
381.21	70.31
381.42	92.84
381.63	84.65
381.84	103.08
382.05	-3.41
382.261	109.22
382.471	47.79
382.681	62.12
382.891	98.99
383.101	43.69
383.311	2.73
383.521	62.12
383.731	84.65
383.941	119.46
384.151	90.79
384.361	43.69
384.571	51.88
384.781	66.22
384.991	166.57
385.201	162.47
385.411	109.22
385.621	103.08
385.831	94.89
386.041	158.38
386.251	148.14
386.461	135.85
386.671	58.03
386.881	117.42
387.091	150.18
387.301	158.38
387.511	51.88
387.72	43.69
387.93	133.8
388.14	53.93
388.35	53.93
388.56	41.64
388.769	96.94
388.979	94.89
389.189	27.31
389.399	-17.75
389.609	101.03
389.818	154.28
390.028	31.4
390.238	58.03
390.447	60.07
390.657	12.97
390.867	109.22
391.076	76.46
391.286	92.84
391.496	86.7
391.705	68.27
391.915	150.18
392.125	119.46
392.334	113.32
392.544	207.53
392.753	103.08
392.963	58.03
393.172	29.35
393.382	94.89
393.591	166.57
393.801	51.88
394.01	154.28
394.22	88.75
394.429	123.56
394.639	152.23
394.848	96.94
395.058	137.9
395.267	55.98
395.477	101.03
395.686	168.62
395.895	127.66
396.105	158.38
396.314	131.75
396.524	47.79
396.733	117.42
396.942	211.62
397.152	125.61
397.361	168.62
397.57	43.69
397.78	101.03
397.989	113.32
398.198	217.77
398.407	70.31
398.617	166.57
398.826	158.38
399.035	101.03
399.244	168.62
399.453	174.76
399.663	174.76
399.872	139.94
400.081	154.28
400.29	166.57
400.499	162.47
400.708	160.42
400.917	199.34
401.127	107.18
401.336	117.42
401.545	176.81
401.754	133.8
401.963	211.62
402.172	182.95
402.381	109.22
402.59	129.7
402.799	119.46
403.008	115.37
403.217	160.42
403.426	144.04
403.635	90.79
403.844	162.47
404.053	170.66
404.262	176.81
404.471	258.73
404.68	187.05
404.888	201.38
405.097	182.95
405.306	176.81
405.515	246.44
405.724	199.34
405.933	281.25
406.142	273.06
406.35	252.58
406.559	219.82
406.768	256.68
406.977	299.69
407.185	303.78
407.394	275.11
407.603	279.21
407.812	242.34
408.02	354.98
408.229	346.79
408.438	234.15
408.646	277.16
408.855	332.45
409.064	363.17
409.272	381.6
409.481	391.84
409.69	342.69
409.898	361.13
410.107	441
410.315	412.32
410.524	397.99
410.733	496.29
410.941	387.75
411.15	445.09
411.358	441
411.567	529.06
411.775	473.76
411.984	617.12
412.192	518.82
412.401	578.21
412.609	666.27
412.818	619.17
413.026	717.47
413.234	690.85
413.443	651.94
413.651	686.75
413.86	735.9
414.068	772.77
414.276	887.45
414.485	848.54
414.693	899.74
414.901	1002.14
415.11	1004.19
415.318	850.59
415.526	996
415.734	1108.63
415.943	1032.86
416.151	1241.75
416.359	1075.87
416.567	1108.63
416.776	1239.7
416.984	1333.91
417.192	1227.42
417.4	1358.49
417.608	1303.19
417.817	1389.21
418.025	1526.42
418.233	1559.19
418.441	1417.88
418.649	1575.57
418.857	1723.02
419.065	1796.75
419.273	1673.87
419.481	1854.09
419.689	1903.25
419.897	1993.36
420.105	1944.2
420.313	2075.27
420.521	2112.14
420.729	2216.58
420.937	2259.59
421.145	2361.99
421.353	2388.61
421.561	2534.02
421.769	2599.55
421.977	2681.47
422.185	2798.21
422.393	2839.17
422.601	3046.01
422.809	2935.42
423.017	3099.26
423.224	3148.41
423.432	3349.11
423.64	3349.11
423.848	3578.48
424.056	3570.29
424.263	3742.32
424.471	3738.23
424.679	3777.14
424.887	4065.9
425.094	4151.92
425.302	4131.44
425.51	4393.58
425.718	4502.12
425.925	4481.64
426.133	4704.87
426.341	5032.54
426.548	5065.31
426.756	5220.95
426.964	5419.61
427.171	5565.01
427.379	5818.96
427.586	5919.31
427.794	6034
428.001	6275.66
428.209	6402.63
428.417	6363.72
428.624	6785.6
428.832	6572.61
429.039	6775.36
429.247	6804.03
429.454	7463.48
429.662	7973.42
429.869	7494.2
430.076	8170.03
430.284	7803.44
430.491	8163.89
430.699	8485.42
430.906	8380.97
431.114	8559.14
431.321	9097.76
431.528	9128.48
431.736	9605.66
431.943	10240.53
432.15	9892.37
432.358	9884.18
432.565	10529.29
432.772	10525.19
432.979	10852.87
433.187	11153.92
433.394	11115.01
433.601	11883
433.808	11983.35
434.016	12014.07
434.223	12284.4
434.43	13040.1
434.637	13095.39
434.844	13687.26
435.052	13953.49
435.259	13830.62
435.466	14025.17
435.673	13887.96
435.88	14866.89
436.087	15401.41
436.294	15241.67
436.501	15151.56
436.708	15315.39
436.915	15954.36
437.122	16652.72
437.329	16785.83
437.537	17183.14
437.743	17443.23
437.95	17156.52
438.157	18059.67
438.364	18975.11
438.571	18987.4
438.778	18807.18
438.985	20273.53
439.192	19753.34
439.399	20574.58
439.606	19859.84
439.813	21270.89
440.02	22258.01
440.227	22163.8
440.433	21928.28
440.64	22511.96
440.847	22462.8
441.054	22927.69
441.261	24504.63
441.467	24129.85
441.674	24652.08
441.881	25682.21
442.088	25164.07
442.294	25162.03
442.501	25540.9
442.708	26536.21
442.914	27343.11
443.121	28373.24
443.328	27484.42
443.534	29407.47
443.741	28559.61
443.948	28274.94
444.154	30939.35
444.361	30154.97
444.568	30447.83
444.774	30228.7
444.981	31273.17
445.187	31480.01
445.394	32757.94
445.6	32358.59
445.807	35801.22
446.013	33822.89
446.22	34543.77
446.426	36151.43
446.633	36243.59
446.839	37183.6
447.046	36059.27
447.252	37644.4
447.459	37961.83
447.665	37476.46
447.871	39331.92
448.078	41246.77
448.284	38809.69
448.491	40169.54
448.697	41562.16
448.903	42645.54
449.11	42836
449.316	41973.8
449.522	42883.1
449.728	43560.98
449.935	43943.95
450.141	43845.65
450.347	44996.6
450.553	43563.03
450.76	44404.74
450.966	45578.23
451.172	44877.82
451.378	46100.46
451.584	45137.91
451.791	45840.37
451.997	46241.77
452.203	46669.79
452.409	47071.2
452.615	46532.58
452.821	44806.14
453.027	44038.15
453.233	46710.75
453.44	44750.85
453.646	44910.59
453.852	45441.01
454.058	46262.25
454.264	44961.79
454.47	45797.36
454.676	44795.9
454.882	46053.36
455.088	42278.95
455.294	42950.68
455.5	43300.89
455.705	43481.11
455.911	41893.93
456.117	41451.57
456.323	41175.09
456.529	38674.52
456.735	40810.56
456.941	39098.45
457.147	38486.11
457.352	37544.05
457.558	36806.78
457.764	37419.12
457.97	36190.34
458.176	35645.58
458.381	35393.68
458.587	34168.99
458.793	33996.96
458.999	32409.79
459.204	34306.21
459.41	33312.94
459.616	31193.29
459.821	31080.66
460.027	30974.16
460.233	30355.68
460.438	29118.7
460.644	29522.15
460.85	28125.44
461.055	27425.03
461.261	27529.48
461.466	25446.69
461.672	24543.54
461.878	26327.32
462.083	24893.74
462.289	24316.22
462.494	23939.39
462.7	22759.76
462.905	22563.15
463.111	23077.19
463.316	22921.55
463.522	22669.65
463.727	22792.53
463.932	22829.39
464.138	22458.71
464.343	22597.97
464.549	22098.27
464.754	22501.72
464.959	22446.42
465.165	22516.05
465.37	20965.74
465.575	20568.43
465.781	21547.36
465.986	21547.36
