Data from USB4F104151__31__14-29-39-238.txt Node

Date: Thu Mar 13 14:29:39 EDT 2025
User: louis
Spectrometer: USB4F10415
Trigger mode: 4
Integration Time (sec): 2.500000E-2
Scans to average: 1
Electric dark correction enabled: true
Nonlinearity correction enabled: false
Boxcar width: 0
XAxis mode: Wavelengths
Number of Pixels in Spectrum: 3648
>>>>>Begin Spectral Data<<<<<
178.204	-84.31
178.424	-84.31
178.644	-84.31
178.864	-125.27
179.084	-160.08
179.304	24.23
179.524	16.04
179.744	-10.58
179.964	63.15
180.184	22.19
180.404	-29.01
180.624	-14.68
180.844	-43.35
181.064	-61.78
181.283	-4.44
181.503	-0.34
181.723	38.57
181.943	-61.78
182.163	28.33
182.383	7.85
182.602	-24.92
182.822	110.25
183.042	20.14
183.262	-22.87
183.482	28.33
183.701	-8.53
183.921	57
184.141	-18.77
184.361	36.52
184.58	20.14
184.8	16.04
185.02	57
185.239	132.78
185.459	20.14
185.679	16.04
185.898	-61.78
186.118	44.71
186.338	61.1
186.557	32.43
186.777	-24.92
186.997	46.76
187.216	-47.44
187.436	73.39
187.655	-4.44
187.875	20.14
188.095	-72.02
188.314	44.71
188.534	-12.63
188.753	-37.2
188.973	42.67
189.192	118.44
189.412	7.85
189.631	3.75
189.851	69.29
190.07	67.24
190.29	-12.63
190.509	28.33
190.729	-12.63
190.948	-24.92
191.168	145.06
191.387	20.14
191.607	-8.53
191.826	77.48
192.045	-53.59
192.265	3.75
192.484	1.71
192.704	63.15
192.923	-57.68
193.142	32.43
193.362	89.77
193.581	95.91
193.8	28.33
194.02	20.14
194.239	-33.11
194.458	-10.58
194.678	59.05
194.897	34.47
195.116	30.38
195.335	77.48
195.555	11.95
195.774	52.91
195.993	24.23
196.212	5.8
196.432	46.76
196.651	24.23
196.87	-35.16
197.089	93.87
197.308	36.52
197.528	-0.34
197.747	-2.39
197.966	-22.87
198.185	52.91
198.404	5.8
198.623	-33.11
198.842	11.95
199.062	18.09
199.281	-22.87
199.5	22.19
199.719	20.14
199.938	-53.59
200.157	11.95
200.376	-12.63
200.595	-20.82
200.814	40.62
201.033	-35.16
201.252	44.71
201.471	104.11
201.69	73.39
201.909	-31.06
202.128	75.43
202.347	-22.87
202.566	-82.26
202.785	28.33
203.004	-4.44
203.223	48.81
203.442	26.28
203.661	-24.92
203.879	16.04
204.098	32.43
204.317	-74.07
204.536	20.14
204.755	32.43
204.974	28.33
205.193	7.85
205.411	59.05
205.63	16.04
205.849	7.85
206.068	24.23
206.287	-26.96
206.505	22.19
206.724	54.95
206.943	67.24
207.162	57
207.381	11.95
207.599	102.06
207.818	-18.77
208.037	-4.44
208.255	16.04
208.474	87.72
208.693	11.95
208.911	32.43
209.13	-43.35
209.349	5.8
209.567	32.43
209.786	40.62
210.005	34.47
210.223	7.85
210.442	-20.82
210.661	32.43
210.879	36.52
211.098	40.62
211.316	-29.01
211.535	40.62
211.753	54.95
211.972	36.52
212.191	11.95
212.409	40.62
212.628	1.71
212.846	-47.44
213.065	3.75
213.283	95.91
213.502	20.14
213.72	5.8
213.938	42.67
214.157	-10.58
214.375	20.14
214.594	-37.2
214.812	52.91
215.031	91.82
215.249	-16.73
215.467	30.38
215.686	5.8
215.904	71.34
216.122	13.99
216.341	-10.58
216.559	69.29
216.778	57
216.996	38.57
217.214	-37.2
217.432	-78.16
217.651	20.14
217.869	-26.96
218.087	-69.97
218.306	13.99
218.524	38.57
218.742	-0.34
218.96	112.3
219.179	69.29
219.397	30.38
219.615	61.1
219.833	3.75
220.051	-29.01
220.27	24.23
220.488	24.23
220.706	79.53
220.924	-39.25
221.142	52.91
221.36	-14.68
221.578	79.53
221.796	-16.73
222.015	79.53
222.233	30.38
222.451	89.77
222.669	-6.49
222.887	13.99
223.105	26.28
223.323	-29.01
223.541	9.9
223.759	40.62
223.977	3.75
224.195	97.96
224.413	-0.34
224.631	7.85
224.849	13.99
225.067	112.3
225.285	-10.58
225.503	28.33
225.721	36.52
225.939	52.91
226.157	32.43
226.375	57
226.592	22.19
226.81	71.34
227.028	34.47
227.246	46.76
227.464	36.52
227.682	11.95
227.9	138.92
228.117	13.99
228.335	40.62
228.553	16.04
228.771	24.23
228.989	-12.63
229.206	-6.49
229.424	38.57
229.642	-2.39
229.86	-59.73
230.077	91.82
230.295	59.05
230.513	28.33
230.731	36.52
230.948	28.33
231.166	44.71
231.384	-22.87
231.601	128.68
231.819	22.19
232.037	22.19
232.254	-8.53
232.472	97.96
232.689	-26.96
232.907	20.14
233.125	7.85
233.342	54.95
233.56	-33.11
233.777	-20.82
233.995	52.91
234.213	30.38
234.43	5.8
234.648	124.58
234.865	28.33
235.083	3.75
235.3	-35.16
235.518	20.14
235.735	42.67
235.953	38.57
236.17	-2.39
236.388	-0.34
236.605	69.29
236.822	28.33
237.04	77.48
237.257	22.19
237.475	-35.16
237.692	11.95
237.909	26.28
238.127	-29.01
238.344	-16.73
238.562	36.52
238.779	3.75
238.996	85.67
239.214	-20.82
239.431	11.95
239.648	-35.16
239.865	65.19
240.083	28.33
240.3	44.71
240.517	85.67
240.735	20.14
240.952	-16.73
241.169	110.25
241.386	-14.68
241.603	-41.3
241.821	-59.73
242.038	77.48
242.255	32.43
242.472	-6.49
242.689	44.71
242.907	85.67
243.124	-12.63
243.341	110.25
243.558	38.57
243.775	-2.39
243.992	69.29
244.209	-8.53
244.426	38.57
244.643	-22.87
244.86	67.24
245.078	-4.44
245.295	26.28
245.512	93.87
245.729	24.23
245.946	-63.83
246.163	87.72
246.38	3.75
246.597	-20.82
246.814	61.1
247.031	-20.82
247.248	63.15
247.464	-49.49
247.681	9.9
247.898	-16.73
248.115	18.09
248.332	-53.59
248.549	102.06
248.766	97.96
248.983	89.77
249.2	85.67
249.417	20.14
249.633	32.43
249.85	46.76
250.067	40.62
250.284	-10.58
250.501	57
250.717	118.44
250.934	-57.68
251.151	-4.44
251.368	-14.68
251.585	61.1
251.801	32.43
252.018	-24.92
252.235	46.76
252.451	52.91
252.668	34.47
252.885	89.77
253.102	52.91
253.318	3.75
253.535	-4.44
253.752	-12.63
253.968	3.75
254.185	-35.16
254.401	-29.01
254.618	-20.82
254.835	16.04
255.051	77.48
255.268	44.71
255.484	11.95
255.701	-10.58
255.917	-12.63
256.134	-43.35
256.351	-0.34
256.567	-4.44
256.784	16.04
257	16.04
257.217	52.91
257.433	-20.82
257.65	52.91
257.866	69.29
258.082	-37.2
258.299	38.57
258.515	11.95
258.732	13.99
258.948	-4.44
259.165	5.8
259.381	-12.63
259.597	-12.63
259.814	-20.82
260.03	24.23
260.246	54.95
260.463	20.14
260.679	30.38
260.895	11.95
261.112	69.29
261.328	-4.44
261.544	3.75
261.761	67.24
261.977	-41.3
262.193	13.99
262.409	28.33
262.626	28.33
262.842	85.67
263.058	-10.58
263.274	30.38
263.49	3.75
263.707	69.29
263.923	30.38
264.139	24.23
264.355	44.71
264.571	63.15
264.787	69.29
265.004	44.71
265.22	44.71
265.436	67.24
265.652	-8.53
265.868	32.43
266.084	-51.54
266.3	24.23
266.516	-29.01
266.732	81.58
266.948	28.33
267.164	48.81
267.38	20.14
267.596	83.63
267.812	52.91
268.028	110.25
268.244	1.71
268.46	46.76
268.676	-16.73
268.892	-61.78
269.108	-45.4
269.324	3.75
269.54	61.1
269.756	22.19
269.972	48.81
270.188	-57.68
270.403	-0.34
270.619	-20.82
270.835	100.01
271.051	63.15
271.267	-43.35
271.483	52.91
271.698	1.71
271.914	13.99
272.13	-4.44
272.346	1.71
272.562	11.95
272.777	32.43
272.993	32.43
273.209	-4.44
273.425	38.57
273.64	-4.44
273.856	77.48
274.072	52.91
274.287	-29.01
274.503	-4.44
274.719	44.71
274.934	36.52
275.15	-53.59
275.366	3.75
275.581	81.58
275.797	3.75
276.012	3.75
276.228	-2.39
276.444	-26.96
276.659	36.52
276.875	-67.92
277.09	77.48
277.306	18.09
277.521	-0.34
277.737	24.23
277.952	102.06
278.168	20.14
278.383	-29.01
278.599	13.99
278.814	48.81
279.03	-24.92
279.245	46.76
279.461	26.28
279.676	40.62
279.892	-51.54
280.107	-16.73
280.322	16.04
280.538	3.75
280.753	-2.39
280.969	143.02
281.184	54.95
281.399	93.87
281.615	-10.58
281.83	11.95
282.045	-12.63
282.26	28.33
282.476	81.58
282.691	77.48
282.906	63.15
283.122	13.99
283.337	11.95
283.552	22.19
283.767	24.23
283.983	18.09
284.198	-35.16
284.413	30.38
284.628	-74.07
284.843	48.81
285.058	7.85
285.274	22.19
285.489	16.04
285.704	71.34
285.919	-37.2
286.134	11.95
286.349	5.8
286.564	114.34
286.779	50.86
286.995	7.85
287.21	-26.96
287.425	26.28
287.64	11.95
287.855	3.75
288.07	-24.92
288.285	28.33
288.5	-29.01
288.715	54.95
288.93	1.71
289.145	-22.87
289.36	97.96
289.575	52.91
289.79	50.86
290.004	54.95
290.219	73.39
290.434	69.29
290.649	-53.59
290.864	-2.39
291.079	-35.16
291.294	-4.44
291.509	112.3
291.724	11.95
291.938	7.85
292.153	-4.44
292.368	-14.68
292.583	81.58
292.798	69.29
293.012	5.8
293.227	61.1
293.442	16.04
293.657	16.04
293.871	11.95
294.086	83.63
294.301	106.15
294.516	54.95
294.73	-14.68
294.945	44.71
295.16	22.19
295.374	-12.63
295.589	-14.68
295.804	-2.39
296.018	5.8
296.233	104.11
296.447	28.33
296.662	30.38
296.877	71.34
297.091	-29.01
297.306	-10.58
297.52	-22.87
297.735	-4.44
297.949	85.67
298.164	73.39
298.378	5.8
298.593	95.91
298.807	69.29
299.022	22.19
299.236	5.8
299.451	48.81
299.665	52.91
299.88	32.43
300.094	-0.34
300.309	-10.58
300.523	61.1
300.737	-10.58
300.952	26.28
301.166	59.05
301.381	69.29
301.595	106.15
301.809	32.43
302.024	5.8
302.238	38.57
302.452	11.95
302.667	-69.97
302.881	69.29
303.095	38.57
303.309	73.39
303.524	24.23
303.738	11.95
303.952	40.62
304.166	11.95
304.381	-29.01
304.595	30.38
304.809	-16.73
305.023	40.62
305.237	-33.11
305.452	87.72
305.666	5.8
305.88	-16.73
306.094	-6.49
306.308	40.62
306.522	73.39
306.736	110.25
306.95	5.8
307.164	69.29
307.379	-29.01
307.593	-18.77
307.807	81.58
308.021	22.19
308.235	-49.49
308.449	18.09
308.663	1.71
308.877	106.15
309.091	42.67
309.305	-14.68
309.519	-65.88
309.733	36.52
309.947	-18.77
310.161	69.29
310.374	40.62
310.588	97.96
310.802	-39.25
311.016	20.14
311.23	32.43
311.444	-49.49
311.658	32.43
311.872	128.68
312.085	102.06
312.299	16.04
312.513	61.1
312.727	52.91
312.941	-82.26
313.154	20.14
313.368	1.71
313.582	-49.49
313.796	20.14
314.009	16.04
314.223	-4.44
314.437	50.86
314.651	-18.77
314.864	-45.4
315.078	11.95
315.292	-86.36
315.505	-16.73
315.719	20.14
315.933	79.53
316.146	28.33
316.36	-6.49
316.573	104.11
316.787	69.29
317.001	-20.82
317.214	-29.01
317.428	126.63
317.641	-2.39
317.855	61.1
318.068	30.38
318.282	102.06
318.495	61.1
318.709	52.91
318.922	52.91
319.136	67.24
319.349	77.48
319.563	48.81
319.776	40.62
319.99	38.57
320.203	-20.82
320.417	81.58
320.63	-29.01
320.843	54.95
321.057	-6.49
321.27	20.14
321.483	50.86
321.697	61.1
321.91	52.91
322.124	-16.73
322.337	77.48
322.55	46.76
322.763	-22.87
322.977	-0.34
323.19	7.85
323.403	46.76
323.617	-2.39
323.83	106.15
324.043	65.19
324.256	52.91
324.469	11.95
324.683	46.76
324.896	36.52
325.109	42.67
325.322	-0.34
325.535	110.25
325.748	11.95
325.962	102.06
326.175	11.95
326.388	32.43
326.601	93.87
326.814	-18.77
327.027	-35.16
327.24	69.29
327.453	-43.35
327.666	44.71
327.879	50.86
328.092	71.34
328.305	-61.78
328.518	81.58
328.731	-39.25
328.944	-37.2
329.157	-37.2
329.37	32.43
329.583	118.44
329.796	16.04
330.009	1.71
330.222	-12.63
330.435	28.33
330.648	52.91
330.861	50.86
331.073	77.48
331.286	32.43
331.499	69.29
331.712	-22.87
331.925	32.43
332.138	5.8
332.35	61.1
332.563	-4.44
332.776	24.23
332.989	-37.2
333.202	-14.68
333.414	-33.11
333.627	11.95
333.84	26.28
334.053	11.95
334.265	52.91
334.478	3.75
334.691	11.95
334.903	54.95
335.116	-6.49
335.329	-16.73
335.541	16.04
335.754	79.53
335.966	-63.83
336.179	61.1
336.392	3.75
336.604	71.34
336.817	67.24
337.029	32.43
337.242	36.52
337.454	83.63
337.667	69.29
337.88	61.1
338.092	-4.44
338.305	-37.2
338.517	-10.58
338.729	46.76
338.942	52.91
339.154	-57.68
339.367	38.57
339.579	-33.11
339.792	-12.63
340.004	5.8
340.217	38.57
340.429	30.38
340.641	-55.64
340.854	-22.87
341.066	-82.26
341.278	22.19
341.491	40.62
341.703	24.23
341.915	-53.59
342.128	26.28
342.34	-45.4
342.552	-26.96
342.764	-37.2
342.977	48.81
343.189	-20.82
343.401	97.96
343.613	34.47
343.826	11.95
344.038	63.15
344.25	-37.2
344.462	30.38
344.674	28.33
344.886	38.57
345.099	61.1
345.311	46.76
345.523	65.19
345.735	-47.44
345.947	-2.39
346.159	13.99
346.371	30.38
346.583	28.33
346.795	65.19
347.007	-16.73
347.219	85.67
347.431	26.28
347.643	71.34
347.855	52.91
348.067	97.96
348.279	-16.73
348.491	30.38
348.703	77.48
348.915	18.09
349.127	36.52
349.339	3.75
349.551	-39.25
349.763	22.19
349.975	-35.16
350.187	73.39
350.399	65.19
350.61	110.25
350.822	-12.63
351.034	11.95
351.246	87.72
351.458	18.09
351.669	134.82
351.881	73.39
352.093	36.52
352.305	48.81
352.517	48.81
352.728	50.86
352.94	28.33
353.152	46.76
353.363	30.38
353.575	77.48
353.787	116.39
353.999	40.62
354.21	97.96
354.422	11.95
354.633	-74.07
354.845	13.99
355.057	-45.4
355.268	147.11
355.48	91.82
355.692	120.49
355.903	54.95
356.115	40.62
356.326	38.57
356.538	69.29
356.749	-0.34
356.961	50.86
357.172	-12.63
357.384	57
357.595	81.58
357.807	52.91
358.018	38.57
358.23	30.38
358.441	134.82
358.653	32.43
358.864	-0.34
359.075	32.43
359.287	28.33
359.498	-4.44
359.709	73.39
359.921	36.52
360.132	52.91
360.344	69.29
360.555	30.38
360.766	77.48
360.977	57
361.189	36.52
361.4	-41.3
361.611	30.38
361.823	81.58
362.034	87.72
362.245	30.38
362.456	5.8
362.667	-16.73
362.879	20.14
363.09	71.34
363.301	36.52
363.512	57
363.723	97.96
363.935	-57.68
364.146	73.39
364.357	40.62
364.568	77.48
364.779	3.75
364.99	97.96
365.201	22.19
365.412	134.82
365.623	73.39
365.834	97.96
366.045	11.95
366.256	79.53
366.467	38.57
366.678	11.95
366.889	22.19
367.1	7.85
367.311	120.49
367.522	65.19
367.733	77.48
367.944	63.15
368.155	46.76
368.366	11.95
368.577	75.43
368.788	30.38
368.999	28.33
369.209	46.76
369.42	48.81
369.631	65.19
369.842	40.62
370.053	32.43
370.264	-4.44
370.474	5.8
370.685	28.33
370.896	65.19
371.107	44.71
371.317	61.1
371.528	3.75
371.739	61.1
371.95	87.72
372.16	28.33
372.371	73.39
372.582	65.19
372.792	22.19
373.003	85.67
373.214	-26.96
373.424	44.71
373.635	-20.82
373.846	22.19
374.056	11.95
374.267	13.99
374.477	-24.92
374.688	-10.58
374.898	38.57
375.109	54.95
375.319	-4.44
375.53	73.39
375.74	44.71
375.951	-12.63
376.161	-16.73
376.372	44.71
376.582	3.75
376.793	11.95
377.003	-4.44
377.214	81.58
377.424	1.71
377.635	9.9
377.845	-76.12
378.055	57
378.266	-18.77
378.476	-24.92
378.686	52.91
378.897	-29.01
379.107	67.24
379.317	110.25
379.528	-4.44
379.738	30.38
379.948	-0.34
380.158	67.24
380.369	5.8
380.579	44.71
380.789	61.1
380.999	20.14
381.21	57
381.42	65.19
381.63	-24.92
381.84	11.95
382.05	11.95
382.261	-4.44
382.471	-0.34
382.681	104.11
382.891	132.78
383.101	59.05
383.311	-45.4
383.521	-0.34
383.731	126.63
383.941	36.52
384.151	32.43
384.361	77.48
384.571	20.14
384.781	120.49
384.991	110.25
385.201	157.35
385.411	110.25
385.621	36.52
385.831	46.76
386.041	-22.87
386.251	16.04
386.461	71.34
386.671	32.43
386.881	38.57
387.091	-4.44
387.301	73.39
387.511	83.63
387.72	20.14
387.93	-16.73
388.14	34.47
388.35	3.75
388.56	11.95
388.769	69.29
388.979	46.76
389.189	95.91
389.399	32.43
389.609	104.11
389.818	104.11
390.028	18.09
390.238	155.3
390.447	-0.34
390.657	61.1
390.867	54.95
391.076	69.29
391.286	59.05
391.496	85.67
391.705	89.77
391.915	44.71
392.125	87.72
392.334	95.91
392.544	93.87
392.753	28.33
392.963	26.28
393.172	-2.39
393.382	28.33
393.591	-12.63
393.801	77.48
394.01	28.33
394.22	16.04
394.429	30.38
394.639	73.39
394.848	89.77
395.058	11.95
395.267	85.67
395.477	87.72
395.686	36.52
395.895	159.4
396.105	161.45
396.314	77.48
396.524	130.73
396.733	77.48
396.942	126.63
397.152	81.58
397.361	134.82
397.57	81.58
397.78	106.15
397.989	79.53
398.198	151.21
398.407	93.87
398.617	118.44
398.826	63.15
399.035	102.06
399.244	34.47
399.453	63.15
399.663	118.44
399.872	97.96
400.081	20.14
400.29	126.63
400.499	73.39
400.708	132.78
400.917	52.91
401.127	130.73
401.336	32.43
401.545	151.21
401.754	169.64
401.963	128.68
402.172	102.06
402.381	85.67
402.59	57
402.799	126.63
403.008	161.45
403.217	134.82
403.426	87.72
403.635	110.25
403.844	63.15
404.053	89.77
404.262	118.44
404.471	147.11
404.68	130.73
404.888	63.15
405.097	112.3
405.306	120.49
405.515	77.48
405.724	118.44
405.933	134.82
406.142	196.26
406.35	249.51
406.559	145.06
406.768	116.39
406.977	267.94
407.185	196.26
407.394	134.82
407.603	134.82
407.812	274.09
408.02	173.74
408.229	183.98
408.438	175.78
408.646	269.99
408.855	231.08
409.064	206.5
409.272	237.22
409.481	218.79
409.69	243.37
409.898	161.45
410.107	251.56
410.315	349.86
410.524	300.71
410.733	300.71
410.941	386.72
411.15	339.62
411.358	347.81
411.567	374.44
411.775	380.58
411.984	425.64
412.192	380.58
412.401	417.44
412.609	423.59
412.818	495.27
413.026	437.92
413.234	470.69
413.443	374.44
413.651	482.98
413.86	528.03
414.068	542.37
414.276	577.19
414.485	624.29
414.693	636.58
414.901	726.69
415.11	718.5
415.318	609.95
415.526	716.45
415.734	753.31
415.943	847.52
416.151	810.65
416.359	743.07
416.567	767.65
416.776	820.89
416.984	923.29
417.192	933.53
417.4	941.72
417.608	968.35
417.817	962.2
418.025	970.4
418.233	1052.31
418.441	1095.32
418.649	1031.83
418.857	1234.58
419.065	1324.69
419.273	1169.05
419.481	1248.92
419.689	1369.75
419.897	1423
420.105	1435.28
420.313	1400.47
420.521	1601.17
420.729	1670.8
420.937	1494.68
421.145	1650.32
421.353	1853.07
421.561	1820.3
421.769	1824.4
421.977	1916.56
422.185	1992.33
422.393	2008.72
422.601	2084.49
422.809	2121.35
423.017	2150.03
423.224	2207.37
423.432	2332.3
423.64	2313.86
423.848	2567.81
424.056	2504.32
424.263	2723.46
424.471	2576
424.679	2735.74
424.887	2805.38
425.094	2922.11
425.302	2950.78
425.51	3102.33
425.718	3133.05
425.925	3264.12
426.133	3237.5
426.341	3530.36
426.548	3663.47
426.756	3559.03
426.964	3872.37
427.171	4003.44
427.379	4032.11
427.586	4185.71
427.794	4204.14
428.001	4427.37
428.209	4533.86
428.417	4593.25
428.624	4841.06
428.832	4863.58
429.039	4826.72
429.247	4763.23
429.454	5254.75
429.662	5654.1
429.869	5213.79
430.076	5607
430.284	5402.2
430.491	5799.51
430.699	5949.01
430.906	5971.54
431.114	6164.04
431.321	6196.81
431.528	6387.27
431.736	6843.97
431.943	7218.75
432.15	6909.51
432.358	7106.11
432.565	7476.79
432.772	7269.95
432.979	7697.97
433.187	7927.35
433.394	8046.13
433.601	8398.38
433.808	8588.84
434.016	8443.43
434.223	8691.24
434.43	9135.65
434.637	9172.51
434.844	9725.46
435.052	9956.88
435.259	9815.57
435.466	9981.46
435.673	9817.62
435.88	10587.66
436.087	10888.71
436.294	10999.3
436.501	10849.8
436.708	11062.79
436.915	11243.01
437.122	11851.25
437.329	11693.56
437.537	12172.78
437.743	12578.28
437.95	12189.17
438.157	12963.3
438.364	13401.57
438.571	13153.76
438.778	13288.93
438.985	14618.06
439.192	14321.1
439.399	14415.31
439.606	14245.33
439.813	15058.37
440.02	15685.05
440.227	15742.39
440.433	15619.52
440.64	15928.76
440.847	15994.29
441.054	16240.05
441.261	17057.19
441.467	16815.53
441.674	17155.49
441.881	17919.39
442.088	17571.23
442.294	17487.26
442.501	18267.54
442.708	18419.09
442.914	19299.72
443.121	19961.21
443.328	19389.83
443.534	20739.44
443.741	20168.05
443.948	20069.75
444.154	20979.05
444.361	21173.61
444.568	21325.16
444.774	21507.43
444.981	21691.74
445.187	22220.12
445.394	23057.74
445.6	22799.69
445.807	25009.45
446.013	23854.4
446.22	24573.24
446.426	25285.93
446.633	25797.92
446.839	26445.08
447.046	25584.93
447.252	26987.79
447.459	26893.58
447.665	26926.35
447.871	27952.38
448.078	29220.08
448.284	27725.06
448.491	28534.01
448.697	29609.19
448.903	30172.38
449.11	30221.53
449.316	29764.84
449.522	30547.16
449.728	31114.45
449.935	31100.11
450.141	31212.75
450.347	32160.96
450.553	30989.52
450.76	31177.93
450.966	32357.56
451.172	31984.83
451.378	33125.55
451.584	32279.74
451.791	33086.64
451.997	33141.94
452.203	33744.04
452.409	33594.54
452.615	33576.11
452.821	32095.42
453.027	31993.03
453.233	33684.65
453.44	32382.14
453.646	32978.1
453.852	32570.55
454.058	33346.73
454.264	32472.25
454.47	32795.83
454.676	32136.38
454.882	33215.66
455.088	30385.37
455.294	31349.96
455.5	31659.21
455.705	32070.85
455.911	30745.81
456.117	30178.53
456.323	29588.71
456.529	27802.88
456.735	29342.95
456.941	28720.37
457.147	28142.85
457.352	27344.14
457.558	27063.57
457.764	26850.58
457.97	26449.18
458.176	25619.75
458.381	25732.39
458.587	24706.35
458.793	24276.28
458.999	23311.69
459.204	25079.08
459.41	24474.93
459.616	22449.49
459.821	22586.71
460.027	22662.48
460.233	22406.48
460.438	20878.7
460.644	21386.6
460.85	20098.42
461.055	19697.02
461.261	19805.56
461.466	18269.59
461.672	17651.1
461.878	19021.19
462.083	17653.15
462.289	17477.02
462.494	17397.15
462.7	16500.14
462.905	16162.23
463.111	16760.23
463.316	16668.08
463.522	16113.08
463.727	16070.07
463.932	16238
464.138	16002.49
464.343	16119.22
464.549	15760.83
464.754	16057.78
464.959	16254.39
465.165	15918.52
465.37	15117.76
465.575	14751.18
465.781	15228.35
465.986	15322.56
466.191	14654.92
466.397	14568.91
466.602	13794.78
466.807	14108.12
