Data from USB4F104151__303__14-34-59-721.txt Node

Date: Thu Mar 13 14:34:59 EDT 2025
User: louis
Spectrometer: USB4F10415
Trigger mode: 4
Integration Time (sec): 2.500000E-2
Scans to average: 1
Electric dark correction enabled: true
Nonlinearity correction enabled: false
Boxcar width: 0
XAxis mode: Wavelengths
Number of Pixels in Spectrum: 3648
>>>>>Begin Spectral Data<<<<<
178.204	-91.99
178.424	-91.99
178.644	-91.99
178.864	-132.95
179.084	-51.03
179.304	-34.64
179.524	-51.03
179.744	4.27
179.964	-1.88
180.184	-8.02
180.404	24.75
180.624	18.6
180.844	-20.31
181.064	6.31
181.283	147.62
181.503	-116.56
181.723	30.89
181.943	-1.88
182.163	98.47
182.383	14.51
182.602	59.56
182.822	51.37
183.042	18.6
183.262	88.23
183.482	51.37
183.701	6.31
183.921	0.17
184.141	-12.12
184.361	88.23
184.58	4.27
184.8	10.41
185.02	30.89
185.239	20.65
185.459	59.56
185.679	73.9
185.898	49.32
186.118	92.33
186.338	2.22
186.557	59.56
186.777	34.99
186.997	12.46
187.216	14.51
187.436	92.33
187.655	55.47
187.875	12.46
188.095	47.27
188.314	47.27
188.534	114.86
188.753	-40.79
188.973	94.38
189.192	198.82
189.412	90.28
189.631	63.66
189.851	32.94
190.07	61.61
190.29	30.89
190.509	18.6
190.729	63.66
190.948	49.32
191.168	170.15
191.387	82.09
191.607	-48.98
191.826	71.85
192.045	22.7
192.265	67.75
192.484	55.47
192.704	96.43
192.923	-22.36
193.142	153.77
193.362	71.85
193.581	51.37
193.8	30.89
194.02	88.23
194.239	47.27
194.458	121
194.678	-26.45
194.897	65.71
195.116	0.17
195.335	82.09
195.555	24.75
195.774	-24.4
195.993	26.79
196.212	75.95
196.432	41.13
196.651	67.75
196.87	26.79
197.089	151.72
197.308	73.9
197.528	57.51
197.747	18.6
197.966	26.79
198.185	106.67
198.404	18.6
198.623	39.08
198.842	16.55
199.062	80.04
199.281	106.67
199.5	6.31
199.719	14.51
199.938	67.75
200.157	49.32
200.376	125.1
200.595	108.71
200.814	98.47
201.033	-5.97
201.252	94.38
201.471	63.66
201.69	96.43
201.909	73.9
202.128	49.32
202.347	49.32
202.566	24.75
202.785	65.71
203.004	26.79
203.223	180.39
203.442	57.51
203.661	45.23
203.879	6.31
204.098	98.47
204.317	-51.03
204.536	137.38
204.755	2.22
204.974	71.85
205.193	49.32
205.411	80.04
205.63	18.6
205.849	104.62
206.068	49.32
206.287	67.75
206.505	67.75
206.724	26.79
206.943	39.08
207.162	51.37
207.381	22.7
207.599	6.31
207.818	77.99
208.037	30.89
208.255	45.23
208.474	80.04
208.693	2.22
208.911	43.18
209.13	26.79
209.349	112.81
209.567	30.89
209.786	49.32
210.005	6.31
210.223	59.56
210.442	-36.69
210.661	67.75
210.879	114.86
211.098	39.08
211.316	-59.22
211.535	106.67
211.753	67.75
211.972	88.23
212.191	30.89
212.409	63.66
212.628	106.67
212.846	41.13
213.065	30.89
213.283	-10.07
213.502	67.75
213.72	63.66
213.938	-10.07
214.157	-1.88
214.375	30.89
214.594	57.51
214.812	47.27
215.031	-16.21
215.249	-59.22
215.467	6.31
215.686	88.23
215.904	86.19
216.122	8.36
216.341	10.41
216.559	67.75
216.778	82.09
216.996	104.62
217.214	2.22
217.432	63.66
217.651	96.43
217.869	30.89
218.087	32.94
218.306	-22.36
218.524	45.23
218.742	0.17
218.96	43.18
219.179	88.23
219.397	37.03
219.615	61.61
219.833	104.62
220.051	-30.55
220.27	153.77
220.488	-18.26
220.706	73.9
220.924	16.55
221.142	32.94
221.36	55.47
221.578	104.62
221.796	-1.88
222.015	22.7
222.233	55.47
222.451	98.47
222.669	-18.26
222.887	116.9
223.105	16.55
223.323	14.51
223.541	26.79
223.759	55.47
223.977	14.51
224.195	57.51
224.413	71.85
224.631	-1.88
224.849	-5.97
225.067	118.95
225.285	-30.55
225.503	18.6
225.721	-48.98
225.939	14.51
226.157	-16.21
226.375	125.1
226.592	-10.07
226.81	123.05
227.028	88.23
227.246	116.9
227.464	39.08
227.682	49.32
227.9	88.23
228.117	88.23
228.335	53.42
228.553	131.24
228.771	32.94
228.989	73.9
229.206	18.6
229.424	108.71
229.642	45.23
229.86	-42.84
230.077	71.85
230.295	-26.45
230.513	82.09
230.731	82.09
230.948	34.99
231.166	82.09
231.384	-44.88
231.601	49.32
231.819	80.04
232.037	24.75
232.254	75.95
232.472	69.8
232.689	0.17
232.907	75.95
233.125	-18.26
233.342	43.18
233.56	55.47
233.777	75.95
233.995	51.37
234.213	51.37
234.43	53.42
234.648	65.71
234.865	-1.88
235.083	127.14
235.3	16.55
235.518	98.47
235.735	71.85
235.953	104.62
236.17	49.32
236.388	-26.45
236.605	30.89
236.822	73.9
237.04	69.8
237.257	71.85
237.475	0.17
237.692	30.89
237.909	8.36
238.127	37.03
238.344	108.71
238.562	53.42
238.779	14.51
238.996	75.95
239.214	47.27
239.431	47.27
239.648	6.31
239.865	34.99
240.083	114.86
240.3	57.51
240.517	108.71
240.735	65.71
240.952	108.71
241.169	53.42
241.386	6.31
241.603	47.27
241.821	6.31
242.038	39.08
242.255	-10.07
242.472	26.79
242.689	112.81
242.907	139.43
243.124	24.75
243.341	39.08
243.558	24.75
243.775	-32.6
243.992	14.51
244.209	30.89
244.426	157.86
244.643	73.9
244.86	-18.26
245.078	82.09
245.295	51.37
245.512	82.09
245.729	45.23
245.946	69.8
246.163	43.18
246.38	55.47
246.597	-3.93
246.814	24.75
247.031	108.71
247.248	47.27
247.464	116.9
247.681	73.9
247.898	69.8
248.115	112.81
248.332	-8.02
248.549	98.47
248.766	108.71
248.983	98.47
249.2	30.89
249.417	73.9
249.633	55.47
249.85	80.04
250.067	-3.93
250.284	57.51
250.501	108.71
250.717	41.13
250.934	55.47
251.151	34.99
251.368	-8.02
251.585	16.55
251.801	104.62
252.018	-16.21
252.235	82.09
252.451	-32.6
252.668	84.14
252.885	20.65
253.102	90.28
253.318	75.95
253.535	26.79
253.752	30.89
253.968	12.46
254.185	94.38
254.401	24.75
254.618	123.05
254.835	-55.12
255.051	104.62
255.268	96.43
255.484	96.43
255.701	-18.26
255.917	47.27
256.134	12.46
256.351	65.71
256.567	28.84
256.784	41.13
257	-51.03
257.217	-32.6
257.433	41.13
257.65	22.7
257.866	84.14
258.082	14.51
258.299	0.17
258.515	26.79
258.732	8.36
258.948	34.99
259.165	116.9
259.381	18.6
259.597	0.17
259.814	6.31
260.03	-18.26
260.246	6.31
260.463	75.95
260.679	65.71
260.895	22.7
261.112	61.61
261.328	41.13
261.544	30.89
261.761	49.32
261.977	-42.84
262.193	-44.88
262.409	39.08
262.626	63.66
262.842	6.31
263.058	22.7
263.274	39.08
263.49	80.04
263.707	110.76
263.923	49.32
264.139	-81.75
264.355	4.27
264.571	118.95
264.787	71.85
265.004	88.23
265.22	75.95
265.436	-3.93
265.652	80.04
265.868	49.32
266.084	-30.55
266.3	67.75
266.516	8.36
266.732	92.33
266.948	-10.07
267.164	-24.4
267.38	67.75
267.596	16.55
267.812	153.77
268.028	63.66
268.244	8.36
268.46	24.75
268.676	8.36
268.892	-5.97
269.108	30.89
269.324	6.31
269.54	-5.97
269.756	100.52
269.972	6.31
270.188	75.95
270.403	75.95
270.619	16.55
270.835	67.75
271.051	47.27
271.267	6.31
271.483	22.7
271.698	57.51
271.914	112.81
272.13	47.27
272.346	-51.03
272.562	63.66
272.777	88.23
272.993	-8.02
273.209	47.27
273.425	8.36
273.64	16.55
273.856	-16.21
274.072	2.22
274.287	-48.98
274.503	22.7
274.719	104.62
274.934	39.08
275.15	26.79
275.366	6.31
275.581	-18.26
275.797	92.33
276.012	77.99
276.228	63.66
276.444	69.8
276.659	39.08
276.875	49.32
277.09	39.08
277.306	57.51
277.521	47.27
277.737	30.89
277.952	112.81
278.168	2.22
278.383	51.37
278.599	49.32
278.814	39.08
279.03	65.71
279.245	84.14
279.461	75.95
279.676	116.9
279.892	47.27
280.107	8.36
280.322	47.27
280.538	47.27
280.753	18.6
280.969	18.6
281.184	30.89
281.399	92.33
281.615	-24.4
281.83	32.94
282.045	0.17
282.26	65.71
282.476	14.51
282.691	22.7
282.906	47.27
283.122	39.08
283.337	53.42
283.552	80.04
283.767	14.51
283.983	67.75
284.198	63.66
284.413	82.09
284.628	12.46
284.843	49.32
285.058	69.8
285.274	18.6
285.489	0.17
285.704	55.47
285.919	39.08
286.134	32.94
286.349	32.94
286.564	14.51
286.779	88.23
286.995	18.6
287.21	43.18
287.425	67.75
287.64	-10.07
287.855	82.09
288.07	43.18
288.285	28.84
288.5	129.19
288.715	41.13
288.93	2.22
289.145	47.27
289.36	73.9
289.575	73.9
289.79	127.14
290.004	-18.26
290.219	55.47
290.434	-55.12
290.649	-36.69
290.864	65.71
291.079	10.41
291.294	-1.88
291.509	49.32
291.724	47.27
291.938	73.9
292.153	80.04
292.368	47.27
292.583	92.33
292.798	116.9
293.012	63.66
293.227	-34.64
293.442	39.08
293.657	82.09
293.871	161.96
294.086	49.32
294.301	71.85
294.516	75.95
294.73	41.13
294.945	-22.36
295.16	14.51
295.374	65.71
295.589	67.75
295.804	39.08
296.018	75.95
296.233	90.28
296.447	28.84
296.662	22.7
296.877	59.56
297.091	47.27
297.306	-5.97
297.52	6.31
297.735	100.52
297.949	22.7
298.164	61.61
298.378	-18.26
298.593	-42.84
298.807	65.71
299.022	-5.97
299.236	53.42
299.451	22.7
299.665	22.7
299.88	-20.31
300.094	30.89
300.309	24.75
300.523	24.75
300.737	39.08
300.952	20.65
301.166	47.27
301.381	-34.64
301.595	71.85
301.809	32.94
302.024	-14.17
302.238	24.75
302.452	22.7
302.667	51.37
302.881	121
303.095	41.13
303.309	88.23
303.524	14.51
303.738	59.56
303.952	6.31
304.166	90.28
304.381	-32.6
304.595	55.47
304.809	30.89
305.023	80.04
305.237	6.31
305.452	-10.07
305.666	22.7
305.88	47.27
306.094	-5.97
306.308	8.36
306.522	55.47
306.736	112.81
306.95	90.28
307.164	6.31
307.379	37.03
307.593	63.66
307.807	137.38
308.021	53.42
308.235	59.56
308.449	24.75
308.663	20.65
308.877	96.43
309.091	55.47
309.305	73.9
309.519	-1.88
309.733	47.27
309.947	30.89
310.161	55.47
310.374	24.75
310.588	59.56
310.802	80.04
311.016	71.85
311.23	30.89
311.444	12.46
311.658	22.7
311.872	47.27
312.085	123.05
312.299	10.41
312.513	80.04
312.727	71.85
312.941	30.89
313.154	141.48
313.368	24.75
313.582	30.89
313.796	104.62
314.009	67.75
314.223	8.36
314.437	45.23
314.651	49.32
314.864	57.51
315.078	34.99
315.292	41.13
315.505	47.27
315.719	112.81
315.933	39.08
316.146	96.43
316.36	4.27
316.573	43.18
316.787	100.52
317.001	129.19
317.214	-42.84
317.428	88.23
317.641	88.23
317.855	73.9
318.068	104.62
318.282	100.52
318.495	47.27
318.709	69.8
318.922	51.37
319.136	41.13
319.349	178.34
319.563	94.38
319.776	102.57
319.99	-91.99
320.203	151.72
320.417	51.37
320.63	75.95
320.843	133.29
321.057	51.37
321.27	-1.88
321.483	73.9
321.697	55.47
321.91	47.27
322.124	77.99
322.337	55.47
322.55	26.79
322.763	-22.36
322.977	67.75
323.19	55.47
323.403	65.71
323.617	100.52
323.83	106.67
324.043	51.37
324.256	82.09
324.469	125.1
324.683	80.04
324.896	104.62
325.109	47.27
325.322	-30.55
325.535	73.9
325.748	34.99
325.962	24.75
326.175	71.85
326.388	73.9
326.601	24.75
326.814	18.6
327.027	8.36
327.24	153.77
327.453	-1.88
327.666	75.95
327.879	39.08
328.092	92.33
328.305	51.37
328.518	55.47
328.731	88.23
328.944	22.7
329.157	94.38
329.37	73.9
329.583	106.67
329.796	26.79
330.009	-24.4
330.222	77.99
330.435	39.08
330.648	121
330.861	-24.4
331.073	39.08
331.286	153.77
331.499	88.23
331.712	39.08
331.925	96.43
332.138	110.76
332.35	137.38
332.563	55.47
332.776	47.27
332.989	10.41
333.202	90.28
333.414	59.56
333.627	2.22
333.84	65.71
334.053	59.56
334.265	47.27
334.478	59.56
334.691	71.85
334.903	39.08
335.116	39.08
335.329	98.47
335.541	24.75
335.754	84.14
335.966	22.7
336.179	30.89
336.392	-30.55
336.604	30.89
336.817	49.32
337.029	90.28
337.242	8.36
337.454	65.71
337.667	-14.17
337.88	100.52
338.092	80.04
338.305	88.23
338.517	-51.03
338.729	100.52
338.942	71.85
339.154	24.75
339.367	8.36
339.579	86.19
339.792	96.43
340.004	-5.97
340.217	49.32
340.429	116.9
340.641	65.71
340.854	10.41
341.066	8.36
341.278	80.04
341.491	129.19
341.703	24.75
341.915	131.24
342.128	45.23
342.34	43.18
342.552	24.75
342.764	39.08
342.977	22.7
343.189	43.18
343.401	6.31
343.613	24.75
343.826	39.08
344.038	-5.97
344.25	63.66
344.462	14.51
344.674	84.14
344.886	73.9
345.099	90.28
345.311	32.94
345.523	18.6
345.735	24.75
345.947	65.71
346.159	-61.27
346.371	65.71
346.583	2.22
346.795	153.77
347.007	10.41
347.219	112.81
347.431	49.32
347.643	26.79
347.855	55.47
348.067	67.75
348.279	47.27
348.491	98.47
348.703	37.03
348.915	98.47
349.127	20.65
349.339	39.08
349.551	121
349.763	-24.4
349.975	41.13
350.187	16.55
350.399	32.94
350.61	114.86
350.822	26.79
351.034	63.66
351.246	112.81
351.458	41.13
351.669	65.71
351.881	80.04
352.093	82.09
352.305	67.75
352.517	67.75
352.728	116.9
352.94	57.51
353.152	26.79
353.363	75.95
353.575	98.47
353.787	90.28
353.999	88.23
354.21	133.29
354.422	57.51
354.633	104.62
354.845	96.43
355.057	12.46
355.268	71.85
355.48	63.66
355.692	112.81
355.903	149.67
356.115	73.9
356.326	14.51
356.538	92.33
356.749	84.14
356.961	71.85
357.172	84.14
357.384	10.41
357.595	121
357.807	71.85
358.018	-14.17
358.23	67.75
358.441	10.41
358.653	-10.07
358.864	61.61
359.075	-18.26
359.287	55.47
359.498	145.58
359.709	92.33
359.921	88.23
360.132	88.23
360.344	32.94
360.555	104.62
360.766	71.85
360.977	43.18
361.189	75.95
361.4	39.08
361.611	98.47
361.823	82.09
362.034	88.23
362.245	18.6
362.456	-34.64
362.667	98.47
362.879	-10.07
363.09	88.23
363.301	51.37
363.512	90.28
363.723	6.31
363.935	63.66
364.146	137.38
364.357	104.62
364.568	41.13
364.779	-3.93
364.99	80.04
365.201	8.36
365.412	129.19
365.623	-48.98
365.834	88.23
366.045	47.27
366.256	71.85
366.467	37.03
366.678	71.85
366.889	47.27
367.1	57.51
367.311	75.95
367.522	14.51
367.733	67.75
367.944	59.56
368.155	-26.45
368.366	112.81
368.577	110.76
368.788	110.76
368.999	51.37
369.209	59.56
369.42	104.62
369.631	186.54
369.842	98.47
370.053	77.99
370.264	104.62
370.474	57.51
370.685	30.89
370.896	-5.97
371.107	143.53
371.317	55.47
371.528	59.56
371.739	63.66
371.95	123.05
372.16	90.28
372.371	-10.07
372.582	55.47
372.792	112.81
373.003	41.13
373.214	24.75
373.424	63.66
373.635	69.8
373.846	30.89
374.056	133.29
374.267	88.23
374.477	43.18
374.688	73.9
374.898	55.47
375.109	71.85
375.319	22.7
375.53	71.85
375.74	80.04
375.951	82.09
376.161	32.94
376.372	157.86
376.582	43.18
376.793	86.19
377.003	100.52
377.214	37.03
377.424	24.75
377.635	67.75
377.845	100.52
378.055	116.9
378.266	32.94
378.476	39.08
378.686	96.43
378.897	65.71
379.107	127.14
379.317	63.66
379.528	73.9
379.738	77.99
379.948	69.8
380.158	57.51
380.369	-24.4
380.579	10.41
380.789	26.79
380.999	139.43
381.21	104.62
381.42	110.76
381.63	96.43
381.84	77.99
382.05	32.94
382.261	96.43
382.471	141.48
382.681	-1.88
382.891	112.81
383.101	135.34
383.311	112.81
383.521	0.17
383.731	80.04
383.941	129.19
384.151	51.37
384.361	14.51
384.571	104.62
384.781	80.04
384.991	104.62
385.201	59.56
385.411	96.43
385.621	108.71
385.831	84.14
386.041	30.89
386.251	55.47
386.461	80.04
386.671	41.13
386.881	39.08
387.091	57.51
387.301	82.09
387.511	22.7
387.72	41.13
387.93	123.05
388.14	65.71
388.35	16.55
388.56	39.08
388.769	141.48
388.979	71.85
389.189	80.04
389.399	88.23
389.609	104.62
389.818	47.27
390.028	100.52
390.238	63.66
390.447	63.66
390.657	116.9
390.867	96.43
391.076	14.51
391.286	114.86
391.496	24.75
391.705	65.71
391.915	108.71
392.125	129.19
392.334	73.9
392.544	194.73
392.753	82.09
392.963	116.9
393.172	73.9
393.382	106.67
393.591	77.99
393.801	88.23
394.01	96.43
394.22	168.1
394.429	39.08
394.639	22.7
394.848	82.09
395.058	131.24
395.267	43.18
395.477	114.86
395.686	45.23
395.895	90.28
396.105	145.58
396.314	32.94
396.524	106.67
396.733	96.43
396.942	194.73
397.152	112.81
397.361	139.43
397.57	106.67
397.78	106.67
397.989	161.96
398.198	104.62
398.407	123.05
398.617	55.47
398.826	51.37
399.035	153.77
399.244	174.25
399.453	98.47
399.663	194.73
399.872	164.01
400.081	108.71
400.29	137.38
400.499	96.43
400.708	94.38
400.917	166.06
401.127	186.54
401.336	141.48
401.545	186.54
401.754	164.01
401.963	153.77
402.172	114.86
402.381	129.19
402.59	116.9
402.799	211.11
403.008	241.83
403.217	153.77
403.426	137.38
403.635	141.48
403.844	121
404.053	108.71
404.262	176.3
404.471	202.92
404.68	219.3
404.888	198.82
405.097	174.25
405.306	227.5
405.515	209.06
405.724	186.54
405.933	186.54
406.142	219.3
406.35	215.21
406.559	254.12
406.768	166.06
406.977	309.41
407.185	225.45
407.394	309.41
407.603	209.06
407.812	288.93
408.02	290.98
408.229	250.02
408.438	325.8
408.646	219.3
408.855	280.74
409.064	295.08
409.272	323.75
409.481	336.04
409.69	321.7
409.898	262.31
410.107	336.04
410.315	391.33
410.524	336.04
410.733	467.11
410.941	438.44
411.15	442.53
411.358	424.1
411.567	510.11
411.775	362.66
411.984	415.91
412.192	485.54
412.401	571.55
412.609	551.07
412.818	632.99
413.026	620.71
413.234	612.51
413.443	596.13
413.651	655.52
413.86	714.91
414.068	723.1
414.276	712.86
414.485	706.72
414.693	794.78
414.901	870.56
415.11	809.12
415.318	893.09
415.526	866.46
415.734	909.47
415.943	911.52
416.151	1063.07
416.359	891.04
416.567	1063.07
416.776	993.44
416.984	1073.31
417.192	1218.71
417.4	1169.56
417.608	1179.8
417.817	1300.63
418.025	1261.72
418.233	1458.32
418.441	1259.67
418.649	1405.08
418.857	1466.52
419.065	1532.05
419.273	1497.24
419.481	1620.11
419.689	1654.93
419.897	1656.98
420.105	1865.87
420.313	1882.25
420.521	1861.77
420.729	1910.93
420.937	1890.45
421.145	1988.75
421.353	2005.13
421.561	2136.2
421.769	2326.66
421.977	2480.26
422.185	2257.03
422.393	2472.07
422.601	2752.64
422.809	2670.72
423.017	2672.77
423.224	2775.17
423.432	2855.04
423.64	2906.24
423.848	3188.86
424.056	3162.23
424.263	3364.98
424.471	3373.18
424.679	3375.22
424.887	3491.96
425.094	3743.86
425.302	3717.23
425.51	3750
425.718	3852.4
425.925	3965.04
426.133	4126.83
426.341	4282.47
426.548	4472.93
426.756	4569.19
426.964	4577.38
427.171	4923.49
427.379	4890.72
427.586	5167.2
427.794	5285.98
428.001	5458.01
428.209	5716.05
428.417	5656.66
428.624	6025.29
428.832	5974.1
429.039	5875.79
429.247	5992.53
429.454	6500.42
429.662	6991.94
429.869	6412.36
430.076	7002.18
430.284	6832.19
430.491	7071.81
430.699	7518.26
430.906	7395.39
431.114	7571.51
431.321	7794.74
431.528	7979.06
431.736	8507.43
431.943	8880.16
432.15	8452.14
432.358	8810.53
432.565	9084.96
432.772	8863.78
432.979	9717.78
433.187	9582.62
433.394	9719.83
433.601	10436.62
433.808	10543.11
434.016	10379.28
434.223	10739.72
434.43	11440.12
434.637	11190.27
434.844	12167.15
435.052	12060.66
435.259	11694.07
435.466	12085.23
435.673	11970.55
435.88	12787.69
436.087	13467.61
436.294	13606.88
436.501	13039.59
436.708	13316.06
436.915	13934.55
437.122	14489.55
437.329	14448.59
437.537	14768.07
437.743	15124.42
437.95	14915.53
438.157	16027.57
438.364	16408.5
438.571	16164.79
438.778	16332.72
438.985	17852.31
439.192	17000.36
439.399	17723.29
439.606	17323.94
439.813	18317.2
440.02	19459.97
440.227	19128.2
440.433	18882.44
440.64	19396.48
440.847	19537.79
441.054	19978.11
441.261	21086.06
441.467	20737.9
441.674	21210.98
441.881	21985.12
442.088	21788.51
442.294	21692.26
442.501	22077.27
442.708	23066.44
442.914	23756.61
443.121	24694.58
443.328	23912.25
443.534	25810.72
443.741	25038.64
443.948	24844.08
444.154	26402.58
444.361	26257.18
444.568	26595.09
444.774	26527.51
444.981	26787.6
445.187	26896.14
445.394	28657.4
445.6	28423.93
445.807	31256.27
446.013	29738.72
446.22	30093.02
446.426	31755.97
446.633	31930.05
446.839	32925.36
447.046	31366.86
447.252	33095.35
447.459	33140.4
447.665	32978.61
447.871	34238.11
448.078	35739.27
448.284	34059.94
448.491	34868.89
448.697	36630.14
448.903	37289.59
449.11	37156.47
449.316	36785.79
449.522	37244.53
449.728	38364.77
449.935	38676.06
450.141	38430.3
450.347	39165.53
450.553	38178.4
450.76	38573.66
450.966	39675.47
451.172	39362.13
451.378	40228.42
451.584	39724.62
451.791	40500.8
451.997	40441.41
452.203	40943.16
452.409	41231.93
452.615	41256.5
452.821	39452.24
453.027	38979.16
453.233	41135.67
453.44	39331.41
453.646	39847.5
453.852	39865.93
454.058	40701.5
454.264	39108.18
454.47	40248.9
454.676	39108.18
454.882	40773.18
455.088	37142.13
455.294	37504.62
455.5	38164.07
455.705	38514.27
455.911	37113.46
456.117	36318.85
456.323	36042.37
456.529	33922.73
456.735	35301.01
456.941	34582.17
457.147	33865.38
457.352	33064.63
457.558	32419.52
457.764	32755.38
457.97	31776.45
458.176	31213.26
458.381	31041.23
458.587	29992.67
458.793	29456.11
458.999	28446.46
459.204	29947.62
459.41	29198.06
459.616	27619.08
459.821	27289.35
460.027	27379.46
460.233	26742.55
460.438	25548.58
460.644	25528.1
460.85	24497.97
461.055	23951.17
461.261	24033.08
461.466	22515.54
461.672	21751.65
461.878	23187.27
462.083	21299.05
462.289	21292.9
462.494	21180.26
462.7	20080.5
462.905	19423.11
463.111	20170.61
463.316	20504.43
463.522	19769.21
463.727	19511.17
463.932	19709.82
464.138	19324.8
464.343	19568.51
464.549	19023.75
464.754	19732.35
464.959	19607.42
465.165	19431.3
465.37	18200.47
465.575	17872.79
465.781	18386.83
465.986	18589.58
466.191	18249.62
466.397	17678.24
466.602	16893.86
466.807	17518.5
467.012	17364.9
