Data from USB4F104151__53__14-30-01-806.txt Node

Date: Thu Mar 13 14:30:01 EDT 2025
User: louis
Spectrometer: USB4F10415
Trigger mode: 4
Integration Time (sec): 2.500000E-2
Scans to average: 1
Electric dark correction enabled: true
Nonlinearity correction enabled: false
Boxcar width: 0
XAxis mode: Wavelengths
Number of Pixels in Spectrum: 3648
>>>>>Begin Spectral Data<<<<<
178.204	-114.86
178.424	-114.86
178.644	-114.86
178.864	-112.81
179.084	-94.38
179.304	14.17
179.524	-28.84
179.744	-10.41
179.964	-0.17
180.184	-53.42
180.404	-63.66
180.624	61.27
180.844	-4.27
181.064	32.6
181.283	36.69
181.503	-16.55
181.723	32.6
181.943	-133.29
182.163	87.89
182.383	-16.55
182.602	98.13
182.822	81.75
183.042	8.02
183.262	14.17
183.482	65.36
183.701	10.07
183.921	16.21
184.141	32.6
184.361	61.27
184.58	-30.89
184.8	55.12
185.02	18.26
185.239	89.94
185.459	-4.27
185.679	48.98
185.898	-53.42
186.118	-22.7
186.338	122.71
186.557	30.55
186.777	-12.46
186.997	-20.65
187.216	3.93
187.436	69.46
187.655	-22.7
187.875	65.36
188.095	-4.27
188.314	130.9
188.534	-4.27
188.753	8.02
188.973	-0.17
189.192	106.32
189.412	-16.55
189.631	-26.79
189.851	57.17
190.07	85.84
190.29	22.36
190.509	-8.36
190.729	-16.55
190.948	48.98
191.168	145.24
191.387	132.95
191.607	5.97
191.826	61.27
192.045	3.93
192.265	48.98
192.484	-39.08
192.704	10.07
192.923	-18.6
193.142	100.18
193.362	8.02
193.581	130.9
193.8	53.08
194.02	51.03
194.239	14.17
194.458	-0.17
194.678	26.45
194.897	24.4
195.116	89.94
195.335	20.31
195.555	24.4
195.774	44.88
195.993	32.6
196.212	28.5
196.432	34.64
196.651	24.4
196.87	12.12
197.089	139.09
197.308	-28.84
197.528	61.27
197.747	8.02
197.966	69.46
198.185	104.28
198.404	-10.41
198.623	51.03
198.842	32.6
199.062	145.24
199.281	48.98
199.5	53.08
199.719	42.84
199.938	34.64
200.157	16.21
200.376	94.04
200.595	75.6
200.814	77.65
201.033	-22.7
201.252	32.6
201.471	59.22
201.69	42.84
201.909	40.79
202.128	1.88
202.347	-6.31
202.566	32.6
202.785	34.64
203.004	10.07
203.223	89.94
203.442	69.46
203.661	38.74
203.879	48.98
204.098	59.22
204.317	34.64
204.536	48.98
204.755	89.94
204.974	3.93
205.193	40.79
205.411	24.4
205.63	3.93
205.849	-24.75
206.068	75.6
206.287	-8.36
206.505	51.03
206.724	36.69
206.943	24.4
207.162	57.17
207.381	-0.17
207.599	96.08
207.818	18.26
208.037	67.41
208.255	40.79
208.474	-0.17
208.693	26.45
208.911	5.97
209.13	12.12
209.349	34.64
209.567	51.03
209.786	8.02
210.005	-8.36
210.223	-22.7
210.442	-16.55
210.661	130.9
210.879	-4.27
211.098	75.6
211.316	91.99
211.535	16.21
211.753	16.21
211.972	1.88
212.191	75.6
212.409	137.04
212.628	69.46
212.846	61.27
213.065	63.32
213.283	65.36
213.502	-2.22
213.72	34.64
213.938	-16.55
214.157	24.4
214.375	44.88
214.594	44.88
214.812	63.32
215.031	67.41
215.249	55.12
215.467	44.88
215.686	36.69
215.904	118.61
216.122	-8.36
216.341	98.13
216.559	42.84
216.778	122.71
216.996	122.71
217.214	73.56
217.432	16.21
217.651	-47.27
217.869	42.84
218.087	-0.17
218.306	63.32
218.524	-4.27
218.742	53.08
218.96	-2.22
219.179	-30.89
219.397	3.93
219.615	40.79
219.833	40.79
220.051	32.6
220.27	59.22
220.488	48.98
220.706	24.4
220.924	44.88
221.142	59.22
221.36	59.22
221.578	61.27
221.796	57.17
222.015	-14.51
222.233	48.98
222.451	65.36
222.669	32.6
222.887	55.12
223.105	8.02
223.323	-14.51
223.541	48.98
223.759	8.02
223.977	-16.55
224.195	114.52
224.413	-14.51
224.631	8.02
224.849	57.17
225.067	75.6
225.285	-24.75
225.503	-8.36
225.721	-30.89
225.939	89.94
226.157	48.98
226.375	89.94
226.592	-8.36
226.81	91.99
227.028	91.99
227.246	67.41
227.464	20.31
227.682	53.08
227.9	85.84
228.117	26.45
228.335	18.26
228.553	75.6
228.771	75.6
228.989	10.07
229.206	1.88
229.424	16.21
229.642	67.41
229.86	32.6
230.077	73.56
230.295	114.52
230.513	63.32
230.731	67.41
230.948	114.52
231.166	48.98
231.384	14.17
231.601	-20.65
231.819	51.03
232.037	-12.46
232.254	-69.8
232.472	-8.36
232.689	-12.46
232.907	48.98
233.125	108.37
233.342	40.79
233.56	12.12
233.777	-8.36
233.995	108.37
234.213	65.36
234.43	75.6
234.648	24.4
234.865	51.03
235.083	-12.46
235.3	46.93
235.518	26.45
235.735	147.28
235.953	48.98
236.17	1.88
236.388	32.6
236.605	14.17
236.822	59.22
237.04	28.5
237.257	73.56
237.475	26.45
237.692	30.55
237.909	-51.37
238.127	122.71
238.344	59.22
238.562	-6.31
238.779	-10.41
238.996	40.79
239.214	67.41
239.431	114.52
239.648	-37.03
239.865	89.94
240.083	34.64
240.3	55.12
240.517	14.17
240.735	83.8
240.952	89.94
241.169	114.52
241.386	42.84
241.603	98.13
241.821	1.88
242.038	63.32
242.255	32.6
242.472	18.26
242.689	65.36
242.907	40.79
243.124	16.21
243.341	36.69
243.558	32.6
243.775	-0.17
243.992	1.88
244.209	40.79
244.426	149.33
244.643	63.32
244.86	24.4
245.078	67.41
245.295	28.5
245.512	28.5
245.729	-0.17
245.946	116.56
246.163	153.43
246.38	57.17
246.597	-47.27
246.814	18.26
247.031	65.36
247.248	57.17
247.464	114.52
247.681	89.94
247.898	32.6
248.115	8.02
248.332	-8.36
248.549	8.02
248.766	81.75
248.983	94.04
249.2	28.5
249.417	98.13
249.633	20.31
249.85	73.56
250.067	-0.17
250.284	-0.17
250.501	73.56
250.717	28.5
250.934	40.79
251.151	48.98
251.368	34.64
251.585	91.99
251.801	71.51
252.018	57.17
252.235	65.36
252.451	-30.89
252.668	57.17
252.885	75.6
253.102	3.93
253.318	-6.31
253.535	-45.23
253.752	32.6
253.968	28.5
254.185	10.07
254.401	48.98
254.618	83.8
254.835	-6.31
255.051	63.32
255.268	63.32
255.484	91.99
255.701	61.27
255.917	53.08
256.134	42.84
256.351	18.26
256.567	-0.17
256.784	63.32
257	-20.65
257.217	110.42
257.433	57.17
257.65	-8.36
257.866	69.46
258.082	1.88
258.299	-32.94
258.515	24.4
258.732	-0.17
258.948	57.17
259.165	53.08
259.381	42.84
259.597	-4.27
259.814	-37.03
260.03	87.89
260.246	42.84
260.463	118.61
260.679	126.8
260.895	57.17
261.112	8.02
261.328	28.5
261.544	-22.7
261.761	122.71
261.977	1.88
262.193	-73.9
262.409	61.27
262.626	89.94
262.842	26.45
263.058	1.88
263.274	-8.36
263.49	32.6
263.707	48.98
263.923	42.84
264.139	40.79
264.355	-34.99
264.571	69.46
264.787	73.56
265.004	57.17
265.22	85.84
265.436	10.07
265.652	57.17
265.868	20.31
266.084	48.98
266.3	32.6
266.516	-10.41
266.732	98.13
266.948	120.66
267.164	46.93
267.38	79.7
267.596	108.37
267.812	155.47
268.028	122.71
268.244	20.31
268.46	8.02
268.676	24.4
268.892	26.45
269.108	-6.31
269.324	-63.66
269.54	26.45
269.756	87.89
269.972	16.21
270.188	40.79
270.403	51.03
270.619	48.98
270.835	34.64
271.051	46.93
271.267	73.56
271.483	-18.6
271.698	44.88
271.914	53.08
272.13	-96.43
272.346	-37.03
272.562	73.56
272.777	89.94
272.993	40.79
273.209	34.64
273.425	-43.18
273.64	1.88
273.856	38.74
274.072	46.93
274.287	-6.31
274.503	75.6
274.719	-0.17
274.934	40.79
275.15	-24.75
275.366	126.8
275.581	67.41
275.797	48.98
276.012	40.79
276.228	-4.27
276.444	32.6
276.659	122.71
276.875	20.31
277.09	32.6
277.306	57.17
277.521	63.32
277.737	63.32
277.952	87.89
278.168	12.12
278.383	81.75
278.599	26.45
278.814	5.97
279.03	79.7
279.245	81.75
279.461	89.94
279.676	40.79
279.892	-8.36
280.107	-6.31
280.322	1.88
280.538	57.17
280.753	77.65
280.969	32.6
281.184	12.12
281.399	98.13
281.615	108.37
281.83	73.56
282.045	42.84
282.26	12.12
282.476	10.07
282.691	36.69
282.906	38.74
283.122	57.17
283.337	51.03
283.552	42.84
283.767	-30.89
283.983	32.6
284.198	67.41
284.413	130.9
284.628	-16.55
284.843	65.36
285.058	89.94
285.274	94.04
285.489	67.41
285.704	114.52
285.919	10.07
286.134	40.79
286.349	-47.27
286.564	10.07
286.779	91.99
286.995	8.02
287.21	12.12
287.425	89.94
287.64	-45.23
287.855	57.17
288.07	8.02
288.285	24.4
288.5	98.13
288.715	53.08
288.93	-12.46
289.145	42.84
289.36	89.94
289.575	36.69
289.79	130.9
290.004	1.88
290.219	51.03
290.434	-18.6
290.649	-6.31
290.864	26.45
291.079	73.56
291.294	44.88
291.509	8.02
291.724	-16.55
291.938	-0.17
292.153	100.18
292.368	32.6
292.583	-49.32
292.798	65.36
293.012	48.98
293.227	24.4
293.442	122.71
293.657	1.88
293.871	26.45
294.086	30.55
294.301	77.65
294.516	91.99
294.73	112.47
294.945	-18.6
295.16	79.7
295.374	57.17
295.589	106.32
295.804	28.5
296.018	18.26
296.233	149.33
296.447	73.56
296.662	42.84
296.877	85.84
297.091	48.98
297.306	-4.27
297.52	40.79
297.735	42.84
297.949	44.88
298.164	12.12
298.378	20.31
298.593	28.5
298.807	12.12
299.022	-0.17
299.236	48.98
299.451	40.79
299.665	69.46
299.88	-24.75
300.094	32.6
300.309	65.36
300.523	81.75
300.737	73.56
300.952	73.56
301.166	53.08
301.381	8.02
301.595	120.66
301.809	48.98
302.024	-10.41
302.238	-41.13
302.452	51.03
302.667	53.08
302.881	40.79
303.095	65.36
303.309	42.84
303.524	61.27
303.738	59.22
303.952	24.4
304.166	44.88
304.381	16.21
304.595	106.32
304.809	30.55
305.023	48.98
305.237	48.98
305.452	51.03
305.666	-14.51
305.88	98.13
306.094	98.13
306.308	71.51
306.522	28.5
306.736	44.88
306.95	20.31
307.164	10.07
307.379	16.21
307.593	98.13
307.807	48.98
308.021	10.07
308.235	100.18
308.449	26.45
308.663	-4.27
308.877	81.75
309.091	63.32
309.305	51.03
309.519	67.41
309.733	57.17
309.947	12.12
310.161	65.36
310.374	18.26
310.588	73.56
310.802	32.6
311.016	-0.17
311.23	112.47
311.444	8.02
311.658	32.6
311.872	91.99
312.085	36.69
312.299	98.13
312.513	53.08
312.727	57.17
312.941	91.99
313.154	28.5
313.368	61.27
313.582	57.17
313.796	75.6
314.009	-0.17
314.223	130.9
314.437	69.46
314.651	67.41
314.864	-22.7
315.078	137.04
315.292	81.75
315.505	30.55
315.719	51.03
315.933	73.56
316.146	18.26
316.36	-4.27
316.573	59.22
316.787	53.08
317.001	83.8
317.214	-39.08
317.428	-22.7
317.641	12.12
317.855	73.56
318.068	24.4
318.282	26.45
318.495	116.56
318.709	67.41
318.922	-14.51
319.136	106.32
319.349	135
319.563	89.94
319.776	32.6
319.99	32.6
320.203	32.6
320.417	89.94
320.63	57.17
320.843	81.75
321.057	65.36
321.27	81.75
321.483	81.75
321.697	98.13
321.91	94.04
322.124	57.17
322.337	46.93
322.55	5.97
322.763	34.64
322.977	28.5
323.19	-0.17
323.403	51.03
323.617	48.98
323.83	40.79
324.043	67.41
324.256	110.42
324.469	-8.36
324.683	77.65
324.896	89.94
325.109	98.13
325.322	22.36
325.535	48.98
325.748	114.52
325.962	73.56
326.175	73.56
326.388	48.98
326.601	73.56
326.814	61.27
327.027	-32.94
327.24	65.36
327.453	-14.51
327.666	110.42
327.879	40.79
328.092	81.75
328.305	89.94
328.518	63.32
328.731	-4.27
328.944	122.71
329.157	-20.65
329.37	20.31
329.583	73.56
329.796	44.88
330.009	28.5
330.222	65.36
330.435	48.98
330.648	10.07
330.861	-32.94
331.073	53.08
331.286	122.71
331.499	91.99
331.712	-16.55
331.925	69.46
332.138	24.4
332.35	89.94
332.563	73.56
332.776	48.98
332.989	89.94
333.202	40.79
333.414	14.17
333.627	83.8
333.84	18.26
334.053	114.52
334.265	48.98
334.478	63.32
334.691	28.5
334.903	102.23
335.116	98.13
335.329	-16.55
335.541	149.33
335.754	3.93
335.966	12.12
336.179	-32.94
336.392	16.21
336.604	75.6
336.817	51.03
337.029	20.31
337.242	28.5
337.454	16.21
337.667	67.41
337.88	89.94
338.092	83.8
338.305	83.8
338.517	28.5
338.729	63.32
338.942	89.94
339.154	81.75
339.367	-96.43
339.579	69.46
339.792	-10.41
340.004	51.03
340.217	42.84
340.429	75.6
340.641	28.5
340.854	57.17
341.066	-0.17
341.278	145.24
341.491	98.13
341.703	65.36
341.915	89.94
342.128	18.26
342.34	53.08
342.552	51.03
342.764	26.45
342.977	57.17
343.189	44.88
343.401	44.88
343.613	-22.7
343.826	51.03
344.038	18.26
344.25	57.17
344.462	-14.51
344.674	48.98
344.886	-6.31
345.099	20.31
345.311	26.45
345.523	-41.13
345.735	-32.94
345.947	79.7
346.159	42.84
346.371	48.98
346.583	98.13
346.795	71.51
347.007	32.6
347.219	59.22
347.431	22.36
347.643	69.46
347.855	69.46
348.067	46.93
348.279	1.88
348.491	48.98
348.703	128.85
348.915	89.94
349.127	10.07
349.339	81.75
349.551	44.88
349.763	75.6
349.975	3.93
350.187	102.23
350.399	51.03
350.61	83.8
350.822	-14.51
351.034	8.02
351.246	71.51
351.458	73.56
351.669	61.27
351.881	73.56
352.093	122.71
352.305	116.56
352.517	96.08
352.728	122.71
352.94	48.98
353.152	67.41
353.363	61.27
353.575	42.84
353.787	116.56
353.999	81.75
354.21	75.6
354.422	81.75
354.633	16.21
354.845	51.03
355.057	22.36
355.268	36.69
355.48	77.65
355.692	65.36
355.903	28.5
356.115	69.46
356.326	18.26
356.538	42.84
356.749	59.22
356.961	73.56
357.172	1.88
357.384	34.64
357.595	124.76
357.807	44.88
358.018	44.88
358.23	53.08
358.441	108.37
358.653	40.79
358.864	44.88
359.075	20.31
359.287	94.04
359.498	126.8
359.709	-34.99
359.921	30.55
360.132	122.71
360.344	38.74
360.555	48.98
360.766	26.45
360.977	8.02
361.189	20.31
361.4	-41.13
361.611	79.7
361.823	71.51
362.034	59.22
362.245	-14.51
362.456	24.4
362.667	83.8
362.879	81.75
363.09	5.97
363.301	122.71
363.512	-2.22
363.723	59.22
363.935	-8.36
364.146	51.03
364.357	83.8
364.568	91.99
364.779	32.6
364.99	100.18
365.201	-4.27
365.412	122.71
365.623	-16.55
365.834	38.74
366.045	48.98
366.256	75.6
366.467	32.6
366.678	48.98
366.889	28.5
367.1	81.75
367.311	48.98
367.522	34.64
367.733	85.84
367.944	139.09
368.155	104.28
368.366	102.23
368.577	83.8
368.788	114.52
368.999	-30.89
369.209	89.94
369.42	180.05
369.631	91.99
369.842	81.75
370.053	65.36
370.264	-0.17
370.474	-14.51
370.685	65.36
370.896	114.52
371.107	159.57
371.317	73.56
371.528	1.88
371.739	75.6
371.95	51.03
372.16	114.52
372.371	42.84
372.582	81.75
372.792	81.75
373.003	51.03
373.214	57.17
373.424	61.27
373.635	16.21
373.846	89.94
374.056	18.26
374.267	81.75
374.477	112.47
374.688	-6.31
374.898	16.21
375.109	40.79
375.319	85.84
375.53	61.27
375.74	-30.89
375.951	75.6
376.161	73.56
376.372	81.75
376.582	28.5
376.793	98.13
377.003	85.84
377.214	73.56
377.424	102.23
377.635	51.03
377.845	30.55
378.055	85.84
378.266	73.56
378.476	85.84
378.686	40.79
378.897	83.8
379.107	194.39
379.317	79.7
379.528	42.84
379.738	139.09
379.948	73.56
380.158	89.94
380.369	73.56
380.579	24.4
380.789	75.6
380.999	151.38
381.21	106.32
381.42	143.19
381.63	69.46
381.84	135
382.05	112.47
382.261	77.65
382.471	110.42
382.681	32.6
382.891	51.03
383.101	59.22
383.311	18.26
383.521	20.31
383.731	8.02
383.941	137.04
384.151	91.99
384.361	44.88
384.571	61.27
384.781	26.45
384.991	147.28
385.201	175.95
385.411	79.7
385.621	65.36
385.831	190.29
386.041	73.56
386.251	96.08
386.461	16.21
386.671	40.79
386.881	48.98
387.091	26.45
387.301	102.23
387.511	26.45
387.72	100.18
387.93	42.84
388.14	57.17
388.35	71.51
388.56	104.28
388.769	126.8
388.979	51.03
389.189	12.12
389.399	57.17
389.609	106.32
389.818	132.95
390.028	24.4
390.238	83.8
390.447	100.18
390.657	98.13
390.867	65.36
391.076	3.93
391.286	-4.27
391.496	48.98
391.705	20.31
391.915	147.28
392.125	89.94
392.334	61.27
392.544	135
392.753	122.71
392.963	8.02
393.172	89.94
393.382	75.6
393.591	173.91
393.801	130.9
394.01	143.19
394.22	18.26
394.429	81.75
394.639	118.61
394.848	83.8
395.058	32.6
395.267	200.53
395.477	-2.22
395.686	155.47
395.895	112.47
396.105	135
396.314	106.32
396.524	48.98
396.733	53.08
396.942	186.19
397.152	77.65
397.361	67.41
397.57	81.75
397.78	104.28
397.989	91.99
398.198	110.42
398.407	40.79
398.617	163.67
398.826	110.42
399.035	130.9
399.244	132.95
399.453	73.56
399.663	126.8
399.872	73.56
400.081	100.18
400.29	167.76
400.499	128.85
400.708	155.47
400.917	130.9
401.127	163.67
401.336	151.38
401.545	165.71
401.754	124.76
401.963	126.8
402.172	89.94
402.381	87.89
402.59	151.38
402.799	118.61
403.008	81.75
403.217	171.86
403.426	153.43
403.635	108.37
403.844	151.38
404.053	114.52
404.262	188.24
404.471	270.16
404.68	182.1
404.888	192.34
405.097	135
405.306	180.05
405.515	186.19
405.724	135
405.933	198.48
406.142	206.67
406.35	264.02
406.559	192.34
406.768	206.67
406.977	298.83
407.185	253.78
407.394	221.01
407.603	192.34
407.812	247.63
408.02	300.88
408.229	266.07
408.438	292.69
408.646	233.3
408.855	358.22
409.064	282.45
409.272	264.02
409.481	329.55
409.69	366.42
409.898	356.18
410.107	417.61
410.315	399.18
410.524	399.18
410.733	403.28
410.941	368.46
411.15	446.29
411.358	442.19
411.567	474.96
411.775	458.57
411.984	474.96
412.192	587.6
412.401	511.82
412.609	573.26
412.818	548.68
413.026	616.27
413.234	585.55
413.443	622.41
413.651	548.68
413.86	653.13
414.068	753.48
414.276	771.91
414.485	749.39
414.693	827.21
414.901	941.89
415.11	864.07
415.318	864.07
415.526	962.37
415.734	978.76
415.943	960.33
416.151	1083.2
416.359	935.75
416.567	1044.29
416.776	1044.29
416.984	1085.25
417.192	1126.21
417.4	1075.01
417.608	1179.46
417.817	1224.51
418.025	1247.04
418.233	1460.03
418.441	1306.43
418.649	1482.56
418.857	1447.74
419.065	1605.44
419.273	1494.85
419.481	1599.29
419.689	1703.74
419.897	1777.47
420.105	1724.22
420.313	1941.3
420.521	1945.4
420.729	1867.58
420.937	2023.22
421.145	2182.96
421.353	2209.59
421.561	2228.02
421.769	2316.08
421.977	2379.57
422.185	2441.01
422.393	2516.78
422.601	2797.35
422.809	2645.8
423.017	2866.99
423.224	2785.07
423.432	2924.33
423.64	3034.92
423.848	3231.52
424.056	3120.93
424.263	3284.77
424.471	3383.07
424.679	3491.62
424.887	3600.16
425.094	3784.48
425.302	3727.13
425.51	3813.15
425.718	4073.24
425.925	4058.9
426.133	4378.39
426.341	4460.31
426.548	4742.92
426.756	4591.38
426.964	4699.92
427.171	5013.26
427.379	5187.33
427.586	5218.05
427.794	5412.61
428.001	5650.18
428.209	5836.54
428.417	5601.02
428.624	6131.45
428.832	6072.06
429.039	6016.76
429.247	6039.29
429.454	6733.55
429.662	7077.61
429.869	6536.95
430.076	7040.75
430.284	6885.1
430.491	7143.14
430.699	7583.46
430.906	7485.16
431.114	7622.37
431.321	7974.62
431.528	8126.17
431.736	8814.29
431.943	8881.87
432.15	8814.29
432.358	8740.56
432.565	9420.49
432.772	9213.64
432.979	9762.5
433.187	9789.12
433.394	9797.31
433.601	10602.16
433.808	10569.4
434.016	10458.81
434.223	10890.93
434.43	11607.72
434.637	11366.06
434.844	12289.69
435.052	12123.8
435.259	12279.45
435.466	12426.9
435.673	12263.07
435.88	13194.89
436.087	13647.49
436.294	13674.12
436.501	13434.5
436.708	13608.58
436.915	13975.17
437.122	14657.14
437.329	14732.92
437.537	15214.19
437.743	15298.16
437.95	15357.55
438.157	16090.72
438.364	16596.57
438.571	16545.37
438.778	16739.93
438.985	18261.57
439.192	17487.43
439.399	17956.42
439.606	17624.65
439.813	18798.13
440.02	19693.1
440.227	19379.76
440.433	19025.46
440.64	19766.82
440.847	19379.76
441.054	20313.63
441.261	21446.16
441.467	21161.49
441.674	21765.64
441.881	22347.26
442.088	22052.36
442.294	21962.25
442.501	22685.18
442.708	23299.57
442.914	24243.68
443.121	24958.42
443.328	24333.79
443.534	26267.08
443.741	25175.51
443.948	24880.6
444.154	26797.5
444.361	26551.74
444.568	26676.67
444.774	26772.92
444.981	27127.22
445.187	27874.73
445.394	29068.7
445.6	28681.63
445.807	31522.16
446.013	29990.28
446.22	30616.96
446.426	31907.18
446.633	32034.16
446.839	33312.09
447.046	31554.93
447.252	33537.37
447.459	33465.69
447.665	33594.71
447.871	34571.59
448.078	36404.52
448.284	34655.56
448.491	35726.64
448.697	36871.46
448.903	37704.98
449.11	37592.34
449.316	37057.82
449.522	37602.58
449.728	38407.44
449.935	38970.63
450.141	38788.36
450.347	40226.03
450.553	38589.7
450.76	39085.31
450.966	40449.26
451.172	39920.88
451.378	40664.3
451.584	40439.02
451.791	41022.69
451.997	41045.22
452.203	41706.71
452.409	41510.11
452.615	41489.63
452.821	39730.42
453.027	39079.17
453.233	41460.96
453.44	40049.91
453.646	40641.77
453.852	40547.56
454.058	40635.63
454.264	39939.32
454.47	40500.46
454.676	39521.53
454.882	40848.61
455.088	37403.93
455.294	38053.14
455.5	38231.31
455.705	38860.04
455.911	37303.58
456.117	36570.41
456.323	36418.86
456.529	34088.27
456.735	35640.63
456.941	34297.16
457.147	34501.96
457.352	33097.05
457.558	32820.58
457.764	32671.07
457.97	32159.08
458.176	31196.54
458.381	31217.02
458.587	30033.29
458.793	29992.33
458.999	28448.16
459.204	30172.55
459.41	29783.44
459.616	27309.49
459.821	27940.27
460.027	27573.68
460.233	26838.46
460.438	25697.74
460.644	25990.6
460.85	24731.1
461.055	24241.64
461.261	24430.05
461.466	22087.17
461.672	21704.2
461.878	23309.81
462.083	21960.2
462.289	21298.7
462.494	21112.34
462.7	20037.16
462.905	19602.99
463.111	20108.83
463.316	20342.3
463.522	19596.84
463.727	19822.12
463.932	19885.61
464.138	19566.12
464.343	19611.18
464.549	18966.07
464.754	19695.14
464.959	19473.96
465.165	19318.32
465.37	18574.91
465.575	17970.76
465.781	18701.88
465.986	18847.29
466.191	18384.44
466.397	17614.41
466.602	16918.1
466.807	17448.52
467.012	17178.19
467.218	17284.69
467.423	17149.52
467.628	17172.05
