Data from USB4F104151__82__14-30-34-397.txt Node

Date: Thu Mar 13 14:30:34 EDT 2025
User: louis
Spectrometer: USB4F10415
Trigger mode: 4
Integration Time (sec): 2.500000E-2
Scans to average: 1
Electric dark correction enabled: true
Nonlinearity correction enabled: false
Boxcar width: 0
XAxis mode: Wavelengths
Number of Pixels in Spectrum: 3648
>>>>>Begin Spectral Data<<<<<
178.204	-115.03
178.424	-115.03
178.644	-115.03
178.864	-164.18
179.084	-151.89
179.304	9.9
179.524	-29.01
179.744	-41.3
179.964	93.87
180.184	-49.49
180.404	28.33
180.624	-33.11
180.844	-37.2
181.064	59.05
181.283	-20.82
181.503	1.71
181.723	18.09
181.943	1.71
182.163	136.87
182.383	3.75
182.602	57
182.822	18.09
183.042	83.63
183.262	-90.45
183.482	-20.82
183.701	65.19
183.921	32.43
184.141	-53.59
184.361	36.52
184.58	24.23
184.8	-12.63
185.02	42.67
185.239	83.63
185.459	52.91
185.679	59.05
185.898	-6.49
186.118	32.43
186.338	50.86
186.557	40.62
186.777	3.75
186.997	-12.63
187.216	-14.68
187.436	18.09
187.655	57
187.875	28.33
188.095	24.23
188.314	24.23
188.534	83.63
188.753	-47.44
188.973	-12.63
189.192	65.19
189.412	-14.68
189.631	48.81
189.851	-0.34
190.07	130.73
190.29	63.15
190.509	7.85
190.729	34.47
190.948	40.62
191.168	151.21
191.387	122.54
191.607	48.81
191.826	1.71
192.045	-14.68
192.265	28.33
192.484	-31.06
192.704	44.71
192.923	-47.44
193.142	91.82
193.362	67.24
193.581	16.04
193.8	69.29
194.02	38.57
194.239	3.75
194.458	89.77
194.678	40.62
194.897	-0.34
195.116	-8.53
195.335	81.58
195.555	24.23
195.774	28.33
195.993	42.67
196.212	-14.68
196.432	-29.01
196.651	28.33
196.87	-4.44
197.089	7.85
197.308	3.75
197.528	93.87
197.747	-20.82
197.966	28.33
198.185	87.72
198.404	7.85
198.623	24.23
198.842	48.81
199.062	57
199.281	26.28
199.5	-6.49
199.719	7.85
199.938	77.48
200.157	69.29
200.376	138.92
200.595	83.63
200.814	9.9
201.033	67.24
201.252	81.58
201.471	18.09
201.69	85.67
201.909	81.58
202.128	48.81
202.347	59.05
202.566	13.99
202.785	89.77
203.004	40.62
203.223	38.57
203.442	69.29
203.661	38.57
203.879	85.67
204.098	36.52
204.317	11.95
204.536	36.52
204.755	30.38
204.974	30.38
205.193	-6.49
205.411	50.86
205.63	-16.73
205.849	91.82
206.068	-0.34
206.287	16.04
206.505	40.62
206.724	57
206.943	24.23
207.162	32.43
207.381	26.28
207.599	42.67
207.818	42.67
208.037	-12.63
208.255	-18.77
208.474	50.86
208.693	-4.44
208.911	-41.3
209.13	65.19
209.349	89.77
209.567	24.23
209.786	52.91
210.005	65.19
210.223	-14.68
210.442	-37.2
210.661	1.71
210.879	81.58
211.098	7.85
211.316	-10.58
211.535	40.62
211.753	54.95
211.972	100.01
212.191	-24.92
212.409	3.75
212.628	73.39
212.846	3.75
213.065	44.71
213.283	118.44
213.502	34.47
213.72	40.62
213.938	34.47
214.157	48.81
214.375	48.81
214.594	32.43
214.812	67.24
215.031	16.04
215.249	65.19
215.467	13.99
215.686	1.71
215.904	54.95
216.122	44.71
216.341	42.67
216.559	48.81
216.778	73.39
216.996	7.85
217.214	-14.68
217.432	28.33
217.651	81.58
217.869	-16.73
218.087	-82.26
218.306	73.39
218.524	67.24
218.742	67.24
218.96	7.85
219.179	48.81
219.397	69.29
219.615	63.15
219.833	32.43
220.051	-29.01
220.27	73.39
220.488	46.76
220.706	59.05
220.924	-0.34
221.142	30.38
221.36	16.04
221.578	-31.06
221.796	50.86
222.015	1.71
222.233	24.23
222.451	69.29
222.669	24.23
222.887	40.62
223.105	77.48
223.323	-45.4
223.541	9.9
223.759	91.82
223.977	40.62
224.195	106.15
224.413	42.67
224.631	91.82
224.849	7.85
225.067	65.19
225.285	-61.78
225.503	1.71
225.721	1.71
225.939	32.43
226.157	38.57
226.375	102.06
226.592	24.23
226.81	54.95
227.028	61.1
227.246	69.29
227.464	9.9
227.682	65.19
227.9	48.81
228.117	73.39
228.335	65.19
228.553	-35.16
228.771	5.8
228.989	44.71
229.206	-22.87
229.424	79.53
229.642	13.99
229.86	22.19
230.077	63.15
230.295	9.9
230.513	7.85
230.731	52.91
230.948	34.47
231.166	81.58
231.384	-8.53
231.601	59.05
231.819	106.15
232.037	-12.63
232.254	97.96
232.472	34.47
232.689	48.81
232.907	20.14
233.125	24.23
233.342	61.1
233.56	-33.11
233.777	44.71
233.995	69.29
234.213	38.57
234.43	32.43
234.648	67.24
234.865	-0.34
235.083	67.24
235.3	46.76
235.518	13.99
235.735	-24.92
235.953	100.01
236.17	32.43
236.388	16.04
236.605	42.67
236.822	75.43
237.04	28.33
237.257	36.52
237.475	-16.73
237.692	77.48
237.909	3.75
238.127	-39.25
238.344	81.58
238.562	38.57
238.779	-72.02
238.996	-0.34
239.214	40.62
239.431	38.57
239.648	-20.82
239.865	65.19
240.083	26.28
240.3	97.96
240.517	42.67
240.735	36.52
240.952	108.2
241.169	104.11
241.386	61.1
241.603	22.19
241.821	26.28
242.038	59.05
242.255	20.14
242.472	-51.54
242.689	77.48
242.907	20.14
243.124	-33.11
243.341	-10.58
243.558	-37.2
243.775	-33.11
243.992	-51.54
244.209	48.81
244.426	83.63
244.643	48.81
244.86	-35.16
245.078	20.14
245.295	40.62
245.512	44.71
245.729	-16.73
245.946	16.04
246.163	-24.92
246.38	87.72
246.597	42.67
246.814	44.71
247.031	-0.34
247.248	73.39
247.464	73.39
247.681	-22.87
247.898	16.04
248.115	114.34
248.332	32.43
248.549	130.73
248.766	106.15
248.983	97.96
249.2	-22.87
249.417	65.19
249.633	34.47
249.85	32.43
250.067	42.67
250.284	81.58
250.501	89.77
250.717	71.34
250.934	-22.87
251.151	71.34
251.368	73.39
251.585	81.58
251.801	36.52
252.018	-8.53
252.235	16.04
252.451	42.67
252.668	20.14
252.885	61.1
253.102	1.71
253.318	26.28
253.535	-12.63
253.752	32.43
253.968	18.09
254.185	16.04
254.401	28.33
254.618	61.1
254.835	57
255.051	73.39
255.268	63.15
255.484	24.23
255.701	52.91
255.917	36.52
256.134	18.09
256.351	122.54
256.567	-41.3
256.784	36.52
257	5.8
257.217	1.71
257.433	40.62
257.65	20.14
257.866	7.85
258.082	30.38
258.299	-29.01
258.515	108.2
258.732	-49.49
258.948	32.43
259.165	73.39
259.381	-31.06
259.597	44.71
259.814	26.28
260.03	-39.25
260.246	32.43
260.463	67.24
260.679	122.54
260.895	16.04
261.112	48.81
261.328	-6.49
261.544	-22.87
261.761	110.25
261.977	-0.34
262.193	34.47
262.409	5.8
262.626	110.25
262.842	24.23
263.058	16.04
263.274	46.76
263.49	13.99
263.707	32.43
263.923	108.2
264.139	-29.01
264.355	16.04
264.571	65.19
264.787	-63.83
265.004	46.76
265.22	36.52
265.436	77.48
265.652	-20.82
265.868	81.58
266.084	-14.68
266.3	91.82
266.516	-0.34
266.732	106.15
266.948	59.05
267.164	36.52
267.38	108.2
267.596	75.43
267.812	61.1
268.028	67.24
268.244	42.67
268.46	-35.16
268.676	40.62
268.892	-41.3
269.108	-16.73
269.324	-8.53
269.54	-24.92
269.756	32.43
269.972	-8.53
270.188	7.85
270.403	-12.63
270.619	-10.58
270.835	57
271.051	-0.34
271.267	7.85
271.483	65.19
271.698	-8.53
271.914	81.58
272.13	22.19
272.346	5.8
272.562	67.24
272.777	69.29
272.993	32.43
273.209	-8.53
273.425	-0.34
273.64	44.71
273.856	-0.34
274.072	57
274.287	36.52
274.503	93.87
274.719	40.62
274.934	42.67
275.15	26.28
275.366	18.09
275.581	48.81
275.797	73.39
276.012	67.24
276.228	48.81
276.444	57
276.659	138.92
276.875	-16.73
277.09	38.57
277.306	48.81
277.521	48.81
277.737	65.19
277.952	7.85
278.168	85.67
278.383	24.23
278.599	-16.73
278.814	7.85
279.03	34.47
279.245	-8.53
279.461	16.04
279.676	32.43
279.892	24.23
280.107	-0.34
280.322	26.28
280.538	73.39
280.753	-57.68
280.969	71.34
281.184	77.48
281.399	89.77
281.615	57
281.83	40.62
282.045	-10.58
282.26	40.62
282.476	-31.06
282.691	-14.68
282.906	50.86
283.122	91.82
283.337	16.04
283.552	61.1
283.767	-12.63
283.983	26.28
284.198	83.63
284.413	26.28
284.628	7.85
284.843	16.04
285.058	59.05
285.274	-53.59
285.489	26.28
285.704	48.81
285.919	83.63
286.134	1.71
286.349	-8.53
286.564	100.01
286.779	57
286.995	-22.87
287.21	-8.53
287.425	26.28
287.64	57
287.855	-16.73
288.07	9.9
288.285	57
288.5	40.62
288.715	32.43
288.93	7.85
289.145	67.24
289.36	42.67
289.575	7.85
289.79	81.58
290.004	-8.53
290.219	28.33
290.434	9.9
290.649	75.43
290.864	-8.53
291.079	24.23
291.294	87.72
291.509	100.01
291.724	13.99
291.938	24.23
292.153	20.14
292.368	44.71
292.583	34.47
292.798	-8.53
293.012	34.47
293.227	24.23
293.442	40.62
293.657	3.75
293.871	124.58
294.086	32.43
294.301	97.96
294.516	34.47
294.73	32.43
294.945	-0.34
295.16	3.75
295.374	110.25
295.589	106.15
295.804	26.28
296.018	38.57
296.233	46.76
296.447	-14.68
296.662	-2.39
296.877	75.43
297.091	67.24
297.306	63.15
297.52	16.04
297.735	83.63
297.949	48.81
298.164	73.39
298.378	48.81
298.593	-20.82
298.807	7.85
299.022	20.14
299.236	77.48
299.451	48.81
299.665	24.23
299.88	91.82
300.094	97.96
300.309	75.43
300.523	1.71
300.737	67.24
300.952	67.24
301.166	97.96
301.381	40.62
301.595	112.3
301.809	7.85
302.024	48.81
302.238	24.23
302.452	-10.58
302.667	32.43
302.881	151.21
303.095	-2.39
303.309	83.63
303.524	28.33
303.738	-8.53
303.952	28.33
304.166	-14.68
304.381	-22.87
304.595	138.92
304.809	93.87
305.023	108.2
305.237	44.71
305.452	57
305.666	18.09
305.88	48.81
306.094	83.63
306.308	52.91
306.522	106.15
306.736	40.62
306.95	-18.77
307.164	16.04
307.379	52.91
307.593	77.48
307.807	79.53
308.021	71.34
308.235	140.97
308.449	-63.83
308.663	-24.92
308.877	114.34
309.091	-26.96
309.305	40.62
309.519	-100.69
309.733	83.63
309.947	-29.01
310.161	40.62
310.374	83.63
310.588	50.86
310.802	36.52
311.016	-8.53
311.23	36.52
311.444	46.76
311.658	-2.39
311.872	34.47
312.085	114.34
312.299	42.67
312.513	106.15
312.727	126.63
312.941	57
313.154	16.04
313.368	50.86
313.582	95.91
313.796	24.23
314.009	24.23
314.223	85.67
314.437	77.48
314.651	50.86
314.864	16.04
315.078	-41.3
315.292	57
315.505	65.19
315.719	52.91
315.933	40.62
316.146	57
316.36	34.47
316.573	75.43
316.787	77.48
317.001	167.59
317.214	-49.49
317.428	114.34
317.641	-74.07
317.855	1.71
318.068	85.67
318.282	73.39
318.495	75.43
318.709	73.39
318.922	69.29
319.136	67.24
319.349	18.09
319.563	89.77
319.776	57
319.99	18.09
320.203	71.34
320.417	-31.06
320.63	-0.34
320.843	26.28
321.057	32.43
321.27	54.95
321.483	91.82
321.697	89.77
321.91	16.04
322.124	32.43
322.337	24.23
322.55	65.19
322.763	48.81
322.977	81.58
323.19	-16.73
323.403	1.71
323.617	102.06
323.83	52.91
324.043	52.91
324.256	40.62
324.469	34.47
324.683	65.19
324.896	77.48
325.109	24.23
325.322	-8.53
325.535	48.81
325.748	106.15
325.962	16.04
326.175	69.29
326.388	57
326.601	67.24
326.814	48.81
327.027	48.81
327.24	83.63
327.453	65.19
327.666	85.67
327.879	22.19
328.092	50.86
328.305	16.04
328.518	20.14
328.731	11.95
328.944	89.77
329.157	71.34
329.37	69.29
329.583	73.39
329.796	149.16
330.009	-22.87
330.222	26.28
330.435	52.91
330.648	69.29
330.861	7.85
331.073	40.62
331.286	22.19
331.499	59.05
331.712	34.47
331.925	34.47
332.138	48.81
332.35	128.68
332.563	-4.44
332.776	91.82
332.989	42.67
333.202	65.19
333.414	134.82
333.627	73.39
333.84	26.28
334.053	136.87
334.265	34.47
334.478	22.19
334.691	-18.77
334.903	48.81
335.116	7.85
335.329	28.33
335.541	87.72
335.754	108.2
335.966	1.71
336.179	-0.34
336.392	81.58
336.604	13.99
336.817	102.06
337.029	44.71
337.242	36.52
337.454	75.43
337.667	89.77
337.88	81.58
338.092	85.67
338.305	85.67
338.517	-43.35
338.729	67.24
338.942	106.15
339.154	20.14
339.367	81.58
339.579	-0.34
339.792	1.71
340.004	20.14
340.217	91.82
340.429	75.43
340.641	20.14
340.854	40.62
341.066	18.09
341.278	112.3
341.491	97.96
341.703	13.99
341.915	-8.53
342.128	85.67
342.34	75.43
342.552	1.71
342.764	-37.2
342.977	61.1
343.189	73.39
343.401	11.95
343.613	-22.87
343.826	91.82
344.038	50.86
344.25	34.47
344.462	-0.34
344.674	112.3
344.886	34.47
345.099	89.77
345.311	24.23
345.523	61.1
345.735	-8.53
345.947	81.58
346.159	100.01
346.371	79.53
346.583	65.19
346.795	100.01
347.007	7.85
347.219	54.95
347.431	52.91
347.643	32.43
347.855	-12.63
348.067	36.52
348.279	20.14
348.491	32.43
348.703	118.44
348.915	65.19
349.127	-8.53
349.339	32.43
349.551	-37.2
349.763	16.04
349.975	46.76
350.187	48.81
350.399	-4.44
350.61	24.23
350.822	7.85
351.034	81.58
351.246	57
351.458	65.19
351.669	42.67
351.881	75.43
352.093	20.14
352.305	28.33
352.517	91.82
352.728	26.28
352.94	1.71
353.152	11.95
353.363	36.52
353.575	-29.01
353.787	73.39
353.999	16.04
354.21	97.96
354.422	-20.82
354.633	44.71
354.845	48.81
355.057	16.04
355.268	65.19
355.48	124.58
355.692	-35.16
355.903	-10.58
356.115	1.71
356.326	-37.2
356.538	57
356.749	-4.44
356.961	24.23
357.172	69.29
357.384	71.34
357.595	102.06
357.807	3.75
358.018	24.23
358.23	65.19
358.441	124.58
358.653	48.81
358.864	16.04
359.075	-31.06
359.287	-0.34
359.498	75.43
359.709	61.1
359.921	24.23
360.132	9.9
360.344	97.96
360.555	42.67
360.766	46.76
360.977	52.91
361.189	93.87
361.4	16.04
361.611	48.81
361.823	42.67
362.034	24.23
362.245	46.76
362.456	77.48
362.667	65.19
362.879	5.8
363.09	-14.68
363.301	73.39
363.512	28.33
363.723	61.1
363.935	44.71
364.146	26.28
364.357	-6.49
364.568	-33.11
364.779	-35.16
364.99	75.43
365.201	5.8
365.412	104.11
365.623	-35.16
365.834	73.39
366.045	65.19
366.256	79.53
366.467	24.23
366.678	44.71
366.889	30.38
367.1	28.33
367.311	83.63
367.522	75.43
367.733	102.06
367.944	18.09
368.155	40.62
368.366	73.39
368.577	79.53
368.788	100.01
368.999	114.34
369.209	5.8
369.42	106.15
369.631	114.34
369.842	16.04
370.053	65.19
370.264	116.39
370.474	48.81
370.685	114.34
370.896	102.06
371.107	110.25
371.317	57
371.528	13.99
371.739	77.48
371.95	28.33
372.16	-6.49
372.371	85.67
372.582	73.39
372.792	54.95
373.003	24.23
373.214	77.48
373.424	75.43
373.635	28.33
373.846	24.23
374.056	3.75
374.267	108.2
374.477	81.58
374.688	-6.49
374.898	46.76
375.109	110.25
375.319	85.67
375.53	73.39
375.74	73.39
375.951	69.29
376.161	75.43
376.372	67.24
376.582	52.91
376.793	26.28
377.003	-65.88
377.214	65.19
377.424	69.29
377.635	97.96
377.845	52.91
378.055	89.77
378.266	16.04
378.476	44.71
378.686	102.06
378.897	61.1
379.107	34.47
379.317	69.29
379.528	32.43
379.738	54.95
379.948	40.62
380.158	24.23
380.369	73.39
380.579	73.39
380.789	65.19
380.999	34.47
381.21	106.15
381.42	106.15
381.63	38.57
381.84	-0.34
382.05	77.48
382.261	52.91
382.471	69.29
382.681	18.09
382.891	106.15
383.101	73.39
383.311	36.52
383.521	24.23
383.731	28.33
383.941	97.96
384.151	38.57
384.361	24.23
384.571	36.52
384.781	97.96
384.991	95.91
385.201	190.12
385.411	102.06
385.621	97.96
385.831	16.04
386.041	26.28
386.251	77.48
386.461	198.31
386.671	67.24
386.881	42.67
387.091	40.62
387.301	102.06
387.511	95.91
387.72	151.21
387.93	87.72
388.14	-31.06
388.35	128.68
388.56	122.54
388.769	130.73
388.979	134.82
389.189	-24.92
389.399	102.06
389.609	118.44
389.818	20.14
390.028	54.95
390.238	50.86
390.447	65.19
390.657	112.3
390.867	-16.73
391.076	28.33
391.286	52.91
391.496	155.3
391.705	126.63
391.915	48.81
392.125	151.21
392.334	87.72
392.544	61.1
392.753	3.75
392.963	149.16
393.172	97.96
393.382	116.39
393.591	167.59
393.801	79.53
394.01	177.83
394.22	73.39
394.429	67.24
394.639	59.05
394.848	122.54
395.058	122.54
395.267	44.71
395.477	97.96
395.686	77.48
395.895	67.24
396.105	161.45
396.314	126.63
396.524	48.81
396.733	38.57
396.942	116.39
397.152	106.15
397.361	167.59
397.57	122.54
397.78	44.71
397.989	97.96
398.198	122.54
398.407	126.63
398.617	130.73
398.826	143.02
399.035	165.54
399.244	114.34
399.453	167.59
399.663	32.43
399.872	89.77
400.081	32.43
400.29	106.15
400.499	114.34
400.708	179.88
400.917	24.23
401.127	44.71
401.336	124.58
401.545	192.17
401.754	145.06
401.963	183.98
402.172	196.26
402.381	124.58
402.59	122.54
402.799	147.11
403.008	147.11
403.217	130.73
403.426	171.69
403.635	179.88
403.844	153.26
404.053	212.65
404.262	147.11
404.471	224.94
404.68	241.32
404.888	140.97
405.097	108.2
405.306	233.13
405.515	198.31
405.724	163.5
405.933	251.56
406.142	237.22
406.35	231.08
406.559	284.33
406.768	196.26
406.977	278.18
407.185	206.5
407.394	306.85
407.603	239.27
407.812	294.57
408.02	409.25
408.229	315.05
408.438	269.99
408.646	220.84
408.855	239.27
409.064	321.19
409.272	239.27
409.481	286.37
409.69	405.16
409.898	450.21
410.107	507.55
410.315	351.91
410.524	351.91
410.733	476.84
410.941	405.16
411.15	493.22
411.358	497.32
411.567	534.18
411.775	532.13
411.984	487.08
412.192	534.18
412.401	460.45
412.609	585.38
412.818	616.1
413.026	650.91
413.234	648.86
413.443	650.91
413.651	671.39
413.86	736.93
414.068	632.48
414.276	790.17
414.485	829.09
414.693	843.42
414.901	921.24
415.11	736.93
415.318	921.24
415.526	919.2
415.734	1050.27
415.943	1105.56
416.151	1062.55
416.359	974.49
416.567	988.83
416.776	1087.13
416.984	1212.06
417.192	1205.91
417.4	1175.19
417.608	1201.82
417.817	1224.34
418.025	1312.41
418.233	1451.67
418.441	1392.28
418.649	1472.15
418.857	1638.03
419.065	1615.51
419.273	1572.5
419.481	1707.66
419.689	1810.06
419.897	1834.64
420.105	1826.45
420.313	1918.61
420.521	2041.48
420.729	2055.82
420.937	2084.49
421.145	2006.67
421.353	2287.24
421.561	2391.69
421.769	2440.84
421.977	2596.48
422.185	2416.26
422.393	2715.27
422.601	2813.57
422.809	2821.76
423.017	2832
423.224	2940.54
423.432	3114.62
423.64	2961.02
423.848	3456.63
424.056	3153.53
424.263	3411.57
424.471	3485.3
424.679	3706.48
424.887	3817.07
425.094	3987.05
425.302	3972.72
425.51	4021.87
425.718	4128.36
425.925	4284.01
426.133	4382.31
426.341	4609.64
426.548	4847.2
426.756	4822.63
426.964	4828.77
427.171	5217.88
427.379	5217.88
427.586	5351
427.794	5574.23
428.001	5912.14
428.209	6192.72
428.417	6004.3
428.624	6411.85
428.832	6317.64
429.039	6301.26
429.247	6456.9
429.454	6864.45
429.662	7241.28
429.869	6895.17
430.076	7448.12
430.284	7249.47
430.491	7458.36
430.699	7921.2
430.906	7982.64
431.114	8007.22
431.321	8416.81
431.528	8461.87
431.736	8885.8
431.943	9432.6
432.15	9211.42
432.358	9289.24
432.565	9764.37
432.772	9797.14
432.979	10014.23
433.187	10305.04
433.394	10272.27
433.601	11253.25
433.808	11132.42
434.016	11148.8
434.223	11464.19
434.43	12197.36
434.637	11920.88
434.844	12713.45
435.052	13161.95
435.259	12819.94
435.466	12819.94
435.673	12879.33
435.88	13630.94
436.087	14134.74
436.294	14439.89
436.501	13934.04
436.708	14280.14
436.915	14747.08
437.122	15291.84
437.329	15334.85
437.537	15734.2
437.743	16223.67
437.95	16045.49
438.157	16670.12
438.364	17589.66
438.571	17118.63
438.778	17413.54
438.985	19039.62
439.192	18144.66
439.399	18855.31
439.606	18378.13
439.813	19488.13
440.02	20555.12
440.227	20192.63
440.433	20168.05
440.64	20893.04
440.847	20536.69
441.054	21292.39
441.261	22461.78
441.467	22119.77
441.674	22771.02
441.881	23377.22
442.088	23418.18
442.294	23424.33
442.501	23711.04
442.708	24573.24
442.914	25212.2
443.121	26277.15
443.328	25455.91
443.534	27561.22
443.741	26490.13
443.948	26524.95
444.154	27895.04
444.361	28026.11
444.568	28177.66
444.774	28013.82
444.981	28726.52
445.187	29152.49
445.394	30745.81
445.6	30272.73
445.807	33119.41
446.013	31524.04
446.22	31943.88
446.426	33264.82
446.633	33989.8
446.839	34886.81
447.046	33492.14
447.252	35433.61
447.459	35019.92
447.665	35058.84
447.871	36662.4
448.078	38261.86
448.284	36486.27
448.491	37145.72
448.697	38558.81
448.903	39502.93
449.11	39496.78
449.316	38802.52
449.522	39412.82
449.728	40361.03
449.935	40997.95
450.141	41376.82
450.347	41786.41
450.553	40754.24
450.76	41094.2
450.966	42595.36
451.172	41823.28
451.378	42560.55
451.584	42013.74
451.791	43283.48
451.997	42748.96
452.203	43516.95
452.409	43811.85
452.615	43453.46
452.821	41831.47
453.027	41022.52
453.233	43168.79
453.44	41831.47
453.646	42241.06
453.852	42087.46
454.058	43019.29
454.264	41516.08
454.47	42359.84
454.676	41686.06
454.882	42994.71
455.088	39148.63
455.294	39955.53
455.5	40324.16
455.705	40653.89
455.911	38888.54
456.117	38444.13
456.323	37405.81
456.529	36191.36
456.735	37493.87
456.941	36826.23
457.147	35697.8
457.352	34542.75
457.558	34192.54
457.764	34337.95
457.97	33379.5
458.176	32726.2
458.381	33230
458.587	31315.15
458.793	31485.13
458.999	29824.23
459.204	31673.54
459.41	30921.94
459.616	28798.2
459.821	28939.51
460.027	28755.19
460.233	28155.13
460.438	26717.46
460.644	27360.52
460.85	25871.65
461.055	25660.71
461.261	25349.42
461.466	23672.13
461.672	22793.55
461.878	24509.75
462.083	22648.15
462.289	22080.86
462.494	21998.94
462.7	21265.77
462.905	20540.79
463.111	21249.38
463.316	21407.08
463.522	20852.08
463.727	20790.64
463.932	20667.76
464.138	20657.52
464.343	20759.92
464.549	20073.85
464.754	20512.11
464.959	20548.98
465.165	20403.57
465.37	19504.51
465.575	19185.03
465.781	19832.19
465.986	19840.38
466.191	19203.46
466.397	18759.05
466.602	18146.71
466.807	18578.83
467.012	18408.85
