Data from USB4F104151__32__14-29-40-138.txt Node

Date: Thu Mar 13 14:29:40 EDT 2025
User: louis
Spectrometer: USB4F10415
Trigger mode: 4
Integration Time (sec): 2.500000E-2
Scans to average: 1
Electric dark correction enabled: true
Nonlinearity correction enabled: false
Boxcar width: 0
XAxis mode: Wavelengths
Number of Pixels in Spectrum: 3648
>>>>>Begin Spectral Data<<<<<
178.204	-154.45
178.424	-154.45
178.644	-154.45
178.864	-201.55
179.084	-154.45
179.304	33.96
179.524	11.43
179.744	3.24
179.964	33.96
180.184	-113.49
180.404	-62.29
180.624	3.24
180.844	-15.19
181.064	33.96
181.283	3.24
181.503	-4.95
181.723	72.87
181.943	-111.44
182.163	42.15
182.383	-7
182.602	33.96
182.822	15.53
183.042	68.78
183.262	33.96
183.482	-2.9
183.701	46.25
183.921	33.96
184.141	-4.95
184.361	52.39
184.58	38.06
184.8	-19.29
185.02	91.31
185.239	38.06
185.459	9.39
185.679	101.55
185.898	-19.29
186.118	50.35
186.338	-23.38
186.557	95.4
186.777	-47.96
186.997	105.64
187.216	5.29
187.436	72.87
187.655	-15.19
187.875	74.92
188.095	33.96
188.314	122.02
188.534	-21.33
188.753	-29.52
188.973	-15.19
189.192	-17.24
189.412	107.69
189.631	64.68
189.851	17.58
190.07	95.4
190.29	-19.29
190.509	56.49
190.729	91.31
190.948	70.83
191.168	208.04
191.387	74.92
191.607	9.39
191.826	33.96
192.045	56.49
192.265	-19.29
192.484	52.39
192.704	29.87
192.923	11.43
193.142	91.31
193.362	66.73
193.581	85.16
193.8	17.58
194.02	115.88
194.239	50.35
194.458	9.39
194.678	1.19
194.897	5.29
195.116	-35.67
195.335	-31.57
195.555	72.87
195.774	13.48
195.993	46.25
196.212	-50
196.432	74.92
196.651	7.34
196.87	46.25
197.089	115.88
197.308	13.48
197.528	52.39
197.747	-84.82
197.966	48.3
198.185	124.07
198.404	54.44
198.623	54.44
198.842	58.54
199.062	-15.19
199.281	60.59
199.5	-64.34
199.719	68.78
199.938	91.31
200.157	42.15
200.376	44.2
200.595	58.54
200.814	-29.52
201.033	36.01
201.252	29.87
201.471	-27.48
201.69	11.43
201.909	107.69
202.128	83.11
202.347	52.39
202.566	7.34
202.785	66.73
203.004	38.06
203.223	99.5
203.442	85.16
203.661	38.06
203.879	40.11
204.098	87.21
204.317	60.59
204.536	44.2
204.755	62.63
204.974	74.92
205.193	40.11
205.411	140.46
205.63	5.29
205.849	52.39
206.068	1.19
206.287	-19.29
206.505	83.11
206.724	52.39
206.943	33.96
207.162	36.01
207.381	105.64
207.599	9.39
207.818	25.77
208.037	48.3
208.255	-19.29
208.474	115.88
208.693	89.26
208.911	-64.34
209.13	101.55
209.349	87.21
209.567	107.69
209.786	1.19
210.005	105.64
210.223	76.97
210.442	13.48
210.661	58.54
210.879	7.34
211.098	-23.38
211.316	50.35
211.535	91.31
211.753	91.31
211.972	66.73
212.191	31.91
212.409	74.92
212.628	99.5
212.846	-35.67
213.065	52.39
213.283	93.35
213.502	-23.38
213.72	5.29
213.938	103.59
214.157	25.77
214.375	58.54
214.594	42.15
214.812	25.77
215.031	21.67
215.249	-47.96
215.467	25.77
215.686	-2.9
215.904	50.35
216.122	50.35
216.341	107.69
216.559	5.29
216.778	126.12
216.996	99.5
217.214	-25.43
217.432	68.78
217.651	25.77
217.869	58.54
218.087	50.35
218.306	-11.09
218.524	72.87
218.742	38.06
218.96	113.83
219.179	38.06
219.397	52.39
219.615	-23.38
219.833	27.82
220.051	-13.14
220.27	29.87
220.488	95.4
220.706	-11.09
220.924	27.82
221.142	25.77
221.36	52.39
221.578	70.83
221.796	64.68
222.015	-15.19
222.233	33.96
222.451	83.11
222.669	-47.96
222.887	85.16
223.105	52.39
223.323	36.01
223.541	-39.76
223.759	13.48
223.977	99.5
224.195	74.92
224.413	7.34
224.631	83.11
224.849	15.53
225.067	126.12
225.285	3.24
225.503	58.54
225.721	-33.62
225.939	48.3
226.157	38.06
226.375	181.42
226.592	72.87
226.81	3.24
227.028	33.96
227.246	113.83
227.464	3.24
227.682	25.77
227.9	66.73
228.117	17.58
228.335	33.96
228.553	19.63
228.771	13.48
228.989	-15.19
229.206	17.58
229.424	-21.33
229.642	72.87
229.86	17.58
230.077	27.82
230.295	-13.14
230.513	46.25
230.731	19.63
230.948	62.63
231.166	25.77
231.384	-2.9
231.601	46.25
231.819	91.31
232.037	15.53
232.254	-19.29
232.472	-27.48
232.689	-13.14
232.907	130.22
233.125	13.48
233.342	9.39
233.56	-105.3
233.777	93.35
233.995	15.53
234.213	62.63
234.43	-39.76
234.648	-27.48
234.865	66.73
235.083	115.88
235.3	58.54
235.518	-11.09
235.735	83.11
235.953	52.39
236.17	44.2
236.388	3.24
236.605	52.39
236.822	-7
237.04	3.24
237.257	27.82
237.475	29.87
237.692	85.16
237.909	1.19
238.127	42.15
238.344	58.54
238.562	50.35
238.779	74.92
238.996	66.73
239.214	58.54
239.431	-4.95
239.648	29.87
239.865	68.78
240.083	25.77
240.3	1.19
240.517	3.24
240.735	109.74
240.952	89.26
241.169	99.5
241.386	132.26
241.603	27.82
241.821	3.24
242.038	68.78
242.255	27.82
242.472	-15.19
242.689	25.77
242.907	38.06
243.124	91.31
243.341	9.39
243.558	3.24
243.775	-37.72
243.992	40.11
244.209	76.97
244.426	54.44
244.643	19.63
244.86	91.31
245.078	122.02
245.295	44.2
245.512	44.2
245.729	-7
245.946	36.01
246.163	66.73
246.38	66.73
246.597	83.11
246.814	9.39
247.031	-27.48
247.248	68.78
247.464	11.43
247.681	83.11
247.898	42.15
248.115	109.74
248.332	103.59
248.549	25.77
248.766	107.69
248.983	101.55
249.2	76.97
249.417	38.06
249.633	5.29
249.85	85.16
250.067	21.67
250.284	36.01
250.501	99.5
250.717	50.35
250.934	42.15
251.151	9.39
251.368	15.53
251.585	9.39
251.801	97.45
252.018	54.44
252.235	87.21
252.451	-9.05
252.668	50.35
252.885	107.69
253.102	21.67
253.318	97.45
253.535	-23.38
253.752	1.19
253.968	13.48
254.185	5.29
254.401	60.59
254.618	19.63
254.835	48.3
255.051	128.17
255.268	-43.86
255.484	38.06
255.701	58.54
255.917	1.19
256.134	-25.43
256.351	60.59
256.567	-52.05
256.784	103.59
257	-41.81
257.217	52.39
257.433	33.96
257.65	-23.38
257.866	72.87
258.082	17.58
258.299	1.19
258.515	40.11
258.732	40.11
258.948	-93.01
259.165	-39.76
259.381	17.58
259.597	23.72
259.814	-39.76
260.03	50.35
260.246	33.96
260.463	13.48
260.679	31.91
260.895	60.59
261.112	58.54
261.328	11.43
261.544	-11.09
261.761	42.15
261.977	81.07
262.193	33.96
262.409	50.35
262.626	74.92
262.842	25.77
263.058	5.29
263.274	72.87
263.49	60.59
263.707	29.87
263.923	66.73
264.139	-23.38
264.355	91.31
264.571	105.64
264.787	36.01
265.004	76.97
265.22	101.55
265.436	83.11
265.652	-15.19
265.868	117.93
266.084	21.67
266.3	93.35
266.516	-39.76
266.732	42.15
266.948	5.29
267.164	-11.09
267.38	93.35
267.596	-31.57
267.812	25.77
268.028	91.31
268.244	-45.91
268.46	89.26
268.676	-17.24
268.892	70.83
269.108	-72.53
269.324	25.77
269.54	-82.77
269.756	132.26
269.972	29.87
270.188	60.59
270.403	-7
270.619	52.39
270.835	60.59
271.051	46.25
271.267	9.39
271.483	101.55
271.698	62.63
271.914	83.11
272.13	-47.96
272.346	-11.09
272.562	17.58
272.777	42.15
272.993	52.39
273.209	9.39
273.425	11.43
273.64	81.07
273.856	105.64
274.072	-15.19
274.287	60.59
274.503	48.3
274.719	42.15
274.934	3.24
275.15	15.53
275.366	58.54
275.581	17.58
275.797	11.43
276.012	-15.19
276.228	134.31
276.444	-7
276.659	79.02
276.875	36.01
277.09	3.24
277.306	54.44
277.521	1.19
277.737	33.96
277.952	58.54
278.168	-11.09
278.383	23.72
278.599	36.01
278.814	66.73
279.03	31.91
279.245	62.63
279.461	42.15
279.676	44.2
279.892	-45.91
280.107	66.73
280.322	-11.09
280.538	9.39
280.753	74.92
280.969	36.01
281.184	99.5
281.399	15.53
281.615	58.54
281.83	70.83
282.045	-13.14
282.26	7.34
282.476	-19.29
282.691	48.3
282.906	91.31
283.122	25.77
283.337	3.24
283.552	60.59
283.767	-56.15
283.983	105.64
284.198	-11.09
284.413	74.92
284.628	-39.76
284.843	25.77
285.058	93.35
285.274	-39.76
285.489	-31.57
285.704	115.88
285.919	5.29
286.134	58.54
286.349	1.19
286.564	72.87
286.779	29.87
286.995	115.88
287.21	1.19
287.425	-47.96
287.64	-19.29
287.855	60.59
288.07	62.63
288.285	5.29
288.5	58.54
288.715	83.11
288.93	29.87
289.145	-86.87
289.36	46.25
289.575	-2.9
289.79	72.87
290.004	-7
290.219	76.97
290.434	27.82
290.649	95.4
290.864	-17.24
291.079	52.39
291.294	44.2
291.509	56.49
291.724	68.78
291.938	-15.19
292.153	62.63
292.368	54.44
292.583	58.54
292.798	76.97
293.012	-2.9
293.227	62.63
293.442	76.97
293.657	19.63
293.871	99.5
294.086	66.73
294.301	52.39
294.516	74.92
294.73	17.58
294.945	36.01
295.16	25.77
295.374	113.83
295.589	156.84
295.804	29.87
296.018	-2.9
296.233	160.94
296.447	107.69
296.662	1.19
296.877	93.35
297.091	3.24
297.306	19.63
297.52	9.39
297.735	52.39
297.949	79.02
298.164	3.24
298.378	7.34
298.593	-31.57
298.807	-39.76
299.022	46.25
299.236	52.39
299.451	115.88
299.665	27.82
299.88	66.73
300.094	52.39
300.309	9.39
300.523	58.54
300.737	60.59
300.952	95.4
301.166	66.73
301.381	-4.95
301.595	-0.85
301.809	-19.29
302.024	-11.09
302.238	25.77
302.452	52.39
302.667	44.2
302.881	85.16
303.095	64.68
303.309	66.73
303.524	46.25
303.738	107.69
303.952	66.73
304.166	74.92
304.381	3.24
304.595	81.07
304.809	1.19
305.023	25.77
305.237	11.43
305.452	74.92
305.666	38.06
305.88	-11.09
306.094	21.67
306.308	-37.72
306.522	58.54
306.736	25.77
306.95	58.54
307.164	85.16
307.379	107.69
307.593	60.59
307.807	99.5
308.021	54.44
308.235	1.19
308.449	-33.62
308.663	42.15
308.877	169.13
309.091	95.4
309.305	44.2
309.519	-72.53
309.733	107.69
309.947	13.48
310.161	38.06
310.374	9.39
310.588	42.15
310.802	56.49
311.016	17.58
311.23	5.29
311.444	36.01
311.658	76.97
311.872	72.87
312.085	36.01
312.299	40.11
312.513	1.19
312.727	52.39
312.941	-23.38
313.154	62.63
313.368	42.15
313.582	134.31
313.796	140.46
314.009	95.4
314.223	54.44
314.437	66.73
314.651	70.83
314.864	-60.24
315.078	1.19
315.292	-74.58
315.505	52.39
315.719	99.5
315.933	13.48
316.146	29.87
316.36	56.49
316.573	-13.14
316.787	3.24
317.001	29.87
317.214	-4.95
317.428	17.58
317.641	52.39
317.855	-39.76
318.068	25.77
318.282	17.58
318.495	68.78
318.709	44.2
318.922	50.35
319.136	76.97
319.349	42.15
319.563	1.19
319.776	19.63
319.99	-15.19
320.203	5.29
320.417	111.78
320.63	9.39
320.843	115.88
321.057	60.59
321.27	11.43
321.483	74.92
321.697	79.02
321.91	48.3
322.124	52.39
322.337	1.19
322.55	33.96
322.763	15.53
322.977	58.54
323.19	36.01
323.403	33.96
323.617	62.63
323.83	29.87
324.043	3.24
324.256	44.2
324.469	19.63
324.683	74.92
324.896	42.15
325.109	58.54
325.322	-11.09
325.535	68.78
325.748	93.35
325.962	54.44
326.175	50.35
326.388	38.06
326.601	-31.57
326.814	27.82
327.027	17.58
327.24	87.21
327.453	19.63
327.666	81.07
327.879	101.55
328.092	23.72
328.305	-13.14
328.518	58.54
328.731	-11.09
328.944	19.63
329.157	87.21
329.37	29.87
329.583	109.74
329.796	68.78
330.009	54.44
330.222	29.87
330.435	58.54
330.648	44.2
330.861	89.26
331.073	21.67
331.286	27.82
331.499	19.63
331.712	11.43
331.925	-4.95
332.138	99.5
332.35	50.35
332.563	48.3
332.776	91.31
332.989	3.24
333.202	40.11
333.414	25.77
333.627	25.77
333.84	50.35
334.053	-25.43
334.265	-13.14
334.478	48.3
334.691	33.96
334.903	85.16
335.116	66.73
335.329	64.68
335.541	48.3
335.754	83.11
335.966	-23.38
336.179	50.35
336.392	115.88
336.604	33.96
336.817	83.11
337.029	74.92
337.242	60.59
337.454	64.68
337.667	1.19
337.88	-13.14
338.092	29.87
338.305	-21.33
338.517	70.83
338.729	107.69
338.942	109.74
339.154	17.58
339.367	17.58
339.579	91.31
339.792	25.77
340.004	42.15
340.217	-23.38
340.429	33.96
340.641	25.77
340.854	-7
341.066	38.06
341.278	50.35
341.491	44.2
341.703	-7
341.915	38.06
342.128	15.53
342.34	23.72
342.552	124.07
342.764	-7
342.977	66.73
343.189	58.54
343.401	42.15
343.613	-0.85
343.826	-2.9
344.038	-2.9
344.25	68.78
344.462	29.87
344.674	87.21
344.886	56.49
345.099	17.58
345.311	107.69
345.523	13.48
345.735	33.96
345.947	79.02
346.159	91.31
346.371	68.78
346.583	29.87
346.795	113.83
347.007	83.11
347.219	25.77
347.431	13.48
347.643	66.73
347.855	29.87
348.067	132.26
348.279	29.87
348.491	83.11
348.703	33.96
348.915	33.96
349.127	52.39
349.339	91.31
349.551	1.19
349.763	29.87
349.975	38.06
350.187	115.88
350.399	87.21
350.61	42.15
350.822	107.69
351.034	40.11
351.246	50.35
351.458	3.24
351.669	38.06
351.881	103.59
352.093	58.54
352.305	76.97
352.517	64.68
352.728	42.15
352.94	115.88
353.152	111.78
353.363	1.19
353.575	33.96
353.787	58.54
353.999	83.11
354.21	128.17
354.422	-27.48
354.633	1.19
354.845	74.92
355.057	36.01
355.268	107.69
355.48	40.11
355.692	42.15
355.903	93.35
356.115	54.44
356.326	-47.96
356.538	109.74
356.749	85.16
356.961	115.88
357.172	44.2
357.384	48.3
357.595	74.92
357.807	42.15
358.018	-52.05
358.23	66.73
358.441	134.31
358.653	89.26
358.864	83.11
359.075	15.53
359.287	3.24
359.498	68.78
359.709	103.59
359.921	62.63
360.132	89.26
360.344	11.43
360.555	62.63
360.766	109.74
360.977	38.06
361.189	134.31
361.4	50.35
361.611	79.02
361.823	119.98
362.034	50.35
362.245	-2.9
362.456	87.21
362.667	7.34
362.879	107.69
363.09	-43.86
363.301	70.83
363.512	36.01
363.723	76.97
363.935	42.15
364.146	83.11
364.357	-4.95
364.568	87.21
364.779	29.87
364.99	122.02
365.201	140.46
365.412	62.63
365.623	9.39
365.834	99.5
366.045	52.39
366.256	60.59
366.467	68.78
366.678	29.87
366.889	23.72
367.1	70.83
367.311	109.74
367.522	46.25
367.733	76.97
367.944	99.5
368.155	58.54
368.366	74.92
368.577	74.92
368.788	70.83
368.999	19.63
369.209	91.31
369.42	66.73
369.631	126.12
369.842	79.02
370.053	99.5
370.264	74.92
370.474	40.11
370.685	101.55
370.896	-4.95
371.107	91.31
371.317	79.02
371.528	-23.38
371.739	117.93
371.95	50.35
372.16	107.69
372.371	-11.09
372.582	50.35
372.792	54.44
373.003	66.73
373.214	36.01
373.424	107.69
373.635	9.39
373.846	83.11
374.056	50.35
374.267	38.06
374.477	42.15
374.688	97.45
374.898	11.43
375.109	83.11
375.319	5.29
375.53	42.15
375.74	87.21
375.951	81.07
376.161	33.96
376.372	99.5
376.582	25.77
376.793	70.83
377.003	50.35
377.214	27.82
377.424	117.93
377.635	79.02
377.845	-19.29
378.055	44.2
378.266	107.69
378.476	52.39
378.686	33.96
378.897	99.5
379.107	52.39
379.317	79.02
379.528	33.96
379.738	85.16
379.948	33.96
380.158	42.15
380.369	25.77
380.579	93.35
380.789	31.91
380.999	134.31
381.21	148.65
381.42	126.12
381.63	-7
381.84	25.77
382.05	70.83
382.261	21.67
382.471	38.06
382.681	29.87
382.891	17.58
383.101	62.63
383.311	-23.38
383.521	17.58
383.731	66.73
383.941	36.01
384.151	60.59
384.361	21.67
384.571	-19.29
384.781	72.87
384.991	99.5
385.201	179.37
385.411	60.59
385.621	74.92
385.831	25.77
386.041	23.72
386.251	25.77
386.461	138.41
386.671	50.35
386.881	15.53
387.091	29.87
387.301	5.29
387.511	33.96
387.72	95.4
387.93	76.97
388.14	44.2
388.35	66.73
388.56	56.49
388.769	46.25
388.979	81.07
389.189	72.87
389.399	17.58
389.609	87.21
389.818	74.92
390.028	27.82
390.238	124.07
390.447	81.07
390.657	66.73
390.867	74.92
391.076	64.68
391.286	9.39
391.496	46.25
391.705	91.31
391.915	105.64
392.125	66.73
392.334	27.82
392.544	160.94
392.753	93.35
392.963	83.11
393.172	79.02
393.382	17.58
393.591	124.07
393.801	74.92
394.01	109.74
394.22	117.93
394.429	70.83
394.639	58.54
394.848	97.45
395.058	150.7
395.267	17.58
395.477	126.12
395.686	42.15
395.895	79.02
396.105	99.5
396.314	91.31
396.524	124.07
396.733	109.74
396.942	91.31
397.152	136.36
397.361	122.02
397.57	128.17
397.78	62.63
397.989	70.83
398.198	169.13
398.407	85.16
398.617	152.74
398.826	175.27
399.035	85.16
399.244	79.02
399.453	111.78
399.663	115.88
399.872	85.16
400.081	99.5
400.29	130.22
400.499	89.26
400.708	154.79
400.917	68.78
401.127	50.35
401.336	124.07
401.545	158.89
401.754	197.8
401.963	158.89
402.172	156.84
402.381	74.92
402.59	23.72
402.799	138.41
403.008	99.5
403.217	140.46
403.426	146.6
403.635	148.65
403.844	115.88
404.053	230.57
404.262	140.46
404.471	140.46
404.68	130.22
404.888	167.08
405.097	171.18
405.306	263.33
405.515	156.84
405.724	183.46
405.933	216.23
406.142	220.33
406.35	177.32
406.559	156.84
406.768	249
406.977	283.81
407.185	187.56
407.394	205.99
407.603	220.33
407.812	281.77
408.02	320.68
408.229	296.1
408.438	279.72
408.646	306.34
408.855	292.01
409.064	320.68
409.272	238.76
409.481	380.07
409.69	261.29
409.898	312.49
410.107	289.96
410.315	304.29
410.524	414.88
410.733	363.69
410.941	402.6
411.15	443.56
411.358	418.98
411.567	459.94
411.775	418.98
411.984	492.71
412.192	435.36
412.401	453.8
412.609	574.63
412.818	562.34
413.026	558.24
413.234	504.99
413.443	588.96
413.651	595.11
413.86	634.02
414.068	623.78
414.276	693.41
414.485	578.72
414.693	791.71
414.901	789.66
415.11	677.02
415.318	799.9
415.526	863.39
415.734	898.2
415.943	806.05
416.151	959.64
416.359	971.93
416.567	980.12
416.776	947.36
416.984	1008.8
417.192	1043.61
417.4	1041.56
417.608	1037.47
417.817	1174.68
418.025	1189.02
418.233	1311.89
418.441	1141.91
418.649	1131.67
418.857	1330.33
419.065	1477.78
419.273	1533.08
419.481	1440.92
419.689	1614.99
419.897	1571.99
420.105	1703.06
420.313	1629.33
420.521	1817.74
420.729	1805.46
420.937	1766.54
421.145	1930.38
421.353	2030.73
421.561	2147.47
421.769	2256.01
421.977	2188.43
422.185	2221.19
422.393	2294.92
422.601	2548.87
422.809	2405.51
423.017	2372.74
423.224	2573.44
423.432	2684.03
423.64	2704.51
423.848	3040.38
424.056	2983.04
424.263	3130.49
424.471	3097.72
424.679	3224.7
424.887	3327.1
425.094	3421.3
425.302	3533.94
425.51	3667.06
425.718	3718.26
425.925	3687.54
426.133	3908.72
426.341	3959.92
426.548	4230.25
426.756	4213.87
426.964	4312.17
427.171	4494.44
427.379	4596.84
427.586	4752.48
427.794	4918.37
428.001	5135.45
428.209	5278.81
428.417	5108.83
428.624	5653.59
428.832	5565.53
429.039	5526.61
429.247	5452.89
429.454	5891.15
429.662	6448.2
429.869	6036.56
430.076	6292.55
430.284	6300.75
430.491	6640.71
430.699	7101.5
430.906	6837.31
431.114	6982.72
431.321	7332.92
431.528	7488.57
431.736	7922.74
431.943	8211.5
432.15	8102.96
432.358	8164.4
432.565	8475.69
432.772	8621.1
432.979	9102.37
433.187	8995.87
433.394	9196.57
433.601	9714.71
433.808	9573.4
434.016	9806.87
434.223	10001.43
434.43	10718.22
434.637	10574.86
434.844	11185.15
435.052	11273.21
435.259	11310.08
435.466	11166.72
435.673	11338.75
435.88	11906.04
436.087	12495.85
436.294	12563.43
436.501	12309.49
436.708	12491.76
436.915	12934.12
437.122	13376.48
437.329	13493.21
437.537	13839.32
437.743	14017.49
437.95	14136.27
438.157	14717.9
438.364	15188.93
438.571	15250.37
438.778	15299.52
438.985	16651.18
439.192	15956.92
439.399	16294.83
439.606	15875
439.813	16882.6
440.02	17963.93
440.227	17466.27
440.433	17314.72
440.64	18291.6
440.847	17978.26
441.054	18416.53
441.261	19227.53
441.467	19422.08
441.674	19745.66
441.881	20310.9
442.088	20384.63
442.294	20417.4
442.501	20833.13
442.708	21136.23
442.914	21711.71
443.121	22848.33
443.328	22244.18
443.534	23927.61
443.741	22965.07
443.948	22745.94
444.154	24525.62
444.361	24511.28
444.568	24591.16
444.774	24486.71
444.981	24675.12
445.187	25641.76
445.394	26518.29
445.6	26182.43
445.807	28683
446.013	27341.58
446.22	27941.63
446.426	29362.92
446.633	29397.74
446.839	30249.69
447.046	28967.66
447.252	30724.82
447.459	30882.52
447.665	30364.38
447.871	32195.26
448.078	33301.17
448.284	31421.13
448.491	32586.43
448.697	33772.2
448.903	34226.85
449.11	34452.12
449.316	33915.56
449.522	34321.05
449.728	35449.49
449.935	35672.71
450.141	35488.4
450.347	36184.71
450.553	35080.85
450.76	35959.43
450.966	36823.67
451.172	36465.28
451.378	37343.86
451.584	36438.65
451.791	37505.65
451.997	37278.32
452.203	37509.74
452.409	37839.47
452.615	37606
452.821	36459.13
453.027	35723.91
453.233	38234.72
453.44	36180.61
453.646	36549.24
453.852	36854.39
454.058	37597.8
454.264	36074.12
454.47	36874.87
454.676	36205.19
454.882	37452.4
455.088	33616.55
455.294	34880.15
455.5	35130
455.705	35359.38
455.911	33710.76
456.117	33280.69
456.323	32957.11
456.529	31075.02
456.735	32119.49
456.941	31570.63
457.147	31197.9
457.352	30290.65
457.558	29704.93
457.764	30003.94
457.97	29043.44
458.176	28605.17
458.381	28705.52
458.587	26819.35
458.793	27196.17
458.999	25731.87
459.204	27454.22
459.41	26708.76
459.616	25205.55
459.821	24908.59
460.027	24849.2
460.233	24269.62
460.438	23223.11
460.644	23051.08
460.85	22448.98
461.055	21842.78
461.261	22059.87
461.466	20192.12
461.672	19745.66
461.878	21068.65
462.083	19639.17
462.289	19286.92
462.494	19151.75
462.7	18207.64
462.905	17867.67
463.111	18344.85
463.316	18250.64
463.522	17816.47
463.727	17949.59
463.932	17922.97
464.138	17826.71
464.343	17871.77
464.549	17322.91
464.754	17724.32
464.959	17718.17
465.165	17499.04
465.37	17030.05
465.575	16331.7
465.781	16937.9
465.986	16985
466.191	16497.58
466.397	16098.23
466.602	15442.88
466.807	15844.28
467.012	15889.34
467.218	15854.52
467.423	15639.48
