Data from USB4F104151__61__14-30-07-655.txt Node

Date: Thu Mar 13 14:30:07 EDT 2025
User: louis
Spectrometer: USB4F10415
Trigger mode: 4
Integration Time (sec): 2.500000E-2
Scans to average: 1
Electric dark correction enabled: true
Nonlinearity correction enabled: false
Boxcar width: 0
XAxis mode: Wavelengths
Number of Pixels in Spectrum: 3648
>>>>>Begin Spectral Data<<<<<
178.204	-128.85
178.424	-128.85
178.644	-128.85
178.864	-165.71
179.084	-85.84
179.304	-28.5
179.524	0.17
179.744	0.17
179.964	-22.36
180.184	14.51
180.404	43.18
180.624	28.84
180.844	43.18
181.064	-38.74
181.283	-38.74
181.503	-55.12
181.723	53.42
181.943	-63.32
182.163	53.42
182.383	4.27
182.602	37.03
182.822	59.56
183.042	22.7
183.262	4.27
183.482	12.46
183.701	6.31
183.921	8.36
184.141	45.23
184.361	10.41
184.58	77.99
184.8	-3.93
185.02	-10.07
185.239	49.32
185.459	18.6
185.679	53.42
185.898	-12.12
186.118	47.27
186.338	2.22
186.557	-20.31
186.777	-34.64
186.997	45.23
187.216	-73.56
187.436	8.36
187.655	49.32
187.875	14.51
188.095	16.55
188.314	2.22
188.534	57.51
188.753	-42.84
188.973	51.37
189.192	24.75
189.412	61.61
189.631	51.37
189.851	53.42
190.07	63.66
190.29	-77.65
190.509	-28.5
190.729	-5.97
190.948	43.18
191.168	139.43
191.387	47.27
191.607	20.65
191.826	4.27
192.045	22.7
192.265	47.27
192.484	63.66
192.704	26.79
192.923	-26.45
193.142	159.91
193.362	26.79
193.581	8.36
193.8	16.55
194.02	116.9
194.239	-30.55
194.458	4.27
194.678	53.42
194.897	-26.45
195.116	34.99
195.335	67.75
195.555	12.46
195.774	28.84
195.993	-30.55
196.212	37.03
196.432	18.6
196.651	-14.17
196.87	-26.45
197.089	92.33
197.308	131.24
197.528	84.14
197.747	-10.07
197.966	112.81
198.185	69.8
198.404	-40.79
198.623	45.23
198.842	43.18
199.062	-87.89
199.281	30.89
199.5	59.56
199.719	55.47
199.938	26.79
200.157	86.19
200.376	2.22
200.595	49.32
200.814	-5.97
201.033	2.22
201.252	80.04
201.471	59.56
201.69	67.75
201.909	-20.31
202.128	28.84
202.347	63.66
202.566	69.8
202.785	63.66
203.004	-5.97
203.223	112.81
203.442	39.08
203.661	39.08
203.879	65.71
204.098	-30.55
204.317	-10.07
204.536	45.23
204.755	20.65
204.974	47.27
205.193	14.51
205.411	141.48
205.63	26.79
205.849	10.41
206.068	57.51
206.287	-46.93
206.505	141.48
206.724	51.37
206.943	-10.07
207.162	10.41
207.381	73.9
207.599	-30.55
207.818	67.75
208.037	47.27
208.255	-40.79
208.474	53.42
208.693	-5.97
208.911	-8.02
209.13	-38.74
209.349	-46.93
209.567	34.99
209.786	-63.32
210.005	14.51
210.223	63.66
210.442	-96.08
210.661	59.56
210.879	26.79
211.098	4.27
211.316	10.41
211.535	47.27
211.753	100.52
211.972	61.61
212.191	30.89
212.409	125.1
212.628	-5.97
212.846	43.18
213.065	18.6
213.283	2.22
213.502	34.99
213.72	39.08
213.938	12.46
214.157	75.95
214.375	80.04
214.594	-16.21
214.812	39.08
215.031	45.23
215.249	28.84
215.467	61.61
215.686	114.86
215.904	-28.5
216.122	10.41
216.341	71.85
216.559	51.37
216.778	82.09
216.996	67.75
217.214	2.22
217.432	28.84
217.651	-53.08
217.869	-3.93
218.087	34.99
218.306	-22.36
218.524	-5.97
218.742	-30.55
218.96	28.84
219.179	71.85
219.397	18.6
219.615	57.51
219.833	-28.5
220.051	59.56
220.27	77.99
220.488	-1.88
220.706	45.23
220.924	-20.31
221.142	4.27
221.36	37.03
221.578	41.13
221.796	10.41
222.015	-20.31
222.233	-20.31
222.451	90.28
222.669	-38.74
222.887	37.03
223.105	-26.45
223.323	-10.07
223.541	-12.12
223.759	59.56
223.977	67.75
224.195	53.42
224.413	-12.12
224.631	67.75
224.849	26.79
225.067	67.75
225.285	10.41
225.503	51.37
225.721	34.99
225.939	28.84
226.157	59.56
226.375	143.53
226.592	75.95
226.81	47.27
227.028	71.85
227.246	112.81
227.464	-14.17
227.682	-36.69
227.9	65.71
228.117	28.84
228.335	-38.74
228.553	-5.97
228.771	6.31
228.989	53.42
229.206	0.17
229.424	69.8
229.642	39.08
229.86	-14.17
230.077	63.66
230.295	26.79
230.513	84.14
230.731	10.41
230.948	141.48
231.166	112.81
231.384	-53.08
231.601	2.22
231.819	43.18
232.037	-5.97
232.254	-20.31
232.472	28.84
232.689	28.84
232.907	-5.97
233.125	133.29
233.342	59.56
233.56	8.36
233.777	57.51
233.995	34.99
234.213	110.76
234.43	69.8
234.648	73.9
234.865	22.7
235.083	61.61
235.3	43.18
235.518	53.42
235.735	106.67
235.953	49.32
236.17	-18.26
236.388	20.65
236.605	61.61
236.822	71.85
237.04	16.55
237.257	-14.17
237.475	-8.02
237.692	6.31
237.909	30.89
238.127	53.42
238.344	14.51
238.562	96.43
238.779	-14.17
238.996	-20.31
239.214	67.75
239.431	51.37
239.648	-22.36
239.865	67.75
240.083	41.13
240.3	-34.64
240.517	16.55
240.735	53.42
240.952	39.08
241.169	2.22
241.386	37.03
241.603	-10.07
241.821	2.22
242.038	77.99
242.255	10.41
242.472	-5.97
242.689	-30.55
242.907	92.33
243.124	10.41
243.341	-5.97
243.558	43.18
243.775	59.56
243.992	2.22
244.209	61.61
244.426	2.22
244.643	4.27
244.86	-12.12
245.078	51.37
245.295	84.14
245.512	84.14
245.729	2.22
245.946	106.67
246.163	69.8
246.38	-69.46
246.597	51.37
246.814	28.84
247.031	22.7
247.248	-14.17
247.464	55.47
247.681	-46.93
247.898	-8.02
248.115	34.99
248.332	-20.31
248.549	28.84
248.766	65.71
248.983	55.47
249.2	34.99
249.417	57.51
249.633	-53.08
249.85	-18.26
250.067	-12.12
250.284	51.37
250.501	51.37
250.717	53.42
250.934	45.23
251.151	-5.97
251.368	22.7
251.585	-18.26
251.801	-8.02
252.018	80.04
252.235	-24.4
252.451	28.84
252.668	-42.84
252.885	37.03
253.102	14.51
253.318	2.22
253.535	39.08
253.752	30.89
253.968	10.41
254.185	67.75
254.401	30.89
254.618	22.7
254.835	-46.93
255.051	100.52
255.268	41.13
255.484	86.19
255.701	6.31
255.917	153.77
256.134	-71.51
256.351	47.27
256.567	37.03
256.784	-12.12
257	-5.97
257.217	26.79
257.433	12.46
257.65	57.51
257.866	57.51
258.082	-34.64
258.299	-44.88
258.515	43.18
258.732	-38.74
258.948	22.7
259.165	-26.45
259.381	26.79
259.597	67.75
259.814	34.99
260.03	-10.07
260.246	26.79
260.463	61.61
260.679	63.66
260.895	28.84
261.112	18.6
261.328	2.22
261.544	24.75
261.761	26.79
261.977	26.79
262.193	-59.22
262.409	59.56
262.626	34.99
262.842	45.23
263.058	-20.31
263.274	-20.31
263.49	0.17
263.707	37.03
263.923	100.52
264.139	18.6
264.355	-36.69
264.571	86.19
264.787	80.04
265.004	39.08
265.22	14.51
265.436	20.65
265.652	28.84
265.868	34.99
266.084	-26.45
266.3	-38.74
266.516	-75.6
266.732	77.99
266.948	41.13
267.164	82.09
267.38	80.04
267.596	6.31
267.812	43.18
268.028	90.28
268.244	-12.12
268.46	63.66
268.676	125.1
268.892	61.61
269.108	-51.03
269.324	14.51
269.54	-1.88
269.756	18.6
269.972	47.27
270.188	6.31
270.403	-71.51
270.619	53.42
270.835	-26.45
271.051	41.13
271.267	-22.36
271.483	16.55
271.698	-30.55
271.914	-5.97
272.13	41.13
272.346	63.66
272.562	61.61
272.777	22.7
272.993	118.95
273.209	18.6
273.425	92.33
273.64	-75.6
273.856	-1.88
274.072	-32.6
274.287	32.94
274.503	43.18
274.719	-22.36
274.934	22.7
275.15	-28.5
275.366	-24.4
275.581	-34.64
275.797	51.37
276.012	34.99
276.228	45.23
276.444	26.79
276.659	47.27
276.875	-69.46
277.09	16.55
277.306	75.95
277.521	-30.55
277.737	-3.93
277.952	59.56
278.168	-20.31
278.383	12.46
278.599	-1.88
278.814	43.18
279.03	10.41
279.245	39.08
279.461	63.66
279.676	10.41
279.892	39.08
280.107	-10.07
280.322	10.41
280.538	41.13
280.753	2.22
280.969	75.95
281.184	73.9
281.399	61.61
281.615	18.6
281.83	104.62
282.045	-3.93
282.26	10.41
282.476	37.03
282.691	30.89
282.906	69.8
283.122	53.42
283.337	-22.36
283.552	18.6
283.767	-18.26
283.983	67.75
284.198	49.32
284.413	-14.17
284.628	10.41
284.843	-5.97
285.058	102.57
285.274	51.37
285.489	-18.26
285.704	-38.74
285.919	10.41
286.134	71.85
286.349	28.84
286.564	69.8
286.779	12.46
286.995	-3.93
287.21	12.46
287.425	84.14
287.64	-44.88
287.855	16.55
288.07	2.22
288.285	75.95
288.5	84.14
288.715	30.89
288.93	49.32
289.145	86.19
289.36	63.66
289.575	51.37
289.79	10.41
290.004	-44.88
290.219	100.52
290.434	59.56
290.649	12.46
290.864	92.33
291.079	-18.26
291.294	32.94
291.509	86.19
291.724	-18.26
291.938	30.89
292.153	22.7
292.368	116.9
292.583	69.8
292.798	51.37
293.012	88.23
293.227	-20.31
293.442	-42.84
293.657	43.18
293.871	75.95
294.086	110.76
294.301	43.18
294.516	34.99
294.73	69.8
294.945	-55.12
295.16	34.99
295.374	43.18
295.589	43.18
295.804	14.51
296.018	34.99
296.233	86.19
296.447	32.94
296.662	14.51
296.877	67.75
297.091	16.55
297.306	28.84
297.52	-28.5
297.735	37.03
297.949	61.61
298.164	-30.55
298.378	18.6
298.593	18.6
298.807	-63.32
299.022	45.23
299.236	-14.17
299.451	8.36
299.665	34.99
299.88	61.61
300.094	51.37
300.309	10.41
300.523	65.71
300.737	53.42
300.952	-26.45
301.166	47.27
301.381	30.89
301.595	-8.02
301.809	26.79
302.024	-38.74
302.238	-104.28
302.452	30.89
302.667	12.46
302.881	116.9
303.095	-28.5
303.309	22.7
303.524	-69.46
303.738	43.18
303.952	-20.31
304.166	51.37
304.381	34.99
304.595	53.42
304.809	26.79
305.023	65.71
305.237	51.37
305.452	100.52
305.666	82.09
305.88	47.27
306.094	43.18
306.308	0.17
306.522	34.99
306.736	-5.97
306.95	-5.97
307.164	10.41
307.379	-30.55
307.593	53.42
307.807	88.23
308.021	75.95
308.235	43.18
308.449	10.41
308.663	-18.26
308.877	137.38
309.091	39.08
309.305	14.51
309.519	-79.7
309.733	37.03
309.947	-46.93
310.161	82.09
310.374	16.55
310.588	71.85
310.802	-22.36
311.016	59.56
311.23	43.18
311.444	2.22
311.658	-3.93
311.872	59.56
312.085	67.75
312.299	10.41
312.513	84.14
312.727	14.51
312.941	57.51
313.154	-22.36
313.368	71.85
313.582	12.46
313.796	34.99
314.009	-22.36
314.223	20.65
314.437	-3.93
314.651	34.99
314.864	18.6
315.078	59.56
315.292	12.46
315.505	-1.88
315.719	59.56
315.933	-3.93
316.146	34.99
316.36	-14.17
316.573	67.75
316.787	4.27
317.001	4.27
317.214	-1.88
317.428	4.27
317.641	18.6
317.855	32.94
318.068	73.9
318.282	-38.74
318.495	67.75
318.709	28.84
318.922	96.43
319.136	71.85
319.349	80.04
319.563	80.04
319.776	73.9
319.99	20.65
320.203	55.47
320.417	41.13
320.63	-10.07
320.843	86.19
321.057	16.55
321.27	-26.45
321.483	92.33
321.697	96.43
321.91	80.04
322.124	77.99
322.337	16.55
322.55	84.14
322.763	88.23
322.977	59.56
323.19	-22.36
323.403	41.13
323.617	67.75
323.83	12.46
324.043	41.13
324.256	53.42
324.469	-55.12
324.683	51.37
324.896	59.56
325.109	28.84
325.322	-42.84
325.535	-14.17
325.748	96.43
325.962	100.52
326.175	51.37
326.388	22.7
326.601	-30.55
326.814	-18.26
327.027	47.27
327.24	110.76
327.453	55.47
327.666	14.51
327.879	71.85
328.092	100.52
328.305	26.79
328.518	-3.93
328.731	-5.97
328.944	77.99
329.157	26.79
329.37	30.89
329.583	37.03
329.796	133.29
330.009	-38.74
330.222	80.04
330.435	47.27
330.648	86.19
330.861	-38.74
331.073	10.41
331.286	71.85
331.499	30.89
331.712	12.46
331.925	34.99
332.138	69.8
332.35	-38.74
332.563	12.46
332.776	53.42
332.989	26.79
333.202	26.79
333.414	47.27
333.627	26.79
333.84	53.42
334.053	63.66
334.265	43.18
334.478	12.46
334.691	18.6
334.903	-18.26
335.116	34.99
335.329	12.46
335.541	20.65
335.754	102.57
335.966	39.08
336.179	28.84
336.392	86.19
336.604	-38.74
336.817	14.51
337.029	71.85
337.242	4.27
337.454	77.99
337.667	88.23
337.88	6.31
338.092	0.17
338.305	69.8
338.517	22.7
338.729	80.04
338.942	84.14
339.154	77.99
339.367	-22.36
339.579	55.47
339.792	-20.31
340.004	26.79
340.217	-26.45
340.429	18.6
340.641	-28.5
340.854	-38.74
341.066	92.33
341.278	92.33
341.491	94.38
341.703	43.18
341.915	26.79
342.128	28.84
342.34	47.27
342.552	20.65
342.764	30.89
342.977	-1.88
343.189	4.27
343.401	37.03
343.613	18.6
343.826	121
344.038	30.89
344.25	10.41
344.462	28.84
344.674	10.41
344.886	71.85
345.099	4.27
345.311	39.08
345.523	51.37
345.735	-18.26
345.947	53.42
346.159	30.89
346.371	26.79
346.583	47.27
346.795	43.18
347.007	34.99
347.219	6.31
347.431	-5.97
347.643	22.7
347.855	-44.88
348.067	159.91
348.279	24.75
348.491	34.99
348.703	57.51
348.915	88.23
349.127	47.27
349.339	51.37
349.551	61.61
349.763	55.47
349.975	8.36
350.187	43.18
350.399	30.89
350.61	51.37
350.822	-8.02
351.034	67.75
351.246	26.79
351.458	102.57
351.669	34.99
351.881	53.42
352.093	80.04
352.305	114.86
352.517	67.75
352.728	77.99
352.94	20.65
353.152	61.61
353.363	-1.88
353.575	-5.97
353.787	61.61
353.999	108.71
354.21	39.08
354.422	37.03
354.633	2.22
354.845	37.03
355.057	18.6
355.268	88.23
355.48	82.09
355.692	26.79
355.903	26.79
356.115	2.22
356.326	22.7
356.538	112.81
356.749	51.37
356.961	8.36
357.172	-3.93
357.384	45.23
357.595	71.85
357.807	71.85
358.018	-14.17
358.23	16.55
358.441	84.14
358.653	86.19
358.864	41.13
359.075	59.56
359.287	-38.74
359.498	67.75
359.709	-1.88
359.921	-8.02
360.132	53.42
360.344	49.32
360.555	71.85
360.766	26.79
360.977	77.99
361.189	43.18
361.4	47.27
361.611	-3.93
361.823	37.03
362.034	84.14
362.245	6.31
362.456	-18.26
362.667	57.51
362.879	102.57
363.09	2.22
363.301	59.56
363.512	69.8
363.723	43.18
363.935	59.56
364.146	63.66
364.357	63.66
364.568	75.95
364.779	63.66
364.99	63.66
365.201	39.08
365.412	149.67
365.623	-22.36
365.834	90.28
366.045	20.65
366.256	71.85
366.467	65.71
366.678	-8.02
366.889	26.79
367.1	-14.17
367.311	143.53
367.522	69.8
367.733	14.51
367.944	100.52
368.155	73.9
368.366	43.18
368.577	104.62
368.788	34.99
368.999	-46.93
369.209	43.18
369.42	92.33
369.631	141.48
369.842	63.66
370.053	18.6
370.264	12.46
370.474	75.95
370.685	65.71
370.896	53.42
371.107	75.95
371.317	14.51
371.528	-12.12
371.739	71.85
371.95	-12.12
372.16	92.33
372.371	94.38
372.582	80.04
372.792	51.37
373.003	121
373.214	12.46
373.424	18.6
373.635	6.31
373.846	37.03
374.056	59.56
374.267	18.6
374.477	-12.12
374.688	10.41
374.898	102.57
375.109	98.47
375.319	39.08
375.53	100.52
375.74	88.23
375.951	10.41
376.161	28.84
376.372	116.9
376.582	82.09
376.793	37.03
377.003	-3.93
377.214	69.8
377.424	18.6
377.635	53.42
377.845	28.84
378.055	104.62
378.266	26.79
378.476	63.66
378.686	37.03
378.897	28.84
379.107	71.85
379.317	2.22
379.528	49.32
379.738	59.56
379.948	63.66
380.158	12.46
380.369	-14.17
380.579	39.08
380.789	26.79
380.999	96.43
381.21	94.38
381.42	106.67
381.63	80.04
381.84	118.95
382.05	75.95
382.261	59.56
382.471	100.52
382.681	28.84
382.891	86.19
383.101	168.1
383.311	63.66
383.521	34.99
383.731	102.57
383.941	43.18
384.151	12.46
384.361	53.42
384.571	20.65
384.781	61.61
384.991	133.29
385.201	135.34
385.411	55.47
385.621	69.8
385.831	45.23
386.041	55.47
386.251	-12.12
386.461	94.38
386.671	-3.93
386.881	61.61
387.091	96.43
387.301	26.79
387.511	37.03
387.72	75.95
387.93	-5.97
388.14	-12.12
388.35	71.85
388.56	18.6
388.769	100.52
388.979	108.71
389.189	59.56
389.399	45.23
389.609	92.33
389.818	86.19
390.028	22.7
390.238	26.79
390.447	-44.88
390.657	77.99
390.867	108.71
391.076	100.52
391.286	26.79
391.496	-14.17
391.705	94.38
391.915	108.71
392.125	10.41
392.334	82.09
392.544	75.95
392.753	90.28
392.963	26.79
393.172	75.95
393.382	59.56
393.591	108.71
393.801	55.47
394.01	149.67
394.22	67.75
394.429	34.99
394.639	-12.12
394.848	155.82
395.058	63.66
395.267	77.99
395.477	37.03
395.686	84.14
395.895	217.26
396.105	100.52
396.314	112.81
396.524	92.33
396.733	51.37
396.942	69.8
397.152	110.76
397.361	51.37
397.57	106.67
397.78	94.38
397.989	125.1
398.198	121
398.407	135.34
398.617	96.43
398.826	32.94
399.035	121
399.244	80.04
399.453	94.38
399.663	75.95
399.872	116.9
400.081	96.43
400.29	82.09
400.499	123.05
400.708	149.67
400.917	80.04
401.127	98.47
401.336	49.32
401.545	182.44
401.754	118.95
401.963	166.06
402.172	172.2
402.381	110.76
402.59	104.62
402.799	88.23
403.008	112.81
403.217	100.52
403.426	174.25
403.635	106.67
403.844	100.52
404.053	170.15
404.262	159.91
404.471	211.11
404.68	137.38
404.888	149.67
405.097	137.38
405.306	157.86
405.515	192.68
405.724	202.92
405.933	223.4
406.142	231.59
406.35	182.44
406.559	272.55
406.768	211.11
406.977	276.65
407.185	157.86
407.394	321.7
407.603	215.21
407.812	260.26
408.02	284.84
408.229	241.83
408.438	307.37
408.646	272.55
408.855	323.75
409.064	290.98
409.272	336.04
409.481	366.76
409.69	327.85
409.898	362.66
410.107	354.47
410.315	352.42
410.524	377
410.733	389.28
410.941	338.09
411.15	411.81
411.358	415.91
411.567	501.92
411.775	460.96
411.984	444.58
412.192	456.87
412.401	503.97
412.609	561.31
412.818	567.46
413.026	626.85
413.234	559.27
413.443	673.95
413.651	671.9
413.86	690.34
414.068	733.34
414.276	813.21
414.485	659.62
414.693	759.97
414.901	764.06
415.11	845.98
415.318	895.13
415.526	895.13
415.734	940.19
415.943	903.32
416.151	1067.16
416.359	1026.2
416.567	1069.21
416.776	1071.26
416.984	1018.01
417.192	1099.93
417.4	1214.62
417.608	1124.51
417.817	1321.11
418.025	1353.88
418.233	1386.65
418.441	1364.12
418.649	1487
418.857	1495.19
419.065	1656.98
419.273	1484.95
419.481	1595.54
419.689	1673.36
419.897	1788.05
420.105	1697.94
420.313	1804.43
420.521	1941.65
420.729	1960.08
420.937	2062.48
421.145	2259.08
421.353	2160.78
421.561	2341
421.769	2341
421.977	2510.98
422.185	2506.88
422.393	2592.9
422.601	2693.25
422.809	2721.92
423.017	2877.57
423.224	2926.72
423.432	3012.73
423.64	2959.49
423.848	3303.54
424.056	3240.06
424.263	3391.61
424.471	3496.05
424.679	3506.29
424.887	3725.43
425.094	3754.1
425.302	3819.63
425.51	3895.41
425.718	4122.73
425.925	4143.21
426.133	4225.13
426.341	4452.45
426.548	4720.74
426.756	4796.51
426.964	4675.68
427.171	5165.15
427.379	5089.37
427.586	5154.91
427.794	5376.09
428.001	5722.2
428.209	5918.8
428.417	5843.03
428.624	6127.69
428.832	6285.39
429.039	6164.56
429.247	6103.12
429.454	6692.93
429.662	7190.59
429.869	6680.64
430.076	7360.57
430.284	7059.52
430.491	7432.25
430.699	7745.59
430.906	7901.23
431.114	7571.51
431.321	8124.46
431.528	8316.97
431.736	8728.61
431.943	9300
432.15	9037.86
432.358	9054.24
432.565	9527.32
432.772	9555.99
432.979	9875.48
433.187	10162.19
433.394	10098.7
433.601	10752.01
433.808	10899.46
434.016	10901.51
434.223	11044.87
434.43	12040.18
434.637	11716.6
434.844	12519.4
435.052	12701.67
435.259	12703.72
435.466	12824.55
435.673	12656.62
435.88	13350.88
436.087	14182.35
436.294	14036.95
436.501	13731.8
436.708	14288.85
436.915	14602.19
437.122	15108.04
437.329	15167.43
437.537	15597.5
437.743	15876.02
437.95	15689.66
438.157	16441.26
438.364	16842.67
438.571	17135.53
438.778	17076.13
438.985	18657.17
439.192	17747.87
439.399	18589.58
439.606	18073.49
439.813	19122.05
440.02	20258.68
440.227	19906.43
440.433	19750.78
440.64	20395.89
440.847	20442.99
441.054	20625.26
441.261	21911.39
441.467	21923.68
441.674	22083.42
441.881	23086.92
442.088	23091.02
442.294	22824.78
442.501	23551.81
442.708	23955.26
442.914	24680.24
443.121	25700.13
443.328	25067.31
443.534	26892.05
443.741	25939.74
443.948	25939.74
444.154	27502.34
444.361	27109.13
444.568	27318.03
444.774	27926.27
444.981	27815.68
445.187	28876.53
445.394	29929.19
445.6	29433.58
445.807	32450.24
446.013	30729.94
446.22	31559.37
446.426	32677.56
446.633	32837.3
446.839	34178.72
447.046	32745.14
447.252	34524.83
447.459	34426.53
447.665	33914.53
447.871	35794.57
448.078	37662.32
448.284	35415.69
448.491	36183.68
448.697	38223.46
448.903	38680.16
449.11	38463.07
449.316	38245.99
449.522	39063.13
449.728	39812.68
449.935	39892.55
450.141	40123.97
450.347	40828.48
450.553	39663.18
450.76	40357.44
450.966	41268.79
451.172	40900.15
451.378	42083.88
451.584	41236.02
451.791	42098.22
451.997	42429.99
452.203	43034.14
452.409	42763.81
452.615	42565.15
452.821	41033.27
453.027	40474.18
453.233	42769.95
453.44	40648.25
453.646	41223.73
453.852	41414.19
454.058	42022.44
454.264	40975.93
454.47	41657.9
454.676	40828.48
454.882	42159.66
455.088	38428.26
455.294	39036.5
455.5	39706.19
455.705	40371.78
455.911	38362.72
456.117	37336.69
456.323	37084.79
456.529	35473.04
456.735	36740.73
456.941	35937.93
457.147	35161.75
457.352	34516.64
457.558	33986.21
457.764	34125.47
457.97	33375.92
458.176	32804.53
458.381	32710.33
458.587	31334.09
458.793	30992.08
458.999	29259.5
459.204	31340.24
459.41	30484.19
459.616	28380.92
459.821	28618.49
460.027	28800.76
460.233	27948.8
460.438	26150.68
460.644	26666.77
460.85	25521.96
461.055	24862.51
461.261	24844.08
461.466	23373.64
461.672	22581.07
461.878	23848.77
462.083	22474.58
462.289	21798.75
462.494	21759.84
462.7	20807.53
462.905	20322.16
463.111	20862.83
463.316	21200.74
463.522	20889.45
463.727	20635.5
463.932	20162.42
464.138	19804.03
464.343	20176.76
464.549	19853.18
464.754	20334.45
464.959	20203.38
465.165	20004.73
465.37	18984.84
465.575	18550.67
465.781	19505.03
465.986	19560.32
466.191	18769.8
466.397	18507.66
466.602	17256.36
