Data from USB4F104151__175__14-32-43-510.txt Node

Date: Thu Mar 13 14:32:43 EDT 2025
User: louis
Spectrometer: USB4F10415
Trigger mode: 4
Integration Time (sec): 2.500000E-2
Scans to average: 1
Electric dark correction enabled: true
Nonlinearity correction enabled: false
Boxcar width: 0
XAxis mode: Wavelengths
Number of Pixels in Spectrum: 3648
>>>>>Begin Spectral Data<<<<<
178.204	-143.53
178.424	-143.53
178.644	-143.53
178.864	-170.15
179.084	-84.14
179.304	-43.18
179.524	36.69
179.744	-22.7
179.964	28.5
180.184	57.17
180.404	-4.27
180.624	40.79
180.844	-4.27
181.064	-43.18
181.283	-2.22
181.503	-18.6
181.723	-24.75
181.943	-65.71
182.163	110.42
182.383	-12.46
182.602	-2.22
182.822	42.84
183.042	20.31
183.262	-43.18
183.482	36.69
183.701	-32.94
183.921	22.36
184.141	20.31
184.361	-8.36
184.58	16.21
184.8	85.84
185.02	-41.13
185.239	12.12
185.459	8.02
185.679	3.93
185.898	22.36
186.118	38.74
186.338	1.88
186.557	28.5
186.777	-47.27
186.997	18.26
187.216	-12.46
187.436	83.8
187.655	-16.55
187.875	77.65
188.095	-30.89
188.314	-2.22
188.534	3.93
188.753	-26.79
188.973	55.12
189.192	69.46
189.412	40.79
189.631	-2.22
189.851	32.6
190.07	87.89
190.29	16.21
190.509	-2.22
190.729	24.4
190.948	135
191.168	143.19
191.387	96.08
191.607	102.23
191.826	-2.22
192.045	8.02
192.265	53.08
192.484	44.88
192.704	3.93
192.923	-32.94
193.142	75.6
193.362	28.5
193.581	-20.65
193.8	122.71
194.02	12.12
194.239	69.46
194.458	-20.65
194.678	5.97
194.897	5.97
195.116	91.99
195.335	-18.6
195.555	36.69
195.774	51.03
195.993	40.79
196.212	22.36
196.432	20.31
196.651	-12.46
196.87	-108.71
197.089	59.22
197.308	-10.41
197.528	14.17
197.747	-24.75
197.966	46.93
198.185	46.93
198.404	-22.7
198.623	69.46
198.842	-8.36
199.062	71.51
199.281	73.56
199.5	36.69
199.719	55.12
199.938	22.36
200.157	-4.27
200.376	20.31
200.595	96.08
200.814	-12.46
201.033	38.74
201.252	53.08
201.471	-18.6
201.69	-18.6
201.909	28.5
202.128	-26.79
202.347	16.21
202.566	20.31
202.785	-22.7
203.004	-4.27
203.223	77.65
203.442	65.36
203.661	16.21
203.879	24.4
204.098	63.32
204.317	-2.22
204.536	135
204.755	-24.75
204.974	87.89
205.193	18.26
205.411	89.94
205.63	81.75
205.849	69.46
206.068	42.84
206.287	12.12
206.505	73.56
206.724	-12.46
206.943	24.4
207.162	-4.27
207.381	8.02
207.599	61.27
207.818	-37.03
208.037	-4.27
208.255	-4.27
208.474	3.93
208.693	57.17
208.911	24.4
209.13	63.32
209.349	-6.31
209.567	61.27
209.786	87.89
210.005	57.17
210.223	3.93
210.442	20.31
210.661	5.97
210.879	-12.46
211.098	-10.41
211.316	53.08
211.535	110.42
211.753	28.5
211.972	20.31
212.191	30.55
212.409	-53.42
212.628	69.46
212.846	85.84
213.065	53.08
213.283	63.32
213.502	-0.17
213.72	65.36
213.938	94.04
214.157	69.46
214.375	28.5
214.594	-41.13
214.812	110.42
215.031	32.6
215.249	-12.46
215.467	-4.27
215.686	-57.51
215.904	38.74
216.122	32.6
216.341	102.23
216.559	32.6
216.778	42.84
216.996	3.93
217.214	20.31
217.432	10.07
217.651	18.26
217.869	14.17
218.087	36.69
218.306	77.65
218.524	-0.17
218.742	-4.27
218.96	40.79
219.179	48.98
219.397	-0.17
219.615	116.56
219.833	81.75
220.051	-2.22
220.27	128.85
220.488	38.74
220.706	61.27
220.924	77.65
221.142	38.74
221.36	40.79
221.578	-18.6
221.796	40.79
222.015	22.36
222.233	63.32
222.451	96.08
222.669	-24.75
222.887	22.36
223.105	-41.13
223.323	69.46
223.541	12.12
223.759	53.08
223.977	-41.13
224.195	77.65
224.413	30.55
224.631	53.08
224.849	-26.79
225.067	147.28
225.285	-16.55
225.503	-24.75
225.721	-30.89
225.939	65.36
226.157	51.03
226.375	89.94
226.592	10.07
226.81	12.12
227.028	12.12
227.246	63.32
227.464	-39.08
227.682	44.88
227.9	28.5
228.117	14.17
228.335	79.7
228.553	8.02
228.771	22.36
228.989	96.08
229.206	53.08
229.424	-22.7
229.642	-16.55
229.86	22.36
230.077	38.74
230.295	46.93
230.513	32.6
230.731	114.52
230.948	30.55
231.166	61.27
231.384	22.36
231.601	-4.27
231.819	-28.84
232.037	-37.03
232.254	-37.03
232.472	3.93
232.689	38.74
232.907	36.69
233.125	-28.84
233.342	38.74
233.56	-4.27
233.777	-65.71
233.995	81.75
234.213	53.08
234.43	55.12
234.648	36.69
234.865	3.93
235.083	67.41
235.3	3.93
235.518	30.55
235.735	69.46
235.953	57.17
236.17	24.4
236.388	79.7
236.605	-4.27
236.822	38.74
237.04	-26.79
237.257	16.21
237.475	-4.27
237.692	-45.23
237.909	-10.41
238.127	77.65
238.344	-4.27
238.562	28.5
238.779	-55.47
238.996	-0.17
239.214	-47.27
239.431	77.65
239.648	-12.46
239.865	24.4
240.083	81.75
240.3	32.6
240.517	20.31
240.735	5.97
240.952	12.12
241.169	8.02
241.386	28.5
241.603	12.12
241.821	26.45
242.038	110.42
242.255	57.17
242.472	5.97
242.689	-26.79
242.907	16.21
243.124	12.12
243.341	14.17
243.558	16.21
243.775	-10.41
243.992	1.88
244.209	-10.41
244.426	128.85
244.643	-2.22
244.86	12.12
245.078	-47.27
245.295	28.5
245.512	51.03
245.729	-102.57
245.946	73.56
246.163	-69.8
246.38	-12.46
246.597	20.31
246.814	24.4
247.031	22.36
247.248	46.93
247.464	91.99
247.681	28.5
247.898	-6.31
248.115	79.7
248.332	-77.99
248.549	-12.46
248.766	89.94
248.983	63.32
249.2	51.03
249.417	73.56
249.633	-18.6
249.85	8.02
250.067	-34.99
250.284	85.84
250.501	-12.46
250.717	32.6
250.934	30.55
251.151	3.93
251.368	-2.22
251.585	28.5
251.801	-20.65
252.018	69.46
252.235	81.75
252.451	12.12
252.668	5.97
252.885	106.32
253.102	51.03
253.318	20.31
253.535	36.69
253.752	16.21
253.968	55.12
254.185	-28.84
254.401	28.5
254.618	79.7
254.835	-84.14
255.051	79.7
255.268	-4.27
255.484	63.32
255.701	24.4
255.917	59.22
256.134	8.02
256.351	69.46
256.567	-57.51
256.784	-26.79
257	20.31
257.217	3.93
257.433	14.17
257.65	63.32
257.866	-28.84
258.082	-18.6
258.299	55.12
258.515	85.84
258.732	3.93
258.948	-26.79
259.165	14.17
259.381	-12.46
259.597	69.46
259.814	48.98
260.03	14.17
260.246	69.46
260.463	44.88
260.679	69.46
260.895	3.93
261.112	48.98
261.328	-8.36
261.544	-12.46
261.761	34.64
261.977	34.64
262.193	3.93
262.409	-16.55
262.626	48.98
262.842	-18.6
263.058	20.31
263.274	61.27
263.49	106.32
263.707	8.02
263.923	118.61
264.139	1.88
264.355	24.4
264.571	40.79
264.787	55.12
265.004	102.23
265.22	22.36
265.436	-86.19
265.652	-32.94
265.868	-10.41
266.084	24.4
266.3	38.74
266.516	40.79
266.732	5.97
266.948	-16.55
267.164	-10.41
267.38	108.37
267.596	57.17
267.812	126.8
268.028	-2.22
268.244	44.88
268.46	28.5
268.676	-51.37
268.892	38.74
269.108	14.17
269.324	53.08
269.54	-57.51
269.756	-37.03
269.972	42.84
270.188	24.4
270.403	-69.8
270.619	69.46
270.835	-57.51
271.051	12.12
271.267	3.93
271.483	-18.6
271.698	81.75
271.914	87.89
272.13	18.26
272.346	44.88
272.562	20.31
272.777	-24.75
272.993	-67.75
273.209	-100.52
273.425	24.4
273.64	-51.37
273.856	36.69
274.072	77.65
274.287	-16.55
274.503	24.4
274.719	-14.51
274.934	16.21
275.15	-22.7
275.366	-2.22
275.581	-37.03
275.797	73.56
276.012	-53.42
276.228	20.31
276.444	-4.27
276.659	98.13
276.875	36.69
277.09	20.31
277.306	-24.75
277.521	55.12
277.737	-16.55
277.952	77.65
278.168	63.32
278.383	12.12
278.599	-20.65
278.814	94.04
279.03	-49.32
279.245	16.21
279.461	22.36
279.676	46.93
279.892	-28.84
280.107	-34.99
280.322	3.93
280.538	51.03
280.753	-10.41
280.969	112.47
281.184	-61.61
281.399	55.12
281.615	-26.79
281.83	61.27
282.045	8.02
282.26	22.36
282.476	26.45
282.691	-12.46
282.906	-12.46
283.122	53.08
283.337	-30.89
283.552	3.93
283.767	10.07
283.983	96.08
284.198	20.31
284.413	12.12
284.628	-37.03
284.843	40.79
285.058	24.4
285.274	36.69
285.489	61.27
285.704	91.99
285.919	-4.27
286.134	-12.46
286.349	3.93
286.564	-18.6
286.779	44.88
286.995	-16.55
287.21	-26.79
287.425	40.79
287.64	-32.94
287.855	24.4
288.07	-61.61
288.285	126.8
288.5	36.69
288.715	77.65
288.93	-12.46
289.145	-43.18
289.36	16.21
289.575	28.5
289.79	3.93
290.004	3.93
290.219	77.65
290.434	-12.46
290.649	-53.42
290.864	-37.03
291.079	8.02
291.294	85.84
291.509	48.98
291.724	-10.41
291.938	-12.46
292.153	22.36
292.368	85.84
292.583	30.55
292.798	30.55
293.012	30.55
293.227	36.69
293.442	-4.27
293.657	65.36
293.871	130.9
294.086	55.12
294.301	89.94
294.516	44.88
294.73	38.74
294.945	36.69
295.16	22.36
295.374	28.5
295.589	10.07
295.804	-0.17
296.018	32.6
296.233	69.46
296.447	65.36
296.662	28.5
296.877	38.74
297.091	77.65
297.306	46.93
297.52	44.88
297.735	91.99
297.949	8.02
298.164	16.21
298.378	3.93
298.593	38.74
298.807	59.22
299.022	28.5
299.236	28.5
299.451	-2.22
299.665	22.36
299.88	-16.55
300.094	28.5
300.309	77.65
300.523	3.93
300.737	32.6
300.952	-28.84
301.166	30.55
301.381	-8.36
301.595	12.12
301.809	-20.65
302.024	98.13
302.238	-8.36
302.452	65.36
302.667	3.93
302.881	94.04
303.095	-12.46
303.309	81.75
303.524	40.79
303.738	5.97
303.952	5.97
304.166	77.65
304.381	22.36
304.595	-12.46
304.809	-0.17
305.023	48.98
305.237	1.88
305.452	53.08
305.666	102.23
305.88	20.31
306.094	55.12
306.308	-37.03
306.522	55.12
306.736	48.98
306.95	-6.31
307.164	24.4
307.379	-61.61
307.593	65.36
307.807	44.88
308.021	89.94
308.235	3.93
308.449	32.6
308.663	12.12
308.877	87.89
309.091	38.74
309.305	53.08
309.519	12.12
309.733	30.55
309.947	-14.51
310.161	14.17
310.374	-20.65
310.588	30.55
310.802	-6.31
311.016	8.02
311.23	40.79
311.444	-10.41
311.658	3.93
311.872	48.98
312.085	40.79
312.299	151.38
312.513	40.79
312.727	63.32
312.941	-0.17
313.154	-49.32
313.368	126.8
313.582	-24.75
313.796	69.46
314.009	-41.13
314.223	22.36
314.437	-6.31
314.651	34.64
314.864	-10.41
315.078	8.02
315.292	-30.89
315.505	87.89
315.719	81.75
315.933	12.12
316.146	28.5
316.36	-37.03
316.573	-6.31
316.787	12.12
317.001	22.36
317.214	16.21
317.428	-45.23
317.641	3.93
317.855	-28.84
318.068	8.02
318.282	48.98
318.495	20.31
318.709	94.04
318.922	16.21
319.136	28.5
319.349	30.55
319.563	12.12
319.776	18.26
319.99	20.31
320.203	26.45
320.417	-12.46
320.63	8.02
320.843	132.95
321.057	16.21
321.27	-12.46
321.483	10.07
321.697	110.42
321.91	16.21
322.124	12.12
322.337	32.6
322.55	38.74
322.763	40.79
322.977	16.21
323.19	20.31
323.403	69.46
323.617	89.94
323.83	83.8
324.043	-4.27
324.256	46.93
324.469	-4.27
324.683	-18.6
324.896	61.27
325.109	-0.17
325.322	10.07
325.535	-41.13
325.748	61.27
325.962	24.4
326.175	-4.27
326.388	-20.65
326.601	71.51
326.814	-47.27
327.027	-18.6
327.24	102.23
327.453	-45.23
327.666	40.79
327.879	3.93
328.092	28.5
328.305	14.17
328.518	16.21
328.731	-12.46
328.944	-4.27
329.157	-32.94
329.37	-4.27
329.583	83.8
329.796	57.17
330.009	5.97
330.222	22.36
330.435	44.88
330.648	28.5
330.861	12.12
331.073	94.04
331.286	20.31
331.499	38.74
331.712	42.84
331.925	8.02
332.138	38.74
332.35	38.74
332.563	24.4
332.776	77.65
332.989	-77.99
333.202	8.02
333.414	16.21
333.627	5.97
333.84	38.74
334.053	-2.22
334.265	34.64
334.478	55.12
334.691	-61.61
334.903	89.94
335.116	5.97
335.329	61.27
335.541	12.12
335.754	100.18
335.966	-90.28
336.179	-32.94
336.392	77.65
336.604	32.6
336.817	85.84
337.029	12.12
337.242	89.94
337.454	26.45
337.667	32.6
337.88	87.89
338.092	-45.23
338.305	106.32
338.517	94.04
338.729	147.28
338.942	85.84
339.154	8.02
339.367	-0.17
339.579	75.6
339.792	61.27
340.004	53.08
340.217	-4.27
340.429	12.12
340.641	-12.46
340.854	-12.46
341.066	-24.75
341.278	96.08
341.491	124.76
341.703	-59.56
341.915	22.36
342.128	73.56
342.34	20.31
342.552	-59.56
342.764	22.36
342.977	5.97
343.189	69.46
343.401	55.12
343.613	20.31
343.826	28.5
344.038	22.36
344.25	-59.56
344.462	-26.79
344.674	71.51
344.886	-37.03
345.099	-26.79
345.311	-10.41
345.523	55.12
345.735	26.45
345.947	3.93
346.159	-2.22
346.371	69.46
346.583	94.04
346.795	-4.27
347.007	34.64
347.219	77.65
347.431	55.12
347.643	151.38
347.855	-28.84
348.067	79.7
348.279	-24.75
348.491	61.27
348.703	34.64
348.915	3.93
349.127	53.08
349.339	38.74
349.551	8.02
349.763	61.27
349.975	57.17
350.187	-2.22
350.399	106.32
350.61	61.27
350.822	28.5
351.034	71.51
351.246	57.17
351.458	5.97
351.669	106.32
351.881	57.17
352.093	24.4
352.305	61.27
352.517	108.37
352.728	137.04
352.94	44.88
353.152	81.75
353.363	18.26
353.575	112.47
353.787	42.84
353.999	79.7
354.21	36.69
354.422	3.93
354.633	65.36
354.845	12.12
355.057	-18.6
355.268	-8.36
355.48	34.64
355.692	38.74
355.903	61.27
356.115	-2.22
356.326	-55.47
356.538	77.65
356.749	59.22
356.961	110.42
357.172	20.31
357.384	38.74
357.595	96.08
357.807	8.02
358.018	14.17
358.23	-6.31
358.441	38.74
358.653	77.65
358.864	87.89
359.075	-47.27
359.287	-26.79
359.498	108.37
359.709	-28.84
359.921	69.46
360.132	108.37
360.344	1.88
360.555	44.88
360.766	102.23
360.977	3.93
361.189	79.7
361.4	36.69
361.611	69.46
361.823	24.4
362.034	18.26
362.245	14.17
362.456	-12.46
362.667	-39.08
362.879	61.27
363.09	38.74
363.301	38.74
363.512	44.88
363.723	-18.6
363.935	55.12
364.146	32.6
364.357	36.69
364.568	108.37
364.779	3.93
364.99	61.27
365.201	14.17
365.412	69.46
365.623	-61.61
365.834	12.12
366.045	67.41
366.256	96.08
366.467	46.93
366.678	77.65
366.889	20.31
367.1	44.88
367.311	135
367.522	36.69
367.733	102.23
367.944	73.56
368.155	22.36
368.366	20.31
368.577	132.95
368.788	53.08
368.999	20.31
369.209	51.03
369.42	98.13
369.631	61.27
369.842	5.97
370.053	28.5
370.264	32.6
370.474	98.13
370.685	22.36
370.896	38.74
371.107	53.08
371.317	98.13
371.528	-8.36
371.739	77.65
371.95	44.88
372.16	46.93
372.371	77.65
372.582	8.02
372.792	36.69
373.003	57.17
373.214	20.31
373.424	94.04
373.635	-18.6
373.846	30.55
374.056	-16.55
374.267	79.7
374.477	100.18
374.688	14.17
374.898	8.02
375.109	22.36
375.319	44.88
375.53	108.37
375.74	61.27
375.951	-61.61
376.161	67.41
376.372	34.64
376.582	42.84
376.793	85.84
377.003	-26.79
377.214	-4.27
377.424	32.6
377.635	104.28
377.845	20.31
378.055	63.32
378.266	42.84
378.476	36.69
378.686	40.79
378.897	67.41
379.107	87.89
379.317	-10.41
379.528	5.97
379.738	83.8
379.948	-45.23
380.158	81.75
380.369	61.27
380.579	110.42
380.789	55.12
380.999	24.4
381.21	59.22
381.42	87.89
381.63	18.26
381.84	-10.41
382.05	14.17
382.261	65.36
382.471	3.93
382.681	20.31
382.891	89.94
383.101	36.69
383.311	-18.6
383.521	-34.99
383.731	73.56
383.941	36.69
384.151	-22.7
384.361	57.17
384.571	69.46
384.781	-49.32
384.991	106.32
385.201	40.79
385.411	79.7
385.621	94.04
385.831	44.88
386.041	61.27
386.251	-4.27
386.461	98.13
386.671	-45.23
386.881	69.46
387.091	-47.27
387.301	75.6
387.511	89.94
387.72	46.93
387.93	28.5
388.14	61.27
388.35	30.55
388.56	40.79
388.769	28.5
388.979	61.27
389.189	22.36
389.399	46.93
389.609	128.85
389.818	77.65
390.028	89.94
390.238	-12.46
390.447	28.5
390.657	14.17
390.867	24.4
391.076	-20.65
391.286	130.9
391.496	44.88
391.705	85.84
391.915	120.66
392.125	44.88
392.334	20.31
392.544	98.13
392.753	96.08
392.963	87.89
393.172	71.51
393.382	3.93
393.591	147.28
393.801	91.99
394.01	110.42
394.22	124.76
394.429	30.55
394.639	65.36
394.848	110.42
395.058	53.08
395.267	-10.41
395.477	118.61
395.686	102.23
395.895	46.93
396.105	128.85
396.314	55.12
396.524	69.46
396.733	110.42
396.942	155.47
397.152	40.79
397.361	124.76
397.57	28.5
397.78	61.27
397.989	77.65
398.198	102.23
398.407	22.36
398.617	53.08
398.826	126.8
399.035	57.17
399.244	151.38
399.453	81.75
399.663	48.98
399.872	94.04
400.081	-4.27
400.29	94.04
400.499	48.98
400.708	122.71
400.917	28.5
401.127	71.51
401.336	38.74
401.545	196.43
401.754	110.42
401.963	110.42
402.172	89.94
402.381	65.36
402.59	61.27
402.799	40.79
403.008	91.99
403.217	112.47
403.426	104.28
403.635	67.41
403.844	94.04
404.053	32.6
404.262	55.12
404.471	130.9
404.68	102.23
404.888	102.23
405.097	94.04
405.306	83.8
405.515	122.71
405.724	98.13
405.933	153.43
406.142	182.1
406.35	200.53
406.559	67.41
406.768	122.71
406.977	118.61
407.185	184.15
407.394	233.3
407.603	104.28
407.812	126.8
408.02	126.8
408.229	200.53
408.438	102.23
408.646	96.08
408.855	186.19
409.064	198.48
409.272	202.58
409.481	135
409.69	225.11
409.898	192.34
410.107	216.91
410.315	159.57
410.524	261.97
410.733	323.41
410.941	182.1
411.15	282.45
411.358	239.44
411.567	294.74
411.775	241.49
411.984	257.87
412.192	323.41
412.401	343.89
412.609	358.22
412.818	358.22
413.026	313.17
413.234	384.85
413.443	304.98
413.651	376.66
413.86	372.56
414.068	499.53
414.276	442.19
414.485	472.91
414.693	495.44
414.901	528.21
415.11	493.39
415.318	532.3
415.526	491.34
415.734	663.37
415.943	536.4
416.151	620.36
416.359	577.36
416.567	630.6
416.776	675.66
416.984	638.8
417.192	704.33
417.4	626.51
417.608	677.71
417.817	749.39
418.025	667.47
418.233	827.21
418.441	798.54
418.649	841.54
418.857	964.42
419.065	995.14
419.273	902.98
419.481	1046.34
419.689	937.8
419.897	1036.1
420.105	1038.15
420.313	1187.65
420.521	1244.99
420.729	1292.1
420.937	1232.71
421.145	1204.03
421.353	1347.39
421.561	1367.87
421.769	1390.4
421.977	1457.98
422.185	1423.17
422.393	1554.24
422.601	1611.58
422.809	1625.92
423.017	1630.01
423.224	1777.47
423.432	1822.52
423.64	1775.42
423.848	1888.06
424.056	1924.92
424.263	2027.32
424.471	2142
424.679	2101.05
424.887	2209.59
425.094	2301.75
425.302	2289.46
425.51	2289.46
425.718	2455.34
425.925	2402.1
426.133	2531.12
426.341	2744.11
426.548	2828.07
426.756	2766.64
426.964	2791.21
427.171	2887.47
427.379	3127.08
427.586	3088.17
427.794	3139.37
428.001	3270.44
428.209	3518.24
428.417	3276.58
428.624	3626.78
428.832	3653.41
429.039	3661.6
429.247	3585.82
429.454	4042.52
429.662	4372.24
429.869	3927.83
430.076	4185.88
430.284	4108.05
430.491	4362
430.699	4450.07
430.906	4687.63
431.114	4618
431.321	4906.76
431.528	4882.19
431.736	5146.37
431.943	5267.2
432.15	5136.13
432.358	5281.54
432.565	5598.98
432.772	5515.01
432.979	5895.93
433.187	5910.27
433.394	6027
433.601	6553.33
433.808	6393.59
434.016	6467.31
434.223	6733.55
434.43	7034.6
434.637	6772.46
434.844	7474.92
435.052	7319.27
435.259	7376.61
435.466	7280.36
435.673	7298.79
435.88	7626.46
436.087	8429.27
436.294	8314.58
436.501	8099.55
436.708	8138.46
436.915	8568.53
437.122	8804.05
437.329	8750.8
437.537	9131.72
437.743	9252.55
437.95	9275.08
438.157	9729.73
438.364	10012.35
438.571	10186.43
438.778	9916.09
438.985	10940.08
439.192	10653.36
439.399	10870.45
439.606	10677.94
439.813	11148.97
440.02	11873.95
440.227	11378.34
440.433	11607.72
440.64	11933.34
440.847	11919.01
441.054	12160.67
441.261	12924.56
441.467	12613.27
441.674	13117.07
441.881	13616.77
442.088	13389.45
442.294	13325.96
442.501	13553.29
442.708	14077.57
442.914	14251.64
443.121	14820.98
443.328	14575.22
443.534	15597.16
443.741	15031.92
443.948	14972.53
444.154	16307.8
444.361	16029.28
444.568	16291.42
444.774	15996.51
444.981	16350.81
445.187	16762.45
445.394	17415.76
445.6	17256.01
445.807	18771.51
446.013	17931.84
446.22	18558.52
446.426	19334.7
446.633	19142.19
446.839	20053.54
447.046	18789.94
447.252	20004.39
447.459	20291.1
447.665	20121.12
447.871	21171.73
448.078	22050.31
448.284	20913.69
448.491	21507.6
448.697	22402.56
448.903	22478.33
449.11	22474.24
449.316	22623.74
449.522	22898.17
449.728	23604.72
449.935	23459.31
450.141	23676.4
450.347	23920.1
450.553	23430.64
450.76	23514.61
450.966	24421.86
451.172	24327.65
451.378	24573.41
451.584	24061.41
451.791	24839.64
451.997	25042.39
452.203	24837.59
452.409	25212.37
452.615	24606.17
452.821	24069.61
453.027	23645.68
453.233	25167.32
453.44	23952.87
453.646	23979.5
453.852	24325.6
454.058	24780.25
454.264	23956.97
454.47	24573.41
454.676	23713.26
454.882	24827.35
455.088	22445.57
455.294	22978.04
455.5	23242.23
455.705	23258.61
455.911	22330.88
456.117	21782.02
456.323	21964.29
456.529	20700.7
456.735	21417.49
456.941	20930.07
457.147	20637.21
457.352	20024.87
457.558	19697.19
457.764	19672.62
457.97	19312.17
458.176	18730.55
458.381	18714.17
458.587	18015.81
458.793	18038.34
458.999	16801.36
459.204	18150.98
459.41	17565.26
459.616	16526.94
459.821	16543.32
460.027	16393.82
460.233	15844.96
460.438	15304.3
460.644	15570.54
460.85	14847.6
461.055	14470.78
461.261	14507.64
461.466	13354.63
461.672	13037.2
461.878	13854.34
462.083	13063.82
462.289	12621.46
462.494	12721.81
462.7	12013.21
462.905	11802.27
463.111	12166.81
463.316	12250.78
463.522	11671.2
463.727	12078.75
463.932	12054.17
464.138	11914.91
464.343	11882.14
464.549	11529.89
464.754	11777.7
464.959	11638.44
465.165	11656.87
465.37	11302.57
465.575	10770.1
465.781	11628.2
465.986	11167.4
466.191	10997.42
466.397	10860.21
466.602	10286.78
466.807	10604.21
467.012	10573.49
467.218	10348.22
467.423	10428.09
467.628	10448.57
467.833	10696.37
