Data from USB4F104151__98__14-30-47-668.txt Node

Date: Thu Mar 13 14:30:47 EDT 2025
User: louis
Spectrometer: USB4F10415
Trigger mode: 4
Integration Time (sec): 2.500000E-2
Scans to average: 1
Electric dark correction enabled: true
Nonlinearity correction enabled: false
Boxcar width: 0
XAxis mode: Wavelengths
Number of Pixels in Spectrum: 3648
>>>>>Begin Spectral Data<<<<<
178.204	-165.71
178.424	-165.71
178.644	-165.71
178.864	-194.39
179.084	-114.52
179.304	8.36
179.524	-57.17
179.744	-8.02
179.964	65.71
180.184	-38.74
180.404	51.37
180.624	45.23
180.844	32.94
181.064	-81.75
181.283	-10.07
181.503	-8.02
181.723	0.17
181.943	39.08
182.163	32.94
182.383	28.84
182.602	96.43
182.822	0.17
183.042	94.38
183.262	-28.5
183.482	51.37
183.701	20.65
183.921	67.75
184.141	41.13
184.361	41.13
184.58	73.9
184.8	102.57
185.02	30.89
185.239	26.79
185.459	8.36
185.679	39.08
185.898	-53.08
186.118	114.86
186.338	0.17
186.557	112.81
186.777	2.22
186.997	0.17
187.216	-26.45
187.436	77.99
187.655	67.75
187.875	75.95
188.095	41.13
188.314	100.52
188.534	73.9
188.753	53.42
188.973	57.51
189.192	123.05
189.412	73.9
189.631	41.13
189.851	67.75
190.07	67.75
190.29	6.31
190.509	57.51
190.729	84.14
190.948	82.09
191.168	106.67
191.387	118.95
191.607	77.99
191.826	-22.36
192.045	-3.93
192.265	-20.31
192.484	61.61
192.704	26.79
192.923	-20.31
193.142	18.6
193.362	166.06
193.581	53.42
193.8	65.71
194.02	82.09
194.239	34.99
194.458	57.51
194.678	37.03
194.897	10.41
195.116	114.86
195.335	12.46
195.555	41.13
195.774	0.17
195.993	77.99
196.212	49.32
196.432	49.32
196.651	65.71
196.87	77.99
197.089	90.28
197.308	100.52
197.528	110.76
197.747	82.09
197.966	65.71
198.185	100.52
198.404	108.71
198.623	43.18
198.842	73.9
199.062	77.99
199.281	43.18
199.5	45.23
199.719	71.85
199.938	90.28
200.157	131.24
200.376	57.51
200.595	51.37
200.814	135.34
201.033	75.95
201.252	55.47
201.471	57.51
201.69	123.05
201.909	94.38
202.128	8.36
202.347	129.19
202.566	92.33
202.785	24.75
203.004	57.51
203.223	116.9
203.442	57.51
203.661	2.22
203.879	67.75
204.098	141.48
204.317	65.71
204.536	41.13
204.755	96.43
204.974	82.09
205.193	65.71
205.411	92.33
205.63	73.9
205.849	4.27
206.068	24.75
206.287	59.56
206.505	41.13
206.724	57.51
206.943	75.95
207.162	-3.93
207.381	49.32
207.599	32.94
207.818	65.71
208.037	-12.12
208.255	116.9
208.474	84.14
208.693	88.23
208.911	32.94
209.13	71.85
209.349	73.9
209.567	114.86
209.786	82.09
210.005	100.52
210.223	-14.17
210.442	-5.97
210.661	65.71
210.879	2.22
211.098	4.27
211.316	75.95
211.535	94.38
211.753	32.94
211.972	-16.21
212.191	-3.93
212.409	24.75
212.628	41.13
212.846	24.75
213.065	51.37
213.283	84.14
213.502	16.55
213.72	16.55
213.938	57.51
214.157	16.55
214.375	75.95
214.594	0.17
214.812	94.38
215.031	-22.36
215.249	18.6
215.467	34.99
215.686	28.84
215.904	172.2
216.122	-42.84
216.341	84.14
216.559	37.03
216.778	90.28
216.996	112.81
217.214	4.27
217.432	34.99
217.651	41.13
217.869	84.14
218.087	53.42
218.306	-32.6
218.524	57.51
218.742	10.41
218.96	32.94
219.179	-14.17
219.397	4.27
219.615	108.71
219.833	135.34
220.051	61.61
220.27	67.75
220.488	67.75
220.706	41.13
220.924	28.84
221.142	55.47
221.36	43.18
221.578	92.33
221.796	92.33
222.015	84.14
222.233	18.6
222.451	108.71
222.669	41.13
222.887	24.75
223.105	30.89
223.323	84.14
223.541	26.79
223.759	34.99
223.977	4.27
224.195	112.81
224.413	51.37
224.631	-16.21
224.849	34.99
225.067	127.14
225.285	16.55
225.503	-40.79
225.721	-69.46
225.939	8.36
226.157	49.32
226.375	24.75
226.592	-38.74
226.81	67.75
227.028	114.86
227.246	100.52
227.464	10.41
227.682	77.99
227.9	127.14
228.117	26.79
228.335	67.75
228.553	59.56
228.771	4.27
228.989	8.36
229.206	69.8
229.424	22.7
229.642	20.65
229.86	49.32
230.077	108.71
230.295	18.6
230.513	51.37
230.731	63.66
230.948	147.62
231.166	63.66
231.384	28.84
231.601	73.9
231.819	90.28
232.037	-16.21
232.254	26.79
232.472	37.03
232.689	24.75
232.907	49.32
233.125	84.14
233.342	-48.98
233.56	51.37
233.777	20.65
233.995	18.6
234.213	147.62
234.43	65.71
234.648	26.79
234.865	-28.5
235.083	84.14
235.3	34.99
235.518	61.61
235.735	28.84
235.953	61.61
236.17	-20.31
236.388	73.9
236.605	73.9
236.822	57.51
237.04	155.82
237.257	16.55
237.475	73.9
237.692	92.33
237.909	51.37
238.127	-24.4
238.344	2.22
238.562	0.17
238.779	16.55
238.996	16.55
239.214	164.01
239.431	65.71
239.648	57.51
239.865	123.05
240.083	24.75
240.3	98.47
240.517	2.22
240.735	2.22
240.952	82.09
241.169	65.71
241.386	49.32
241.603	73.9
241.821	41.13
242.038	82.09
242.255	73.9
242.472	30.89
242.689	45.23
242.907	114.86
243.124	51.37
243.341	-8.02
243.558	34.99
243.775	-12.12
243.992	-16.21
244.209	110.76
244.426	102.57
244.643	41.13
244.86	-36.69
245.078	67.75
245.295	77.99
245.512	75.95
245.729	73.9
245.946	41.13
246.163	37.03
246.38	41.13
246.597	2.22
246.814	0.17
247.031	69.8
247.248	41.13
247.464	-26.45
247.681	67.75
247.898	86.19
248.115	-8.02
248.332	41.13
248.549	82.09
248.766	139.43
248.983	73.9
249.2	73.9
249.417	37.03
249.633	55.47
249.85	67.75
250.067	32.94
250.284	-5.97
250.501	71.85
250.717	65.71
250.934	51.37
251.151	-32.6
251.368	-8.02
251.585	39.08
251.801	55.47
252.018	-5.97
252.235	34.99
252.451	57.51
252.668	26.79
252.885	86.19
253.102	-32.6
253.318	102.57
253.535	22.7
253.752	53.42
253.968	-36.69
254.185	47.27
254.401	34.99
254.618	32.94
254.835	77.99
255.051	41.13
255.268	28.84
255.484	82.09
255.701	63.66
255.917	98.47
256.134	73.9
256.351	102.57
256.567	10.41
256.784	61.61
257	0.17
257.217	61.61
257.433	131.24
257.65	114.86
257.866	59.56
258.082	-57.17
258.299	96.43
258.515	104.62
258.732	90.28
258.948	20.65
259.165	2.22
259.381	-32.6
259.597	84.14
259.814	53.42
260.03	10.41
260.246	98.47
260.463	2.22
260.679	4.27
260.895	61.61
261.112	94.38
261.328	45.23
261.544	37.03
261.761	209.06
261.977	47.27
262.193	-40.79
262.409	59.56
262.626	61.61
262.842	20.65
263.058	-79.7
263.274	67.75
263.49	8.36
263.707	86.19
263.923	137.38
264.139	-42.84
264.355	84.14
264.571	86.19
264.787	180.39
265.004	127.14
265.22	37.03
265.436	49.32
265.652	0.17
265.868	102.57
266.084	41.13
266.3	77.99
266.516	-69.46
266.732	106.67
266.948	45.23
267.164	59.56
267.38	32.94
267.596	65.71
267.812	116.9
268.028	47.27
268.244	-30.55
268.46	28.84
268.676	18.6
268.892	57.51
269.108	18.6
269.324	41.13
269.54	8.36
269.756	131.24
269.972	-32.6
270.188	37.03
270.403	10.41
270.619	24.75
270.835	61.61
271.051	20.65
271.267	-18.26
271.483	-8.02
271.698	90.28
271.914	67.75
272.13	96.43
272.346	98.47
272.562	90.28
272.777	98.47
272.993	10.41
273.209	98.47
273.425	73.9
273.64	49.32
273.856	102.57
274.072	12.46
274.287	82.09
274.503	69.8
274.719	73.9
274.934	22.7
275.15	28.84
275.366	-1.88
275.581	92.33
275.797	67.75
276.012	82.09
276.228	30.89
276.444	55.47
276.659	30.89
276.875	24.75
277.09	82.09
277.306	32.94
277.521	8.36
277.737	18.6
277.952	114.86
278.168	2.22
278.383	26.79
278.599	28.84
278.814	59.56
279.03	98.47
279.245	98.47
279.461	20.65
279.676	37.03
279.892	30.89
280.107	49.32
280.322	6.31
280.538	59.56
280.753	57.51
280.969	43.18
281.184	53.42
281.399	94.38
281.615	59.56
281.83	102.57
282.045	12.46
282.26	32.94
282.476	45.23
282.691	98.47
282.906	61.61
283.122	116.9
283.337	20.65
283.552	53.42
283.767	32.94
283.983	49.32
284.198	59.56
284.413	133.29
284.628	65.71
284.843	24.75
285.058	127.14
285.274	90.28
285.489	49.32
285.704	57.51
285.919	53.42
286.134	61.61
286.349	88.23
286.564	10.41
286.779	108.71
286.995	24.75
287.21	61.61
287.425	37.03
287.64	61.61
287.855	123.05
288.07	-24.4
288.285	145.58
288.5	20.65
288.715	57.51
288.93	51.37
289.145	51.37
289.36	82.09
289.575	57.51
289.79	125.1
290.004	86.19
290.219	53.42
290.434	73.9
290.649	41.13
290.864	0.17
291.079	49.32
291.294	73.9
291.509	61.61
291.724	2.22
291.938	51.37
292.153	82.09
292.368	61.61
292.583	32.94
292.798	57.51
293.012	39.08
293.227	39.08
293.442	41.13
293.657	90.28
293.871	59.56
294.086	34.99
294.301	82.09
294.516	73.9
294.73	49.32
294.945	-5.97
295.16	100.52
295.374	57.51
295.589	137.38
295.804	20.65
296.018	24.75
296.233	77.99
296.447	73.9
296.662	-8.02
296.877	41.13
297.091	82.09
297.306	65.71
297.52	4.27
297.735	67.75
297.949	16.55
298.164	82.09
298.378	67.75
298.593	-14.17
298.807	45.23
299.022	92.33
299.236	16.55
299.451	114.86
299.665	22.7
299.88	73.9
300.094	65.71
300.309	-24.4
300.523	2.22
300.737	51.37
300.952	88.23
301.166	32.94
301.381	82.09
301.595	24.75
301.809	22.7
302.024	-8.02
302.238	-8.02
302.452	57.51
302.667	49.32
302.881	75.95
303.095	106.67
303.309	77.99
303.524	43.18
303.738	82.09
303.952	51.37
304.166	90.28
304.381	55.47
304.595	55.47
304.809	-1.88
305.023	67.75
305.237	28.84
305.452	69.8
305.666	73.9
305.88	34.99
306.094	102.57
306.308	41.13
306.522	77.99
306.736	73.9
306.95	94.38
307.164	28.84
307.379	65.71
307.593	65.71
307.807	86.19
308.021	84.14
308.235	88.23
308.449	55.47
308.663	118.95
308.877	110.76
309.091	49.32
309.305	166.06
309.519	0.17
309.733	200.87
309.947	20.65
310.161	108.71
310.374	131.24
310.588	77.99
310.802	51.37
311.016	90.28
311.23	45.23
311.444	57.51
311.658	-8.02
311.872	98.47
312.085	84.14
312.299	108.71
312.513	141.48
312.727	8.36
312.941	49.32
313.154	123.05
313.368	-8.02
313.582	84.14
313.796	65.71
314.009	20.65
314.223	114.86
314.437	57.51
314.651	65.71
314.864	77.99
315.078	92.33
315.292	26.79
315.505	47.27
315.719	63.66
315.933	55.47
316.146	2.22
316.36	16.55
316.573	92.33
316.787	10.41
317.001	45.23
317.214	16.55
317.428	106.67
317.641	18.6
317.855	32.94
318.068	24.75
318.282	53.42
318.495	139.43
318.709	8.36
318.922	67.75
319.136	45.23
319.349	77.99
319.563	2.22
319.776	73.9
319.99	18.6
320.203	67.75
320.417	30.89
320.63	125.1
320.843	96.43
321.057	28.84
321.27	49.32
321.483	110.76
321.697	106.67
321.91	37.03
322.124	90.28
322.337	71.85
322.55	43.18
322.763	88.23
322.977	47.27
323.19	8.36
323.403	28.84
323.617	166.06
323.83	127.14
324.043	18.6
324.256	49.32
324.469	0.17
324.683	80.04
324.896	-24.4
325.109	71.85
325.322	59.56
325.535	43.18
325.748	102.57
325.962	41.13
326.175	80.04
326.388	112.81
326.601	32.94
326.814	84.14
327.027	43.18
327.24	114.86
327.453	-14.17
327.666	84.14
327.879	106.67
328.092	69.8
328.305	94.38
328.518	49.32
328.731	90.28
328.944	53.42
329.157	30.89
329.37	32.94
329.583	123.05
329.796	106.67
330.009	43.18
330.222	94.38
330.435	53.42
330.648	65.71
330.861	24.75
331.073	106.67
331.286	32.94
331.499	-14.17
331.712	0.17
331.925	114.86
332.138	59.56
332.35	114.86
332.563	61.61
332.776	57.51
332.989	34.99
333.202	71.85
333.414	61.61
333.627	67.75
333.84	57.51
334.053	18.6
334.265	-22.36
334.478	51.37
334.691	108.71
334.903	-18.26
335.116	12.46
335.329	84.14
335.541	139.43
335.754	75.95
335.966	63.66
336.179	123.05
336.392	90.28
336.604	-10.07
336.817	41.13
337.029	75.95
337.242	80.04
337.454	90.28
337.667	32.94
337.88	133.29
338.092	149.67
338.305	77.99
338.517	28.84
338.729	53.42
338.942	82.09
339.154	32.94
339.367	51.37
339.579	118.95
339.792	0.17
340.004	53.42
340.217	114.86
340.429	53.42
340.641	90.28
340.854	24.75
341.066	0.17
341.278	170.15
341.491	102.57
341.703	147.62
341.915	14.51
342.128	53.42
342.34	10.41
342.552	65.71
342.764	57.51
342.977	-53.08
343.189	100.52
343.401	75.95
343.613	61.61
343.826	45.23
344.038	63.66
344.25	102.57
344.462	-48.98
344.674	16.55
344.886	86.19
345.099	100.52
345.311	67.75
345.523	32.94
345.735	20.65
345.947	57.51
346.159	67.75
346.371	37.03
346.583	57.51
346.795	65.71
347.007	-28.5
347.219	49.32
347.431	63.66
347.643	139.43
347.855	96.43
348.067	100.52
348.279	26.79
348.491	116.9
348.703	24.75
348.915	8.36
349.127	-3.93
349.339	133.29
349.551	55.47
349.763	73.9
349.975	30.89
350.187	116.9
350.399	147.62
350.61	61.61
350.822	24.75
351.034	77.99
351.246	8.36
351.458	94.38
351.669	108.71
351.881	118.95
352.093	131.24
352.305	63.66
352.517	49.32
352.728	110.76
352.94	125.1
353.152	82.09
353.363	61.61
353.575	86.19
353.787	104.62
353.999	73.9
354.21	153.77
354.422	49.32
354.633	8.36
354.845	-30.55
355.057	67.75
355.268	73.9
355.48	86.19
355.692	45.23
355.903	53.42
356.115	57.51
356.326	-18.26
356.538	114.86
356.749	92.33
356.961	84.14
357.172	100.52
357.384	37.03
357.595	133.29
357.807	106.67
358.018	43.18
358.23	65.71
358.441	149.67
358.653	73.9
358.864	24.75
359.075	41.13
359.287	102.57
359.498	92.33
359.709	104.62
359.921	-5.97
360.132	71.85
360.344	147.62
360.555	51.37
360.766	108.71
360.977	57.51
361.189	129.19
361.4	131.24
361.611	92.33
361.823	57.51
362.034	4.27
362.245	37.03
362.456	26.79
362.667	71.85
362.879	116.9
363.09	67.75
363.301	112.81
363.512	57.51
363.723	80.04
363.935	-3.93
364.146	98.47
364.357	108.71
364.568	131.24
364.779	98.47
364.99	125.1
365.201	92.33
365.412	96.43
365.623	28.84
365.834	69.8
366.045	57.51
366.256	106.67
366.467	188.58
366.678	61.61
366.889	94.38
367.1	37.03
367.311	92.33
367.522	114.86
367.733	43.18
367.944	63.66
368.155	24.75
368.366	67.75
368.577	135.34
368.788	174.25
368.999	49.32
369.209	61.61
369.42	133.29
369.631	59.56
369.842	98.47
370.053	88.23
370.264	71.85
370.474	73.9
370.685	32.94
370.896	41.13
371.107	69.8
371.317	92.33
371.528	75.95
371.739	98.47
371.95	73.9
372.16	106.67
372.371	32.94
372.582	69.8
372.792	43.18
373.003	116.9
373.214	43.18
373.424	106.67
373.635	26.79
373.846	73.9
374.056	53.42
374.267	8.36
374.477	123.05
374.688	39.08
374.898	77.99
375.109	127.14
375.319	77.99
375.53	20.65
375.74	198.82
375.951	67.75
376.161	147.62
376.372	90.28
376.582	65.71
376.793	69.8
377.003	53.42
377.214	88.23
377.424	28.84
377.635	45.23
377.845	73.9
378.055	82.09
378.266	65.71
378.476	125.1
378.686	102.57
378.897	65.71
379.107	123.05
379.317	49.32
379.528	86.19
379.738	114.86
379.948	84.14
380.158	100.52
380.369	61.61
380.579	84.14
380.789	108.71
380.999	127.14
381.21	108.71
381.42	110.76
381.63	139.43
381.84	96.43
382.05	94.38
382.261	135.34
382.471	96.43
382.681	26.79
382.891	207.02
383.101	135.34
383.311	59.56
383.521	41.13
383.731	143.53
383.941	133.29
384.151	65.71
384.361	57.51
384.571	86.19
384.781	73.9
384.991	116.9
385.201	147.62
385.411	110.76
385.621	118.95
385.831	41.13
386.041	106.67
386.251	57.51
386.461	123.05
386.671	41.13
386.881	71.85
387.091	49.32
387.301	32.94
387.511	92.33
387.72	135.34
387.93	100.52
388.14	-8.02
388.35	82.09
388.56	49.32
388.769	121
388.979	186.54
389.189	34.99
389.399	102.57
389.609	172.2
389.818	114.86
390.028	32.94
390.238	100.52
390.447	-14.17
390.657	73.9
390.867	43.18
391.076	75.95
391.286	141.48
391.496	82.09
391.705	86.19
391.915	108.71
392.125	67.75
392.334	139.43
392.544	153.77
392.753	90.28
392.963	41.13
393.172	139.43
393.382	98.47
393.591	139.43
393.801	118.95
394.01	98.47
394.22	22.7
394.429	73.9
394.639	123.05
394.848	123.05
395.058	116.9
395.267	151.72
395.477	75.95
395.686	194.73
395.895	71.85
396.105	188.58
396.314	114.86
396.524	209.06
396.733	123.05
396.942	172.2
397.152	172.2
397.361	108.71
397.57	133.29
397.78	207.02
397.989	139.43
398.198	250.02
398.407	125.1
398.617	184.49
398.826	123.05
399.035	151.72
399.244	174.25
399.453	129.19
399.663	190.63
399.872	172.2
400.081	166.06
400.29	239.78
400.499	139.43
400.708	245.93
400.917	217.26
401.127	102.57
401.336	108.71
401.545	204.97
401.754	182.44
401.963	252.07
402.172	192.68
402.381	106.67
402.59	172.2
402.799	204.97
403.008	235.69
403.217	166.06
403.426	233.64
403.635	190.63
403.844	184.49
404.053	186.54
404.262	133.29
404.471	307.37
404.68	213.16
404.888	145.58
405.097	243.88
405.306	223.4
405.515	278.69
405.724	258.21
405.933	340.13
406.142	260.26
406.35	288.93
406.559	215.21
406.768	286.89
406.977	350.37
407.185	254.12
407.394	250.02
407.603	315.56
407.812	303.27
408.02	344.23
408.229	338.09
408.438	360.61
408.646	282.79
408.855	266.41
409.064	401.57
409.272	344.23
409.481	385.19
409.69	315.56
409.898	407.72
410.107	444.58
410.315	458.92
410.524	452.77
410.733	467.11
410.941	546.98
411.15	542.88
411.358	581.79
411.567	561.31
411.775	567.46
411.984	614.56
412.192	585.89
412.401	641.18
412.609	684.19
412.818	741.54
413.026	721.06
413.234	802.97
413.443	860.32
413.651	755.87
413.86	854.17
414.068	1011.87
414.276	950.43
414.485	893.09
414.693	936.09
414.901	999.58
415.11	1056.92
415.318	991.39
415.526	1020.06
415.734	1163.42
415.943	1208.47
416.151	1269.91
416.359	1247.38
416.567	1327.25
416.776	1394.84
416.984	1327.25
417.192	1439.89
417.4	1501.33
417.608	1409.17
417.817	1487
418.025	1634.45
418.233	1665.17
418.441	1650.83
418.649	1749.14
418.857	1810.58
419.065	1917.07
419.273	1925.26
419.481	1980.56
419.689	2193.55
419.897	2162.83
420.105	2216.07
420.313	2308.23
420.521	2443.4
420.729	2461.83
420.937	2455.69
421.145	2621.57
421.353	2619.52
421.561	2670.72
421.769	2902.14
421.977	3014.78
422.185	2850.94
422.393	3080.32
422.601	3340.41
422.809	3336.31
423.017	3313.78
423.224	3596.4
423.432	3653.75
423.64	3721.33
423.848	4104.3
424.056	3842.16
424.263	4075.63
424.471	4286.57
424.679	4294.76
424.887	4378.73
425.094	4765.79
425.302	4909.15
425.51	4868.19
425.718	4905.06
425.925	5021.79
426.133	5300.31
426.341	5548.12
426.548	5810.26
426.756	5711.96
426.964	6053.97
427.171	6064.21
427.379	6365.26
427.586	6473.8
427.794	6586.44
428.001	7008.32
428.209	7254.08
428.417	7221.31
428.624	7721.01
428.832	7483.45
429.039	7458.87
429.247	7407.67
429.454	8298.54
429.662	8804.39
429.869	8204.33
430.076	8837.16
430.284	8505.38
430.491	9156.64
430.699	9463.83
430.906	9621.53
431.114	9715.73
431.321	10141.71
431.528	10280.97
431.736	10846.21
431.943	11167.74
432.15	10958.85
432.358	11216.9
432.565	11808.76
432.772	11585.53
432.979	12193.78
433.187	12376.05
433.394	12470.25
433.601	13252.58
433.808	13303.78
434.016	13336.54
434.223	13701.08
434.43	14845.9
434.637	14493.65
434.844	15312.83
435.052	15427.52
435.259	15548.35
435.466	15597.5
435.673	15249.35
435.88	16277.43
436.087	17489.82
436.294	17549.21
436.501	17004.46
436.708	17108.9
436.915	17981.34
437.122	18571.15
437.329	18524.05
437.537	19099.53
437.743	19502.98
437.95	19500.93
438.157	20168.57
438.364	21067.63
438.571	21065.58
438.778	20926.32
438.985	23129.93
439.192	22083.42
439.399	22689.62
439.606	22118.23
439.813	23254.86
440.02	24870.7
440.227	24401.72
440.433	24317.75
440.64	25179.95
440.847	24811.31
441.054	25253.67
441.261	26728.21
441.467	26851.09
441.674	27488.01
441.881	28016.38
442.088	28292.86
442.294	27938.56
442.501	28815.09
442.708	29167.34
442.914	30559.96
443.121	31399.63
443.328	30492.38
443.534	32902.84
443.741	31878.85
443.948	31481.55
444.154	33685.16
444.361	33140.4
444.568	33904.29
444.774	33988.26
444.981	34496.16
445.187	35450.51
445.394	36550.27
445.6	36189.83
445.807	39638.61
446.013	37566.06
446.22	38733.4
446.426	39925.32
446.633	40511.04
446.839	41211.45
447.046	40179.27
447.252	42399.27
447.459	42542.63
447.665	42292.77
447.871	44156.42
448.078	45616.63
448.284	43599.38
448.491	44842.49
448.697	46425.57
448.903	47902.16
449.11	47404.5
449.316	46466.53
449.522	47603.16
449.728	48541.13
449.935	48903.62
450.141	49003.97
450.347	50064.81
450.553	48211.4
450.76	49264.06
450.966	50955.68
451.172	49993.14
451.378	51334.56
451.584	50093.49
451.791	51242.4
451.997	51088.8
452.203	52456.84
452.409	51967.38
452.615	51869.08
452.821	50116.01
453.027	49702.32
453.233	52561.29
453.44	50621.86
453.646	50632.1
453.852	50853.28
454.058	51991.95
454.264	50048.43
454.47	51285.4
454.676	49915.31
454.882	51482.01
455.088	47500.76
455.294	48041.42
455.5	48391.62
455.705	49460.66
455.911	47191.51
456.117	46601.7
456.323	45622.77
456.529	43529.75
456.735	45131.26
456.941	44643.84
457.147	43726.35
457.352	42292.77
457.558	41831.98
457.764	41829.93
457.97	40795.71
458.176	40058.44
458.381	40339.01
458.587	38194.79
458.793	38215.27
458.999	36308.61
459.204	38592.09
459.41	37697.13
459.616	35339.92
459.821	35192.47
460.027	35100.31
460.233	34524.83
460.438	32827.06
460.644	33349.29
460.85	31418.06
461.055	31254.22
461.261	31375.05
461.466	28897.01
461.672	28067.58
461.878	29988.58
462.083	27643.65
462.289	27264.78
462.494	27037.45
462.7	26242.84
462.905	25360.17
463.111	26171.16
463.316	26203.93
463.522	25540.39
463.727	25394.98
463.932	25374.5
464.138	25276.2
464.343	25661.22
464.549	24743.73
464.754	24966.96
464.959	25108.27
465.165	24944.43
465.37	23955.26
465.575	23365.45
465.781	24315.7
465.986	24342.33
