Data from USB4F104151__154__14-31-59-348.txt Node

Date: Thu Mar 13 14:31:59 EDT 2025
User: louis
Spectrometer: USB4F10415
Trigger mode: 4
Integration Time (sec): 2.500000E-2
Scans to average: 1
Electric dark correction enabled: true
Nonlinearity correction enabled: false
Boxcar width: 0
XAxis mode: Wavelengths
Number of Pixels in Spectrum: 3648
>>>>>Begin Spectral Data<<<<<
178.204	-128.51
178.424	-128.51
178.644	-128.51
178.864	-161.28
179.084	-187.9
179.304	-26.11
179.524	18.94
179.744	70.14
179.964	10.75
180.184	-32.26
180.404	68.09
180.624	18.94
180.844	-50.69
181.064	-91.65
181.283	14.85
181.503	-32.26
181.723	31.23
181.943	-50.69
182.163	86.53
182.383	31.23
182.602	80.38
182.822	61.95
183.042	74.24
183.262	16.9
183.482	6.66
183.701	35.33
183.921	41.47
184.141	49.66
184.361	78.33
184.58	88.57
184.8	100.86
185.02	78.33
185.239	31.23
185.459	82.43
185.679	147.97
185.898	-40.45
186.118	47.62
186.338	31.23
186.557	145.92
186.777	-34.3
186.997	31.23
187.216	96.77
187.436	27.14
187.655	23.04
187.875	49.66
188.095	47.62
188.314	66.05
188.534	86.53
188.753	25.09
188.973	18.94
189.192	23.04
189.412	23.04
189.631	37.38
189.851	66.05
190.07	20.99
190.29	-50.69
190.509	12.8
190.729	16.9
190.948	123.39
191.168	170.49
191.387	18.94
191.607	-5.63
191.826	14.85
192.045	29.18
192.265	84.48
192.484	16.9
192.704	39.42
192.923	-28.16
193.142	125.44
193.362	12.8
193.581	18.94
193.8	-13.82
194.02	57.86
194.239	64
194.458	0.51
194.678	43.52
194.897	14.85
195.116	41.47
195.335	72.19
195.555	129.53
195.774	51.71
195.993	-9.73
196.212	31.23
196.432	6.66
196.651	-30.21
196.87	64
197.089	154.11
197.308	78.33
197.528	57.86
197.747	27.14
197.966	31.23
198.185	66.05
198.404	16.9
198.623	8.7
198.842	74.24
199.062	86.53
199.281	55.81
199.5	23.04
199.719	14.85
199.938	43.52
200.157	0.51
200.376	96.77
200.595	98.81
200.814	64
201.033	0.51
201.252	90.62
201.471	47.62
201.69	82.43
201.909	72.19
202.128	47.62
202.347	39.42
202.566	-13.82
202.785	-9.73
203.004	35.33
203.223	88.57
203.442	18.94
203.661	84.48
203.879	90.62
204.098	-11.78
204.317	57.86
204.536	104.96
204.755	-13.82
204.974	76.29
205.193	-17.92
205.411	164.35
205.63	39.42
205.849	49.66
206.068	80.38
206.287	70.14
206.505	102.91
206.724	14.85
206.943	145.92
207.162	66.05
207.381	82.43
207.599	70.14
207.818	31.23
208.037	-9.73
208.255	-22.02
208.474	-19.97
208.693	53.76
208.911	49.66
209.13	70.14
209.349	10.75
209.567	39.42
209.786	41.47
210.005	86.53
210.223	47.62
210.442	-5.63
210.661	47.62
210.879	59.9
211.098	49.66
211.316	-11.78
211.535	74.24
211.753	29.18
211.972	107.01
212.191	8.7
212.409	49.66
212.628	68.09
212.846	-22.02
213.065	66.05
213.283	141.82
213.502	66.05
213.72	23.04
213.938	10.75
214.157	80.38
214.375	57.86
214.594	39.42
214.812	31.23
215.031	-22.02
215.249	98.81
215.467	6.66
215.686	47.62
215.904	59.9
216.122	-9.73
216.341	14.85
216.559	53.76
216.778	55.81
216.996	-9.73
217.214	49.66
217.432	39.42
217.651	-3.58
217.869	33.28
218.087	12.8
218.306	-3.58
218.524	107.01
218.742	-5.63
218.96	49.66
219.179	-32.26
219.397	80.38
219.615	147.97
219.833	49.66
220.051	25.09
220.27	72.19
220.488	64
220.706	-17.92
220.924	23.04
221.142	72.19
221.36	64
221.578	121.34
221.796	37.38
222.015	72.19
222.233	88.57
222.451	57.86
222.669	88.57
222.887	123.39
223.105	12.8
223.323	27.14
223.541	-15.87
223.759	35.33
223.977	49.66
224.195	14.85
224.413	76.29
224.631	55.81
224.849	39.42
225.067	82.43
225.285	-1.54
225.503	117.25
225.721	-1.54
225.939	6.66
226.157	74.24
226.375	139.77
226.592	0.51
226.81	96.77
227.028	39.42
227.246	53.76
227.464	27.14
227.682	51.71
227.9	14.85
228.117	80.38
228.335	31.23
228.553	31.23
228.771	23.04
228.989	43.52
229.206	47.62
229.424	6.66
229.642	-30.21
229.86	88.57
230.077	98.81
230.295	-1.54
230.513	100.86
230.731	37.38
230.948	154.11
231.166	72.19
231.384	23.04
231.601	-50.69
231.819	51.71
232.037	-7.68
232.254	4.61
232.472	96.77
232.689	45.57
232.907	68.09
233.125	-1.54
233.342	41.47
233.56	8.7
233.777	23.04
233.995	14.85
234.213	154.11
234.43	47.62
234.648	-9.73
234.865	82.43
235.083	33.28
235.3	31.23
235.518	94.72
235.735	47.62
235.953	131.58
236.17	76.29
236.388	68.09
236.605	115.2
236.822	41.47
237.04	113.15
237.257	51.71
237.475	61.95
237.692	59.9
237.909	-42.5
238.127	-26.11
238.344	31.23
238.562	8.7
238.779	-56.83
238.996	74.24
239.214	-40.45
239.431	68.09
239.648	-1.54
239.865	-42.5
240.083	98.81
240.3	18.94
240.517	37.38
240.735	16.9
240.952	117.25
241.169	109.05
241.386	78.33
241.603	6.66
241.821	-17.92
242.038	43.52
242.255	70.14
242.472	-1.54
242.689	92.67
242.907	88.57
243.124	-56.83
243.341	23.04
243.558	98.81
243.775	55.81
243.992	33.28
244.209	4.61
244.426	90.62
244.643	129.53
244.86	-22.02
245.078	55.81
245.295	72.19
245.512	-5.63
245.729	43.52
245.946	64
246.163	39.42
246.38	23.04
246.597	18.94
246.814	104.96
247.031	8.7
247.248	53.76
247.464	115.2
247.681	115.2
247.898	33.28
248.115	82.43
248.332	64
248.549	64
248.766	117.25
248.983	92.67
249.2	49.66
249.417	66.05
249.633	59.9
249.85	57.86
250.067	-17.92
250.284	12.8
250.501	127.49
250.717	31.23
250.934	23.04
251.151	14.85
251.368	55.81
251.585	92.67
251.801	82.43
252.018	8.7
252.235	55.81
252.451	33.28
252.668	147.97
252.885	74.24
253.102	57.86
253.318	90.62
253.535	8.7
253.752	0.51
253.968	14.85
254.185	-7.68
254.401	55.81
254.618	55.81
254.835	8.7
255.051	123.39
255.268	4.61
255.484	123.39
255.701	14.85
255.917	90.62
256.134	20.99
256.351	-9.73
256.567	55.81
256.784	86.53
257	57.86
257.217	55.81
257.433	55.81
257.65	-13.82
257.866	109.05
258.082	-48.64
258.299	20.99
258.515	-26.11
258.732	10.75
258.948	33.28
259.165	74.24
259.381	31.23
259.597	31.23
259.814	80.38
260.03	61.95
260.246	90.62
260.463	64
260.679	121.34
260.895	72.19
261.112	37.38
261.328	43.52
261.544	88.57
261.761	113.15
261.977	66.05
262.193	6.66
262.409	115.2
262.626	53.76
262.842	72.19
263.058	31.23
263.274	33.28
263.49	47.62
263.707	141.82
263.923	47.62
264.139	-13.82
264.355	76.29
264.571	80.38
264.787	51.71
265.004	72.19
265.22	64
265.436	39.42
265.652	35.33
265.868	55.81
266.084	51.71
266.3	47.62
266.516	-7.68
266.732	8.7
266.948	25.09
267.164	0.51
267.38	113.15
267.596	18.94
267.812	53.76
268.028	37.38
268.244	-19.97
268.46	39.42
268.676	16.9
268.892	113.15
269.108	121.34
269.324	66.05
269.54	43.52
269.756	53.76
269.972	31.23
270.188	41.47
270.403	6.66
270.619	39.42
270.835	55.81
271.051	23.04
271.267	-26.11
271.483	59.9
271.698	84.48
271.914	104.96
272.13	-9.73
272.346	23.04
272.562	72.19
272.777	111.1
272.993	47.62
273.209	23.04
273.425	-13.82
273.64	14.85
273.856	74.24
274.072	72.19
274.287	8.7
274.503	90.62
274.719	90.62
274.934	47.62
275.15	10.75
275.366	74.24
275.581	-24.06
275.797	31.23
276.012	33.28
276.228	88.57
276.444	78.33
276.659	80.38
276.875	16.9
277.09	49.66
277.306	31.23
277.521	72.19
277.737	88.57
277.952	98.81
278.168	80.38
278.383	18.94
278.599	43.52
278.814	92.67
279.03	25.09
279.245	72.19
279.461	47.62
279.676	23.04
279.892	37.38
280.107	14.85
280.322	47.62
280.538	51.71
280.753	27.14
280.969	72.19
281.184	47.62
281.399	51.71
281.615	23.04
281.83	64
282.045	-9.73
282.26	80.38
282.476	33.28
282.691	64
282.906	66.05
283.122	70.14
283.337	41.47
283.552	88.57
283.767	-9.73
283.983	-56.83
284.198	88.57
284.413	129.53
284.628	23.04
284.843	31.23
285.058	107.01
285.274	64
285.489	0.51
285.704	121.34
285.919	55.81
286.134	-1.54
286.349	33.28
286.564	33.28
286.779	72.19
286.995	59.9
287.21	-30.21
287.425	2.56
287.64	10.75
287.855	125.44
288.07	57.86
288.285	59.9
288.5	51.71
288.715	8.7
288.93	49.66
289.145	96.77
289.36	72.19
289.575	27.14
289.79	107.01
290.004	55.81
290.219	33.28
290.434	98.81
290.649	-5.63
290.864	-17.92
291.079	6.66
291.294	51.71
291.509	14.85
291.724	43.52
291.938	-26.11
292.153	47.62
292.368	39.42
292.583	25.09
292.798	86.53
293.012	-5.63
293.227	111.1
293.442	55.81
293.657	64
293.871	64
294.086	51.71
294.301	186.88
294.516	84.48
294.73	47.62
294.945	2.56
295.16	82.43
295.374	74.24
295.589	64
295.804	0.51
296.018	18.94
296.233	8.7
296.447	39.42
296.662	25.09
296.877	74.24
297.091	4.61
297.306	-26.11
297.52	-26.11
297.735	14.85
297.949	10.75
298.164	25.09
298.378	-32.26
298.593	14.85
298.807	33.28
299.022	27.14
299.236	129.53
299.451	68.09
299.665	84.48
299.88	49.66
300.094	104.96
300.309	98.81
300.523	47.62
300.737	0.51
300.952	121.34
301.166	43.52
301.381	80.38
301.595	41.47
301.809	-17.92
302.024	55.81
302.238	-32.26
302.452	145.92
302.667	-3.58
302.881	70.14
303.095	18.94
303.309	64
303.524	47.62
303.738	47.62
303.952	-7.68
304.166	35.33
304.381	23.04
304.595	88.57
304.809	55.81
305.023	-34.3
305.237	29.18
305.452	90.62
305.666	23.04
305.88	80.38
306.094	68.09
306.308	92.67
306.522	66.05
306.736	98.81
306.95	117.25
307.164	37.38
307.379	-17.92
307.593	33.28
307.807	57.86
308.021	113.15
308.235	31.23
308.449	-34.3
308.663	39.42
308.877	57.86
309.091	41.47
309.305	90.62
309.519	25.09
309.733	104.96
309.947	35.33
310.161	64
310.374	117.25
310.588	90.62
310.802	59.9
311.016	64
311.23	66.05
311.444	49.66
311.658	47.62
311.872	80.38
312.085	121.34
312.299	109.05
312.513	107.01
312.727	104.96
312.941	61.95
313.154	51.71
313.368	27.14
313.582	57.86
313.796	-5.63
314.009	49.66
314.223	107.01
314.437	72.19
314.651	59.9
314.864	-1.54
315.078	31.23
315.292	-7.68
315.505	59.9
315.719	66.05
315.933	66.05
316.146	96.77
316.36	-32.26
316.573	39.42
316.787	104.96
317.001	0.51
317.214	39.42
317.428	104.96
317.641	10.75
317.855	14.85
318.068	14.85
318.282	59.9
318.495	39.42
318.709	88.57
318.922	20.99
319.136	6.66
319.349	33.28
319.563	27.14
319.776	66.05
319.99	55.81
320.203	84.48
320.417	47.62
320.63	158.21
320.843	72.19
321.057	88.57
321.27	53.76
321.483	84.48
321.697	133.63
321.91	47.62
322.124	84.48
322.337	-50.69
322.55	47.62
322.763	78.33
322.977	90.62
323.19	72.19
323.403	0.51
323.617	47.62
323.83	92.67
324.043	113.15
324.256	80.38
324.469	37.38
324.683	64
324.896	10.75
325.109	88.57
325.322	-32.26
325.535	102.91
325.748	25.09
325.962	123.39
326.175	-32.26
326.388	96.77
326.601	82.43
326.814	2.56
327.027	-9.73
327.24	109.05
327.453	-1.54
327.666	29.18
327.879	86.53
328.092	23.04
328.305	68.09
328.518	2.56
328.731	53.76
328.944	31.23
329.157	23.04
329.37	47.62
329.583	74.24
329.796	172.54
330.009	-32.26
330.222	47.62
330.435	96.77
330.648	55.81
330.861	47.62
331.073	64
331.286	-34.3
331.499	78.33
331.712	6.66
331.925	72.19
332.138	92.67
332.35	139.77
332.563	-3.58
332.776	125.44
332.989	6.66
333.202	-15.87
333.414	39.42
333.627	25.09
333.84	55.81
334.053	66.05
334.265	31.23
334.478	-17.92
334.691	61.95
334.903	74.24
335.116	74.24
335.329	57.86
335.541	53.76
335.754	180.73
335.966	70.14
336.179	72.19
336.392	51.71
336.604	2.56
336.817	23.04
337.029	76.29
337.242	43.52
337.454	107.01
337.667	78.33
337.88	109.05
338.092	6.66
338.305	35.33
338.517	-9.73
338.729	107.01
338.942	80.38
339.154	92.67
339.367	39.42
339.579	41.47
339.792	64
340.004	133.63
340.217	41.47
340.429	59.9
340.641	8.7
340.854	14.85
341.066	25.09
341.278	72.19
341.491	96.77
341.703	18.94
341.915	16.9
342.128	23.04
342.34	39.42
342.552	-5.63
342.764	64
342.977	-42.5
343.189	39.42
343.401	64
343.613	39.42
343.826	84.48
344.038	88.57
344.25	47.62
344.462	88.57
344.674	55.81
344.886	76.29
345.099	133.63
345.311	-3.58
345.523	27.14
345.735	-5.63
345.947	-5.63
346.159	72.19
346.371	47.62
346.583	109.05
346.795	145.92
347.007	66.05
347.219	64
347.431	41.47
347.643	25.09
347.855	47.62
348.067	84.48
348.279	64
348.491	31.23
348.703	104.96
348.915	31.23
349.127	72.19
349.339	14.85
349.551	-36.35
349.763	31.23
349.975	4.61
350.187	59.9
350.399	55.81
350.61	43.52
350.822	57.86
351.034	100.86
351.246	55.81
351.458	59.9
351.669	117.25
351.881	107.01
352.093	43.52
352.305	43.52
352.517	72.19
352.728	96.77
352.94	68.09
353.152	96.77
353.363	0.51
353.575	16.9
353.787	64
353.999	82.43
354.21	123.39
354.422	66.05
354.633	47.62
354.845	39.42
355.057	23.04
355.268	-17.92
355.48	41.47
355.692	43.52
355.903	-58.88
356.115	154.11
356.326	74.24
356.538	127.49
356.749	100.86
356.961	90.62
357.172	27.14
357.384	39.42
357.595	154.11
357.807	16.9
358.018	88.57
358.23	66.05
358.441	104.96
358.653	66.05
358.864	8.7
359.075	23.04
359.287	72.19
359.498	88.57
359.709	76.29
359.921	72.19
360.132	121.34
360.344	16.9
360.555	59.9
360.766	49.66
360.977	-9.73
361.189	84.48
361.4	113.15
361.611	82.43
361.823	109.05
362.034	88.57
362.245	47.62
362.456	10.75
362.667	-1.54
362.879	78.33
363.09	55.81
363.301	20.99
363.512	0.51
363.723	66.05
363.935	66.05
364.146	98.81
364.357	33.28
364.568	164.35
364.779	8.7
364.99	96.77
365.201	37.38
365.412	27.14
365.623	-38.4
365.834	80.38
366.045	88.57
366.256	104.96
366.467	64
366.678	47.62
366.889	59.9
367.1	25.09
367.311	104.96
367.522	41.47
367.733	98.81
367.944	137.73
368.155	-17.92
368.366	41.47
368.577	170.49
368.788	88.57
368.999	137.73
369.209	23.04
369.42	137.73
369.631	158.21
369.842	72.19
370.053	96.77
370.264	125.44
370.474	64
370.685	129.53
370.896	16.9
371.107	47.62
371.317	82.43
371.528	66.05
371.739	121.34
371.95	111.1
372.16	47.62
372.371	27.14
372.582	104.96
372.792	-1.54
373.003	84.48
373.214	104.96
373.424	82.43
373.635	66.05
373.846	125.44
374.056	92.67
374.267	41.47
374.477	27.14
374.688	-7.68
374.898	49.66
375.109	35.33
375.319	18.94
375.53	199.16
375.74	57.86
375.951	61.95
376.161	104.96
376.372	143.87
376.582	25.09
376.793	39.42
377.003	66.05
377.214	0.51
377.424	119.29
377.635	51.71
377.845	39.42
378.055	64
378.266	29.18
378.476	31.23
378.686	66.05
378.897	72.19
379.107	59.9
379.317	82.43
379.528	119.29
379.738	80.38
379.948	47.62
380.158	121.34
380.369	-15.87
380.579	70.14
380.789	27.14
380.999	41.47
381.21	139.77
381.42	115.2
381.63	98.81
381.84	66.05
382.05	88.57
382.261	94.72
382.471	98.81
382.681	78.33
382.891	90.62
383.101	64
383.311	102.91
383.521	92.67
383.731	104.96
383.941	82.43
384.151	31.23
384.361	14.85
384.571	47.62
384.781	92.67
384.991	135.68
385.201	107.01
385.411	154.11
385.621	100.86
385.831	113.15
386.041	104.96
386.251	47.62
386.461	66.05
386.671	137.73
386.881	133.63
387.091	23.04
387.301	111.1
387.511	72.19
387.72	84.48
387.93	109.05
388.14	31.23
388.35	86.53
388.56	78.33
388.769	74.24
388.979	49.66
389.189	41.47
389.399	39.42
389.609	145.92
389.818	121.34
390.028	47.62
390.238	39.42
390.447	33.28
390.657	178.69
390.867	176.64
391.076	-67.07
391.286	121.34
391.496	98.81
391.705	55.81
391.915	55.81
392.125	117.25
392.334	41.47
392.544	86.53
392.753	18.94
392.963	90.62
393.172	49.66
393.382	109.05
393.591	180.73
393.801	55.81
394.01	131.58
394.22	123.39
394.429	59.9
394.639	86.53
394.848	121.34
395.058	59.9
395.267	88.57
395.477	107.01
395.686	145.92
395.895	166.4
396.105	164.35
396.314	193.02
396.524	139.77
396.733	119.29
396.942	156.16
397.152	131.58
397.361	92.67
397.57	98.81
397.78	113.15
397.989	76.29
398.198	170.49
398.407	135.68
398.617	115.2
398.826	162.3
399.035	57.86
399.244	92.67
399.453	190.97
399.663	131.58
399.872	176.64
400.081	137.73
400.29	166.4
400.499	72.19
400.708	150.01
400.917	147.97
401.127	47.62
401.336	107.01
401.545	152.06
401.754	125.44
401.963	154.11
402.172	100.86
402.381	133.63
402.59	94.72
402.799	137.73
403.008	186.88
403.217	178.69
403.426	145.92
403.635	98.81
403.844	129.53
404.053	139.77
404.262	244.22
404.471	156.16
404.68	207.36
404.888	252.41
405.097	229.88
405.306	188.93
405.515	236.03
405.724	137.73
405.933	193.02
406.142	201.21
406.35	262.65
406.559	154.11
406.768	246.27
406.977	229.88
407.185	238.08
407.394	320
407.603	231.93
407.812	231.93
408.02	348.67
408.229	246.27
408.438	260.6
408.646	260.6
408.855	244.22
409.064	285.18
409.272	287.23
409.481	326.14
409.69	272.89
409.898	338.43
410.107	322.04
410.315	311.8
410.524	334.33
410.733	416.25
410.941	430.59
411.15	367.1
411.358	457.21
411.567	434.68
411.775	387.58
411.984	461.3
412.192	571.9
412.401	422.39
412.609	494.07
412.818	498.17
413.026	582.14
413.234	547.32
413.443	522.74
413.651	547.32
413.86	623.09
414.068	711.16
414.276	727.54
414.485	719.35
414.693	780.79
414.901	795.12
415.11	799.22
415.318	811.51
415.526	854.51
415.734	850.42
415.943	866.8
416.151	956.91
416.359	1001.97
416.567	1030.64
416.776	973.3
416.984	1028.59
417.192	1161.71
417.4	1049.07
417.608	1106.42
417.817	1141.23
418.025	1272.3
418.233	1317.36
418.441	1270.25
418.649	1352.17
418.857	1481.19
419.065	1448.43
419.273	1481.19
419.481	1442.28
419.689	1765.86
419.897	1575.4
420.105	1761.77
420.313	1694.18
420.521	1806.82
420.729	1825.25
420.937	1825.25
421.145	1958.37
421.353	2138.59
421.561	2269.66
421.769	2169.31
421.977	2284
422.185	2251.23
422.393	2460.12
422.601	2619.86
422.809	2599.38
423.017	2589.14
423.224	2750.93
423.432	2746.84
423.64	2800.09
423.848	3004.88
424.056	3021.27
424.263	3160.53
424.471	3144.14
424.679	3396.04
424.887	3459.53
425.094	3512.78
425.302	3561.93
425.51	3717.58
425.718	3703.24
425.925	3881.41
426.133	3901.89
426.341	4188.61
426.548	4405.69
426.756	4268.48
426.964	4460.99
427.171	4635.07
427.379	4751.8
427.586	4932.02
427.794	5030.32
428.001	5276.08
428.209	5478.83
428.417	5462.44
428.624	5800.36
428.832	5755.3
429.039	5691.82
429.247	5679.53
429.454	6396.32
429.662	6683.03
429.869	6367.65
430.076	6748.57
430.284	6545.82
430.491	6762.9
430.699	7240.08
430.906	7059.86
431.114	7256.47
431.321	7551.37
431.528	7682.44
431.736	7969.16
431.943	8325.5
432.15	8206.72
432.358	8319.36
432.565	9034.1
432.772	8765.82
432.979	9296.24
433.187	9308.53
433.394	9503.09
433.601	10086.76
433.808	10017.13
434.016	9961.83
434.223	10385.76
434.43	11010.39
434.637	10717.53
434.844	11622.73
435.052	11735.37
435.259	11690.32
435.466	11581.78
435.673	11360.59
435.88	12298.56
436.087	13164.86
436.294	12949.82
436.501	12742.97
436.708	12826.94
436.915	13220.15
437.122	14334.25
437.329	13953.32
437.537	14137.64
437.743	14663.97
437.95	14432.55
438.157	15034.65
438.364	15829.26
438.571	15655.19
438.778	15810.83
438.985	17254.65
439.192	16451.84
439.399	17021.18
439.606	16623.87
439.813	17731.83
440.02	18647.27
440.227	18219.24
440.433	17957.1
440.64	18708.71
440.847	18661.6
441.054	19237.08
441.261	20193.48
441.467	19904.72
441.674	20515.01
441.881	21133.5
442.088	21084.35
442.294	20754.63
442.501	21459.13
442.708	21905.59
442.914	22954.15
443.121	23402.65
443.328	23195.81
443.534	24862.85
443.741	23816.34
443.948	23578.78
444.154	25307.26
444.361	25223.3
444.568	25178.24
444.774	25155.71
444.981	25778.29
445.187	26396.78
445.394	27410.53
445.6	27256.93
445.807	29800.51
446.013	28848.2
446.22	28672.07
446.426	29919.29
446.633	30208.05
446.839	31514.66
447.046	29833.27
447.252	31461.41
447.459	31940.63
447.665	31748.12
447.871	33101.83
448.078	34398.2
448.284	32542.74
448.491	33705.98
448.697	34514.93
448.903	35512.29
449.11	35612.64
449.316	34910.19
449.522	36067.29
449.728	36333.53
449.935	37126.09
450.141	37119.95
450.347	37803.97
450.553	36327.38
450.76	37208.01
450.966	38309.82
451.172	37533.64
451.378	39083.95
451.584	37828.54
451.791	38969.26
451.997	38520.76
452.203	39507.88
452.409	39253.93
452.615	39208.87
452.821	37746.62
453.027	37513.16
453.233	39591.84
453.44	37691.33
453.646	38164.41
453.852	38246.33
454.058	39395.24
454.264	37836.73
454.47	38686.64
454.676	37580.74
454.882	39169.96
455.088	35594.21
455.294	36034.52
455.5	36624.34
455.705	37468.1
455.911	35962.84
456.117	35088.36
456.323	34492.4
456.529	32753.68
456.735	34220.02
456.941	33251.33
457.147	32759.82
457.352	31987.74
457.558	31410.21
457.764	31440.93
457.97	31139.88
458.176	30163
458.381	30019.64
458.587	28954.69
458.793	28807.24
458.999	27107.43
459.204	29245.51
459.41	28608.59
459.616	26706.02
459.821	26538.09
460.027	26411.12
460.233	26310.77
460.438	24516.75
460.644	24928.39
460.85	23998.61
461.055	23124.13
461.261	23154.85
461.466	21536.95
461.672	20840.64
461.878	22315.18
462.083	20572.36
462.289	20275.4
462.494	20203.72
462.7	19362.01
462.905	19005.66
463.111	19294.43
463.316	19769.55
463.522	18936.03
463.727	19007.71
463.932	19251.42
464.138	18759.91
464.343	18864.35
464.549	18444.52
464.754	18831.58
464.959	18815.2
465.165	18428.13
465.37	17737.97
465.575	17254.65
465.781	18045.16
465.986	18049.26
466.191	17125.63
466.397	17006.84
466.602	16234.76
466.807	16670.98
467.012	16703.75
467.218	16744.7
467.423	16439.56
467.628	16435.46
