Data from USB4F104151__109__14-31-05-188.txt Node

Date: Thu Mar 13 14:31:05 EDT 2025
User: louis
Spectrometer: USB4F10415
Trigger mode: 4
Integration Time (sec): 2.500000E-2
Scans to average: 1
Electric dark correction enabled: true
Nonlinearity correction enabled: false
Boxcar width: 0
XAxis mode: Wavelengths
Number of Pixels in Spectrum: 3648
>>>>>Begin Spectral Data<<<<<
178.204	-210.94
178.424	-210.94
178.644	-210.94
178.864	-143.36
179.084	-135.17
179.304	47.1
179.524	-4.1
179.744	-4.1
179.964	8.19
180.184	36.86
180.404	-6.14
180.624	-10.24
180.844	20.48
181.064	-24.58
181.283	-28.67
181.503	-6.14
181.723	-28.67
181.943	-59.39
182.163	57.34
182.383	-28.67
182.602	53.25
182.822	12.29
183.042	28.67
183.262	-16.38
183.482	-12.29
183.701	71.68
183.921	36.86
184.141	-38.91
184.361	28.67
184.58	71.68
184.8	55.3
185.02	36.86
185.239	45.06
185.459	-2.05
185.679	110.59
185.898	-8.19
186.118	53.25
186.338	4.1
186.557	69.63
186.777	-12.29
186.997	-100.35
187.216	24.58
187.436	81.92
187.655	79.87
187.875	40.96
188.095	-2.05
188.314	36.86
188.534	77.82
188.753	10.24
188.973	38.91
189.192	104.45
189.412	51.2
189.631	24.58
189.851	22.53
190.07	-18.43
190.29	4.1
190.509	14.34
190.729	32.77
190.948	104.45
191.168	151.55
191.387	139.26
191.607	86.01
191.826	71.68
192.045	38.91
192.265	45.06
192.484	2.05
192.704	45.06
192.923	36.86
193.142	88.06
193.362	47.1
193.581	12.29
193.8	47.1
194.02	22.53
194.239	100.35
194.458	40.96
194.678	-12.29
194.897	30.72
195.116	94.21
195.335	30.72
195.555	28.67
195.774	2.05
195.993	86.01
196.212	53.25
196.432	20.48
196.651	36.86
196.87	49.15
197.089	110.59
197.308	36.86
197.528	47.1
197.747	-20.48
197.966	14.34
198.185	69.63
198.404	12.29
198.623	14.34
198.842	69.63
199.062	100.35
199.281	30.72
199.5	75.77
199.719	-16.38
199.938	45.06
200.157	22.53
200.376	18.43
200.595	81.92
200.814	36.86
201.033	79.87
201.252	45.06
201.471	22.53
201.69	55.3
201.909	55.3
202.128	118.78
202.347	36.86
202.566	-12.29
202.785	69.63
203.004	-34.82
203.223	98.3
203.442	69.63
203.661	-10.24
203.879	10.24
204.098	-2.05
204.317	-30.72
204.536	77.82
204.755	20.48
204.974	102.4
205.193	90.11
205.411	151.55
205.63	8.19
205.849	36.86
206.068	4.1
206.287	77.82
206.505	-4.1
206.724	57.34
206.943	69.63
207.162	20.48
207.381	51.2
207.599	28.67
207.818	4.1
208.037	16.38
208.255	38.91
208.474	116.73
208.693	69.63
208.911	92.16
209.13	94.21
209.349	-36.86
209.567	61.44
209.786	86.01
210.005	61.44
210.223	38.91
210.442	22.53
210.661	47.1
210.879	36.86
211.098	12.29
211.316	47.1
211.535	77.82
211.753	-36.86
211.972	77.82
212.191	6.14
212.409	45.06
212.628	20.48
212.846	8.19
213.065	-20.48
213.283	98.3
213.502	22.53
213.72	-8.19
213.938	49.15
214.157	98.3
214.375	22.53
214.594	34.82
214.812	49.15
215.031	30.72
215.249	47.1
215.467	77.82
215.686	0
215.904	129.02
216.122	38.91
216.341	86.01
216.559	-2.05
216.778	86.01
216.996	20.48
217.214	22.53
217.432	10.24
217.651	-38.91
217.869	79.87
218.087	88.06
218.306	49.15
218.524	-18.43
218.742	-18.43
218.96	102.4
219.179	-4.1
219.397	20.48
219.615	86.01
219.833	108.54
220.051	-26.62
220.27	4.1
220.488	28.67
220.706	71.68
220.924	2.05
221.142	20.48
221.36	34.82
221.578	30.72
221.796	4.1
222.015	112.64
222.233	36.86
222.451	94.21
222.669	-51.2
222.887	45.06
223.105	47.1
223.323	-20.48
223.541	8.19
223.759	55.3
223.977	-40.96
224.195	79.87
224.413	67.58
224.631	55.3
224.849	24.58
225.067	47.1
225.285	59.39
225.503	55.3
225.721	-77.82
225.939	22.53
226.157	20.48
226.375	129.02
226.592	-75.77
226.81	126.97
227.028	32.77
227.246	77.82
227.464	77.82
227.682	90.11
227.9	40.96
228.117	145.41
228.335	20.48
228.553	28.67
228.771	24.58
228.989	4.1
229.206	86.01
229.424	20.48
229.642	6.14
229.86	-79.87
230.077	40.96
230.295	8.19
230.513	75.77
230.731	57.34
230.948	61.44
231.166	77.82
231.384	-36.86
231.601	32.77
231.819	100.35
232.037	69.63
232.254	12.29
232.472	112.64
232.689	20.48
232.907	110.59
233.125	63.49
233.342	102.4
233.56	14.34
233.777	61.44
233.995	-36.86
234.213	2.05
234.43	45.06
234.648	61.44
234.865	-36.86
235.083	75.77
235.3	90.11
235.518	-32.77
235.735	73.73
235.953	69.63
236.17	38.91
236.388	92.16
236.605	77.82
236.822	45.06
237.04	-4.1
237.257	131.07
237.475	10.24
237.692	55.3
237.909	73.73
238.127	47.1
238.344	106.49
238.562	65.54
238.779	71.68
238.996	81.92
239.214	24.58
239.431	100.35
239.648	-45.06
239.865	53.25
240.083	53.25
240.3	30.72
240.517	53.25
240.735	86.01
240.952	53.25
241.169	126.97
241.386	40.96
241.603	4.1
241.821	-20.48
242.038	47.1
242.255	61.44
242.472	14.34
242.689	24.58
242.907	67.58
243.124	28.67
243.341	-28.67
243.558	32.77
243.775	40.96
243.992	8.19
244.209	40.96
244.426	135.17
244.643	90.11
244.86	120.83
245.078	28.67
245.295	71.68
245.512	28.67
245.729	65.54
245.946	51.2
246.163	53.25
246.38	16.38
246.597	16.38
246.814	114.69
247.031	73.73
247.248	77.82
247.464	45.06
247.681	120.83
247.898	49.15
248.115	120.83
248.332	43.01
248.549	73.73
248.766	90.11
248.983	53.25
249.2	20.48
249.417	90.11
249.633	4.1
249.85	61.44
250.067	71.68
250.284	20.48
250.501	24.58
250.717	79.87
250.934	38.91
251.151	16.38
251.368	49.15
251.585	53.25
251.801	122.88
252.018	53.25
252.235	36.86
252.451	69.63
252.668	-26.62
252.885	143.36
253.102	20.48
253.318	30.72
253.535	22.53
253.752	12.29
253.968	30.72
254.185	63.49
254.401	55.3
254.618	32.77
254.835	12.29
255.051	98.3
255.268	22.53
255.484	96.25
255.701	14.34
255.917	6.14
256.134	0
256.351	104.45
256.567	22.53
256.784	94.21
257	-69.63
257.217	32.77
257.433	57.34
257.65	45.06
257.866	71.68
258.082	-86.01
258.299	22.53
258.515	-2.05
258.732	32.77
258.948	18.43
259.165	53.25
259.381	63.49
259.597	36.86
259.814	6.14
260.03	65.54
260.246	12.29
260.463	65.54
260.679	79.87
260.895	28.67
261.112	61.44
261.328	53.25
261.544	-34.82
261.761	110.59
261.977	55.3
262.193	-2.05
262.409	51.2
262.626	32.77
262.842	20.48
263.058	55.3
263.274	57.34
263.49	77.82
263.707	47.1
263.923	53.25
264.139	45.06
264.355	61.44
264.571	86.01
264.787	45.06
265.004	106.49
265.22	49.15
265.436	32.77
265.652	28.67
265.868	51.2
266.084	45.06
266.3	24.58
266.516	0
266.732	45.06
266.948	-18.43
267.164	34.82
267.38	36.86
267.596	-12.29
267.812	149.5
268.028	51.2
268.244	77.82
268.46	86.01
268.676	-10.24
268.892	102.4
269.108	-4.1
269.324	-16.38
269.54	28.67
269.756	32.77
269.972	-18.43
270.188	-8.19
270.403	-2.05
270.619	8.19
270.835	49.15
271.051	38.91
271.267	73.73
271.483	16.38
271.698	0
271.914	28.67
272.13	-47.1
272.346	45.06
272.562	6.14
272.777	114.69
272.993	75.77
273.209	10.24
273.425	55.3
273.64	8.19
273.856	73.73
274.072	6.14
274.287	53.25
274.503	40.96
274.719	40.96
274.934	45.06
275.15	-20.48
275.366	-36.86
275.581	16.38
275.797	12.29
276.012	69.63
276.228	-10.24
276.444	40.96
276.659	88.06
276.875	32.77
277.09	47.1
277.306	32.77
277.521	24.58
277.737	10.24
277.952	47.1
278.168	47.1
278.383	28.67
278.599	-16.38
278.814	106.49
279.03	6.14
279.245	133.12
279.461	-8.19
279.676	108.54
279.892	65.54
280.107	20.48
280.322	2.05
280.538	45.06
280.753	-4.1
280.969	79.87
281.184	4.1
281.399	40.96
281.615	8.19
281.83	118.78
282.045	-8.19
282.26	-69.63
282.476	53.25
282.691	61.44
282.906	10.24
283.122	20.48
283.337	22.53
283.552	-12.29
283.767	12.29
283.983	53.25
284.198	0
284.413	36.86
284.628	61.44
284.843	118.78
285.058	69.63
285.274	98.3
285.489	-14.34
285.704	67.58
285.919	20.48
286.134	57.34
286.349	65.54
286.564	12.29
286.779	53.25
286.995	124.93
287.21	-43.01
287.425	28.67
287.64	-4.1
287.855	129.02
288.07	28.67
288.285	83.97
288.5	86.01
288.715	45.06
288.93	4.1
289.145	22.53
289.36	53.25
289.575	20.48
289.79	38.91
290.004	63.49
290.219	73.73
290.434	38.91
290.649	18.43
290.864	43.01
291.079	61.44
291.294	63.49
291.509	16.38
291.724	40.96
291.938	-24.58
292.153	65.54
292.368	30.72
292.583	106.49
292.798	55.3
293.012	40.96
293.227	28.67
293.442	20.48
293.657	38.91
293.871	77.82
294.086	102.4
294.301	-4.1
294.516	43.01
294.73	61.44
294.945	73.73
295.16	26.62
295.374	53.25
295.589	63.49
295.804	47.1
296.018	129.02
296.233	94.21
296.447	-30.72
296.662	-30.72
296.877	47.1
297.091	94.21
297.306	88.06
297.52	-22.53
297.735	110.59
297.949	36.86
298.164	61.44
298.378	98.3
298.593	14.34
298.807	4.1
299.022	32.77
299.236	92.16
299.451	47.1
299.665	30.72
299.88	8.19
300.094	96.25
300.309	-18.43
300.523	-20.48
300.737	53.25
300.952	86.01
301.166	126.97
301.381	-12.29
301.595	8.19
301.809	71.68
302.024	12.29
302.238	8.19
302.452	45.06
302.667	53.25
302.881	77.82
303.095	45.06
303.309	96.25
303.524	6.14
303.738	-51.2
303.952	36.86
304.166	53.25
304.381	26.62
304.595	61.44
304.809	40.96
305.023	12.29
305.237	53.25
305.452	102.4
305.666	94.21
305.88	16.38
306.094	47.1
306.308	45.06
306.522	34.82
306.736	59.39
306.95	106.49
307.164	8.19
307.379	-55.3
307.593	2.05
307.807	88.06
308.021	69.63
308.235	61.44
308.449	2.05
308.663	61.44
308.877	24.58
309.091	104.45
309.305	45.06
309.519	12.29
309.733	122.88
309.947	36.86
310.161	77.82
310.374	61.44
310.588	116.73
310.802	57.34
311.016	-18.43
311.23	57.34
311.444	-4.1
311.658	34.82
311.872	143.36
312.085	61.44
312.299	79.87
312.513	102.4
312.727	106.49
312.941	8.19
313.154	22.53
313.368	53.25
313.582	4.1
313.796	28.67
314.009	-4.1
314.223	51.2
314.437	53.25
314.651	90.11
314.864	96.25
315.078	-12.29
315.292	12.29
315.505	-36.86
315.719	28.67
315.933	-4.1
316.146	49.15
316.36	-71.68
316.573	61.44
316.787	118.78
317.001	61.44
317.214	30.72
317.428	106.49
317.641	-32.77
317.855	61.44
318.068	106.49
318.282	43.01
318.495	159.74
318.709	102.4
318.922	61.44
319.136	73.73
319.349	49.15
319.563	-2.05
319.776	104.45
319.99	-14.34
320.203	24.58
320.417	-10.24
320.63	108.54
320.843	126.97
321.057	-6.14
321.27	59.39
321.483	61.44
321.697	104.45
321.91	47.1
322.124	40.96
322.337	110.59
322.55	-18.43
322.763	57.34
322.977	-2.05
323.19	47.1
323.403	63.49
323.617	86.01
323.83	61.44
324.043	-2.05
324.256	61.44
324.469	36.86
324.683	102.4
324.896	53.25
325.109	106.49
325.322	-16.38
325.535	83.97
325.748	73.73
325.962	8.19
326.175	16.38
326.388	45.06
326.601	-36.86
326.814	14.34
327.027	69.63
327.24	71.68
327.453	-26.62
327.666	120.83
327.879	38.91
328.092	159.74
328.305	45.06
328.518	36.86
328.731	26.62
328.944	22.53
329.157	8.19
329.37	96.25
329.583	106.49
329.796	86.01
330.009	86.01
330.222	75.77
330.435	28.67
330.648	53.25
330.861	-2.05
331.073	53.25
331.286	86.01
331.499	79.87
331.712	36.86
331.925	32.77
332.138	30.72
332.35	114.69
332.563	-8.19
332.776	198.65
332.989	24.58
333.202	36.86
333.414	61.44
333.627	40.96
333.84	49.15
334.053	53.25
334.265	-4.1
334.478	10.24
334.691	61.44
334.903	30.72
335.116	30.72
335.329	40.96
335.541	79.87
335.754	96.25
335.966	40.96
336.179	20.48
336.392	16.38
336.604	28.67
336.817	28.67
337.029	77.82
337.242	77.82
337.454	57.34
337.667	16.38
337.88	88.06
338.092	-2.05
338.305	102.4
338.517	-10.24
338.729	83.97
338.942	112.64
339.154	98.3
339.367	-4.1
339.579	63.49
339.792	-16.38
340.004	53.25
340.217	4.1
340.429	59.39
340.641	34.82
340.854	73.73
341.066	45.06
341.278	28.67
341.491	55.3
341.703	8.19
341.915	108.54
342.128	94.21
342.34	40.96
342.552	10.24
342.764	30.72
342.977	53.25
343.189	120.83
343.401	65.54
343.613	51.2
343.826	38.91
344.038	-2.05
344.25	104.45
344.462	43.01
344.674	4.1
344.886	0
345.099	110.59
345.311	135.17
345.523	67.58
345.735	-6.14
345.947	104.45
346.159	20.48
346.371	36.86
346.583	8.19
346.795	86.01
347.007	8.19
347.219	47.1
347.431	8.19
347.643	20.48
347.855	40.96
348.067	40.96
348.279	38.91
348.491	38.91
348.703	151.55
348.915	106.49
349.127	8.19
349.339	20.48
349.551	47.1
349.763	71.68
349.975	118.78
350.187	73.73
350.399	86.01
350.61	83.97
350.822	47.1
351.034	32.77
351.246	53.25
351.458	94.21
351.669	98.3
351.881	45.06
352.093	79.87
352.305	145.41
352.517	14.34
352.728	86.01
352.94	53.25
353.152	131.07
353.363	4.1
353.575	55.3
353.787	81.92
353.999	32.77
354.21	159.74
354.422	106.49
354.633	-8.19
354.845	94.21
355.057	102.4
355.268	86.01
355.48	14.34
355.692	55.3
355.903	30.72
356.115	77.82
356.326	59.39
356.538	69.63
356.749	20.48
356.961	77.82
357.172	36.86
357.384	53.25
357.595	172.03
357.807	18.43
358.018	8.19
358.23	104.45
358.441	88.06
358.653	45.06
358.864	2.05
359.075	20.48
359.287	104.45
359.498	86.01
359.709	98.3
359.921	59.39
360.132	45.06
360.344	61.44
360.555	36.86
360.766	129.02
360.977	71.68
361.189	63.49
361.4	16.38
361.611	110.59
361.823	129.02
362.034	28.67
362.245	-43.01
362.456	59.39
362.667	49.15
362.879	69.63
363.09	102.4
363.301	102.4
363.512	75.77
363.723	81.92
363.935	69.63
364.146	126.97
364.357	28.67
364.568	94.21
364.779	69.63
364.99	126.97
365.201	-2.05
365.412	63.49
365.623	110.59
365.834	77.82
366.045	43.01
366.256	88.06
366.467	61.44
366.678	106.49
366.889	6.14
367.1	51.2
367.311	141.31
367.522	77.82
367.733	18.43
367.944	120.83
368.155	59.39
368.366	102.4
368.577	94.21
368.788	122.88
368.999	16.38
369.209	77.82
369.42	110.59
369.631	73.73
369.842	108.54
370.053	14.34
370.264	57.34
370.474	16.38
370.685	75.77
370.896	137.21
371.107	143.36
371.317	98.3
371.528	73.73
371.739	102.4
371.95	120.83
372.16	73.73
372.371	4.1
372.582	40.96
372.792	65.54
373.003	71.68
373.214	90.11
373.424	94.21
373.635	30.72
373.846	73.73
374.056	24.58
374.267	-2.05
374.477	98.3
374.688	22.53
374.898	100.35
375.109	30.72
375.319	77.82
375.53	98.3
375.74	28.67
375.951	94.21
376.161	69.63
376.372	112.64
376.582	14.34
376.793	45.06
377.003	36.86
377.214	53.25
377.424	131.07
377.635	55.3
377.845	-10.24
378.055	77.82
378.266	53.25
378.476	120.83
378.686	53.25
378.897	129.02
379.107	86.01
379.317	12.29
379.528	36.86
379.738	202.75
379.948	77.82
380.158	71.68
380.369	28.67
380.579	124.93
380.789	94.21
380.999	102.4
381.21	28.67
381.42	67.58
381.63	96.25
381.84	147.45
382.05	38.91
382.261	100.35
382.471	135.17
382.681	-10.24
382.891	69.63
383.101	53.25
383.311	28.67
383.521	94.21
383.731	61.44
383.941	137.21
384.151	47.1
384.361	61.44
384.571	77.82
384.781	69.63
384.991	112.64
385.201	110.59
385.411	43.01
385.621	114.69
385.831	67.58
386.041	14.34
386.251	88.06
386.461	110.59
386.671	14.34
386.881	83.97
387.091	71.68
387.301	126.97
387.511	47.1
387.72	129.02
387.93	47.1
388.14	36.86
388.35	96.25
388.56	79.87
388.769	86.01
388.979	47.1
389.189	112.64
389.399	77.82
389.609	110.59
389.818	102.4
390.028	73.73
390.238	104.45
390.447	90.11
390.657	51.2
390.867	126.97
391.076	98.3
391.286	129.02
391.496	129.02
391.705	57.34
391.915	86.01
392.125	143.36
392.334	88.06
392.544	102.4
392.753	139.26
392.963	53.25
393.172	108.54
393.382	86.01
393.591	155.65
393.801	86.01
394.01	159.74
394.22	143.36
394.429	86.01
394.639	137.21
394.848	100.35
395.058	77.82
395.267	118.78
395.477	57.34
395.686	112.64
395.895	235.52
396.105	247.8
396.314	139.26
396.524	143.36
396.733	145.41
396.942	167.93
397.152	129.02
397.361	200.7
397.57	79.87
397.78	61.44
397.989	167.93
398.198	204.8
398.407	174.08
398.617	143.36
398.826	77.82
399.035	77.82
399.244	75.77
399.453	159.74
399.663	188.41
399.872	184.32
400.081	163.84
400.29	225.28
400.499	143.36
400.708	196.61
400.917	159.74
401.127	159.74
401.336	69.63
401.545	233.47
401.754	243.71
401.963	143.36
402.172	94.21
402.381	192.51
402.59	202.75
402.799	159.74
403.008	135.17
403.217	129.02
403.426	145.41
403.635	141.31
403.844	129.02
404.053	245.76
404.262	61.44
404.471	219.13
404.68	192.51
404.888	249.85
405.097	143.36
405.306	176.13
405.515	227.32
405.724	184.32
405.933	206.84
406.142	270.33
406.35	256
406.559	251.9
406.768	196.61
406.977	274.43
407.185	245.76
407.394	276.48
407.603	231.42
407.812	208.89
408.02	309.24
408.229	225.28
408.438	225.28
408.646	221.18
408.855	311.29
409.064	362.49
409.272	358.39
409.481	374.78
409.69	387.07
409.898	387.07
410.107	348.15
410.315	456.7
410.524	397.31
410.733	450.55
410.941	421.88
411.15	464.89
411.358	503.8
411.567	421.88
411.775	479.22
411.984	493.56
412.192	544.76
412.401	520.18
412.609	630.77
412.818	598.01
413.026	628.73
413.234	641.01
413.443	692.21
413.651	720.89
413.86	710.65
414.068	858.1
414.276	788.47
414.485	800.76
414.693	843.76
414.901	950.26
415.11	868.34
415.318	856.05
415.526	921.59
415.734	995.31
415.943	901.11
416.151	987.12
416.359	1071.09
416.567	1085.42
416.776	1159.15
416.984	1175.53
417.192	1183.73
417.4	1316.84
417.608	1140.72
417.817	1284.08
418.025	1302.51
418.233	1505.26
418.441	1415.15
418.649	1470.44
418.857	1572.84
419.065	1560.55
419.273	1675.24
419.481	1724.39
419.689	1865.7
419.897	1800.16
420.105	1861.6
420.313	1994.72
420.521	2023.39
420.729	1951.71
420.937	2265.05
421.145	2240.48
421.353	2346.97
421.561	2469.85
421.769	2396.12
421.977	2637.78
422.185	2519
422.393	2809.81
422.601	2854.87
422.809	2781.14
423.017	2875.35
423.224	3004.37
423.432	3174.35
423.64	3172.3
423.848	3487.69
424.056	3461.07
424.263	3629
424.471	3592.14
424.679	3690.44
424.887	3848.13
425.094	3870.66
425.302	3938.24
425.51	3991.49
425.718	4210.62
425.925	4394.94
426.133	4581.31
426.341	4603.83
426.548	4868.02
426.756	4988.85
426.964	4974.52
427.171	5314.48
427.379	5482.41
427.586	5525.42
427.794	5525.42
428.001	5908.39
428.209	6197.15
428.417	6096.8
428.624	6565.79
428.832	6557.6
429.039	6358.94
429.247	6410.14
429.454	6983.57
429.662	7458.7
429.869	6926.23
430.076	7585.68
430.284	7337.87
430.491	7769.99
430.699	7985.03
430.906	8015.75
431.114	8247.17
431.321	8378.24
431.528	8634.24
431.736	9119.6
431.943	9617.26
432.15	9312.11
432.358	9514.86
432.565	10043.24
432.772	9774.95
432.979	10555.23
433.187	10532.7
433.394	10518.37
433.601	11554.64
433.808	11405.14
434.016	11231.06
434.223	11810.64
434.43	12443.46
434.637	12205.89
434.844	12951.35
435.052	13121.34
435.259	13186.87
435.466	13186.87
435.673	13217.59
435.88	13948.72
436.087	14714.66
436.294	14655.26
436.501	14376.74
436.708	14710.56
436.915	15249.18
437.122	15824.65
437.329	15769.36
437.537	16197.38
437.743	16789.25
437.95	16371.46
438.157	17313.53
438.364	18085.61
438.571	17778.42
438.778	18124.52
438.985	19312.35
439.192	18956
439.399	19457.75
439.606	18786.02
439.813	20133.58
440.02	21210.81
440.227	20979.39
440.433	20453.06
440.64	21409.47
440.847	20917.95
441.054	21667.51
441.261	23207.58
441.467	22802.08
441.674	23080.61
441.881	24481.42
442.088	23912.08
442.294	23768.73
442.501	24450.7
442.708	24868.48
442.914	26095.22
443.121	27037.28
443.328	26099.31
443.534	27831.9
443.741	27297.38
443.948	27137.63
444.154	28853.83
444.361	28735.05
444.568	28980.81
444.774	28739.15
444.981	29482.56
445.187	30070.33
445.394	31133.22
445.6	31030.82
445.807	33615.36
446.013	32095.77
446.22	32630.29
446.426	34393.59
446.633	34706.93
446.839	35562.98
447.046	34188.79
447.252	36341.21
447.459	35939.8
447.665	35997.15
447.871	37615.04
448.078	38884.78
448.284	37379.53
448.491	38608.31
448.697	39617.96
448.903	40750.48
449.11	40680.85
449.316	39335.34
449.522	40732.05
449.728	41815.43
449.935	42063.23
450.141	41911.68
450.347	42943.86
450.553	41448.84
450.76	42321.27
450.966	43246.96
451.172	43011.44
451.378	44037.47
451.584	43068.78
451.791	44080.48
451.997	44205.41
452.203	44780.88
452.409	44635.48
452.615	44508.5
452.821	42624.37
453.027	42517.88
453.233	44795.22
453.44	42825.07
453.646	43554.15
453.852	43646.31
454.058	44516.7
454.264	42968.43
454.47	43799.91
454.676	42892.66
454.882	44096.86
455.088	40277.4
455.294	41328.01
455.5	41678.21
455.705	41971.07
455.911	40576.4
456.117	39697.83
456.323	39036.33
456.529	37242.31
456.735	39001.52
456.941	37490.12
457.147	37078.47
457.352	36134.36
457.558	35644.9
457.764	35827.17
457.97	35026.41
458.176	34110.97
458.381	34104.82
458.587	32800.27
458.793	32454.16
458.999	31190.56
459.204	33074.7
459.41	32257.56
459.616	30039.61
459.821	30197.3
460.027	29937.21
460.233	29515.33
460.438	27907.67
460.644	28249.68
460.85	26883.69
461.055	26293.87
461.261	26404.46
461.466	24673.93
461.672	23592.6
461.878	25255.55
462.083	23994
462.289	23381.66
462.494	23045.79
462.7	21941.94
462.905	21436.09
463.111	21939.89
463.316	22263.47
463.522	21475
463.727	21851.83
463.932	21606.07
464.138	21403.32
464.343	21526.2
464.549	20690.63
464.754	21722.8
464.959	21264.06
465.165	21255.87
465.37	20014.8
465.575	19996.37
465.781	20467.4
465.986	20682.44
466.191	20059.85
466.397	19429.08
466.602	18446.05
466.807	19269.34
467.012	19132.12
467.218	18806.5
