Data from USB4F104151__58__14-30-05-859.txt Node

Date: Thu Mar 13 14:30:05 EDT 2025
User: louis
Spectrometer: USB4F10415
Trigger mode: 4
Integration Time (sec): 2.500000E-2
Scans to average: 1
Electric dark correction enabled: true
Nonlinearity correction enabled: false
Boxcar width: 0
XAxis mode: Wavelengths
Number of Pixels in Spectrum: 3648
>>>>>Begin Spectral Data<<<<<
178.204	-184.32
178.424	-184.32
178.644	-184.32
178.864	-124.93
179.084	-188.41
179.304	-57.34
179.524	-12.29
179.744	-63.49
179.964	-4.1
180.184	86.01
180.404	-4.1
180.624	-4.1
180.844	2.05
181.064	-30.72
181.283	88.06
181.503	-26.62
181.723	26.62
181.943	-47.1
182.163	79.87
182.383	-75.77
182.602	43.01
182.822	18.43
183.042	12.29
183.262	-53.25
183.482	14.34
183.701	-63.49
183.921	10.24
184.141	10.24
184.361	30.72
184.58	47.1
184.8	71.68
185.02	-36.86
185.239	59.39
185.459	22.53
185.679	88.06
185.898	-86.01
186.118	-36.86
186.338	12.29
186.557	-30.72
186.777	-26.62
186.997	45.06
187.216	12.29
187.436	57.34
187.655	20.48
187.875	-0
188.095	-0
188.314	47.1
188.534	55.3
188.753	2.05
188.973	-6.14
189.192	116.73
189.412	4.1
189.631	-4.1
189.851	18.43
190.07	34.82
190.29	-12.29
190.509	18.43
190.729	-75.77
190.948	77.82
191.168	141.31
191.387	43.01
191.607	47.1
191.826	-6.14
192.045	22.53
192.265	18.43
192.484	34.82
192.704	20.48
192.923	-51.2
193.142	57.34
193.362	10.24
193.581	108.54
193.8	6.14
194.02	55.3
194.239	71.68
194.458	26.62
194.678	-18.43
194.897	100.35
195.116	53.25
195.335	51.2
195.555	67.58
195.774	-34.82
195.993	75.77
196.212	10.24
196.432	-6.14
196.651	20.48
196.87	-10.24
197.089	59.39
197.308	96.25
197.528	67.58
197.747	-24.58
197.966	12.29
198.185	43.01
198.404	-12.29
198.623	-36.86
198.842	90.11
199.062	4.1
199.281	75.77
199.5	32.77
199.719	34.82
199.938	79.87
200.157	110.59
200.376	69.63
200.595	57.34
200.814	83.97
201.033	-14.34
201.252	69.63
201.471	71.68
201.69	100.35
201.909	43.01
202.128	79.87
202.347	61.44
202.566	18.43
202.785	-14.34
203.004	-47.1
203.223	69.63
203.442	10.24
203.661	43.01
203.879	2.05
204.098	12.29
204.317	-6.14
204.536	-26.62
204.755	65.53
204.974	53.25
205.193	108.54
205.411	69.63
205.63	81.92
205.849	10.24
206.068	-2.05
206.287	2.05
206.505	100.35
206.724	40.96
206.943	55.3
207.162	-6.14
207.381	6.14
207.599	34.82
207.818	83.97
208.037	-16.38
208.255	20.48
208.474	45.06
208.693	-8.19
208.911	-8.19
209.13	34.82
209.349	-8.19
209.567	34.82
209.786	30.72
210.005	4.1
210.223	26.62
210.442	32.77
210.661	34.82
210.879	26.62
211.098	24.58
211.316	26.62
211.535	104.45
211.753	71.68
211.972	14.34
212.191	-26.62
212.409	6.14
212.628	51.2
212.846	34.82
213.065	28.67
213.283	-0
213.502	10.24
213.72	63.49
213.938	-6.14
214.157	-18.43
214.375	-55.3
214.594	-79.87
214.812	-22.53
215.031	-8.19
215.249	-53.25
215.467	16.38
215.686	6.14
215.904	67.58
216.122	75.77
216.341	86.01
216.559	-12.29
216.778	57.34
216.996	49.15
217.214	32.77
217.432	83.97
217.651	59.39
217.869	22.53
218.087	34.82
218.306	38.91
218.524	2.05
218.742	-22.53
218.96	45.06
219.179	55.3
219.397	28.67
219.615	92.16
219.833	8.19
220.051	-4.1
220.27	34.82
220.488	10.24
220.706	43.01
220.924	32.77
221.142	67.58
221.36	30.72
221.578	28.67
221.796	26.62
222.015	67.58
222.233	26.62
222.451	75.77
222.669	-53.25
222.887	10.24
223.105	30.72
223.323	-10.24
223.541	79.87
223.759	88.06
223.977	-30.72
224.195	51.2
224.413	77.82
224.631	-14.34
224.849	51.2
225.067	67.58
225.285	-30.72
225.503	55.3
225.721	-28.67
225.939	20.48
226.157	-14.34
226.375	100.35
226.592	-30.72
226.81	67.58
227.028	47.1
227.246	145.41
227.464	-77.82
227.682	22.53
227.9	24.58
228.117	34.82
228.335	38.91
228.553	61.44
228.771	10.24
228.989	4.1
229.206	-10.24
229.424	34.82
229.642	59.39
229.86	26.62
230.077	-8.19
230.295	69.63
230.513	102.4
230.731	34.82
230.948	43.01
231.166	94.21
231.384	67.58
231.601	-6.14
231.819	26.62
232.037	22.53
232.254	-32.77
232.472	18.43
232.689	36.86
232.907	10.24
233.125	14.34
233.342	34.82
233.56	18.43
233.777	2.05
233.995	22.53
234.213	59.39
234.43	53.25
234.648	71.68
234.865	4.1
235.083	59.39
235.3	18.43
235.518	18.43
235.735	104.45
235.953	10.24
236.17	22.53
236.388	10.24
236.605	-24.58
236.822	83.97
237.04	20.48
237.257	59.39
237.475	10.24
237.692	-8.19
237.909	83.97
238.127	-4.1
238.344	34.82
238.562	-28.67
238.779	-75.77
238.996	-30.72
239.214	75.77
239.431	79.87
239.648	4.1
239.865	38.91
240.083	79.87
240.3	-6.14
240.517	47.1
240.735	4.1
240.952	51.2
241.169	-38.91
241.386	59.39
241.603	26.62
241.821	-34.82
242.038	4.1
242.255	2.05
242.472	-2.05
242.689	30.72
242.907	18.43
243.124	4.1
243.341	83.97
243.558	2.05
243.775	61.44
243.992	-6.14
244.209	6.14
244.426	77.82
244.643	67.58
244.86	86.01
245.078	-34.82
245.295	2.05
245.512	8.19
245.729	26.62
245.946	4.1
246.163	18.43
246.38	69.63
246.597	28.67
246.814	43.01
247.031	4.1
247.248	137.21
247.464	55.3
247.681	30.72
247.898	14.34
248.115	73.73
248.332	14.34
248.549	106.49
248.766	145.41
248.983	59.39
249.2	18.43
249.417	59.39
249.633	-40.96
249.85	26.62
250.067	43.01
250.284	104.45
250.501	43.01
250.717	2.05
250.934	-30.72
251.151	51.2
251.368	59.39
251.585	59.39
251.801	45.06
252.018	51.2
252.235	116.73
252.451	-38.91
252.668	-38.91
252.885	34.82
253.102	-30.72
253.318	40.96
253.535	38.91
253.752	2.05
253.968	-30.72
254.185	-40.96
254.401	43.01
254.618	100.35
254.835	14.34
255.051	67.58
255.268	69.63
255.484	51.2
255.701	-6.14
255.917	-12.29
256.134	6.14
256.351	43.01
256.567	6.14
256.784	28.67
257	-2.05
257.217	53.25
257.433	34.82
257.65	45.06
257.866	32.77
258.082	-18.43
258.299	38.91
258.515	20.48
258.732	-45.06
258.948	30.72
259.165	59.39
259.381	10.24
259.597	-18.43
259.814	51.2
260.03	2.05
260.246	88.06
260.463	120.83
260.679	63.49
260.895	10.24
261.112	-28.67
261.328	4.1
261.544	-14.34
261.761	34.82
261.977	-14.34
262.193	-45.06
262.409	63.49
262.626	55.3
262.842	43.01
263.058	-12.29
263.274	51.2
263.49	32.77
263.707	59.39
263.923	53.25
264.139	47.1
264.355	47.1
264.571	36.86
264.787	49.15
265.004	32.77
265.22	69.63
265.436	22.53
265.652	34.82
265.868	12.29
266.084	-14.34
266.3	14.34
266.516	-14.34
266.732	4.1
266.948	92.16
267.164	28.67
267.38	20.48
267.596	108.54
267.812	51.2
268.028	18.43
268.244	2.05
268.46	45.06
268.676	26.62
268.892	-6.14
269.108	-24.58
269.324	10.24
269.54	-2.05
269.756	20.48
269.972	34.82
270.188	-61.44
270.403	-18.43
270.619	-55.3
270.835	43.01
271.051	26.62
271.267	-86.01
271.483	-6.14
271.698	86.01
271.914	90.11
272.13	-26.62
272.346	4.1
272.562	22.53
272.777	38.91
272.993	10.24
273.209	110.59
273.425	14.34
273.64	63.49
273.856	-6.14
274.072	77.82
274.287	34.82
274.503	36.86
274.719	43.01
274.934	133.12
275.15	-47.1
275.366	59.39
275.581	2.05
275.797	102.4
276.012	-83.97
276.228	92.16
276.444	-38.91
276.659	22.53
276.875	-12.29
277.09	94.21
277.306	-36.86
277.521	71.68
277.737	14.34
277.952	8.19
278.168	-63.49
278.383	69.63
278.599	10.24
278.814	92.16
279.03	-4.1
279.245	135.17
279.461	6.14
279.676	141.31
279.892	-16.38
280.107	43.01
280.322	-12.29
280.538	-22.53
280.753	40.96
280.969	12.29
281.184	-8.19
281.399	38.91
281.615	55.3
281.83	65.53
282.045	-30.72
282.26	24.58
282.476	47.1
282.691	6.14
282.906	-28.67
283.122	26.62
283.337	-0
283.552	2.05
283.767	73.73
283.983	75.77
284.198	-28.67
284.413	104.45
284.628	40.96
284.843	6.14
285.058	26.62
285.274	-14.34
285.489	-4.1
285.704	59.39
285.919	4.1
286.134	63.49
286.349	94.21
286.564	2.05
286.779	28.67
286.995	-47.1
287.21	-18.43
287.425	77.82
287.64	2.05
287.855	18.43
288.07	-14.34
288.285	38.91
288.5	75.77
288.715	43.01
288.93	-6.14
289.145	63.49
289.36	133.12
289.575	-12.29
289.79	36.86
290.004	26.62
290.219	28.67
290.434	47.1
290.649	-20.48
290.864	10.24
291.079	45.06
291.294	-16.38
291.509	-6.14
291.724	28.67
291.938	49.15
292.153	-20.48
292.368	53.25
292.583	53.25
292.798	18.43
293.012	55.3
293.227	55.3
293.442	18.43
293.657	38.91
293.871	6.14
294.086	108.54
294.301	83.97
294.516	51.2
294.73	-6.14
294.945	-14.34
295.16	6.14
295.374	22.53
295.589	40.96
295.804	55.3
296.018	30.72
296.233	77.82
296.447	8.19
296.662	-14.34
296.877	96.25
297.091	20.48
297.306	32.77
297.52	30.72
297.735	36.86
297.949	51.2
298.164	45.06
298.378	26.62
298.593	-22.53
298.807	24.58
299.022	36.86
299.236	59.39
299.451	-10.24
299.665	65.53
299.88	55.3
300.094	61.44
300.309	-4.1
300.523	94.21
300.737	20.48
300.952	67.58
301.166	32.77
301.381	22.53
301.595	14.34
301.809	28.67
302.024	83.97
302.238	79.87
302.452	135.17
302.667	12.29
302.881	165.89
303.095	51.2
303.309	2.05
303.524	-47.1
303.738	53.25
303.952	49.15
304.166	24.58
304.381	-22.53
304.595	153.6
304.809	12.29
305.023	34.82
305.237	18.43
305.452	26.62
305.666	45.06
305.88	79.87
306.094	92.16
306.308	108.54
306.522	100.35
306.736	36.86
306.95	38.91
307.164	12.29
307.379	-14.34
307.593	63.49
307.807	59.39
308.021	18.43
308.235	12.29
308.449	-53.25
308.663	67.58
308.877	116.73
309.091	18.43
309.305	59.39
309.519	-40.96
309.733	61.44
309.947	-14.34
310.161	102.4
310.374	30.72
310.588	53.25
310.802	16.38
311.016	53.25
311.23	34.82
311.444	-12.29
311.658	83.97
311.872	-55.3
312.085	34.82
312.299	92.16
312.513	59.39
312.727	-49.15
312.941	-40.96
313.154	79.87
313.368	-6.14
313.582	49.15
313.796	51.2
314.009	18.43
314.223	14.34
314.437	51.2
314.651	106.49
314.864	-55.3
315.078	83.97
315.292	-24.58
315.505	18.43
315.719	30.72
315.933	51.2
316.146	-55.3
316.36	28.67
316.573	61.44
316.787	108.54
317.001	12.29
317.214	-14.34
317.428	43.01
317.641	20.48
317.855	83.97
318.068	28.67
318.282	81.92
318.495	55.3
318.709	67.58
318.922	12.29
319.136	22.53
319.349	141.31
319.563	16.38
319.776	38.91
319.99	-20.48
320.203	104.45
320.417	22.53
320.63	18.43
320.843	83.97
321.057	22.53
321.27	47.1
321.483	53.25
321.697	43.01
321.91	47.1
322.124	32.77
322.337	63.49
322.55	104.45
322.763	79.87
322.977	118.78
323.19	2.05
323.403	43.01
323.617	67.58
323.83	55.3
324.043	-12.29
324.256	12.29
324.469	43.01
324.683	63.49
324.896	-55.3
325.109	-14.34
325.322	-34.82
325.535	118.78
325.748	20.48
325.962	-18.43
326.175	47.1
326.388	53.25
326.601	55.3
326.814	30.72
327.027	47.1
327.24	67.58
327.453	67.58
327.666	-36.86
327.879	145.41
328.092	28.67
328.305	98.3
328.518	26.62
328.731	10.24
328.944	104.45
329.157	18.43
329.37	59.39
329.583	79.87
329.796	57.34
330.009	-26.62
330.222	45.06
330.435	34.82
330.648	14.34
330.861	53.25
331.073	10.24
331.286	69.63
331.499	77.82
331.712	-4.1
331.925	67.58
332.138	86.01
332.35	100.35
332.563	43.01
332.776	-4.1
332.989	-24.58
333.202	-6.14
333.414	18.43
333.627	104.45
333.84	22.53
334.053	102.4
334.265	-22.53
334.478	34.82
334.691	-6.14
334.903	-2.05
335.116	26.62
335.329	24.58
335.541	14.34
335.754	73.73
335.966	-0
336.179	53.25
336.392	38.91
336.604	-0
336.817	-20.48
337.029	90.11
337.242	-12.29
337.454	75.77
337.667	12.29
337.88	77.82
338.092	14.34
338.305	36.86
338.517	75.77
338.729	43.01
338.942	86.01
339.154	-67.58
339.367	34.82
339.579	18.43
339.792	-71.68
340.004	28.67
340.217	8.19
340.429	28.67
340.641	51.2
340.854	49.15
341.066	-0
341.278	79.87
341.491	108.54
341.703	38.91
341.915	-57.34
342.128	30.72
342.34	61.44
342.552	63.49
342.764	79.87
342.977	10.24
343.189	100.35
343.401	86.01
343.613	18.43
343.826	86.01
344.038	2.05
344.25	14.34
344.462	36.86
344.674	67.58
344.886	38.91
345.099	10.24
345.311	102.4
345.523	83.97
345.735	-8.19
345.947	34.82
346.159	73.73
346.371	106.49
346.583	112.64
346.795	116.73
347.007	32.77
347.219	18.43
347.431	40.96
347.643	67.58
347.855	77.82
348.067	26.62
348.279	-12.29
348.491	96.25
348.703	26.62
348.915	24.58
349.127	88.06
349.339	18.43
349.551	45.06
349.763	43.01
349.975	22.53
350.187	53.25
350.399	18.43
350.61	55.3
350.822	22.53
351.034	83.97
351.246	-4.1
351.458	14.34
351.669	18.43
351.881	79.87
352.093	172.03
352.305	57.34
352.517	-24.58
352.728	65.53
352.94	59.39
353.152	75.77
353.363	43.01
353.575	14.34
353.787	86.01
353.999	38.91
354.21	88.06
354.422	-34.82
354.633	51.2
354.845	43.01
355.057	-14.34
355.268	63.49
355.48	69.63
355.692	16.38
355.903	16.38
356.115	79.87
356.326	-75.77
356.538	102.4
356.749	92.16
356.961	69.63
357.172	67.58
357.384	26.62
357.595	71.68
357.807	51.2
358.018	-8.19
358.23	65.53
358.441	118.78
358.653	81.92
358.864	38.91
359.075	6.14
359.287	-24.58
359.498	49.15
359.709	-30.72
359.921	55.3
360.132	83.97
360.344	20.48
360.555	6.14
360.766	18.43
360.977	12.29
361.189	51.2
361.4	55.3
361.611	-8.19
361.823	96.25
362.034	45.06
362.245	43.01
362.456	26.62
362.667	100.35
362.879	49.15
363.09	116.73
363.301	53.25
363.512	116.73
363.723	114.69
363.935	26.62
364.146	47.1
364.357	26.62
364.568	34.82
364.779	30.72
364.99	51.2
365.201	2.05
365.412	34.82
365.623	-34.82
365.834	34.82
366.045	-6.14
366.256	30.72
366.467	59.39
366.678	22.53
366.889	51.2
367.1	20.48
367.311	75.77
367.522	69.63
367.733	92.16
367.944	10.24
368.155	61.44
368.366	26.62
368.577	94.21
368.788	100.35
368.999	-2.05
369.209	86.01
369.42	145.41
369.631	141.31
369.842	110.59
370.053	69.63
370.264	59.39
370.474	36.86
370.685	28.67
370.896	-14.34
371.107	28.67
371.317	47.1
371.528	-32.77
371.739	51.2
371.95	51.2
372.16	18.43
372.371	10.24
372.582	57.34
372.792	79.87
373.003	43.01
373.214	75.77
373.424	14.34
373.635	57.34
373.846	118.78
374.056	-8.19
374.267	-2.05
374.477	32.77
374.688	43.01
374.898	2.05
375.109	108.54
375.319	36.86
375.53	118.78
375.74	86.01
375.951	-6.14
376.161	47.1
376.372	96.25
376.582	59.39
376.793	55.3
377.003	75.77
377.214	102.4
377.424	28.67
377.635	81.92
377.845	-0
378.055	79.87
378.266	-4.1
378.476	45.06
378.686	139.26
378.897	83.97
379.107	20.48
379.317	59.39
379.528	47.1
379.738	96.25
379.948	36.86
380.158	43.01
380.369	59.39
380.579	36.86
380.789	108.54
380.999	83.97
381.21	79.87
381.42	116.73
381.63	53.25
381.84	69.63
382.05	26.62
382.261	26.62
382.471	96.25
382.681	83.97
382.891	151.55
383.101	22.53
383.311	73.73
383.521	67.58
383.731	26.62
383.941	129.02
384.151	69.63
384.361	79.87
384.571	67.58
384.781	30.72
384.991	120.83
385.201	118.78
385.411	18.43
385.621	86.01
385.831	10.24
386.041	120.83
386.251	53.25
386.461	96.25
386.671	102.4
386.881	18.43
387.091	63.49
387.301	94.21
387.511	22.53
387.72	69.63
387.93	108.54
388.14	14.34
388.35	67.58
388.56	98.3
388.769	45.06
388.979	63.49
389.189	51.2
389.399	88.06
389.609	71.68
389.818	51.2
390.028	69.63
390.238	20.48
390.447	47.1
390.657	53.25
390.867	-22.53
391.076	8.19
391.286	67.58
391.496	38.91
391.705	53.25
391.915	57.34
392.125	75.77
392.334	-6.14
392.544	143.36
392.753	36.86
392.963	12.29
393.172	49.15
393.382	96.25
393.591	108.54
393.801	63.49
394.01	94.21
394.22	24.58
394.429	67.58
394.639	135.17
394.848	67.58
395.058	69.63
395.267	129.02
395.477	137.21
395.686	75.77
395.895	141.31
396.105	94.21
396.314	147.45
396.524	43.01
396.733	86.01
396.942	108.54
397.152	124.93
397.361	165.89
397.57	83.97
397.78	137.21
397.989	79.87
398.198	151.55
398.407	174.08
398.617	83.97
398.826	157.69
399.035	112.64
399.244	55.3
399.453	112.64
399.663	112.64
399.872	172.03
400.081	79.87
400.29	165.89
400.499	108.54
400.708	157.69
400.917	116.73
401.127	116.73
401.336	124.93
401.545	192.51
401.754	100.35
401.963	135.17
402.172	141.31
402.381	141.31
402.59	159.74
402.799	112.64
403.008	174.08
403.217	169.98
403.426	120.83
403.635	77.82
403.844	223.23
404.053	112.64
404.262	137.21
404.471	212.99
404.68	149.5
404.888	165.89
405.097	165.89
405.306	159.74
405.515	260.09
405.724	184.32
405.933	237.56
406.142	237.56
406.35	309.24
406.559	333.82
406.768	155.65
406.977	249.85
407.185	274.43
407.394	245.76
407.603	225.28
407.812	215.04
408.02	268.28
408.229	233.47
408.438	206.84
408.646	270.33
408.855	231.42
409.064	323.58
409.272	256
409.481	350.2
409.69	284.67
409.898	292.86
410.107	399.35
410.315	370.68
410.524	358.39
410.733	389.11
410.941	342.01
411.15	411.64
411.358	507.9
411.567	511.99
411.775	423.93
411.984	464.89
412.192	585.72
412.401	569.34
412.609	534.52
412.818	626.68
413.026	661.49
413.234	610.29
413.443	591.86
413.651	649.21
413.86	645.11
414.068	727.03
414.276	823.28
414.485	784.37
414.693	794.61
414.901	903.15
415.11	919.54
415.318	876.53
415.526	917.49
415.734	897.01
415.943	927.73
416.151	1034.22
416.359	1030.13
416.567	1050.61
416.776	1136.62
416.984	1157.1
417.192	1232.88
417.4	1226.73
417.608	1284.08
417.817	1378.28
418.025	1361.9
418.233	1378.28
418.441	1472.49
418.649	1452.01
418.857	1607.66
419.065	1578.98
419.273	1566.7
419.481	1609.7
419.689	1677.29
419.897	1787.88
420.105	1804.26
420.313	1886.18
420.521	1955.81
420.729	1906.66
420.937	1980.39
421.145	2107.36
421.353	2140.13
421.561	2271.2
421.769	2412.51
421.977	2443.23
422.185	2385.88
422.393	2547.67
422.601	2734.04
422.809	2904.02
423.017	2797.53
423.224	2871.25
423.432	3045.33
423.64	3033.04
423.848	3377.1
424.056	3211.21
424.263	3446.73
424.471	3483.59
424.679	3592.14
424.887	3712.97
425.094	3852.23
425.302	3811.27
425.51	3903.43
425.718	4130.75
425.925	4241.34
426.133	4337.6
426.341	4571.07
426.548	4745.14
426.756	4749.24
426.964	4919.22
427.171	5064.63
427.379	5158.83
427.586	5261.23
427.794	5527.47
428.001	5611.43
428.209	5814.18
428.417	5857.19
428.624	6211.49
428.832	6297.5
429.039	6188.96
429.247	6225.82
429.454	6678.43
429.662	7106.45
429.869	6748.06
430.076	7163.79
430.284	6879.13
430.491	7464.85
430.699	7894.92
430.906	7704.46
431.114	7974.79
431.321	8083.33
431.528	8413.06
431.736	8908.66
431.943	9111.41
432.15	9103.22
432.358	9043.83
432.565	9596.78
432.772	9310.07
432.979	10047.33
433.187	10225.51
433.394	10340.19
433.601	10782.56
433.808	11073.37
434.016	10854.23
434.223	11407.19
434.43	12031.82
434.637	11689.81
434.844	12437.31
435.052	12898.11
435.259	12607.3
435.466	12939.07
435.673	12773.18
435.88	13424.44
436.087	14264.1
436.294	14122.79
436.501	13715.25
436.708	14022.44
436.915	14755.61
437.122	15300.37
437.329	15075.1
437.537	15451.92
437.743	15779.6
437.95	15795.98
438.157	16787.2
438.364	16996.09
438.571	16998.14
438.778	17104.64
438.985	18654.95
439.192	17833.71
439.399	18829.02
439.606	17966.83
439.813	18972.38
440.02	20154.06
440.227	19805.91
440.433	19637.97
440.64	20342.47
440.847	20233.93
441.054	20817.6
441.261	22165.17
441.467	21980.85
441.674	22292.14
441.881	22875.81
442.088	22746.79
442.294	22888.1
442.501	23328.41
442.708	23985.81
442.914	24942.21
443.121	25794.17
443.328	25044.61
443.534	26680.94
443.741	25771.64
443.948	25861.75
444.154	27745.88
444.361	27508.32
444.568	27721.31
444.774	27596.38
444.981	27717.21
445.187	28800.58
445.394	29386.3
445.6	29607.48
445.807	32335.38
446.013	30832.17
446.22	31364.64
446.426	32538.13
446.633	32960.01
446.839	33967.61
447.046	32646.67
447.252	34549.23
447.459	34102.78
447.665	34139.64
447.871	35911.13
448.078	37408.2
448.284	35651.04
448.491	36746.7
448.697	37719.49
448.903	38407.61
449.11	38571.44
449.316	38028.73
449.522	38913.45
449.728	39536.04
449.935	40224.15
450.141	40205.72
450.347	40998.29
450.553	39638.44
450.76	40283.55
450.966	41432.46
451.172	40893.84
451.378	42296.7
451.584	40938.9
451.791	42442.1
451.997	42134.91
452.203	42876.27
452.409	42763.64
452.615	42214.78
452.821	41121.16
453.027	40258.97
453.233	42435.96
453.44	40779.15
453.646	41518.47
453.852	41600.39
454.058	42067.33
454.264	40889.74
454.47	42026.37
454.676	40551.83
454.882	42245.5
455.088	38739.38
455.294	39177.64
455.5	39882.14
455.705	39654.82
455.911	38944.17
456.117	38012.35
456.323	37205.45
456.529	34979.31
456.735	36779.47
456.941	35567.07
457.147	35040.75
457.352	34319.86
457.558	34072.06
457.764	33977.85
457.97	33271.3
458.176	32540.18
458.381	32761.36
458.587	30957.1
458.793	30963.24
458.999	29371.97
459.204	31643.17
459.41	30553.65
459.616	28440.14
459.821	28497.49
460.027	28354.13
460.233	27782.74
460.438	26259.06
460.644	26383.98
460.85	25464.44
461.055	24895.11
461.261	24925.83
461.466	22894.24
461.672	22496.94
461.878	23817.88
462.083	22738.6
462.289	22144.69
462.494	21790.39
462.7	20819.65
462.905	20033.23
463.111	20870.85
463.316	21038.78
463.522	20455.11
463.727	20489.93
463.932	20467.4
464.138	20035.28
464.343	20491.98
464.549	19560.15
464.754	20414.15
464.959	20459.21
465.165	20080.33
465.37	19107.55
465.575	18669.28
465.781	19637.97
465.986	19433.18
466.191	18712.29
466.397	18325.22
466.602	17411.83
466.807	18087.66
467.012	18243.31
467.218	17981.17
