Data from USB4F104151__198__14-33-11-777.txt Node

Date: Thu Mar 13 14:33:11 EDT 2025
User: louis
Spectrometer: USB4F10415
Trigger mode: 4
Integration Time (sec): 2.500000E-2
Scans to average: 1
Electric dark correction enabled: true
Nonlinearity correction enabled: false
Boxcar width: 0
XAxis mode: Wavelengths
Number of Pixels in Spectrum: 3648
>>>>>Begin Spectral Data<<<<<
178.204	-171.52
178.424	-171.52
178.644	-171.52
178.864	-208.38
179.084	-116.22
179.304	-32.26
179.524	27.14
179.744	43.52
179.964	6.66
180.184	-24.06
180.404	23.04
180.624	-38.4
180.844	-17.92
181.064	-19.97
181.283	12.8
181.503	-19.97
181.723	39.42
181.943	-75.26
182.163	131.58
182.383	-60.93
182.602	33.28
182.822	82.43
183.042	45.57
183.262	-24.06
183.482	10.75
183.701	-11.78
183.921	45.57
184.141	12.8
184.361	27.14
184.58	61.95
184.8	6.66
185.02	61.95
185.239	80.38
185.459	18.94
185.679	152.06
185.898	-77.31
186.118	43.52
186.338	-7.68
186.557	86.53
186.777	-19.97
186.997	61.95
187.216	-36.35
187.436	74.24
187.655	57.86
187.875	61.95
188.095	53.76
188.314	96.77
188.534	123.39
188.753	57.86
188.973	170.49
189.192	-19.97
189.412	39.42
189.631	55.81
189.851	39.42
190.07	61.95
190.29	86.53
190.509	31.23
190.729	2.56
190.948	51.71
191.168	94.72
191.387	127.49
191.607	8.7
191.826	123.39
192.045	53.76
192.265	57.86
192.484	55.81
192.704	45.57
192.923	68.09
193.142	121.34
193.362	90.62
193.581	16.9
193.8	86.53
194.02	61.95
194.239	27.14
194.458	72.19
194.678	53.76
194.897	-11.78
195.116	16.9
195.335	20.99
195.555	16.9
195.774	55.81
195.993	29.18
196.212	111.1
196.432	39.42
196.651	88.57
196.87	12.8
197.089	80.38
197.308	31.23
197.528	102.91
197.747	-24.06
197.966	72.19
198.185	135.68
198.404	25.09
198.623	45.57
198.842	51.71
199.062	20.99
199.281	-7.68
199.5	119.29
199.719	20.99
199.938	29.18
200.157	135.68
200.376	74.24
200.595	135.68
200.814	117.25
201.033	68.09
201.252	78.33
201.471	6.66
201.69	76.29
201.909	94.72
202.128	76.29
202.347	66.05
202.566	14.85
202.785	12.8
203.004	37.38
203.223	121.34
203.442	20.99
203.661	23.04
203.879	6.66
204.098	37.38
204.317	55.81
204.536	86.53
204.755	111.1
204.974	10.75
205.193	94.72
205.411	109.05
205.63	61.95
205.849	23.04
206.068	49.66
206.287	39.42
206.505	104.96
206.724	94.72
206.943	29.18
207.162	25.09
207.381	-26.11
207.599	119.29
207.818	47.62
208.037	18.94
208.255	27.14
208.474	20.99
208.693	16.9
208.911	4.61
209.13	53.76
209.349	41.47
209.567	4.61
209.786	41.47
210.005	76.29
210.223	55.81
210.442	8.7
210.661	57.86
210.879	102.91
211.098	45.57
211.316	4.61
211.535	66.05
211.753	20.99
211.972	14.85
212.191	18.94
212.409	84.48
212.628	104.96
212.846	-9.73
213.065	80.38
213.283	86.53
213.502	39.42
213.72	45.57
213.938	92.67
214.157	64
214.375	94.72
214.594	53.76
214.812	78.33
215.031	53.76
215.249	27.14
215.467	25.09
215.686	16.9
215.904	70.14
216.122	45.57
216.341	-1.54
216.559	49.66
216.778	41.47
216.996	29.18
217.214	20.99
217.432	80.38
217.651	72.19
217.869	-11.78
218.087	86.53
218.306	20.99
218.524	12.8
218.742	66.05
218.96	53.76
219.179	49.66
219.397	12.8
219.615	119.29
219.833	61.95
220.051	31.23
220.27	98.81
220.488	72.19
220.706	152.06
220.924	20.99
221.142	-9.73
221.36	29.18
221.578	18.94
221.796	88.57
222.015	33.28
222.233	61.95
222.451	80.38
222.669	29.18
222.887	35.33
223.105	6.66
223.323	98.81
223.541	39.42
223.759	39.42
223.977	78.33
224.195	203.26
224.413	119.29
224.631	-28.16
224.849	4.61
225.067	88.57
225.285	23.04
225.503	31.23
225.721	45.57
225.939	14.85
226.157	6.66
226.375	158.21
226.592	0.51
226.81	14.85
227.028	37.38
227.246	29.18
227.464	82.43
227.682	64
227.9	33.28
228.117	-7.68
228.335	86.53
228.553	29.18
228.771	94.72
228.989	119.29
229.206	61.95
229.424	37.38
229.642	-9.73
229.86	57.86
230.077	-3.58
230.295	-28.16
230.513	29.18
230.731	41.47
230.948	102.91
231.166	76.29
231.384	-1.54
231.601	-13.82
231.819	47.62
232.037	-7.68
232.254	14.85
232.472	82.43
232.689	43.52
232.907	49.66
233.125	49.66
233.342	102.91
233.56	-34.3
233.777	66.05
233.995	37.38
234.213	98.81
234.43	96.77
234.648	39.42
234.865	88.57
235.083	61.95
235.3	14.85
235.518	66.05
235.735	70.14
235.953	72.19
236.17	14.85
236.388	70.14
236.605	37.38
236.822	6.66
237.04	45.57
237.257	-17.92
237.475	35.33
237.692	100.86
237.909	70.14
238.127	102.91
238.344	45.57
238.562	88.57
238.779	96.77
238.996	-1.54
239.214	29.18
239.431	-22.02
239.648	12.8
239.865	45.57
240.083	94.72
240.3	96.77
240.517	23.04
240.735	61.95
240.952	23.04
241.169	53.76
241.386	78.33
241.603	70.14
241.821	20.99
242.038	59.9
242.255	45.57
242.472	45.57
242.689	55.81
242.907	94.72
243.124	29.18
243.341	66.05
243.558	70.14
243.775	-36.35
243.992	66.05
244.209	72.19
244.426	168.45
244.643	119.29
244.86	156.16
245.078	-13.82
245.295	115.2
245.512	25.09
245.729	76.29
245.946	53.76
246.163	29.18
246.38	47.62
246.597	37.38
246.814	86.53
247.031	78.33
247.248	86.53
247.464	72.19
247.681	-1.54
247.898	33.28
248.115	88.57
248.332	-11.78
248.549	53.76
248.766	150.01
248.983	41.47
249.2	-44.54
249.417	14.85
249.633	27.14
249.85	-26.11
250.067	61.95
250.284	-1.54
250.501	80.38
250.717	47.62
250.934	23.04
251.151	-26.11
251.368	-28.16
251.585	12.8
251.801	25.09
252.018	23.04
252.235	45.57
252.451	49.66
252.668	72.19
252.885	45.57
253.102	94.72
253.318	25.09
253.535	37.38
253.752	23.04
253.968	123.39
254.185	-15.87
254.401	37.38
254.618	39.42
254.835	68.09
255.051	102.91
255.268	86.53
255.484	70.14
255.701	31.23
255.917	96.77
256.134	33.28
256.351	104.96
256.567	25.09
256.784	74.24
257	6.66
257.217	45.57
257.433	74.24
257.65	45.57
257.866	133.63
258.082	47.62
258.299	6.66
258.515	78.33
258.732	12.8
258.948	16.9
259.165	94.72
259.381	-5.63
259.597	27.14
259.814	20.99
260.03	29.18
260.246	53.76
260.463	86.53
260.679	70.14
260.895	66.05
261.112	41.47
261.328	4.61
261.544	61.95
261.761	107.01
261.977	53.76
262.193	4.61
262.409	70.14
262.626	25.09
262.842	98.81
263.058	-9.73
263.274	98.81
263.49	86.53
263.707	86.53
263.923	78.33
264.139	-44.54
264.355	47.62
264.571	104.96
264.787	107.01
265.004	66.05
265.22	-1.54
265.436	12.8
265.652	61.95
265.868	82.43
266.084	41.47
266.3	6.66
266.516	-24.06
266.732	98.81
266.948	102.91
267.164	16.9
267.38	35.33
267.596	88.57
267.812	102.91
268.028	23.04
268.244	-36.35
268.46	12.8
268.676	20.99
268.892	8.7
269.108	-3.58
269.324	4.61
269.54	12.8
269.756	61.95
269.972	12.8
270.188	80.38
270.403	4.61
270.619	45.57
270.835	104.96
271.051	90.62
271.267	45.57
271.483	37.38
271.698	55.81
271.914	80.38
272.13	29.18
272.346	31.23
272.562	90.62
272.777	82.43
272.993	45.57
273.209	14.85
273.425	72.19
273.64	72.19
273.856	131.58
274.072	29.18
274.287	49.66
274.503	-3.58
274.719	102.91
274.934	64
275.15	12.8
275.366	78.33
275.581	39.42
275.797	45.57
276.012	129.53
276.228	31.23
276.444	86.53
276.659	123.39
276.875	45.57
277.09	45.57
277.306	23.04
277.521	88.57
277.737	51.71
277.952	113.15
278.168	20.99
278.383	45.57
278.599	94.72
278.814	47.62
279.03	61.95
279.245	90.62
279.461	6.66
279.676	102.91
279.892	23.04
280.107	39.42
280.322	104.96
280.538	111.1
280.753	-52.74
280.969	41.47
281.184	-9.73
281.399	133.63
281.615	45.57
281.83	53.76
282.045	20.99
282.26	74.24
282.476	68.09
282.691	14.85
282.906	47.62
283.122	25.09
283.337	-19.97
283.552	111.1
283.767	0.51
283.983	23.04
284.198	0.51
284.413	107.01
284.628	4.61
284.843	74.24
285.058	49.66
285.274	57.86
285.489	43.52
285.704	113.15
285.919	66.05
286.134	25.09
286.349	29.18
286.564	51.71
286.779	119.29
286.995	61.95
287.21	0.51
287.425	107.01
287.64	12.8
287.855	94.72
288.07	-1.54
288.285	72.19
288.5	20.99
288.715	113.15
288.93	-36.35
289.145	16.9
289.36	100.86
289.575	12.8
289.79	37.38
290.004	53.76
290.219	70.14
290.434	45.57
290.649	27.14
290.864	20.99
291.079	-19.97
291.294	4.61
291.509	94.72
291.724	-3.58
291.938	57.86
292.153	39.42
292.368	-24.06
292.583	64
292.798	66.05
293.012	29.18
293.227	78.33
293.442	-17.92
293.657	20.99
293.871	104.96
294.086	80.38
294.301	119.29
294.516	72.19
294.73	37.38
294.945	-1.54
295.16	49.66
295.374	78.33
295.589	111.1
295.804	61.95
296.018	94.72
296.233	104.96
296.447	16.9
296.662	-22.02
296.877	68.09
297.091	-52.74
297.306	49.66
297.52	72.19
297.735	47.62
297.949	-7.68
298.164	61.95
298.378	43.52
298.593	4.61
298.807	47.62
299.022	53.76
299.236	39.42
299.451	74.24
299.665	20.99
299.88	80.38
300.094	64
300.309	-28.16
300.523	76.29
300.737	111.1
300.952	88.57
301.166	27.14
301.381	20.99
301.595	94.72
301.809	74.24
302.024	8.7
302.238	16.9
302.452	96.77
302.667	64
302.881	119.29
303.095	102.91
303.309	119.29
303.524	59.9
303.738	20.99
303.952	72.19
304.166	82.43
304.381	-42.5
304.595	78.33
304.809	16.9
305.023	94.72
305.237	86.53
305.452	33.28
305.666	-15.87
305.88	107.01
306.094	88.57
306.308	31.23
306.522	29.18
306.736	49.66
306.95	72.19
307.164	70.14
307.379	51.71
307.593	180.73
307.807	102.91
308.021	102.91
308.235	-3.58
308.449	12.8
308.663	16.9
308.877	143.87
309.091	-11.78
309.305	20.99
309.519	-44.54
309.733	45.57
309.947	23.04
310.161	70.14
310.374	70.14
310.588	45.57
310.802	-17.92
311.016	47.62
311.23	-11.78
311.444	-1.54
311.658	51.71
311.872	53.76
312.085	109.05
312.299	41.47
312.513	84.48
312.727	127.49
312.941	0.51
313.154	23.04
313.368	64
313.582	20.99
313.796	76.29
314.009	-3.58
314.223	78.33
314.437	94.72
314.651	45.57
314.864	80.38
315.078	-3.58
315.292	2.56
315.505	45.57
315.719	96.77
315.933	-11.78
316.146	123.39
316.36	20.99
316.573	86.53
316.787	74.24
317.001	29.18
317.214	47.62
317.428	127.49
317.641	-56.83
317.855	92.67
318.068	152.06
318.282	64
318.495	127.49
318.709	47.62
318.922	18.94
319.136	66.05
319.349	70.14
319.563	-1.54
319.776	111.1
319.99	18.94
320.203	76.29
320.417	39.42
320.63	23.04
320.843	147.97
321.057	25.09
321.27	107.01
321.483	53.76
321.697	113.15
321.91	88.57
322.124	123.39
322.337	8.7
322.55	6.66
322.763	61.95
322.977	53.76
323.19	61.95
323.403	57.86
323.617	72.19
323.83	55.81
324.043	25.09
324.256	86.53
324.469	74.24
324.683	64
324.896	51.71
325.109	27.14
325.322	0.51
325.535	74.24
325.748	41.47
325.962	78.33
326.175	37.38
326.388	-1.54
326.601	104.96
326.814	55.81
327.027	29.18
327.24	59.9
327.453	-24.06
327.666	70.14
327.879	88.57
328.092	16.9
328.305	88.57
328.518	-11.78
328.731	-5.63
328.944	18.94
329.157	37.38
329.37	80.38
329.583	111.1
329.796	94.72
330.009	16.9
330.222	-3.58
330.435	39.42
330.648	16.9
330.861	82.43
331.073	-3.58
331.286	-9.73
331.499	98.81
331.712	-5.63
331.925	33.28
332.138	70.14
332.35	115.2
332.563	29.18
332.776	72.19
332.989	14.85
333.202	0.51
333.414	12.8
333.627	37.38
333.84	-50.69
334.053	113.15
334.265	20.99
334.478	-7.68
334.691	53.76
334.903	-7.68
335.116	49.66
335.329	94.72
335.541	61.95
335.754	145.92
335.966	115.2
336.179	111.1
336.392	57.86
336.604	72.19
336.817	94.72
337.029	96.77
337.242	78.33
337.454	86.53
337.667	61.95
337.88	82.43
338.092	92.67
338.305	29.18
338.517	80.38
338.729	86.53
338.942	135.68
339.154	33.28
339.367	31.23
339.579	55.81
339.792	-9.73
340.004	23.04
340.217	14.85
340.429	86.53
340.641	20.99
340.854	70.14
341.066	64
341.278	137.73
341.491	111.1
341.703	25.09
341.915	-17.92
342.128	20.99
342.34	121.34
342.552	16.9
342.764	35.33
342.977	117.25
343.189	104.96
343.401	31.23
343.613	61.95
343.826	107.01
344.038	27.14
344.25	64
344.462	29.18
344.674	137.73
344.886	29.18
345.099	39.42
345.311	61.95
345.523	66.05
345.735	25.09
345.947	127.49
346.159	70.14
346.371	8.7
346.583	49.66
346.795	84.48
347.007	20.99
347.219	12.8
347.431	86.53
347.643	131.58
347.855	74.24
348.067	76.29
348.279	59.9
348.491	31.23
348.703	96.77
348.915	90.62
349.127	70.14
349.339	74.24
349.551	70.14
349.763	84.48
349.975	-9.73
350.187	45.57
350.399	119.29
350.61	102.91
350.822	16.9
351.034	66.05
351.246	94.72
351.458	123.39
351.669	82.43
351.881	82.43
352.093	57.86
352.305	53.76
352.517	96.77
352.728	61.95
352.94	-11.78
353.152	59.9
353.363	68.09
353.575	70.14
353.787	70.14
353.999	70.14
354.21	121.34
354.422	16.9
354.633	41.47
354.845	129.53
355.057	37.38
355.268	68.09
355.48	88.57
355.692	29.18
355.903	31.23
356.115	131.58
356.326	33.28
356.538	88.57
356.749	94.72
356.961	55.81
357.172	0.51
357.384	66.05
357.595	160.25
357.807	33.28
358.018	55.81
358.23	104.96
358.441	57.86
358.653	27.14
358.864	23.04
359.075	53.76
359.287	78.33
359.498	113.15
359.709	107.01
359.921	70.14
360.132	109.05
360.344	104.96
360.555	88.57
360.766	37.38
360.977	94.72
361.189	47.62
361.4	18.94
361.611	188.93
361.823	96.77
362.034	111.1
362.245	-9.73
362.456	23.04
362.667	-17.92
362.879	-58.88
363.09	29.18
363.301	53.76
363.512	68.09
363.723	121.34
363.935	66.05
364.146	104.96
364.357	45.57
364.568	84.48
364.779	64
364.99	94.72
365.201	14.85
365.412	61.95
365.623	-40.45
365.834	25.09
366.045	111.1
366.256	37.38
366.467	47.62
366.678	43.52
366.889	39.42
367.1	70.14
367.311	64
367.522	129.53
367.733	53.76
367.944	94.72
368.155	29.18
368.366	55.81
368.577	90.62
368.788	37.38
368.999	39.42
369.209	29.18
369.42	139.77
369.631	154.11
369.842	86.53
370.053	53.76
370.264	47.62
370.474	20.99
370.685	55.81
370.896	104.96
371.107	39.42
371.317	180.73
371.528	-1.54
371.739	78.33
371.95	143.87
372.16	111.1
372.371	18.94
372.582	49.66
372.792	78.33
373.003	31.23
373.214	109.05
373.424	90.62
373.635	104.96
373.846	104.96
374.056	104.96
374.267	14.85
374.477	59.9
374.688	14.85
374.898	74.24
375.109	104.96
375.319	86.53
375.53	74.24
375.74	12.8
375.951	4.61
376.161	37.38
376.372	66.05
376.582	135.68
376.793	96.77
377.003	29.18
377.214	88.57
377.424	29.18
377.635	6.66
377.845	78.33
378.055	143.87
378.266	74.24
378.476	61.95
378.686	31.23
378.897	45.57
379.107	78.33
379.317	33.28
379.528	139.77
379.738	94.72
379.948	-7.68
380.158	119.29
380.369	80.38
380.579	127.49
380.789	16.9
380.999	111.1
381.21	102.91
381.42	195.07
381.63	51.71
381.84	78.33
382.05	16.9
382.261	129.53
382.471	94.72
382.681	61.95
382.891	96.77
383.101	43.52
383.311	-3.58
383.521	51.71
383.731	90.62
383.941	111.1
384.151	125.44
384.361	86.53
384.571	164.35
384.781	70.14
384.991	147.97
385.201	119.29
385.411	113.15
385.621	111.1
385.831	-11.78
386.041	47.62
386.251	84.48
386.461	57.86
386.671	98.81
386.881	96.77
387.091	102.91
387.301	131.58
387.511	131.58
387.72	137.73
387.93	141.82
388.14	39.42
388.35	31.23
388.56	92.67
388.769	98.81
388.979	39.42
389.189	-15.87
389.399	121.34
389.609	117.25
389.818	137.73
390.028	82.43
390.238	47.62
390.447	45.57
390.657	145.92
390.867	20.99
391.076	66.05
391.286	152.06
391.496	45.57
391.705	39.42
391.915	113.15
392.125	154.11
392.334	86.53
392.544	78.33
392.753	86.53
392.963	80.38
393.172	111.1
393.382	139.77
393.591	143.87
393.801	86.53
394.01	115.2
394.22	195.07
394.429	201.21
394.639	80.38
394.848	76.29
395.058	96.77
395.267	78.33
395.477	78.33
395.686	119.29
395.895	197.12
396.105	88.57
396.314	176.64
396.524	86.53
396.733	31.23
396.942	127.49
397.152	154.11
397.361	168.45
397.57	186.88
397.78	135.68
397.989	111.1
398.198	190.97
398.407	131.58
398.617	137.73
398.826	156.16
399.035	135.68
399.244	156.16
399.453	111.1
399.663	162.3
399.872	145.92
400.081	80.38
400.29	221.69
400.499	70.14
400.708	123.39
400.917	137.73
401.127	180.73
401.336	143.87
401.545	135.68
401.754	164.35
401.963	209.4
402.172	145.92
402.381	127.49
402.59	129.53
402.799	121.34
403.008	195.07
403.217	276.99
403.426	170.49
403.635	143.87
403.844	193.02
404.053	176.64
404.262	180.73
404.471	268.8
404.68	307.71
404.888	193.02
405.097	233.98
405.306	233.98
405.515	203.26
405.724	250.36
405.933	238.08
406.142	168.45
406.35	166.4
406.559	186.88
406.768	219.64
406.977	291.32
407.185	360.95
407.394	236.03
407.603	320
407.812	307.71
408.02	365.05
408.229	315.9
408.438	281.08
408.646	307.71
408.855	317.95
409.064	348.67
409.272	338.43
409.481	449.02
409.69	446.97
409.898	342.52
410.107	383.48
410.315	430.59
410.524	414.2
410.733	479.74
410.941	463.35
411.15	526.84
411.358	528.89
411.567	582.14
411.775	545.27
411.984	590.33
412.192	573.94
412.401	604.66
412.609	702.97
412.818	758.26
413.026	653.81
413.234	678.39
413.443	725.49
413.651	717.3
413.86	799.22
414.068	864.75
414.276	932.34
414.485	860.66
414.693	901.62
414.901	1004.02
415.11	950.77
415.318	989.68
415.526	1071.6
415.734	985.58
415.943	1118.7
416.151	1186.29
416.359	1120.75
416.567	1163.76
416.776	1323.5
416.984	1307.12
417.192	1341.93
417.4	1348.08
417.608	1247.72
417.817	1393.13
418.025	1595.88
418.233	1618.41
418.441	1669.61
418.649	1626.6
418.857	1722.85
419.065	1806.82
419.273	1800.68
419.481	1847.78
419.689	1970.66
419.897	2105.82
420.105	2159.07
420.313	2208.22
420.521	2308.57
420.729	2318.81
420.937	2423.26
421.145	2519.51
421.353	2609.62
421.561	2677.21
421.769	2834.9
421.977	2806.23
422.185	2851.28
422.393	2933.2
422.601	3191.25
422.809	3084.75
423.017	3154.38
423.224	3350.99
423.432	3369.42
423.64	3527.11
423.848	3709.38
424.056	3715.53
424.263	3953.09
424.471	3998.15
424.679	3973.57
424.887	4403.64
425.094	4450.75
425.302	4422.08
425.51	4559.29
425.718	4665.78
425.925	4745.66
426.133	4911.54
426.341	5142.96
426.548	5546.41
426.756	5431.73
426.964	5493.16
427.171	5902.76
427.379	6074.79
427.586	6011.3
427.794	6338.98
428.001	6441.37
428.209	6814.1
428.417	6721.95
428.624	7158.16
428.832	6984.09
429.039	7158.16
429.247	7109.01
429.454	7877
429.662	8282.5
429.869	7704.97
430.076	8354.18
430.284	8112.52
430.491	8466.81
430.699	8837.5
430.906	9040.25
431.114	8976.76
431.321	9292.15
431.528	9316.72
431.736	10183.01
431.943	10381.67
432.15	10336.61
432.358	10281.32
432.565	10971.48
432.772	10826.07
432.979	11344.21
433.187	11524.43
433.394	11688.27
433.601	12548.42
433.808	12489.03
434.016	12319.04
434.223	13039.93
434.43	13789.49
434.637	13379.89
434.844	14088.49
435.052	14512.42
435.259	14479.65
435.466	14702.88
435.673	14250.28
435.88	15255.83
436.087	16089.35
436.294	16136.46
436.501	15876.37
436.708	15929.61
436.915	16591.11
437.122	17355
437.329	17371.38
437.537	17959.15
437.743	18157.8
437.95	18118.89
438.157	18962.65
438.364	19577.05
438.571	19656.92
438.778	19710.16
438.985	21657.78
439.192	20553.93
439.399	21270.72
439.606	20558.02
439.813	22024.37
440.02	23277.72
440.227	22855.84
440.433	22366.38
440.64	23611.54
440.847	23105.7
441.054	23574.68
441.261	25362.56
441.467	25063.55
441.674	25495.67
441.881	26617.96
442.088	26120.31
442.294	26173.55
442.501	26787.94
442.708	27297.89
442.914	28285.01
443.121	29499.45
443.328	28895.3
443.534	30648.36
443.741	29769.79
443.948	29755.45
444.154	31127.59
444.361	31375.39
444.568	31539.23
444.774	31410.21
444.981	31766.56
445.187	32587.79
445.394	34101.24
445.6	33757.18
445.807	36720.59
446.013	35231.72
446.22	35780.57
446.426	37556.16
446.633	37627.84
446.839	38932.4
447.046	36984.78
447.252	39298.98
447.459	39882.66
447.665	39323.56
447.871	41045.9
448.078	42930.03
448.284	40734.61
448.491	41731.97
448.697	43140.97
448.903	43716.45
449.11	44146.53
449.316	43706.21
449.522	43827.04
449.728	45471.56
449.935	45647.69
450.141	45752.13
450.347	47028.02
450.553	45582.15
450.76	45991.75
450.966	47327.02
451.172	46300.99
451.378	47994.66
451.584	46886.71
451.791	48064.29
451.997	48144.16
452.203	49061.65
452.409	49016.6
452.615	48166.69
452.821	46438.2
453.027	46358.33
453.233	48529.18
453.44	46743.35
453.646	47200.05
453.852	47499.05
454.058	48402.21
454.264	46657.34
454.47	47441.71
454.676	46204.73
454.882	48031.52
455.088	43704.17
455.294	44672.85
455.5	45330.25
455.705	45403.98
455.911	44001.12
456.117	42925.94
456.323	42676.08
456.529	40165.28
456.735	42311.55
456.941	40755.09
457.147	40327.06
457.352	39151.53
457.558	38862.77
457.764	38795.18
457.97	37875.65
458.176	36937.68
458.381	36751.31
458.587	35291.11
458.793	35307.49
458.999	33624.06
459.204	35968.99
459.41	35155.94
459.616	32624.65
459.821	32464.91
460.027	32866.31
460.233	32073.75
460.438	30455.86
460.644	30605.36
460.85	29100.1
461.055	28776.52
461.261	28348.5
461.466	26474.6
461.672	25847.93
461.878	27664.47
462.083	25897.08
462.289	25325.69
462.494	25016.45
462.7	23670.93
462.905	23163.04
463.111	23900.31
463.316	24150.16
463.522	23650.46
463.727	23634.07
463.932	23388.32
464.138	23189.66
464.343	23031.97
464.549	22878.37
464.754	23298.2
464.959	23126.18
465.165	23142.56
465.37	21942.45
465.575	21498.04
465.781	22028.46
465.986	22278.32
466.191	21657.78
466.397	21262.52
466.602	20046.03
