Data from USB4F104151__218__14-33-49-817.txt Node

Date: Thu Mar 13 14:33:49 EDT 2025
User: louis
Spectrometer: USB4F10415
Trigger mode: 4
Integration Time (sec): 2.500000E-2
Scans to average: 1
Electric dark correction enabled: true
Nonlinearity correction enabled: false
Boxcar width: 0
XAxis mode: Wavelengths
Number of Pixels in Spectrum: 3648
>>>>>Begin Spectral Data<<<<<
178.204	-179.37
178.424	-179.37
178.644	-179.37
178.864	-156.84
179.084	-115.88
179.304	-33.96
179.524	-9.39
179.744	23.38
179.964	121.68
180.184	-64.68
180.404	23.38
180.624	-17.58
180.844	2.9
181.064	-33.96
181.283	-1.19
181.503	-9.39
181.723	-1.19
181.943	-13.48
182.163	60.24
182.383	70.48
182.602	-3.24
182.822	113.49
183.042	21.33
183.262	-33.96
183.482	93.01
183.701	64.34
183.921	19.29
184.141	47.96
184.361	115.54
184.58	-7.34
184.8	0.85
185.02	64.34
185.239	15.19
185.459	-40.11
185.679	43.86
185.898	95.06
186.118	90.96
186.338	84.82
186.557	68.44
186.777	9.05
186.997	11.09
187.216	17.24
187.436	162.64
187.655	35.67
187.875	31.57
188.095	76.63
188.314	64.34
188.534	101.2
188.753	80.72
188.973	23.38
189.192	101.2
189.412	74.58
189.631	82.77
189.851	-5.29
190.07	86.87
190.29	-21.67
190.509	93.01
190.729	-17.58
190.948	101.2
191.168	156.5
191.387	129.88
191.607	-58.54
191.826	88.92
192.045	39.76
192.265	23.38
192.484	43.86
192.704	105.3
192.923	-7.34
193.142	88.92
193.362	33.62
193.581	97.11
193.8	97.11
194.02	93.01
194.239	25.43
194.458	97.11
194.678	-15.53
194.897	25.43
195.116	17.24
195.335	86.87
195.555	23.38
195.774	107.35
195.993	74.58
196.212	7
196.432	-23.72
196.651	7
196.87	74.58
197.089	129.88
197.308	39.76
197.528	58.2
197.747	-62.63
197.966	70.48
198.185	174.93
198.404	2.9
198.623	117.59
198.842	19.29
199.062	56.15
199.281	80.72
199.5	15.19
199.719	58.2
199.938	97.11
200.157	68.44
200.376	80.72
200.595	58.2
200.814	80.72
201.033	27.48
201.252	74.58
201.471	-15.53
201.69	72.53
201.909	39.76
202.128	93.01
202.347	35.67
202.566	-13.48
202.785	-25.77
203.004	2.9
203.223	164.69
203.442	88.92
203.661	-21.67
203.879	56.15
204.098	117.59
204.317	27.48
204.536	31.57
204.755	35.67
204.974	27.48
205.193	82.77
205.411	88.92
205.63	68.44
205.849	35.67
206.068	-7.34
206.287	90.96
206.505	76.63
206.724	43.86
206.943	35.67
207.162	50
207.381	39.76
207.599	72.53
207.818	72.53
208.037	31.57
208.255	47.96
208.474	80.72
208.693	56.15
208.911	54.1
209.13	25.43
209.349	-25.77
209.567	86.87
209.786	-9.39
210.005	93.01
210.223	23.38
210.442	50
210.661	58.2
210.879	-13.48
211.098	56.15
211.316	27.48
211.535	76.63
211.753	39.76
211.972	33.62
212.191	90.96
212.409	9.05
212.628	74.58
212.846	11.09
213.065	54.1
213.283	88.92
213.502	82.77
213.72	97.11
213.938	90.96
214.157	84.82
214.375	56.15
214.594	76.63
214.812	31.57
215.031	23.38
215.249	45.91
215.467	64.34
215.686	82.77
215.904	105.3
216.122	47.96
216.341	80.72
216.559	117.59
216.778	146.26
216.996	23.38
217.214	101.2
217.432	45.91
217.651	80.72
217.869	56.15
218.087	15.19
218.306	88.92
218.524	25.43
218.742	68.44
218.96	82.77
219.179	4.95
219.397	52.05
219.615	113.49
219.833	39.76
220.051	58.2
220.27	58.2
220.488	37.72
220.706	25.43
220.924	31.57
221.142	66.39
221.36	52.05
221.578	17.24
221.796	33.62
222.015	117.59
222.233	47.96
222.451	76.63
222.669	-5.29
222.887	88.92
223.105	37.72
223.323	76.63
223.541	47.96
223.759	56.15
223.977	93.01
224.195	72.53
224.413	31.57
224.631	60.24
224.849	27.48
225.067	52.05
225.285	-74.92
225.503	35.67
225.721	60.24
225.939	97.11
226.157	45.91
226.375	162.64
226.592	21.33
226.81	15.19
227.028	129.88
227.246	82.77
227.464	-13.48
227.682	93.01
227.9	47.96
228.117	78.68
228.335	152.4
228.553	0.85
228.771	43.86
228.989	150.36
229.206	125.78
229.424	17.24
229.642	64.34
229.86	-9.39
230.077	72.53
230.295	70.48
230.513	17.24
230.731	154.45
230.948	58.2
231.166	93.01
231.384	72.53
231.601	47.96
231.819	158.55
232.037	13.14
232.254	-33.96
232.472	64.34
232.689	31.57
232.907	-7.34
233.125	0.85
233.342	35.67
233.56	60.24
233.777	47.96
233.995	78.68
234.213	19.29
234.43	111.44
234.648	-7.34
234.865	23.38
235.083	80.72
235.3	41.81
235.518	90.96
235.735	64.34
235.953	64.34
236.17	68.44
236.388	-113.83
236.605	64.34
236.822	68.44
237.04	129.88
237.257	56.15
237.475	56.15
237.692	43.86
237.909	56.15
238.127	25.43
238.344	72.53
238.562	35.67
238.779	88.92
238.996	21.33
239.214	7
239.431	27.48
239.648	84.82
239.865	64.34
240.083	56.15
240.3	2.9
240.517	97.11
240.735	64.34
240.952	41.81
241.169	58.2
241.386	56.15
241.603	56.15
241.821	33.62
242.038	41.81
242.255	76.63
242.472	-91.31
242.689	109.4
242.907	101.2
243.124	-17.58
243.341	15.19
243.558	58.2
243.775	52.05
243.992	27.48
244.209	162.64
244.426	93.01
244.643	80.72
244.86	25.43
245.078	101.2
245.295	99.16
245.512	-1.19
245.729	-5.29
245.946	56.15
246.163	95.06
246.38	97.11
246.597	58.2
246.814	84.82
247.031	115.54
247.248	66.39
247.464	74.58
247.681	7
247.898	31.57
248.115	64.34
248.332	29.52
248.549	31.57
248.766	56.15
248.983	35.67
249.2	50
249.417	99.16
249.633	80.72
249.85	39.76
250.067	64.34
250.284	113.49
250.501	-21.67
250.717	95.06
250.934	31.57
251.151	84.82
251.368	-38.06
251.585	64.34
251.801	-17.58
252.018	31.57
252.235	43.86
252.451	-3.24
252.668	56.15
252.885	90.96
253.102	80.72
253.318	-15.53
253.535	4.95
253.752	17.24
253.968	54.1
254.185	35.67
254.401	62.29
254.618	17.24
254.835	43.86
255.051	64.34
255.268	17.24
255.484	-1.19
255.701	0.85
255.917	76.63
256.134	0.85
256.351	11.09
256.567	-9.39
256.784	11.09
257	33.62
257.217	41.81
257.433	97.11
257.65	101.2
257.866	-15.53
258.082	72.53
258.299	0.85
258.515	52.05
258.732	-44.2
258.948	129.88
259.165	43.86
259.381	-1.19
259.597	56.15
259.814	80.72
260.03	13.14
260.246	99.16
260.463	23.38
260.679	72.53
260.895	-7.34
261.112	19.29
261.328	31.57
261.544	86.87
261.761	111.44
261.977	80.72
262.193	-17.58
262.409	107.35
262.626	58.2
262.842	-1.19
263.058	7
263.274	107.35
263.49	47.96
263.707	189.27
263.923	93.01
264.139	-1.19
264.355	138.07
264.571	146.26
264.787	72.53
265.004	88.92
265.22	33.62
265.436	-1.19
265.652	17.24
265.868	31.57
266.084	88.92
266.3	13.14
266.516	-9.39
266.732	-1.19
266.948	15.19
267.164	60.24
267.38	80.72
267.596	39.76
267.812	80.72
268.028	23.38
268.244	27.48
268.46	74.58
268.676	2.9
268.892	93.01
269.108	31.57
269.324	33.62
269.54	33.62
269.756	103.25
269.972	33.62
270.188	25.43
270.403	50
270.619	47.96
270.835	80.72
271.051	86.87
271.267	50
271.483	19.29
271.698	88.92
271.914	111.44
272.13	78.68
272.346	-48.3
272.562	25.43
272.777	74.58
272.993	15.19
273.209	58.2
273.425	74.58
273.64	72.53
273.856	80.72
274.072	4.95
274.287	-42.15
274.503	50
274.719	82.77
274.934	90.96
275.15	-7.34
275.366	80.72
275.581	72.53
275.797	64.34
276.012	25.43
276.228	62.29
276.444	-13.48
276.659	187.22
276.875	19.29
277.09	90.96
277.306	84.82
277.521	64.34
277.737	70.48
277.952	15.19
278.168	68.44
278.383	84.82
278.599	72.53
278.814	90.96
279.03	35.67
279.245	123.73
279.461	97.11
279.676	68.44
279.892	33.62
280.107	52.05
280.322	11.09
280.538	146.26
280.753	15.19
280.969	58.2
281.184	131.92
281.399	60.24
281.615	88.92
281.83	64.34
282.045	88.92
282.26	50
282.476	97.11
282.691	45.91
282.906	19.29
283.122	47.96
283.337	56.15
283.552	78.68
283.767	64.34
283.983	90.96
284.198	11.09
284.413	60.24
284.628	-25.77
284.843	121.68
285.058	19.29
285.274	25.43
285.489	29.52
285.704	33.62
285.919	31.57
286.134	64.34
286.349	25.43
286.564	123.73
286.779	64.34
286.995	56.15
287.21	-9.39
287.425	97.11
287.64	7
287.855	88.92
288.07	17.24
288.285	29.52
288.5	107.35
288.715	105.3
288.93	58.2
289.145	15.19
289.36	97.11
289.575	97.11
289.79	80.72
290.004	31.57
290.219	90.96
290.434	60.24
290.649	74.58
290.864	39.76
291.079	31.57
291.294	66.39
291.509	84.82
291.724	2.9
291.938	9.05
292.153	105.3
292.368	82.77
292.583	105.3
292.798	109.4
293.012	43.86
293.227	97.11
293.442	58.2
293.657	70.48
293.871	93.01
294.086	121.68
294.301	74.58
294.516	117.59
294.73	58.2
294.945	113.49
295.16	113.49
295.374	82.77
295.589	123.73
295.804	109.4
296.018	56.15
296.233	76.63
296.447	39.76
296.662	-1.19
296.877	107.35
297.091	39.76
297.306	19.29
297.52	23.38
297.735	64.34
297.949	86.87
298.164	47.96
298.378	101.2
298.593	99.16
298.807	-1.19
299.022	7
299.236	109.4
299.451	123.73
299.665	64.34
299.88	105.3
300.094	41.81
300.309	27.48
300.523	76.63
300.737	41.81
300.952	142.16
301.166	88.92
301.381	97.11
301.595	101.2
301.809	60.24
302.024	74.58
302.238	72.53
302.452	78.68
302.667	-1.19
302.881	82.77
303.095	50
303.309	80.72
303.524	4.95
303.738	31.57
303.952	15.19
304.166	90.96
304.381	-7.34
304.595	107.35
304.809	80.72
305.023	80.72
305.237	70.48
305.452	68.44
305.666	158.55
305.88	88.92
306.094	88.92
306.308	68.44
306.522	19.29
306.736	80.72
306.95	11.09
307.164	27.48
307.379	66.39
307.593	47.96
307.807	105.3
308.021	113.49
308.235	47.96
308.449	58.2
308.663	107.35
308.877	70.48
309.091	68.44
309.305	72.53
309.519	101.2
309.733	70.48
309.947	43.86
310.161	107.35
310.374	-5.29
310.588	82.77
310.802	-56.49
311.016	70.48
311.23	115.54
311.444	109.4
311.658	82.77
311.872	146.26
312.085	62.29
312.299	90.96
312.513	74.58
312.727	56.15
312.941	37.72
313.154	72.53
313.368	60.24
313.582	43.86
313.796	17.24
314.009	64.34
314.223	82.77
314.437	80.72
314.651	107.35
314.864	41.81
315.078	72.53
315.292	56.15
315.505	9.05
315.719	99.16
315.933	66.39
316.146	64.34
316.36	56.15
316.573	111.44
316.787	76.63
317.001	52.05
317.214	64.34
317.428	70.48
317.641	13.14
317.855	146.26
318.068	62.29
318.282	82.77
318.495	93.01
318.709	88.92
318.922	66.39
319.136	45.91
319.349	138.07
319.563	33.62
319.776	31.57
319.99	64.34
320.203	88.92
320.417	41.81
320.63	66.39
320.843	115.54
321.057	95.06
321.27	90.96
321.483	113.49
321.697	25.43
321.91	11.09
322.124	97.11
322.337	64.34
322.55	131.92
322.763	39.76
322.977	39.76
323.19	47.96
323.403	84.82
323.617	31.57
323.83	41.81
324.043	64.34
324.256	60.24
324.469	39.76
324.683	70.48
324.896	72.53
325.109	146.26
325.322	76.63
325.535	68.44
325.748	113.49
325.962	56.15
326.175	76.63
326.388	152.4
326.601	72.53
326.814	107.35
327.027	123.73
327.24	123.73
327.453	0.85
327.666	76.63
327.879	84.82
328.092	97.11
328.305	82.77
328.518	19.29
328.731	41.81
328.944	125.78
329.157	13.14
329.37	72.53
329.583	136.02
329.796	125.78
330.009	31.57
330.222	127.83
330.435	95.06
330.648	115.54
330.861	72.53
331.073	97.11
331.286	115.54
331.499	41.81
331.712	76.63
331.925	136.02
332.138	43.86
332.35	72.53
332.563	23.38
332.776	80.72
332.989	-23.72
333.202	74.58
333.414	37.72
333.627	84.82
333.84	72.53
334.053	80.72
334.265	76.63
334.478	27.48
334.691	82.77
334.903	129.88
335.116	33.62
335.329	72.53
335.541	19.29
335.754	146.26
335.966	54.1
336.179	129.88
336.392	80.72
336.604	72.53
336.817	88.92
337.029	60.24
337.242	64.34
337.454	109.4
337.667	-9.39
337.88	154.45
338.092	82.77
338.305	68.44
338.517	-23.72
338.729	158.55
338.942	80.72
339.154	58.2
339.367	35.67
339.579	101.2
339.792	21.33
340.004	121.68
340.217	84.82
340.429	76.63
340.641	0.85
340.854	47.96
341.066	123.73
341.278	131.92
341.491	125.78
341.703	125.78
341.915	13.14
342.128	86.87
342.34	101.2
342.552	88.92
342.764	140.12
342.977	39.76
343.189	121.68
343.401	117.59
343.613	0.85
343.826	97.11
344.038	72.53
344.25	90.96
344.462	74.58
344.674	56.15
344.886	13.14
345.099	97.11
345.311	72.53
345.523	17.24
345.735	-58.54
345.947	47.96
346.159	84.82
346.371	76.63
346.583	105.3
346.795	131.92
347.007	74.58
347.219	29.52
347.431	52.05
347.643	80.72
347.855	9.05
348.067	123.73
348.279	37.72
348.491	66.39
348.703	111.44
348.915	45.91
349.127	15.19
349.339	99.16
349.551	-13.48
349.763	95.06
349.975	80.72
350.187	66.39
350.399	45.91
350.61	88.92
350.822	105.3
351.034	88.92
351.246	68.44
351.458	41.81
351.669	64.34
351.881	47.96
352.093	80.72
352.305	82.77
352.517	121.68
352.728	170.83
352.94	109.4
353.152	107.35
353.363	84.82
353.575	47.96
353.787	17.24
353.999	80.72
354.21	121.68
354.422	74.58
354.633	45.91
354.845	74.58
355.057	86.87
355.268	170.83
355.48	88.92
355.692	23.38
355.903	76.63
356.115	129.88
356.326	80.72
356.538	140.12
356.749	125.78
356.961	80.72
357.172	138.07
357.384	80.72
357.595	117.59
357.807	101.2
358.018	88.92
358.23	72.53
358.441	146.26
358.653	103.25
358.864	121.68
359.075	64.34
359.287	52.05
359.498	86.87
359.709	86.87
359.921	60.24
360.132	2.9
360.344	121.68
360.555	82.77
360.766	105.3
360.977	56.15
361.189	113.49
361.4	82.77
361.611	80.72
361.823	90.96
362.034	72.53
362.245	52.05
362.456	162.64
362.667	84.82
362.879	88.92
363.09	76.63
363.301	68.44
363.512	107.35
363.723	15.19
363.935	58.2
364.146	41.81
364.357	62.29
364.568	62.29
364.779	15.19
364.99	101.2
365.201	76.63
365.412	166.74
365.623	15.19
365.834	0.85
366.045	47.96
366.256	64.34
366.467	66.39
366.678	74.58
366.889	140.12
367.1	11.09
367.311	84.82
367.522	64.34
367.733	133.97
367.944	76.63
368.155	84.82
368.366	17.24
368.577	105.3
368.788	82.77
368.999	58.2
369.209	60.24
369.42	179.03
369.631	150.36
369.842	99.16
370.053	103.25
370.264	129.88
370.474	117.59
370.685	62.29
370.896	64.34
371.107	56.15
371.317	105.3
371.528	113.49
371.739	125.78
371.95	109.4
372.16	109.4
372.371	29.52
372.582	72.53
372.792	136.02
373.003	56.15
373.214	72.53
373.424	103.25
373.635	97.11
373.846	84.82
374.056	99.16
374.267	105.3
374.477	103.25
374.688	31.57
374.898	27.48
375.109	-13.48
375.319	76.63
375.53	123.73
375.74	99.16
375.951	133.97
376.161	80.72
376.372	129.88
376.582	140.12
376.793	64.34
377.003	97.11
377.214	23.38
377.424	113.49
377.635	62.29
377.845	80.72
378.055	154.45
378.266	9.05
378.476	74.58
378.686	72.53
378.897	138.07
379.107	93.01
379.317	101.2
379.528	72.53
379.738	113.49
379.948	39.76
380.158	97.11
380.369	138.07
380.579	125.78
380.789	29.52
380.999	105.3
381.21	90.96
381.42	140.12
381.63	25.43
381.84	80.72
382.05	119.64
382.261	105.3
382.471	80.72
382.681	90.96
382.891	148.31
383.101	146.26
383.311	50
383.521	39.76
383.731	113.49
383.941	154.45
384.151	88.92
384.361	80.72
384.571	43.86
384.781	105.3
384.991	148.31
385.201	154.45
385.411	146.26
385.621	113.49
385.831	68.44
386.041	97.11
386.251	90.96
386.461	205.65
386.671	23.38
386.881	125.78
387.091	97.11
387.301	64.34
387.511	97.11
387.72	162.64
387.93	90.96
388.14	52.05
388.35	47.96
388.56	121.68
388.769	113.49
388.979	64.34
389.189	64.34
389.399	131.92
389.609	56.15
389.818	121.68
390.028	66.39
390.238	97.11
390.447	68.44
390.657	76.63
390.867	47.96
391.076	115.54
391.286	164.69
391.496	50
391.705	117.59
391.915	154.45
392.125	191.31
392.334	105.3
392.544	97.11
392.753	107.35
392.963	64.34
393.172	136.02
393.382	84.82
393.591	162.64
393.801	84.82
394.01	203.6
394.22	138.07
394.429	148.31
394.639	117.59
394.848	117.59
395.058	121.68
395.267	109.4
395.477	183.12
395.686	156.5
395.895	189.27
396.105	97.11
396.314	93.01
396.524	97.11
396.733	82.77
396.942	154.45
397.152	228.18
397.361	129.88
397.57	103.25
397.78	197.46
397.989	183.12
398.198	207.7
398.407	136.02
398.617	156.5
398.826	183.12
399.035	99.16
399.244	179.03
399.453	103.25
399.663	162.64
399.872	121.68
400.081	211.79
400.29	162.64
400.499	101.2
400.708	213.84
400.917	142.16
401.127	125.78
401.336	224.08
401.545	197.46
401.754	219.99
401.963	187.22
402.172	158.55
402.381	224.08
402.59	195.41
402.799	203.6
403.008	228.18
403.217	138.07
403.426	322.38
403.635	172.88
403.844	162.64
404.053	160.59
404.262	158.55
404.471	224.08
404.68	240.47
404.888	279.38
405.097	199.51
405.306	211.79
405.515	293.71
405.724	242.51
405.933	287.57
406.142	189.27
406.35	314.19
406.559	342.86
406.768	211.79
406.977	295.76
407.185	336.72
407.394	303.95
407.603	324.43
407.812	447.31
408.02	400.21
408.229	310.1
408.438	344.91
408.646	297.81
408.855	336.72
409.064	353.1
409.272	449.36
409.481	459.6
409.69	385.87
409.898	383.82
410.107	533.33
410.315	449.36
410.524	506.7
410.733	572.24
410.941	480.08
411.15	645.96
411.358	543.57
411.567	654.16
411.775	605
411.984	637.77
412.192	697.16
412.401	678.73
412.609	752.46
412.818	777.03
413.026	795.47
413.234	746.31
413.443	834.38
413.651	949.06
413.86	834.38
414.068	977.73
414.276	1051.46
414.485	936.78
414.693	1094.47
414.901	1051.46
415.11	1024.84
415.318	1104.71
415.526	1123.14
415.734	1235.78
415.943	1219.39
416.151	1317.7
416.359	1256.26
416.567	1229.63
416.776	1489.73
416.984	1473.34
417.192	1540.93
417.4	1532.73
417.608	1424.19
417.817	1555.26
418.025	1712.96
418.233	1770.3
418.441	1686.33
418.649	1850.17
418.857	1911.61
419.065	1966.9
419.273	2030.39
419.481	2169.65
419.689	2124.6
419.897	2204.47
420.105	2452.27
420.313	2491.18
420.521	2517.81
420.729	2587.44
420.937	2622.25
421.145	2671.4
421.353	2804.52
421.561	2939.69
421.769	3040.04
421.977	3263.27
422.185	3173.16
422.393	3334.95
422.601	3664.67
422.809	3547.94
423.017	3566.37
423.224	3775.26
423.432	3760.92
423.64	3767.07
423.848	4240.15
424.056	4229.91
424.263	4561.68
424.471	4541.2
424.679	4496.14
424.887	4684.56
425.094	4750.09
425.302	5014.28
425.51	5157.64
425.718	5196.55
425.925	5290.76
426.133	5470.98
426.341	5878.52
426.548	6060.79
426.756	6306.55
426.964	5991.16
427.171	6671.09
427.379	6845.16
427.586	6732.53
427.794	7103.21
428.001	7281.38
428.209	7650.02
428.417	7494.37
428.624	8127.19
428.832	8086.23
429.039	7946.97
429.247	7953.12
429.454	8682.19
429.662	9310.92
429.869	8600.27
430.076	9198.28
430.284	8954.57
430.491	9464.52
430.699	10013.37
430.906	9976.51
431.114	9935.55
431.321	10566.32
431.528	10928.81
431.736	11330.22
431.943	11852.45
432.15	11526.82
432.358	11653.8
432.565	12149.4
432.772	12262.04
432.979	12882.58
433.187	13183.63
433.394	13202.06
433.601	14080.64
433.808	14357.11
434.016	13959.81
434.223	14629.49
434.43	15583.85
434.637	15239.79
434.844	16216.67
435.052	16153.18
435.259	16130.66
435.466	16474.71
435.673	16357.98
435.88	17195.6
436.087	18324.03
436.294	18227.78
436.501	18018.88
436.708	18262.59
436.915	18487.87
437.122	19554.86
437.329	19339.82
437.537	20218.4
437.743	20345.37
437.95	20328.99
438.157	21375.5
438.364	21922.31
438.571	22098.44
438.778	22245.89
438.985	24052.2
439.192	23284.21
439.399	24029.67
439.606	23562.73
439.813	24893.91
440.02	26247.62
440.227	25932.23
440.433	25369.04
440.64	26196.42
440.847	26307.01
441.054	26870.2
441.261	28709.28
441.467	28383.65
441.674	28791.2
441.881	29901.2
442.088	29800.85
442.294	29389.2
442.501	30089.61
442.708	30519.68
442.914	31734.13
443.121	33274.2
443.328	32364.9
443.534	34601.29
443.741	33646.93
443.948	33395.03
444.154	35803.44
444.361	35531.06
444.568	35760.44
444.774	35823.92
444.981	35973.42
445.187	37052.7
445.394	38742.28
445.6	38256.91
445.807	41580.76
446.013	40005.87
446.22	40515.82
446.426	42047.7
446.633	42531.02
446.839	44116.15
447.046	41957.59
447.252	44384.43
447.459	44394.67
447.665	43782.33
447.871	46026.9
448.078	47990.91
448.284	45787.29
448.491	47472.77
448.697	48554.1
448.903	49815.65
449.11	49803.36
449.316	49244.26
449.522	49827.93
449.728	51036.23
449.935	51413.06
450.141	51032.14
450.347	51970.11
450.553	50868.3
450.76	51630.15
450.966	52924.46
451.172	52645.94
451.378	53702.69
451.584	52701.23
451.791	54206.49
451.997	53854.24
452.203	54331.42
452.409	54779.92
452.615	54181.91
452.821	52295.74
453.027	52047.93
453.233	54538.26
453.44	52310.07
453.646	52482.1
453.852	52879.41
454.058	53964.83
454.264	51998.78
454.47	53575.72
454.676	52275.26
454.882	53790.75
455.088	49127.53
455.294	49893.47
455.5	50874.45
455.705	50466.9
455.911	49139.82
456.117	48349.3
456.323	47769.72
456.529	45267.11
456.735	47186.05
456.941	46057.62
457.147	44877.99
457.352	43569.34
457.558	43460.8
457.764	43694.27
457.97	42901.7
458.176	41597.15
458.381	41865.43
458.587	39686.39
458.793	39897.33
458.999	37120.29
459.204	39739.64
459.41	39115.01
459.616	36589.86
459.821	36698.41
460.027	36614.44
460.233	35696.95
460.438	34136.4
460.644	34550.09
460.85	32704.87
461.055	32377.19
461.261	32196.97
461.466	29983.12
461.672	29190.55
461.878	30722.43
462.083	28871.07
462.289	28561.83
462.494	27912.62
462.7	26902.97
462.905	26214.85
463.111	27259.32
463.316	26925.5
463.522	27105.72
463.727	26829.24
463.932	26515.9
464.138	26501.57
464.343	26427.84
464.549	25772.49
464.754	26515.9
464.959	26266.05
465.165	26008.01
465.37	24979.93
465.575	24592.86
465.781	25389.52
465.986	25391.57
466.191	24805.85
466.397	24218.08
