Data from USB4F104151__315__14-35-08-419.txt Node

Date: Thu Mar 13 14:35:08 EDT 2025
User: louis
Spectrometer: USB4F10415
Trigger mode: 4
Integration Time (sec): 2.500000E-2
Scans to average: 1
Electric dark correction enabled: true
Nonlinearity correction enabled: false
Boxcar width: 0
XAxis mode: Wavelengths
Number of Pixels in Spectrum: 3648
>>>>>Begin Spectral Data<<<<<
178.204	-104.28
178.424	-104.28
178.644	-104.28
178.864	-145.24
179.084	-135
179.304	-69.46
179.524	-20.31
179.744	22.7
179.964	-22.36
180.184	2.22
180.404	6.31
180.624	37.03
180.844	43.18
181.064	10.41
181.283	10.41
181.503	-14.17
181.723	-5.97
181.943	-30.55
182.163	112.81
182.383	24.75
182.602	92.33
182.822	67.75
183.042	47.27
183.262	41.13
183.482	-14.17
183.701	51.37
183.921	59.56
184.141	39.08
184.361	100.52
184.58	53.42
184.8	67.75
185.02	10.41
185.239	-5.97
185.459	47.27
185.679	125.1
185.898	20.65
186.118	43.18
186.338	16.55
186.557	108.71
186.777	-46.93
186.997	14.51
187.216	6.31
187.436	69.8
187.655	49.32
187.875	43.18
188.095	45.23
188.314	131.24
188.534	116.9
188.753	92.33
188.973	-38.74
189.192	143.53
189.412	67.75
189.631	14.51
189.851	10.41
190.07	108.71
190.29	75.95
190.509	43.18
190.729	-5.97
190.948	75.95
191.168	157.86
191.387	127.14
191.607	18.6
191.826	-20.31
192.045	45.23
192.265	28.84
192.484	26.79
192.704	69.8
192.923	14.51
193.142	108.71
193.362	67.75
193.581	49.32
193.8	61.61
194.02	75.95
194.239	-18.26
194.458	75.95
194.678	57.51
194.897	-8.02
195.116	2.22
195.335	94.38
195.555	102.57
195.774	-1.88
195.993	53.42
196.212	10.41
196.432	34.99
196.651	75.95
196.87	-22.36
197.089	168.1
197.308	-8.02
197.528	96.43
197.747	2.22
197.966	22.7
198.185	145.58
198.404	-30.55
198.623	108.71
198.842	4.27
199.062	102.57
199.281	57.51
199.5	6.31
199.719	53.42
199.938	67.75
200.157	59.56
200.376	86.19
200.595	55.47
200.814	104.62
201.033	53.42
201.252	43.18
201.471	-3.93
201.69	86.19
201.909	26.79
202.128	18.6
202.347	22.7
202.566	57.51
202.785	-20.31
203.004	-14.17
203.223	75.95
203.442	73.9
203.661	12.46
203.879	-20.31
204.098	137.38
204.317	-55.12
204.536	96.43
204.755	86.19
204.974	92.33
205.193	37.03
205.411	100.52
205.63	37.03
205.849	43.18
206.068	51.37
206.287	112.81
206.505	65.71
206.724	14.51
206.943	18.6
207.162	92.33
207.381	96.43
207.599	65.71
207.818	84.14
208.037	18.6
208.255	-1.88
208.474	12.46
208.693	80.04
208.911	-18.26
209.13	12.46
209.349	-3.93
209.567	75.95
209.786	67.75
210.005	51.37
210.223	12.46
210.442	-22.36
210.661	61.61
210.879	34.99
211.098	43.18
211.316	94.38
211.535	77.99
211.753	-38.74
211.972	43.18
212.191	14.51
212.409	20.65
212.628	51.37
212.846	22.7
213.065	63.66
213.283	71.85
213.502	90.28
213.72	51.37
213.938	90.28
214.157	26.79
214.375	65.71
214.594	43.18
214.812	69.8
215.031	34.99
215.249	84.14
215.467	26.79
215.686	22.7
215.904	104.62
216.122	-12.12
216.341	157.86
216.559	67.75
216.778	108.71
216.996	51.37
217.214	26.79
217.432	57.51
217.651	47.27
217.869	63.66
218.087	30.89
218.306	59.56
218.524	69.8
218.742	47.27
218.96	92.33
219.179	37.03
219.397	32.94
219.615	182.44
219.833	57.51
220.051	-3.93
220.27	59.56
220.488	59.56
220.706	53.42
220.924	20.65
221.142	96.43
221.36	43.18
221.578	55.47
221.796	112.81
222.015	77.99
222.233	82.09
222.451	45.23
222.669	-3.93
222.887	110.76
223.105	-3.93
223.323	49.32
223.541	22.7
223.759	108.71
223.977	-8.02
224.195	67.75
224.413	43.18
224.631	127.14
224.849	30.89
225.067	135.34
225.285	-14.17
225.503	96.43
225.721	2.22
225.939	49.32
226.157	75.95
226.375	129.19
226.592	34.99
226.81	-10.07
227.028	28.84
227.246	59.56
227.464	75.95
227.682	116.9
227.9	77.99
228.117	125.1
228.335	-1.88
228.553	-38.74
228.771	57.51
228.989	61.61
229.206	82.09
229.424	118.95
229.642	45.23
229.86	75.95
230.077	84.14
230.295	22.7
230.513	6.31
230.731	51.37
230.948	-3.93
231.166	69.8
231.384	-63.32
231.601	2.22
231.819	112.81
232.037	10.41
232.254	4.27
232.472	71.85
232.689	-63.32
232.907	135.34
233.125	47.27
233.342	0.17
233.56	30.89
233.777	67.75
233.995	-32.6
234.213	116.9
234.43	4.27
234.648	-30.55
234.865	37.03
235.083	102.57
235.3	45.23
235.518	-14.17
235.735	110.76
235.953	61.61
236.17	30.89
236.388	10.41
236.605	30.89
236.822	63.66
237.04	22.7
237.257	4.27
237.475	4.27
237.692	84.14
237.909	34.99
238.127	30.89
238.344	10.41
238.562	92.33
238.779	2.22
238.996	-59.22
239.214	47.27
239.431	45.23
239.648	-30.55
239.865	59.56
240.083	84.14
240.3	92.33
240.517	63.66
240.735	22.7
240.952	96.43
241.169	73.9
241.386	90.28
241.603	96.43
241.821	69.8
242.038	63.66
242.255	22.7
242.472	12.46
242.689	59.56
242.907	110.76
243.124	37.03
243.341	14.51
243.558	-12.12
243.775	53.42
243.992	-5.97
244.209	51.37
244.426	92.33
244.643	110.76
244.86	55.47
245.078	-3.93
245.295	104.62
245.512	39.08
245.729	26.79
245.946	67.75
246.163	67.75
246.38	26.79
246.597	2.22
246.814	114.86
247.031	123.05
247.248	92.33
247.464	4.27
247.681	-16.21
247.898	59.56
248.115	77.99
248.332	47.27
248.549	84.14
248.766	63.66
248.983	-14.17
249.2	10.41
249.417	96.43
249.633	2.22
249.85	-8.02
250.067	110.76
250.284	-51.03
250.501	41.13
250.717	75.95
250.934	86.19
251.151	22.7
251.368	55.47
251.585	51.37
251.801	77.99
252.018	14.51
252.235	22.7
252.451	10.41
252.668	59.56
252.885	94.38
253.102	37.03
253.318	59.56
253.535	-5.97
253.752	-38.74
253.968	34.99
254.185	0.17
254.401	2.22
254.618	34.99
254.835	-1.88
255.051	61.61
255.268	75.95
255.484	-57.17
255.701	8.36
255.917	75.95
256.134	26.79
256.351	51.37
256.567	-8.02
256.784	69.8
257	0.17
257.217	77.99
257.433	37.03
257.65	71.85
257.866	26.79
258.082	-26.45
258.299	18.6
258.515	14.51
258.732	2.22
258.948	88.23
259.165	-30.55
259.381	-85.84
259.597	-34.64
259.814	8.36
260.03	59.56
260.246	104.62
260.463	61.61
260.679	84.14
260.895	51.37
261.112	20.65
261.328	86.19
261.544	-8.02
261.761	77.99
261.977	-20.31
262.193	84.14
262.409	135.34
262.626	6.31
262.842	86.19
263.058	67.75
263.274	92.33
263.49	-36.69
263.707	71.85
263.923	80.04
264.139	65.71
264.355	59.56
264.571	63.66
264.787	39.08
265.004	63.66
265.22	10.41
265.436	4.27
265.652	-44.88
265.868	-53.08
266.084	22.7
266.3	43.18
266.516	-16.21
266.732	-10.07
266.948	-10.07
267.164	63.66
267.38	80.04
267.596	59.56
267.812	94.38
268.028	37.03
268.244	18.6
268.46	-12.12
268.676	67.75
268.892	133.29
269.108	18.6
269.324	14.51
269.54	-38.74
269.756	82.09
269.972	30.89
270.188	-10.07
270.403	80.04
270.619	-18.26
270.835	57.51
271.051	-12.12
271.267	43.18
271.483	26.79
271.698	86.19
271.914	100.52
272.13	77.99
272.346	28.84
272.562	26.79
272.777	135.34
272.993	39.08
273.209	14.51
273.425	2.22
273.64	43.18
273.856	88.23
274.072	10.41
274.287	71.85
274.503	12.46
274.719	34.99
274.934	63.66
275.15	-10.07
275.366	26.79
275.581	67.75
275.797	-3.93
276.012	30.89
276.228	-16.21
276.444	2.22
276.659	157.86
276.875	14.51
277.09	22.7
277.306	30.89
277.521	59.56
277.737	69.8
277.952	-18.26
278.168	30.89
278.383	100.52
278.599	75.95
278.814	67.75
279.03	75.95
279.245	151.72
279.461	26.79
279.676	166.06
279.892	77.99
280.107	80.04
280.322	-14.17
280.538	53.42
280.753	49.32
280.969	75.95
281.184	43.18
281.399	100.52
281.615	65.71
281.83	-14.17
282.045	6.31
282.26	67.75
282.476	67.75
282.691	110.76
282.906	14.51
283.122	69.8
283.337	-14.17
283.552	10.41
283.767	80.04
283.983	65.71
284.198	37.03
284.413	51.37
284.628	43.18
284.843	18.6
285.058	92.33
285.274	-14.17
285.489	-34.64
285.704	108.71
285.919	30.89
286.134	43.18
286.349	2.22
286.564	-14.17
286.779	57.51
286.995	-3.93
287.21	43.18
287.425	92.33
287.64	24.75
287.855	-5.97
288.07	-94.04
288.285	80.04
288.5	51.37
288.715	26.79
288.93	10.41
289.145	0.17
289.36	82.09
289.575	59.56
289.79	135.34
290.004	28.84
290.219	37.03
290.434	12.46
290.649	2.22
290.864	82.09
291.079	67.75
291.294	-10.07
291.509	26.79
291.724	10.41
291.938	61.61
292.153	37.03
292.368	34.99
292.583	51.37
292.798	86.19
293.012	-22.36
293.227	69.8
293.442	-38.74
293.657	34.99
293.871	92.33
294.086	67.75
294.301	118.95
294.516	75.95
294.73	53.42
294.945	51.37
295.16	-40.79
295.374	100.52
295.589	125.1
295.804	0.17
296.018	-38.74
296.233	84.14
296.447	-1.88
296.662	45.23
296.877	100.52
297.091	-14.17
297.306	51.37
297.52	6.31
297.735	22.7
297.949	26.79
298.164	34.99
298.378	133.29
298.593	67.75
298.807	-22.36
299.022	10.41
299.236	84.14
299.451	2.22
299.665	47.27
299.88	18.6
300.094	127.14
300.309	20.65
300.523	37.03
300.737	63.66
300.952	34.99
301.166	34.99
301.381	18.6
301.595	45.23
301.809	32.94
302.024	26.79
302.238	-22.36
302.452	88.23
302.667	26.79
302.881	75.95
303.095	37.03
303.309	26.79
303.524	69.8
303.738	32.94
303.952	-38.74
304.166	55.47
304.381	14.51
304.595	139.43
304.809	34.99
305.023	61.61
305.237	-20.31
305.452	14.51
305.666	112.81
305.88	37.03
306.094	69.8
306.308	84.14
306.522	59.56
306.736	65.71
306.95	10.41
307.164	121
307.379	67.75
307.593	92.33
307.807	127.14
308.021	37.03
308.235	63.66
308.449	2.22
308.663	34.99
308.877	71.85
309.091	41.13
309.305	26.79
309.519	-75.6
309.733	24.75
309.947	-12.12
310.161	118.95
310.374	49.32
310.588	96.43
310.802	2.22
311.016	67.75
311.23	14.51
311.444	45.23
311.658	30.89
311.872	14.51
312.085	65.71
312.299	75.95
312.513	71.85
312.727	88.23
312.941	2.22
313.154	102.57
313.368	10.41
313.582	88.23
313.796	-20.31
314.009	69.8
314.223	116.9
314.437	84.14
314.651	12.46
314.864	69.8
315.078	26.79
315.292	26.79
315.505	55.47
315.719	59.56
315.933	26.79
316.146	37.03
316.36	-1.88
316.573	100.52
316.787	61.61
317.001	92.33
317.214	43.18
317.428	65.71
317.641	-22.36
317.855	51.37
318.068	92.33
318.282	61.61
318.495	37.03
318.709	159.91
318.922	43.18
319.136	114.86
319.349	51.37
319.563	12.46
319.776	26.79
319.99	-42.84
320.203	94.38
320.417	26.79
320.63	84.14
320.843	100.52
321.057	71.85
321.27	92.33
321.483	100.52
321.697	84.14
321.91	86.19
322.124	37.03
322.337	94.38
322.55	86.19
322.763	71.85
322.977	-63.32
323.19	47.27
323.403	37.03
323.617	30.89
323.83	43.18
324.043	67.75
324.256	43.18
324.469	-38.74
324.683	43.18
324.896	28.84
325.109	-5.97
325.322	-12.12
325.535	84.14
325.748	108.71
325.962	51.37
326.175	80.04
326.388	80.04
326.601	125.1
326.814	32.94
327.027	24.75
327.24	92.33
327.453	26.79
327.666	100.52
327.879	77.99
328.092	100.52
328.305	67.75
328.518	-3.93
328.731	45.23
328.944	75.95
329.157	51.37
329.37	-14.17
329.583	98.47
329.796	59.56
330.009	37.03
330.222	129.19
330.435	-38.74
330.648	153.77
330.861	69.8
331.073	55.47
331.286	69.8
331.499	69.8
331.712	-14.17
331.925	61.61
332.138	41.13
332.35	129.19
332.563	100.52
332.776	102.57
332.989	-22.36
333.202	-14.17
333.414	77.99
333.627	121
333.84	37.03
334.053	30.89
334.265	8.36
334.478	-28.5
334.691	0.17
334.903	59.56
335.116	75.95
335.329	10.41
335.541	55.47
335.754	65.71
335.966	2.22
336.179	84.14
336.392	6.31
336.604	110.76
336.817	59.56
337.029	123.05
337.242	2.22
337.454	135.34
337.667	14.51
337.88	145.58
338.092	86.19
338.305	51.37
338.517	10.41
338.729	108.71
338.942	47.27
339.154	88.23
339.367	6.31
339.579	102.57
339.792	30.89
340.004	80.04
340.217	26.79
340.429	77.99
340.641	2.22
340.854	-5.97
341.066	14.51
341.278	100.52
341.491	106.67
341.703	-22.36
341.915	102.57
342.128	94.38
342.34	116.9
342.552	67.75
342.764	43.18
342.977	-1.88
343.189	20.65
343.401	67.75
343.613	47.27
343.826	22.7
344.038	-22.36
344.25	6.31
344.462	71.85
344.674	116.9
344.886	26.79
345.099	32.94
345.311	51.37
345.523	82.09
345.735	-18.26
345.947	90.28
346.159	86.19
346.371	88.23
346.583	61.61
346.795	131.24
347.007	-1.88
347.219	20.65
347.431	80.04
347.643	125.1
347.855	10.41
348.067	77.99
348.279	-1.88
348.491	16.55
348.703	104.62
348.915	39.08
349.127	22.7
349.339	59.56
349.551	51.37
349.763	151.72
349.975	55.47
350.187	51.37
350.399	43.18
350.61	133.29
350.822	10.41
351.034	84.14
351.246	12.46
351.458	112.81
351.669	39.08
351.881	92.33
352.093	94.38
352.305	28.84
352.517	84.14
352.728	53.42
352.94	61.61
353.152	100.52
353.363	12.46
353.575	141.48
353.787	118.95
353.999	104.62
354.21	133.29
354.422	10.41
354.633	32.94
354.845	59.56
355.057	110.76
355.268	18.6
355.48	65.71
355.692	18.6
355.903	30.89
356.115	47.27
356.326	34.99
356.538	71.85
356.749	67.75
356.961	116.9
357.172	55.47
357.384	-28.5
357.595	159.91
357.807	116.9
358.018	4.27
358.23	18.6
358.441	59.56
358.653	57.51
358.864	59.56
359.075	84.14
359.287	102.57
359.498	114.86
359.709	100.52
359.921	84.14
360.132	84.14
360.344	39.08
360.555	75.95
360.766	166.06
360.977	51.37
361.189	159.91
361.4	67.75
361.611	112.81
361.823	55.47
362.034	92.33
362.245	-12.12
362.456	-26.45
362.667	108.71
362.879	0.17
363.09	92.33
363.301	43.18
363.512	135.34
363.723	61.61
363.935	45.23
364.146	55.47
364.357	69.8
364.568	45.23
364.779	125.1
364.99	8.36
365.201	59.56
365.412	80.04
365.623	-5.97
365.834	67.75
366.045	61.61
366.256	77.99
366.467	67.75
366.678	32.94
366.889	39.08
367.1	-14.17
367.311	94.38
367.522	12.46
367.733	67.75
367.944	125.1
368.155	22.7
368.366	55.47
368.577	69.8
368.788	141.48
368.999	75.95
369.209	84.14
369.42	133.29
369.631	110.76
369.842	92.33
370.053	102.57
370.264	151.72
370.474	24.75
370.685	12.46
370.896	114.86
371.107	112.81
371.317	92.33
371.528	71.85
371.739	45.23
371.95	53.42
372.16	67.75
372.371	14.51
372.582	71.85
372.792	28.84
373.003	96.43
373.214	102.57
373.424	108.71
373.635	12.46
373.846	92.33
374.056	153.77
374.267	55.47
374.477	149.67
374.688	77.99
374.898	71.85
375.109	12.46
375.319	61.61
375.53	67.75
375.74	96.43
375.951	55.47
376.161	37.03
376.372	129.19
376.582	37.03
376.793	39.08
377.003	59.56
377.214	2.22
377.424	59.56
377.635	67.75
377.845	39.08
378.055	77.99
378.266	-5.97
378.476	24.75
378.686	69.8
378.897	88.23
379.107	75.95
379.317	94.38
379.528	112.81
379.738	102.57
379.948	34.99
380.158	63.66
380.369	80.04
380.579	51.37
380.789	2.22
380.999	75.95
381.21	45.23
381.42	106.67
381.63	86.19
381.84	75.95
382.05	92.33
382.261	26.79
382.471	102.57
382.681	73.9
382.891	198.82
383.101	116.9
383.311	39.08
383.521	-30.55
383.731	49.32
383.941	108.71
384.151	121
384.361	127.14
384.571	55.47
384.781	51.37
384.991	131.24
385.201	106.67
385.411	71.85
385.621	53.42
385.831	34.99
386.041	67.75
386.251	123.05
386.461	135.34
386.671	45.23
386.881	127.14
387.091	37.03
387.301	77.99
387.511	96.43
387.72	129.19
387.93	110.76
388.14	47.27
388.35	116.9
388.56	116.9
388.769	112.81
388.979	77.99
389.189	59.56
389.399	28.84
389.609	88.23
389.818	86.19
390.028	133.29
390.238	92.33
390.447	77.99
390.657	110.76
390.867	73.9
391.076	26.79
391.286	108.71
391.496	133.29
391.705	67.75
391.915	174.25
392.125	125.1
392.334	71.85
392.544	176.3
392.753	67.75
392.963	84.14
393.172	100.52
393.382	100.52
393.591	104.62
393.801	86.19
394.01	80.04
394.22	116.9
394.429	96.43
394.639	47.27
394.848	168.1
395.058	116.9
395.267	57.51
395.477	55.47
395.686	123.05
395.895	112.81
396.105	215.21
396.314	123.05
396.524	92.33
396.733	133.29
396.942	141.48
397.152	200.87
397.361	108.71
397.57	110.76
397.78	133.29
397.989	121
398.198	141.48
398.407	94.38
398.617	112.81
398.826	161.96
399.035	137.38
399.244	151.72
399.453	149.67
399.663	149.67
399.872	161.96
400.081	63.66
400.29	182.44
400.499	182.44
400.708	118.95
400.917	96.43
401.127	67.75
401.336	69.8
401.545	190.63
401.754	151.72
401.963	239.78
402.172	145.58
402.381	69.8
402.59	92.33
402.799	96.43
403.008	196.78
403.217	127.14
403.426	223.4
403.635	176.3
403.844	145.58
404.053	200.87
404.262	108.71
404.471	125.1
404.68	141.48
404.888	133.29
405.097	98.47
405.306	192.68
405.515	221.35
405.724	102.57
405.933	192.68
406.142	192.68
406.35	223.4
406.559	225.45
406.768	121
406.977	235.69
407.185	190.63
407.394	233.64
407.603	219.3
407.812	209.06
408.02	317.61
408.229	264.36
408.438	217.26
408.646	239.78
408.855	256.17
409.064	305.32
409.272	190.63
409.481	403.62
409.69	297.13
409.898	282.79
410.107	352.42
410.315	313.51
410.524	368.81
410.733	460.96
410.941	391.33
411.15	379.04
411.358	426.15
411.567	477.35
411.775	432.29
411.984	493.73
412.192	469.16
412.401	391.33
412.609	469.16
412.818	575.65
413.026	551.07
413.234	587.94
413.443	592.03
413.651	649.38
413.86	608.42
414.068	682.14
414.276	729.25
414.485	731.3
414.693	731.3
414.901	792.73
415.11	714.91
415.318	762.02
415.526	819.36
415.734	948.38
415.943	823.45
416.151	913.56
416.359	938.14
416.567	1009.82
416.776	958.62
416.984	1036.44
417.192	1083.55
417.4	1104.03
417.608	1028.25
417.817	1083.55
418.025	1091.74
418.233	1290.39
418.441	1185.94
418.649	1296.53
418.857	1388.69
419.065	1435.8
419.273	1339.54
419.481	1511.57
419.689	1628.31
419.897	1749.14
420.105	1667.22
420.313	1732.75
420.521	1706.13
420.729	1853.58
420.937	1872.01
421.145	2013.32
421.353	1960.08
421.561	1988.75
421.769	2125.96
421.977	2111.63
422.185	2142.35
422.393	2316.42
422.601	2492.55
422.809	2467.97
423.017	2431.11
423.224	2533.51
423.432	2668.67
423.64	2809.98
423.848	2840.7
424.056	2889.85
424.263	2986.11
424.471	3045.5
424.679	3231.87
424.887	3407.99
425.094	3360.89
425.302	3418.23
425.51	3573.88
425.718	3668.08
425.925	3684.47
426.133	3788.91
426.341	4049
426.548	4180.07
426.756	4124.78
426.964	4251.75
427.171	4573.28
427.379	4618.34
427.586	4771.94
427.794	5032.03
428.001	5032.03
428.209	5318.75
428.417	5310.55
428.624	5691.48
428.832	5515.35
429.039	5621.84
429.247	5496.92
429.454	6015.05
429.662	6496.33
429.869	6088.78
430.076	6486.09
430.284	6244.43
430.491	6522.95
430.699	7000.13
430.906	6918.21
431.114	6996.03
431.321	7254.08
431.528	7497.78
431.736	7764.02
431.943	8300.59
432.15	8038.45
432.358	8099.89
432.565	8654.89
432.772	8421.42
432.979	8841.25
433.187	9023.52
433.394	9150.5
433.601	9482.27
433.808	9912.34
434.016	9771.03
434.223	10053.65
434.43	10717.19
434.637	10553.35
434.844	11145.22
435.052	11196.42
435.259	11268.09
435.466	11438.08
435.673	11167.74
435.88	11827.19
436.087	12589.03
436.294	12578.79
436.501	12396.53
436.708	12716.01
436.915	12994.53
437.122	13555.68
437.329	13658.07
437.537	13862.87
437.743	14018.52
437.95	13983.7
438.157	14671.82
438.364	15316.93
438.571	15208.39
438.778	15306.69
438.985	16881.58
439.192	16342.96
439.399	16478.13
439.606	16027.57
439.813	17248.16
440.02	18118.55
440.227	17950.62
440.433	17368.99
440.64	18184.09
440.847	17971.1
441.054	18483.09
441.261	19552.13
441.467	19349.38
441.674	19744.64
441.881	20643.7
442.088	20508.53
442.294	20346.74
442.501	20584.3
442.708	21258.09
442.914	22071.13
443.121	22779.73
443.328	22439.76
443.534	23867.2
443.741	23195.46
443.948	22923.08
444.154	24645.43
444.361	24360.76
444.568	24950.57
444.774	24661.81
444.981	24915.76
445.187	25536.29
445.394	26652.44
445.6	26480.41
445.807	28710.64
446.013	27371.27
446.22	28055.29
446.426	29196.01
446.633	29775.59
446.839	30234.33
447.046	29224.68
447.252	30863.06
447.459	31039.19
447.665	30631.64
447.871	32138.94
448.078	33355.44
448.284	32323.26
448.491	33044.15
448.697	34055.84
448.903	34797.21
449.11	34997.91
449.316	33889.96
449.522	34893.46
449.728	35552.91
449.935	35835.53
450.141	36333.18
450.347	36923
450.553	35387.02
450.76	36343.42
450.966	37338.74
451.172	36822.65
451.378	37969.51
451.584	37025.4
451.791	37733.99
451.997	38016.61
452.203	38590.05
452.409	38807.13
452.615	38319.71
452.821	37023.35
453.027	36306.56
453.233	38477.41
453.44	37074.55
453.646	37291.63
453.852	37015.16
454.058	38037.09
454.264	37029.49
454.47	37471.85
454.676	36595.32
454.882	37912.17
455.088	35059.35
455.294	35239.57
455.5	36036.23
455.705	36386.43
455.911	34795.16
456.117	34311.84
456.323	33627.82
456.529	32116.42
456.735	33545.9
456.941	32237.25
457.147	32132.8
457.352	31352.52
457.558	30576.34
457.764	30787.28
457.97	30174.94
458.176	29335.28
458.381	29382.38
458.587	28129.02
458.793	27989.76
458.999	26601.24
459.204	28157.69
459.41	27815.68
459.616	25655.08
459.821	26083.1
460.027	25605.92
460.233	25122.6
460.438	23873.34
460.644	24137.53
460.85	22941.52
461.055	22622.03
461.261	22744.91
461.466	21020.52
461.672	20285.3
461.878	21618.53
462.083	20270.97
462.289	19877.76
462.494	19545.98
462.7	18884.49
462.905	18413.46
463.111	18663.31
463.316	19079.05
463.522	18540.43
463.727	18700.17
463.932	18745.23
464.138	18249.62
464.343	18261.91
464.549	17926.04
464.754	18532.24
464.959	18151.32
465.165	17985.43
465.37	17239.97
465.575	16869.29
465.781	17262.5
465.986	17487.78
466.191	17059.75
466.397	16533.42
