Data from USB4F104151__170__14-32-30-289.txt Node

Date: Thu Mar 13 14:32:30 EDT 2025
User: louis
Spectrometer: USB4F10415
Trigger mode: 4
Integration Time (sec): 2.500000E-2
Scans to average: 1
Electric dark correction enabled: true
Nonlinearity correction enabled: false
Boxcar width: 0
XAxis mode: Wavelengths
Number of Pixels in Spectrum: 3648
>>>>>Begin Spectral Data<<<<<
178.204	-145.41
178.424	-145.41
178.644	-145.41
178.864	-112.64
179.084	-94.21
179.304	40.96
179.524	-67.58
179.744	-20.48
179.964	30.72
180.184	12.29
180.404	12.29
180.624	-28.67
180.844	63.49
181.064	-28.67
181.283	-16.38
181.503	-12.29
181.723	14.34
181.943	-8.19
182.163	20.48
182.383	-75.77
182.602	135.17
182.822	57.34
183.042	75.77
183.262	20.48
183.482	-75.77
183.701	-28.67
183.921	8.19
184.141	-14.34
184.361	-49.15
184.58	28.67
184.8	73.73
185.02	36.86
185.239	57.34
185.459	28.67
185.679	24.58
185.898	-4.1
186.118	36.86
186.338	24.58
186.557	75.77
186.777	34.82
186.997	102.4
187.216	20.48
187.436	57.34
187.655	104.45
187.875	30.72
188.095	14.34
188.314	94.21
188.534	53.25
188.753	-10.24
188.973	24.58
189.192	120.83
189.412	22.53
189.631	20.48
189.851	-6.14
190.07	71.68
190.29	32.77
190.509	22.53
190.729	28.67
190.948	14.34
191.168	198.65
191.387	86.01
191.607	-43.01
191.826	81.92
192.045	79.87
192.265	69.63
192.484	-20.48
192.704	-32.77
192.923	79.87
193.142	77.82
193.362	139.26
193.581	77.82
193.8	51.2
194.02	0
194.239	-4.1
194.458	36.86
194.678	12.29
194.897	28.67
195.116	20.48
195.335	-4.1
195.555	12.29
195.774	-12.29
195.993	126.97
196.212	14.34
196.432	-16.38
196.651	90.11
196.87	77.82
197.089	90.11
197.308	40.96
197.528	49.15
197.747	45.06
197.966	22.53
198.185	112.64
198.404	94.21
198.623	-8.19
198.842	53.25
199.062	94.21
199.281	10.24
199.5	-12.29
199.719	-57.34
199.938	61.44
200.157	61.44
200.376	131.07
200.595	57.34
200.814	81.92
201.033	32.77
201.252	71.68
201.471	4.1
201.69	59.39
201.909	61.44
202.128	94.21
202.347	137.21
202.566	122.88
202.785	79.87
203.004	22.53
203.223	96.25
203.442	155.65
203.661	98.3
203.879	118.78
204.098	45.06
204.317	79.87
204.536	126.97
204.755	28.67
204.974	34.82
205.193	-18.43
205.411	100.35
205.63	40.96
205.849	18.43
206.068	-18.43
206.287	-8.19
206.505	36.86
206.724	55.3
206.943	69.63
207.162	38.91
207.381	83.97
207.599	10.24
207.818	47.1
208.037	69.63
208.255	12.29
208.474	-36.86
208.693	102.4
208.911	8.19
209.13	47.1
209.349	145.41
209.567	69.63
209.786	6.14
210.005	90.11
210.223	45.06
210.442	51.2
210.661	22.53
210.879	-106.49
211.098	94.21
211.316	20.48
211.535	88.06
211.753	20.48
211.972	-34.82
212.191	0
212.409	4.1
212.628	28.67
212.846	53.25
213.065	104.45
213.283	79.87
213.502	69.63
213.72	106.49
213.938	176.13
214.157	55.3
214.375	-18.43
214.594	96.25
214.812	36.86
215.031	98.3
215.249	16.38
215.467	47.1
215.686	75.77
215.904	61.44
216.122	14.34
216.341	51.2
216.559	45.06
216.778	63.49
216.996	24.58
217.214	2.05
217.432	61.44
217.651	-28.67
217.869	-8.19
218.087	20.48
218.306	4.1
218.524	47.1
218.742	-2.05
218.96	28.67
219.179	77.82
219.397	-28.67
219.615	141.31
219.833	36.86
220.051	12.29
220.27	34.82
220.488	53.25
220.706	53.25
220.924	69.63
221.142	90.11
221.36	69.63
221.578	40.96
221.796	-6.14
222.015	30.72
222.233	96.25
222.451	86.01
222.669	4.1
222.887	32.77
223.105	-16.38
223.323	106.49
223.541	43.01
223.759	102.4
223.977	-4.1
224.195	94.21
224.413	28.67
224.631	57.34
224.849	67.58
225.067	63.49
225.285	12.29
225.503	55.3
225.721	-12.29
225.939	34.82
226.157	22.53
226.375	102.4
226.592	-49.15
226.81	53.25
227.028	65.54
227.246	53.25
227.464	-12.29
227.682	30.72
227.9	59.39
228.117	38.91
228.335	61.44
228.553	-40.96
228.771	-16.38
228.989	57.34
229.206	98.3
229.424	-4.1
229.642	98.3
229.86	77.82
230.077	88.06
230.295	73.73
230.513	102.4
230.731	73.73
230.948	63.49
231.166	65.54
231.384	63.49
231.601	36.86
231.819	116.73
232.037	36.86
232.254	67.58
232.472	-4.1
232.689	57.34
232.907	49.15
233.125	20.48
233.342	24.58
233.56	-24.58
233.777	12.29
233.995	10.24
234.213	77.82
234.43	-2.05
234.648	14.34
234.865	40.96
235.083	110.59
235.3	30.72
235.518	28.67
235.735	81.92
235.953	86.01
236.17	-10.24
236.388	38.91
236.605	32.77
236.822	135.17
237.04	45.06
237.257	79.87
237.475	24.58
237.692	28.67
237.909	-20.48
238.127	-8.19
238.344	30.72
238.562	-12.29
238.779	36.86
238.996	12.29
239.214	90.11
239.431	77.82
239.648	4.1
239.865	-12.29
240.083	61.44
240.3	-2.05
240.517	98.3
240.735	-6.14
240.952	73.73
241.169	96.25
241.386	28.67
241.603	43.01
241.821	40.96
242.038	71.68
242.255	79.87
242.472	36.86
242.689	-4.1
242.907	53.25
243.124	12.29
243.341	36.86
243.558	106.49
243.775	-16.38
243.992	-61.44
244.209	77.82
244.426	49.15
244.643	61.44
244.86	65.54
245.078	-28.67
245.295	104.45
245.512	-4.1
245.729	30.72
245.946	69.63
246.163	-10.24
246.38	36.86
246.597	69.63
246.814	65.54
247.031	32.77
247.248	53.25
247.464	63.49
247.681	30.72
247.898	102.4
248.115	69.63
248.332	-8.19
248.549	69.63
248.766	98.3
248.983	86.01
249.2	30.72
249.417	94.21
249.633	49.15
249.85	118.78
250.067	51.2
250.284	-28.67
250.501	71.68
250.717	26.62
250.934	-43.01
251.151	65.54
251.368	47.1
251.585	59.39
251.801	63.49
252.018	-36.86
252.235	53.25
252.451	12.29
252.668	0
252.885	73.73
253.102	53.25
253.318	-16.38
253.535	-20.48
253.752	69.63
253.968	67.58
254.185	45.06
254.401	57.34
254.618	110.59
254.835	-36.86
255.051	77.82
255.268	-2.05
255.484	86.01
255.701	-4.1
255.917	45.06
256.134	77.82
256.351	-4.1
256.567	-90.11
256.784	26.62
257	12.29
257.217	30.72
257.433	90.11
257.65	36.86
257.866	77.82
258.082	28.67
258.299	73.73
258.515	8.19
258.732	24.58
258.948	45.06
259.165	16.38
259.381	22.53
259.597	90.11
259.814	38.91
260.03	75.77
260.246	38.91
260.463	94.21
260.679	86.01
260.895	77.82
261.112	47.1
261.328	53.25
261.544	61.44
261.761	102.4
261.977	14.34
262.193	-47.1
262.409	14.34
262.626	100.35
262.842	86.01
263.058	61.44
263.274	79.87
263.49	36.86
263.707	86.01
263.923	110.59
264.139	106.49
264.355	-28.67
264.571	77.82
264.787	94.21
265.004	110.59
265.22	10.24
265.436	-49.15
265.652	32.77
265.868	94.21
266.084	57.34
266.3	14.34
266.516	-8.19
266.732	86.01
266.948	71.68
267.164	94.21
267.38	20.48
267.596	6.14
267.812	96.25
268.028	61.44
268.244	34.82
268.46	53.25
268.676	77.82
268.892	45.06
269.108	59.39
269.324	-10.24
269.54	-8.19
269.756	79.87
269.972	0
270.188	20.48
270.403	-40.96
270.619	12.29
270.835	55.3
271.051	45.06
271.267	0
271.483	61.44
271.698	38.91
271.914	40.96
272.13	32.77
272.346	24.58
272.562	32.77
272.777	131.07
272.993	36.86
273.209	36.86
273.425	77.82
273.64	14.34
273.856	-10.24
274.072	57.34
274.287	45.06
274.503	90.11
274.719	61.44
274.934	65.54
275.15	-26.62
275.366	32.77
275.581	12.29
275.797	4.1
276.012	45.06
276.228	49.15
276.444	86.01
276.659	65.54
276.875	61.44
277.09	20.48
277.306	-12.29
277.521	28.67
277.737	34.82
277.952	118.78
278.168	32.77
278.383	96.25
278.599	28.67
278.814	-12.29
279.03	-32.77
279.245	118.78
279.461	104.45
279.676	100.35
279.892	-2.05
280.107	40.96
280.322	59.39
280.538	-28.67
280.753	-32.77
280.969	28.67
281.184	36.86
281.399	94.21
281.615	22.53
281.83	47.1
282.045	49.15
282.26	20.48
282.476	12.29
282.691	81.92
282.906	12.29
283.122	65.54
283.337	32.77
283.552	53.25
283.767	14.34
283.983	65.54
284.198	30.72
284.413	145.41
284.628	-8.19
284.843	63.49
285.058	53.25
285.274	36.86
285.489	-24.58
285.704	69.63
285.919	55.3
286.134	4.1
286.349	4.1
286.564	135.17
286.779	90.11
286.995	16.38
287.21	73.73
287.425	69.63
287.64	38.91
287.855	30.72
288.07	-12.29
288.285	106.49
288.5	90.11
288.715	77.82
288.93	-6.14
289.145	-16.38
289.36	28.67
289.575	53.25
289.79	106.49
290.004	81.92
290.219	65.54
290.434	12.29
290.649	16.38
290.864	-2.05
291.079	30.72
291.294	143.36
291.509	14.34
291.724	45.06
291.938	53.25
292.153	133.12
292.368	10.24
292.583	30.72
292.798	77.82
293.012	28.67
293.227	86.01
293.442	12.29
293.657	106.49
293.871	63.49
294.086	-43.01
294.301	180.22
294.516	14.34
294.73	63.49
294.945	-51.2
295.16	18.43
295.374	47.1
295.589	34.82
295.804	51.2
296.018	94.21
296.233	135.17
296.447	63.49
296.662	47.1
296.877	61.44
297.091	32.77
297.306	40.96
297.52	0
297.735	71.68
297.949	4.1
298.164	96.25
298.378	4.1
298.593	-20.48
298.807	-12.29
299.022	20.48
299.236	12.29
299.451	10.24
299.665	36.86
299.88	28.67
300.094	98.3
300.309	167.93
300.523	10.24
300.737	-4.1
300.952	69.63
301.166	88.06
301.381	36.86
301.595	57.34
301.809	-4.1
302.024	20.48
302.238	24.58
302.452	69.63
302.667	57.34
302.881	102.4
303.095	45.06
303.309	69.63
303.524	-45.06
303.738	96.25
303.952	43.01
304.166	26.62
304.381	-114.69
304.595	131.07
304.809	18.43
305.023	47.1
305.237	55.3
305.452	45.06
305.666	61.44
305.88	12.29
306.094	8.19
306.308	45.06
306.522	20.48
306.736	61.44
306.95	49.15
307.164	14.34
307.379	61.44
307.593	147.45
307.807	69.63
308.021	20.48
308.235	18.43
308.449	-59.39
308.663	110.59
308.877	118.78
309.091	38.91
309.305	147.45
309.519	49.15
309.733	96.25
309.947	-45.06
310.161	96.25
310.374	16.38
310.588	57.34
310.802	69.63
311.016	-53.25
311.23	98.3
311.444	8.19
311.658	-45.06
311.872	81.92
312.085	55.3
312.299	106.49
312.513	61.44
312.727	90.11
312.941	49.15
313.154	73.73
313.368	57.34
313.582	-12.29
313.796	28.67
314.009	24.58
314.223	86.01
314.437	36.86
314.651	40.96
314.864	20.48
315.078	106.49
315.292	65.54
315.505	30.72
315.719	63.49
315.933	49.15
316.146	28.67
316.36	4.1
316.573	20.48
316.787	96.25
317.001	38.91
317.214	14.34
317.428	14.34
317.641	0
317.855	81.92
318.068	30.72
318.282	32.77
318.495	96.25
318.709	38.91
318.922	24.58
319.136	102.4
319.349	55.3
319.563	4.1
319.776	104.45
319.99	-24.58
320.203	120.83
320.417	-12.29
320.63	53.25
320.843	61.44
321.057	98.3
321.27	47.1
321.483	6.14
321.697	51.2
321.91	81.92
322.124	65.54
322.337	6.14
322.55	28.67
322.763	38.91
322.977	40.96
323.19	-14.34
323.403	65.54
323.617	55.3
323.83	106.49
324.043	45.06
324.256	4.1
324.469	-18.43
324.683	38.91
324.896	12.29
325.109	45.06
325.322	24.58
325.535	8.19
325.748	-8.19
325.962	16.38
326.175	51.2
326.388	77.82
326.601	81.92
326.814	79.87
327.027	43.01
327.24	36.86
327.453	28.67
327.666	38.91
327.879	73.73
328.092	40.96
328.305	61.44
328.518	12.29
328.731	86.01
328.944	112.64
329.157	118.78
329.37	0
329.583	90.11
329.796	55.3
330.009	-2.05
330.222	-8.19
330.435	104.45
330.648	16.38
330.861	55.3
331.073	61.44
331.286	0
331.499	8.19
331.712	55.3
331.925	0
332.138	30.72
332.35	51.2
332.563	-4.1
332.776	94.21
332.989	40.96
333.202	45.06
333.414	77.82
333.627	14.34
333.84	53.25
334.053	40.96
334.265	36.86
334.478	45.06
334.691	34.82
334.903	71.68
335.116	28.67
335.329	120.83
335.541	-20.48
335.754	169.98
335.966	47.1
336.179	86.01
336.392	77.82
336.604	53.25
336.817	137.21
337.029	12.29
337.242	55.3
337.454	30.72
337.667	28.67
337.88	143.36
338.092	38.91
338.305	110.59
338.517	-10.24
338.729	49.15
338.942	38.91
339.154	20.48
339.367	-61.44
339.579	114.69
339.792	63.49
340.004	135.17
340.217	40.96
340.429	4.1
340.641	69.63
340.854	36.86
341.066	75.77
341.278	77.82
341.491	135.17
341.703	100.35
341.915	-24.58
342.128	28.67
342.34	75.77
342.552	20.48
342.764	-4.1
342.977	77.82
343.189	75.77
343.401	90.11
343.613	45.06
343.826	112.64
344.038	81.92
344.25	63.49
344.462	96.25
344.674	139.26
344.886	-4.1
345.099	65.54
345.311	-8.19
345.523	65.54
345.735	69.63
345.947	149.5
346.159	96.25
346.371	86.01
346.583	137.21
346.795	86.01
347.007	-12.29
347.219	45.06
347.431	34.82
347.643	45.06
347.855	-4.1
348.067	122.88
348.279	36.86
348.491	61.44
348.703	24.58
348.915	4.1
349.127	-28.67
349.339	67.58
349.551	55.3
349.763	53.25
349.975	45.06
350.187	77.82
350.399	30.72
350.61	20.48
350.822	106.49
351.034	86.01
351.246	61.44
351.458	36.86
351.669	90.11
351.881	38.91
352.093	63.49
352.305	94.21
352.517	-12.29
352.728	73.73
352.94	92.16
353.152	79.87
353.363	-53.25
353.575	69.63
353.787	98.3
353.999	0
354.21	63.49
354.422	12.29
354.633	94.21
354.845	77.82
355.057	73.73
355.268	73.73
355.48	47.1
355.692	30.72
355.903	-28.67
356.115	-4.1
356.326	-28.67
356.538	98.3
356.749	36.86
356.961	153.6
357.172	45.06
357.384	55.3
357.595	69.63
357.807	96.25
358.018	-28.67
358.23	30.72
358.441	104.45
358.653	94.21
358.864	14.34
359.075	28.67
359.287	-4.1
359.498	86.01
359.709	12.29
359.921	61.44
360.132	102.4
360.344	-12.29
360.555	16.38
360.766	61.44
360.977	4.1
361.189	102.4
361.4	49.15
361.611	69.63
361.823	61.44
362.034	102.4
362.245	12.29
362.456	63.49
362.667	53.25
362.879	-4.1
363.09	63.49
363.301	79.87
363.512	20.48
363.723	-53.25
363.935	20.48
364.146	61.44
364.357	73.73
364.568	-10.24
364.779	30.72
364.99	129.02
365.201	30.72
365.412	131.07
365.623	0
365.834	69.63
366.045	49.15
366.256	24.58
366.467	94.21
366.678	36.86
366.889	71.68
367.1	-2.05
367.311	63.49
367.522	55.3
367.733	40.96
367.944	102.4
368.155	28.67
368.366	100.35
368.577	86.01
368.788	96.25
368.999	30.72
369.209	120.83
369.42	45.06
369.631	149.5
369.842	110.59
370.053	38.91
370.264	122.88
370.474	-34.82
370.685	30.72
370.896	18.43
371.107	94.21
371.317	122.88
371.528	30.72
371.739	45.06
371.95	129.02
372.16	69.63
372.371	-34.82
372.582	86.01
372.792	22.53
373.003	77.82
373.214	86.01
373.424	45.06
373.635	61.44
373.846	73.73
374.056	18.43
374.267	96.25
374.477	100.35
374.688	86.01
374.898	47.1
375.109	63.49
375.319	75.77
375.53	94.21
375.74	86.01
375.951	96.25
376.161	-2.05
376.372	61.44
376.582	86.01
376.793	65.54
377.003	28.67
377.214	28.67
377.424	55.3
377.635	94.21
377.845	55.3
378.055	131.07
378.266	-20.48
378.476	49.15
378.686	86.01
378.897	67.58
379.107	32.77
379.317	20.48
379.528	88.06
379.738	12.29
379.948	14.34
380.158	69.63
380.369	53.25
380.579	55.3
380.789	24.58
380.999	38.91
381.21	24.58
381.42	98.3
381.63	4.1
381.84	98.3
382.05	36.86
382.261	69.63
382.471	69.63
382.681	40.96
382.891	90.11
383.101	90.11
383.311	61.44
383.521	36.86
383.731	122.88
383.941	69.63
384.151	102.4
384.361	90.11
384.571	47.1
384.781	106.49
384.991	110.59
385.201	126.97
385.411	118.78
385.621	110.59
385.831	53.25
386.041	106.49
386.251	-4.1
386.461	69.63
386.671	73.73
386.881	49.15
387.091	51.2
387.301	98.3
387.511	106.49
387.72	104.45
387.93	141.31
388.14	-6.14
388.35	47.1
388.56	69.63
388.769	36.86
388.979	102.4
389.189	14.34
389.399	122.88
389.609	65.54
389.818	141.31
390.028	114.69
390.238	73.73
390.447	45.06
390.657	73.73
390.867	26.62
391.076	65.54
391.286	77.82
391.496	69.63
391.705	106.49
391.915	112.64
392.125	92.16
392.334	83.97
392.544	79.87
392.753	71.68
392.963	86.01
393.172	63.49
393.382	14.34
393.591	120.83
393.801	53.25
394.01	122.88
394.22	55.3
394.429	49.15
394.639	94.21
394.848	118.78
395.058	63.49
395.267	53.25
395.477	118.78
395.686	86.01
395.895	100.35
396.105	274.43
396.314	79.87
396.524	126.97
396.733	36.86
396.942	186.37
397.152	143.36
397.361	114.69
397.57	63.49
397.78	61.44
397.989	131.07
398.198	86.01
398.407	106.49
398.617	102.4
398.826	69.63
399.035	32.77
399.244	81.92
399.453	169.98
399.663	28.67
399.872	120.83
400.081	90.11
400.29	92.16
400.499	135.17
400.708	194.56
400.917	77.82
401.127	86.01
401.336	118.78
401.545	126.97
401.754	81.92
401.963	155.65
402.172	110.59
402.381	135.17
402.59	161.79
402.799	71.68
403.008	151.55
403.217	159.74
403.426	155.65
403.635	61.44
403.844	184.32
404.053	133.12
404.262	104.45
404.471	225.28
404.68	186.37
404.888	129.02
405.097	192.51
405.306	159.74
405.515	135.17
405.724	122.88
405.933	137.21
406.142	153.6
406.35	114.69
406.559	274.43
406.768	210.94
406.977	212.99
407.185	237.56
407.394	233.47
407.603	137.21
407.812	184.32
408.02	266.24
408.229	172.03
408.438	292.86
408.646	169.98
408.855	299
409.064	303.1
409.272	196.61
409.481	311.29
409.69	315.39
409.898	215.04
410.107	309.24
410.315	382.97
410.524	299
410.733	272.38
410.941	364.54
411.15	356.35
411.358	405.5
411.567	464.89
411.775	395.26
411.984	389.11
412.192	413.69
412.401	391.16
412.609	538.62
412.818	546.81
413.026	497.66
413.234	532.47
413.443	471.03
413.651	503.8
413.86	540.66
414.068	604.15
414.276	606.2
414.485	577.53
414.693	708.6
414.901	649.21
415.11	675.83
415.318	702.45
415.526	663.54
415.734	751.6
415.943	720.89
416.151	815.09
416.359	800.76
416.567	784.37
416.776	808.95
416.984	972.79
417.192	933.87
417.4	888.82
417.608	944.11
417.817	976.88
418.025	1030.13
418.233	1095.66
418.441	1071.09
418.649	1110
418.857	1167.34
419.065	1216.49
419.273	1200.11
419.481	1224.69
419.689	1292.27
419.897	1406.95
420.105	1376.24
420.313	1466.35
420.521	1474.54
420.729	1650.66
420.937	1650.66
421.145	1658.85
421.353	1744.87
421.561	1798.12
421.769	1869.8
421.977	1941.47
422.185	1886.18
422.393	2119.65
422.601	2150.37
422.809	2174.94
423.017	2115.55
423.224	2267.1
423.432	2387.93
423.64	2232.29
423.848	2568.15
424.056	2519
424.263	2625.5
424.471	2676.7
424.679	2734.04
424.887	2863.06
425.094	2904.02
425.302	2940.88
425.51	3045.33
425.718	3133.39
425.925	3258.32
426.133	3391.44
426.341	3565.51
426.548	3657.67
426.756	3788.74
426.964	3704.78
427.171	3844.04
427.379	4014.02
427.586	3995.59
427.794	4134.85
428.001	4331.45
428.209	4691.9
428.417	4458.43
428.624	4650.94
428.832	4839.35
429.039	4788.15
429.247	4708.28
429.454	5099.44
429.662	5455.79
429.869	5281.71
430.076	5480.36
430.284	5445.55
430.491	5582.76
430.699	5812.14
430.906	6078.37
431.114	6100.9
431.321	6131.62
431.528	6367.13
431.736	6866.84
431.943	7092.12
432.15	6901.65
432.358	7102.36
432.565	7583.63
432.772	7309.2
432.979	7839.62
433.187	7769.99
433.394	7991.17
433.601	8327.04
433.808	8556.41
434.016	8474.49
434.223	8605.56
434.43	9330.55
434.637	8796.03
434.844	9787.24
435.052	9721.71
435.259	9734
435.466	9996.14
435.673	9736.04
435.88	10317.67
436.087	10757.98
436.294	10827.61
436.501	10753.88
436.708	10751.84
436.915	11132.76
437.122	11501.39
437.329	11538.26
437.537	12064.58
437.743	11812.68
437.95	12173.13
438.157	12568.38
438.364	12873.53
438.571	12902.2
438.778	13188.92
438.985	14372.64
439.192	13909.8
439.399	14217
439.606	14077.74
439.813	14823.2
440.02	15773.46
440.227	15501.08
440.433	15011.61
440.64	15683.34
440.847	15525.65
441.054	15886.09
441.261	17260.28
441.467	16824.06
441.674	17100.54
441.881	17651.44
442.088	17684.21
442.294	17622.77
442.501	17757.94
442.708	18226.92
442.914	19056.35
443.121	19902.16
443.328	19070.68
443.534	20483.78
443.741	19881.68
443.948	19865.3
444.154	21282.49
444.361	21108.41
444.568	21290.68
444.774	21405.37
444.981	21454.52
445.187	21788.34
445.394	22705.83
445.6	22668.97
445.807	24716.93
446.013	23512.73
446.22	23881.36
446.426	24921.73
446.633	25282.17
446.839	26127.99
447.046	24897.16
447.252	26642.03
447.459	26525.29
447.665	26564.2
447.871	27829.85
448.078	28597.84
448.284	27319.9
448.491	28417.61
448.697	29113.92
448.903	29742.65
449.11	29582.91
449.316	29515.33
449.522	29740.6
449.728	30656.04
449.935	30846.51
450.141	30916.14
450.347	31626.78
450.553	30455.34
450.76	30932.52
450.966	32286.23
451.172	31360.55
451.378	32474.64
451.584	31823.39
451.791	32714.25
451.997	32327.19
452.203	32816.65
452.409	33304.07
452.615	32728.59
452.821	31407.65
453.027	31184.42
453.233	32755.21
453.44	31460.9
453.646	32003.61
453.852	31843.87
454.058	32318.99
454.264	31487.52
454.47	31972.89
454.676	31157.8
454.882	32314.9
455.088	29498.94
455.294	30131.76
455.5	30457.39
455.705	30443.06
455.911	29165.12
456.117	28892.74
456.323	28366.42
456.529	27063.91
456.735	28298.83
456.941	27532.89
457.147	26832.49
457.352	25785.97
457.558	25861.75
457.764	26089.07
457.97	25306.75
458.176	24893.06
458.381	24653.45
458.587	23309.98
458.793	23492.25
458.999	22253.23
459.204	24172.18
459.41	23496.35
459.616	21640.89
459.821	21800.63
460.027	21661.37
460.233	21147.33
460.438	20313.8
460.644	20661.96
460.85	19621.59
461.055	19316.44
461.261	19052.25
461.466	17653.49
461.672	17086.2
461.878	18304.74
462.083	16893.69
462.289	16895.74
462.494	16465.67
462.7	15877.9
462.905	15421.2
463.111	16260.87
463.316	16066.31
463.522	15685.39
463.727	15494.93
463.932	15578.9
464.138	15400.73
464.343	15333.14
464.549	14882.59
464.754	15707.92
464.959	15652.63
465.165	15300.37
465.37	14407.46
465.575	14499.62
465.781	14950.17
465.986	15023.9
466.191	14440.23
466.397	14223.14
466.602	13303.6
466.807	13967.15
467.012	14032.68
467.218	14065.45
467.423	13758.25
467.628	14040.87
467.833	14339.88
