Data from USB4F104151__83__14-30-34-847.txt Node

Date: Thu Mar 13 14:30:34 EDT 2025
User: louis
Spectrometer: USB4F10415
Trigger mode: 4
Integration Time (sec): 2.500000E-2
Scans to average: 1
Electric dark correction enabled: true
Nonlinearity correction enabled: false
Boxcar width: 0
XAxis mode: Wavelengths
Number of Pixels in Spectrum: 3648
>>>>>Begin Spectral Data<<<<<
178.204	-136.36
178.424	-136.36
178.644	-136.36
178.864	-195.75
179.084	-103.59
179.304	-38.06
179.524	7
179.744	-60.59
179.964	64.34
180.184	25.43
180.404	50
180.624	-31.91
180.844	-54.44
181.064	17.24
181.283	33.62
181.503	-54.44
181.723	41.81
181.943	-40.11
182.163	21.33
182.383	35.67
182.602	29.52
182.822	50
183.042	11.09
183.262	-23.72
183.482	25.43
183.701	-19.63
183.921	17.24
184.141	-1.19
184.361	66.39
184.58	62.29
184.8	-7.34
185.02	2.9
185.239	74.58
185.459	50
185.679	45.91
185.898	4.95
186.118	-48.3
186.338	54.1
186.557	50
186.777	31.57
186.997	9.05
187.216	54.1
187.436	58.2
187.655	37.72
187.875	66.39
188.095	54.1
188.314	68.44
188.534	15.19
188.753	43.86
188.973	0.85
189.192	27.48
189.412	17.24
189.631	31.57
189.851	-29.87
190.07	125.78
190.29	2.9
190.509	41.81
190.729	25.43
190.948	13.14
191.168	131.92
191.387	17.24
191.607	66.39
191.826	-13.48
192.045	76.63
192.265	9.05
192.484	15.19
192.704	54.1
192.923	-81.07
193.142	168.79
193.362	131.92
193.581	-29.87
193.8	101.2
194.02	56.15
194.239	-15.53
194.458	74.58
194.678	33.62
194.897	76.63
195.116	-7.34
195.335	45.91
195.555	70.48
195.774	0.85
195.993	33.62
196.212	64.34
196.432	19.29
196.651	54.1
196.87	-15.53
197.089	115.54
197.308	21.33
197.528	70.48
197.747	-11.43
197.966	4.95
198.185	43.86
198.404	-5.29
198.623	-60.59
198.842	37.72
199.062	4.95
199.281	95.06
199.5	25.43
199.719	33.62
199.938	117.59
200.157	84.82
200.376	17.24
200.595	-1.19
200.814	21.33
201.033	-11.43
201.252	133.97
201.471	33.62
201.69	37.72
201.909	47.96
202.128	107.35
202.347	41.81
202.566	29.52
202.785	9.05
203.004	37.72
203.223	54.1
203.442	11.09
203.661	4.95
203.879	0.85
204.098	117.59
204.317	-44.2
204.536	93.01
204.755	90.96
204.974	58.2
205.193	93.01
205.411	82.77
205.63	140.12
205.849	2.9
206.068	31.57
206.287	19.29
206.505	33.62
206.724	123.73
206.943	45.91
207.162	41.81
207.381	29.52
207.599	29.52
207.818	43.86
208.037	-13.48
208.255	21.33
208.474	99.16
208.693	58.2
208.911	31.57
209.13	84.82
209.349	68.44
209.567	70.48
209.786	37.72
210.005	78.68
210.223	50
210.442	-68.78
210.661	-9.39
210.879	0.85
211.098	25.43
211.316	58.2
211.535	25.43
211.753	19.29
211.972	66.39
212.191	35.67
212.409	41.81
212.628	21.33
212.846	-7.34
213.065	80.72
213.283	82.77
213.502	0.85
213.72	60.24
213.938	41.81
214.157	62.29
214.375	23.38
214.594	37.72
214.812	58.2
215.031	60.24
215.249	45.91
215.467	50
215.686	70.48
215.904	29.52
216.122	11.09
216.341	15.19
216.559	52.05
216.778	39.76
216.996	-11.43
217.214	4.95
217.432	0.85
217.651	13.14
217.869	41.81
218.087	-42.15
218.306	-19.63
218.524	109.4
218.742	-3.24
218.96	93.01
219.179	17.24
219.397	-3.24
219.615	58.2
219.833	25.43
220.051	-23.72
220.27	88.92
220.488	-36.01
220.706	27.48
220.924	-11.43
221.142	17.24
221.36	29.52
221.578	70.48
221.796	37.72
222.015	82.77
222.233	-48.3
222.451	58.2
222.669	19.29
222.887	9.05
223.105	29.52
223.323	25.43
223.541	-38.06
223.759	41.81
223.977	70.48
224.195	64.34
224.413	21.33
224.631	101.2
224.849	-5.29
225.067	115.54
225.285	33.62
225.503	76.63
225.721	-119.98
225.939	56.15
226.157	27.48
226.375	123.73
226.592	2.9
226.81	-5.29
227.028	95.06
227.246	78.68
227.464	23.38
227.682	50
227.9	-15.53
228.117	101.2
228.335	0.85
228.553	58.2
228.771	-66.73
228.989	-15.53
229.206	72.53
229.424	-48.3
229.642	76.63
229.86	-27.82
230.077	86.87
230.295	56.15
230.513	17.24
230.731	82.77
230.948	66.39
231.166	13.14
231.384	-3.24
231.601	4.95
231.819	68.44
232.037	93.01
232.254	31.57
232.472	54.1
232.689	29.52
232.907	-27.82
233.125	82.77
233.342	45.91
233.56	-15.53
233.777	7
233.995	93.01
234.213	136.02
234.43	41.81
234.648	84.82
234.865	13.14
235.083	25.43
235.3	52.05
235.518	93.01
235.735	93.01
235.953	50
236.17	60.24
236.388	-23.72
236.605	33.62
236.822	84.82
237.04	13.14
237.257	78.68
237.475	-40.11
237.692	66.39
237.909	33.62
238.127	4.95
238.344	21.33
238.562	11.09
238.779	7
238.996	84.82
239.214	123.73
239.431	133.97
239.648	-5.29
239.865	82.77
240.083	21.33
240.3	21.33
240.517	17.24
240.735	-21.67
240.952	37.72
241.169	45.91
241.386	-13.48
241.603	50
241.821	-54.44
242.038	105.3
242.255	95.06
242.472	-31.91
242.689	90.96
242.907	-3.24
243.124	95.06
243.341	-72.87
243.558	56.15
243.775	33.62
243.992	66.39
244.209	17.24
244.426	66.39
244.643	60.24
244.86	0.85
245.078	103.25
245.295	64.34
245.512	45.91
245.729	-29.87
245.946	33.62
246.163	90.96
246.38	9.05
246.597	45.91
246.814	17.24
247.031	74.58
247.248	-70.83
247.464	62.29
247.681	58.2
247.898	74.58
248.115	101.2
248.332	86.87
248.549	43.86
248.766	105.3
248.983	125.78
249.2	31.57
249.417	107.35
249.633	54.1
249.85	52.05
250.067	11.09
250.284	33.62
250.501	37.72
250.717	41.81
250.934	17.24
251.151	-11.43
251.368	41.81
251.585	-1.19
251.801	99.16
252.018	19.29
252.235	39.76
252.451	-27.82
252.668	11.09
252.885	29.52
253.102	35.67
253.318	-15.53
253.535	-48.3
253.752	-56.49
253.968	-48.3
254.185	-15.53
254.401	80.72
254.618	123.73
254.835	21.33
255.051	41.81
255.268	93.01
255.484	88.92
255.701	82.77
255.917	33.62
256.134	-5.29
256.351	19.29
256.567	9.05
256.784	41.81
257	-21.67
257.217	99.16
257.433	68.44
257.65	54.1
257.866	115.54
258.082	-27.82
258.299	54.1
258.515	131.92
258.732	-15.53
258.948	78.68
259.165	35.67
259.381	84.82
259.597	-3.24
259.814	27.48
260.03	-23.72
260.246	2.9
260.463	50
260.679	66.39
260.895	45.91
261.112	33.62
261.328	45.91
261.544	-23.72
261.761	62.29
261.977	43.86
262.193	17.24
262.409	115.54
262.626	56.15
262.842	154.45
263.058	11.09
263.274	62.29
263.49	82.77
263.707	29.52
263.923	25.43
264.139	-29.87
264.355	76.63
264.571	50
264.787	0.85
265.004	107.35
265.22	60.24
265.436	45.91
265.652	27.48
265.868	-17.58
266.084	-7.34
266.3	45.91
266.516	23.38
266.732	-5.29
266.948	-1.19
267.164	25.43
267.38	76.63
267.596	4.95
267.812	54.1
268.028	60.24
268.244	-19.63
268.46	52.05
268.676	19.29
268.892	-23.72
269.108	37.72
269.324	-40.11
269.54	11.09
269.756	-62.63
269.972	58.2
270.188	33.62
270.403	-13.48
270.619	43.86
270.835	58.2
271.051	35.67
271.267	99.16
271.483	4.95
271.698	11.09
271.914	9.05
272.13	35.67
272.346	-62.63
272.562	62.29
272.777	17.24
272.993	-19.63
273.209	74.58
273.425	50
273.64	-5.29
273.856	54.1
274.072	-3.24
274.287	-3.24
274.503	27.48
274.719	50
274.934	74.58
275.15	-7.34
275.366	-7.34
275.581	-27.82
275.797	37.72
276.012	74.58
276.228	25.43
276.444	2.9
276.659	99.16
276.875	-21.67
277.09	7
277.306	29.52
277.521	2.9
277.737	17.24
277.952	58.2
278.168	41.81
278.383	-7.34
278.599	82.77
278.814	19.29
279.03	103.25
279.245	123.73
279.461	-7.34
279.676	123.73
279.892	60.24
280.107	-19.63
280.322	-31.91
280.538	-25.77
280.753	29.52
280.969	74.58
281.184	70.48
281.399	99.16
281.615	93.01
281.83	56.15
282.045	-54.44
282.26	25.43
282.476	2.9
282.691	68.44
282.906	21.33
283.122	43.86
283.337	37.72
283.552	52.05
283.767	-44.2
283.983	74.58
284.198	-5.29
284.413	-23.72
284.628	-13.48
284.843	17.24
285.058	80.72
285.274	17.24
285.489	66.39
285.704	58.2
285.919	60.24
286.134	-19.63
286.349	-23.72
286.564	41.81
286.779	45.91
286.995	-21.67
287.21	80.72
287.425	25.43
287.64	-33.96
287.855	-1.19
288.07	70.48
288.285	93.01
288.5	84.82
288.715	29.52
288.93	-5.29
289.145	-29.87
289.36	64.34
289.575	11.09
289.79	31.57
290.004	41.81
290.219	11.09
290.434	-31.91
290.649	17.24
290.864	58.2
291.079	-15.53
291.294	74.58
291.509	60.24
291.724	33.62
291.938	31.57
292.153	-19.63
292.368	62.29
292.583	66.39
292.798	56.15
293.012	58.2
293.227	60.24
293.442	76.63
293.657	148.31
293.871	70.48
294.086	-27.82
294.301	97.11
294.516	50
294.73	74.58
294.945	-15.53
295.16	52.05
295.374	107.35
295.589	123.73
295.804	9.05
296.018	99.16
296.233	119.64
296.447	19.29
296.662	-27.82
296.877	52.05
297.091	74.58
297.306	97.11
297.52	50
297.735	84.82
297.949	23.38
298.164	-5.29
298.378	58.2
298.593	29.52
298.807	39.76
299.022	50
299.236	78.68
299.451	60.24
299.665	2.9
299.88	19.29
300.094	82.77
300.309	115.54
300.523	103.25
300.737	-13.48
300.952	70.48
301.166	25.43
301.381	-23.72
301.595	52.05
301.809	76.63
302.024	86.87
302.238	-70.83
302.452	111.44
302.667	25.43
302.881	84.82
303.095	60.24
303.309	19.29
303.524	-3.24
303.738	0.85
303.952	41.81
304.166	82.77
304.381	0.85
304.595	150.36
304.809	45.91
305.023	41.81
305.237	33.62
305.452	43.86
305.666	115.54
305.88	33.62
306.094	66.39
306.308	50
306.522	23.38
306.736	15.19
306.95	148.31
307.164	-33.96
307.379	80.72
307.593	90.96
307.807	95.06
308.021	7
308.235	43.86
308.449	-21.67
308.663	-40.11
308.877	127.83
309.091	66.39
309.305	50
309.519	-29.87
309.733	90.96
309.947	0.85
310.161	0.85
310.374	33.62
310.588	62.29
310.802	13.14
311.016	68.44
311.23	33.62
311.444	11.09
311.658	-15.53
311.872	37.72
312.085	64.34
312.299	-52.39
312.513	37.72
312.727	17.24
312.941	17.24
313.154	25.43
313.368	58.2
313.582	25.43
313.796	21.33
314.009	35.67
314.223	41.81
314.437	62.29
314.651	0.85
314.864	25.43
315.078	-38.06
315.292	2.9
315.505	37.72
315.719	82.77
315.933	74.58
316.146	-5.29
316.36	-19.63
316.573	82.77
316.787	72.53
317.001	50
317.214	-56.49
317.428	52.05
317.641	13.14
317.855	41.81
318.068	62.29
318.282	7
318.495	58.2
318.709	37.72
318.922	123.73
319.136	70.48
319.349	88.92
319.563	52.05
319.776	115.54
319.99	-40.11
320.203	113.49
320.417	93.01
320.63	60.24
320.843	68.44
321.057	82.77
321.27	52.05
321.483	45.91
321.697	74.58
321.91	50
322.124	84.82
322.337	56.15
322.55	70.48
322.763	2.9
322.977	66.39
323.19	33.62
323.403	25.43
323.617	-19.63
323.83	52.05
324.043	29.52
324.256	43.86
324.469	62.29
324.683	17.24
324.896	29.52
325.109	93.01
325.322	25.43
325.535	33.62
325.748	95.06
325.962	41.81
326.175	45.91
326.388	84.82
326.601	13.14
326.814	86.87
327.027	37.72
327.24	117.59
327.453	66.39
327.666	27.48
327.879	21.33
328.092	123.73
328.305	17.24
328.518	50
328.731	-38.06
328.944	74.58
329.157	-3.24
329.37	47.96
329.583	113.49
329.796	43.86
330.009	25.43
330.222	68.44
330.435	111.44
330.648	11.09
330.861	0.85
331.073	33.62
331.286	74.58
331.499	90.96
331.712	0.85
331.925	25.43
332.138	68.44
332.35	66.39
332.563	2.9
332.776	144.21
332.989	27.48
333.202	60.24
333.414	27.48
333.627	29.52
333.84	37.72
334.053	101.2
334.265	70.48
334.478	45.91
334.691	60.24
334.903	37.72
335.116	-46.25
335.329	23.38
335.541	99.16
335.754	90.96
335.966	-7.34
336.179	52.05
336.392	52.05
336.604	66.39
336.817	45.91
337.029	33.62
337.242	60.24
337.454	33.62
337.667	66.39
337.88	74.58
338.092	66.39
338.305	78.68
338.517	62.29
338.729	107.35
338.942	70.48
339.154	-9.39
339.367	41.81
339.579	74.58
339.792	0.85
340.004	17.24
340.217	-60.59
340.429	4.95
340.641	50
340.854	23.38
341.066	72.53
341.278	113.49
341.491	103.25
341.703	68.44
341.915	11.09
342.128	103.25
342.34	29.52
342.552	-17.58
342.764	29.52
342.977	95.06
343.189	82.77
343.401	41.81
343.613	50
343.826	72.53
344.038	33.62
344.25	45.91
344.462	50
344.674	156.5
344.886	33.62
345.099	88.92
345.311	9.05
345.523	-52.39
345.735	-3.24
345.947	11.09
346.159	45.91
346.371	95.06
346.583	72.53
346.795	117.59
347.007	66.39
347.219	72.53
347.431	66.39
347.643	45.91
347.855	37.72
348.067	142.16
348.279	-21.67
348.491	37.72
348.703	82.77
348.915	115.54
349.127	56.15
349.339	47.96
349.551	9.05
349.763	41.81
349.975	70.48
350.187	50
350.399	54.1
350.61	74.58
350.822	56.15
351.034	76.63
351.246	13.14
351.458	103.25
351.669	74.58
351.881	84.82
352.093	62.29
352.305	90.96
352.517	35.67
352.728	74.58
352.94	60.24
353.152	127.83
353.363	45.91
353.575	43.86
353.787	60.24
353.999	90.96
354.21	43.86
354.422	-15.53
354.633	29.52
354.845	62.29
355.057	2.9
355.268	86.87
355.48	78.68
355.692	-62.63
355.903	4.95
356.115	62.29
356.326	31.57
356.538	68.44
356.749	105.3
356.961	99.16
357.172	39.76
357.384	4.95
357.595	156.5
357.807	21.33
358.018	64.34
358.23	29.52
358.441	45.91
358.653	82.77
358.864	41.81
359.075	9.05
359.287	50
359.498	95.06
359.709	43.86
359.921	27.48
360.132	123.73
360.344	47.96
360.555	93.01
360.766	68.44
360.977	15.19
361.189	41.81
361.4	52.05
361.611	119.64
361.823	66.39
362.034	66.39
362.245	105.3
362.456	138.07
362.667	13.14
362.879	23.38
363.09	-23.72
363.301	115.54
363.512	27.48
363.723	37.72
363.935	70.48
364.146	127.83
364.357	74.58
364.568	74.58
364.779	35.67
364.99	99.16
365.201	50
365.412	88.92
365.623	-17.58
365.834	-42.15
366.045	33.62
366.256	90.96
366.467	78.68
366.678	103.25
366.889	68.44
367.1	13.14
367.311	39.76
367.522	-21.67
367.733	97.11
367.944	62.29
368.155	25.43
368.366	74.58
368.577	64.34
368.788	164.69
368.999	13.14
369.209	15.19
369.42	107.35
369.631	123.73
369.842	88.92
370.053	29.52
370.264	78.68
370.474	93.01
370.685	50
370.896	27.48
371.107	60.24
371.317	74.58
371.528	33.62
371.739	115.54
371.95	43.86
372.16	52.05
372.371	84.82
372.582	76.63
372.792	41.81
373.003	70.48
373.214	90.96
373.424	168.79
373.635	74.58
373.846	66.39
374.056	76.63
374.267	115.54
374.477	109.4
374.688	-31.91
374.898	101.2
375.109	43.86
375.319	41.81
375.53	78.68
375.74	41.81
375.951	27.48
376.161	76.63
376.372	60.24
376.582	0.85
376.793	103.25
377.003	140.12
377.214	25.43
377.424	125.78
377.635	158.55
377.845	21.33
378.055	64.34
378.266	27.48
378.476	41.81
378.686	74.58
378.897	0.85
379.107	9.05
379.317	82.77
379.528	33.62
379.738	70.48
379.948	0.85
380.158	27.48
380.369	90.96
380.579	33.62
380.789	13.14
380.999	113.49
381.21	131.92
381.42	86.87
381.63	68.44
381.84	29.52
382.05	93.01
382.261	35.67
382.471	54.1
382.681	25.43
382.891	99.16
383.101	58.2
383.311	21.33
383.521	37.72
383.731	115.54
383.941	54.1
384.151	29.52
384.361	31.57
384.571	19.29
384.781	41.81
384.991	74.58
385.201	172.88
385.411	25.43
385.621	148.31
385.831	74.58
386.041	117.59
386.251	13.14
386.461	103.25
386.671	50
386.881	60.24
387.091	50
387.301	95.06
387.511	107.35
387.72	47.96
387.93	84.82
388.14	-27.82
388.35	82.77
388.56	90.96
388.769	70.48
388.979	111.44
389.189	52.05
389.399	97.11
389.609	74.58
389.818	129.88
390.028	103.25
390.238	80.72
390.447	101.2
390.657	52.05
390.867	58.2
391.076	115.54
391.286	125.78
391.496	84.82
391.705	66.39
391.915	93.01
392.125	86.87
392.334	95.06
392.544	129.88
392.753	80.72
392.963	66.39
393.172	90.96
393.382	58.2
393.591	144.21
393.801	19.29
394.01	142.16
394.22	140.12
394.429	19.29
394.639	62.29
394.848	133.97
395.058	74.58
395.267	31.57
395.477	82.77
395.686	62.29
395.895	131.92
396.105	133.97
396.314	90.96
396.524	174.93
396.733	82.77
396.942	244.56
397.152	156.5
397.361	121.68
397.57	88.92
397.78	74.58
397.989	88.92
398.198	123.73
398.407	76.63
398.617	133.97
398.826	144.21
399.035	109.4
399.244	140.12
399.453	127.83
399.663	156.5
399.872	172.88
400.081	109.4
400.29	158.55
400.499	101.2
400.708	181.07
400.917	148.31
401.127	131.92
401.336	99.16
401.545	217.94
401.754	215.89
401.963	170.83
402.172	62.29
402.381	142.16
402.59	117.59
402.799	164.69
403.008	201.55
403.217	162.64
403.426	174.93
403.635	93.01
403.844	103.25
404.053	127.83
404.262	236.37
404.471	271.19
404.68	234.32
404.888	111.44
405.097	166.74
405.306	166.74
405.515	199.51
405.724	107.35
405.933	117.59
406.142	160.59
406.35	205.65
406.559	224.08
406.768	189.27
406.977	279.38
407.185	254.8
407.394	250.71
407.603	232.27
407.812	219.99
408.02	316.24
408.229	262.99
408.438	303.95
408.646	297.81
408.855	357.2
409.064	394.06
409.272	326.48
409.481	258.9
409.69	310.1
409.898	344.91
410.107	381.78
410.315	396.11
410.524	412.5
410.733	377.68
410.941	387.92
411.15	488.27
411.358	449.36
411.567	467.79
411.775	500.56
411.984	510.8
412.192	500.56
412.401	502.61
412.609	551.76
412.818	660.3
413.026	555.85
413.234	641.87
413.443	666.44
413.651	641.87
413.86	736.07
414.068	672.59
414.276	826.18
414.485	721.74
414.693	836.42
414.901	942.92
415.11	885.58
415.318	879.43
415.526	901.96
415.734	967.49
415.943	975.69
416.151	1010.5
416.359	1033.03
416.567	1073.99
416.776	1139.52
416.984	1223.49
417.192	1192.77
417.4	1295.17
417.608	1149.76
417.817	1223.49
418.025	1317.7
418.233	1518.4
418.441	1446.72
418.649	1528.64
418.857	1475.39
419.065	1649.47
419.273	1557.31
419.481	1663.8
419.689	1788.73
419.897	1788.73
420.105	1823.55
420.313	1874.74
420.521	2028.34
420.729	2040.63
420.937	2046.77
421.145	2089.78
421.353	2294.58
421.561	2370.35
421.769	2425.65
421.977	2544.43
422.185	2507.57
422.393	2683.69
422.601	2741.04
422.809	2810.67
423.017	2868.01
423.224	2954.02
423.432	3093.29
423.64	2992.94
423.848	3369.76
424.056	3255.08
424.263	3517.22
424.471	3521.31
424.679	3615.52
424.887	3662.62
425.094	3812.12
425.302	3844.89
425.51	3953.43
425.718	4113.17
425.925	4094.74
426.133	4215.57
426.341	4520.72
426.548	4707.09
426.756	4653.84
426.964	4973.32
427.171	5223.17
427.379	5217.03
427.586	5229.32
427.794	5489.41
428.001	5786.37
428.209	6015.74
428.417	5968.63
428.624	6234.87
428.832	6411
429.039	6140.66
429.247	6306.55
429.454	6945.52
429.662	7477.99
429.869	6884.08
430.076	7467.75
430.284	7103.21
430.491	7355.11
430.699	7731.94
430.906	7865.05
431.114	7983.84
431.321	8323.8
431.528	8489.68
431.736	8719.06
431.943	9155.27
432.15	8874.7
432.358	9212.62
432.565	9577.16
432.772	9609.92
432.979	10072.76
433.187	10177.21
433.394	10336.95
433.601	11119.28
433.808	10982.06
434.016	11010.73
434.223	11471.53
434.43	12094.11
434.637	11739.81
434.844	12645.01
435.052	12888.72
435.259	12814.99
435.466	12941.97
435.673	12491.41
435.88	13838.98
436.087	14006.91
436.294	14279.29
436.501	13974.14
436.708	14232.19
436.915	14729.84
437.122	15454.83
437.329	15284.84
437.537	15659.62
437.743	15911.52
437.95	15682.15
438.157	17021.52
438.364	17357.39
438.571	17121.87
438.778	17384.01
438.985	18989.62
439.192	18086.47
439.399	18534.97
439.606	18149.95
439.813	19331.63
440.02	20644.38
440.227	20054.56
440.433	20154.91
440.64	20752.92
440.847	20298.27
441.054	21094.93
441.261	22262.27
441.467	22071.81
441.674	22403.58
441.881	22974.97
442.088	23335.41
442.294	22999.54
442.501	23960.04
442.708	23867.88
442.914	24936.92
443.121	25995.72
443.328	25334.23
443.534	27337.14
443.741	26493.38
443.948	25987.53
444.154	28023.21
444.361	27791.79
444.568	27738.54
444.774	28092.84
444.981	28258.73
445.187	28783.01
445.394	30699.9
445.6	29759.89
445.807	32817.5
446.013	31439.22
446.22	32231.79
446.426	33243.48
446.633	33620.31
446.839	34666.82
447.046	32997.73
447.252	35043.65
447.459	35184.96
447.665	34707.78
447.871	36714.79
448.078	37701.91
448.284	36110.64
448.491	37112.1
448.697	38576.39
448.903	38930.69
449.11	39168.26
449.316	38342.92
449.522	39371
449.728	40003.83
449.935	40720.62
450.141	41134.31
450.347	41441.5
450.553	40036.59
450.76	40438
450.966	41783.51
451.172	41238.75
451.378	42662.09
451.584	41656.54
451.791	42676.43
451.997	42258.64
452.203	42950.85
452.409	43219.14
452.615	43040.96
452.821	41332.96
453.027	40763.62
453.233	43104.45
453.44	41042.15
453.646	41904.34
453.852	42143.95
454.058	42498.25
454.264	41396.45
454.47	42262.74
454.676	41210.08
454.882	42612.94
455.088	38846.72
455.294	39346.43
455.5	39823.61
455.705	40519.92
455.911	38955.27
456.117	37830.93
456.323	37364
456.529	35338.55
456.735	37032.22
456.941	36127.02
457.147	35506.49
457.352	34263.37
457.558	34455.88
457.764	34126.16
457.97	33290.59
458.176	32305.51
458.381	32815.46
458.587	31029.63
458.793	31281.53
458.999	29458.84
459.204	31676.79
459.41	30722.43
459.616	28627.36
459.821	28752.29
460.027	28465.57
460.233	28033.45
460.438	26581.44
460.644	27025.85
460.85	25383.38
461.055	25240.02
461.261	25014.74
461.466	23368.18
461.672	22632.96
461.878	24250.85
462.083	22596.09
462.289	21805.58
462.494	21975.56
462.7	21146.13
462.905	20595.23
463.111	21260.82
463.316	21406.22
463.522	20775.45
463.727	21004.82
463.932	20802.07
464.138	20433.44
464.343	20484.64
464.549	20003.36
464.754	20611.61
464.959	20425.25
465.165	19960.36
465.37	19507.76
465.575	18989.62
465.781	19622.44
465.986	19892.77
466.191	19356.21
466.397	18573.88
466.602	17719.88
466.807	18534.97
467.012	18328.13
467.218	18391.61
467.423	17793.61
467.628	18043.46
467.833	18848.31
