Data from USB4F104151__278__14-34-42-730.txt Node

Date: Thu Mar 13 14:34:42 EDT 2025
User: louis
Spectrometer: USB4F10415
Trigger mode: 4
Integration Time (sec): 2.500000E-2
Scans to average: 1
Electric dark correction enabled: true
Nonlinearity correction enabled: false
Boxcar width: 0
XAxis mode: Wavelengths
Number of Pixels in Spectrum: 3648
>>>>>Begin Spectral Data<<<<<
178.204	-197.8
178.424	-197.8
178.644	-197.8
178.864	-72.87
179.084	-150.7
179.304	-13.48
179.524	19.29
179.744	-29.87
179.964	58.2
180.184	9.05
180.404	21.33
180.624	-42.15
180.844	-44.2
181.064	29.52
181.283	4.95
181.503	-21.67
181.723	9.05
181.943	-23.72
182.163	90.96
182.383	50
182.602	41.81
182.822	50
183.042	33.62
183.262	0.85
183.482	58.2
183.701	35.67
183.921	37.72
184.141	11.09
184.361	50
184.58	-7.34
184.8	-29.87
185.02	-31.91
185.239	107.35
185.459	-1.19
185.679	-21.67
185.898	-58.54
186.118	66.39
186.338	-13.48
186.557	0.85
186.777	-13.48
186.997	25.43
187.216	9.05
187.436	62.29
187.655	76.63
187.875	41.81
188.095	-21.67
188.314	74.58
188.534	27.48
188.753	-46.25
188.973	-25.77
189.192	68.44
189.412	33.62
189.631	17.24
189.851	103.25
190.07	-5.29
190.29	13.14
190.509	17.24
190.729	-15.53
190.948	41.81
191.168	150.36
191.387	52.05
191.607	37.72
191.826	-3.24
192.045	0.85
192.265	41.81
192.484	52.05
192.704	37.72
192.923	-17.58
193.142	29.52
193.362	25.43
193.581	45.91
193.8	19.29
194.02	129.88
194.239	-27.82
194.458	4.95
194.678	62.29
194.897	-17.58
195.116	52.05
195.335	11.09
195.555	50
195.774	31.57
195.993	35.67
196.212	62.29
196.432	-11.43
196.651	29.52
196.87	-7.34
197.089	148.31
197.308	82.77
197.528	93.01
197.747	2.9
197.966	9.05
198.185	86.87
198.404	-56.49
198.623	64.34
198.842	76.63
199.062	9.05
199.281	27.48
199.5	41.81
199.719	17.24
199.938	56.15
200.157	25.43
200.376	37.72
200.595	82.77
200.814	68.44
201.033	-31.91
201.252	50
201.471	9.05
201.69	15.19
201.909	33.62
202.128	29.52
202.347	60.24
202.566	2.9
202.785	-23.72
203.004	-58.54
203.223	60.24
203.442	11.09
203.661	11.09
203.879	-9.39
204.098	86.87
204.317	-1.19
204.536	62.29
204.755	50
204.974	13.14
205.193	17.24
205.411	109.4
205.63	123.73
205.849	-19.63
206.068	11.09
206.287	-25.77
206.505	50
206.724	9.05
206.943	-27.82
207.162	0.85
207.381	60.24
207.599	-29.87
207.818	-7.34
208.037	52.05
208.255	27.48
208.474	-23.72
208.693	105.3
208.911	27.48
209.13	37.72
209.349	-13.48
209.567	19.29
209.786	7
210.005	54.1
210.223	17.24
210.442	-19.63
210.661	25.43
210.879	-21.67
211.098	0.85
211.316	15.19
211.535	74.58
211.753	-23.72
211.972	25.43
212.191	50
212.409	74.58
212.628	74.58
212.846	-48.3
213.065	58.2
213.283	41.81
213.502	19.29
213.72	95.06
213.938	-7.34
214.157	-23.72
214.375	60.24
214.594	70.48
214.812	82.77
215.031	-15.53
215.249	54.1
215.467	41.81
215.686	-27.82
215.904	25.43
216.122	-27.82
216.341	107.35
216.559	35.67
216.778	39.76
216.996	99.16
217.214	-48.3
217.432	0.85
217.651	-5.29
217.869	33.62
218.087	11.09
218.306	60.24
218.524	25.43
218.742	17.24
218.96	33.62
219.179	82.77
219.397	-21.67
219.615	95.06
219.833	-11.43
220.051	-74.92
220.27	37.72
220.488	-21.67
220.706	-27.82
220.924	-46.25
221.142	13.14
221.36	19.29
221.578	76.63
221.796	4.95
222.015	17.24
222.233	17.24
222.451	60.24
222.669	4.95
222.887	66.39
223.105	-54.44
223.323	-9.39
223.541	33.62
223.759	90.96
223.977	0.85
224.195	37.72
224.413	60.24
224.631	-7.34
224.849	-15.53
225.067	66.39
225.285	-5.29
225.503	66.39
225.721	-38.06
225.939	11.09
226.157	-44.2
226.375	174.93
226.592	33.62
226.81	-36.01
227.028	101.2
227.246	107.35
227.464	2.9
227.682	29.52
227.9	0.85
228.117	-3.24
228.335	84.82
228.553	25.43
228.771	39.76
228.989	-3.24
229.206	9.05
229.424	33.62
229.642	33.62
229.86	2.9
230.077	84.82
230.295	11.09
230.513	19.29
230.731	76.63
230.948	74.58
231.166	127.83
231.384	-79.02
231.601	9.05
231.819	25.43
232.037	4.95
232.254	-56.49
232.472	52.05
232.689	66.39
232.907	29.52
233.125	78.68
233.342	62.29
233.56	-11.43
233.777	-23.72
233.995	2.9
234.213	29.52
234.43	60.24
234.648	17.24
234.865	25.43
235.083	86.87
235.3	50
235.518	131.92
235.735	54.1
235.953	47.96
236.17	-23.72
236.388	-15.53
236.605	-46.25
236.822	78.68
237.04	58.2
237.257	58.2
237.475	-17.58
237.692	90.96
237.909	93.01
238.127	-7.34
238.344	-31.91
238.562	23.38
238.779	-62.63
238.996	66.39
239.214	21.33
239.431	41.81
239.648	-33.96
239.865	21.33
240.083	54.1
240.3	17.24
240.517	29.52
240.735	33.62
240.952	66.39
241.169	50
241.386	13.14
241.603	-23.72
241.821	58.2
242.038	9.05
242.255	27.48
242.472	-40.11
242.689	9.05
242.907	74.58
243.124	74.58
243.341	41.81
243.558	-81.07
243.775	-19.63
243.992	-3.24
244.209	60.24
244.426	76.63
244.643	150.36
244.86	43.86
245.078	41.81
245.295	-95.4
245.512	29.52
245.729	9.05
245.946	11.09
246.163	70.48
246.38	13.14
246.597	-13.48
246.814	19.29
247.031	39.76
247.248	115.54
247.464	90.96
247.681	105.3
247.898	72.53
248.115	33.62
248.332	0.85
248.549	9.05
248.766	115.54
248.983	27.48
249.2	-11.43
249.417	33.62
249.633	-23.72
249.85	17.24
250.067	82.77
250.284	17.24
250.501	54.1
250.717	41.81
250.934	13.14
251.151	133.97
251.368	21.33
251.585	-15.53
251.801	82.77
252.018	19.29
252.235	43.86
252.451	17.24
252.668	-40.11
252.885	84.82
253.102	19.29
253.318	-48.3
253.535	-15.53
253.752	27.48
253.968	9.05
254.185	-52.39
254.401	-11.43
254.618	-3.24
254.835	13.14
255.051	78.68
255.268	-5.29
255.484	50
255.701	74.58
255.917	33.62
256.134	-64.68
256.351	0.85
256.567	-89.26
256.784	2.9
257	-7.34
257.217	97.11
257.433	-31.91
257.65	19.29
257.866	17.24
258.082	9.05
258.299	11.09
258.515	58.2
258.732	25.43
258.948	4.95
259.165	-13.48
259.381	39.76
259.597	-38.06
259.814	74.58
260.03	0.85
260.246	41.81
260.463	129.88
260.679	39.76
260.895	25.43
261.112	19.29
261.328	-7.34
261.544	27.48
261.761	146.26
261.977	-15.53
262.193	4.95
262.409	107.35
262.626	-70.83
262.842	-1.19
263.058	39.76
263.274	0.85
263.49	4.95
263.707	17.24
263.923	74.58
264.139	-21.67
264.355	19.29
264.571	25.43
264.787	0.85
265.004	29.52
265.22	58.2
265.436	-3.24
265.652	33.62
265.868	33.62
266.084	-74.92
266.3	-7.34
266.516	-36.01
266.732	97.11
266.948	58.2
267.164	-31.91
267.38	45.91
267.596	74.58
267.812	76.63
268.028	74.58
268.244	29.52
268.46	0.85
268.676	-64.68
268.892	39.76
269.108	25.43
269.324	-5.29
269.54	-31.91
269.756	93.01
269.972	7
270.188	41.81
270.403	-27.82
270.619	60.24
270.835	-7.34
271.051	9.05
271.267	-21.67
271.483	4.95
271.698	74.58
271.914	74.58
272.13	21.33
272.346	17.24
272.562	74.58
272.777	7
272.993	60.24
273.209	-7.34
273.425	62.29
273.64	99.16
273.856	74.58
274.072	41.81
274.287	50
274.503	9.05
274.719	31.57
274.934	-60.59
275.15	-72.87
275.366	-7.34
275.581	33.62
275.797	17.24
276.012	45.91
276.228	7
276.444	-23.72
276.659	78.68
276.875	-5.29
277.09	11.09
277.306	37.72
277.521	70.48
277.737	60.24
277.952	17.24
278.168	58.2
278.383	54.1
278.599	-21.67
278.814	58.2
279.03	-7.34
279.245	105.3
279.461	13.14
279.676	17.24
279.892	-64.68
280.107	19.29
280.322	-15.53
280.538	-17.58
280.753	-21.67
280.969	25.43
281.184	52.05
281.399	33.62
281.615	-13.48
281.83	60.24
282.045	7
282.26	-29.87
282.476	64.34
282.691	-3.24
282.906	54.1
283.122	29.52
283.337	-40.11
283.552	82.77
283.767	-15.53
283.983	43.86
284.198	15.19
284.413	80.72
284.628	-31.91
284.843	9.05
285.058	-15.53
285.274	25.43
285.489	25.43
285.704	13.14
285.919	13.14
286.134	50
286.349	19.29
286.564	35.67
286.779	107.35
286.995	-15.53
287.21	-21.67
287.425	66.39
287.64	68.44
287.855	50
288.07	56.15
288.285	64.34
288.5	82.77
288.715	50
288.93	-15.53
289.145	13.14
289.36	33.62
289.575	-29.87
289.79	-9.39
290.004	-1.19
290.219	95.06
290.434	9.05
290.649	27.48
290.864	9.05
291.079	7
291.294	19.29
291.509	99.16
291.724	-11.43
291.938	19.29
292.153	11.09
292.368	-19.63
292.583	90.96
292.798	0.85
293.012	11.09
293.227	131.92
293.442	13.14
293.657	-29.87
293.871	101.2
294.086	-81.07
294.301	82.77
294.516	-5.29
294.73	23.38
294.945	-3.24
295.16	9.05
295.374	109.4
295.589	-9.39
295.804	-31.91
296.018	64.34
296.233	35.67
296.447	-3.24
296.662	-56.49
296.877	76.63
297.091	43.86
297.306	103.25
297.52	23.38
297.735	58.2
297.949	31.57
298.164	-1.19
298.378	-3.24
298.593	41.81
298.807	0.85
299.022	-23.72
299.236	41.81
299.451	-3.24
299.665	66.39
299.88	33.62
300.094	58.2
300.309	115.54
300.523	107.35
300.737	74.58
300.952	103.25
301.166	9.05
301.381	-21.67
301.595	70.48
301.809	-13.48
302.024	50
302.238	2.9
302.452	35.67
302.667	76.63
302.881	60.24
303.095	43.86
303.309	-11.43
303.524	-29.87
303.738	35.67
303.952	-7.34
304.166	50
304.381	-23.72
304.595	54.1
304.809	-58.54
305.023	60.24
305.237	-29.87
305.452	29.52
305.666	58.2
305.88	13.14
306.094	21.33
306.308	-5.29
306.522	35.67
306.736	39.76
306.95	43.86
307.164	-17.58
307.379	27.48
307.593	33.62
307.807	15.19
308.021	60.24
308.235	25.43
308.449	35.67
308.663	-5.29
308.877	82.77
309.091	-13.48
309.305	50
309.519	52.05
309.733	11.09
309.947	-9.39
310.161	25.43
310.374	74.58
310.588	13.14
310.802	-1.19
311.016	-31.91
311.23	-23.72
311.444	-11.43
311.658	13.14
311.872	107.35
312.085	-25.77
312.299	131.92
312.513	107.35
312.727	66.39
312.941	-60.59
313.154	21.33
313.368	-21.67
313.582	52.05
313.796	-13.48
314.009	58.2
314.223	115.54
314.437	-36.01
314.651	0.85
314.864	101.2
315.078	58.2
315.292	-38.06
315.505	58.2
315.719	82.77
315.933	2.9
316.146	33.62
316.36	-13.48
316.573	29.52
316.787	41.81
317.001	66.39
317.214	-5.29
317.428	19.29
317.641	35.67
317.855	0.85
318.068	23.38
318.282	13.14
318.495	86.87
318.709	33.62
318.922	21.33
319.136	11.09
319.349	88.92
319.563	33.62
319.776	70.48
319.99	-36.01
320.203	19.29
320.417	52.05
320.63	37.72
320.843	95.06
321.057	7
321.27	41.81
321.483	52.05
321.697	109.4
321.91	35.67
322.124	13.14
322.337	50
322.55	41.81
322.763	4.95
322.977	27.48
323.19	-29.87
323.403	17.24
323.617	58.2
323.83	107.35
324.043	39.76
324.256	82.77
324.469	11.09
324.683	11.09
324.896	54.1
325.109	41.81
325.322	15.19
325.535	-29.87
325.748	99.16
325.962	56.15
326.175	27.48
326.388	37.72
326.601	88.92
326.814	0.85
327.027	43.86
327.24	109.4
327.453	-11.43
327.666	62.29
327.879	60.24
328.092	70.48
328.305	50
328.518	33.62
328.731	50
328.944	-48.3
329.157	-44.2
329.37	33.62
329.583	142.16
329.796	35.67
330.009	-1.19
330.222	80.72
330.435	54.1
330.648	39.76
330.861	-31.91
331.073	43.86
331.286	52.05
331.499	56.15
331.712	-5.29
331.925	33.62
332.138	25.43
332.35	50
332.563	74.58
332.776	76.63
332.989	25.43
333.202	27.48
333.414	47.96
333.627	-9.39
333.84	2.9
334.053	39.76
334.265	37.72
334.478	11.09
334.691	4.95
334.903	-5.29
335.116	27.48
335.329	2.9
335.541	86.87
335.754	82.77
335.966	21.33
336.179	-40.11
336.392	9.05
336.604	70.48
336.817	90.96
337.029	58.2
337.242	84.82
337.454	-5.29
337.667	45.91
337.88	74.58
338.092	43.86
338.305	56.15
338.517	-13.48
338.729	43.86
338.942	107.35
339.154	33.62
339.367	2.9
339.579	-13.48
339.792	21.33
340.004	-36.01
340.217	17.24
340.429	50
340.641	66.39
340.854	62.29
341.066	35.67
341.278	21.33
341.491	41.81
341.703	11.09
341.915	-66.73
342.128	52.05
342.34	21.33
342.552	37.72
342.764	29.52
342.977	70.48
343.189	-21.67
343.401	17.24
343.613	-97.45
343.826	45.91
344.038	-7.34
344.25	115.54
344.462	-31.91
344.674	54.1
344.886	9.05
345.099	58.2
345.311	93.01
345.523	99.16
345.735	-17.58
345.947	95.06
346.159	0.85
346.371	25.43
346.583	-27.82
346.795	50
347.007	82.77
347.219	-23.72
347.431	-7.34
347.643	86.87
347.855	-1.19
348.067	19.29
348.279	-9.39
348.491	58.2
348.703	-21.67
348.915	82.77
349.127	-11.43
349.339	58.2
349.551	66.39
349.763	50
349.975	58.2
350.187	140.12
350.399	86.87
350.61	41.81
350.822	33.62
351.034	60.24
351.246	2.9
351.458	37.72
351.669	93.01
351.881	35.67
352.093	41.81
352.305	66.39
352.517	39.76
352.728	176.98
352.94	84.82
353.152	45.91
353.363	-25.77
353.575	43.86
353.787	117.59
353.999	23.38
354.21	58.2
354.422	41.81
354.633	68.44
354.845	25.43
355.057	-56.49
355.268	101.2
355.48	23.38
355.692	-7.34
355.903	70.48
356.115	-56.49
356.326	0.85
356.538	99.16
356.749	27.48
356.961	74.58
357.172	23.38
357.384	-1.19
357.595	121.68
357.807	84.82
358.018	-11.43
358.23	78.68
358.441	97.11
358.653	54.1
358.864	11.09
359.075	4.95
359.287	72.53
359.498	39.76
359.709	111.44
359.921	11.09
360.132	33.62
360.344	17.24
360.555	-15.53
360.766	9.05
360.977	19.29
361.189	82.77
361.4	45.91
361.611	84.82
361.823	101.2
362.034	41.81
362.245	-13.48
362.456	50
362.667	107.35
362.879	52.05
363.09	148.31
363.301	-11.43
363.512	-50.35
363.723	9.05
363.935	17.24
364.146	111.44
364.357	2.9
364.568	136.02
364.779	-15.53
364.99	41.81
365.201	9.05
365.412	82.77
365.623	25.43
365.834	60.24
366.045	84.82
366.256	39.76
366.467	90.96
366.678	4.95
366.889	35.67
367.1	19.29
367.311	21.33
367.522	-15.53
367.733	84.82
367.944	43.86
368.155	37.72
368.366	60.24
368.577	62.29
368.788	39.76
368.999	33.62
369.209	4.95
369.42	158.55
369.631	115.54
369.842	47.96
370.053	-7.34
370.264	-11.43
370.474	19.29
370.685	54.1
370.896	27.48
371.107	78.68
371.317	41.81
371.528	37.72
371.739	68.44
371.95	86.87
372.16	58.2
372.371	-11.43
372.582	-27.82
372.792	-7.34
373.003	35.67
373.214	52.05
373.424	111.44
373.635	9.05
373.846	82.77
374.056	17.24
374.267	160.59
374.477	-11.43
374.688	-36.01
374.898	-15.53
375.109	-15.53
375.319	58.2
375.53	74.58
375.74	43.86
375.951	15.19
376.161	33.62
376.372	111.44
376.582	84.82
376.793	62.29
377.003	-72.87
377.214	62.29
377.424	-21.67
377.635	50
377.845	56.15
378.055	50
378.266	-19.63
378.476	70.48
378.686	41.81
378.897	45.91
379.107	9.05
379.317	119.64
379.528	17.24
379.738	56.15
379.948	31.57
380.158	23.38
380.369	37.72
380.579	-11.43
380.789	7
380.999	58.2
381.21	64.34
381.42	54.1
381.63	4.95
381.84	90.96
382.05	82.77
382.261	115.54
382.471	33.62
382.681	-15.53
382.891	60.24
383.101	74.58
383.311	-21.67
383.521	-23.72
383.731	82.77
383.941	140.12
384.151	9.05
384.361	62.29
384.571	17.24
384.781	50
384.991	144.21
385.201	50
385.411	33.62
385.621	35.67
385.831	54.1
386.041	64.34
386.251	52.05
386.461	138.07
386.671	41.81
386.881	109.4
387.091	-64.68
387.301	109.4
387.511	123.73
387.72	123.73
387.93	50
388.14	-44.2
388.35	64.34
388.56	80.72
388.769	52.05
388.979	66.39
389.189	37.72
389.399	72.53
389.609	21.33
389.818	76.63
390.028	39.76
390.238	56.15
390.447	35.67
390.657	158.55
390.867	78.68
391.076	-36.01
391.286	66.39
391.496	82.77
391.705	-48.3
391.915	107.35
392.125	97.11
392.334	82.77
392.544	-7.34
392.753	29.52
392.963	-64.68
393.172	54.1
393.382	27.48
393.591	90.96
393.801	95.06
394.01	52.05
394.22	80.72
394.429	125.78
394.639	72.53
394.848	-3.24
395.058	50
395.267	86.87
395.477	74.58
395.686	70.48
395.895	179.03
396.105	111.44
396.314	117.59
396.524	138.07
396.733	78.68
396.942	152.4
397.152	111.44
397.361	131.92
397.57	156.5
397.78	129.88
397.989	54.1
398.198	127.83
398.407	109.4
398.617	84.82
398.826	86.87
399.035	117.59
399.244	117.59
399.453	52.05
399.663	150.36
399.872	133.97
400.081	76.63
400.29	101.2
400.499	76.63
400.708	93.01
400.917	97.11
401.127	160.59
401.336	70.48
401.545	144.21
401.754	131.92
401.963	140.12
402.172	74.58
402.381	111.44
402.59	78.68
402.799	54.1
403.008	76.63
403.217	131.92
403.426	144.21
403.635	121.68
403.844	119.64
404.053	164.69
404.262	123.73
404.471	84.82
404.68	127.83
404.888	109.4
405.097	133.97
405.306	174.93
405.515	152.4
405.724	150.36
405.933	103.25
406.142	181.07
406.35	215.89
406.559	117.59
406.768	172.88
406.977	181.07
407.185	193.36
407.394	197.46
407.603	164.69
407.812	213.84
408.02	232.27
408.229	142.16
408.438	179.03
408.646	207.7
408.855	295.76
409.064	232.27
409.272	291.66
409.481	295.76
409.69	353.1
409.898	172.88
410.107	322.38
410.315	324.43
410.524	310.1
410.733	273.23
410.941	336.72
411.15	365.39
411.358	365.39
411.567	377.68
411.775	500.56
411.984	394.06
412.192	377.68
412.401	398.16
412.609	469.84
412.818	451.41
413.026	467.79
413.234	529.23
413.443	539.47
413.651	488.27
413.86	559.95
414.068	633.68
414.276	658.25
414.485	639.82
414.693	680.78
414.901	719.69
415.11	723.79
415.318	625.48
415.526	699.21
415.734	729.93
415.943	787.27
416.151	918.34
416.359	840.52
416.567	832.33
416.776	856.9
416.984	994.12
417.192	1047.37
417.4	1014.6
417.608	895.82
417.817	1041.22
418.025	1127.24
418.233	1231.68
418.441	1096.52
418.649	1254.21
418.857	1184.58
419.065	1364.8
419.273	1315.65
419.481	1329.99
419.689	1493.82
419.897	1495.87
420.105	1473.34
420.313	1528.64
420.521	1663.8
420.729	1561.41
420.937	1733.43
421.145	1798.97
421.353	1858.36
421.561	1872.7
421.769	2003.77
421.977	2032.44
422.185	2016.05
422.393	2143.03
422.601	2276.15
422.809	2227
423.017	2378.55
423.224	2386.74
423.432	2622.25
423.64	2603.82
423.848	2667.31
424.056	2587.44
424.263	2917.16
424.471	2781.99
424.679	2845.48
424.887	3013.42
425.094	2947.88
425.302	3203.88
425.51	3255.08
425.718	3402.53
425.925	3443.49
426.133	3746.59
426.341	3670.81
426.548	3734.3
426.756	3867.42
426.964	4043.54
427.171	4215.57
427.379	4121.37
427.586	4475.67
427.794	4449.04
428.001	4698.89
428.209	4901.64
428.417	4655.89
428.624	5024.52
428.832	5141.25
429.039	5081.86
429.247	5055.24
429.454	5509.89
429.662	6095.61
429.869	5581.57
430.076	5817.08
430.284	5784.32
430.491	6107.9
430.699	6304.5
430.906	6519.54
431.114	6390.52
431.321	6660.85
431.528	6884.08
431.736	7361.25
431.943	7533.28
432.15	7365.35
432.358	7572.19
432.565	7858.91
432.772	7895.77
432.979	8276.7
433.187	8321.75
433.394	8245.98
433.601	8903.37
433.808	9063.12
434.016	9196.23
434.223	9259.72
434.43	9855.68
434.637	9593.54
434.844	10252.98
435.052	10300.09
435.259	10451.64
435.466	10502.84
435.673	10461.88
435.88	10998.45
436.087	11739.81
436.294	11463.33
436.501	11170.47
436.708	11248.3
436.915	11748
437.122	12479.13
437.329	12536.47
437.537	12628.63
437.743	12808.85
437.95	12763.79
438.157	13646.47
438.364	13943.42
438.571	14074.49
438.778	14301.82
438.985	15295.08
439.192	14836.34
439.399	15137.39
439.606	14887.54
439.813	15573.61
440.02	16601.69
440.227	16310.88
440.433	16226.91
440.64	16788.05
440.847	16454.23
441.054	16968.27
441.261	17998.4
441.467	17869.38
441.674	18371.13
441.881	18917.94
442.088	18674.23
442.294	18498.11
442.501	18997.81
442.708	19675.69
442.914	20519.45
443.121	21154.32
443.328	20476.44
443.534	21987.85
443.741	21398.03
443.948	21142.03
444.154	22592
444.361	22725.11
444.568	22755.83
444.774	22702.59
444.981	22794.75
445.187	23499.25
445.394	24676.83
445.6	24279.52
445.807	26716.61
446.013	25162.2
446.22	25698.77
446.426	26823.1
446.633	27601.33
446.839	28035.5
447.046	26714.56
447.252	28088.74
447.459	28453.28
447.665	28367.27
447.871	29491.6
448.078	30595.46
448.284	29243.8
448.491	30046.6
448.697	31244.66
448.903	31996.27
449.11	31562.1
449.316	31398.26
449.522	31873.39
449.728	32432.49
449.935	32860.51
450.141	33050.97
450.347	33712.47
450.553	32383.34
450.76	33300.83
450.966	33831.25
451.172	33685.84
451.378	34568.52
451.584	33698.13
451.791	34996.54
451.997	34844.99
452.203	35119.42
452.409	35326.27
452.615	35234.11
452.821	34027.85
453.027	33513.81
453.233	35045.69
453.44	33540.44
453.646	33935.7
453.852	34101.58
454.058	34713.92
454.264	33929.55
454.47	34416.97
454.676	33827.15
454.882	34675.01
455.088	32010.6
455.294	32020.84
455.5	32442.73
455.705	32960.86
455.911	31965.55
456.117	30802.3
456.323	30550.4
456.529	28940.7
456.735	30294.41
456.941	29262.23
457.147	28981.66
457.352	28281.25
457.558	27687.34
457.764	27705.77
457.97	27417.01
458.176	26589.63
458.381	26454.47
458.587	25254.36
458.793	25381.33
458.999	23904.74
459.204	25407.95
459.41	24781.28
459.616	23063.03
459.821	23495.15
460.027	23577.07
460.233	22698.49
460.438	21703.18
460.644	21819.91
460.85	20703.77
461.055	20271.65
461.261	20351.52
461.466	18885.17
461.672	18313.79
461.878	19526.19
462.083	18305.6
462.289	17965.64
462.494	17680.97
462.7	17091.15
462.905	16509.53
463.111	16910.93
463.316	16822.87
463.522	16878.16
463.727	16978.51
463.932	16394.84
464.138	16667.22
464.343	16384.6
464.549	16173.66
464.754	16458.33
464.959	16200.29
465.165	16306.78
465.37	15415.91
465.575	14856.82
465.781	15643.24
465.986	15729.25
466.191	15237.74
466.397	14879.35
466.602	14123.65
466.807	14862.96
467.012	14791.28
467.218	14443.13
467.423	14297.72
467.628	14426.75
467.833	15290.99
468.038	14260.86
468.244	13791.87
468.449	14459.51
