Data from USB4F104151__123__14-31-18-259.txt Node

Date: Thu Mar 13 14:31:18 EDT 2025
User: louis
Spectrometer: USB4F10415
Trigger mode: 4
Integration Time (sec): 2.500000E-2
Scans to average: 1
Electric dark correction enabled: true
Nonlinearity correction enabled: false
Boxcar width: 0
XAxis mode: Wavelengths
Number of Pixels in Spectrum: 3648
>>>>>Begin Spectral Data<<<<<
178.204	-122.71
178.424	-122.71
178.644	-122.71
178.864	-171.86
179.084	-137.04
179.304	28.84
179.524	-12.12
179.744	18.6
179.964	-24.4
180.184	24.75
180.404	22.7
180.624	-38.74
180.844	39.08
181.064	-34.64
181.283	20.65
181.503	-18.26
181.723	-26.45
181.943	-81.75
182.163	110.76
182.383	63.66
182.602	104.62
182.822	-1.88
183.042	65.71
183.262	12.46
183.482	14.51
183.701	28.84
183.921	4.27
184.141	-51.03
184.361	24.75
184.58	14.51
184.8	24.75
185.02	-20.31
185.239	30.89
185.459	86.19
185.679	26.79
185.898	12.46
186.118	137.38
186.338	39.08
186.557	55.47
186.777	16.55
186.997	37.03
187.216	71.85
187.436	102.57
187.655	104.62
187.875	57.51
188.095	45.23
188.314	118.95
188.534	53.42
188.753	12.46
188.973	37.03
189.192	86.19
189.412	37.03
189.631	37.03
189.851	6.31
190.07	47.27
190.29	-22.36
190.509	22.7
190.729	-36.69
190.948	63.66
191.168	110.76
191.387	92.33
191.607	47.27
191.826	47.27
192.045	-61.27
192.265	43.18
192.484	12.46
192.704	53.42
192.923	-69.46
193.142	94.38
193.362	24.75
193.581	61.61
193.8	69.8
194.02	86.19
194.239	-5.97
194.458	28.84
194.678	80.04
194.897	80.04
195.116	-44.88
195.335	16.55
195.555	39.08
195.774	86.19
195.993	30.89
196.212	53.42
196.432	51.37
196.651	-1.88
196.87	-16.21
197.089	151.72
197.308	82.09
197.528	59.56
197.747	32.94
197.966	39.08
198.185	57.51
198.404	28.84
198.623	77.99
198.842	80.04
199.062	84.14
199.281	102.57
199.5	20.65
199.719	77.99
199.938	80.04
200.157	110.76
200.376	118.95
200.595	45.23
200.814	123.05
201.033	32.94
201.252	73.9
201.471	24.75
201.69	123.05
201.909	75.95
202.128	55.47
202.347	-3.93
202.566	16.55
202.785	8.36
203.004	61.61
203.223	176.3
203.442	65.71
203.661	0.17
203.879	-24.4
204.098	30.89
204.317	4.27
204.536	145.58
204.755	8.36
204.974	131.24
205.193	4.27
205.411	80.04
205.63	14.51
205.849	77.99
206.068	116.9
206.287	32.94
206.505	77.99
206.724	12.46
206.943	4.27
207.162	69.8
207.381	106.67
207.599	12.46
207.818	22.7
208.037	-69.46
208.255	45.23
208.474	77.99
208.693	77.99
208.911	61.61
209.13	-1.88
209.349	43.18
209.567	71.85
209.786	94.38
210.005	39.08
210.223	2.22
210.442	-14.17
210.661	-10.07
210.879	16.55
211.098	118.95
211.316	53.42
211.535	104.62
211.753	4.27
211.972	82.09
212.191	-3.93
212.409	37.03
212.628	53.42
212.846	94.38
213.065	20.65
213.283	61.61
213.502	39.08
213.72	84.14
213.938	73.9
214.157	-53.08
214.375	12.46
214.594	41.13
214.812	102.57
215.031	37.03
215.249	77.99
215.467	88.23
215.686	-30.55
215.904	61.61
216.122	61.61
216.341	61.61
216.559	63.66
216.778	102.57
216.996	80.04
217.214	-20.31
217.432	28.84
217.651	110.76
217.869	61.61
218.087	-16.21
218.306	22.7
218.524	71.85
218.742	75.95
218.96	77.99
219.179	32.94
219.397	20.65
219.615	141.48
219.833	67.75
220.051	24.75
220.27	55.47
220.488	61.61
220.706	4.27
220.924	28.84
221.142	12.46
221.36	-34.64
221.578	16.55
221.796	53.42
222.015	86.19
222.233	34.99
222.451	147.62
222.669	57.51
222.887	47.27
223.105	-8.02
223.323	69.8
223.541	8.36
223.759	47.27
223.977	2.22
224.195	147.62
224.413	51.37
224.631	75.95
224.849	-1.88
225.067	41.13
225.285	53.42
225.503	30.89
225.721	-51.03
225.939	16.55
226.157	18.6
226.375	125.1
226.592	30.89
226.81	28.84
227.028	32.94
227.246	139.43
227.464	20.65
227.682	-44.88
227.9	125.1
228.117	69.8
228.335	14.51
228.553	49.32
228.771	53.42
228.989	14.51
229.206	106.67
229.424	110.76
229.642	39.08
229.86	39.08
230.077	139.43
230.295	8.36
230.513	37.03
230.731	104.62
230.948	45.23
231.166	49.32
231.384	39.08
231.601	22.7
231.819	53.42
232.037	6.31
232.254	-8.02
232.472	37.03
232.689	118.95
232.907	32.94
233.125	53.42
233.342	59.56
233.56	-32.6
233.777	51.37
233.995	55.47
234.213	69.8
234.43	22.7
234.648	20.65
234.865	53.42
235.083	8.36
235.3	80.04
235.518	77.99
235.735	96.43
235.953	75.95
236.17	63.66
236.388	-10.07
236.605	53.42
236.822	6.31
237.04	39.08
237.257	28.84
237.475	-26.45
237.692	63.66
237.909	30.89
238.127	47.27
238.344	118.95
238.562	-28.5
238.779	2.22
238.996	20.65
239.214	67.75
239.431	135.34
239.648	-3.93
239.865	143.53
240.083	88.23
240.3	20.65
240.517	-1.88
240.735	65.71
240.952	65.71
241.169	65.71
241.386	8.36
241.603	55.47
241.821	41.13
242.038	53.42
242.255	39.08
242.472	37.03
242.689	67.75
242.907	45.23
243.124	16.55
243.341	24.75
243.558	-48.98
243.775	28.84
243.992	12.46
244.209	37.03
244.426	159.91
244.643	102.57
244.86	37.03
245.078	77.99
245.295	55.47
245.512	127.14
245.729	-12.12
245.946	12.46
246.163	63.66
246.38	69.8
246.597	0.17
246.814	73.9
247.031	106.67
247.248	63.66
247.464	63.66
247.681	65.71
247.898	45.23
248.115	20.65
248.332	37.03
248.549	71.85
248.766	116.9
248.983	90.28
249.2	71.85
249.417	28.84
249.633	39.08
249.85	65.71
250.067	28.84
250.284	110.76
250.501	129.19
250.717	106.67
250.934	22.7
251.151	71.85
251.368	39.08
251.585	16.55
251.801	24.75
252.018	65.71
252.235	0.17
252.451	65.71
252.668	28.84
252.885	98.47
253.102	94.38
253.318	12.46
253.535	20.65
253.752	20.65
253.968	34.99
254.185	61.61
254.401	49.32
254.618	77.99
254.835	-26.45
255.051	45.23
255.268	67.75
255.484	-30.55
255.701	18.6
255.917	82.09
256.134	28.84
256.351	86.19
256.567	45.23
256.784	18.6
257	-16.21
257.217	28.84
257.433	65.71
257.65	82.09
257.866	71.85
258.082	18.6
258.299	4.27
258.515	47.27
258.732	20.65
258.948	41.13
259.165	30.89
259.381	45.23
259.597	75.95
259.814	20.65
260.03	-1.88
260.246	92.33
260.463	49.32
260.679	118.95
260.895	92.33
261.112	94.38
261.328	53.42
261.544	22.7
261.761	174.25
261.977	63.66
262.193	-16.21
262.409	102.57
262.626	28.84
262.842	45.23
263.058	-24.4
263.274	77.99
263.49	34.99
263.707	118.95
263.923	86.19
264.139	-51.03
264.355	57.51
264.571	69.8
264.787	82.09
265.004	30.89
265.22	12.46
265.436	-3.93
265.652	32.94
265.868	135.34
266.084	39.08
266.3	37.03
266.516	61.61
266.732	4.27
266.948	55.47
267.164	47.27
267.38	118.95
267.596	49.32
267.812	98.47
268.028	37.03
268.244	14.51
268.46	127.14
268.676	77.99
268.892	71.85
269.108	49.32
269.324	12.46
269.54	-10.07
269.756	149.67
269.972	20.65
270.188	82.09
270.403	-18.26
270.619	86.19
270.835	18.6
271.051	73.9
271.267	14.51
271.483	-24.4
271.698	61.61
271.914	22.7
272.13	-22.36
272.346	37.03
272.562	75.95
272.777	34.99
272.993	88.23
273.209	16.55
273.425	98.47
273.64	37.03
273.856	133.29
274.072	118.95
274.287	-18.26
274.503	88.23
274.719	75.95
274.934	47.27
275.15	16.55
275.366	80.04
275.581	53.42
275.797	61.61
276.012	-20.31
276.228	37.03
276.444	32.94
276.659	118.95
276.875	63.66
277.09	67.75
277.306	28.84
277.521	41.13
277.737	8.36
277.952	69.8
278.168	59.56
278.383	-12.12
278.599	-67.41
278.814	118.95
279.03	-8.02
279.245	88.23
279.461	63.66
279.676	121
279.892	41.13
280.107	51.37
280.322	106.67
280.538	98.47
280.753	12.46
280.969	37.03
281.184	65.71
281.399	82.09
281.615	18.6
281.83	-5.97
282.045	-18.26
282.26	30.89
282.476	39.08
282.691	57.51
282.906	94.38
283.122	63.66
283.337	82.09
283.552	71.85
283.767	-3.93
283.983	20.65
284.198	43.18
284.413	116.9
284.628	39.08
284.843	32.94
285.058	106.67
285.274	47.27
285.489	-10.07
285.704	94.38
285.919	82.09
286.134	4.27
286.349	63.66
286.564	-12.12
286.779	143.53
286.995	69.8
287.21	-8.02
287.425	12.46
287.64	-53.08
287.855	51.37
288.07	8.36
288.285	86.19
288.5	-18.26
288.715	57.51
288.93	-12.12
289.145	45.23
289.36	77.99
289.575	43.18
289.79	102.57
290.004	61.61
290.219	127.14
290.434	96.43
290.649	63.66
290.864	53.42
291.079	8.36
291.294	57.51
291.509	-22.36
291.724	34.99
291.938	65.71
292.153	102.57
292.368	12.46
292.583	98.47
292.798	135.34
293.012	102.57
293.227	75.95
293.442	73.9
293.657	88.23
293.871	80.04
294.086	57.51
294.301	75.95
294.516	47.27
294.73	39.08
294.945	28.84
295.16	47.27
295.374	118.95
295.589	61.61
295.804	20.65
296.018	110.76
296.233	61.61
296.447	41.13
296.662	65.71
296.877	71.85
297.091	65.71
297.306	45.23
297.52	16.55
297.735	20.65
297.949	84.14
298.164	110.76
298.378	45.23
298.593	20.65
298.807	32.94
299.022	65.71
299.236	53.42
299.451	45.23
299.665	37.03
299.88	4.27
300.094	43.18
300.309	30.89
300.523	102.57
300.737	80.04
300.952	26.79
301.166	49.32
301.381	-5.97
301.595	133.29
301.809	102.57
302.024	39.08
302.238	-46.93
302.452	110.76
302.667	86.19
302.881	98.47
303.095	90.28
303.309	49.32
303.524	73.9
303.738	12.46
303.952	61.61
304.166	30.89
304.381	6.31
304.595	112.81
304.809	106.67
305.023	28.84
305.237	94.38
305.452	86.19
305.666	63.66
305.88	49.32
306.094	98.47
306.308	8.36
306.522	30.89
306.736	77.99
306.95	65.71
307.164	-10.07
307.379	55.47
307.593	92.33
307.807	71.85
308.021	110.76
308.235	77.99
308.449	16.55
308.663	88.23
308.877	159.91
309.091	73.9
309.305	112.81
309.519	16.55
309.733	77.99
309.947	-5.97
310.161	73.9
310.374	49.32
310.588	43.18
310.802	-14.17
311.016	65.71
311.23	49.32
311.444	18.6
311.658	139.43
311.872	45.23
312.085	32.94
312.299	118.95
312.513	53.42
312.727	73.9
312.941	-26.45
313.154	121
313.368	-8.02
313.582	45.23
313.796	63.66
314.009	26.79
314.223	112.81
314.437	110.76
314.651	69.8
314.864	-22.36
315.078	55.47
315.292	61.61
315.505	12.46
315.719	75.95
315.933	73.9
316.146	39.08
316.36	45.23
316.573	77.99
316.787	94.38
317.001	65.71
317.214	51.37
317.428	67.75
317.641	47.27
317.855	-28.5
318.068	-3.93
318.282	37.03
318.495	88.23
318.709	123.05
318.922	77.99
319.136	223.4
319.349	139.43
319.563	30.89
319.776	2.22
319.99	63.66
320.203	102.57
320.417	65.71
320.63	69.8
320.843	131.24
321.057	37.03
321.27	118.95
321.483	45.23
321.697	121
321.91	82.09
322.124	45.23
322.337	143.53
322.55	2.22
322.763	30.89
322.977	49.32
323.19	41.13
323.403	118.95
323.617	28.84
323.83	106.67
324.043	123.05
324.256	55.47
324.469	86.19
324.683	110.76
324.896	37.03
325.109	49.32
325.322	6.31
325.535	32.94
325.748	73.9
325.962	28.84
326.175	90.28
326.388	-1.88
326.601	90.28
326.814	22.7
327.027	53.42
327.24	139.43
327.453	-42.84
327.666	86.19
327.879	108.71
328.092	67.75
328.305	59.56
328.518	102.57
328.731	90.28
328.944	94.38
329.157	67.75
329.37	71.85
329.583	172.2
329.796	121
330.009	49.32
330.222	106.67
330.435	61.61
330.648	57.51
330.861	94.38
331.073	80.04
331.286	116.9
331.499	41.13
331.712	75.95
331.925	37.03
332.138	32.94
332.35	151.72
332.563	71.85
332.776	43.18
332.989	12.46
333.202	55.47
333.414	57.51
333.627	86.19
333.84	22.7
334.053	45.23
334.265	45.23
334.478	20.65
334.691	39.08
334.903	30.89
335.116	53.42
335.329	6.31
335.541	96.43
335.754	24.75
335.966	12.46
336.179	28.84
336.392	45.23
336.604	61.61
336.817	14.51
337.029	59.56
337.242	37.03
337.454	133.29
337.667	86.19
337.88	37.03
338.092	61.61
338.305	37.03
338.517	30.89
338.729	153.77
338.942	61.61
339.154	14.51
339.367	55.47
339.579	129.19
339.792	88.23
340.004	88.23
340.217	-16.21
340.429	88.23
340.641	-3.93
340.854	22.7
341.066	-1.88
341.278	118.95
341.491	174.25
341.703	45.23
341.915	32.94
342.128	57.51
342.34	102.57
342.552	14.51
342.764	-42.84
342.977	94.38
343.189	114.86
343.401	4.27
343.613	84.14
343.826	106.67
344.038	37.03
344.25	41.13
344.462	4.27
344.674	125.1
344.886	39.08
345.099	69.8
345.311	90.28
345.523	90.28
345.735	57.51
345.947	118.95
346.159	51.37
346.371	45.23
346.583	8.36
346.795	55.47
347.007	30.89
347.219	65.71
347.431	47.27
347.643	106.67
347.855	-10.07
348.067	102.57
348.279	12.46
348.491	69.8
348.703	112.81
348.915	61.61
349.127	114.86
349.339	45.23
349.551	47.27
349.763	65.71
349.975	-18.26
350.187	161.96
350.399	92.33
350.61	45.23
350.822	96.43
351.034	159.91
351.246	37.03
351.458	118.95
351.669	63.66
351.881	102.57
352.093	73.9
352.305	63.66
352.517	94.38
352.728	135.34
352.94	112.81
353.152	135.34
353.363	-12.12
353.575	137.38
353.787	80.04
353.999	-3.93
354.21	86.19
354.422	37.03
354.633	43.18
354.845	16.55
355.057	45.23
355.268	129.19
355.48	143.53
355.692	37.03
355.903	26.79
356.115	20.65
356.326	-1.88
356.538	114.86
356.749	94.38
356.961	121
357.172	88.23
357.384	26.79
357.595	96.43
357.807	67.75
358.018	47.27
358.23	125.1
358.441	123.05
358.653	135.34
358.864	118.95
359.075	82.09
359.287	22.7
359.498	96.43
359.709	16.55
359.921	53.42
360.132	116.9
360.344	135.34
360.555	26.79
360.766	104.62
360.977	118.95
361.189	104.62
361.4	16.55
361.611	123.05
361.823	77.99
362.034	39.08
362.245	53.42
362.456	82.09
362.667	28.84
362.879	96.43
363.09	61.61
363.301	127.14
363.512	28.84
363.723	55.47
363.935	77.99
364.146	63.66
364.357	116.9
364.568	73.9
364.779	12.46
364.99	55.47
365.201	102.57
365.412	102.57
365.623	69.8
365.834	49.32
366.045	41.13
366.256	71.85
366.467	37.03
366.678	77.99
366.889	16.55
367.1	92.33
367.311	127.14
367.522	110.76
367.733	161.96
367.944	153.77
368.155	106.67
368.366	69.8
368.577	82.09
368.788	110.76
368.999	37.03
369.209	84.14
369.42	129.19
369.631	92.33
369.842	65.71
370.053	100.52
370.264	94.38
370.474	37.03
370.685	127.14
370.896	108.71
371.107	116.9
371.317	69.8
371.528	92.33
371.739	102.57
371.95	71.85
372.16	63.66
372.371	30.89
372.582	53.42
372.792	114.86
373.003	61.61
373.214	121
373.424	77.99
373.635	65.71
373.846	116.9
374.056	75.95
374.267	125.1
374.477	86.19
374.688	69.8
374.898	69.8
375.109	121
375.319	80.04
375.53	153.77
375.74	110.76
375.951	69.8
376.161	129.19
376.372	73.9
376.582	86.19
376.793	53.42
377.003	28.84
377.214	16.55
377.424	86.19
377.635	102.57
377.845	51.37
378.055	118.95
378.266	96.43
378.476	135.34
378.686	71.85
378.897	65.71
379.107	90.28
379.317	147.62
379.528	77.99
379.738	86.19
379.948	49.32
380.158	37.03
380.369	26.79
380.579	143.53
380.789	6.31
380.999	129.19
381.21	166.06
381.42	217.26
381.63	96.43
381.84	129.19
382.05	86.19
382.261	147.62
382.471	114.86
382.681	37.03
382.891	57.51
383.101	123.05
383.311	16.55
383.521	102.57
383.731	127.14
383.941	127.14
384.151	28.84
384.361	73.9
384.571	102.57
384.781	77.99
384.991	147.62
385.201	82.09
385.411	80.04
385.621	116.9
385.831	53.42
386.041	22.7
386.251	57.51
386.461	53.42
386.671	43.18
386.881	80.04
387.091	55.47
387.301	53.42
387.511	153.77
387.72	65.71
387.93	71.85
388.14	45.23
388.35	84.14
388.56	127.14
388.769	86.19
388.979	77.99
389.189	86.19
389.399	75.95
389.609	94.38
389.818	61.61
390.028	164.01
390.238	86.19
390.447	43.18
390.657	92.33
390.867	24.75
391.076	61.61
391.286	123.05
391.496	80.04
391.705	104.62
391.915	110.76
392.125	114.86
392.334	80.04
392.544	137.38
392.753	157.86
392.963	94.38
393.172	178.34
393.382	127.14
393.591	104.62
393.801	129.19
394.01	145.58
394.22	168.1
394.429	110.76
394.639	123.05
394.848	186.54
395.058	121
395.267	63.66
395.477	161.96
395.686	186.54
395.895	137.38
396.105	121
396.314	143.53
396.524	77.99
396.733	149.67
396.942	147.62
397.152	155.82
397.361	143.53
397.57	75.95
397.78	61.61
397.989	159.91
398.198	118.95
398.407	71.85
398.617	176.3
398.826	200.87
399.035	127.14
399.244	190.63
399.453	200.87
399.663	151.72
399.872	110.76
400.081	159.91
400.29	186.54
400.499	155.82
400.708	164.01
400.917	172.2
401.127	159.91
401.336	180.39
401.545	268.45
401.754	155.82
401.963	192.68
402.172	235.69
402.381	200.87
402.59	135.34
402.799	168.1
403.008	315.56
403.217	161.96
403.426	321.7
403.635	235.69
403.844	250.02
404.053	164.01
404.262	241.83
404.471	272.55
404.68	233.64
404.888	233.64
405.097	290.98
405.306	266.41
405.515	192.68
405.724	215.21
405.933	266.41
406.142	313.51
406.35	311.46
406.559	266.41
406.768	301.22
406.977	372.9
407.185	278.69
407.394	325.8
407.603	260.26
407.812	284.84
408.02	358.57
408.229	315.56
408.438	393.38
408.646	352.42
408.855	399.52
409.064	389.28
409.272	399.52
409.481	450.72
409.69	407.72
409.898	444.58
410.107	442.53
410.315	487.59
410.524	524.45
410.733	495.78
410.941	538.79
411.15	598.18
411.358	585.89
411.567	604.32
411.775	680.1
411.984	637.09
412.192	708.77
412.401	780.45
412.609	684.19
412.818	692.38
413.026	680.1
413.234	759.97
413.443	852.13
413.651	809.12
413.86	891.04
414.068	915.61
414.276	995.48
414.485	919.71
414.693	1161.37
414.901	1073.31
415.11	1112.22
415.318	1077.4
415.526	1169.56
415.734	1243.29
415.943	1269.91
416.151	1319.06
416.359	1290.39
416.567	1306.77
416.776	1347.73
416.984	1476.76
417.192	1630.35
417.4	1577.11
417.608	1593.49
417.817	1570.96
418.025	1570.96
418.233	1822.86
418.441	1726.61
418.649	1896.59
418.857	2072.72
419.065	2017.42
419.273	2054.28
419.481	2097.29
419.689	2203.79
419.897	2381.96
420.105	2404.49
420.313	2396.29
420.521	2418.82
420.729	2515.08
420.937	2740.35
421.145	2797.7
421.353	2707.59
421.561	3008.64
421.769	2945.15
421.977	3149.95
422.185	3223.67
422.393	3373.18
422.601	3604.6
422.809	3575.92
423.017	3758.19
423.224	3733.62
423.432	3879.02
423.64	4020.33
423.848	4083.82
424.056	4233.32
424.263	4685.92
424.471	4501.61
424.679	4454.5
424.887	4825.19
425.094	4890.72
425.302	5181.53
425.51	5103.71
425.718	5306.46
425.925	5535.83
426.133	5560.41
426.341	5863.51
426.548	6053.97
426.756	5986.38
426.964	6201.42
427.171	6746.18
427.379	6500.42
427.586	6768.71
427.794	7229.5
428.001	7419.96
428.209	7710.77
428.417	7682.1
428.624	8228.91
428.832	7964.72
429.039	8114.22
429.247	8013.87
429.454	8900.64
429.662	9398.3
429.869	8779.81
430.076	9281.57
430.284	9209.89
430.491	9418.78
430.699	10080.27
430.906	9949.2
431.114	10147.86
431.321	10549.26
431.528	10770.44
431.736	11554.81
431.943	11802.61
432.15	11685.88
432.358	11663.35
432.565	12439.53
432.772	12242.93
432.979	13017.06
433.187	12963.81
433.394	13260.77
433.601	13998.04
433.808	14389.2
434.016	13965.27
434.223	14585.8
434.43	15722.43
434.637	15388.61
434.844	16109.49
435.052	16469.94
435.259	16586.67
435.466	16594.86
435.673	16359.35
435.88	17418.14
436.087	18515.86
436.294	18233.24
436.501	17997.72
436.708	18089.88
436.915	18925.45
437.122	19470.21
437.329	19607.42
437.537	20453.23
437.743	20682.61
437.95	20225.91
438.157	21432.16
438.364	22179.67
438.571	22161.24
438.778	22335.32
438.985	24397.62
439.192	23385.93
439.399	24049.47
439.606	23668.55
439.813	24991.53
440.02	26277.66
440.227	25966.37
440.433	25685.79
440.64	26697.49
440.847	26269.47
441.054	26863.38
441.261	28581.62
441.467	28323.58
441.674	28983.02
441.881	30260.96
442.088	29605.61
442.294	29464.3
442.501	29982.43
442.708	30940.88
442.914	32233.15
443.121	33715.88
443.328	32575.16
443.534	34797.21
443.741	33808.04
443.948	33298.09
444.154	35837.58
444.361	35489.42
444.568	35784.33
444.774	35681.93
444.981	36349.57
445.187	37060.21
445.394	38655.58
445.6	38370.91
445.807	41428.53
446.013	40119.88
446.22	40711.74
446.426	42427.94
446.633	42501.67
446.839	43806.22
447.046	42145.32
447.252	44596.74
447.459	44568.07
447.665	44688.9
447.871	46257.64
448.078	47990.22
448.284	46155.24
448.491	47144.41
448.697	48760.26
448.903	49931.7
449.11	49923.5
449.316	49327.55
449.522	49911.22
449.728	51275.16
449.935	52039.06
450.141	52059.54
450.347	53013.89
450.553	51228.06
450.76	51594.65
450.966	53265.79
451.172	52688.26
451.378	54328.69
451.584	53476.73
451.791	54377.84
451.997	54209.9
452.203	55295.33
452.409	55192.93
452.615	55158.11
452.821	52665.74
453.027	52141.46
453.233	55035.23
453.44	52675.97
453.646	53405.05
453.852	53419.39
454.058	54568.3
454.264	52176.27
454.47	54154.61
454.676	52936.07
454.882	54646.12
455.088	50159.02
455.294	50845.09
455.5	51821.97
455.705	51602.84
455.911	50032.05
456.117	49241.53
456.323	48717.25
456.529	45909.49
456.735	47732.18
456.941	46257.64
457.147	46032.36
457.352	44623.36
457.558	44250.63
457.764	44697.09
457.97	43447.83
458.176	42587.68
458.381	42642.98
458.587	40203.85
458.793	40382.02
458.999	38551.13
459.204	40990.27
459.41	40195.65
459.616	37805.67
459.821	37316.21
460.027	37531.25
460.233	36558.46
460.438	35100.31
460.644	34950.81
460.85	33892.01
461.055	33009.33
461.261	33093.3
461.466	30377.69
461.672	29128.43
461.878	31407.82
462.083	29689.57
462.289	29099.76
462.494	28563.19
462.7	27481.86
462.905	27023.12
463.111	27600.65
463.316	27473.67
463.522	27139.85
463.727	27029.26
463.932	27098.89
464.138	26392.34
464.343	27107.09
464.549	25968.41
464.754	26846.99
464.959	26640.15
465.165	26486.55
465.37	25136.94
465.575	24516.4
465.781	25546.53
