Data from USB4F104151__165__14-32-21-516.txt Node

Date: Thu Mar 13 14:32:21 EDT 2025
User: louis
Spectrometer: USB4F10415
Trigger mode: 4
Integration Time (sec): 2.500000E-2
Scans to average: 1
Electric dark correction enabled: true
Nonlinearity correction enabled: false
Boxcar width: 0
XAxis mode: Wavelengths
Number of Pixels in Spectrum: 3648
>>>>>Begin Spectral Data<<<<<
178.204	-168.27
178.424	-168.27
178.644	-168.27
178.864	-168.27
179.084	-72.02
179.304	-24.92
179.524	-8.53
179.744	7.85
179.964	42.67
180.184	-0.34
180.404	11.95
180.624	-4.44
180.844	24.23
181.064	-39.25
181.283	1.71
181.503	-2.39
181.723	-8.53
181.943	-86.36
182.163	104.11
182.383	1.71
182.602	-8.53
182.822	75.43
183.042	57
183.262	32.43
183.482	48.81
183.701	-47.44
183.921	104.11
184.141	1.71
184.361	30.38
184.58	65.19
184.8	-8.53
185.02	-47.44
185.239	67.24
185.459	77.48
185.679	7.85
185.898	-49.49
186.118	81.58
186.338	7.85
186.557	7.85
186.777	-24.92
186.997	54.95
187.216	-41.3
187.436	69.29
187.655	28.33
187.875	-31.06
188.095	28.33
188.314	65.19
188.534	48.81
188.753	-29.01
188.973	114.34
189.192	61.1
189.412	-29.01
189.631	69.29
189.851	24.23
190.07	63.15
190.29	-8.53
190.509	-4.44
190.729	-74.07
190.948	48.81
191.168	183.98
191.387	57
191.607	-6.49
191.826	44.71
192.045	36.52
192.265	24.23
192.484	57
192.704	40.62
192.923	-55.64
193.142	42.67
193.362	100.01
193.581	57
193.8	48.81
194.02	54.95
194.239	16.04
194.458	16.04
194.678	-16.73
194.897	34.47
195.116	-8.53
195.335	32.43
195.555	-14.68
195.774	22.19
195.993	89.77
196.212	24.23
196.432	-86.36
196.651	106.15
196.87	42.67
197.089	124.58
197.308	100.01
197.528	-20.82
197.747	57
197.966	50.86
198.185	44.71
198.404	-0.34
198.623	-43.35
198.842	24.23
199.062	-20.82
199.281	67.24
199.5	-14.68
199.719	112.3
199.938	48.81
200.157	-14.68
200.376	24.23
200.595	48.81
200.814	46.76
201.033	-24.92
201.252	59.05
201.471	7.85
201.69	50.86
201.909	85.67
202.128	48.81
202.347	1.71
202.566	22.19
202.785	42.67
203.004	42.67
203.223	93.87
203.442	-22.87
203.661	-0.34
203.879	61.1
204.098	32.43
204.317	16.04
204.536	100.01
204.755	-6.49
204.974	-6.49
205.193	-14.68
205.411	75.43
205.63	89.77
205.849	1.71
206.068	28.33
206.287	-41.3
206.505	1.71
206.724	20.14
206.943	-26.96
207.162	20.14
207.381	7.85
207.599	42.67
207.818	52.91
208.037	65.19
208.255	61.1
208.474	-74.07
208.693	28.33
208.911	73.39
209.13	85.67
209.349	120.49
209.567	63.15
209.786	57
210.005	48.81
210.223	-8.53
210.442	-31.06
210.661	97.96
210.879	71.34
211.098	-31.06
211.316	40.62
211.535	138.92
211.753	-6.49
211.972	83.63
212.191	-31.06
212.409	7.85
212.628	50.86
212.846	-6.49
213.065	81.58
213.283	40.62
213.502	-69.97
213.72	-69.97
213.938	42.67
214.157	18.09
214.375	50.86
214.594	16.04
214.812	69.29
215.031	5.8
215.249	36.52
215.467	40.62
215.686	-14.68
215.904	20.14
216.122	57
216.341	65.19
216.559	34.47
216.778	118.44
216.996	28.33
217.214	-35.16
217.432	3.75
217.651	20.14
217.869	3.75
218.087	7.85
218.306	65.19
218.524	34.47
218.742	-29.01
218.96	54.95
219.179	36.52
219.397	9.9
219.615	67.24
219.833	-2.39
220.051	18.09
220.27	93.87
220.488	32.43
220.706	3.75
220.924	44.71
221.142	11.95
221.36	32.43
221.578	18.09
221.796	-8.53
222.015	61.1
222.233	-20.82
222.451	61.1
222.669	7.85
222.887	26.28
223.105	7.85
223.323	18.09
223.541	5.8
223.759	40.62
223.977	-49.49
224.195	110.25
224.413	75.43
224.631	57
224.849	-6.49
225.067	97.96
225.285	9.9
225.503	57
225.721	-47.44
225.939	52.91
226.157	48.81
226.375	57
226.592	-18.77
226.81	40.62
227.028	52.91
227.246	65.19
227.464	24.23
227.682	75.43
227.9	59.05
228.117	89.77
228.335	50.86
228.553	-14.68
228.771	-8.53
228.989	9.9
229.206	24.23
229.424	-0.34
229.642	-6.49
229.86	-16.73
230.077	24.23
230.295	52.91
230.513	32.43
230.731	71.34
230.948	13.99
231.166	106.15
231.384	65.19
231.601	38.57
231.819	40.62
232.037	9.9
232.254	13.99
232.472	-8.53
232.689	-6.49
232.907	79.53
233.125	-20.82
233.342	57
233.56	16.04
233.777	7.85
233.995	-41.3
234.213	97.96
234.43	-0.34
234.648	-41.3
234.865	20.14
235.083	69.29
235.3	42.67
235.518	114.34
235.735	97.96
235.953	16.04
236.17	28.33
236.388	7.85
236.605	-8.53
236.822	147.11
237.04	93.87
237.257	-8.53
237.475	13.99
237.692	65.19
237.909	54.95
238.127	16.04
238.344	-31.06
238.562	132.78
238.779	-0.34
238.996	-16.73
239.214	48.81
239.431	40.62
239.648	1.71
239.865	57
240.083	24.23
240.3	16.04
240.517	9.9
240.735	36.52
240.952	46.76
241.169	40.62
241.386	24.23
241.603	16.04
241.821	-2.39
242.038	42.67
242.255	42.67
242.472	-16.73
242.689	83.63
242.907	81.58
243.124	57
243.341	-6.49
243.558	32.43
243.775	13.99
243.992	-14.68
244.209	48.81
244.426	57
244.643	126.63
244.86	5.8
245.078	13.99
245.295	20.14
245.512	71.34
245.729	26.28
245.946	-0.34
246.163	61.1
246.38	57
246.597	9.9
246.814	61.1
247.031	11.95
247.248	7.85
247.464	28.33
247.681	30.38
247.898	57
248.115	-0.34
248.332	-16.73
248.549	7.85
248.766	42.67
248.983	11.95
249.2	24.23
249.417	46.76
249.633	-8.53
249.85	44.71
250.067	28.33
250.284	3.75
250.501	93.87
250.717	61.1
250.934	32.43
251.151	26.28
251.368	26.28
251.585	24.23
251.801	69.29
252.018	-74.07
252.235	26.28
252.451	-31.06
252.668	-8.53
252.885	65.19
253.102	-26.96
253.318	42.67
253.535	28.33
253.752	-26.96
253.968	-29.01
254.185	-63.83
254.401	18.09
254.618	34.47
254.835	-22.87
255.051	149.16
255.268	-24.92
255.484	34.47
255.701	69.29
255.917	57
256.134	-6.49
256.351	-8.53
256.567	18.09
256.784	20.14
257	32.43
257.217	26.28
257.433	73.39
257.65	67.24
257.866	24.23
258.082	24.23
258.299	16.04
258.515	83.63
258.732	59.05
258.948	-37.2
259.165	85.67
259.381	-45.4
259.597	16.04
259.814	-33.11
260.03	-20.82
260.246	50.86
260.463	104.11
260.679	7.85
260.895	44.71
261.112	40.62
261.328	-8.53
261.544	30.38
261.761	71.34
261.977	-63.83
262.193	-22.87
262.409	36.52
262.626	16.04
262.842	7.85
263.058	11.95
263.274	-6.49
263.49	91.82
263.707	61.1
263.923	59.05
264.139	-43.35
264.355	69.29
264.571	24.23
264.787	67.24
265.004	32.43
265.22	-2.39
265.436	-0.34
265.652	3.75
265.868	50.86
266.084	-47.44
266.3	61.1
266.516	24.23
266.732	26.28
266.948	18.09
267.164	40.62
267.38	-33.11
267.596	34.47
267.812	130.73
268.028	-41.3
268.244	24.23
268.46	20.14
268.676	75.43
268.892	89.77
269.108	-65.88
269.324	-14.68
269.54	11.95
269.756	44.71
269.972	-6.49
270.188	30.38
270.403	79.53
270.619	-12.63
270.835	89.77
271.051	-22.87
271.267	-14.68
271.483	16.04
271.698	57
271.914	73.39
272.13	-8.53
272.346	3.75
272.562	61.1
272.777	108.2
272.993	28.33
273.209	26.28
273.425	7.85
273.64	-20.82
273.856	28.33
274.072	83.63
274.287	3.75
274.503	34.47
274.719	116.39
274.934	16.04
275.15	18.09
275.366	-4.44
275.581	1.71
275.797	81.58
276.012	9.9
276.228	-6.49
276.444	-24.92
276.659	100.01
276.875	42.67
277.09	22.19
277.306	-31.06
277.521	34.47
277.737	73.39
277.952	65.19
278.168	28.33
278.383	24.23
278.599	40.62
278.814	18.09
279.03	-53.59
279.245	67.24
279.461	57
279.676	126.63
279.892	7.85
280.107	73.39
280.322	-31.06
280.538	18.09
280.753	-31.06
280.969	85.67
281.184	-0.34
281.399	97.96
281.615	11.95
281.83	-10.58
282.045	28.33
282.26	-33.11
282.476	18.09
282.691	48.81
282.906	34.47
283.122	34.47
283.337	69.29
283.552	100.01
283.767	57
283.983	63.15
284.198	59.05
284.413	97.96
284.628	-41.3
284.843	13.99
285.058	20.14
285.274	-22.87
285.489	-37.2
285.704	69.29
285.919	54.95
286.134	7.85
286.349	34.47
286.564	42.67
286.779	104.11
286.995	26.28
287.21	-139.6
287.425	-12.63
287.64	-12.63
287.855	7.85
288.07	-33.11
288.285	9.9
288.5	13.99
288.715	85.67
288.93	9.9
289.145	-22.87
289.36	147.11
289.575	-4.44
289.79	54.95
290.004	7.85
290.219	83.63
290.434	-0.34
290.649	-78.16
290.864	50.86
291.079	79.53
291.294	-33.11
291.509	57
291.724	134.82
291.938	7.85
292.153	3.75
292.368	-74.07
292.583	114.34
292.798	73.39
293.012	42.67
293.227	65.19
293.442	-29.01
293.657	65.19
293.871	73.39
294.086	7.85
294.301	89.77
294.516	69.29
294.73	48.81
294.945	3.75
295.16	-14.68
295.374	116.39
295.589	61.1
295.804	16.04
296.018	65.19
296.233	93.87
296.447	34.47
296.662	-18.77
296.877	50.86
297.091	79.53
297.306	77.48
297.52	20.14
297.735	26.28
297.949	28.33
298.164	83.63
298.378	81.58
298.593	5.8
298.807	-78.16
299.022	102.06
299.236	13.99
299.451	-16.73
299.665	-33.11
299.88	-76.12
300.094	24.23
300.309	13.99
300.523	-29.01
300.737	18.09
300.952	57
301.166	-4.44
301.381	3.75
301.595	16.04
301.809	24.23
302.024	71.34
302.238	-22.87
302.452	91.82
302.667	32.43
302.881	42.67
303.095	75.43
303.309	16.04
303.524	-33.11
303.738	87.72
303.952	48.81
304.166	42.67
304.381	-74.07
304.595	81.58
304.809	87.72
305.023	-2.39
305.237	-0.34
305.452	57
305.666	34.47
305.88	-20.82
306.094	63.15
306.308	-31.06
306.522	57
306.736	38.57
306.95	-2.39
307.164	40.62
307.379	91.82
307.593	108.2
307.807	61.1
308.021	108.2
308.235	91.82
308.449	-41.3
308.663	52.91
308.877	122.54
309.091	-4.44
309.305	120.49
309.519	-57.68
309.733	81.58
309.947	5.8
310.161	81.58
310.374	-24.92
310.588	57
310.802	-24.92
311.016	40.62
311.23	46.76
311.444	-41.3
311.658	16.04
311.872	32.43
312.085	11.95
312.299	104.11
312.513	7.85
312.727	61.1
312.941	-6.49
313.154	-0.34
313.368	20.14
313.582	48.81
313.796	24.23
314.009	48.81
314.223	32.43
314.437	97.96
314.651	7.85
314.864	13.99
315.078	3.75
315.292	42.67
315.505	-6.49
315.719	24.23
315.933	50.86
316.146	13.99
316.36	3.75
316.573	1.71
316.787	118.44
317.001	73.39
317.214	-31.06
317.428	-16.73
317.641	24.23
317.855	-10.58
318.068	36.52
318.282	26.28
318.495	57
318.709	61.1
318.922	24.23
319.136	52.91
319.349	40.62
319.563	57
319.776	48.81
319.99	24.23
320.203	67.24
320.417	-41.3
320.63	106.15
320.843	89.77
321.057	57
321.27	73.39
321.483	30.38
321.697	85.67
321.91	-24.92
322.124	-14.68
322.337	42.67
322.55	34.47
322.763	-8.53
322.977	63.15
323.19	-22.87
323.403	-47.44
323.617	73.39
323.83	108.2
324.043	36.52
324.256	11.95
324.469	77.48
324.683	81.58
324.896	-0.34
325.109	38.57
325.322	7.85
325.535	97.96
325.748	48.81
325.962	11.95
326.175	50.86
326.388	67.24
326.601	77.48
326.814	30.38
327.027	-31.06
327.24	147.11
327.453	-29.01
327.666	59.05
327.879	102.06
328.092	130.73
328.305	40.62
328.518	61.1
328.731	83.63
328.944	16.04
329.157	50.86
329.37	16.04
329.583	40.62
329.796	75.43
330.009	5.8
330.222	26.28
330.435	75.43
330.648	69.29
330.861	28.33
331.073	83.63
331.286	24.23
331.499	40.62
331.712	-14.68
331.925	32.43
332.138	59.05
332.35	38.57
332.563	-12.63
332.776	83.63
332.989	85.67
333.202	32.43
333.414	20.14
333.627	26.28
333.84	-12.63
334.053	85.67
334.265	-24.92
334.478	-26.96
334.691	32.43
334.903	34.47
335.116	32.43
335.329	50.86
335.541	36.52
335.754	85.67
335.966	-12.63
336.179	-8.53
336.392	-55.64
336.604	11.95
336.817	20.14
337.029	36.52
337.242	-16.73
337.454	81.58
337.667	36.52
337.88	65.19
338.092	83.63
338.305	28.33
338.517	97.96
338.729	73.39
338.942	59.05
339.154	65.19
339.367	-16.73
339.579	24.23
339.792	34.47
340.004	100.01
340.217	-65.88
340.429	95.91
340.641	34.47
340.854	40.62
341.066	3.75
341.278	18.09
341.491	42.67
341.703	34.47
341.915	24.23
342.128	40.62
342.34	32.43
342.552	24.23
342.764	16.04
342.977	57
343.189	34.47
343.401	-0.34
343.613	3.75
343.826	16.04
344.038	-41.3
344.25	-4.44
344.462	-35.16
344.674	16.04
344.886	-14.68
345.099	97.96
345.311	57
345.523	40.62
345.735	-137.56
345.947	59.05
346.159	-6.49
346.371	28.33
346.583	22.19
346.795	140.97
347.007	71.34
347.219	48.81
347.431	40.62
347.643	65.19
347.855	18.09
348.067	46.76
348.279	3.75
348.491	5.8
348.703	20.14
348.915	3.75
349.127	57
349.339	38.57
349.551	-0.34
349.763	114.34
349.975	24.23
350.187	24.23
350.399	50.86
350.61	65.19
350.822	16.04
351.034	40.62
351.246	50.86
351.458	83.63
351.669	57
351.881	65.19
352.093	93.87
352.305	24.23
352.517	40.62
352.728	7.85
352.94	42.67
353.152	59.05
353.363	28.33
353.575	93.87
353.787	-24.92
353.999	71.34
354.21	52.91
354.422	5.8
354.633	57
354.845	40.62
355.057	65.19
355.268	145.06
355.48	57
355.692	-55.64
355.903	7.85
356.115	50.86
356.326	-45.4
356.538	67.24
356.749	-31.06
356.961	69.29
357.172	83.63
357.384	1.71
357.595	34.47
357.807	16.04
358.018	-16.73
358.23	42.67
358.441	83.63
358.653	73.39
358.864	-10.58
359.075	18.09
359.287	16.04
359.498	-24.92
359.709	16.04
359.921	69.29
360.132	69.29
360.344	61.1
360.555	16.04
360.766	67.24
360.977	-0.34
361.189	63.15
361.4	24.23
361.611	93.87
361.823	67.24
362.034	57
362.245	-4.44
362.456	40.62
362.667	63.15
362.879	7.85
363.09	102.06
363.301	97.96
363.512	57
363.723	40.62
363.935	81.58
364.146	3.75
364.357	71.34
364.568	75.43
364.779	30.38
364.99	102.06
365.201	-0.34
365.412	167.59
365.623	61.1
365.834	24.23
366.045	26.28
366.256	40.62
366.467	36.52
366.678	89.77
366.889	44.71
367.1	-33.11
367.311	97.96
367.522	28.33
367.733	77.48
367.944	81.58
368.155	7.85
368.366	73.39
368.577	3.75
368.788	110.25
368.999	65.19
369.209	40.62
369.42	106.15
369.631	24.23
369.842	18.09
370.053	-0.34
370.264	69.29
370.474	52.91
370.685	143.02
370.896	26.28
371.107	57
371.317	112.3
371.528	-80.21
371.739	95.91
371.95	65.19
372.16	48.81
372.371	-24.92
372.582	65.19
372.792	81.58
373.003	81.58
373.214	40.62
373.424	54.95
373.635	61.1
373.846	151.21
374.056	18.09
374.267	9.9
374.477	71.34
374.688	46.76
374.898	57
375.109	114.34
375.319	7.85
375.53	65.19
375.74	83.63
375.951	16.04
376.161	95.91
376.372	83.63
376.582	7.85
376.793	114.34
377.003	40.62
377.214	34.47
377.424	40.62
377.635	75.43
377.845	57
378.055	106.15
378.266	34.47
378.476	89.77
378.686	57
378.897	61.1
379.107	83.63
379.317	34.47
379.528	20.14
379.738	89.77
379.948	11.95
380.158	57
380.369	24.23
380.579	61.1
380.789	54.95
380.999	75.43
381.21	112.3
381.42	97.96
381.63	100.01
381.84	57
382.05	1.71
382.261	104.11
382.471	75.43
382.681	67.24
382.891	40.62
383.101	59.05
383.311	38.57
383.521	24.23
383.731	65.19
383.941	24.23
384.151	30.38
384.361	73.39
384.571	75.43
384.781	50.86
384.991	73.39
385.201	169.64
385.411	106.15
385.621	50.86
385.831	40.62
386.041	77.48
386.251	20.14
386.461	106.15
386.671	16.04
386.881	16.04
387.091	16.04
387.301	116.39
387.511	65.19
387.72	116.39
387.93	57
388.14	61.1
388.35	67.24
388.56	118.44
388.769	83.63
388.979	93.87
389.189	93.87
389.399	69.29
389.609	97.96
389.818	50.86
390.028	54.95
390.238	32.43
390.447	75.43
390.657	36.52
390.867	59.05
391.076	32.43
391.286	57
391.496	73.39
391.705	34.47
391.915	26.28
392.125	81.58
392.334	108.2
392.544	102.06
392.753	124.58
392.963	-8.53
393.172	95.91
393.382	44.71
393.591	128.68
393.801	57
394.01	138.92
394.22	48.81
394.429	100.01
394.639	50.86
394.848	48.81
395.058	73.39
395.267	128.68
395.477	34.47
395.686	75.43
395.895	173.74
396.105	183.98
396.314	122.54
396.524	128.68
396.733	89.77
396.942	206.5
397.152	118.44
397.361	73.39
397.57	59.05
397.78	65.19
397.989	110.25
398.198	274.09
398.407	7.85
398.617	42.67
398.826	65.19
399.035	67.24
399.244	188.07
399.453	126.63
399.663	16.04
399.872	167.59
400.081	120.49
400.29	138.92
400.499	116.39
400.708	130.73
400.917	138.92
401.127	65.19
401.336	38.57
401.545	122.54
401.754	155.3
401.963	73.39
402.172	138.92
402.381	83.63
402.59	48.81
402.799	114.34
403.008	106.15
403.217	157.35
403.426	163.5
403.635	116.39
403.844	57
404.053	73.39
404.262	85.67
404.471	155.3
404.68	116.39
404.888	75.43
405.097	120.49
405.306	143.02
405.515	190.12
405.724	126.63
405.933	138.92
406.142	220.84
406.35	198.31
406.559	169.64
406.768	200.36
406.977	190.12
407.185	132.78
407.394	216.74
407.603	147.11
407.812	179.88
408.02	233.13
408.229	212.65
408.438	241.32
408.646	278.18
408.855	212.65
409.064	255.65
409.272	204.46
409.481	294.57
409.69	229.03
409.898	290.47
410.107	296.61
410.315	294.57
410.524	269.99
410.733	294.57
410.941	300.71
411.15	378.53
411.358	392.87
411.567	450.21
411.775	298.66
411.984	411.3
412.192	392.87
412.401	331.43
412.609	421.54
412.818	454.31
413.026	548.51
413.234	511.65
413.443	491.17
413.651	495.27
413.86	544.42
414.068	650.91
414.276	614.05
414.485	597.67
414.693	614.05
414.901	624.29
415.11	630.43
415.318	646.82
415.526	755.36
415.734	730.78
415.943	743.07
416.151	804.51
416.359	753.31
416.567	818.85
416.776	954.01
416.984	882.33
417.192	931.48
417.4	962.2
417.608	1011.36
417.817	1011.36
418.025	1091.23
418.233	1056.41
418.441	1089.18
418.649	1105.56
418.857	1113.75
419.065	1318.55
419.273	1220.25
419.481	1359.51
419.689	1404.57
419.897	1345.17
420.105	1418.9
420.313	1416.85
420.521	1498.77
420.729	1621.65
420.937	1625.75
421.145	1691.28
421.353	1840.78
421.561	1875.6
421.769	1902.22
421.977	1875.6
422.185	1990.28
422.393	2076.3
422.601	2152.07
422.809	2197.13
423.017	2174.6
423.224	2334.34
423.432	2330.25
423.64	2420.36
423.848	2533
424.056	2596.48
424.263	2698.88
424.471	2788.99
424.679	2735.74
424.887	2864.77
425.094	2987.65
425.302	3063.42
425.51	3047.04
425.718	3247.74
425.925	3229.31
426.133	3296.89
426.341	3626.61
426.548	3694.19
426.756	3667.57
426.964	3860.08
427.171	4046.44
427.379	4071.02
427.586	4210.28
427.794	4267.63
428.001	4548.2
428.209	4785.76
428.417	4587.11
428.624	4849.25
428.832	4949.6
429.039	5011.04
429.247	4955.74
429.454	5432.92
429.662	5611.09
429.869	5244.51
430.076	5709.4
430.284	5480.02
430.491	5791.31
430.699	6114.89
430.906	6108.75
431.114	6237.77
431.321	6374.99
431.528	6452.81
431.736	6948.42
431.943	7206.46
432.15	6972.99
432.358	6975.04
432.565	7396.92
432.772	7398.97
432.979	7816.76
433.187	7966.26
433.394	8058.42
433.601	8353.32
433.808	8566.31
434.016	8576.55
434.223	8793.64
434.43	9272.86
434.637	9362.97
434.844	9987.6
435.052	9747.99
435.259	9756.18
435.466	9870.87
435.673	9821.72
435.88	10472.97
436.087	10995.2
436.294	10901
436.501	10970.63
436.708	10968.58
436.915	11396.6
437.122	11873.78
437.329	11855.35
437.537	12295.66
437.743	12387.82
437.95	12353.01
438.157	12948.97
438.364	13473.25
438.571	13401.57
438.778	13368.8
438.985	14540.24
439.192	14267.86
439.399	14480.85
439.606	14220.75
439.813	14998.98
440.02	15893.94
440.227	15502.78
440.433	15506.88
440.64	15996.34
440.847	15824.31
441.054	16180.66
441.261	17319.33
441.467	17147.3
441.674	17612.19
441.881	18058.65
442.088	18185.62
442.294	17882.52
442.501	18351.51
442.708	18732.43
442.914	19139.97
443.121	20166.01
443.328	19398.02
443.534	20929.9
443.741	20544.88
443.948	20049.27
444.154	21575.01
444.361	21523.81
444.568	21677.41
444.774	21556.58
444.981	22043.99
445.187	22404.44
445.394	23334.21
445.6	23221.58
445.807	25414.95
446.013	24118.59
446.22	24640.82
446.426	25793.83
446.633	26047.77
446.839	26938.64
447.046	25353.51
447.252	27258.12
447.459	27110.67
447.665	26862.86
447.871	28351.74
448.078	28986.61
448.284	27882.75
448.491	28542.2
448.697	30037.22
448.903	30358.75
449.11	30272.73
449.316	29545.7
449.522	30305.5
449.728	31227.09
449.935	31491.27
450.141	31501.51
450.347	32058.56
450.553	31409.36
450.76	31397.07
450.966	32701.62
451.172	32218.3
451.378	32953.52
451.584	32625.85
451.791	32767.16
451.997	32898.23
452.203	33789.1
452.409	33692.84
452.615	33387.69
452.821	32271.55
453.027	31642.82
453.233	33457.32
453.44	32144.58
453.646	32574.65
453.852	32652.47
454.058	33281.2
454.264	32197.82
454.47	32853.17
454.676	32056.51
454.882	33242.29
455.088	30377.18
455.294	30858.45
455.5	31122.64
455.705	31577.29
455.911	30082.27
456.117	29537.51
456.323	29084.91
456.529	27723.01
456.735	28947.7
456.941	28200.19
457.147	27571.46
457.352	26789.14
457.558	26500.37
457.764	26672.4
457.97	25976.09
458.176	25591.08
458.381	25339.18
458.587	24307
458.793	24155.45
458.999	22861.13
459.204	24280.38
459.41	24018.24
459.616	22242.65
459.821	22394.2
460.027	22242.65
460.233	21572.96
460.438	20776.3
460.644	21046.63
460.85	19955.07
461.055	19469.7
461.261	19766.65
461.466	17948.06
461.672	17702.3
461.878	18828.68
462.083	17591.71
462.289	17132.97
462.494	17018.28
462.7	16403.89
462.905	15846.84
463.111	16203.19
463.316	16469.42
463.522	16072.12
463.727	15961.53
463.932	16047.54
464.138	15846.84
464.343	15740.35
464.549	15314.37
464.754	15850.94
464.959	15590.84
465.165	15736.25
465.37	15023.56
465.575	14534.09
465.781	15271.36
465.986	15164.87
466.191	14534.09
466.397	14417.36
466.602	13802.97
466.807	14140.88
467.012	14163.41
467.218	14233.04
467.423	13864.41
467.628	14075.35
467.833	14544.33
468.038	13921.75
468.244	13549.02
468.449	14071.25
468.654	13651.42
