Data from USB4F104151__69__14-30-23-100.txt Node

Date: Thu Mar 13 14:30:23 EDT 2025
User: louis
Spectrometer: USB4F10415
Trigger mode: 4
Integration Time (sec): 2.500000E-2
Scans to average: 1
Electric dark correction enabled: true
Nonlinearity correction enabled: false
Boxcar width: 0
XAxis mode: Wavelengths
Number of Pixels in Spectrum: 3648
>>>>>Begin Spectral Data<<<<<
178.204	-89.43
178.424	-89.43
178.644	-89.43
178.864	-171.35
179.084	-5.46
179.304	10.92
179.524	25.26
179.744	43.69
179.964	62.12
180.184	-68.95
180.404	-56.66
180.624	45.74
180.844	-3.41
181.064	-15.7
181.283	45.74
181.503	-36.18
181.723	-52.56
181.943	-11.61
182.163	47.79
182.383	17.07
182.602	49.83
182.822	31.4
183.042	70.31
183.262	15.02
183.482	25.26
183.701	74.41
183.921	74.41
184.141	-3.41
184.361	15.02
184.58	-34.13
184.8	25.26
185.02	96.94
185.239	15.02
185.459	0.68
185.679	88.75
185.898	-15.7
186.118	37.55
186.338	49.83
186.557	62.12
186.777	103.08
186.997	25.26
187.216	37.55
187.436	78.51
187.655	4.78
187.875	101.03
188.095	17.07
188.314	58.03
188.534	139.94
188.753	2.73
188.973	84.65
189.192	62.12
189.412	21.16
189.631	45.74
189.851	37.55
190.07	21.16
190.29	6.83
190.509	25.26
190.729	78.51
190.948	105.13
191.168	125.61
191.387	29.35
191.607	31.4
191.826	49.83
192.045	82.6
192.265	25.26
192.484	66.22
192.704	39.59
192.923	4.78
193.142	88.75
193.362	45.74
193.581	53.93
193.8	0.68
194.02	66.22
194.239	25.26
194.458	88.75
194.678	0.68
194.897	94.89
195.116	58.03
195.335	-36.18
195.555	70.31
195.774	-1.37
195.993	53.93
196.212	-36.18
196.432	33.45
196.651	55.98
196.87	-23.89
197.089	121.51
197.308	45.74
197.528	15.02
197.747	-11.61
197.966	41.64
198.185	92.84
198.404	-30.04
198.623	84.65
198.842	45.74
199.062	47.79
199.281	78.51
199.5	53.93
199.719	4.78
199.938	66.22
200.157	131.75
200.376	70.31
200.595	107.18
200.814	29.35
201.033	4.78
201.252	64.17
201.471	96.94
201.69	-3.41
201.909	86.7
202.128	53.93
202.347	-13.65
202.566	15.02
202.785	49.83
203.004	-27.99
203.223	98.99
203.442	39.59
203.661	39.59
203.879	-13.65
204.098	96.94
204.317	15.02
204.536	6.83
204.755	66.22
204.974	2.73
205.193	55.98
205.411	70.31
205.63	131.75
205.849	82.6
206.068	4.78
206.287	103.08
206.505	105.13
206.724	41.64
206.943	45.74
207.162	8.87
207.381	64.17
207.599	70.31
207.818	-11.61
208.037	-56.66
208.255	29.35
208.474	78.51
208.693	12.97
208.911	33.45
209.13	64.17
209.349	39.59
209.567	21.16
209.786	-3.41
210.005	74.41
210.223	19.11
210.442	-23.89
210.661	-9.56
210.879	12.97
211.098	86.7
211.316	49.83
211.535	94.89
211.753	-7.51
211.972	70.31
212.191	4.78
212.409	-7.51
212.628	31.4
212.846	55.98
213.065	72.36
213.283	62.12
213.502	78.51
213.72	70.31
213.938	45.74
214.157	-3.41
214.375	33.45
214.594	39.59
214.812	23.21
215.031	8.87
215.249	4.78
215.467	-89.43
215.686	4.78
215.904	60.07
216.122	47.79
216.341	62.12
216.559	31.4
216.778	58.03
216.996	25.26
217.214	4.78
217.432	-9.56
217.651	33.45
217.869	45.74
218.087	-1.37
218.306	37.55
218.524	35.5
218.742	62.12
218.96	78.51
219.179	-3.41
219.397	4.78
219.615	74.41
219.833	-3.41
220.051	-11.61
220.27	88.75
220.488	35.5
220.706	88.75
220.924	12.97
221.142	29.35
221.36	88.75
221.578	47.79
221.796	55.98
222.015	-19.8
222.233	55.98
222.451	74.41
222.669	-27.99
222.887	6.83
223.105	8.87
223.323	12.97
223.541	15.02
223.759	23.21
223.977	78.51
224.195	53.93
224.413	45.74
224.631	80.55
224.849	-1.37
225.067	58.03
225.285	-11.61
225.503	29.35
225.721	-75.09
225.939	10.92
226.157	41.64
226.375	164.52
226.592	-46.42
226.81	-1.37
227.028	90.79
227.246	70.31
227.464	17.07
227.682	88.75
227.9	6.83
228.117	133.8
228.335	62.12
228.553	55.98
228.771	62.12
228.989	-27.99
229.206	-48.47
229.424	88.75
229.642	39.59
229.86	47.79
230.077	111.27
230.295	15.02
230.513	47.79
230.731	94.89
230.948	4.78
231.166	47.79
231.384	-27.99
231.601	21.16
231.819	27.31
232.037	23.21
232.254	-19.8
232.472	21.16
232.689	62.12
232.907	-66.9
233.125	78.51
233.342	-32.08
233.56	-19.8
233.777	103.08
233.995	49.83
234.213	4.78
234.43	82.6
234.648	-15.7
234.865	25.26
235.083	10.92
235.3	-50.52
235.518	62.12
235.735	58.03
235.953	31.4
236.17	49.83
236.388	66.22
236.605	17.07
236.822	60.07
237.04	72.36
237.257	39.59
237.475	4.78
237.692	21.16
237.909	62.12
238.127	80.55
238.344	31.4
238.562	119.46
238.779	8.87
238.996	29.35
239.214	-42.32
239.431	33.45
239.648	119.46
239.865	76.46
240.083	125.61
240.3	55.98
240.517	-11.61
240.735	80.55
240.952	53.93
241.169	45.74
241.386	43.69
241.603	-56.66
241.821	0.68
242.038	64.17
242.255	86.7
242.472	4.78
242.689	-7.51
242.907	90.79
243.124	60.07
243.341	70.31
243.558	70.31
243.775	58.03
243.992	-3.41
244.209	-58.71
244.426	137.9
244.643	47.79
244.86	111.27
245.078	37.55
245.295	41.64
245.512	-42.32
245.729	55.98
245.946	17.07
246.163	33.45
246.38	-56.66
246.597	55.98
246.814	-7.51
247.031	4.78
247.248	62.12
247.464	88.75
247.681	29.35
247.898	72.36
248.115	49.83
248.332	-5.46
248.549	12.97
248.766	21.16
248.983	109.22
249.2	72.36
249.417	58.03
249.633	47.79
249.85	45.74
250.067	45.74
250.284	0.68
250.501	55.98
250.717	74.41
250.934	45.74
251.151	-15.7
251.368	-3.41
251.585	70.31
251.801	45.74
252.018	21.16
252.235	103.08
252.451	86.7
252.668	27.31
252.885	39.59
253.102	45.74
253.318	49.83
253.535	12.97
253.752	21.16
253.968	70.31
254.185	0.68
254.401	84.65
254.618	121.51
254.835	-3.41
255.051	111.27
255.268	12.97
255.484	0.68
255.701	39.59
255.917	-3.41
256.134	94.89
256.351	39.59
256.567	105.13
256.784	4.78
257	-21.85
257.217	115.37
257.433	-32.08
257.65	45.74
257.866	94.89
258.082	-7.51
258.299	15.02
258.515	37.55
258.732	74.41
258.948	-27.99
259.165	37.55
259.381	15.02
259.597	72.36
259.814	31.4
260.03	117.42
260.246	21.16
260.463	86.7
260.679	148.14
260.895	21.16
261.112	37.55
261.328	12.97
261.544	10.92
261.761	133.8
261.977	55.98
262.193	-30.04
262.409	58.03
262.626	-7.51
262.842	-11.61
263.058	29.35
263.274	47.79
263.49	68.27
263.707	58.03
263.923	62.12
264.139	-27.99
264.355	41.64
264.571	74.41
264.787	-71
265.004	-3.41
265.22	29.35
265.436	70.31
265.652	62.12
265.868	82.6
266.084	15.02
266.3	78.51
266.516	-68.95
266.732	58.03
266.948	37.55
267.164	-19.8
267.38	8.87
267.596	21.16
267.812	109.22
268.028	35.5
268.244	31.4
268.46	62.12
268.676	29.35
268.892	-5.46
269.108	94.89
269.324	31.4
269.54	4.78
269.756	29.35
269.972	-1.37
270.188	35.5
270.403	-3.41
270.619	-23.89
270.835	103.08
271.051	29.35
271.267	4.78
271.483	78.51
271.698	49.83
271.914	105.13
272.13	17.07
272.346	31.4
272.562	8.87
272.777	94.89
272.993	68.27
273.209	21.16
273.425	25.26
273.64	-34.13
273.856	37.55
274.072	39.59
274.287	25.26
274.503	103.08
274.719	29.35
274.934	49.83
275.15	70.31
275.366	68.27
275.581	80.55
275.797	-11.61
276.012	12.97
276.228	37.55
276.444	39.59
276.659	86.7
276.875	-23.89
277.09	113.32
277.306	47.79
277.521	103.08
277.737	49.83
277.952	80.55
278.168	29.35
278.383	4.78
278.599	17.07
278.814	115.37
279.03	-56.66
279.245	125.61
279.461	47.79
279.676	4.78
279.892	-17.75
280.107	-9.56
280.322	-7.51
280.538	49.83
280.753	-17.75
280.969	78.51
281.184	-5.46
281.399	113.32
281.615	45.74
281.83	-3.41
282.045	-52.56
282.26	51.88
282.476	78.51
282.691	152.23
282.906	43.69
283.122	53.93
283.337	-73.04
283.552	47.79
283.767	-30.04
283.983	39.59
284.198	70.31
284.413	51.88
284.628	4.78
284.843	35.5
285.058	88.75
285.274	53.93
285.489	10.92
285.704	31.4
285.919	-50.52
286.134	8.87
286.349	23.21
286.564	-64.85
286.779	103.08
286.995	55.98
287.21	-7.51
287.425	53.93
287.64	17.07
287.855	25.26
288.07	55.98
288.285	86.7
288.5	41.64
288.715	86.7
288.93	-3.41
289.145	0.68
289.36	33.45
289.575	41.64
289.79	94.89
290.004	17.07
290.219	29.35
290.434	-3.41
290.649	-7.51
290.864	-11.61
291.079	62.12
291.294	76.46
291.509	39.59
291.724	107.18
291.938	98.99
292.153	74.41
292.368	-50.52
292.583	-1.37
292.798	27.31
293.012	39.59
293.227	29.35
293.442	12.97
293.657	47.79
293.871	86.7
294.086	37.55
294.301	94.89
294.516	49.83
294.73	-52.56
294.945	0.68
295.16	80.55
295.374	49.83
295.589	62.12
295.804	-3.41
296.018	80.55
296.233	78.51
296.447	53.93
296.662	29.35
296.877	-32.08
297.091	29.35
297.306	86.7
297.52	37.55
297.735	-9.56
297.949	55.98
298.164	86.7
298.378	-1.37
298.593	39.59
298.807	80.55
299.022	25.26
299.236	45.74
299.451	62.12
299.665	-15.7
299.88	107.18
300.094	84.65
300.309	72.36
300.523	23.21
300.737	62.12
300.952	49.83
301.166	96.94
301.381	-19.8
301.595	39.59
301.809	25.26
302.024	-44.37
302.238	-3.41
302.452	70.31
302.667	53.93
302.881	31.4
303.095	58.03
303.309	21.16
303.524	-25.94
303.738	64.17
303.952	12.97
304.166	70.31
304.381	-17.75
304.595	68.27
304.809	-1.37
305.023	47.79
305.237	-3.41
305.452	23.21
305.666	45.74
305.88	64.17
306.094	-7.51
306.308	86.7
306.522	86.7
306.736	-13.65
306.95	51.88
307.164	62.12
307.379	33.45
307.593	70.31
307.807	62.12
308.021	55.98
308.235	23.21
308.449	6.83
308.663	58.03
308.877	111.27
309.091	33.45
309.305	55.98
309.519	-7.51
309.733	10.92
309.947	29.35
310.161	80.55
310.374	19.11
310.588	29.35
310.802	-3.41
311.016	-11.61
311.23	35.5
311.444	96.94
311.658	64.17
311.872	70.31
312.085	-13.65
312.299	78.51
312.513	137.9
312.727	31.4
312.941	0.68
313.154	35.5
313.368	62.12
313.582	-3.41
313.796	21.16
314.009	12.97
314.223	62.12
314.437	37.55
314.651	45.74
314.864	70.31
315.078	21.16
315.292	4.78
315.505	21.16
315.719	17.07
315.933	70.31
316.146	-1.37
316.36	41.64
316.573	45.74
316.787	-17.75
317.001	60.07
317.214	-19.8
317.428	53.93
317.641	-3.41
317.855	45.74
318.068	49.83
318.282	37.55
318.495	72.36
318.709	164.52
318.922	76.46
319.136	123.56
319.349	47.79
319.563	66.22
319.776	72.36
319.99	19.11
320.203	58.03
320.417	72.36
320.63	74.41
320.843	4.78
321.057	10.92
321.27	39.59
321.483	-17.75
321.697	-11.61
321.91	33.45
322.124	78.51
322.337	31.4
322.55	-54.61
322.763	103.08
322.977	17.07
323.19	6.83
323.403	49.83
323.617	43.69
323.83	31.4
324.043	8.87
324.256	111.27
324.469	-13.65
324.683	96.94
324.896	29.35
325.109	41.64
325.322	53.93
325.535	86.7
325.748	37.55
325.962	39.59
326.175	82.6
326.388	82.6
326.601	-7.51
326.814	47.79
327.027	6.83
327.24	74.41
327.453	-40.28
327.666	-3.41
327.879	60.07
328.092	107.18
328.305	10.92
328.518	49.83
328.731	31.4
328.944	23.21
329.157	58.03
329.37	37.55
329.583	117.42
329.796	58.03
330.009	21.16
330.222	37.55
330.435	25.26
330.648	37.55
330.861	98.99
331.073	33.45
331.286	64.17
331.499	88.75
331.712	94.89
331.925	-27.99
332.138	105.13
332.35	88.75
332.563	-9.56
332.776	-5.46
332.989	-19.8
333.202	-5.46
333.414	45.74
333.627	15.02
333.84	121.51
334.053	45.74
334.265	70.31
334.478	45.74
334.691	64.17
334.903	39.59
335.116	0.68
335.329	31.4
335.541	-15.7
335.754	135.85
335.966	21.16
336.179	27.31
336.392	70.31
336.604	43.69
336.817	86.7
337.029	121.51
337.242	58.03
337.454	37.55
337.667	53.93
337.88	58.03
338.092	80.55
338.305	96.94
338.517	62.12
338.729	55.98
338.942	64.17
339.154	-19.8
339.367	-34.13
339.579	88.75
339.792	41.64
340.004	78.51
340.217	21.16
340.429	-9.56
340.641	58.03
340.854	25.26
341.066	-3.41
341.278	82.6
341.491	72.36
341.703	45.74
341.915	-19.8
342.128	127.66
342.34	-9.56
342.552	70.31
342.764	4.78
342.977	94.89
343.189	-3.41
343.401	111.27
343.613	70.31
343.826	76.46
344.038	62.12
344.25	74.41
344.462	-25.94
344.674	98.99
344.886	39.59
345.099	43.69
345.311	39.59
345.523	70.31
345.735	29.35
345.947	29.35
346.159	21.16
346.371	15.02
346.583	60.07
346.795	135.85
347.007	70.31
347.219	119.46
347.431	25.26
347.643	109.22
347.855	0.68
348.067	55.98
348.279	-1.37
348.491	58.03
348.703	78.51
348.915	47.79
349.127	58.03
349.339	62.12
349.551	23.21
349.763	80.55
349.975	72.36
350.187	68.27
350.399	51.88
350.61	92.84
350.822	58.03
351.034	96.94
351.246	47.79
351.458	78.51
351.669	-3.41
351.881	10.92
352.093	94.89
352.305	86.7
352.517	60.07
352.728	88.75
352.94	29.35
353.152	37.55
353.363	41.64
353.575	-17.75
353.787	64.17
353.999	139.94
354.21	37.55
354.422	62.12
354.633	19.11
354.845	53.93
355.057	58.03
355.268	17.07
355.48	47.79
355.692	4.78
355.903	-46.42
356.115	29.35
356.326	-91.48
356.538	86.7
356.749	84.65
356.961	31.4
357.172	53.93
357.384	6.83
357.595	58.03
357.807	8.87
358.018	53.93
358.23	45.74
358.441	80.55
358.653	-38.23
358.864	21.16
359.075	58.03
359.287	43.69
359.498	115.37
359.709	78.51
359.921	-11.61
360.132	-13.65
360.344	33.45
360.555	72.36
360.766	72.36
360.977	-56.66
361.189	66.22
361.4	6.83
361.611	25.26
361.823	66.22
362.034	41.64
362.245	53.93
362.456	41.64
362.667	45.74
362.879	90.79
363.09	6.83
363.301	66.22
363.512	68.27
363.723	25.26
363.935	111.27
364.146	35.5
364.357	-3.41
364.568	107.18
364.779	-1.37
364.99	23.21
365.201	17.07
365.412	53.93
365.623	25.26
365.834	68.27
366.045	39.59
366.256	90.79
366.467	12.97
366.678	76.46
366.889	35.5
367.1	23.21
367.311	98.99
367.522	-11.61
367.733	10.92
367.944	80.55
368.155	78.51
368.366	49.83
368.577	105.13
368.788	86.7
368.999	64.17
369.209	90.79
369.42	139.94
369.631	146.09
369.842	78.51
370.053	72.36
370.264	90.79
370.474	2.73
370.685	53.93
370.896	78.51
371.107	41.64
371.317	119.46
371.528	25.26
371.739	55.98
371.95	53.93
372.16	80.55
372.371	90.79
372.582	8.87
372.792	113.32
373.003	25.26
373.214	6.83
373.424	86.7
373.635	80.55
373.846	135.85
374.056	23.21
374.267	49.83
374.477	88.75
374.688	55.98
374.898	94.89
375.109	49.83
375.319	45.74
375.53	103.08
375.74	80.55
375.951	53.93
376.161	58.03
376.372	55.98
376.582	39.59
376.793	66.22
377.003	15.02
377.214	6.83
377.424	80.55
377.635	111.27
377.845	25.26
378.055	158.38
378.266	45.74
378.476	82.6
378.686	62.12
378.897	86.7
379.107	135.85
379.317	39.59
379.528	23.21
379.738	62.12
379.948	23.21
380.158	62.12
380.369	47.79
380.579	88.75
380.789	127.66
380.999	127.66
381.21	45.74
381.42	144.04
381.63	-66.9
381.84	66.22
382.05	58.03
382.261	90.79
382.471	25.26
382.681	12.97
382.891	160.42
383.101	53.93
383.311	47.79
383.521	88.75
383.731	103.08
383.941	72.36
384.151	23.21
384.361	-15.7
384.571	49.83
384.781	53.93
384.991	107.18
385.201	154.28
385.411	29.35
385.621	45.74
385.831	23.21
386.041	115.37
386.251	72.36
386.461	47.79
386.671	45.74
386.881	123.56
387.091	117.42
387.301	111.27
387.511	31.4
387.72	74.41
387.93	55.98
388.14	78.51
388.35	92.84
388.56	82.6
388.769	107.18
388.979	62.12
389.189	29.35
389.399	23.21
389.609	135.85
389.818	187.05
390.028	74.41
390.238	94.89
390.447	-1.37
390.657	119.46
390.867	12.97
391.076	45.74
391.286	90.79
391.496	76.46
391.705	111.27
391.915	119.46
392.125	90.79
392.334	53.93
392.544	141.99
392.753	78.51
392.963	29.35
393.172	127.66
393.382	70.31
393.591	127.66
393.801	0.68
394.01	121.51
394.22	33.45
394.429	53.93
394.639	64.17
394.848	123.56
395.058	35.5
395.267	119.46
395.477	111.27
395.686	160.42
395.895	119.46
396.105	187.05
396.314	107.18
396.524	144.04
396.733	115.37
396.942	135.85
397.152	68.27
397.361	158.38
397.57	115.37
397.78	129.7
397.989	80.55
398.198	203.43
398.407	37.55
398.617	137.9
398.826	70.31
399.035	137.9
399.244	129.7
399.453	103.08
399.663	131.75
399.872	139.94
400.081	53.93
400.29	193.19
400.499	152.23
400.708	111.27
400.917	86.7
401.127	78.51
401.336	88.75
401.545	291.49
401.754	193.19
401.963	109.22
402.172	168.62
402.381	80.55
402.59	76.46
402.799	127.66
403.008	164.52
403.217	152.23
403.426	129.7
403.635	209.58
403.844	127.66
404.053	101.03
404.262	127.66
404.471	154.28
404.68	164.52
404.888	166.57
405.097	119.46
405.306	201.38
405.515	144.04
405.724	160.42
405.933	275.11
406.142	174.76
406.35	262.82
406.559	246.44
406.768	172.71
406.977	297.64
407.185	144.04
407.394	299.69
407.603	172.71
407.812	271.01
408.02	250.53
408.229	238.25
408.438	244.39
408.646	240.29
408.855	316.07
409.064	275.11
409.272	275.11
409.481	373.41
409.69	309.93
409.898	340.65
410.107	361.13
410.315	404.13
410.524	363.17
410.733	467.62
410.941	328.36
411.15	410.28
411.358	516.77
411.567	514.72
411.775	479.91
411.984	500.39
412.192	391.84
412.401	498.34
412.609	602.79
412.818	656.03
413.026	590.5
413.234	604.83
413.443	574.11
413.651	627.36
413.86	635.55
414.068	725.66
414.276	744.1
414.485	656.03
414.693	715.42
414.901	778.91
415.11	866.97
415.318	799.39
415.526	791.2
415.734	963.23
415.943	965.28
416.151	1065.63
416.359	1002.14
416.567	1063.58
416.776	1061.53
416.984	1094.3
417.192	1151.64
417.4	1055.39
417.608	1127.07
417.817	1211.03
418.025	1249.94
418.233	1352.34
418.441	1282.71
418.649	1401.49
418.857	1471.12
419.065	1469.08
419.273	1483.41
419.481	1487.51
419.689	1727.12
419.897	1716.88
420.105	1780.37
420.313	1718.93
420.521	1907.34
420.729	1966.73
420.937	1979.02
421.145	2022.03
421.353	2093.71
421.561	2167.43
421.769	2294.41
421.977	2460.29
422.185	2235.02
422.393	2445.96
422.601	2568.84
422.809	2585.22
423.017	2540.16
423.224	2693.76
423.432	2792.06
423.64	2896.51
423.848	3168.89
424.056	3031.68
424.263	3086.97
424.471	3259
424.679	3297.91
424.887	3463.8
425.094	3623.54
425.302	3666.55
425.51	3723.89
425.718	3828.34
425.925	3924.59
426.133	3961.45
426.341	4319.85
426.548	4516.45
426.756	4412.01
426.964	4528.74
427.171	4627.04
427.379	5005.92
427.586	4993.63
427.794	5003.87
428.001	5376.6
428.209	5644.88
428.417	5685.84
428.624	5870.16
428.832	5812.82
429.039	5943.89
429.247	5853.78
429.454	6279.75
429.662	6863.43
429.869	6345.29
430.076	6797.89
430.284	6591.05
430.491	7008.83
430.699	7299.64
430.906	7281.21
431.114	7191.1
431.321	7541.3
431.528	7590.45
431.736	8266.28
431.943	8581.67
432.15	8389.16
432.358	8409.64
432.565	8901.15
432.772	8788.52
432.979	9413.15
433.187	9523.74
433.394	9533.98
433.601	10244.62
433.808	10441.23
434.016	10174.99
434.223	10570.25
434.43	11495.93
434.637	10940.93
434.844	11819.51
435.052	11637.24
435.259	11862.52
435.466	11907.57
435.673	11893.24
435.88	12442.09
436.087	13369.82
436.294	13214.18
436.501	12896.74
436.708	13142.5
436.915	13476.32
437.122	14266.83
437.329	14086.61
437.537	14703.05
437.743	14721.48
437.95	14660.04
438.157	15571.39
438.364	15966.65
438.571	15962.55
438.778	15958.46
438.985	17607.07
439.192	16734.64
439.399	17306.02
439.606	16892.33
439.813	17752.48
440.02	18893.19
440.227	18430.35
440.433	18788.75
440.64	18874.76
440.847	18751.88
441.054	19499.39
441.261	20666.74
441.467	20361.59
441.674	20861.29
441.881	21393.76
442.088	21590.37
442.294	21361
442.501	21754.21
442.708	22323.54
442.914	23177.54
443.121	24015.16
443.328	23232.84
443.534	24969.52
443.741	24336.7
443.948	24117.56
444.154	26110.24
444.361	25452.84
444.568	26007.84
444.774	25942.3
444.981	26290.46
445.187	26767.63
445.394	27947.26
445.6	27672.84
445.807	30314.72
446.013	29106.41
446.22	29624.55
446.426	30779.6
446.633	30957.78
446.839	31871.17
447.046	30763.22
447.252	32159.94
447.459	32352.44
447.665	32454.84
447.871	33380.53
448.078	35045.52
448.284	33304.75
448.491	34529.44
448.697	35672.2
448.903	36280.45
449.11	36726.91
449.316	35819.66
449.522	36243.59
449.728	37185.65
449.935	37759.08
450.141	37609.58
450.347	38330.47
450.553	37179.51
450.76	37576.81
450.966	39346.26
451.172	38561.89
451.378	39612.49
451.584	38670.43
451.791	39506
451.997	39561.29
452.203	40441.92
452.409	40294.47
452.615	40101.96
452.821	38160.48
453.027	38015.08
453.233	39845.96
453.44	38418.53
453.646	38821.98
453.852	38914.14
454.058	39272.53
454.264	38285.41
454.47	39571.53
454.676	38305.89
454.882	39807.05
455.088	35889.29
455.294	36702.33
455.5	37009.53
455.705	37443.7
455.911	36014.21
456.117	35623.05
456.323	34685.08
456.529	32856.25
456.735	34447.52
456.941	33611.95
457.147	32841.91
457.352	31817.93
457.558	31527.11
457.764	31785.16
457.97	30804.18
458.176	30374.11
458.381	30312.67
458.587	29212.91
458.793	28866.8
458.999	27281.67
459.204	29540.58
459.41	28367.1
459.616	26536.21
459.821	26724.63
460.027	26200.35
460.233	25725.22
460.438	24772.91
460.644	24797.49
460.85	23808.32
461.055	23353.67
461.261	23251.27
461.466	21508.45
461.672	20787.57
461.878	22548.82
462.083	21111.14
462.289	20644.21
462.494	20117.88
462.7	19415.43
462.905	18821.52
463.111	19440
463.316	19454.34
463.522	19194.25
463.727	19059.08
463.932	19075.46
464.138	18971.02
464.343	18989.45
464.549	18235.8
464.754	18942.35
464.959	18798.99
465.165	18684.3
465.37	17861.02
465.575	17224.1
465.781	18028.95
465.986	18213.27
466.191	17396.13
466.397	17066.41
466.602	16185.78
466.807	16910.76
467.012	16843.18
