Data from USB4F104151__105__14-31-03-639.txt Node

Date: Thu Mar 13 14:31:03 EDT 2025
User: louis
Spectrometer: USB4F10415
Trigger mode: 4
Integration Time (sec): 2.500000E-2
Scans to average: 1
Electric dark correction enabled: true
Nonlinearity correction enabled: false
Boxcar width: 0
XAxis mode: Wavelengths
Number of Pixels in Spectrum: 3648
>>>>>Begin Spectral Data<<<<<
178.204	-166.4
178.424	-166.4
178.644	-166.4
178.864	-127.49
179.084	-139.77
179.304	-43.52
179.524	-6.66
179.744	-90.62
179.964	69.12
180.184	-10.75
180.404	-6.66
180.624	34.3
180.844	17.92
181.064	-51.71
181.283	32.26
181.503	-31.23
181.723	87.55
181.943	73.21
182.163	30.21
182.383	-8.7
182.602	71.17
182.822	-10.75
183.042	-33.28
183.262	17.92
183.482	-43.52
183.701	54.78
183.921	52.74
184.141	-2.56
184.361	46.59
184.58	9.73
184.8	13.82
185.02	5.63
185.239	38.4
185.459	-35.33
185.679	79.36
185.898	38.4
186.118	87.55
186.338	-43.52
186.557	87.55
186.777	11.78
186.997	-8.7
187.216	48.64
187.436	17.92
187.655	36.35
187.875	44.54
188.095	15.87
188.314	93.69
188.534	56.83
188.753	40.45
188.973	-51.71
189.192	62.98
189.412	26.11
189.631	28.16
189.851	62.98
190.07	42.5
190.29	-23.04
190.509	-49.66
190.729	46.59
190.948	30.21
191.168	146.94
191.387	58.88
191.607	95.74
191.826	95.74
192.045	-27.14
192.265	15.87
192.484	-25.09
192.704	-33.28
192.923	-33.28
193.142	136.7
193.362	71.17
193.581	32.26
193.8	34.3
194.02	5.63
194.239	28.16
194.458	48.64
194.678	24.06
194.897	-104.96
195.116	32.26
195.335	-23.04
195.555	91.65
195.774	101.89
195.993	15.87
196.212	26.11
196.432	32.26
196.651	-18.94
196.87	-35.33
197.089	93.69
197.308	46.59
197.528	-8.7
197.747	-43.52
197.966	13.82
198.185	65.02
198.404	-27.14
198.623	56.83
198.842	-35.33
199.062	38.4
199.281	62.98
199.5	30.21
199.719	128.51
199.938	97.79
200.157	17.92
200.376	32.26
200.595	26.11
200.814	-18.94
201.033	-23.04
201.252	77.31
201.471	81.41
201.69	42.5
201.909	-6.66
202.128	56.83
202.347	40.45
202.566	19.97
202.785	62.98
203.004	91.65
203.223	73.21
203.442	73.21
203.661	-57.86
203.879	50.69
204.098	52.74
204.317	-33.28
204.536	-16.9
204.755	-23.04
204.974	54.78
205.193	7.68
205.411	87.55
205.63	26.11
205.849	38.4
206.068	24.06
206.287	124.41
206.505	85.5
206.724	-68.09
206.943	-6.66
207.162	-23.04
207.381	48.64
207.599	87.55
207.818	11.78
208.037	9.73
208.255	54.78
208.474	-16.9
208.693	52.74
208.911	7.68
209.13	54.78
209.349	-4.61
209.567	7.68
209.786	24.06
210.005	24.06
210.223	22.02
210.442	5.63
210.661	-20.99
210.879	-23.04
211.098	-14.85
211.316	13.82
211.535	26.11
211.753	-4.61
211.972	-16.9
212.191	56.83
212.409	-6.66
212.628	95.74
212.846	-18.94
213.065	130.56
213.283	-0.51
213.502	50.69
213.72	24.06
213.938	-35.33
214.157	42.5
214.375	-8.7
214.594	5.63
214.812	34.3
215.031	7.68
215.249	71.17
215.467	-6.66
215.686	26.11
215.904	103.93
216.122	11.78
216.341	71.17
216.559	54.78
216.778	81.41
216.996	81.41
217.214	30.21
217.432	-12.8
217.651	-37.38
217.869	-2.56
218.087	38.4
218.306	-10.75
218.524	81.41
218.742	19.97
218.96	108.03
219.179	-18.94
219.397	-18.94
219.615	67.07
219.833	67.07
220.051	30.21
220.27	38.4
220.488	22.02
220.706	50.69
220.924	42.5
221.142	5.63
221.36	58.88
221.578	50.69
221.796	44.54
222.015	1.54
222.233	19.97
222.451	30.21
222.669	-4.61
222.887	54.78
223.105	-23.04
223.323	46.59
223.541	-49.66
223.759	62.98
223.977	-41.47
224.195	67.07
224.413	-29.18
224.631	99.84
224.849	32.26
225.067	112.13
225.285	-20.99
225.503	15.87
225.721	1.54
225.939	15.87
226.157	13.82
226.375	114.17
226.592	-51.71
226.81	1.54
227.028	-6.66
227.246	91.65
227.464	-18.94
227.682	120.32
227.9	40.45
228.117	-14.85
228.335	13.82
228.553	11.78
228.771	73.21
228.989	15.87
229.206	-37.38
229.424	22.02
229.642	58.88
229.86	-47.62
230.077	-10.75
230.295	3.58
230.513	138.75
230.731	42.5
230.948	38.4
231.166	85.5
231.384	87.55
231.601	-35.33
231.819	103.93
232.037	-92.67
232.254	15.87
232.472	-18.94
232.689	52.74
232.907	46.59
233.125	54.78
233.342	50.69
233.56	-82.43
233.777	19.97
233.995	1.54
234.213	17.92
234.43	5.63
234.648	73.21
234.865	71.17
235.083	56.83
235.3	19.97
235.518	87.55
235.735	46.59
235.953	91.65
236.17	-6.66
236.388	7.68
236.605	50.69
236.822	124.41
237.04	54.78
237.257	24.06
237.475	1.54
237.692	38.4
237.909	-14.85
238.127	17.92
238.344	-10.75
238.562	108.03
238.779	-25.09
238.996	1.54
239.214	32.26
239.431	71.17
239.648	50.69
239.865	105.98
240.083	30.21
240.3	48.64
240.517	-8.7
240.735	87.55
240.952	32.26
241.169	108.03
241.386	48.64
241.603	7.68
241.821	19.97
242.038	56.83
242.255	1.54
242.472	28.16
242.689	30.21
242.907	85.5
243.124	15.87
243.341	-2.56
243.558	-18.94
243.775	-31.23
243.992	-20.99
244.209	-33.28
244.426	83.45
244.643	44.54
244.86	30.21
245.078	77.31
245.295	62.98
245.512	-6.66
245.729	-82.43
245.946	120.32
246.163	48.64
246.38	-0.51
246.597	54.78
246.814	36.35
247.031	-18.94
247.248	7.68
247.464	-2.56
247.681	50.69
247.898	-0.51
248.115	116.22
248.332	30.21
248.549	30.21
248.766	142.85
248.983	32.26
249.2	15.87
249.417	128.51
249.633	13.82
249.85	79.36
250.067	-51.71
250.284	30.21
250.501	87.55
250.717	-39.42
250.934	-33.28
251.151	54.78
251.368	-51.71
251.585	122.37
251.801	-18.94
252.018	-39.42
252.235	24.06
252.451	28.16
252.668	54.78
252.885	30.21
253.102	13.82
253.318	9.73
253.535	-2.56
253.752	75.26
253.968	15.87
254.185	-2.56
254.401	54.78
254.618	24.06
254.835	-10.75
255.051	-0.51
255.268	-18.94
255.484	73.21
255.701	17.92
255.917	46.59
256.134	-74.24
256.351	13.82
256.567	34.3
256.784	89.6
257	-2.56
257.217	-2.56
257.433	54.78
257.65	48.64
257.866	17.92
258.082	19.97
258.299	15.87
258.515	99.84
258.732	34.3
258.948	-25.09
259.165	71.17
259.381	-16.9
259.597	69.12
259.814	-2.56
260.03	79.36
260.246	-2.56
260.463	91.65
260.679	71.17
260.895	15.87
261.112	5.63
261.328	-8.7
261.544	30.21
261.761	46.59
261.977	40.45
262.193	-18.94
262.409	13.82
262.626	79.36
262.842	34.3
263.058	-2.56
263.274	103.93
263.49	62.98
263.707	32.26
263.923	81.41
264.139	46.59
264.355	3.58
264.571	32.26
264.787	34.3
265.004	-0.51
265.22	26.11
265.436	60.93
265.652	79.36
265.868	56.83
266.084	13.82
266.3	22.02
266.516	9.73
266.732	48.64
266.948	52.74
267.164	17.92
267.38	124.41
267.596	87.55
267.812	54.78
268.028	128.51
268.244	7.68
268.46	-10.75
268.676	-23.04
268.892	38.4
269.108	-14.85
269.324	-45.57
269.54	-14.85
269.756	65.02
269.972	1.54
270.188	65.02
270.403	38.4
270.619	15.87
270.835	38.4
271.051	65.02
271.267	22.02
271.483	54.78
271.698	44.54
271.914	54.78
272.13	26.11
272.346	-25.09
272.562	91.65
272.777	38.4
272.993	-6.66
273.209	-6.66
273.425	40.45
273.64	79.36
273.856	34.3
274.072	-18.94
274.287	26.11
274.503	36.35
274.719	13.82
274.934	-27.14
275.15	-10.75
275.366	62.98
275.581	-37.38
275.797	34.3
276.012	-20.99
276.228	1.54
276.444	9.73
276.659	153.09
276.875	-35.33
277.09	-6.66
277.306	-23.04
277.521	7.68
277.737	22.02
277.952	32.26
278.168	71.17
278.383	-8.7
278.599	122.37
278.814	73.21
279.03	26.11
279.245	118.27
279.461	13.82
279.676	13.82
279.892	-10.75
280.107	46.59
280.322	38.4
280.538	79.36
280.753	79.36
280.969	42.5
281.184	-82.43
281.399	91.65
281.615	-2.56
281.83	95.74
282.045	-29.18
282.26	-2.56
282.476	1.54
282.691	128.51
282.906	24.06
283.122	-2.56
283.337	46.59
283.552	56.83
283.767	-8.7
283.983	130.56
284.198	-39.42
284.413	56.83
284.628	-0.51
284.843	-10.75
285.058	79.36
285.274	30.21
285.489	15.87
285.704	103.93
285.919	13.82
286.134	26.11
286.349	-35.33
286.564	-0.51
286.779	62.98
286.995	24.06
287.21	24.06
287.425	-10.75
287.64	-49.66
287.855	3.58
288.07	-29.18
288.285	26.11
288.5	7.68
288.715	38.4
288.93	5.63
289.145	48.64
289.36	65.02
289.575	22.02
289.79	71.17
290.004	5.63
290.219	95.74
290.434	122.37
290.649	9.73
290.864	-27.14
291.079	-2.56
291.294	7.68
291.509	40.45
291.724	-2.56
291.938	-59.9
292.153	-2.56
292.368	1.54
292.583	46.59
292.798	48.64
293.012	-6.66
293.227	48.64
293.442	17.92
293.657	87.55
293.871	108.03
294.086	-18.94
294.301	79.36
294.516	40.45
294.73	65.02
294.945	48.64
295.16	46.59
295.374	91.65
295.589	26.11
295.804	42.5
296.018	46.59
296.233	46.59
296.447	54.78
296.662	5.63
296.877	13.82
297.091	-10.75
297.306	13.82
297.52	62.98
297.735	32.26
297.949	15.87
298.164	38.4
298.378	69.12
298.593	75.26
298.807	-37.38
299.022	-10.75
299.236	28.16
299.451	-10.75
299.665	22.02
299.88	32.26
300.094	-31.23
300.309	19.97
300.523	83.45
300.737	-35.33
300.952	-18.94
301.166	1.54
301.381	30.21
301.595	-10.75
301.809	3.58
302.024	9.73
302.238	7.68
302.452	24.06
302.667	95.74
302.881	38.4
303.095	99.84
303.309	-51.71
303.524	5.63
303.738	65.02
303.952	83.45
304.166	11.78
304.381	26.11
304.595	155.13
304.809	26.11
305.023	19.97
305.237	-0.51
305.452	54.78
305.666	17.92
305.88	5.63
306.094	67.07
306.308	65.02
306.522	38.4
306.736	62.98
306.95	-0.51
307.164	-49.66
307.379	-0.51
307.593	30.21
307.807	77.31
308.021	71.17
308.235	-0.51
308.449	-6.66
308.663	-16.9
308.877	112.13
309.091	79.36
309.305	54.78
309.519	81.41
309.733	71.17
309.947	81.41
310.161	93.69
310.374	87.55
310.588	54.78
310.802	-0.51
311.016	83.45
311.23	13.82
311.444	-6.66
311.658	81.41
311.872	85.5
312.085	62.98
312.299	69.12
312.513	38.4
312.727	71.17
312.941	32.26
313.154	103.93
313.368	28.16
313.582	87.55
313.796	58.88
314.009	62.98
314.223	87.55
314.437	58.88
314.651	87.55
314.864	13.82
315.078	60.93
315.292	-23.04
315.505	-2.56
315.719	65.02
315.933	79.36
316.146	-10.75
316.36	-49.66
316.573	81.41
316.787	-10.75
317.001	-10.75
317.214	-2.56
317.428	26.11
317.641	-37.38
317.855	50.69
318.068	38.4
318.282	32.26
318.495	54.78
318.709	22.02
318.922	24.06
319.136	50.69
319.349	69.12
319.563	44.54
319.776	26.11
319.99	-23.04
320.203	122.37
320.417	17.92
320.63	-16.9
320.843	50.69
321.057	-39.42
321.27	24.06
321.483	38.4
321.697	3.58
321.91	81.41
322.124	73.21
322.337	87.55
322.55	-6.66
322.763	17.92
322.977	22.02
323.19	-27.14
323.403	62.98
323.617	-27.14
323.83	108.03
324.043	-29.18
324.256	85.5
324.469	-0.51
324.683	54.78
324.896	17.92
325.109	-27.14
325.322	13.82
325.535	50.69
325.748	-6.66
325.962	32.26
326.175	65.02
326.388	24.06
326.601	54.78
326.814	30.21
327.027	73.21
327.24	54.78
327.453	13.82
327.666	54.78
327.879	105.98
328.092	22.02
328.305	5.63
328.518	54.78
328.731	-35.33
328.944	73.21
329.157	-0.51
329.37	-2.56
329.583	118.27
329.796	65.02
330.009	5.63
330.222	28.16
330.435	73.21
330.648	34.3
330.861	42.5
331.073	54.78
331.286	5.63
331.499	46.59
331.712	-0.51
331.925	58.88
332.138	38.4
332.35	79.36
332.563	62.98
332.776	38.4
332.989	9.73
333.202	-35.33
333.414	46.59
333.627	54.78
333.84	13.82
334.053	87.55
334.265	105.98
334.478	17.92
334.691	71.17
334.903	62.98
335.116	34.3
335.329	22.02
335.541	-2.56
335.754	58.88
335.966	24.06
336.179	-27.14
336.392	-23.04
336.604	81.41
336.817	15.87
337.029	24.06
337.242	44.54
337.454	48.64
337.667	42.5
337.88	67.07
338.092	32.26
338.305	34.3
338.517	26.11
338.729	36.35
338.942	130.56
339.154	5.63
339.367	-39.42
339.579	85.5
339.792	1.54
340.004	56.83
340.217	1.54
340.429	52.74
340.641	62.98
340.854	15.87
341.066	67.07
341.278	9.73
341.491	153.09
341.703	24.06
341.915	54.78
342.128	148.99
342.34	48.64
342.552	15.87
342.764	-25.09
342.977	54.78
343.189	79.36
343.401	40.45
343.613	-66.05
343.826	34.3
344.038	13.82
344.25	9.73
344.462	7.68
344.674	105.98
344.886	5.63
345.099	-8.7
345.311	30.21
345.523	65.02
345.735	-82.43
345.947	40.45
346.159	71.17
346.371	71.17
346.583	67.07
346.795	89.6
347.007	-6.66
347.219	19.97
347.431	-8.7
347.643	120.32
347.855	-29.18
348.067	62.98
348.279	-10.75
348.491	40.45
348.703	46.59
348.915	22.02
349.127	-39.42
349.339	46.59
349.551	-6.66
349.763	73.21
349.975	73.21
350.187	48.64
350.399	95.74
350.61	17.92
350.822	-27.14
351.034	40.45
351.246	73.21
351.458	22.02
351.669	62.98
351.881	140.8
352.093	24.06
352.305	97.79
352.517	-10.75
352.728	34.3
352.94	-10.75
353.152	54.78
353.363	44.54
353.575	54.78
353.787	148.99
353.999	46.59
354.21	97.79
354.422	30.21
354.633	46.59
354.845	75.26
355.057	79.36
355.268	79.36
355.48	46.59
355.692	-8.7
355.903	73.21
356.115	91.65
356.326	11.78
356.538	46.59
356.749	38.4
356.961	116.22
357.172	46.59
357.384	56.83
357.595	114.17
357.807	58.88
358.018	71.17
358.23	99.84
358.441	114.17
358.653	87.55
358.864	79.36
359.075	54.78
359.287	65.02
359.498	13.82
359.709	24.06
359.921	38.4
360.132	30.21
360.344	-18.94
360.555	-10.75
360.766	58.88
360.977	1.54
361.189	56.83
361.4	-12.8
361.611	99.84
361.823	42.5
362.034	42.5
362.245	-84.48
362.456	34.3
362.667	103.93
362.879	71.17
363.09	32.26
363.301	81.41
363.512	38.4
363.723	95.74
363.935	-25.09
364.146	62.98
364.357	62.98
364.568	46.59
364.779	-76.29
364.99	112.13
365.201	46.59
365.412	46.59
365.623	46.59
365.834	13.82
366.045	-49.66
366.256	73.21
366.467	79.36
366.678	30.21
366.889	56.83
367.1	83.45
367.311	67.07
367.522	38.4
367.733	7.68
367.944	73.21
368.155	15.87
368.366	-18.94
368.577	62.98
368.788	177.66
368.999	-53.76
369.209	-16.9
369.42	136.7
369.631	69.12
369.842	44.54
370.053	13.82
370.264	54.78
370.474	-10.75
370.685	-18.94
370.896	91.65
371.107	79.36
371.317	161.28
371.528	-49.66
371.739	67.07
371.95	48.64
372.16	71.17
372.371	5.63
372.582	-16.9
372.792	73.21
373.003	87.55
373.214	38.4
373.424	124.41
373.635	22.02
373.846	81.41
374.056	-55.81
374.267	58.88
374.477	103.93
374.688	22.02
374.898	13.82
375.109	38.4
375.319	75.26
375.53	171.52
375.74	3.58
375.951	13.82
376.161	46.59
376.372	62.98
376.582	-35.33
376.793	71.17
377.003	-25.09
377.214	-8.7
377.424	79.36
377.635	22.02
377.845	44.54
378.055	153.09
378.266	-51.71
378.476	15.87
378.686	54.78
378.897	71.17
379.107	114.17
379.317	83.45
379.528	-8.7
379.738	9.73
379.948	40.45
380.158	24.06
380.369	95.74
380.579	52.74
380.789	-23.04
380.999	42.5
381.21	1.54
381.42	34.3
381.63	17.92
381.84	79.36
382.05	101.89
382.261	99.84
382.471	46.59
382.681	-2.56
382.891	116.22
383.101	95.74
383.311	22.02
383.521	34.3
383.731	58.88
383.941	3.58
384.151	34.3
384.361	15.87
384.571	22.02
384.781	138.75
384.991	87.55
385.201	128.51
385.411	144.89
385.621	71.17
385.831	65.02
386.041	62.98
386.251	-47.62
386.461	67.07
386.671	36.35
386.881	62.98
387.091	87.55
387.301	81.41
387.511	30.21
387.72	81.41
387.93	103.93
388.14	30.21
388.35	56.83
388.56	65.02
388.769	24.06
388.979	71.17
389.189	46.59
389.399	50.69
389.609	105.98
389.818	169.47
390.028	24.06
390.238	30.21
390.447	30.21
390.657	62.98
390.867	38.4
391.076	-0.51
391.286	116.22
391.496	46.59
391.705	60.93
391.915	136.7
392.125	122.37
392.334	163.33
392.544	134.65
392.753	103.93
392.963	58.88
393.172	56.83
393.382	69.12
393.591	130.56
393.801	48.64
394.01	196.09
394.22	97.79
394.429	97.79
394.639	71.17
394.848	89.6
395.058	65.02
395.267	79.36
395.477	136.7
395.686	-10.75
395.895	99.84
396.105	177.66
396.314	48.64
396.524	32.26
396.733	73.21
396.942	185.85
397.152	89.6
397.361	95.74
397.57	60.93
397.78	71.17
397.989	112.13
398.198	105.98
398.407	71.17
398.617	91.65
398.826	130.56
399.035	91.65
399.244	54.78
399.453	101.89
399.663	144.89
399.872	189.95
400.081	40.45
400.29	187.9
400.499	71.17
400.708	148.99
400.917	126.46
401.127	161.28
401.336	200.19
401.545	161.28
401.754	105.98
401.963	148.99
402.172	144.89
402.381	89.6
402.59	155.13
402.799	87.55
403.008	218.62
403.217	187.9
403.426	108.03
403.635	105.98
403.844	222.72
404.053	179.71
404.262	194.05
404.471	194.05
404.68	179.71
404.888	226.81
405.097	198.14
405.306	144.89
405.515	253.44
405.724	218.62
405.933	237.05
406.142	269.82
406.35	222.72
406.559	122.37
406.768	235
406.977	278.01
407.185	304.64
407.394	267.77
407.603	232.96
407.812	308.73
408.02	316.92
408.229	206.33
408.438	304.64
408.646	155.13
408.855	273.92
409.064	275.96
409.272	255.48
409.481	390.65
409.69	310.78
409.898	398.84
410.107	392.7
410.315	304.64
410.524	427.51
410.733	472.57
410.941	327.16
411.15	423.42
411.358	433.66
411.567	513.53
411.775	464.38
411.984	513.53
412.192	644.6
412.401	491
412.609	677.37
412.818	630.26
413.026	640.5
413.234	691.7
413.443	646.65
413.651	630.26
413.86	734.71
414.068	808.44
414.276	861.68
414.485	734.71
414.693	794.1
414.901	865.78
415.11	880.11
415.318	853.49
415.526	839.16
415.734	949.75
415.943	951.79
416.151	1025.52
416.359	1017.33
416.567	1097.2
416.776	1170.93
416.984	1258.99
417.192	1218.03
417.4	1127.92
417.608	1250.8
417.817	1224.17
418.025	1410.54
418.233	1482.22
418.441	1332.72
418.649	1439.21
418.857	1572.33
419.065	1721.83
419.273	1584.62
419.481	1682.92
419.689	1795.56
419.897	1873.38
420.105	1924.58
420.313	1922.53
420.521	2008.55
420.729	2037.22
420.937	2166.24
421.145	2274.78
421.353	2287.07
421.561	2342.36
421.769	2479.58
421.977	2598.36
422.185	2618.84
422.393	2698.71
422.601	2909.65
422.809	2878.93
423.017	2659.8
423.224	3143.12
423.432	3196.37
423.64	2989.52
423.848	3315.15
424.056	3372.49
424.263	3712.46
424.471	3591.63
424.679	3593.67
424.887	3818.95
425.094	3859.91
425.302	4089.28
425.51	4038.08
425.718	4390.33
425.925	4269.5
426.133	4545.98
426.341	4734.39
426.548	4863.41
426.756	4914.61
426.964	5092.79
427.171	5309.87
427.379	5582.25
427.586	5471.66
427.794	5588.39
428.001	5809.58
428.209	6041
428.417	6028.71
428.624	6491.55
428.832	6428.06
429.039	6458.78
429.247	6399.39
429.454	6895
429.662	7427.47
429.869	7177.62
430.076	7591.31
430.284	7275.92
430.491	7695.75
430.699	8156.55
430.906	7914.89
431.114	8320.39
431.321	8566.14
431.528	8574.33
431.736	9172.34
431.943	9516.4
432.15	9227.64
432.358	9473.39
432.565	10075.49
432.772	10034.53
432.979	10360.16
433.187	10542.43
433.394	10839.39
433.601	11304.28
433.808	11500.88
434.016	11304.28
434.223	11908.43
434.43	12459.33
434.637	12246.34
434.844	13086.01
435.052	13434.16
435.259	13276.47
435.466	13454.64
435.673	13141.3
435.88	13944.11
436.087	14624.03
436.294	14748.96
436.501	14558.5
436.708	14675.23
436.915	15121.69
437.122	15709.46
437.329	15818
437.537	16313.61
437.743	16520.45
437.95	16446.73
438.157	17343.74
438.364	17765.62
438.571	17597.68
438.778	17966.32
438.985	19266.78
439.192	19049.69
439.399	19348.7
439.606	18945.25
439.813	20286.67
440.02	21179.58
440.227	20843.71
440.433	20956.35
440.64	21447.86
440.847	21114.05
441.054	21775.54
441.261	23045.28
441.467	22965.41
441.674	23493.79
441.881	24233.1
442.088	24050.83
442.294	23862.42
442.501	24591.5
442.708	24616.07
442.914	25957.49
443.121	26868.84
443.328	26434.67
443.534	28175.44
443.741	27685.98
443.948	27024.48
444.154	29103.17
444.361	28908.61
444.568	28972.1
444.774	28822.6
444.981	29019.21
445.187	30223.41
445.394	31476.77
445.6	30899.24
445.807	33735.68
446.013	32162.84
446.22	32857.1
446.426	34567.15
446.633	34585.58
446.839	35548.13
447.046	34249.72
447.252	36262.87
447.459	36254.68
447.665	36434.9
447.871	37751.74
448.078	39021.48
448.284	37397.45
448.491	38392.76
448.697	39639.97
448.903	40825.75
449.11	40432.54
449.316	40012.7
449.522	40891.28
449.728	41778.05
449.935	42156.92
450.141	41945.98
450.347	43240.3
450.553	41272.2
450.76	42142.59
450.966	43393.9
451.172	43111.28
451.378	44200.8
451.584	43217.77
451.791	44385.11
451.997	44159.84
452.203	44878.68
452.409	44983.12
452.615	44997.46
452.821	43109.23
453.027	42546.04
453.233	44694.36
453.44	43012.98
453.646	43379.56
453.852	43793.25
454.058	44376.92
454.264	42693.49
454.47	43729.76
454.676	43004.78
454.882	44239.71
455.088	40993.68
455.294	41137.04
455.5	41685.89
455.705	42066.81
455.911	40479.64
456.117	39791.52
456.323	38929.33
456.529	37331.91
456.735	38763.44
456.941	37917.63
457.147	37012.43
457.352	35916.76
457.558	35443.68
457.764	35982.3
457.97	35034.09
458.176	34202.61
458.381	34327.54
458.587	32611.34
458.793	32459.79
458.999	31208.48
459.204	33113.09
459.41	32287.76
459.616	30041.14
459.821	30354.48
460.027	30176.31
460.233	29340.74
460.438	28027.99
460.644	28267.6
460.85	26823.78
461.055	26569.83
461.261	26598.51
461.466	24548.49
461.672	23805.08
461.878	25527.42
462.083	23356.57
462.289	23317.66
462.494	22899.87
462.7	21920.95
462.905	21456.06
463.111	21970.1
463.316	22289.58
463.522	22006.96
463.727	21888.18
463.932	21576.89
464.138	21038.27
464.343	21822.64
464.549	20915.39
464.754	21931.19
464.959	21290.17
465.165	21122.24
465.37	20557
465.575	19598.55
465.781	20622.53
465.986	20448.46
466.191	19842.26
466.397	19535.06
466.602	18488.55
466.807	19377.37
