Data from USB4F104151__1__14-28-18-293.txt Node

Date: Thu Mar 13 14:28:18 EDT 2025
User: louis
Spectrometer: USB4F10415
Trigger mode: 4
Integration Time (sec): 2.500000E-2
Scans to average: 1
Electric dark correction enabled: true
Nonlinearity correction enabled: false
Boxcar width: 0
XAxis mode: Wavelengths
Number of Pixels in Spectrum: 3648
>>>>>Begin Spectral Data<<<<<
178.204	-166.91
178.424	-166.91
178.644	-166.91
178.864	-80.89
179.084	-154.62
179.304	-35.84
179.524	-5.12
179.744	29.7
179.964	58.37
180.184	41.98
180.404	-19.46
180.624	-44.03
180.844	23.55
181.064	-41.98
181.283	-7.17
181.503	-54.27
181.723	54.27
181.943	-23.55
182.163	46.08
182.383	-58.37
182.602	101.37
182.822	39.94
183.042	78.85
183.262	58.37
183.482	46.08
183.701	23.55
183.921	25.6
184.141	9.22
184.361	99.33
184.58	-9.22
184.8	109.57
185.02	33.79
185.239	117.76
185.459	37.89
185.679	89.09
185.898	-54.27
186.118	15.36
186.338	5.12
186.557	111.61
186.777	-33.79
186.997	23.55
187.216	48.13
187.436	37.89
187.655	93.18
187.875	-3.07
188.095	-41.98
188.314	70.65
188.534	21.5
188.753	44.03
188.973	21.5
189.192	82.94
189.412	39.94
189.631	78.85
189.851	58.37
190.07	117.76
190.29	50.18
190.509	21.5
190.729	27.65
190.948	164.86
191.168	185.34
191.387	154.62
191.607	-39.94
191.826	78.85
192.045	37.89
192.265	21.5
192.484	58.37
192.704	19.46
192.923	48.13
193.142	97.28
193.362	50.18
193.581	107.52
193.8	87.04
194.02	121.85
194.239	74.75
194.458	48.13
194.678	142.33
194.897	70.65
195.116	-11.26
195.335	-17.41
195.555	23.55
195.774	103.42
195.993	84.99
196.212	37.89
196.432	78.85
196.651	35.84
196.87	7.17
197.089	119.81
197.308	5.12
197.528	13.31
197.747	17.41
197.966	54.27
198.185	125.95
198.404	-27.65
198.623	84.99
198.842	87.04
199.062	64.51
199.281	95.23
199.5	23.55
199.719	48.13
199.938	105.47
200.157	52.22
200.376	46.08
200.595	107.52
200.814	84.99
201.033	21.5
201.252	50.18
201.471	-11.26
201.69	142.33
201.909	15.36
202.128	25.6
202.347	48.13
202.566	17.41
202.785	21.5
203.004	11.26
203.223	105.47
203.442	54.27
203.661	68.61
203.879	-27.65
204.098	54.27
204.317	87.04
204.536	113.66
204.755	33.79
204.974	37.89
205.193	50.18
205.411	130.05
205.63	62.46
205.849	130.05
206.068	74.75
206.287	21.5
206.505	70.65
206.724	15.36
206.943	-9.22
207.162	31.74
207.381	-5.12
207.599	37.89
207.818	15.36
208.037	52.22
208.255	33.79
208.474	48.13
208.693	191.49
208.911	37.89
209.13	21.5
209.349	39.94
209.567	64.51
209.786	113.66
210.005	72.7
210.223	54.27
210.442	-7.17
210.661	58.37
210.879	50.18
211.098	17.41
211.316	62.46
211.535	89.09
211.753	1.02
211.972	113.66
212.191	39.94
212.409	56.32
212.628	78.85
212.846	11.26
213.065	78.85
213.283	41.98
213.502	1.02
213.72	101.37
213.938	87.04
214.157	15.36
214.375	97.28
214.594	29.7
214.812	50.18
215.031	25.6
215.249	33.79
215.467	99.33
215.686	41.98
215.904	80.89
216.122	48.13
216.341	103.42
216.559	58.37
216.778	62.46
216.996	132.09
217.214	101.37
217.432	29.7
217.651	5.12
217.869	62.46
218.087	168.96
218.306	48.13
218.524	146.43
218.742	54.27
218.96	46.08
219.179	25.6
219.397	138.24
219.615	89.09
219.833	62.46
220.051	7.17
220.27	119.81
220.488	64.51
220.706	95.23
220.924	46.08
221.142	9.22
221.36	70.65
221.578	15.36
221.796	70.65
222.015	-33.79
222.233	9.22
222.451	91.13
222.669	13.31
222.887	91.13
223.105	50.18
223.323	121.85
223.541	111.61
223.759	87.04
223.977	25.6
224.195	111.61
224.413	91.13
224.631	35.84
224.849	31.74
225.067	183.29
225.285	58.37
225.503	50.18
225.721	-31.74
225.939	50.18
226.157	39.94
226.375	119.81
226.592	-84.99
226.81	87.04
227.028	152.57
227.246	97.28
227.464	95.23
227.682	99.33
227.9	37.89
228.117	1.02
228.335	89.09
228.553	13.31
228.771	50.18
228.989	48.13
229.206	148.48
229.424	87.04
229.642	66.56
229.86	48.13
230.077	111.61
230.295	56.32
230.513	64.51
230.731	82.94
230.948	76.8
231.166	93.18
231.384	78.85
231.601	9.22
231.819	107.52
232.037	17.41
232.254	-1.02
232.472	56.32
232.689	33.79
232.907	111.61
233.125	31.74
233.342	29.7
233.56	-54.27
233.777	48.13
233.995	109.57
234.213	121.85
234.43	107.52
234.648	5.12
234.865	95.23
235.083	31.74
235.3	48.13
235.518	66.56
235.735	103.42
235.953	111.61
236.17	19.46
236.388	13.31
236.605	37.89
236.822	89.09
237.04	33.79
237.257	23.55
237.475	-44.03
237.692	37.89
237.909	87.04
238.127	91.13
238.344	119.81
238.562	156.67
238.779	48.13
238.996	44.03
239.214	41.98
239.431	70.65
239.648	23.55
239.865	37.89
240.083	58.37
240.3	27.65
240.517	-11.26
240.735	41.98
240.952	105.47
241.169	111.61
241.386	64.51
241.603	41.98
241.821	46.08
242.038	115.71
242.255	39.94
242.472	11.26
242.689	82.94
242.907	93.18
243.124	-3.07
243.341	37.89
243.558	56.32
243.775	-5.12
243.992	9.22
244.209	78.85
244.426	189.44
244.643	33.79
244.86	128
245.078	72.7
245.295	87.04
245.512	35.84
245.729	93.18
245.946	29.7
246.163	103.42
246.38	33.79
246.597	68.61
246.814	46.08
247.031	105.47
247.248	132.09
247.464	87.04
247.681	46.08
247.898	21.5
248.115	105.47
248.332	-60.42
248.549	136.19
248.766	128
248.983	95.23
249.2	54.27
249.417	39.94
249.633	37.89
249.85	78.85
250.067	-1.02
250.284	58.37
250.501	72.7
250.717	119.81
250.934	74.75
251.151	62.46
251.368	5.12
251.585	78.85
251.801	15.36
252.018	1.02
252.235	29.7
252.451	-19.46
252.668	74.75
252.885	164.86
253.102	48.13
253.318	29.7
253.535	35.84
253.752	1.02
253.968	33.79
254.185	25.6
254.401	31.74
254.618	97.28
254.835	-25.6
255.051	37.89
255.268	25.6
255.484	105.47
255.701	37.89
255.917	62.46
256.134	31.74
256.351	54.27
256.567	62.46
256.784	64.51
257	82.94
257.217	93.18
257.433	74.75
257.65	5.12
257.866	80.89
258.082	41.98
258.299	29.7
258.515	146.43
258.732	54.27
258.948	58.37
259.165	91.13
259.381	56.32
259.597	41.98
259.814	46.08
260.03	29.7
260.246	5.12
260.463	60.42
260.679	21.5
260.895	111.61
261.112	160.77
261.328	50.18
261.544	82.94
261.761	70.65
261.977	-11.26
262.193	-5.12
262.409	99.33
262.626	54.27
262.842	-3.07
263.058	95.23
263.274	46.08
263.49	58.37
263.707	29.7
263.923	107.52
264.139	13.31
264.355	74.75
264.571	62.46
264.787	52.22
265.004	101.37
265.22	78.85
265.436	62.46
265.652	44.03
265.868	23.55
266.084	46.08
266.3	84.99
266.516	33.79
266.732	89.09
266.948	1.02
267.164	19.46
267.38	-35.84
267.596	56.32
267.812	160.77
268.028	82.94
268.244	54.27
268.46	13.31
268.676	39.94
268.892	62.46
269.108	72.7
269.324	95.23
269.54	62.46
269.756	148.48
269.972	66.56
270.188	7.17
270.403	3.07
270.619	74.75
270.835	15.36
271.051	111.61
271.267	50.18
271.483	101.37
271.698	74.75
271.914	-1.02
272.13	101.37
272.346	41.98
272.562	31.74
272.777	80.89
272.993	70.65
273.209	52.22
273.425	54.27
273.64	-9.22
273.856	128
274.072	99.33
274.287	7.17
274.503	140.29
274.719	46.08
274.934	58.37
275.15	3.07
275.366	80.89
275.581	95.23
275.797	103.42
276.012	52.22
276.228	33.79
276.444	19.46
276.659	103.42
276.875	-50.18
277.09	62.46
277.306	31.74
277.521	70.65
277.737	89.09
277.952	80.89
278.168	103.42
278.383	19.46
278.599	-27.65
278.814	78.85
279.03	9.22
279.245	95.23
279.461	13.31
279.676	76.8
279.892	56.32
280.107	39.94
280.322	3.07
280.538	17.41
280.753	64.51
280.969	66.56
281.184	19.46
281.399	113.66
281.615	70.65
281.83	46.08
282.045	17.41
282.26	46.08
282.476	41.98
282.691	41.98
282.906	66.56
283.122	103.42
283.337	111.61
283.552	103.42
283.767	-17.41
283.983	-3.07
284.198	9.22
284.413	74.75
284.628	-58.37
284.843	37.89
285.058	103.42
285.274	95.23
285.489	13.31
285.704	105.47
285.919	29.7
286.134	111.61
286.349	101.37
286.564	78.85
286.779	119.81
286.995	54.27
287.21	44.03
287.425	46.08
287.64	60.42
287.855	187.39
288.07	-82.94
288.285	115.71
288.5	140.29
288.715	113.66
288.93	17.41
289.145	21.5
289.36	128
289.575	46.08
289.79	44.03
290.004	121.85
290.219	95.23
290.434	54.27
290.649	74.75
290.864	99.33
291.079	68.61
291.294	46.08
291.509	93.18
291.724	91.13
291.938	70.65
292.153	46.08
292.368	82.94
292.583	7.17
292.798	-15.36
293.012	87.04
293.227	52.22
293.442	74.75
293.657	54.27
293.871	56.32
294.086	29.7
294.301	89.09
294.516	95.23
294.73	128
294.945	7.17
295.16	50.18
295.374	35.84
295.589	82.94
295.804	46.08
296.018	48.13
296.233	113.66
296.447	95.23
296.662	-1.02
296.877	48.13
297.091	29.7
297.306	21.5
297.52	37.89
297.735	76.8
297.949	62.46
298.164	54.27
298.378	62.46
298.593	5.12
298.807	15.36
299.022	11.26
299.236	70.65
299.451	-52.22
299.665	50.18
299.88	72.7
300.094	15.36
300.309	31.74
300.523	66.56
300.737	31.74
300.952	138.24
301.166	21.5
301.381	11.26
301.595	103.42
301.809	-31.74
302.024	-50.18
302.238	13.31
302.452	99.33
302.667	21.5
302.881	160.77
303.095	70.65
303.309	46.08
303.524	54.27
303.738	80.89
303.952	7.17
304.166	91.13
304.381	37.89
304.595	101.37
304.809	13.31
305.023	3.07
305.237	11.26
305.452	58.37
305.666	64.51
305.88	164.86
306.094	62.46
306.308	91.13
306.522	148.48
306.736	37.89
306.95	31.74
307.164	-13.31
307.379	-11.26
307.593	54.27
307.807	62.46
308.021	93.18
308.235	121.85
308.449	-23.55
308.663	39.94
308.877	74.75
309.091	39.94
309.305	82.94
309.519	62.46
309.733	160.77
309.947	37.89
310.161	121.85
310.374	54.27
310.588	154.62
310.802	56.32
311.016	103.42
311.23	48.13
311.444	21.5
311.658	54.27
311.872	142.33
312.085	58.37
312.299	21.5
312.513	48.13
312.727	50.18
312.941	39.94
313.154	128
313.368	84.99
313.582	144.38
313.796	39.94
314.009	46.08
314.223	103.42
314.437	154.62
314.651	76.8
314.864	13.31
315.078	62.46
315.292	70.65
315.505	46.08
315.719	54.27
315.933	138.24
316.146	48.13
316.36	31.74
316.573	35.84
316.787	35.84
317.001	99.33
317.214	62.46
317.428	54.27
317.641	29.7
317.855	21.5
318.068	-7.17
318.282	66.56
318.495	29.7
318.709	95.23
318.922	70.65
319.136	113.66
319.349	136.19
319.563	82.94
319.776	72.7
319.99	72.7
320.203	123.9
320.417	99.33
320.63	111.61
320.843	136.19
321.057	134.14
321.27	60.42
321.483	76.8
321.697	97.28
321.91	54.27
322.124	15.36
322.337	48.13
322.55	1.02
322.763	70.65
322.977	33.79
323.19	72.7
323.403	29.7
323.617	72.7
323.83	89.09
324.043	-3.07
324.256	33.79
324.469	68.61
324.683	31.74
324.896	109.57
325.109	70.65
325.322	66.56
325.535	140.29
325.748	62.46
325.962	29.7
326.175	82.94
326.388	111.61
326.601	23.55
326.814	31.74
327.027	105.47
327.24	82.94
327.453	-1.02
327.666	144.38
327.879	87.04
328.092	50.18
328.305	41.98
328.518	91.13
328.731	5.12
328.944	-19.46
329.157	39.94
329.37	72.7
329.583	70.65
329.796	136.19
330.009	-58.37
330.222	39.94
330.435	68.61
330.648	80.89
330.861	27.65
331.073	-44.03
331.286	80.89
331.499	58.37
331.712	-19.46
331.925	37.89
332.138	66.56
332.35	105.47
332.563	15.36
332.776	152.57
332.989	58.37
333.202	64.51
333.414	-3.07
333.627	128
333.84	80.89
334.053	113.66
334.265	-7.17
334.478	115.71
334.691	70.65
334.903	33.79
335.116	72.7
335.329	97.28
335.541	119.81
335.754	140.29
335.966	25.6
336.179	78.85
336.392	105.47
336.604	62.46
336.817	95.23
337.029	56.32
337.242	54.27
337.454	121.85
337.667	58.37
337.88	82.94
338.092	21.5
338.305	48.13
338.517	48.13
338.729	99.33
338.942	37.89
339.154	148.48
339.367	103.42
339.579	44.03
339.792	48.13
340.004	46.08
340.217	15.36
340.429	80.89
340.641	89.09
340.854	123.9
341.066	84.99
341.278	66.56
341.491	128
341.703	138.24
341.915	17.41
342.128	99.33
342.34	31.74
342.552	68.61
342.764	97.28
342.977	54.27
343.189	93.18
343.401	72.7
343.613	78.85
343.826	82.94
344.038	37.89
344.25	-3.07
344.462	76.8
344.674	80.89
344.886	46.08
345.099	95.23
345.311	123.9
345.523	46.08
345.735	74.75
345.947	78.85
346.159	23.55
346.371	62.46
346.583	-11.26
346.795	78.85
347.007	62.46
347.219	87.04
347.431	7.17
347.643	39.94
347.855	29.7
348.067	95.23
348.279	95.23
348.491	62.46
348.703	99.33
348.915	7.17
349.127	-7.17
349.339	37.89
349.551	33.79
349.763	70.65
349.975	62.46
350.187	103.42
350.399	74.75
350.61	140.29
350.822	87.04
351.034	21.5
351.246	-1.02
351.458	66.56
351.669	15.36
351.881	56.32
352.093	89.09
352.305	56.32
352.517	95.23
352.728	123.9
352.94	78.85
353.152	70.65
353.363	5.12
353.575	64.51
353.787	87.04
353.999	128
354.21	138.24
354.422	62.46
354.633	93.18
354.845	64.51
355.057	168.96
355.268	13.31
355.48	-15.36
355.692	103.42
355.903	9.22
356.115	21.5
356.326	19.46
356.538	121.85
356.749	9.22
356.961	142.33
357.172	58.37
357.384	37.89
357.595	105.47
357.807	46.08
358.018	15.36
358.23	41.98
358.441	111.61
358.653	115.71
358.864	41.98
359.075	109.57
359.287	-9.22
359.498	99.33
359.709	58.37
359.921	56.32
360.132	82.94
360.344	87.04
360.555	-5.12
360.766	119.81
360.977	97.28
361.189	197.63
361.4	52.22
361.611	103.42
361.823	95.23
362.034	50.18
362.245	-23.55
362.456	128
362.667	13.31
362.879	74.75
363.09	121.85
363.301	134.14
363.512	68.61
363.723	46.08
363.935	-66.56
364.146	119.81
364.357	91.13
364.568	101.37
364.779	-19.46
364.99	164.86
365.201	33.79
365.412	89.09
365.623	99.33
365.834	5.12
366.045	23.55
366.256	89.09
366.467	91.13
366.678	111.61
366.889	91.13
367.1	48.13
367.311	56.32
367.522	54.27
367.733	93.18
367.944	76.8
368.155	54.27
368.366	97.28
368.577	87.04
368.788	33.79
368.999	87.04
369.209	37.89
369.42	101.37
369.631	177.15
369.842	37.89
370.053	115.71
370.264	119.81
370.474	37.89
370.685	58.37
370.896	119.81
371.107	78.85
371.317	78.85
371.528	-3.07
371.739	164.86
371.95	128
372.16	218.11
372.371	52.22
372.582	111.61
372.792	87.04
373.003	72.7
373.214	111.61
373.424	140.29
373.635	29.7
373.846	136.19
374.056	35.84
374.267	128
374.477	87.04
374.688	62.46
374.898	44.03
375.109	5.12
375.319	97.28
375.53	117.76
375.74	99.33
375.951	119.81
376.161	150.53
376.372	111.61
376.582	97.28
376.793	33.79
377.003	64.51
377.214	95.23
377.424	97.28
377.635	70.65
377.845	46.08
378.055	70.65
378.266	21.5
378.476	15.36
378.686	72.7
378.897	132.09
379.107	87.04
379.317	142.33
379.528	56.32
379.738	89.09
379.948	64.51
380.158	97.28
380.369	103.42
380.579	95.23
380.789	87.04
380.999	152.57
381.21	89.09
381.42	185.34
381.63	56.32
381.84	54.27
382.05	50.18
382.261	89.09
382.471	29.7
382.681	80.89
382.891	39.94
383.101	44.03
383.311	72.7
383.521	29.7
383.731	68.61
383.941	89.09
384.151	119.81
384.361	87.04
384.571	21.5
384.781	60.42
384.991	142.33
385.201	136.19
385.411	78.85
385.621	54.27
385.831	93.18
386.041	115.71
386.251	89.09
386.461	72.7
386.671	23.55
386.881	60.42
387.091	107.52
387.301	89.09
387.511	128
387.72	87.04
387.93	78.85
388.14	82.94
388.35	9.22
388.56	160.77
388.769	48.13
388.979	54.27
389.189	-1.02
389.399	113.66
389.609	37.89
389.818	156.67
390.028	7.17
390.238	136.19
390.447	44.03
390.657	99.33
390.867	121.85
391.076	-15.36
391.286	62.46
391.496	80.89
391.705	95.23
391.915	119.81
392.125	56.32
392.334	56.32
392.544	119.81
392.753	91.13
392.963	54.27
393.172	95.23
393.382	54.27
393.591	168.96
393.801	78.85
394.01	207.87
394.22	179.2
394.429	29.7
394.639	46.08
394.848	132.09
395.058	105.47
395.267	87.04
395.477	52.22
395.686	177.15
395.895	66.56
396.105	179.2
396.314	138.24
396.524	82.94
396.733	171.01
396.942	234.49
397.152	150.53
397.361	181.25
397.57	160.77
397.78	115.71
397.989	115.71
398.198	193.53
398.407	138.24
398.617	128
398.826	144.38
399.035	201.72
399.244	140.29
399.453	121.85
399.663	117.76
399.872	168.96
400.081	185.34
400.29	209.92
400.499	128
400.708	138.24
400.917	181.25
401.127	166.91
401.336	179.2
401.545	308.22
401.754	164.86
401.963	234.49
402.172	140.29
402.381	128
402.59	50.18
402.799	185.34
403.008	209.92
403.217	146.43
403.426	230.4
403.635	177.15
403.844	201.72
404.053	166.91
404.262	218.11
404.471	252.92
404.68	220.16
404.888	123.9
405.097	228.35
405.306	195.58
405.515	234.49
405.724	162.81
405.933	226.3
406.142	281.6
406.35	351.23
406.559	254.97
406.768	252.92
406.977	209.92
407.185	148.48
407.394	285.69
407.603	259.07
407.812	304.12
408.02	326.65
408.229	336.89
408.438	259.07
408.646	300.03
408.855	279.55
409.064	377.85
409.272	355.32
409.481	357.37
409.69	302.08
409.898	336.89
410.107	431.1
410.315	406.52
410.524	388.09
410.733	447.48
410.941	365.56
411.15	523.26
411.358	467.96
411.567	580.6
411.775	537.59
411.984	502.78
412.192	537.59
412.401	527.35
412.609	619.51
412.818	672.76
413.026	607.22
413.234	701.43
413.443	668.66
413.651	660.47
413.86	635.89
414.068	779.25
414.276	803.83
414.485	828.4
414.693	797.68
414.901	791.54
415.11	832.5
415.318	857.07
415.526	840.69
415.734	990.19
415.943	971.76
416.151	1000.43
416.359	1047.54
416.567	1092.59
416.776	1166.32
416.984	1225.71
417.192	1225.71
417.4	1143.79
417.608	1231.85
417.817	1250.28
418.025	1287.15
418.233	1459.18
418.441	1512.42
418.649	1473.51
418.857	1522.66
419.065	1545.19
419.273	1561.58
419.481	1590.25
419.689	1790.95
419.897	1897.44
420.105	1891.3
420.313	1915.87
420.521	1938.4
420.729	2053.09
420.937	2028.51
421.145	2225.12
421.353	2325.47
421.561	2397.15
421.769	2374.62
421.977	2501.59
422.185	2536.41
422.393	2669.53
422.601	2782.17
422.809	2843.6
423.017	2788.31
423.224	2960.34
423.432	2989.01
423.64	3146.7
423.848	3351.5
424.056	3214.29
424.263	3447.76
424.471	3478.47
424.679	3724.23
424.887	3666.89
425.094	3920.84
425.302	3863.49
425.51	4021.19
425.718	4193.22
425.925	4268.99
426.133	4373.44
426.341	4543.42
426.548	4867
426.756	4838.33
426.964	4838.33
427.171	5157.81
427.379	5288.88
427.586	5481.39
427.794	5444.52
428.001	5757.86
428.209	6167.46
428.417	5899.17
428.624	6329.25
428.832	6368.16
429.039	6353.82
429.247	6257.57
429.454	6857.62
429.662	7336.85
429.869	6874.01
430.076	7580.56
430.284	7144.34
430.491	7486.35
430.699	7738.25
430.906	7969.67
431.114	8199.04
431.321	8254.34
431.528	8491.9
431.736	9028.47
431.943	9284.47
432.15	9212.79
432.358	9306.99
432.565	9720.68
432.772	9771.88
432.979	10068.84
433.187	10302.31
433.394	10326.88
433.601	11137.88
433.808	11033.43
434.016	10971.99
434.223	11273.04
434.43	12010.31
434.637	11932.49
434.844	12616.51
435.052	12860.22
435.259	12647.23
435.466	12985.15
435.673	12892.99
435.88	13777.71
436.087	14283.56
436.294	14465.83
436.501	14175.02
436.708	14281.51
436.915	14873.37
437.122	15323.93
437.329	15420.18
437.537	15745.81
437.743	16061.19
437.95	16003.85
438.157	16646.91
438.364	17210.11
438.571	17468.15
438.778	17507.06
438.985	18793.19
439.192	18285.29
439.399	18944.73
439.606	18402.02
439.813	19358.42
440.02	20832.96
440.227	20554.44
440.433	20046.54
440.64	20755.14
440.847	20697.8
441.054	21275.32
441.261	22383.27
441.467	22110.89
441.674	22612.65
441.881	23571.1
442.088	23311
442.294	23040.67
442.501	23749.27
442.708	24062.61
442.914	25188.99
443.121	25922.16
443.328	25625.21
443.534	27429.47
443.741	26608.23
443.948	26010.23
444.154	28076.63
444.361	27798.1
444.568	28234.32
444.774	27943.51
444.981	28619.34
445.187	29231.68
445.394	30315.06
445.6	29987.38
445.807	32854.54
446.013	31314.47
446.22	31865.37
446.426	33083.91
446.633	33702.4
446.839	34673.13
447.046	33337.86
447.252	34998.76
447.459	35187.18
447.665	34796.01
447.871	36602.32
448.078	37792.19
448.284	36395.48
448.491	37257.67
448.697	38644.15
448.903	39403.94
449.11	39932.32
449.316	38506.93
449.522	39702.95
449.728	40362.39
449.935	40610.2
450.141	40511.89
450.347	41740.68
450.553	40622.48
450.76	40874.38
450.966	42508.66
451.172	41937.28
451.378	42879.35
451.584	41892.22
451.791	43276.65
451.997	42910.07
452.203	43897.19
452.409	43723.11
452.615	43276.65
452.821	41775.49
453.027	41353.61
453.233	43444.59
453.44	41900.42
453.646	42457.46
453.852	42543.48
454.058	42916.21
454.264	41804.16
454.47	43030.9
454.676	41286.03
454.882	42989.94
455.088	39315.88
455.294	40188.31
455.5	40567.19
455.705	41068.94
455.911	39240.11
456.117	38304.18
456.323	38212.02
456.529	36071.9
456.735	37755.33
456.941	36819.41
457.147	36313.56
457.352	35113.45
457.558	34851.31
457.764	34572.78
457.97	33899
458.176	33356.29
458.381	33569.28
458.587	31789.59
458.793	31603.23
458.999	30276.15
459.204	32494.1
459.41	30794.28
459.616	29626.94
459.821	29420.1
460.027	29241.92
460.233	28656.2
460.438	27026.02
460.644	27220.58
460.85	26303.09
461.055	25932.4
461.261	25512.57
461.466	23925.39
461.672	23276.19
461.878	24660.62
462.083	23523.99
462.289	22952.61
462.494	22446.76
462.7	21365.43
462.905	21037.76
463.111	21631.67
463.316	21299.9
463.522	21285.56
463.727	20916.93
463.932	21127.87
464.138	20886.21
464.343	21033.66
464.549	20419.27
464.754	21072.57
464.959	20746.95
465.165	20732.61
465.37	19874.51
465.575	19368.66
465.781	19929.81
465.986	20232.91
466.191	19202.78
466.397	19157.72
466.602	17879.79
