Data from USB4F104151__234__14-34-03-137.txt Node

Date: Thu Mar 13 14:34:03 EDT 2025
User: louis
Spectrometer: USB4F10415
Trigger mode: 4
Integration Time (sec): 2.500000E-2
Scans to average: 1
Electric dark correction enabled: true
Nonlinearity correction enabled: false
Boxcar width: 0
XAxis mode: Wavelengths
Number of Pixels in Spectrum: 3648
>>>>>Begin Spectral Data<<<<<
178.204	-178.86
178.424	-178.86
178.644	-178.86
178.864	-115.37
179.084	-154.28
179.304	-47.79
179.524	-25.26
179.744	-49.83
179.964	17.75
180.184	7.51
180.404	-2.73
180.624	17.75
180.844	62.8
181.064	38.23
181.283	-25.26
181.503	27.99
181.723	-21.16
181.943	-82.6
182.163	40.28
182.383	23.89
182.602	32.08
182.822	93.52
183.042	17.75
183.262	50.52
183.482	-25.26
183.701	56.66
183.921	64.85
184.141	-17.07
184.361	132.44
184.58	-25.26
184.8	73.04
185.02	-8.87
185.239	48.47
185.459	36.18
185.679	89.43
185.898	23.89
186.118	46.42
186.338	7.51
186.557	32.08
186.777	19.8
186.997	15.7
187.216	48.47
187.436	56.66
187.655	40.28
187.875	114
188.095	34.13
188.314	42.32
188.534	77.14
188.753	11.61
188.973	56.66
189.192	77.14
189.412	36.18
189.631	23.89
189.851	32.08
190.07	138.58
190.29	-58.03
190.509	42.32
190.729	73.04
190.948	13.65
191.168	173.39
191.387	64.85
191.607	-8.87
191.826	81.24
192.045	-19.11
192.265	48.47
192.484	-6.83
192.704	30.04
192.923	-2.73
193.142	89.43
193.362	58.71
193.581	109.91
193.8	73.04
194.02	44.37
194.239	83.28
194.458	7.51
194.678	-8.87
194.897	-0.68
195.116	9.56
195.335	3.41
195.555	30.04
195.774	81.24
195.993	48.47
196.212	97.62
196.432	32.08
196.651	99.67
196.87	44.37
197.089	73.04
197.308	73.04
197.528	11.61
197.747	3.41
197.966	36.18
198.185	75.09
198.404	83.28
198.623	68.95
198.842	89.43
199.062	66.9
199.281	77.14
199.5	32.08
199.719	-0.68
199.938	58.71
200.157	58.71
200.376	19.8
200.595	46.42
200.814	17.75
201.033	32.08
201.252	136.53
201.471	71
201.69	56.66
201.909	9.56
202.128	83.28
202.347	89.43
202.566	99.67
202.785	-0.68
203.004	-8.87
203.223	116.05
203.442	73.04
203.661	-47.79
203.879	46.42
204.098	-15.02
204.317	32.08
204.536	75.09
204.755	-6.83
204.974	-25.26
205.193	56.66
205.411	54.61
205.63	48.47
205.849	-58.03
206.068	-8.87
206.287	11.61
206.505	1.37
206.724	27.99
206.943	3.41
207.162	52.56
207.381	32.08
207.599	66.9
207.818	-23.21
208.037	48.47
208.255	40.28
208.474	-33.45
208.693	-58.03
208.911	1.37
209.13	-6.83
209.349	7.51
209.567	27.99
209.786	50.52
210.005	-33.45
210.223	83.28
210.442	-29.35
210.661	68.95
210.879	40.28
211.098	-0.68
211.316	27.99
211.535	46.42
211.753	83.28
211.972	44.37
212.191	-0.68
212.409	126.29
212.628	62.8
212.846	-60.07
213.065	52.56
213.283	118.1
213.502	87.38
213.72	40.28
213.938	-4.78
214.157	50.52
214.375	48.47
214.594	64.85
214.812	15.7
215.031	52.56
215.249	-37.55
215.467	75.09
215.686	50.52
215.904	130.39
216.122	23.89
216.341	130.39
216.559	105.81
216.778	3.41
216.996	85.33
217.214	-0.68
217.432	40.28
217.651	73.04
217.869	66.9
218.087	40.28
218.306	27.99
218.524	27.99
218.742	-27.31
218.96	118.1
219.179	-12.97
219.397	15.7
219.615	97.62
219.833	73.04
220.051	11.61
220.27	36.18
220.488	48.47
220.706	48.47
220.924	-70.31
221.142	64.85
221.36	64.85
221.578	19.8
221.796	134.48
222.015	40.28
222.233	68.95
222.451	73.04
222.669	15.7
222.887	75.09
223.105	-31.4
223.323	15.7
223.541	3.41
223.759	7.51
223.977	-27.31
224.195	64.85
224.413	17.75
224.631	48.47
224.849	-37.55
225.067	103.76
225.285	-33.45
225.503	34.13
225.721	7.51
225.939	-23.21
226.157	40.28
226.375	191.83
226.592	-17.07
226.81	64.85
227.028	89.43
227.246	64.85
227.464	79.19
227.682	1.37
227.9	103.76
228.117	15.7
228.335	-35.5
228.553	58.71
228.771	144.72
228.989	34.13
229.206	60.76
229.424	15.7
229.642	66.9
229.86	7.51
230.077	68.95
230.295	105.81
230.513	154.96
230.731	79.19
230.948	-15.02
231.166	75.09
231.384	-2.73
231.601	3.41
231.819	56.66
232.037	58.71
232.254	-8.87
232.472	-33.45
232.689	40.28
232.907	7.51
233.125	27.99
233.342	-25.26
233.56	-2.73
233.777	-6.83
233.995	-2.73
234.213	73.04
234.43	25.94
234.648	32.08
234.865	17.75
235.083	89.43
235.3	66.9
235.518	15.7
235.735	62.8
235.953	56.66
236.17	97.62
236.388	-2.73
236.605	87.38
236.822	42.32
237.04	-12.97
237.257	-47.79
237.475	-6.83
237.692	58.71
237.909	23.89
238.127	7.51
238.344	83.28
238.562	25.94
238.779	42.32
238.996	-39.59
239.214	-10.92
239.431	126.29
239.648	21.85
239.865	97.62
240.083	64.85
240.3	56.66
240.517	40.28
240.735	64.85
240.952	73.04
241.169	146.77
241.386	50.52
241.603	44.37
241.821	-19.11
242.038	58.71
242.255	46.42
242.472	25.94
242.689	122.2
242.907	-31.4
243.124	73.04
243.341	64.85
243.558	1.37
243.775	-33.45
243.992	1.37
244.209	83.28
244.426	71
244.643	64.85
244.86	40.28
245.078	62.8
245.295	23.89
245.512	23.89
245.729	25.94
245.946	44.37
246.163	34.13
246.38	23.89
246.597	-49.83
246.814	50.52
247.031	40.28
247.248	17.75
247.464	36.18
247.681	15.7
247.898	85.33
248.115	19.8
248.332	23.89
248.549	60.76
248.766	50.52
248.983	93.52
249.2	40.28
249.417	7.51
249.633	46.42
249.85	73.04
250.067	60.76
250.284	17.75
250.501	54.61
250.717	40.28
250.934	66.9
251.151	44.37
251.368	19.8
251.585	52.56
251.801	50.52
252.018	7.51
252.235	81.24
252.451	-62.12
252.668	40.28
252.885	64.85
253.102	52.56
253.318	-12.97
253.535	60.76
253.752	44.37
253.968	15.7
254.185	73.04
254.401	-17.07
254.618	11.61
254.835	27.99
255.051	89.43
255.268	56.66
255.484	73.04
255.701	23.89
255.917	122.2
256.134	7.51
256.351	48.47
256.567	-8.87
256.784	52.56
257	7.51
257.217	46.42
257.433	46.42
257.65	126.29
257.866	58.71
258.082	50.52
258.299	30.04
258.515	-8.87
258.732	-8.87
258.948	-23.21
259.165	42.32
259.381	89.43
259.597	77.14
259.814	-37.55
260.03	50.52
260.246	81.24
260.463	58.71
260.679	105.81
260.895	32.08
261.112	27.99
261.328	54.61
261.544	50.52
261.761	50.52
261.977	-31.4
262.193	-8.87
262.409	32.08
262.626	-6.83
262.842	56.66
263.058	15.7
263.274	36.18
263.49	19.8
263.707	75.09
263.923	93.52
264.139	3.41
264.355	66.9
264.571	138.58
264.787	23.89
265.004	25.94
265.22	60.76
265.436	83.28
265.652	9.56
265.868	40.28
266.084	5.46
266.3	-6.83
266.516	-37.55
266.732	-15.02
266.948	60.76
267.164	50.52
267.38	19.8
267.596	11.61
267.812	25.94
268.028	17.75
268.244	40.28
268.46	7.51
268.676	-25.26
268.892	77.14
269.108	23.89
269.324	9.56
269.54	7.51
269.756	44.37
269.972	11.61
270.188	32.08
270.403	42.32
270.619	56.66
270.835	-6.83
271.051	40.28
271.267	40.28
271.483	50.52
271.698	11.61
271.914	40.28
272.13	9.56
272.346	7.51
272.562	111.96
272.777	128.34
272.993	27.99
273.209	32.08
273.425	30.04
273.64	93.52
273.856	64.85
274.072	44.37
274.287	1.37
274.503	48.47
274.719	81.24
274.934	81.24
275.15	-6.83
275.366	40.28
275.581	-8.87
275.797	7.51
276.012	83.28
276.228	-29.35
276.444	-4.78
276.659	1.37
276.875	-4.78
277.09	64.85
277.306	50.52
277.521	167.25
277.737	-25.26
277.952	89.43
278.168	50.52
278.383	103.76
278.599	75.09
278.814	50.52
279.03	58.71
279.245	75.09
279.461	68.95
279.676	13.65
279.892	-4.78
280.107	-17.07
280.322	58.71
280.538	56.66
280.753	21.85
280.969	118.1
281.184	48.47
281.399	73.04
281.615	25.94
281.83	32.08
282.045	32.08
282.26	17.75
282.476	46.42
282.691	27.99
282.906	13.65
283.122	89.43
283.337	-21.16
283.552	7.51
283.767	-0.68
283.983	87.38
284.198	83.28
284.413	85.33
284.628	19.8
284.843	50.52
285.058	-4.78
285.274	81.24
285.489	52.56
285.704	60.76
285.919	-33.45
286.134	40.28
286.349	77.14
286.564	73.04
286.779	13.65
286.995	40.28
287.21	-29.35
287.425	95.57
287.64	-15.02
287.855	66.9
288.07	-17.07
288.285	56.66
288.5	83.28
288.715	23.89
288.93	44.37
289.145	32.08
289.36	122.2
289.575	25.94
289.79	25.94
290.004	73.04
290.219	81.24
290.434	46.42
290.649	1.37
290.864	3.41
291.079	15.7
291.294	75.09
291.509	19.8
291.724	-37.55
291.938	23.89
292.153	7.51
292.368	50.52
292.583	-8.87
292.798	95.57
293.012	52.56
293.227	99.67
293.442	-15.02
293.657	91.48
293.871	32.08
294.086	132.44
294.301	60.76
294.516	122.2
294.73	73.04
294.945	52.56
295.16	-8.87
295.374	101.72
295.589	95.57
295.804	-2.73
296.018	58.71
296.233	56.66
296.447	66.9
296.662	-33.45
296.877	89.43
297.091	17.75
297.306	40.28
297.52	58.71
297.735	81.24
297.949	30.04
298.164	-0.68
298.378	44.37
298.593	-64.17
298.807	60.76
299.022	73.04
299.236	40.28
299.451	52.56
299.665	23.89
299.88	66.9
300.094	23.89
300.309	17.75
300.523	9.56
300.737	13.65
300.952	21.85
301.166	99.67
301.381	-6.83
301.595	99.67
301.809	68.95
302.024	32.08
302.238	56.66
302.452	17.75
302.667	81.24
302.881	56.66
303.095	27.99
303.309	11.61
303.524	-29.35
303.738	-6.83
303.952	-10.92
304.166	1.37
304.381	-47.79
304.595	48.47
304.809	-4.78
305.023	34.13
305.237	64.85
305.452	11.61
305.666	116.05
305.88	68.95
306.094	25.94
306.308	64.85
306.522	64.85
306.736	56.66
306.95	48.47
307.164	-33.45
307.379	19.8
307.593	52.56
307.807	52.56
308.021	60.76
308.235	-2.73
308.449	64.85
308.663	40.28
308.877	85.33
309.091	75.09
309.305	81.24
309.519	-25.26
309.733	64.85
309.947	73.04
310.161	15.7
310.374	-2.73
310.588	114
310.802	97.62
311.016	5.46
311.23	48.47
311.444	-6.83
311.658	66.9
311.872	132.44
312.085	105.81
312.299	126.29
312.513	107.86
312.727	116.05
312.941	-27.31
313.154	75.09
313.368	60.76
313.582	105.81
313.796	9.56
314.009	56.66
314.223	73.04
314.437	36.18
314.651	56.66
314.864	44.37
315.078	25.94
315.292	23.89
315.505	73.04
315.719	83.28
315.933	-39.59
316.146	17.75
316.36	27.99
316.573	81.24
316.787	91.48
317.001	34.13
317.214	7.51
317.428	34.13
317.641	48.47
317.855	-10.92
318.068	-6.83
318.282	40.28
318.495	71
318.709	25.94
318.922	11.61
319.136	64.85
319.349	77.14
319.563	105.81
319.776	105.81
319.99	66.9
320.203	56.66
320.417	68.95
320.63	32.08
320.843	64.85
321.057	40.28
321.27	23.89
321.483	46.42
321.697	60.76
321.91	52.56
322.124	48.47
322.337	48.47
322.55	-4.78
322.763	52.56
322.977	75.09
323.19	-0.68
323.403	23.89
323.617	17.75
323.83	101.72
324.043	19.8
324.256	23.89
324.469	58.71
324.683	71
324.896	25.94
325.109	36.18
325.322	50.52
325.535	30.04
325.748	101.72
325.962	-21.16
326.175	83.28
326.388	130.39
326.601	85.33
326.814	81.24
327.027	58.71
327.24	116.05
327.453	36.18
327.666	142.68
327.879	83.28
328.092	138.58
328.305	142.68
328.518	58.71
328.731	-31.4
328.944	77.14
329.157	77.14
329.37	56.66
329.583	157.01
329.796	118.1
330.009	56.66
330.222	58.71
330.435	101.72
330.648	64.85
330.861	62.8
331.073	46.42
331.286	44.37
331.499	107.86
331.712	30.04
331.925	7.51
332.138	-23.21
332.35	-0.68
332.563	68.95
332.776	17.75
332.989	81.24
333.202	54.61
333.414	77.14
333.627	48.47
333.84	32.08
334.053	66.9
334.265	48.47
334.478	-6.83
334.691	-39.59
334.903	15.7
335.116	68.95
335.329	-43.69
335.541	-2.73
335.754	114
335.966	68.95
336.179	52.56
336.392	52.56
336.604	15.7
336.817	64.85
337.029	1.37
337.242	11.61
337.454	64.85
337.667	60.76
337.88	114
338.092	73.04
338.305	181.59
338.517	64.85
338.729	44.37
338.942	99.67
339.154	-25.26
339.367	25.94
339.579	32.08
339.792	25.94
340.004	130.39
340.217	-31.4
340.429	44.37
340.641	25.94
340.854	60.76
341.066	25.94
341.278	118.1
341.491	68.95
341.703	83.28
341.915	-29.35
342.128	68.95
342.34	56.66
342.552	1.37
342.764	32.08
342.977	58.71
343.189	44.37
343.401	48.47
343.613	73.04
343.826	138.58
344.038	46.42
344.25	105.81
344.462	34.13
344.674	52.56
344.886	32.08
345.099	81.24
345.311	32.08
345.523	89.43
345.735	23.89
345.947	73.04
346.159	42.32
346.371	60.76
346.583	32.08
346.795	122.2
347.007	32.08
347.219	81.24
347.431	1.37
347.643	97.62
347.855	32.08
348.067	130.39
348.279	9.56
348.491	89.43
348.703	77.14
348.915	19.8
349.127	15.7
349.339	38.23
349.551	42.32
349.763	79.19
349.975	34.13
350.187	73.04
350.399	79.19
350.61	89.43
350.822	73.04
351.034	42.32
351.246	91.48
351.458	54.61
351.669	-37.55
351.881	54.61
352.093	17.75
352.305	101.72
352.517	48.47
352.728	134.48
352.94	40.28
353.152	150.87
353.363	60.76
353.575	150.87
353.787	77.14
353.999	105.81
354.21	154.96
354.422	48.47
354.633	15.7
354.845	-0.68
355.057	114
355.268	134.48
355.48	56.66
355.692	-0.68
355.903	64.85
356.115	62.8
356.326	15.7
356.538	114
356.749	118.1
356.961	114
357.172	60.76
357.384	-17.07
357.595	40.28
357.807	-17.07
358.018	30.04
358.23	27.99
358.441	130.39
358.653	89.43
358.864	93.52
359.075	48.47
359.287	-2.73
359.498	83.28
359.709	32.08
359.921	7.51
360.132	89.43
360.344	17.75
360.555	3.41
360.766	77.14
360.977	7.51
361.189	64.85
361.4	36.18
361.611	44.37
361.823	44.37
362.034	109.91
362.245	44.37
362.456	77.14
362.667	73.04
362.879	44.37
363.09	128.34
363.301	66.9
363.512	60.76
363.723	68.95
363.935	56.66
364.146	23.89
364.357	68.95
364.568	83.28
364.779	62.8
364.99	105.81
365.201	44.37
365.412	25.94
365.623	9.56
365.834	114
366.045	46.42
366.256	15.7
366.467	64.85
366.678	87.38
366.889	89.43
367.1	25.94
367.311	83.28
367.522	46.42
367.733	144.72
367.944	73.04
368.155	-17.07
368.366	42.32
368.577	91.48
368.788	56.66
368.999	64.85
369.209	-8.87
369.42	97.62
369.631	105.81
369.842	107.86
370.053	101.72
370.264	32.08
370.474	-45.74
370.685	89.43
370.896	48.47
371.107	138.58
371.317	77.14
371.528	25.94
371.739	116.05
371.95	73.04
372.16	66.9
372.371	99.67
372.582	30.04
372.792	85.33
373.003	34.13
373.214	81.24
373.424	114
373.635	15.7
373.846	64.85
374.056	118.1
374.267	48.47
374.477	11.61
374.688	64.85
374.898	105.81
375.109	83.28
375.319	27.99
375.53	81.24
375.74	140.63
375.951	-23.21
376.161	66.9
376.372	179.54
376.582	30.04
376.793	109.91
377.003	36.18
377.214	77.14
377.424	81.24
377.635	66.9
377.845	36.18
378.055	146.77
378.266	5.46
378.476	97.62
378.686	64.85
378.897	66.9
379.107	46.42
379.317	130.39
379.528	44.37
379.738	89.43
379.948	27.99
380.158	114
380.369	48.47
380.579	130.39
380.789	118.1
380.999	95.57
381.21	64.85
381.42	165.2
381.63	27.99
381.84	64.85
382.05	15.7
382.261	114
382.471	56.66
382.681	81.24
382.891	68.95
383.101	105.81
383.311	17.75
383.521	44.37
383.731	97.62
383.941	83.28
384.151	40.28
384.361	66.9
384.571	-23.21
384.781	124.24
384.991	126.29
385.201	148.82
385.411	56.66
385.621	42.32
385.831	48.47
386.041	44.37
386.251	5.46
386.461	77.14
386.671	130.39
386.881	93.52
387.091	58.71
387.301	154.96
387.511	64.85
387.72	11.61
387.93	109.91
388.14	48.47
388.35	34.13
388.56	111.96
388.769	122.2
388.979	66.9
389.189	-0.68
389.399	85.33
389.609	50.52
389.818	150.87
390.028	85.33
390.238	64.85
390.447	73.04
390.657	132.44
390.867	9.56
391.076	81.24
391.286	85.33
391.496	60.76
391.705	73.04
391.915	62.8
392.125	101.72
392.334	66.9
392.544	146.77
392.753	118.1
392.963	56.66
393.172	114
393.382	52.56
393.591	183.63
393.801	136.53
394.01	116.05
394.22	64.85
394.429	-0.68
394.639	-8.87
394.848	114
395.058	89.43
395.267	42.32
395.477	62.8
395.686	87.38
395.895	118.1
396.105	154.96
396.314	68.95
396.524	109.91
396.733	97.62
396.942	148.82
397.152	122.2
397.361	101.72
397.57	195.92
397.78	105.81
397.989	154.96
398.198	189.78
398.407	122.2
398.617	81.24
398.826	189.78
399.035	132.44
399.244	152.92
399.453	171.35
399.663	122.2
399.872	136.53
400.081	79.19
400.29	200.02
400.499	56.66
400.708	159.06
400.917	91.48
401.127	195.92
401.336	101.72
401.545	173.39
401.754	171.35
401.963	181.59
402.172	105.81
402.381	66.9
402.59	140.63
402.799	138.58
403.008	249.17
403.217	146.77
403.426	142.68
403.635	140.63
403.844	154.96
404.053	154.96
404.262	148.82
404.471	208.21
404.68	171.35
404.888	124.24
405.097	154.96
405.306	183.63
405.515	216.4
405.724	183.63
405.933	234.83
406.142	173.39
406.35	212.31
406.559	181.59
406.768	193.87
406.977	216.4
407.185	189.78
407.394	261.46
407.603	200.02
407.812	253.27
408.02	326.99
408.229	279.89
408.438	302.42
408.646	337.23
408.855	286.03
409.064	283.99
409.272	245.07
409.481	347.47
409.69	326.99
409.898	419.15
410.107	408.91
410.315	335.18
410.524	376.14
410.733	400.72
410.941	398.67
411.15	468.3
411.358	378.19
411.567	597.32
411.775	507.21
411.984	386.38
412.192	515.41
412.401	572.75
412.609	591.18
412.818	654.67
413.026	599.37
413.234	628.04
413.443	582.99
413.651	656.72
413.86	646.48
414.068	736.59
414.276	763.21
414.485	744.78
414.693	816.46
414.901	802.12
415.11	859.46
415.318	804.17
415.526	925
415.734	1000.77
415.943	939.34
416.151	1023.3
416.359	933.19
416.567	1045.83
416.776	1109.32
416.984	1146.18
417.192	1207.62
417.4	1215.81
417.608	1181
417.817	1260.87
418.025	1256.77
418.233	1391.94
418.441	1416.51
418.649	1441.09
418.857	1551.68
419.065	1672.51
419.273	1469.76
419.481	1598.78
419.689	1697.08
419.897	1764.67
420.105	1785.15
420.313	1903.93
420.521	1828.15
420.729	2035
420.937	2110.77
421.145	2178.36
421.353	2295.09
421.561	2256.18
421.769	2360.63
421.977	2383.15
422.185	2430.26
422.393	2598.19
422.601	2649.39
422.809	2751.79
423.017	2792.75
423.224	2878.76
423.432	2889
423.64	3026.22
423.848	3241.25
424.056	3216.68
424.263	3235.11
424.471	3435.81
424.679	3448.1
424.887	3714.33
425.094	3710.24
425.302	3665.18
425.51	3929.37
425.718	4136.21
425.925	4113.69
426.133	4300.05
426.341	4480.27
426.548	4662.54
426.756	4805.9
426.964	4777.23
427.171	4928.78
427.379	5012.74
427.586	5258.5
427.794	5303.56
428.001	5528.83
428.209	5922.04
428.417	5700.86
428.624	6173.94
428.832	5997.82
429.039	6155.51
429.247	6061.3
429.454	6571.25
429.662	7185.64
429.869	6634.74
430.076	7152.87
430.284	6999.27
430.491	7226.6
430.699	7785.69
430.906	7679.2
431.114	7654.62
431.321	7947.48
431.528	8197.34
431.736	8529.11
431.943	9274.57
432.15	8803.53
432.358	8959.18
432.565	9448.65
432.772	9542.85
432.979	9874.62
433.187	10108.09
433.394	10052.8
433.601	10788.02
433.808	10681.52
434.016	10665.14
434.223	11134.12
434.43	11904.16
434.637	11533.48
434.844	12401.82
435.052	12530.84
435.259	12319.9
435.466	12651.67
435.673	12424.34
435.88	13227.15
436.087	13986.94
436.294	13847.68
436.501	13597.83
436.708	13958.27
436.915	14179.45
437.122	14978.16
437.329	14953.59
437.537	15510.63
437.743	15492.2
437.95	15717.48
438.157	16278.62
438.364	16858.2
438.571	16968.79
438.778	16946.26
438.985	18553.91
439.192	17835.08
439.399	18232.38
439.606	18003.01
439.813	18746.42
440.02	20194.34
440.227	19690.54
440.433	19528.75
440.64	20112.42
440.847	19938.34
441.054	20431.9
441.261	21879.82
441.467	21654.54
441.674	22244.35
441.881	22858.74
442.088	22727.67
442.294	22518.78
442.501	22739.96
442.708	23446.51
442.914	24368.1
443.121	25437.14
443.328	24601.57
443.534	26295.24
443.741	25844.68
443.948	25414.61
444.154	27343.8
444.361	26956.73
444.568	27143.1
444.774	27095.99
444.981	27792.3
445.187	27906.99
445.394	29164.44
445.6	29029.27
445.807	31947.63
446.013	30718.85
446.22	31239.03
446.426	32480.1
446.633	32551.78
446.839	33753.94
447.046	32224.11
447.252	33731.41
447.459	34165.58
447.665	34061.13
447.871	35547.96
448.078	36864.8
448.284	34995.01
448.491	36227.88
448.697	37403.42
448.903	37976.85
449.11	38386.44
449.316	37563.16
449.522	38710.02
449.728	39211.77
449.935	39564.03
450.141	39451.39
450.347	40336.11
450.553	39062.27
450.76	39750.39
450.966	40852.2
451.172	40473.32
451.378	41724.63
451.584	40944.36
451.791	41872.09
451.997	41433.82
452.203	42175.19
452.409	41974.48
452.615	41925.33
452.821	40178.42
453.027	39957.24
453.233	41839.32
453.44	40159.98
453.646	40624.87
453.852	40735.46
454.058	41716.44
454.264	40379.12
454.47	41243.36
454.676	40207.09
454.882	41700.06
455.088	37931.79
455.294	38505.23
455.5	39125.76
455.705	39174.91
455.911	37817.11
456.117	37022.5
456.323	36563.75
456.529	34747.2
456.735	36199.21
456.941	35291.96
457.147	34476.87
457.352	33631.06
457.558	33315.67
457.764	33708.88
457.97	32856.93
458.176	32160.62
458.381	31939.44
458.587	30350.21
458.793	30428.04
458.999	28754.85
459.204	30956.41
459.41	29897.61
459.616	27761.58
459.821	27890.6
460.027	27751.34
460.233	27358.13
460.438	26014.66
460.644	26276.8
460.85	24828.89
461.055	24824.79
461.261	24474.59
461.466	22750.2
461.672	22209.54
461.878	23679.98
462.083	22189.06
462.289	21625.87
462.494	21459.98
462.7	20513.82
462.905	19981.35
463.111	20546.59
463.316	20589.6
463.522	20212.77
463.727	20155.43
463.932	20167.71
464.138	19866.66
464.343	20093.99
464.549	19268.66
464.754	19735.59
464.959	19833.89
465.165	19604.52
465.37	18902.07
465.575	18291.77
465.781	19063.86
465.986	19125.3
466.191	18328.64
466.397	18263.1
466.602	17130.58
466.807	17976.39
467.012	17925.19
467.218	17841.22
467.423	17693.77
