Data from USB4F104151__203__14-33-16-726.txt Node

Date: Thu Mar 13 14:33:16 EDT 2025
User: louis
Spectrometer: USB4F10415
Trigger mode: 4
Integration Time (sec): 2.500000E-2
Scans to average: 1
Electric dark correction enabled: true
Nonlinearity correction enabled: false
Boxcar width: 0
XAxis mode: Wavelengths
Number of Pixels in Spectrum: 3648
>>>>>Begin Spectral Data<<<<<
178.204	-133.46
178.424	-133.46
178.644	-133.46
178.864	-186.71
179.084	-129.36
179.304	-55.64
179.524	-0.34
179.744	-6.49
179.964	42.67
180.184	59.05
180.404	-22.87
180.624	42.67
180.844	28.33
181.064	-14.68
181.283	5.8
181.503	-65.88
181.723	-12.63
181.943	-10.58
182.163	77.48
182.383	28.33
182.602	128.68
182.822	95.91
183.042	93.87
183.262	-31.06
183.482	36.52
183.701	18.09
183.921	-4.44
184.141	-31.06
184.361	38.57
184.58	22.19
184.8	67.24
185.02	42.67
185.239	5.8
185.459	18.09
185.679	26.28
185.898	18.09
186.118	79.53
186.338	44.71
186.557	128.68
186.777	-14.68
186.997	30.38
187.216	13.99
187.436	38.57
187.655	9.9
187.875	59.05
188.095	71.34
188.314	79.53
188.534	134.82
188.753	28.33
188.973	42.67
189.192	38.57
189.412	18.09
189.631	50.86
189.851	57
190.07	108.2
190.29	-47.44
190.509	24.23
190.729	38.57
190.948	52.91
191.168	140.97
191.387	18.09
191.607	59.05
191.826	65.19
192.045	18.09
192.265	26.28
192.484	136.87
192.704	-6.49
192.923	-14.68
193.142	85.67
193.362	-4.44
193.581	75.43
193.8	40.62
194.02	100.01
194.239	24.23
194.458	50.86
194.678	50.86
194.897	44.71
195.116	22.19
195.335	83.63
195.555	52.91
195.774	-6.49
195.993	104.11
196.212	-6.49
196.432	42.67
196.651	34.47
196.87	-8.53
197.089	149.16
197.308	52.91
197.528	38.57
197.747	5.8
197.966	-6.49
198.185	104.11
198.404	13.99
198.623	38.57
198.842	83.63
199.062	9.9
199.281	61.1
199.5	61.1
199.719	83.63
199.938	22.19
200.157	67.24
200.376	106.15
200.595	38.57
200.814	28.33
201.033	153.26
201.252	28.33
201.471	42.67
201.69	28.33
201.909	1.71
202.128	-14.68
202.347	67.24
202.566	44.71
202.785	-14.68
203.004	-14.68
203.223	95.91
203.442	24.23
203.661	42.67
203.879	30.38
204.098	-20.82
204.317	28.33
204.536	-31.06
204.755	79.53
204.974	83.63
205.193	34.47
205.411	118.44
205.63	13.99
205.849	118.44
206.068	71.34
206.287	61.1
206.505	18.09
206.724	9.9
206.943	30.38
207.162	13.99
207.381	54.95
207.599	16.04
207.818	67.24
208.037	42.67
208.255	20.14
208.474	44.71
208.693	149.16
208.911	30.38
209.13	-6.49
209.349	50.86
209.567	71.34
209.786	87.72
210.005	16.04
210.223	79.53
210.442	-18.77
210.661	79.53
210.879	71.34
211.098	61.1
211.316	85.67
211.535	71.34
211.753	11.95
211.972	67.24
212.191	13.99
212.409	83.63
212.628	50.86
212.846	18.09
213.065	50.86
213.283	95.91
213.502	83.63
213.72	-22.87
213.938	77.48
214.157	3.75
214.375	104.11
214.594	26.28
214.812	38.57
215.031	42.67
215.249	36.52
215.467	-2.39
215.686	9.9
215.904	69.29
216.122	22.19
216.341	140.97
216.559	65.19
216.778	28.33
216.996	54.95
217.214	20.14
217.432	-31.06
217.651	-61.78
217.869	38.57
218.087	3.75
218.306	7.85
218.524	91.82
218.742	-26.96
218.96	91.82
219.179	50.86
219.397	20.14
219.615	13.99
219.833	71.34
220.051	18.09
220.27	85.67
220.488	77.48
220.706	50.86
220.924	128.68
221.142	-29.01
221.36	5.8
221.578	83.63
221.796	26.28
222.015	44.71
222.233	54.95
222.451	100.01
222.669	36.52
222.887	83.63
223.105	11.95
223.323	42.67
223.541	1.71
223.759	3.75
223.977	-29.01
224.195	46.76
224.413	67.24
224.631	18.09
224.849	42.67
225.067	22.19
225.285	28.33
225.503	34.47
225.721	42.67
225.939	40.62
226.157	28.33
226.375	116.39
226.592	-6.49
226.81	13.99
227.028	22.19
227.246	59.05
227.464	46.76
227.682	69.29
227.9	50.86
228.117	134.82
228.335	20.14
228.553	1.71
228.771	24.23
228.989	71.34
229.206	54.95
229.424	34.47
229.642	46.76
229.86	16.04
230.077	95.91
230.295	22.19
230.513	83.63
230.731	50.86
230.948	192.17
231.166	87.72
231.384	42.67
231.601	11.95
231.819	69.29
232.037	116.39
232.254	52.91
232.472	-20.82
232.689	34.47
232.907	52.91
233.125	116.39
233.342	46.76
233.56	38.57
233.777	9.9
233.995	28.33
234.213	93.87
234.43	126.63
234.648	50.86
234.865	32.43
235.083	93.87
235.3	3.75
235.518	67.24
235.735	132.78
235.953	118.44
236.17	71.34
236.388	40.62
236.605	-0.34
236.822	44.71
237.04	85.67
237.257	34.47
237.475	65.19
237.692	34.47
237.909	63.15
238.127	75.43
238.344	28.33
238.562	13.99
238.779	34.47
238.996	-2.39
239.214	22.19
239.431	122.54
239.648	34.47
239.865	42.67
240.083	13.99
240.3	75.43
240.517	42.67
240.735	-45.4
240.952	26.28
241.169	30.38
241.386	26.28
241.603	50.86
241.821	28.33
242.038	61.1
242.255	50.86
242.472	-14.68
242.689	77.48
242.907	52.91
243.124	18.09
243.341	11.95
243.558	9.9
243.775	-26.96
243.992	-22.87
244.209	59.05
244.426	85.67
244.643	42.67
244.86	71.34
245.078	42.67
245.295	91.82
245.512	11.95
245.729	9.9
245.946	83.63
246.163	71.34
246.38	112.3
246.597	-37.2
246.814	40.62
247.031	-6.49
247.248	36.52
247.464	34.47
247.681	77.48
247.898	69.29
248.115	13.99
248.332	-14.68
248.549	118.44
248.766	52.91
248.983	30.38
249.2	140.97
249.417	18.09
249.633	28.33
249.85	95.91
250.067	26.28
250.284	-18.77
250.501	91.82
250.717	9.9
250.934	-2.39
251.151	-6.49
251.368	61.1
251.585	52.91
251.801	52.91
252.018	18.09
252.235	77.48
252.451	-24.92
252.668	26.28
252.885	87.72
253.102	108.2
253.318	134.82
253.535	7.85
253.752	28.33
253.968	-0.34
254.185	9.9
254.401	36.52
254.618	30.38
254.835	-18.77
255.051	26.28
255.268	93.87
255.484	13.99
255.701	26.28
255.917	77.48
256.134	-22.87
256.351	20.14
256.567	20.14
256.784	134.82
257	59.05
257.217	67.24
257.433	83.63
257.65	50.86
257.866	85.67
258.082	-24.92
258.299	-8.53
258.515	112.3
258.732	-31.06
258.948	59.05
259.165	54.95
259.381	18.09
259.597	118.44
259.814	81.58
260.03	42.67
260.246	-31.06
260.463	-2.39
260.679	167.59
260.895	97.96
261.112	83.63
261.328	61.1
261.544	-37.2
261.761	42.67
261.977	22.19
262.193	-14.68
262.409	50.86
262.626	-14.68
262.842	67.24
263.058	16.04
263.274	89.77
263.49	69.29
263.707	-14.68
263.923	124.58
264.139	24.23
264.355	71.34
264.571	204.46
264.787	67.24
265.004	116.39
265.22	7.85
265.436	30.38
265.652	34.47
265.868	140.97
266.084	11.95
266.3	13.99
266.516	-35.16
266.732	30.38
266.948	7.85
267.164	-45.4
267.38	34.47
267.596	87.72
267.812	112.3
268.028	57
268.244	-8.53
268.46	13.99
268.676	5.8
268.892	52.91
269.108	-14.68
269.324	1.71
269.54	9.9
269.756	44.71
269.972	1.71
270.188	9.9
270.403	-20.82
270.619	91.82
270.835	-29.01
271.051	46.76
271.267	59.05
271.483	11.95
271.698	46.76
271.914	102.06
272.13	89.77
272.346	52.91
272.562	61.1
272.777	38.57
272.993	85.67
273.209	-20.82
273.425	87.72
273.64	46.76
273.856	30.38
274.072	34.47
274.287	18.09
274.503	79.53
274.719	36.52
274.934	26.28
275.15	-39.25
275.366	79.53
275.581	59.05
275.797	110.25
276.012	95.91
276.228	73.39
276.444	116.39
276.659	67.24
276.875	-20.82
277.09	81.58
277.306	42.67
277.521	95.91
277.737	-26.96
277.952	-12.63
278.168	34.47
278.383	77.48
278.599	59.05
278.814	67.24
279.03	110.25
279.245	97.96
279.461	-14.68
279.676	85.67
279.892	18.09
280.107	67.24
280.322	-49.49
280.538	7.85
280.753	-22.87
280.969	-31.06
281.184	-4.44
281.399	81.58
281.615	122.54
281.83	69.29
282.045	-26.96
282.26	102.06
282.476	54.95
282.691	75.43
282.906	54.95
283.122	67.24
283.337	18.09
283.552	87.72
283.767	-37.2
283.983	136.87
284.198	59.05
284.413	100.01
284.628	-14.68
284.843	91.82
285.058	-0.34
285.274	-24.92
285.489	24.23
285.704	44.71
285.919	69.29
286.134	-35.16
286.349	73.39
286.564	20.14
286.779	102.06
286.995	54.95
287.21	-31.06
287.425	93.87
287.64	34.47
287.855	42.67
288.07	-6.49
288.285	3.75
288.5	69.29
288.715	77.48
288.93	-6.49
289.145	50.86
289.36	116.39
289.575	46.76
289.79	132.78
290.004	11.95
290.219	100.01
290.434	13.99
290.649	-12.63
290.864	67.24
291.079	44.71
291.294	57
291.509	46.76
291.724	18.09
291.938	26.28
292.153	-6.49
292.368	3.75
292.583	36.52
292.798	52.91
293.012	36.52
293.227	-0.34
293.442	85.67
293.657	-2.39
293.871	57
294.086	97.96
294.301	124.58
294.516	42.67
294.73	-22.87
294.945	-0.34
295.16	54.95
295.374	57
295.589	83.63
295.804	73.39
296.018	11.95
296.233	75.43
296.447	79.53
296.662	-12.63
296.877	18.09
297.091	-0.34
297.306	28.33
297.52	79.53
297.735	38.57
297.949	11.95
298.164	67.24
298.378	18.09
298.593	-39.25
298.807	-72.02
299.022	138.92
299.236	116.39
299.451	67.24
299.665	9.9
299.88	20.14
300.094	-8.53
300.309	67.24
300.523	1.71
300.737	50.86
300.952	79.53
301.166	61.1
301.381	67.24
301.595	3.75
301.809	61.1
302.024	-31.06
302.238	-55.64
302.452	102.06
302.667	34.47
302.881	128.68
303.095	132.78
303.309	46.76
303.524	102.06
303.738	-18.77
303.952	42.67
304.166	108.2
304.381	-24.92
304.595	155.3
304.809	1.71
305.023	85.67
305.237	77.48
305.452	-20.82
305.666	38.57
305.88	71.34
306.094	91.82
306.308	26.28
306.522	44.71
306.736	34.47
306.95	108.2
307.164	13.99
307.379	13.99
307.593	48.81
307.807	46.76
308.021	36.52
308.235	116.39
308.449	-6.49
308.663	69.29
308.877	132.78
309.091	91.82
309.305	65.19
309.519	3.75
309.733	18.09
309.947	36.52
310.161	46.76
310.374	83.63
310.588	61.1
310.802	1.71
311.016	30.38
311.23	114.34
311.444	18.09
311.658	11.95
311.872	112.3
312.085	100.01
312.299	11.95
312.513	89.77
312.727	100.01
312.941	102.06
313.154	52.91
313.368	67.24
313.582	100.01
313.796	67.24
314.009	83.63
314.223	91.82
314.437	61.1
314.651	20.14
314.864	69.29
315.078	9.9
315.292	54.95
315.505	50.86
315.719	91.82
315.933	91.82
316.146	26.28
316.36	-43.35
316.573	104.11
316.787	13.99
317.001	63.15
317.214	116.39
317.428	67.24
317.641	63.15
317.855	-29.01
318.068	132.78
318.282	63.15
318.495	75.43
318.709	42.67
318.922	-10.58
319.136	102.06
319.349	67.24
319.563	44.71
319.776	65.19
319.99	13.99
320.203	95.91
320.417	-4.44
320.63	26.28
320.843	124.58
321.057	-4.44
321.27	44.71
321.483	59.05
321.697	102.06
321.91	87.72
322.124	91.82
322.337	75.43
322.55	69.29
322.763	61.1
322.977	52.91
323.19	-6.49
323.403	108.2
323.617	79.53
323.83	18.09
324.043	3.75
324.256	83.63
324.469	120.49
324.683	108.2
324.896	67.24
325.109	79.53
325.322	61.1
325.535	100.01
325.748	67.24
325.962	16.04
326.175	28.33
326.388	61.1
326.601	83.63
326.814	151.21
327.027	75.43
327.24	122.54
327.453	-4.44
327.666	26.28
327.879	79.53
328.092	50.86
328.305	65.19
328.518	3.75
328.731	42.67
328.944	42.67
329.157	57
329.37	34.47
329.583	71.34
329.796	147.11
330.009	42.67
330.222	50.86
330.435	18.09
330.648	75.43
330.861	57
331.073	91.82
331.286	110.25
331.499	50.86
331.712	54.95
331.925	104.11
332.138	108.2
332.35	79.53
332.563	22.19
332.776	75.43
332.989	16.04
333.202	-31.06
333.414	46.76
333.627	13.99
333.84	75.43
334.053	18.09
334.265	1.71
334.478	-22.87
334.691	40.62
334.903	63.15
335.116	13.99
335.329	-2.39
335.541	91.82
335.754	95.91
335.966	24.23
336.179	50.86
336.392	42.67
336.604	34.47
336.817	75.43
337.029	46.76
337.242	59.05
337.454	24.23
337.667	-6.49
337.88	104.11
338.092	36.52
338.305	83.63
338.517	-6.49
338.729	124.58
338.942	50.86
339.154	36.52
339.367	30.38
339.579	75.43
339.792	-14.68
340.004	110.25
340.217	16.04
340.429	28.33
340.641	18.09
340.854	28.33
341.066	42.67
341.278	128.68
341.491	106.15
341.703	59.05
341.915	1.71
342.128	149.16
342.34	44.71
342.552	63.15
342.764	83.63
342.977	75.43
343.189	71.34
343.401	63.15
343.613	-6.49
343.826	34.47
344.038	-53.59
344.25	85.67
344.462	91.82
344.674	54.95
344.886	18.09
345.099	83.63
345.311	52.91
345.523	91.82
345.735	-22.87
345.947	93.87
346.159	87.72
346.371	54.95
346.583	36.52
346.795	116.39
347.007	-61.78
347.219	77.48
347.431	-18.77
347.643	83.63
347.855	9.9
348.067	63.15
348.279	79.53
348.491	104.11
348.703	91.82
348.915	3.75
349.127	9.9
349.339	36.52
349.551	63.15
349.763	26.28
349.975	-14.68
350.187	59.05
350.399	67.24
350.61	67.24
350.822	91.82
351.034	104.11
351.246	-14.68
351.458	36.52
351.669	50.86
351.881	169.64
352.093	102.06
352.305	93.87
352.517	-18.77
352.728	118.44
352.94	9.9
353.152	69.29
353.363	-26.96
353.575	71.34
353.787	83.63
353.999	52.91
354.21	194.22
354.422	50.86
354.633	91.82
354.845	5.8
355.057	106.15
355.268	134.82
355.48	112.3
355.692	75.43
355.903	36.52
356.115	79.53
356.326	-29.01
356.538	151.21
356.749	79.53
356.961	59.05
357.172	67.24
357.384	20.14
357.595	110.25
357.807	13.99
358.018	75.43
358.23	52.91
358.441	69.29
358.653	120.49
358.864	110.25
359.075	38.57
359.287	77.48
359.498	77.48
359.709	157.35
359.921	36.52
360.132	71.34
360.344	50.86
360.555	71.34
360.766	18.09
360.977	71.34
361.189	26.28
361.4	-47.44
361.611	116.39
361.823	83.63
362.034	79.53
362.245	-8.53
362.456	83.63
362.667	26.28
362.879	-22.87
363.09	112.3
363.301	52.91
363.512	3.75
363.723	-29.01
363.935	-8.53
364.146	104.11
364.357	3.75
364.568	83.63
364.779	11.95
364.99	69.29
365.201	61.1
365.412	151.21
365.623	81.58
365.834	71.34
366.045	40.62
366.256	87.72
366.467	42.67
366.678	-6.49
366.889	-4.44
367.1	77.48
367.311	26.28
367.522	95.91
367.733	54.95
367.944	91.82
368.155	102.06
368.366	108.2
368.577	120.49
368.788	126.63
368.999	104.11
369.209	59.05
369.42	167.59
369.631	140.97
369.842	136.87
370.053	-22.87
370.264	79.53
370.474	42.67
370.685	46.76
370.896	75.43
371.107	11.95
371.317	54.95
371.528	46.76
371.739	83.63
371.95	22.19
372.16	134.82
372.371	110.25
372.582	136.87
372.792	63.15
373.003	52.91
373.214	85.67
373.424	83.63
373.635	-55.64
373.846	91.82
374.056	9.9
374.267	34.47
374.477	-31.06
374.688	54.95
374.898	24.23
375.109	34.47
375.319	34.47
375.53	87.72
375.74	48.81
375.951	59.05
376.161	108.2
376.372	140.97
376.582	54.95
376.793	67.24
377.003	108.2
377.214	-35.16
377.424	83.63
377.635	79.53
377.845	28.33
378.055	132.78
378.266	81.58
378.476	93.87
378.686	79.53
378.897	132.78
379.107	16.04
379.317	75.43
379.528	30.38
379.738	106.15
379.948	3.75
380.158	26.28
380.369	18.09
380.579	100.01
380.789	-14.68
380.999	91.82
381.21	42.67
381.42	149.16
381.63	30.38
381.84	69.29
382.05	28.33
382.261	59.05
382.471	116.39
382.681	87.72
382.891	183.98
383.101	118.44
383.311	134.82
383.521	-12.63
383.731	77.48
383.941	83.63
384.151	75.43
384.361	11.95
384.571	50.86
384.781	26.28
384.991	112.3
385.201	173.74
385.411	61.1
385.621	89.77
385.831	91.82
386.041	38.57
386.251	48.81
386.461	161.45
386.671	63.15
386.881	134.82
387.091	42.67
387.301	167.59
387.511	128.68
387.72	140.97
387.93	59.05
388.14	42.67
388.35	5.8
388.56	159.4
388.769	116.39
388.979	59.05
389.189	50.86
389.399	81.58
389.609	186.02
389.818	136.87
390.028	134.82
390.238	63.15
390.447	95.91
390.657	87.72
390.867	-22.87
391.076	91.82
391.286	143.02
391.496	89.77
391.705	93.87
391.915	108.2
392.125	69.29
392.334	71.34
392.544	77.48
392.753	177.83
392.963	151.21
393.172	61.1
393.382	36.52
393.591	143.02
393.801	134.82
394.01	165.54
394.22	132.78
394.429	100.01
394.639	97.96
394.848	120.49
395.058	126.63
395.267	91.82
395.477	167.59
395.686	85.67
395.895	104.11
396.105	200.36
396.314	81.58
396.524	128.68
396.733	83.63
396.942	177.83
397.152	95.91
397.361	181.93
397.57	140.97
397.78	157.35
397.989	140.97
398.198	167.59
398.407	143.02
398.617	91.82
398.826	59.05
399.035	161.45
399.244	153.26
399.453	149.16
399.663	159.4
399.872	167.59
400.081	75.43
400.29	161.45
400.499	116.39
400.708	249.51
400.917	112.3
401.127	126.63
401.336	132.78
401.545	192.17
401.754	218.79
401.963	83.63
402.172	104.11
402.381	118.44
402.59	157.35
402.799	198.31
403.008	251.56
403.217	188.07
403.426	157.35
403.635	134.82
403.844	169.64
404.053	175.78
404.262	190.12
404.471	194.22
404.68	257.7
404.888	132.78
405.097	159.4
405.306	233.13
405.515	214.7
405.724	218.79
405.933	132.78
406.142	202.41
406.35	255.65
406.559	288.42
406.768	226.98
406.977	323.24
407.185	239.27
407.394	222.89
407.603	280.23
407.812	280.23
408.02	337.57
408.229	278.18
408.438	300.71
408.646	329.38
408.855	362.15
409.064	358.05
409.272	298.66
409.481	476.84
409.69	394.92
409.898	353.96
410.107	446.12
410.315	487.08
410.524	413.35
410.733	554.66
410.941	444.07
411.15	476.84
411.358	517.79
411.567	513.7
411.775	509.6
411.984	568.99
412.192	583.33
412.401	650.91
412.609	626.34
412.818	599.71
413.026	669.34
413.234	624.29
413.443	659.1
413.651	734.88
413.86	683.68
414.068	841.37
414.276	781.98
414.485	814.75
414.693	911
414.901	978.59
415.11	888.48
415.318	935.58
415.526	1005.21
415.734	1037.98
415.943	1031.83
416.151	1183.38
416.359	1134.23
416.567	1152.67
416.776	1261.21
416.984	1205.91
417.192	1420.95
417.4	1345.17
417.608	1265.3
417.817	1443.48
418.025	1562.26
418.233	1623.7
418.441	1525.4
418.649	1601.17
418.857	1732.24
419.065	1783.44
419.273	1738.38
419.481	1881.74
419.689	2021
419.897	2014.86
420.105	2033.29
420.313	2053.77
420.521	2131.59
420.729	2182.79
420.937	2420.36
421.145	2414.21
421.353	2518.66
421.561	2594.44
421.769	2748.03
421.977	2795.14
422.185	2737.79
422.393	2887.29
422.601	3004.03
422.809	3212.92
423.017	3133.05
423.224	3266.17
423.432	3497.59
423.64	3327.61
423.848	3640.95
424.056	3694.19
424.263	3827.31
424.471	4042.35
424.679	4073.07
424.887	4171.37
425.094	4224.62
425.302	4277.87
425.51	4421.22
425.718	4490.85
425.925	4507.24
426.133	4765.28
426.341	5115.48
426.548	5416.54
426.756	5434.97
426.964	5346.91
427.171	5584.47
427.379	5807.7
427.586	5838.42
427.794	6088.27
428.001	6327.88
428.209	6655.56
428.417	6678.08
428.624	6956.61
428.832	7048.77
429.039	6927.94
429.247	7001.66
429.454	7638.58
429.662	8109.61
429.869	7538.23
430.076	8037.94
430.284	7974.45
430.491	8277.55
430.699	8644.13
430.906	8760.87
431.114	8715.81
431.321	9117.22
431.528	9264.67
431.736	9952.79
431.943	10374.67
432.15	10085.9
432.358	10145.3
432.565	10755.59
432.772	10649.1
432.979	11253.25
433.187	11453.95
433.394	11374.08
433.601	12199.41
433.808	12275.18
434.016	12002.8
434.223	12701.16
434.43	13436.38
434.637	13194.72
434.844	14005.72
435.052	14155.22
435.259	14003.67
435.466	14300.62
435.673	14077.4
435.88	15015.37
436.087	15742.39
436.294	15807.93
436.501	15398.34
436.708	15769.02
436.915	16188.85
437.122	16645.55
437.329	17407.39
437.537	17556.89
437.743	17413.54
437.95	17601.95
438.157	18609.55
438.364	19162.5
438.571	19088.78
438.778	19101.06
438.985	20862.32
439.192	20335.99
439.399	20800.88
439.606	19944.83
439.813	21658.98
440.02	22787.41
440.227	22424.92
440.433	22005.08
440.64	23207.24
440.847	22349.14
441.054	22986.06
441.261	25011.5
441.467	24331.58
441.674	25007.41
441.881	25951.52
442.088	25548.07
442.294	25513.25
442.501	26025.25
442.708	26834.19
442.914	27475.21
443.121	28974.32
443.328	28146.94
443.534	29869.28
443.741	29162.73
443.948	28775.67
444.154	30938.32
444.361	30854.36
444.568	31040.72
444.774	30700.76
444.981	31413.45
445.187	32253.12
445.394	33107.12
445.6	33209.52
445.807	36148.36
446.013	34434.21
446.22	35101.84
446.426	36605.05
446.633	36727.93
446.839	37655.66
447.046	36281.47
447.252	38618.21
447.459	38648.92
447.665	38354.02
447.871	40395.84
448.078	41661.49
448.284	39613.52
448.491	41049.14
448.697	42359.84
448.903	43062.3
449.11	43334.68
449.316	42621.98
449.522	43465.75
449.728	44147.72
449.935	44610.56
450.141	44856.32
450.347	45552.63
450.553	44205.06
450.76	44727.3
450.966	45882.35
451.172	45534.2
451.378	47084.51
451.584	45548.53
451.791	47041.5
451.997	47037.4
452.203	47549.4
452.409	47610.84
452.615	46992.35
452.821	45634.55
453.027	45138.94
453.233	47559.64
453.44	45423.61
453.646	46224.36
453.852	46177.26
454.058	46943.2
454.264	45888.49
454.47	46601.19
454.676	45337.59
454.882	46928.86
455.088	43107.35
455.294	43574.29
455.5	44350.47
455.705	44213.26
455.911	43056.15
456.117	42130.47
456.323	41806.89
456.529	39470.16
456.735	41266.23
456.941	39896.14
457.147	39568.46
457.352	37911.66
457.558	37768.3
457.764	38073.45
457.97	37102.71
458.176	36478.08
458.381	36185.22
458.587	34714.78
458.793	34483.36
458.999	32945.33
459.204	35136.66
459.41	34307.23
459.616	31818.95
459.821	31567.05
460.027	31739.08
460.233	31337.68
460.438	29721.83
460.644	29775.08
460.85	28759.28
461.055	27940.1
461.261	27731.2
461.466	25488.68
461.672	24890.67
461.878	26924.3
462.083	24956.21
462.289	24773.94
462.494	24120.63
462.7	23276.87
462.905	22910.29
463.111	23506.24
463.316	23688.51
463.522	22916.43
463.727	22885.71
463.932	22984.01
464.138	22773.07
464.343	22900.05
464.549	22285.65
464.754	22916.43
464.959	22740.3
465.165	22455.64
465.37	21308.77
465.575	20804.97
465.781	21687.65
465.986	21658.98
