Data from USB4F104151__206__14-33-21-624.txt Node

Date: Thu Mar 13 14:33:21 EDT 2025
User: louis
Spectrometer: USB4F10415
Trigger mode: 4
Integration Time (sec): 2.500000E-2
Scans to average: 1
Electric dark correction enabled: true
Nonlinearity correction enabled: false
Boxcar width: 0
XAxis mode: Wavelengths
Number of Pixels in Spectrum: 3648
>>>>>Begin Spectral Data<<<<<
178.204	-138.92
178.424	-138.92
178.644	-138.92
178.864	-188.07
179.084	-134.82
179.304	31.06
179.524	29.01
179.744	-18.09
179.964	65.88
180.184	41.3
180.404	-65.19
180.624	-40.62
180.844	20.82
181.064	20.82
181.283	-30.38
181.503	-57
181.723	2.39
181.943	-75.43
182.163	74.07
182.383	-44.71
182.602	53.59
182.822	45.4
183.042	149.84
183.262	24.92
183.482	20.82
183.701	55.64
183.921	-44.71
184.141	-40.62
184.361	90.45
184.58	35.16
184.8	33.11
185.02	16.73
185.239	20.82
185.459	-40.62
185.679	-3.75
185.898	-5.8
186.118	-34.47
186.338	-32.43
186.557	110.93
186.777	61.78
186.997	47.44
187.216	18.77
187.436	86.36
187.655	-3.75
187.875	-16.04
188.095	45.4
188.314	61.78
188.534	69.97
188.753	-20.14
188.973	-24.23
189.192	4.44
189.412	-38.57
189.631	-50.86
189.851	10.58
190.07	6.49
190.29	-32.43
190.509	31.06
190.729	-24.23
190.948	115.03
191.168	112.98
191.387	80.21
191.607	8.53
191.826	55.64
192.045	-11.95
192.265	4.44
192.484	-44.71
192.704	-34.47
192.923	24.92
193.142	33.11
193.362	6.49
193.581	53.59
193.8	10.58
194.02	78.16
194.239	147.8
194.458	59.73
194.678	-44.71
194.897	20.82
195.116	8.53
195.335	12.63
195.555	61.78
195.774	29.01
195.993	41.3
196.212	29.01
196.432	-11.95
196.651	29.01
196.87	49.49
197.089	72.02
197.308	-13.99
197.528	-11.95
197.747	-16.04
197.966	57.68
198.185	84.31
198.404	-42.67
198.623	4.44
198.842	53.59
199.062	129.36
199.281	86.36
199.5	61.78
199.719	37.2
199.938	135.51
200.157	74.07
200.376	-32.43
200.595	-5.8
200.814	39.25
201.033	-18.09
201.252	39.25
201.471	29.01
201.69	39.25
201.909	12.63
202.128	20.82
202.347	6.49
202.566	6.49
202.785	-69.29
203.004	-1.71
203.223	20.82
203.442	-11.95
203.661	45.4
203.879	0.34
204.098	63.83
204.317	-20.14
204.536	12.63
204.755	39.25
204.974	102.74
205.193	63.83
205.411	86.36
205.63	61.78
205.849	53.59
206.068	69.97
206.287	8.53
206.505	-26.28
206.724	74.07
206.943	-3.75
207.162	43.35
207.381	69.97
207.599	0.34
207.818	80.21
208.037	12.63
208.255	-20.14
208.474	53.59
208.693	47.44
208.911	-50.86
209.13	53.59
209.349	47.44
209.567	-16.04
209.786	65.88
210.005	69.97
210.223	-7.85
210.442	-61.1
210.661	67.92
210.879	39.25
211.098	-44.71
211.316	4.44
211.535	51.54
211.753	-22.19
211.972	20.82
212.191	88.4
212.409	-77.48
212.628	37.2
212.846	-5.8
213.065	-3.75
213.283	76.12
213.502	20.82
213.72	0.34
213.938	26.96
214.157	-28.33
214.375	6.49
214.594	14.68
214.812	63.83
215.031	67.92
215.249	61.78
215.467	31.06
215.686	-16.04
215.904	63.83
216.122	45.4
216.341	55.64
216.559	35.16
216.778	82.26
216.996	53.59
217.214	-11.95
217.432	4.44
217.651	-28.33
217.869	26.96
218.087	41.3
218.306	47.44
218.524	51.54
218.742	37.2
218.96	29.01
219.179	31.06
219.397	0.34
219.615	69.97
219.833	41.3
220.051	-32.43
220.27	-11.95
220.488	102.74
220.706	31.06
220.924	-57
221.142	94.55
221.36	22.87
221.578	39.25
221.796	43.35
222.015	43.35
222.233	37.2
222.451	61.78
222.669	-20.14
222.887	43.35
223.105	-38.57
223.323	-28.33
223.541	26.96
223.759	86.36
223.977	22.87
224.195	43.35
224.413	-3.75
224.631	72.02
224.849	69.97
225.067	80.21
225.285	20.82
225.503	12.63
225.721	-30.38
225.939	37.2
226.157	8.53
226.375	86.36
226.592	-30.38
226.81	61.78
227.028	112.98
227.246	57.68
227.464	69.97
227.682	47.44
227.9	104.79
228.117	49.49
228.335	88.4
228.553	-40.62
228.771	18.77
228.989	53.59
229.206	65.88
229.424	76.12
229.642	53.59
229.86	37.2
230.077	-11.95
230.295	-34.47
230.513	47.44
230.731	39.25
230.948	53.59
231.166	63.83
231.384	4.44
231.601	-9.9
231.819	90.45
232.037	22.87
232.254	-32.43
232.472	31.06
232.689	-44.71
232.907	-3.75
233.125	45.4
233.342	12.63
233.56	31.06
233.777	43.35
233.995	90.45
234.213	29.01
234.43	153.94
234.648	59.73
234.865	-28.33
235.083	110.93
235.3	45.4
235.518	45.4
235.735	69.97
235.953	125.27
236.17	20.82
236.388	45.4
236.605	-11.95
236.822	65.88
237.04	61.78
237.257	82.26
237.475	78.16
237.692	4.44
237.909	20.82
238.127	-18.09
238.344	4.44
238.562	57.68
238.779	37.2
238.996	29.01
239.214	57.68
239.431	61.78
239.648	61.78
239.865	33.11
240.083	51.54
240.3	8.53
240.517	-46.76
240.735	4.44
240.952	78.16
241.169	37.2
241.386	88.4
241.603	55.64
241.821	-91.82
242.038	100.69
242.255	12.63
242.472	4.44
242.689	22.87
242.907	102.74
243.124	31.06
243.341	39.25
243.558	-44.71
243.775	63.83
243.992	-85.67
244.209	0.34
244.426	78.16
244.643	-34.47
244.86	8.53
245.078	82.26
245.295	4.44
245.512	6.49
245.729	55.64
245.946	45.4
246.163	0.34
246.38	39.25
246.597	96.6
246.814	12.63
247.031	8.53
247.248	88.4
247.464	20.82
247.681	2.39
247.898	29.01
248.115	20.82
248.332	55.64
248.549	82.26
248.766	61.78
248.983	88.4
249.2	8.53
249.417	6.49
249.633	26.96
249.85	-18.09
250.067	4.44
250.284	2.39
250.501	41.3
250.717	37.2
250.934	20.82
251.151	20.82
251.368	53.59
251.585	33.11
251.801	-61.1
252.018	39.25
252.235	51.54
252.451	33.11
252.668	29.01
252.885	39.25
253.102	33.11
253.318	16.73
253.535	16.73
253.752	-28.33
253.968	-9.9
254.185	6.49
254.401	-48.81
254.618	33.11
254.835	14.68
255.051	123.22
255.268	45.4
255.484	-1.71
255.701	67.92
255.917	96.6
256.134	-11.95
256.351	33.11
256.567	33.11
256.784	-26.28
257	-69.29
257.217	20.82
257.433	45.4
257.65	65.88
257.866	8.53
258.082	-9.9
258.299	16.73
258.515	37.2
258.732	37.2
258.948	72.02
259.165	47.44
259.381	-3.75
259.597	22.87
259.814	49.49
260.03	-22.19
260.246	-1.71
260.463	39.25
260.679	39.25
260.895	55.64
261.112	35.16
261.328	43.35
261.544	12.63
261.761	117.08
261.977	-30.38
262.193	-1.71
262.409	-5.8
262.626	31.06
262.842	0.34
263.058	33.11
263.274	110.93
263.49	-34.47
263.707	65.88
263.923	14.68
264.139	39.25
264.355	47.44
264.571	41.3
264.787	24.92
265.004	51.54
265.22	14.68
265.436	-5.8
265.652	45.4
265.868	20.82
266.084	10.58
266.3	119.12
266.516	-20.14
266.732	37.2
266.948	45.4
267.164	-16.04
267.38	51.54
267.596	12.63
267.812	33.11
268.028	63.83
268.244	16.73
268.46	14.68
268.676	45.4
268.892	49.49
269.108	-34.47
269.324	-34.47
269.54	-7.85
269.756	69.97
269.972	-28.33
270.188	22.87
270.403	2.39
270.619	37.2
270.835	10.58
271.051	22.87
271.267	69.97
271.483	-16.04
271.698	80.21
271.914	41.3
272.13	55.64
272.346	20.82
272.562	-24.23
272.777	90.45
272.993	110.93
273.209	8.53
273.425	20.82
273.64	-85.67
273.856	39.25
274.072	22.87
274.287	-7.85
274.503	115.03
274.719	4.44
274.934	61.78
275.15	24.92
275.366	94.55
275.581	-20.14
275.797	24.92
276.012	119.12
276.228	-42.67
276.444	-28.33
276.659	67.92
276.875	4.44
277.09	20.82
277.306	53.59
277.521	43.35
277.737	74.07
277.952	-1.71
278.168	-11.95
278.383	45.4
278.599	39.25
278.814	45.4
279.03	33.11
279.245	12.63
279.461	26.96
279.676	86.36
279.892	14.68
280.107	-67.24
280.322	37.2
280.538	102.74
280.753	22.87
280.969	-28.33
281.184	41.3
281.399	98.64
281.615	-69.29
281.83	61.78
282.045	-7.85
282.26	29.01
282.476	12.63
282.691	121.17
282.906	6.49
283.122	12.63
283.337	-57
283.552	49.49
283.767	53.59
283.983	110.93
284.198	0.34
284.413	59.73
284.628	-134.82
284.843	43.35
285.058	29.01
285.274	61.78
285.489	8.53
285.704	102.74
285.919	-65.19
286.134	2.39
286.349	39.25
286.564	35.16
286.779	45.4
286.995	78.16
287.21	-28.33
287.425	112.98
287.64	-7.85
287.855	65.88
288.07	2.39
288.285	96.6
288.5	72.02
288.715	4.44
288.93	29.01
289.145	22.87
289.36	12.63
289.575	39.25
289.79	45.4
290.004	-52.91
290.219	49.49
290.434	4.44
290.649	26.96
290.864	110.93
291.079	47.44
291.294	33.11
291.509	69.97
291.724	74.07
291.938	-32.43
292.153	53.59
292.368	33.11
292.583	-26.28
292.798	104.79
293.012	78.16
293.227	82.26
293.442	-11.95
293.657	51.54
293.871	45.4
294.086	4.44
294.301	119.12
294.516	78.16
294.73	41.3
294.945	4.44
295.16	16.73
295.374	69.97
295.589	94.55
295.804	14.68
296.018	8.53
296.233	86.36
296.447	61.78
296.662	45.4
296.877	55.64
297.091	6.49
297.306	119.12
297.52	45.4
297.735	10.58
297.949	43.35
298.164	18.77
298.378	37.2
298.593	16.73
298.807	-9.9
299.022	-16.04
299.236	69.97
299.451	61.78
299.665	2.39
299.88	39.25
300.094	41.3
300.309	74.07
300.523	72.02
300.737	-52.91
300.952	4.44
301.166	16.73
301.381	57.68
301.595	18.77
301.809	96.6
302.024	20.82
302.238	53.59
302.452	106.84
302.667	49.49
302.881	63.83
303.095	43.35
303.309	72.02
303.524	-13.99
303.738	37.2
303.952	14.68
304.166	35.16
304.381	-36.52
304.595	45.4
304.809	57.68
305.023	8.53
305.237	-52.91
305.452	-11.95
305.666	53.59
305.88	88.4
306.094	133.46
306.308	20.82
306.522	69.97
306.736	69.97
306.95	20.82
307.164	22.87
307.379	-18.09
307.593	61.78
307.807	80.21
308.021	-9.9
308.235	67.92
308.449	12.63
308.663	37.2
308.877	69.97
309.091	53.59
309.305	78.16
309.519	-69.29
309.733	51.54
309.947	-20.14
310.161	45.4
310.374	55.64
310.588	59.73
310.802	-36.52
311.016	33.11
311.23	20.82
311.444	61.78
311.658	57.68
311.872	94.55
312.085	61.78
312.299	39.25
312.513	76.12
312.727	82.26
312.941	45.4
313.154	41.3
313.368	39.25
313.582	12.63
313.796	-69.29
314.009	22.87
314.223	65.88
314.437	39.25
314.651	-11.95
314.864	-26.28
315.078	-11.95
315.292	-3.75
315.505	-52.91
315.719	12.63
315.933	78.16
316.146	78.16
316.36	-52.91
316.573	31.06
316.787	55.64
317.001	20.82
317.214	-26.28
317.428	2.39
317.641	-5.8
317.855	-11.95
318.068	49.49
318.282	65.88
318.495	74.07
318.709	24.92
318.922	12.63
319.136	29.01
319.349	86.36
319.563	4.44
319.776	37.2
319.99	-11.95
320.203	106.84
320.417	-28.33
320.63	69.97
320.843	90.45
321.057	149.84
321.27	12.63
321.483	-40.62
321.697	72.02
321.91	-57
322.124	78.16
322.337	51.54
322.55	63.83
322.763	74.07
322.977	65.88
323.19	47.44
323.403	51.54
323.617	55.64
323.83	72.02
324.043	39.25
324.256	43.35
324.469	35.16
324.683	45.4
324.896	106.84
325.109	78.16
325.322	-20.14
325.535	65.88
325.748	49.49
325.962	-9.9
326.175	80.21
326.388	119.12
326.601	12.63
326.814	-3.75
327.027	12.63
327.24	63.83
327.453	14.68
327.666	47.44
327.879	98.64
328.092	96.6
328.305	-7.85
328.518	39.25
328.731	-7.85
328.944	31.06
329.157	2.39
329.37	-18.09
329.583	94.55
329.796	53.59
330.009	22.87
330.222	-1.71
330.435	45.4
330.648	14.68
330.861	110.93
331.073	45.4
331.286	102.74
331.499	69.97
331.712	20.82
331.925	29.01
332.138	-32.43
332.35	86.36
332.563	55.64
332.776	12.63
332.989	-11.95
333.202	12.63
333.414	31.06
333.627	37.2
333.84	29.01
334.053	29.01
334.265	-1.71
334.478	37.2
334.691	-42.67
334.903	63.83
335.116	61.78
335.329	20.82
335.541	-28.33
335.754	72.02
335.966	-34.47
336.179	-3.75
336.392	74.07
336.604	51.54
336.817	35.16
337.029	137.56
337.242	0.34
337.454	82.26
337.667	-9.9
337.88	72.02
338.092	12.63
338.305	43.35
338.517	22.87
338.729	86.36
338.942	80.21
339.154	20.82
339.367	-28.33
339.579	-20.14
339.792	4.44
340.004	47.44
340.217	-3.75
340.429	55.64
340.641	-48.81
340.854	47.44
341.066	55.64
341.278	102.74
341.491	168.27
341.703	-3.75
341.915	41.3
342.128	88.4
342.34	16.73
342.552	-22.19
342.764	22.87
342.977	-5.8
343.189	172.37
343.401	90.45
343.613	-3.75
343.826	47.44
344.038	29.01
344.25	-1.71
344.462	20.82
344.674	12.63
344.886	86.36
345.099	-48.81
345.311	53.59
345.523	39.25
345.735	45.4
345.947	31.06
346.159	94.55
346.371	47.44
346.583	-20.14
346.795	78.16
347.007	37.2
347.219	119.12
347.431	22.87
347.643	53.59
347.855	29.01
348.067	112.98
348.279	-32.43
348.491	55.64
348.703	162.13
348.915	39.25
349.127	-28.33
349.339	-11.95
349.551	84.31
349.763	-16.04
349.975	55.64
350.187	53.59
350.399	78.16
350.61	78.16
350.822	37.2
351.034	94.55
351.246	80.21
351.458	57.68
351.669	20.82
351.881	96.6
352.093	65.88
352.305	90.45
352.517	49.49
352.728	94.55
352.94	31.06
353.152	41.3
353.363	37.2
353.575	47.44
353.787	82.26
353.999	61.78
354.21	49.49
354.422	8.53
354.633	74.07
354.845	63.83
355.057	69.97
355.268	69.97
355.48	117.08
355.692	20.82
355.903	39.25
356.115	47.44
356.326	86.36
356.538	104.79
356.749	63.83
356.961	82.26
357.172	35.16
357.384	4.44
357.595	180.56
357.807	-7.85
358.018	63.83
358.23	69.97
358.441	78.16
358.653	53.59
358.864	139.6
359.075	49.49
359.287	47.44
359.498	78.16
359.709	67.92
359.921	53.59
360.132	57.68
360.344	86.36
360.555	10.58
360.766	86.36
360.977	12.63
361.189	63.83
361.4	-9.9
361.611	63.83
361.823	41.3
362.034	92.5
362.245	33.11
362.456	39.25
362.667	94.55
362.879	61.78
363.09	61.78
363.301	88.4
363.512	29.01
363.723	4.44
363.935	37.2
364.146	22.87
364.357	69.97
364.568	-3.75
364.779	37.2
364.99	110.93
365.201	57.68
365.412	53.59
365.623	6.49
365.834	129.36
366.045	18.77
366.256	26.96
366.467	92.5
366.678	12.63
366.889	63.83
367.1	0.34
367.311	94.55
367.522	-1.71
367.733	57.68
367.944	69.97
368.155	-3.75
368.366	104.79
368.577	78.16
368.788	78.16
368.999	78.16
369.209	49.49
369.42	57.68
369.631	37.2
369.842	-36.52
370.053	35.16
370.264	29.01
370.474	-3.75
370.685	112.98
370.896	61.78
371.107	51.54
371.317	104.79
371.528	102.74
371.739	63.83
371.95	84.31
372.16	53.59
372.371	-18.09
372.582	-9.9
372.792	63.83
373.003	26.96
373.214	45.4
373.424	57.68
373.635	63.83
373.846	41.3
374.056	98.64
374.267	129.36
374.477	104.79
374.688	88.4
374.898	55.64
375.109	110.93
375.319	29.01
375.53	20.82
375.74	94.55
375.951	41.3
376.161	104.79
376.372	86.36
376.582	69.97
376.793	110.93
377.003	37.2
377.214	12.63
377.424	41.3
377.635	22.87
377.845	-7.85
378.055	53.59
378.266	22.87
378.476	72.02
378.686	55.64
378.897	69.97
379.107	12.63
379.317	69.97
379.528	31.06
379.738	129.36
379.948	24.92
380.158	80.21
380.369	4.44
380.579	121.17
380.789	135.51
380.999	16.73
381.21	112.98
381.42	145.75
381.63	29.01
381.84	4.44
382.05	82.26
382.261	72.02
382.471	102.74
382.681	-24.23
382.891	86.36
383.101	51.54
383.311	82.26
383.521	121.17
383.731	41.3
383.941	-3.75
384.151	80.21
384.361	94.55
384.571	47.44
384.781	74.07
384.991	84.31
385.201	86.36
385.411	94.55
385.621	61.78
385.831	90.45
386.041	22.87
386.251	43.35
386.461	129.36
386.671	119.12
386.881	-18.09
387.091	88.4
387.301	78.16
387.511	10.58
387.72	84.31
387.93	104.79
388.14	-28.33
388.35	108.88
388.56	102.74
388.769	88.4
388.979	33.11
389.189	53.59
389.399	115.03
389.609	39.25
389.818	104.79
390.028	76.12
390.238	72.02
390.447	53.59
390.657	0.34
390.867	6.49
391.076	80.21
391.286	63.83
391.496	86.36
391.705	78.16
391.915	102.74
392.125	127.32
392.334	14.68
392.544	121.17
392.753	80.21
392.963	123.22
393.172	51.54
393.382	104.79
393.591	147.8
393.801	86.36
394.01	145.75
394.22	88.4
394.429	82.26
394.639	94.55
394.848	65.88
395.058	88.4
395.267	57.68
395.477	133.46
395.686	29.01
395.895	186.71
396.105	143.7
396.314	88.4
396.524	67.92
396.733	119.12
396.942	115.03
397.152	205.14
397.361	194.9
397.57	53.59
397.78	186.71
397.989	106.84
398.198	155.99
398.407	98.64
398.617	69.97
398.826	106.84
399.035	153.94
399.244	219.47
399.453	153.94
399.663	168.27
399.872	106.84
400.081	112.98
400.29	268.63
400.499	151.89
400.708	225.62
400.917	94.55
401.127	143.7
401.336	86.36
401.545	203.09
401.754	119.12
401.963	141.65
402.172	69.97
402.381	217.43
402.59	121.17
402.799	172.37
403.008	244.05
403.217	229.71
403.426	229.71
403.635	145.75
403.844	127.32
404.053	153.94
404.262	170.32
404.471	270.67
404.68	184.66
404.888	213.33
405.097	211.28
405.306	192.85
405.515	233.81
405.724	198.99
405.933	270.67
406.142	227.67
406.35	233.81
406.559	209.23
406.768	182.61
406.977	303.44
407.185	309.58
407.394	254.29
407.603	225.62
407.812	364.88
408.02	278.87
408.229	291.15
408.438	217.43
408.646	317.78
408.855	270.67
409.064	375.12
409.272	348.5
409.481	323.92
409.69	399.7
409.898	428.37
410.107	454.99
410.315	319.82
410.524	479.57
410.733	438.61
410.941	444.75
411.15	541.01
411.358	510.29
411.567	555.34
411.775	479.57
411.984	569.68
412.192	635.21
412.401	627.02
412.609	641.36
412.818	678.22
413.026	700.75
413.234	635.21
413.443	733.51
413.651	676.17
413.86	733.51
414.068	825.67
414.276	829.77
414.485	913.74
414.693	895.3
414.901	930.12
415.11	997.7
415.318	958.79
415.526	981.32
415.734	1079.62
415.943	1102.15
416.151	1118.53
416.359	1196.36
416.567	1126.72
416.776	1270.08
416.984	1341.76
417.192	1466.69
417.4	1392.96
417.608	1392.96
417.817	1325.38
418.025	1515.84
418.233	1659.2
418.441	1532.22
418.649	1696.06
418.857	1741.11
419.065	1917.24
419.273	1755.45
419.481	1921.34
419.689	1956.15
419.897	2138.42
420.105	2089.27
420.313	2199.86
420.521	2103.61
420.729	2296.11
420.937	2349.36
421.145	2380.08
421.353	2674.99
421.561	2662.7
421.769	2625.84
421.977	2808.11
422.185	2736.43
422.393	2941.22
422.601	3178.79
422.809	3148.07
423.017	3180.84
423.224	3299.62
423.432	3402.02
423.64	3485.98
423.848	3799.32
424.056	3619.1
424.263	3997.98
424.471	3987.74
424.679	3967.26
424.887	4178.2
425.094	4395.28
425.302	4370.71
425.51	4495.63
425.718	4755.72
425.925	4616.46
426.133	4974.86
426.341	5341.44
426.548	5427.46
426.756	5366.02
426.964	5558.53
427.171	5865.72
427.379	5914.88
427.586	6056.18
427.794	6248.69
428.001	6535.41
428.209	6867.18
428.417	6629.62
428.624	7133.42
428.832	7084.27
429.039	7098.6
429.247	7332.07
429.454	7909.6
429.662	8329.43
429.869	7844.06
430.076	8380.63
430.284	8093.91
430.491	8724.69
430.699	8853.71
430.906	8802.51
431.114	8982.73
431.321	9402.57
431.528	9421
431.736	10047.68
431.943	10381.49
432.15	10248.38
432.358	10170.55
432.565	10832.05
432.772	10911.92
432.979	11313.32
433.187	11612.32
433.394	11681.96
433.601	12304.54
433.808	12482.71
434.016	12443.8
434.223	13004.94
434.43	13553.8
434.637	13402.25
434.844	14291.07
435.052	14622.84
435.259	14602.36
435.466	14522.49
435.673	14413.95
435.88	15415.4
436.087	16011.36
436.294	16171.1
436.501	15724.65
436.708	16105.57
436.915	16842.84
437.122	17223.76
437.329	17451.08
437.537	17561.67
437.743	18004.03
437.95	17879.11
438.157	18995.25
438.364	19451.95
438.571	19806.25
438.778	19791.91
438.985	21467.15
439.192	20496.41
439.399	21411.85
439.606	20607
439.813	21997.57
440.02	23369.71
440.227	22700.03
440.433	22452.22
440.64	23683.05
440.847	23101.43
441.054	23875.56
441.261	25548.75
441.467	24805.34
441.674	25358.29
441.881	26535.87
442.088	26122.18
442.294	25778.12
442.501	26482.63
442.708	27436.98
442.914	28213.16
443.121	29513.62
443.328	28712.86
443.534	30887.81
443.741	29726.61
443.948	28895.13
444.154	31514.48
444.361	31317.88
444.568	31524.72
444.774	31225.72
444.981	31838.06
445.187	32687.97
445.394	33922.9
445.6	33793.87
445.807	36409.13
446.013	34744.13
446.22	35630.9
446.426	37439.26
446.633	37371.68
446.839	38975.23
447.046	36917.03
447.252	38979.33
447.459	39149.31
447.665	39051.01
447.871	40867.56
448.078	42321.62
448.284	40543.98
448.491	41490.14
448.697	43140.8
448.903	44054.2
449.11	44072.63
449.316	43132.61
449.522	44082.87
449.728	45162.15
449.935	45352.61
450.141	45452.96
450.347	46554.77
450.553	44916.39
450.76	45424.29
450.966	46827.15
451.172	46562.96
451.378	48162.42
451.584	46620.3
451.791	48088.7
451.997	47752.83
452.203	48572.02
452.409	48311.92
452.615	48080.5
452.821	46544.53
453.027	45874.84
453.233	48232.05
453.44	46452.37
453.646	46982.79
453.852	47355.52
454.058	47681.15
454.264	46509.71
454.47	47726.21
454.676	46116.5
454.882	47783.55
455.088	43781.82
455.294	44396.21
455.5	45418.14
455.705	45477.54
455.911	43798.2
456.117	42950.34
456.323	42462.93
456.529	40060.66
456.735	41944.79
456.941	40494.83
457.147	40214.26
457.352	38987.52
457.558	39020.29
457.764	38795.01
457.97	37900.05
458.176	37304.09
458.381	36765.48
458.587	35467.06
458.793	35262.27
458.999	33509.21
459.204	35983.15
459.41	34940.74
459.616	32882.53
459.821	32378.73
460.027	32720.74
460.233	31518.58
460.438	30297.99
460.644	30728.06
460.85	29206.42
461.055	28739.49
461.261	28475.3
461.466	26251.2
461.672	25456.59
461.878	27623.34
462.083	25851.85
462.289	24938.46
462.494	25022.42
462.7	23627.76
462.905	22960.12
463.111	24059.88
463.316	23834.6
463.522	23273.46
463.727	23416.82
463.932	23492.59
464.138	23115.76
464.343	23031.8
464.549	22532.09
464.754	23107.57
464.959	23183.35
465.165	22831.1
465.37	21717
465.575	21415.95
465.781	21815.3
465.986	22151.17
466.191	21344.27
466.397	21217.3
466.602	19951.65
466.807	20631.58
467.012	20539.42
467.218	20510.75
