Data from USB4F104151__258__14-34-19-808.txt Node

Date: Thu Mar 13 14:34:19 EDT 2025
User: louis
Spectrometer: USB4F10415
Trigger mode: 4
Integration Time (sec): 2.500000E-2
Scans to average: 1
Electric dark correction enabled: true
Nonlinearity correction enabled: false
Boxcar width: 0
XAxis mode: Wavelengths
Number of Pixels in Spectrum: 3648
>>>>>Begin Spectral Data<<<<<
178.204	-223.06
178.424	-223.06
178.644	-223.06
178.864	-200.53
179.084	-204.63
179.304	-63.32
179.524	69.8
179.744	-12.12
179.964	84.14
180.184	-42.84
180.404	-22.36
180.624	-55.12
180.844	14.51
181.064	-55.12
181.283	10.41
181.503	2.22
181.723	69.8
181.943	-89.94
182.163	4.27
182.383	30.89
182.602	-12.12
182.822	-44.88
183.042	-10.07
183.262	-28.5
183.482	-18.26
183.701	-48.98
183.921	10.41
184.141	-51.03
184.361	51.37
184.58	-55.12
184.8	10.41
185.02	-63.32
185.239	39.08
185.459	4.27
185.679	28.84
185.898	-28.5
186.118	-63.32
186.338	8.36
186.557	-1.88
186.777	-30.55
186.997	-32.6
187.216	-12.12
187.436	26.79
187.655	67.75
187.875	63.66
188.095	-1.88
188.314	-28.5
188.534	26.79
188.753	-77.65
188.973	-10.07
189.192	92.33
189.412	30.89
189.631	28.84
189.851	2.22
190.07	-42.84
190.29	8.36
190.509	-22.36
190.729	-55.12
190.948	0.17
191.168	86.19
191.387	-5.97
191.607	-79.7
191.826	30.89
192.045	-22.36
192.265	-18.26
192.484	41.13
192.704	-10.07
192.923	-100.18
193.142	61.61
193.362	43.18
193.581	100.52
193.8	43.18
194.02	0.17
194.239	-14.17
194.458	-55.12
194.678	-5.97
194.897	30.89
195.116	-18.26
195.335	-20.31
195.555	-28.5
195.774	14.51
195.993	86.19
196.212	-8.02
196.432	-38.74
196.651	6.31
196.87	22.7
197.089	-24.4
197.308	49.32
197.528	22.7
197.747	-102.23
197.966	18.6
198.185	2.22
198.404	-51.03
198.623	-14.17
198.842	18.6
199.062	82.09
199.281	53.42
199.5	16.55
199.719	-14.17
199.938	-32.6
200.157	59.56
200.376	4.27
200.595	22.7
200.814	75.95
201.033	6.31
201.252	18.6
201.471	-10.07
201.69	63.66
201.909	-71.51
202.128	-73.56
202.347	102.57
202.566	18.6
202.785	-38.74
203.004	-71.51
203.223	149.67
203.442	61.61
203.661	-96.08
203.879	18.6
204.098	-5.97
204.317	-32.6
204.536	-71.51
204.755	-53.08
204.974	26.79
205.193	88.23
205.411	143.53
205.63	65.71
205.849	2.22
206.068	37.03
206.287	2.22
206.505	43.18
206.724	28.84
206.943	-28.5
207.162	-12.12
207.381	-51.03
207.599	-20.31
207.818	-26.45
208.037	-44.88
208.255	-5.97
208.474	28.84
208.693	26.79
208.911	-28.5
209.13	6.31
209.349	-38.74
209.567	-36.69
209.786	108.71
210.005	-5.97
210.223	41.13
210.442	-46.93
210.661	-20.31
210.879	-18.26
211.098	-75.6
211.316	30.89
211.535	-5.97
211.753	-63.32
211.972	32.94
212.191	-55.12
212.409	-22.36
212.628	63.66
212.846	-61.27
213.065	12.46
213.283	34.99
213.502	-34.64
213.72	-46.93
213.938	-34.64
214.157	0.17
214.375	43.18
214.594	-36.69
214.812	-1.88
215.031	-3.93
215.249	-28.5
215.467	30.89
215.686	88.23
215.904	41.13
216.122	-5.97
216.341	4.27
216.559	28.84
216.778	2.22
216.996	10.41
217.214	59.56
217.432	-1.88
217.651	37.03
217.869	-36.69
218.087	51.37
218.306	39.08
218.524	-40.79
218.742	-8.02
218.96	10.41
219.179	10.41
219.397	-3.93
219.615	75.95
219.833	86.19
220.051	-46.93
220.27	-36.69
220.488	-14.17
220.706	51.37
220.924	10.41
221.142	-10.07
221.36	51.37
221.578	59.56
221.796	47.27
222.015	-12.12
222.233	-14.17
222.451	71.85
222.669	-42.84
222.887	59.56
223.105	-104.28
223.323	12.46
223.541	-61.27
223.759	-3.93
223.977	-30.55
224.195	51.37
224.413	61.61
224.631	-46.93
224.849	-16.21
225.067	45.23
225.285	-3.93
225.503	-5.97
225.721	-46.93
225.939	0.17
226.157	-53.08
226.375	34.99
226.592	20.65
226.81	-3.93
227.028	2.22
227.246	43.18
227.464	-46.93
227.682	75.95
227.9	-28.5
228.117	16.55
228.335	0.17
228.553	-59.22
228.771	-28.5
228.989	-38.74
229.206	67.75
229.424	-14.17
229.642	-59.22
229.86	26.79
230.077	20.65
230.295	-5.97
230.513	-20.31
230.731	47.27
230.948	57.51
231.166	-22.36
231.384	2.22
231.601	6.31
231.819	71.85
232.037	73.9
232.254	20.65
232.472	-14.17
232.689	-34.64
232.907	43.18
233.125	-38.74
233.342	45.23
233.56	-46.93
233.777	-71.51
233.995	-22.36
234.213	-5.97
234.43	-63.32
234.648	4.27
234.865	-34.64
235.083	-3.93
235.3	-67.41
235.518	10.41
235.735	-28.5
235.953	-3.93
236.17	-3.93
236.388	98.47
236.605	-3.93
236.822	94.38
237.04	18.6
237.257	-26.45
237.475	0.17
237.692	28.84
237.909	61.61
238.127	-53.08
238.344	-44.88
238.562	-5.97
238.779	-5.97
238.996	-46.93
239.214	2.22
239.431	-12.12
239.648	22.7
239.865	10.41
240.083	10.41
240.3	4.27
240.517	10.41
240.735	30.89
240.952	47.27
241.169	-65.36
241.386	-30.55
241.603	-26.45
241.821	-71.51
242.038	37.03
242.255	-26.45
242.472	-63.32
242.689	26.79
242.907	6.31
243.124	61.61
243.341	53.42
243.558	28.84
243.775	22.7
243.992	6.31
244.209	-44.88
244.426	45.23
244.643	18.6
244.86	-28.5
245.078	-5.97
245.295	-10.07
245.512	26.79
245.729	-61.27
245.946	-5.97
246.163	-1.88
246.38	2.22
246.597	-12.12
246.814	106.67
247.031	-48.98
247.248	-38.74
247.464	24.75
247.681	-36.69
247.898	-5.97
248.115	-67.41
248.332	-20.31
248.549	-18.26
248.766	75.95
248.983	-44.88
249.2	-42.84
249.417	-16.21
249.633	-20.31
249.85	116.9
250.067	-61.27
250.284	24.75
250.501	34.99
250.717	-71.51
250.934	-59.22
251.151	-42.84
251.368	-3.93
251.585	28.84
251.801	-28.5
252.018	-46.93
252.235	92.33
252.451	-63.32
252.668	-14.17
252.885	-30.55
253.102	24.75
253.318	18.6
253.535	-36.69
253.752	-14.17
253.968	12.46
254.185	-38.74
254.401	-22.36
254.618	-5.97
254.835	-46.93
255.051	-5.97
255.268	-46.93
255.484	-46.93
255.701	30.89
255.917	47.27
256.134	10.41
256.351	-12.12
256.567	-69.46
256.784	-1.88
257	6.31
257.217	-65.36
257.433	67.75
257.65	34.99
257.866	14.51
258.082	-55.12
258.299	26.79
258.515	12.46
258.732	-34.64
258.948	16.55
259.165	-36.69
259.381	-3.93
259.597	28.84
259.814	-59.22
260.03	43.18
260.246	-16.21
260.463	-38.74
260.679	37.03
260.895	30.89
261.112	-3.93
261.328	47.27
261.544	-79.7
261.761	67.75
261.977	-55.12
262.193	-44.88
262.409	2.22
262.626	16.55
262.842	10.41
263.058	-57.17
263.274	2.22
263.49	39.08
263.707	-36.69
263.923	-30.55
264.139	-53.08
264.355	4.27
264.571	96.43
264.787	-34.64
265.004	6.31
265.22	-94.04
265.436	-5.97
265.652	-34.64
265.868	16.55
266.084	-44.88
266.3	41.13
266.516	-59.22
266.732	-14.17
266.948	8.36
267.164	43.18
267.38	61.61
267.596	34.99
267.812	-5.97
268.028	22.7
268.244	2.22
268.46	-40.79
268.676	-14.17
268.892	-34.64
269.108	-77.65
269.324	-28.5
269.54	-55.12
269.756	-5.97
269.972	-55.12
270.188	34.99
270.403	-14.17
270.619	-63.32
270.835	71.85
271.051	-55.12
271.267	32.94
271.483	-63.32
271.698	18.6
271.914	12.46
272.13	-100.18
272.346	-110.42
272.562	-48.98
272.777	26.79
272.993	59.56
273.209	-16.21
273.425	-5.97
273.64	-10.07
273.856	-3.93
274.072	0.17
274.287	-1.88
274.503	-44.88
274.719	22.7
274.934	-20.31
275.15	-44.88
275.366	6.31
275.581	-63.32
275.797	6.31
276.012	-30.55
276.228	2.22
276.444	-24.4
276.659	2.22
276.875	-85.84
277.09	-63.32
277.306	-87.89
277.521	10.41
277.737	-61.27
277.952	71.85
278.168	-20.31
278.383	30.89
278.599	-8.02
278.814	-55.12
279.03	-5.97
279.245	18.6
279.461	-67.41
279.676	37.03
279.892	-63.32
280.107	8.36
280.322	-28.5
280.538	-36.69
280.753	-42.84
280.969	34.99
281.184	-51.03
281.399	86.19
281.615	2.22
281.83	34.99
282.045	-30.55
282.26	-46.93
282.476	47.27
282.691	-18.26
282.906	-10.07
283.122	55.47
283.337	4.27
283.552	26.79
283.767	-34.64
283.983	6.31
284.198	-36.69
284.413	6.31
284.628	-48.98
284.843	-36.69
285.058	-1.88
285.274	30.89
285.489	14.51
285.704	-44.88
285.919	0.17
286.134	-34.64
286.349	16.55
286.564	-38.74
286.779	-20.31
286.995	-30.55
287.21	-26.45
287.425	-112.47
287.64	-12.12
287.855	-30.55
288.07	-44.88
288.285	94.38
288.5	65.71
288.715	-34.64
288.93	-14.17
289.145	-69.46
289.36	2.22
289.575	4.27
289.79	92.33
290.004	28.84
290.219	53.42
290.434	-30.55
290.649	-46.93
290.864	2.22
291.079	-89.94
291.294	2.22
291.509	10.41
291.724	-55.12
291.938	80.04
292.153	-5.97
292.368	-98.13
292.583	18.6
292.798	4.27
293.012	22.7
293.227	14.51
293.442	-10.07
293.657	18.6
293.871	26.79
294.086	2.22
294.301	67.75
294.516	86.19
294.73	10.41
294.945	-30.55
295.16	4.27
295.374	12.46
295.589	57.51
295.804	2.22
296.018	-14.17
296.233	-3.93
296.447	-36.69
296.662	-26.45
296.877	43.18
297.091	-34.64
297.306	-34.64
297.52	2.22
297.735	-38.74
297.949	-3.93
298.164	43.18
298.378	-14.17
298.593	-87.89
298.807	30.89
299.022	20.65
299.236	14.51
299.451	-14.17
299.665	-12.12
299.88	-46.93
300.094	53.42
300.309	43.18
300.523	4.27
300.737	6.31
300.952	34.99
301.166	63.66
301.381	-87.89
301.595	-26.45
301.809	-5.97
302.024	-20.31
302.238	-63.32
302.452	8.36
302.667	47.27
302.881	43.18
303.095	0.17
303.309	10.41
303.524	-55.12
303.738	-36.69
303.952	-8.02
304.166	80.04
304.381	12.46
304.595	77.99
304.809	-36.69
305.023	-71.51
305.237	-5.97
305.452	-34.64
305.666	-20.31
305.88	2.22
306.094	-5.97
306.308	49.32
306.522	57.51
306.736	-3.93
306.95	-10.07
307.164	-16.21
307.379	26.79
307.593	10.41
307.807	12.46
308.021	45.23
308.235	-22.36
308.449	22.7
308.663	-16.21
308.877	53.42
309.091	-34.64
309.305	2.22
309.519	-48.98
309.733	4.27
309.947	-71.51
310.161	61.61
310.374	2.22
310.588	43.18
310.802	-8.02
311.016	-10.07
311.23	51.37
311.444	-26.45
311.658	77.99
311.872	57.51
312.085	-1.88
312.299	82.09
312.513	28.84
312.727	14.51
312.941	-20.31
313.154	-38.74
313.368	-22.36
313.582	2.22
313.796	-55.12
314.009	26.79
314.223	39.08
314.437	-18.26
314.651	-1.88
314.864	-42.84
315.078	32.94
315.292	-26.45
315.505	-55.12
315.719	51.37
315.933	-24.4
316.146	-22.36
316.36	-32.6
316.573	4.27
316.787	-3.93
317.001	24.75
317.214	-10.07
317.428	39.08
317.641	-28.5
317.855	-36.69
318.068	4.27
318.282	-75.6
318.495	55.47
318.709	24.75
318.922	30.89
319.136	67.75
319.349	47.27
319.563	26.79
319.776	39.08
319.99	-108.37
320.203	-42.84
320.417	-38.74
320.63	4.27
320.843	69.8
321.057	-38.74
321.27	10.41
321.483	139.43
321.697	24.75
321.91	18.6
322.124	-12.12
322.337	6.31
322.55	-3.93
322.763	10.41
322.977	63.66
323.19	-46.93
323.403	67.75
323.617	-14.17
323.83	39.08
324.043	88.23
324.256	-22.36
324.469	-79.7
324.683	80.04
324.896	-55.12
325.109	-30.55
325.322	6.31
325.535	43.18
325.748	-30.55
325.962	-46.93
326.175	-38.74
326.388	-30.55
326.601	8.36
326.814	-3.93
327.027	-38.74
327.24	20.65
327.453	-51.03
327.666	20.65
327.879	28.84
328.092	28.84
328.305	-55.12
328.518	-22.36
328.731	-38.74
328.944	-14.17
329.157	-28.5
329.37	18.6
329.583	131.24
329.796	102.57
330.009	-28.5
330.222	37.03
330.435	-53.08
330.648	22.7
330.861	-85.84
331.073	-16.21
331.286	-5.97
331.499	2.22
331.712	-36.69
331.925	-51.03
332.138	-30.55
332.35	20.65
332.563	10.41
332.776	110.76
332.989	-18.26
333.202	-14.17
333.414	16.55
333.627	88.23
333.84	30.89
334.053	-12.12
334.265	-14.17
334.478	37.03
334.691	-5.97
334.903	45.23
335.116	12.46
335.329	26.79
335.541	-38.74
335.754	-42.84
335.966	16.55
336.179	2.22
336.392	-30.55
336.604	37.03
336.817	67.75
337.029	92.33
337.242	-40.79
337.454	75.95
337.667	-5.97
337.88	14.51
338.092	-30.55
338.305	-20.31
338.517	-38.74
338.729	75.95
338.942	-12.12
339.154	2.22
339.367	-55.12
339.579	32.94
339.792	-1.88
340.004	-81.75
340.217	-22.36
340.429	-8.02
340.641	34.99
340.854	28.84
341.066	28.84
341.278	51.37
341.491	118.95
341.703	-14.17
341.915	-59.22
342.128	2.22
342.34	-63.32
342.552	-34.64
342.764	-63.32
342.977	-16.21
343.189	10.41
343.401	18.6
343.613	-5.97
343.826	92.33
344.038	-51.03
344.25	14.51
344.462	14.51
344.674	-34.64
344.886	20.65
345.099	14.51
345.311	34.99
345.523	-22.36
345.735	24.75
345.947	53.42
346.159	43.18
346.371	43.18
346.583	-100.18
346.795	69.8
347.007	-79.7
347.219	-61.27
347.431	12.46
347.643	63.66
347.855	37.03
348.067	2.22
348.279	-87.89
348.491	12.46
348.703	16.55
348.915	57.51
349.127	-18.26
349.339	34.99
349.551	-38.74
349.763	16.55
349.975	-14.17
350.187	-1.88
350.399	43.18
350.61	-44.88
350.822	-30.55
351.034	-12.12
351.246	57.51
351.458	-12.12
351.669	22.7
351.881	26.79
352.093	26.79
352.305	131.24
352.517	10.41
352.728	18.6
352.94	20.65
353.152	26.79
353.363	-59.22
353.575	37.03
353.787	20.65
353.999	51.37
354.21	30.89
354.422	-79.7
354.633	-55.12
354.845	2.22
355.057	-14.17
355.268	16.55
355.48	47.27
355.692	10.41
355.903	-10.07
356.115	-36.69
356.326	-75.6
356.538	16.55
356.749	51.37
356.961	127.14
357.172	-12.12
357.384	-48.98
357.595	22.7
357.807	53.42
358.018	-40.79
358.23	10.41
358.441	84.14
358.653	-46.93
358.864	26.79
359.075	2.22
359.287	-28.5
359.498	53.42
359.709	71.85
359.921	-10.07
360.132	-14.17
360.344	43.18
360.555	-5.97
360.766	-44.88
360.977	-12.12
361.189	51.37
361.4	-22.36
361.611	22.7
361.823	73.9
362.034	45.23
362.245	-63.32
362.456	28.84
362.667	2.22
362.879	-28.5
363.09	39.08
363.301	0.17
363.512	55.47
363.723	4.27
363.935	-24.4
364.146	43.18
364.357	18.6
364.568	-5.97
364.779	-42.84
364.99	43.18
365.201	-26.45
365.412	39.08
365.623	-20.31
365.834	61.61
366.045	12.46
366.256	-48.98
366.467	53.42
366.678	-34.64
366.889	6.31
367.1	-69.46
367.311	26.79
367.522	80.04
367.733	67.75
367.944	92.33
368.155	-26.45
368.366	14.51
368.577	77.99
368.788	61.61
368.999	-55.12
369.209	14.51
369.42	108.71
369.631	96.43
369.842	-5.97
370.053	53.42
370.264	45.23
370.474	-77.65
370.685	-34.64
370.896	92.33
371.107	53.42
371.317	30.89
371.528	-55.12
371.739	118.95
371.95	114.86
372.16	-20.31
372.371	-46.93
372.582	18.6
372.792	-63.32
373.003	-46.93
373.214	32.94
373.424	37.03
373.635	-28.5
373.846	75.95
374.056	2.22
374.267	18.6
374.477	-20.31
374.688	-51.03
374.898	-28.5
375.109	-28.5
375.319	16.55
375.53	59.56
375.74	30.89
375.951	-38.74
376.161	24.75
376.372	104.62
376.582	10.41
376.793	37.03
377.003	10.41
377.214	14.51
377.424	82.09
377.635	34.99
377.845	-16.21
378.055	-53.08
378.266	26.79
378.476	-61.27
378.686	12.46
378.897	34.99
379.107	30.89
379.317	-24.4
379.528	-5.97
379.738	-14.17
379.948	-28.5
380.158	34.99
380.369	43.18
380.579	34.99
380.789	14.51
380.999	-3.93
381.21	55.47
381.42	88.23
381.63	-28.5
381.84	100.52
382.05	43.18
382.261	22.7
382.471	47.27
382.681	-3.93
382.891	-8.02
383.101	59.56
383.311	-16.21
383.521	-44.88
383.731	20.65
383.941	10.41
384.151	10.41
384.361	-20.31
384.571	20.65
384.781	-22.36
384.991	116.9
385.201	59.56
385.411	-30.55
385.621	-5.97
385.831	-46.93
386.041	-18.26
386.251	2.22
386.461	75.95
386.671	20.65
386.881	49.32
387.091	-20.31
387.301	51.37
387.511	-26.45
387.72	41.13
387.93	-12.12
388.14	-79.7
388.35	4.27
388.56	18.6
388.769	-44.88
388.979	-28.5
389.189	2.22
389.399	-44.88
389.609	4.27
389.818	102.57
390.028	88.23
390.238	51.37
390.447	26.79
390.657	69.8
390.867	34.99
391.076	77.99
391.286	6.31
391.496	-20.31
391.705	61.61
391.915	30.89
392.125	92.33
392.334	18.6
392.544	112.81
392.753	92.33
392.963	-36.69
393.172	71.85
393.382	14.51
393.591	118.95
393.801	47.27
394.01	71.85
394.22	-22.36
394.429	4.27
394.639	6.31
394.848	104.62
395.058	51.37
395.267	37.03
395.477	67.75
395.686	88.23
395.895	96.43
396.105	69.8
396.314	63.66
396.524	63.66
396.733	47.27
396.942	53.42
397.152	45.23
397.361	129.19
397.57	65.71
397.78	125.1
397.989	90.28
398.198	86.19
398.407	53.42
398.617	75.95
398.826	75.95
399.035	8.36
399.244	100.52
399.453	137.38
399.663	96.43
399.872	67.75
400.081	55.47
400.29	141.48
400.499	-3.93
400.708	114.86
400.917	90.28
401.127	69.8
401.336	30.89
401.545	143.53
401.754	100.52
401.963	182.44
402.172	116.9
402.381	108.71
402.59	47.27
402.799	153.77
403.008	55.47
403.217	86.19
403.426	129.19
403.635	20.65
403.844	92.33
404.053	63.66
404.262	86.19
404.471	211.11
404.68	149.67
404.888	94.38
405.097	143.53
405.306	159.91
405.515	114.86
405.724	65.71
405.933	241.83
406.142	153.77
406.35	155.82
406.559	172.2
406.768	143.53
406.977	276.65
407.185	125.1
407.394	170.15
407.603	112.81
407.812	211.11
408.02	297.13
408.229	239.78
408.438	213.16
408.646	198.82
408.855	200.87
409.064	157.86
409.272	243.88
409.481	256.17
409.69	252.07
409.898	288.93
410.107	364.71
410.315	315.56
410.524	346.28
410.733	315.56
410.941	391.33
411.15	407.72
411.358	333.99
411.567	415.91
411.775	430.24
411.984	477.35
412.192	460.96
412.401	458.92
412.609	567.46
412.818	510.11
413.026	561.31
413.234	477.35
413.443	587.94
413.651	518.31
413.86	723.1
414.068	702.62
414.276	671.9
414.485	610.47
414.693	794.78
414.901	780.45
415.11	792.73
415.318	794.78
415.526	919.71
415.734	776.35
415.943	923.8
416.151	968.86
416.359	1054.87
416.567	1018.01
416.776	1026.2
416.984	1190.04
417.192	1108.12
417.4	1108.12
417.608	1079.45
417.817	1274.01
418.025	1198.23
418.233	1343.64
418.441	1296.53
418.649	1388.69
418.857	1454.23
419.065	1583.25
419.273	1403.03
419.481	1575.06
419.689	1685.65
419.897	1616.02
420.105	1812.62
420.313	1837.2
420.521	1837.2
420.729	1900.69
420.937	1964.17
421.145	2019.47
421.353	2160.78
421.561	2275.46
421.769	2287.75
421.977	2334.86
422.185	2273.42
422.393	2562.18
422.601	2697.35
422.809	2728.07
423.017	2717.83
423.224	2781.31
423.432	2840.7
423.64	2885.76
423.848	3264.63
424.056	3231.87
424.263	3328.12
424.471	3133.56
424.679	3403.89
424.887	3614.84
425.094	3614.84
425.302	3684.47
425.51	3836.02
425.718	3870.83
425.925	4024.43
426.133	4204.65
426.341	4409.45
426.548	4550.76
426.756	4542.57
426.964	4544.61
427.171	4886.62
427.379	4894.82
427.586	5240.92
427.794	5369.94
428.001	5423.19
428.209	5638.23
428.417	5716.05
428.624	6088.78
428.832	6109.26
429.039	6027.34
429.247	5914.7
429.454	6543.43
429.662	7030.85
429.869	6635.59
430.076	7020.61
430.284	6860.87
430.491	6801.47
430.699	7520.31
430.906	7501.88
431.114	7759.92
431.321	7925.81
431.528	7972.91
431.736	8654.89
431.943	9054.24
432.15	8597.54
432.358	8747.05
432.565	9244.7
432.772	9193.5
432.979	9685.01
433.187	9717.78
433.394	9857.04
433.601	10604.55
433.808	10622.98
434.016	10647.56
434.223	10973.19
434.43	11702.26
434.637	11519.99
434.844	11995.12
435.052	12347.37
435.259	12138.48
435.466	12394.48
435.673	12306.41
435.88	13084.64
436.087	13717.47
436.294	13744.09
436.501	13305.82
436.708	13572.06
436.915	14075.86
437.122	14739.4
437.329	14747.59
437.537	14907.34
437.743	15361.98
437.95	15562.69
438.157	16054.2
438.364	16721.84
438.571	16437.17
438.778	16779.18
438.985	18286.48
439.192	17520.54
439.399	17987.48
439.606	17557.41
439.813	18542.48
440.02	19656.57
440.227	19056.52
440.433	19040.14
440.64	19939.19
440.847	19675.01
441.054	20039.54
441.261	21626.72
441.467	21124.97
441.674	21985.12
441.881	22478.68
442.088	22415.19
442.294	22103.9
442.501	22886.22
442.708	23093.07
442.914	23985.98
443.121	25132.84
443.328	24684.34
443.534	26011.42
443.741	25390.89
443.948	25114.41
444.154	26695.44
444.361	26732.31
444.568	26588.95
444.774	26625.81
444.981	27201.29
445.187	28026.62
445.394	29064.94
445.6	28632.82
445.807	31309.52
446.013	29720.29
446.22	30508.76
446.426	31655.62
446.633	32024.26
446.839	33410.73
447.046	31669.96
447.252	33394.35
447.459	33222.32
447.665	33554.09
447.871	35010.2
448.078	36130.44
448.284	34731.67
448.491	35896.97
448.697	36863.61
448.903	37600.88
449.11	37779.05
449.316	37039.73
449.522	37727.85
449.728	39226.96
449.935	39093.85
450.141	38864.47
450.347	39839.31
450.553	38530.65
450.76	39431.76
450.966	40537.66
451.172	39845.45
451.378	41156.15
451.584	40322.63
451.791	40959.55
451.997	41158.2
452.203	41836.08
452.409	41942.57
452.615	41559.6
452.821	39820.88
453.027	39679.57
453.233	41727.53
453.44	40087.11
453.646	40347.2
453.852	40638.01
454.058	41199.16
454.264	39906.89
454.47	40977.98
454.676	39882.31
454.882	41410.1
455.088	37535.34
455.294	38073.96
455.5	38839.9
455.705	39196.24
455.911	37951.08
456.117	36916.86
456.323	36486.78
456.529	34467.48
456.735	36038.28
456.941	34997.91
457.147	34514.59
457.352	33664.68
457.558	33287.85
457.764	33046.19
457.97	32454.33
458.176	31620.81
458.381	31801.03
458.587	30052.06
458.793	30080.74
458.999	28608.25
459.204	30525.14
459.41	29877.99
459.616	27780.87
459.821	28135.17
460.027	28178.17
460.233	27389.7
460.438	25521.96
460.644	25986.85
460.85	24670
461.055	24559.41
461.261	24418.1
461.466	22464.34
461.672	22093.66
461.878	23461.7
462.083	22126.43
462.289	21438.31
462.494	21170.02
462.7	20371.32
462.905	19920.76
463.111	20270.97
463.316	20799.34
463.522	19892.09
463.727	20125.56
463.932	19863.42
464.138	19462.02
464.343	20117.37
464.549	19341.19
