Data from USB4F104151__305__14-35-02-119.txt Node

Date: Thu Mar 13 14:35:02 EDT 2025
User: louis
Spectrometer: USB4F10415
Trigger mode: 4
Integration Time (sec): 2.500000E-2
Scans to average: 1
Electric dark correction enabled: true
Nonlinearity correction enabled: false
Boxcar width: 0
XAxis mode: Wavelengths
Number of Pixels in Spectrum: 3648
>>>>>Begin Spectral Data<<<<<
178.204	-144.21
178.424	-144.21
178.644	-144.21
178.864	-144.21
179.084	-136.02
179.304	7.34
179.524	-13.14
179.744	-0.85
179.964	-9.05
180.184	-37.72
180.404	-76.63
180.624	-21.33
180.844	7.34
181.064	68.78
181.283	25.77
181.503	-0.85
181.723	50.35
181.943	1.19
182.163	119.98
182.383	19.63
182.602	52.39
182.822	15.53
183.042	87.21
183.262	1.19
183.482	19.63
183.701	40.11
183.921	15.53
184.141	19.63
184.361	62.63
184.58	44.2
184.8	101.55
185.02	56.49
185.239	66.73
185.459	15.53
185.679	70.83
185.898	31.91
186.118	36.01
186.338	19.63
186.557	-7
186.777	-21.33
186.997	44.2
187.216	9.39
187.436	46.25
187.655	122.02
187.875	29.87
188.095	79.02
188.314	36.01
188.534	56.49
188.753	-15.19
188.973	52.39
189.192	95.4
189.412	7.34
189.631	42.15
189.851	-4.95
190.07	111.78
190.29	-43.86
190.509	44.2
190.729	-15.19
190.948	99.5
191.168	126.12
191.387	64.68
191.607	134.31
191.826	89.26
192.045	58.54
192.265	36.01
192.484	46.25
192.704	33.96
192.923	15.53
193.142	144.55
193.362	46.25
193.581	111.78
193.8	7.34
194.02	93.35
194.239	-45.91
194.458	48.3
194.678	-2.9
194.897	-11.09
195.116	7.34
195.335	60.59
195.555	52.39
195.774	38.06
195.993	44.2
196.212	-4.95
196.432	-15.19
196.651	38.06
196.87	11.43
197.089	122.02
197.308	23.72
197.528	56.49
197.747	-21.33
197.966	5.29
198.185	140.46
198.404	60.59
198.623	31.91
198.842	68.78
199.062	23.72
199.281	72.87
199.5	31.91
199.719	138.41
199.938	68.78
200.157	68.78
200.376	54.44
200.595	142.5
200.814	-13.14
201.033	-9.05
201.252	46.25
201.471	13.48
201.69	81.07
201.909	21.67
202.128	68.78
202.347	101.55
202.566	95.4
202.785	36.01
203.004	1.19
203.223	136.36
203.442	52.39
203.661	3.24
203.879	21.67
204.098	171.18
204.317	33.96
204.536	111.78
204.755	7.34
204.974	48.3
205.193	40.11
205.411	113.83
205.63	9.39
205.849	38.06
206.068	1.19
206.287	36.01
206.505	19.63
206.724	115.88
206.943	5.29
207.162	-54.1
207.381	19.63
207.599	38.06
207.818	76.97
208.037	79.02
208.255	64.68
208.474	60.59
208.693	87.21
208.911	85.16
209.13	68.78
209.349	56.49
209.567	117.93
209.786	70.83
210.005	19.63
210.223	52.39
210.442	-86.87
210.661	40.11
210.879	46.25
211.098	27.82
211.316	19.63
211.535	70.83
211.753	-19.29
211.972	29.87
212.191	-19.29
212.409	103.59
212.628	-25.43
212.846	25.77
213.065	42.15
213.283	70.83
213.502	36.01
213.72	38.06
213.938	54.44
214.157	44.2
214.375	7.34
214.594	-0.85
214.812	48.3
215.031	-54.1
215.249	-29.52
215.467	68.78
215.686	46.25
215.904	15.53
216.122	54.44
216.341	50.35
216.559	38.06
216.778	60.59
216.996	21.67
217.214	-4.95
217.432	29.87
217.651	-41.81
217.869	-43.86
218.087	76.97
218.306	19.63
218.524	23.72
218.742	-41.81
218.96	54.44
219.179	19.63
219.397	-11.09
219.615	111.78
219.833	64.68
220.051	68.78
220.27	79.02
220.488	56.49
220.706	68.78
220.924	-4.95
221.142	25.77
221.36	31.91
221.578	38.06
221.796	11.43
222.015	19.63
222.233	15.53
222.451	76.97
222.669	52.39
222.887	68.78
223.105	19.63
223.323	38.06
223.541	9.39
223.759	70.83
223.977	9.39
224.195	21.67
224.413	79.02
224.631	48.3
224.849	48.3
225.067	134.31
225.285	44.2
225.503	76.97
225.721	52.39
225.939	46.25
226.157	25.77
226.375	87.21
226.592	60.59
226.81	46.25
227.028	130.22
227.246	60.59
227.464	27.82
227.682	68.78
227.9	74.92
228.117	-4.95
228.335	52.39
228.553	13.48
228.771	105.64
228.989	-41.81
229.206	19.63
229.424	9.39
229.642	-0.85
229.86	46.25
230.077	60.59
230.295	52.39
230.513	52.39
230.731	40.11
230.948	68.78
231.166	105.64
231.384	19.63
231.601	99.5
231.819	105.64
232.037	-45.91
232.254	-68.44
232.472	25.77
232.689	44.2
232.907	89.26
233.125	-78.68
233.342	3.24
233.56	5.29
233.777	-23.38
233.995	36.01
234.213	117.93
234.43	60.59
234.648	64.68
234.865	44.2
235.083	11.43
235.3	62.63
235.518	52.39
235.735	72.87
235.953	40.11
236.17	95.4
236.388	29.87
236.605	89.26
236.822	83.11
237.04	13.48
237.257	29.87
237.475	3.24
237.692	-4.95
237.909	23.72
238.127	15.53
238.344	60.59
238.562	13.48
238.779	27.82
238.996	-19.29
239.214	27.82
239.431	134.31
239.648	56.49
239.865	64.68
240.083	40.11
240.3	85.16
240.517	5.29
240.735	81.07
240.952	97.45
241.169	19.63
241.386	36.01
241.603	85.16
241.821	64.68
242.038	29.87
242.255	31.91
242.472	-39.76
242.689	171.18
242.907	38.06
243.124	11.43
243.341	44.2
243.558	60.59
243.775	5.29
243.992	-35.67
244.209	31.91
244.426	74.92
244.643	-13.14
244.86	44.2
245.078	19.63
245.295	81.07
245.512	68.78
245.729	-52.05
245.946	52.39
246.163	-13.14
246.38	23.72
246.597	48.3
246.814	50.35
247.031	64.68
247.248	126.12
247.464	23.72
247.681	36.01
247.898	36.01
248.115	-4.95
248.332	-11.09
248.549	58.54
248.766	72.87
248.983	60.59
249.2	23.72
249.417	97.45
249.633	-2.9
249.85	15.53
250.067	60.59
250.284	52.39
250.501	97.45
250.717	128.17
250.934	-17.24
251.151	-13.14
251.368	68.78
251.585	72.87
251.801	11.43
252.018	7.34
252.235	87.21
252.451	-103.25
252.668	-4.95
252.885	52.39
253.102	52.39
253.318	36.01
253.535	13.48
253.752	46.25
253.968	-13.14
254.185	-2.9
254.401	64.68
254.618	93.35
254.835	-50
255.051	46.25
255.268	7.34
255.484	13.48
255.701	62.63
255.917	29.87
256.134	27.82
256.351	36.01
256.567	11.43
256.784	52.39
257	-56.15
257.217	103.59
257.433	93.35
257.65	58.54
257.866	124.07
258.082	46.25
258.299	44.2
258.515	33.96
258.732	-27.48
258.948	81.07
259.165	72.87
259.381	117.93
259.597	40.11
259.814	58.54
260.03	40.11
260.246	52.39
260.463	52.39
260.679	70.83
260.895	72.87
261.112	95.4
261.328	-13.14
261.544	62.63
261.761	105.64
261.977	-2.9
262.193	-43.86
262.409	101.55
262.626	29.87
262.842	19.63
263.058	23.72
263.274	29.87
263.49	44.2
263.707	64.68
263.923	105.64
264.139	-35.67
264.355	-13.14
264.571	85.16
264.787	117.93
265.004	79.02
265.22	66.73
265.436	101.55
265.652	81.07
265.868	83.11
266.084	11.43
266.3	122.02
266.516	21.67
266.732	7.34
266.948	5.29
267.164	29.87
267.38	87.21
267.596	17.58
267.812	142.5
268.028	40.11
268.244	21.67
268.46	21.67
268.676	50.35
268.892	70.83
269.108	21.67
269.324	-2.9
269.54	85.16
269.756	64.68
269.972	9.39
270.188	15.53
270.403	-33.62
270.619	85.16
270.835	44.2
271.051	7.34
271.267	1.19
271.483	87.21
271.698	93.35
271.914	40.11
272.13	54.44
272.346	27.82
272.562	36.01
272.777	36.01
272.993	76.97
273.209	19.63
273.425	81.07
273.64	36.01
273.856	76.97
274.072	-27.48
274.287	50.35
274.503	27.82
274.719	27.82
274.934	15.53
275.15	-25.43
275.366	103.59
275.581	50.35
275.797	72.87
276.012	-4.95
276.228	-21.33
276.444	95.4
276.659	29.87
276.875	-19.29
277.09	27.82
277.306	31.91
277.521	93.35
277.737	46.25
277.952	105.64
278.168	-15.19
278.383	38.06
278.599	52.39
278.814	72.87
279.03	11.43
279.245	40.11
279.461	38.06
279.676	23.72
279.892	31.91
280.107	101.55
280.322	33.96
280.538	79.02
280.753	-2.9
280.969	70.83
281.184	-13.14
281.399	64.68
281.615	23.72
281.83	124.07
282.045	-35.67
282.26	19.63
282.476	103.59
282.691	87.21
282.906	132.26
283.122	103.59
283.337	-11.09
283.552	19.63
283.767	38.06
283.983	60.59
284.198	23.72
284.413	109.74
284.628	54.44
284.843	70.83
285.058	117.93
285.274	-0.85
285.489	-33.62
285.704	3.24
285.919	-68.44
286.134	76.97
286.349	105.64
286.564	-9.05
286.779	70.83
286.995	5.29
287.21	29.87
287.425	36.01
287.64	27.82
287.855	48.3
288.07	-43.86
288.285	81.07
288.5	54.44
288.715	109.74
288.93	38.06
289.145	109.74
289.36	95.4
289.575	21.67
289.79	97.45
290.004	-29.52
290.219	81.07
290.434	11.43
290.649	11.43
290.864	-62.29
291.079	85.16
291.294	76.97
291.509	60.59
291.724	54.44
291.938	70.83
292.153	13.48
292.368	76.97
292.583	66.73
292.798	60.59
293.012	101.55
293.227	7.34
293.442	-27.48
293.657	70.83
293.871	60.59
294.086	13.48
294.301	44.2
294.516	-2.9
294.73	3.24
294.945	-4.95
295.16	52.39
295.374	48.3
295.589	56.49
295.804	36.01
296.018	70.83
296.233	40.11
296.447	95.4
296.662	-4.95
296.877	54.44
297.091	44.2
297.306	76.97
297.52	27.82
297.735	109.74
297.949	25.77
298.164	36.01
298.378	1.19
298.593	58.54
298.807	7.34
299.022	46.25
299.236	52.39
299.451	-19.29
299.665	3.24
299.88	66.73
300.094	-25.43
300.309	19.63
300.523	64.68
300.737	11.43
300.952	-13.14
301.166	11.43
301.381	-19.29
301.595	15.53
301.809	66.73
302.024	54.44
302.238	-9.05
302.452	117.93
302.667	52.39
302.881	126.12
303.095	76.97
303.309	93.35
303.524	58.54
303.738	46.25
303.952	44.2
304.166	85.16
304.381	-62.29
304.595	36.01
304.809	3.24
305.023	7.34
305.237	85.16
305.452	72.87
305.666	50.35
305.88	54.44
306.094	40.11
306.308	29.87
306.522	68.78
306.736	101.55
306.95	101.55
307.164	19.63
307.379	72.87
307.593	68.78
307.807	19.63
308.021	74.92
308.235	13.48
308.449	21.67
308.663	56.49
308.877	70.83
309.091	9.39
309.305	109.74
309.519	60.59
309.733	27.82
309.947	1.19
310.161	54.44
310.374	56.49
310.588	66.73
310.802	-13.14
311.016	52.39
311.23	9.39
311.444	9.39
311.658	27.82
311.872	167.08
312.085	27.82
312.299	109.74
312.513	54.44
312.727	89.26
312.941	-0.85
313.154	56.49
313.368	27.82
313.582	48.3
313.796	136.36
314.009	19.63
314.223	40.11
314.437	11.43
314.651	97.45
314.864	81.07
315.078	54.44
315.292	-29.52
315.505	19.63
315.719	44.2
315.933	72.87
316.146	-4.95
316.36	3.24
316.573	89.26
316.787	11.43
317.001	97.45
317.214	23.72
317.428	46.25
317.641	64.68
317.855	72.87
318.068	3.24
318.282	13.48
318.495	117.93
318.709	54.44
318.922	64.68
319.136	101.55
319.349	-25.43
319.563	-13.14
319.776	130.22
319.99	27.82
320.203	56.49
320.417	-11.09
320.63	132.26
320.843	175.27
321.057	44.2
321.27	15.53
321.483	76.97
321.697	48.3
321.91	31.91
322.124	19.63
322.337	138.41
322.55	54.44
322.763	142.5
322.977	11.43
323.19	70.83
323.403	-25.43
323.617	-39.76
323.83	85.16
324.043	36.01
324.256	31.91
324.469	72.87
324.683	93.35
324.896	89.26
325.109	5.29
325.322	-29.52
325.535	68.78
325.748	44.2
325.962	68.78
326.175	134.31
326.388	76.97
326.601	44.2
326.814	7.34
327.027	48.3
327.24	134.31
327.453	-19.29
327.666	56.49
327.879	85.16
328.092	126.12
328.305	3.24
328.518	36.01
328.731	60.59
328.944	33.96
329.157	48.3
329.37	3.24
329.583	85.16
329.796	103.59
330.009	-45.91
330.222	19.63
330.435	36.01
330.648	36.01
330.861	109.74
331.073	-21.33
331.286	97.45
331.499	68.78
331.712	-35.67
331.925	111.78
332.138	27.82
332.35	109.74
332.563	52.39
332.776	31.91
332.989	31.91
333.202	27.82
333.414	-29.52
333.627	36.01
333.84	48.3
334.053	103.59
334.265	85.16
334.478	5.29
334.691	-41.81
334.903	-7
335.116	-11.09
335.329	54.44
335.541	7.34
335.754	56.49
335.966	79.02
336.179	21.67
336.392	46.25
336.604	25.77
336.817	60.59
337.029	95.4
337.242	-35.67
337.454	109.74
337.667	-9.05
337.88	64.68
338.092	46.25
338.305	101.55
338.517	85.16
338.729	44.2
338.942	95.4
339.154	66.73
339.367	27.82
339.579	132.26
339.792	54.44
340.004	101.55
340.217	89.26
340.429	122.02
340.641	11.43
340.854	-62.29
341.066	46.25
341.278	56.49
341.491	101.55
341.703	-4.95
341.915	52.39
342.128	68.78
342.34	101.55
342.552	44.2
342.764	-7
342.977	17.58
343.189	60.59
343.401	79.02
343.613	21.67
343.826	87.21
344.038	76.97
344.25	27.82
344.462	-17.24
344.674	74.92
344.886	93.35
345.099	175.27
345.311	56.49
345.523	29.87
345.735	7.34
345.947	19.63
346.159	76.97
346.371	117.93
346.583	89.26
346.795	160.94
347.007	60.59
347.219	81.07
347.431	-23.38
347.643	156.84
347.855	36.01
348.067	111.78
348.279	25.77
348.491	58.54
348.703	117.93
348.915	56.49
349.127	101.55
349.339	56.49
349.551	76.97
349.763	-13.14
349.975	68.78
350.187	27.82
350.399	60.59
350.61	101.55
350.822	124.07
351.034	107.69
351.246	19.63
351.458	27.82
351.669	52.39
351.881	68.78
352.093	101.55
352.305	117.93
352.517	109.74
352.728	115.88
352.94	64.68
353.152	52.39
353.363	44.2
353.575	56.49
353.787	146.6
353.999	-37.72
354.21	62.63
354.422	60.59
354.633	93.35
354.845	105.64
355.057	93.35
355.268	64.68
355.48	19.63
355.692	44.2
355.903	93.35
356.115	117.93
356.326	19.63
356.538	40.11
356.749	79.02
356.961	109.74
357.172	117.93
357.384	105.64
357.595	76.97
357.807	62.63
358.018	27.82
358.23	52.39
358.441	44.2
358.653	101.55
358.864	44.2
359.075	23.72
359.287	19.63
359.498	79.02
359.709	93.35
359.921	15.53
360.132	111.78
360.344	15.53
360.555	50.35
360.766	89.26
360.977	58.54
361.189	119.98
361.4	93.35
361.611	95.4
361.823	140.46
362.034	13.48
362.245	64.68
362.456	58.54
362.667	60.59
362.879	48.3
363.09	113.83
363.301	15.53
363.512	50.35
363.723	91.31
363.935	38.06
364.146	150.7
364.357	11.43
364.568	48.3
364.779	81.07
364.99	162.98
365.201	81.07
365.412	150.7
365.623	-43.86
365.834	79.02
366.045	44.2
366.256	54.44
366.467	56.49
366.678	68.78
366.889	1.19
367.1	74.92
367.311	107.69
367.522	11.43
367.733	85.16
367.944	87.21
368.155	113.83
368.366	33.96
368.577	93.35
368.788	48.3
368.999	31.91
369.209	29.87
369.42	76.97
369.631	150.7
369.842	50.35
370.053	74.92
370.264	79.02
370.474	42.15
370.685	54.44
370.896	60.59
371.107	27.82
371.317	87.21
371.528	72.87
371.739	126.12
371.95	91.31
372.16	68.78
372.371	-4.95
372.582	87.21
372.792	95.4
373.003	74.92
373.214	19.63
373.424	97.45
373.635	-15.19
373.846	76.97
374.056	95.4
374.267	46.25
374.477	62.63
374.688	-4.95
374.898	64.68
375.109	126.12
375.319	27.82
375.53	95.4
375.74	79.02
375.951	91.31
376.161	11.43
376.372	85.16
376.582	85.16
376.793	74.92
377.003	54.44
377.214	36.01
377.424	66.73
377.635	54.44
377.845	50.35
378.055	111.78
378.266	-29.52
378.476	72.87
378.686	148.65
378.897	146.6
379.107	169.13
379.317	85.16
379.528	79.02
379.738	89.26
379.948	76.97
380.158	48.3
380.369	60.59
380.579	11.43
380.789	101.55
380.999	48.3
381.21	97.45
381.42	140.46
381.63	83.11
381.84	36.01
382.05	105.64
382.261	62.63
382.471	111.78
382.681	-2.9
382.891	91.31
383.101	31.91
383.311	19.63
383.521	160.94
383.731	87.21
383.941	113.83
384.151	-19.29
384.361	60.59
384.571	70.83
384.781	36.01
384.991	107.69
385.201	117.93
385.411	93.35
385.621	56.49
385.831	134.31
386.041	93.35
386.251	64.68
386.461	44.2
386.671	23.72
386.881	111.78
387.091	52.39
387.301	11.43
387.511	122.02
387.72	46.25
387.93	50.35
388.14	64.68
388.35	76.97
388.56	87.21
388.769	138.41
388.979	36.01
389.189	33.96
389.399	130.22
389.609	87.21
389.818	68.78
390.028	-13.14
390.238	66.73
390.447	46.25
390.657	130.22
390.867	21.67
391.076	93.35
391.286	64.68
391.496	48.3
391.705	66.73
391.915	109.74
392.125	52.39
392.334	89.26
392.544	23.72
392.753	97.45
392.963	60.59
393.172	150.7
393.382	54.44
393.591	62.63
393.801	85.16
394.01	158.89
394.22	109.74
394.429	146.6
394.639	76.97
394.848	111.78
395.058	111.78
395.267	128.17
395.477	52.39
395.686	220.33
395.895	193.7
396.105	183.46
396.314	95.4
396.524	119.98
396.733	68.78
396.942	150.7
397.152	54.44
397.361	185.51
397.57	128.17
397.78	103.59
397.989	113.83
398.198	119.98
398.407	72.87
398.617	130.22
398.826	107.69
399.035	142.5
399.244	117.93
399.453	36.01
399.663	126.12
399.872	169.13
400.081	89.26
400.29	142.5
400.499	62.63
400.708	187.56
400.917	103.59
401.127	70.83
401.336	122.02
401.545	224.42
401.754	142.5
401.963	171.18
402.172	175.27
402.381	103.59
402.59	203.94
402.799	201.9
403.008	216.23
403.217	128.17
403.426	183.46
403.635	167.08
403.844	197.8
404.053	136.36
404.262	111.78
404.471	167.08
404.68	167.08
404.888	150.7
405.097	189.61
405.306	191.66
405.515	175.27
405.724	224.42
405.933	226.47
406.142	224.42
406.35	281.77
406.559	265.38
406.768	261.29
406.977	259.24
407.185	279.72
407.394	208.04
407.603	208.04
407.812	220.33
408.02	322.73
408.229	232.62
408.438	292.01
408.646	236.71
408.855	269.48
409.064	257.19
409.272	314.53
409.481	357.54
409.69	298.15
409.898	351.4
410.107	357.54
410.315	365.73
410.524	390.31
410.733	464.04
410.941	451.75
411.15	470.18
411.358	461.99
411.567	588.96
411.775	519.33
411.984	486.56
412.192	625.83
412.401	593.06
412.609	679.07
412.818	586.91
413.026	625.83
413.234	715.94
413.443	658.59
413.651	644.26
413.86	646.3
414.068	793.76
414.276	781.47
414.485	824.48
414.693	838.81
414.901	885.92
415.11	898.2
415.318	980.12
415.526	1037.47
415.734	1076.38
415.943	984.22
416.151	1070.23
416.359	1158.3
416.567	1072.28
416.776	1164.44
416.984	1070.23
417.192	1209.5
417.4	1281.18
417.608	1221.78
417.817	1395.86
418.025	1256.6
418.233	1496.21
418.441	1389.72
418.649	1602.71
418.857	1696.91
419.065	1698.96
419.273	1637.52
419.481	1690.77
419.689	1834.13
419.897	1881.23
420.105	1916.05
420.313	2006.16
420.521	1985.68
420.729	2104.46
420.937	2100.36
421.145	2286.73
421.353	2307.21
421.561	2436.23
421.769	2512
421.977	2569.35
422.185	2587.78
422.393	2694.27
422.601	2856.06
422.809	2804.86
423.017	2843.78
423.224	3001.47
423.432	3138.68
423.64	3153.02
423.848	3417.21
424.056	3374.2
424.263	3697.78
424.471	3404.92
424.679	3624.05
424.887	3878
425.094	3906.67
425.302	3914.86
425.51	4095.08
425.718	4181.1
425.925	4230.25
426.133	4422.76
426.341	4721.76
426.548	4848.74
426.756	4758.63
426.964	5004.38
427.171	5219.42
427.379	5321.82
427.586	5532.76
427.794	5428.31
428.001	5827.67
428.209	6009.93
428.417	5874.77
428.624	6444.1
428.832	6296.65
429.039	6378.57
429.247	6188.11
429.454	6849.6
429.662	7416.89
429.869	6949.95
430.076	7402.55
430.284	7246.91
430.491	7396.41
430.699	7943.22
430.906	8072.24
431.114	8068.14
431.321	8289.32
431.528	8469.55
431.736	9020.45
431.943	9294.88
432.15	9217.05
432.358	9290.78
432.565	9720.85
432.772	9739.29
432.979	10087.44
433.187	10525.71
433.394	10554.38
433.601	11113.47
433.808	11256.83
434.016	11115.52
434.223	11383.8
434.43	12346.35
434.637	12018.68
434.844	12760.04
435.052	12968.93
435.259	12827.62
435.466	13167.59
435.673	12671.98
435.88	13861.85
436.087	14355.41
436.294	14214.1
436.501	13931.48
436.708	14506.96
436.915	14783.43
437.122	15715.26
437.329	15571.9
437.537	15975.35
437.743	16585.65
437.95	15858.62
438.157	16989.1
438.364	17607.58
438.571	17470.37
438.778	17566.62
438.985	18936.71
439.192	18668.43
439.399	18969.48
439.606	18553.74
439.813	19518.34
440.02	20464.5
440.227	20331.38
440.433	20077.43
440.64	20867.95
440.847	20726.64
441.054	21392.23
441.261	22627.15
441.467	22551.38
441.674	22688.59
441.881	23718.72
442.088	23487.3
442.294	23446.34
442.501	23907.13
442.708	24384.31
442.914	25565.99
443.121	26344.22
443.328	25293.61
443.534	27278.09
443.741	26805.01
443.948	26241.82
444.154	28328.7
444.361	28238.59
444.568	28070.65
444.774	28101.37
444.981	28484.34
445.187	29393.64
445.394	30503.64
445.6	30089.95
445.807	33424.04
446.013	32015.04
446.22	31881.92
446.426	33626.79
446.633	33807.01
446.839	34898.58
447.046	33364.65
447.252	35230.35
447.459	35486.35
447.665	35357.33
447.871	36930.17
448.078	38416.99
448.284	36264.58
448.491	37569.13
448.697	39144.02
448.903	39373.39
449.11	39412.31
449.316	39148.12
449.522	39903.82
449.728	40780.35
449.935	41288.24
450.141	41343.54
450.347	41906.73
450.553	40454.72
450.76	40993.34
450.966	42981.91
451.172	42148.39
451.378	43606.55
451.584	42213.93
451.791	43481.62
451.997	43217.43
452.203	44194.31
452.409	44053
452.615	44005.9
452.821	42132.01
453.027	41851.44
453.233	43559.44
453.44	42011.18
453.646	42125.86
453.852	42422.82
454.058	43645.46
454.264	41968.17
454.47	43174.42
454.676	41919.02
454.882	43194.9
455.088	39572.05
455.294	40229.44
455.5	40421.95
455.705	41175.61
455.911	39582.29
456.117	39049.81
456.323	38376.03
456.529	36424.32
456.735	38158.95
456.941	36862.58
457.147	36258.43
457.352	35228.31
457.558	34775.7
457.764	34859.67
457.97	34228.9
458.176	33456.81
458.381	33450.67
458.587	31922.88
458.793	32006.85
458.999	30145.25
459.204	32611
459.41	31548.11
459.616	29383.4
459.821	29397.74
460.027	29364.97
460.233	28809.97
460.438	27376.39
460.644	27482.89
460.85	26276.63
461.055	26118.94
461.261	25738.02
461.466	23831.36
461.672	23008.08
461.878	24621.87
462.083	23251.78
462.289	22481.75
462.494	22248.28
462.7	21637.98
462.905	20919.15
463.111	21373.8
463.316	21666.66
463.522	21087.08
463.727	21173.1
463.932	21283.69
464.138	20884.33
464.343	20915.05
464.549	20538.23
464.754	21130.09
464.959	20708.21
465.165	20634.48
465.37	19467.14
465.575	19207.05
465.781	19886.97
465.986	19772.28
466.191	19225.48
466.397	18848.65
466.602	18181.01
