Data from USB4F104151__36__14-29-44-437.txt Node

Date: Thu Mar 13 14:29:44 EDT 2025
User: louis
Spectrometer: USB4F10415
Trigger mode: 4
Integration Time (sec): 2.500000E-2
Scans to average: 1
Electric dark correction enabled: true
Nonlinearity correction enabled: false
Boxcar width: 0
XAxis mode: Wavelengths
Number of Pixels in Spectrum: 3648
>>>>>Begin Spectral Data<<<<<
178.204	-99.16
178.424	-99.16
178.644	-99.16
178.864	-125.78
179.084	-84.82
179.304	-11.09
179.524	-11.09
179.744	13.48
179.964	44.2
180.184	23.72
180.404	9.39
180.624	13.48
180.844	-25.43
181.064	-7
181.283	-60.24
181.503	-43.86
181.723	54.44
181.943	-7
182.163	93.35
182.383	7.34
182.602	29.87
182.822	81.07
183.042	103.59
183.262	97.45
183.482	79.02
183.701	5.29
183.921	52.39
184.141	-54.1
184.361	27.82
184.58	15.53
184.8	-35.67
185.02	46.25
185.239	76.97
185.459	38.06
185.679	33.96
185.898	-25.43
186.118	17.58
186.338	70.83
186.557	97.45
186.777	79.02
186.997	15.53
187.216	-19.29
187.436	115.88
187.655	-0.85
187.875	25.77
188.095	-15.19
188.314	62.63
188.534	46.25
188.753	13.48
188.973	103.59
189.192	93.35
189.412	66.73
189.631	5.29
189.851	7.34
190.07	56.49
190.29	15.53
190.509	15.53
190.729	-60.24
190.948	48.3
191.168	177.32
191.387	17.58
191.607	13.48
191.826	70.83
192.045	38.06
192.265	70.83
192.484	33.96
192.704	29.87
192.923	62.63
193.142	95.4
193.362	-68.44
193.581	140.46
193.8	91.31
194.02	40.11
194.239	103.59
194.458	81.07
194.678	79.02
194.897	89.26
195.116	46.25
195.335	89.26
195.555	72.87
195.774	44.2
195.993	58.54
196.212	70.83
196.432	-33.62
196.651	1.19
196.87	29.87
197.089	54.44
197.308	21.67
197.528	40.11
197.747	44.2
197.966	-11.09
198.185	62.63
198.404	7.34
198.623	83.11
198.842	111.78
199.062	52.39
199.281	50.35
199.5	-15.19
199.719	50.35
199.938	50.35
200.157	128.17
200.376	107.69
200.595	-7
200.814	50.35
201.033	-35.67
201.252	-17.24
201.471	64.68
201.69	119.98
201.909	42.15
202.128	46.25
202.347	74.92
202.566	1.19
202.785	17.58
203.004	46.25
203.223	103.59
203.442	5.29
203.661	54.44
203.879	70.83
204.098	38.06
204.317	36.01
204.536	62.63
204.755	21.67
204.974	13.48
205.193	62.63
205.411	79.02
205.63	79.02
205.849	85.16
206.068	89.26
206.287	23.72
206.505	81.07
206.724	-31.57
206.943	46.25
207.162	40.11
207.381	13.48
207.599	5.29
207.818	29.87
208.037	85.16
208.255	46.25
208.474	62.63
208.693	13.48
208.911	81.07
209.13	46.25
209.349	54.44
209.567	27.82
209.786	115.88
210.005	33.96
210.223	31.91
210.442	-2.9
210.661	-45.91
210.879	46.25
211.098	21.67
211.316	60.59
211.535	40.11
211.753	42.15
211.972	-9.05
212.191	9.39
212.409	7.34
212.628	-15.19
212.846	-2.9
213.065	70.83
213.283	115.88
213.502	-52.05
213.72	-33.62
213.938	74.92
214.157	40.11
214.375	111.78
214.594	7.34
214.812	83.11
215.031	7.34
215.249	36.01
215.467	-27.48
215.686	40.11
215.904	119.98
216.122	48.3
216.341	50.35
216.559	146.6
216.778	54.44
216.996	46.25
217.214	56.49
217.432	5.29
217.651	-27.48
217.869	109.74
218.087	15.53
218.306	83.11
218.524	58.54
218.742	-43.86
218.96	19.63
219.179	97.45
219.397	1.19
219.615	60.59
219.833	40.11
220.051	-2.9
220.27	21.67
220.488	5.29
220.706	13.48
220.924	33.96
221.142	-33.62
221.36	-7
221.578	-9.05
221.796	31.91
222.015	56.49
222.233	40.11
222.451	70.83
222.669	13.48
222.887	70.83
223.105	-58.2
223.323	-27.48
223.541	19.63
223.759	1.19
223.977	46.25
224.195	97.45
224.413	50.35
224.631	79.02
224.849	7.34
225.067	87.21
225.285	-11.09
225.503	46.25
225.721	-11.09
225.939	36.01
226.157	21.67
226.375	95.4
226.592	-4.95
226.81	9.39
227.028	62.63
227.246	89.26
227.464	38.06
227.682	21.67
227.9	119.98
228.117	83.11
228.335	58.54
228.553	40.11
228.771	79.02
228.989	46.25
229.206	56.49
229.424	91.31
229.642	33.96
229.86	-9.05
230.077	56.49
230.295	-7
230.513	103.59
230.731	76.97
230.948	83.11
231.166	130.22
231.384	1.19
231.601	48.3
231.819	7.34
232.037	89.26
232.254	13.48
232.472	72.87
232.689	70.83
232.907	83.11
233.125	72.87
233.342	-68.44
233.56	70.83
233.777	50.35
233.995	81.07
234.213	29.87
234.43	46.25
234.648	107.69
234.865	23.72
235.083	21.67
235.3	7.34
235.518	95.4
235.735	72.87
235.953	130.22
236.17	25.77
236.388	56.49
236.605	5.29
236.822	38.06
237.04	58.54
237.257	42.15
237.475	-50
237.692	103.59
237.909	62.63
238.127	-9.05
238.344	27.82
238.562	160.94
238.779	-11.09
238.996	-15.19
239.214	-43.86
239.431	130.22
239.648	-19.29
239.865	70.83
240.083	-9.05
240.3	40.11
240.517	-0.85
240.735	44.2
240.952	52.39
241.169	7.34
241.386	54.44
241.603	40.11
241.821	31.91
242.038	21.67
242.255	48.3
242.472	42.15
242.689	72.87
242.907	130.22
243.124	9.39
243.341	97.45
243.558	46.25
243.775	-52.05
243.992	7.34
244.209	-23.38
244.426	132.26
244.643	107.69
244.86	97.45
245.078	115.88
245.295	54.44
245.512	111.78
245.729	13.48
245.946	97.45
246.163	103.59
246.38	21.67
246.597	13.48
246.814	74.92
247.031	66.73
247.248	-15.19
247.464	103.59
247.681	54.44
247.898	23.72
248.115	13.48
248.332	48.3
248.549	87.21
248.766	-9.05
248.983	74.92
249.2	-17.24
249.417	38.06
249.633	109.74
249.85	148.65
250.067	40.11
250.284	33.96
250.501	64.68
250.717	70.83
250.934	-33.62
251.151	46.25
251.368	54.44
251.585	203.94
251.801	-17.24
252.018	99.5
252.235	15.53
252.451	23.72
252.668	54.44
252.885	95.4
253.102	-11.09
253.318	23.72
253.535	-52.05
253.752	64.68
253.968	29.87
254.185	23.72
254.401	-15.19
254.618	56.49
254.835	40.11
255.051	54.44
255.268	36.01
255.484	91.31
255.701	-68.44
255.917	62.63
256.134	21.67
256.351	81.07
256.567	-27.48
256.784	-4.95
257	-2.9
257.217	-19.29
257.433	64.68
257.65	130.22
257.866	101.55
258.082	62.63
258.299	21.67
258.515	54.44
258.732	33.96
258.948	-2.9
259.165	48.3
259.381	70.83
259.597	105.64
259.814	50.35
260.03	11.43
260.246	25.77
260.463	48.3
260.679	7.34
260.895	-11.09
261.112	95.4
261.328	-27.48
261.544	27.82
261.761	64.68
261.977	48.3
262.193	89.26
262.409	36.01
262.626	31.91
262.842	48.3
263.058	-2.9
263.274	19.63
263.49	-47.96
263.707	54.44
263.923	21.67
264.139	-9.05
264.355	33.96
264.571	50.35
264.787	54.44
265.004	87.21
265.22	7.34
265.436	-60.24
265.652	21.67
265.868	-2.9
266.084	-7
266.3	-15.19
266.516	3.24
266.732	64.68
266.948	72.87
267.164	85.16
267.38	21.67
267.596	95.4
267.812	23.72
268.028	13.48
268.244	68.78
268.46	38.06
268.676	31.91
268.892	89.26
269.108	50.35
269.324	23.72
269.54	42.15
269.756	72.87
269.972	9.39
270.188	1.19
270.403	40.11
270.619	48.3
270.835	70.83
271.051	93.35
271.267	1.19
271.483	38.06
271.698	48.3
271.914	72.87
272.13	-25.43
272.346	5.29
272.562	79.02
272.777	25.77
272.993	15.53
273.209	27.82
273.425	-2.9
273.64	5.29
273.856	62.63
274.072	-23.38
274.287	38.06
274.503	138.41
274.719	7.34
274.934	21.67
275.15	-47.96
275.366	119.98
275.581	-11.09
275.797	33.96
276.012	74.92
276.228	-7
276.444	29.87
276.659	46.25
276.875	27.82
277.09	119.98
277.306	23.72
277.521	99.5
277.737	-27.48
277.952	122.02
278.168	21.67
278.383	97.45
278.599	79.02
278.814	38.06
279.03	62.63
279.245	83.11
279.461	40.11
279.676	95.4
279.892	-23.38
280.107	19.63
280.322	-15.19
280.538	87.21
280.753	-4.95
280.969	70.83
281.184	38.06
281.399	70.83
281.615	-35.67
281.83	48.3
282.045	74.92
282.26	29.87
282.476	29.87
282.691	70.83
282.906	-9.05
283.122	66.73
283.337	31.91
283.552	38.06
283.767	38.06
283.983	79.02
284.198	21.67
284.413	89.26
284.628	-78.68
284.843	31.91
285.058	66.73
285.274	50.35
285.489	15.53
285.704	72.87
285.919	25.77
286.134	-33.62
286.349	64.68
286.564	64.68
286.779	23.72
286.995	15.53
287.21	29.87
287.425	95.4
287.64	-52.05
287.855	109.74
288.07	38.06
288.285	38.06
288.5	62.63
288.715	13.48
288.93	79.02
289.145	-13.14
289.36	50.35
289.575	19.63
289.79	74.92
290.004	7.34
290.219	48.3
290.434	33.96
290.649	-19.29
290.864	66.73
291.079	29.87
291.294	46.25
291.509	62.63
291.724	42.15
291.938	81.07
292.153	-0.85
292.368	85.16
292.583	9.39
292.798	29.87
293.012	87.21
293.227	-23.38
293.442	13.48
293.657	9.39
293.871	81.07
294.086	29.87
294.301	52.39
294.516	-15.19
294.73	70.83
294.945	15.53
295.16	-31.57
295.374	-27.48
295.589	91.31
295.804	21.67
296.018	103.59
296.233	74.92
296.447	62.63
296.662	21.67
296.877	105.64
297.091	-9.05
297.306	62.63
297.52	85.16
297.735	31.91
297.949	11.43
298.164	113.83
298.378	79.02
298.593	5.29
298.807	33.96
299.022	25.77
299.236	46.25
299.451	42.15
299.665	87.21
299.88	13.48
300.094	79.02
300.309	54.44
300.523	81.07
300.737	38.06
300.952	54.44
301.166	-4.95
301.381	68.78
301.595	9.39
301.809	91.31
302.024	21.67
302.238	9.39
302.452	64.68
302.667	50.35
302.881	169.13
303.095	115.88
303.309	119.98
303.524	29.87
303.738	105.64
303.952	48.3
304.166	56.49
304.381	-41.81
304.595	42.15
304.809	107.69
305.023	48.3
305.237	33.96
305.452	23.72
305.666	42.15
305.88	89.26
306.094	99.5
306.308	40.11
306.522	31.91
306.736	25.77
306.95	50.35
307.164	5.29
307.379	23.72
307.593	93.35
307.807	62.63
308.021	66.73
308.235	87.21
308.449	11.43
308.663	40.11
308.877	95.4
309.091	66.73
309.305	66.73
309.519	27.82
309.733	38.06
309.947	66.73
310.161	29.87
310.374	99.5
310.588	97.45
310.802	66.73
311.016	87.21
311.23	140.46
311.444	-25.43
311.658	-0.85
311.872	48.3
312.085	36.01
312.299	15.53
312.513	40.11
312.727	95.4
312.941	54.44
313.154	66.73
313.368	56.49
313.582	103.59
313.796	42.15
314.009	23.72
314.223	31.91
314.437	74.92
314.651	87.21
314.864	29.87
315.078	-2.9
315.292	15.53
315.505	23.72
315.719	124.07
315.933	40.11
316.146	87.21
316.36	-17.24
316.573	38.06
316.787	83.11
317.001	83.11
317.214	40.11
317.428	36.01
317.641	27.82
317.855	19.63
318.068	62.63
318.282	13.48
318.495	97.45
318.709	87.21
318.922	33.96
319.136	136.36
319.349	169.13
319.563	46.25
319.776	38.06
319.99	54.44
320.203	119.98
320.417	74.92
320.63	29.87
320.843	62.63
321.057	66.73
321.27	68.78
321.483	64.68
321.697	79.02
321.91	56.49
322.124	79.02
322.337	56.49
322.55	31.91
322.763	76.97
322.977	42.15
323.19	-2.9
323.403	79.02
323.617	29.87
323.83	64.68
324.043	42.15
324.256	9.39
324.469	-17.24
324.683	23.72
324.896	-11.09
325.109	66.73
325.322	-27.48
325.535	15.53
325.748	107.69
325.962	5.29
326.175	66.73
326.388	-4.95
326.601	50.35
326.814	3.24
327.027	-19.29
327.24	103.59
327.453	-0.85
327.666	29.87
327.879	42.15
328.092	70.83
328.305	7.34
328.518	38.06
328.731	25.77
328.944	56.49
329.157	111.78
329.37	27.82
329.583	46.25
329.796	56.49
330.009	-2.9
330.222	70.83
330.435	70.83
330.648	64.68
330.861	13.48
331.073	76.97
331.286	56.49
331.499	54.44
331.712	-11.09
331.925	-9.05
332.138	-33.62
332.35	105.64
332.563	3.24
332.776	79.02
332.989	15.53
333.202	79.02
333.414	-17.24
333.627	25.77
333.84	-31.57
334.053	124.07
334.265	-19.29
334.478	25.77
334.691	115.88
334.903	9.39
335.116	54.44
335.329	29.87
335.541	66.73
335.754	46.25
335.966	11.43
336.179	83.11
336.392	31.91
336.604	87.21
336.817	103.59
337.029	-29.52
337.242	105.64
337.454	83.11
337.667	48.3
337.88	148.65
338.092	97.45
338.305	126.12
338.517	87.21
338.729	13.48
338.942	95.4
339.154	33.96
339.367	29.87
339.579	-7
339.792	13.48
340.004	89.26
340.217	21.67
340.429	87.21
340.641	64.68
340.854	21.67
341.066	13.48
341.278	74.92
341.491	54.44
341.703	46.25
341.915	-2.9
342.128	68.78
342.34	29.87
342.552	33.96
342.764	31.91
342.977	31.91
343.189	21.67
343.401	31.91
343.613	-80.72
343.826	74.92
344.038	-9.05
344.25	79.02
344.462	56.49
344.674	23.72
344.886	54.44
345.099	66.73
345.311	15.53
345.523	13.48
345.735	25.77
345.947	72.87
346.159	31.91
346.371	21.67
346.583	93.35
346.795	119.98
347.007	29.87
347.219	54.44
347.431	-7
347.643	93.35
347.855	83.11
348.067	38.06
348.279	-39.76
348.491	54.44
348.703	40.11
348.915	19.63
349.127	83.11
349.339	48.3
349.551	40.11
349.763	91.31
349.975	7.34
350.187	99.5
350.399	124.07
350.61	62.63
350.822	33.96
351.034	113.83
351.246	128.17
351.458	72.87
351.669	103.59
351.881	36.01
352.093	72.87
352.305	70.83
352.517	58.54
352.728	124.07
352.94	99.5
353.152	52.39
353.363	64.68
353.575	72.87
353.787	50.35
353.999	79.02
354.21	29.87
354.422	111.78
354.633	173.22
354.845	-11.09
355.057	70.83
355.268	62.63
355.48	62.63
355.692	99.5
355.903	62.63
356.115	64.68
356.326	15.53
356.538	103.59
356.749	48.3
356.961	70.83
357.172	-43.86
357.384	13.48
357.595	144.55
357.807	23.72
358.018	60.59
358.23	70.83
358.441	124.07
358.653	9.39
358.864	33.96
359.075	56.49
359.287	33.96
359.498	21.67
359.709	87.21
359.921	105.64
360.132	72.87
360.344	50.35
360.555	11.43
360.766	103.59
360.977	33.96
361.189	72.87
361.4	42.15
361.611	79.02
361.823	91.31
362.034	81.07
362.245	-23.38
362.456	62.63
362.667	62.63
362.879	70.83
363.09	19.63
363.301	23.72
363.512	70.83
363.723	128.17
363.935	38.06
364.146	136.36
364.357	66.73
364.568	62.63
364.779	54.44
364.99	72.87
365.201	-7
365.412	21.67
365.623	23.72
365.834	124.07
366.045	95.4
366.256	42.15
366.467	62.63
366.678	68.78
366.889	23.72
367.1	-17.24
367.311	52.39
367.522	15.53
367.733	54.44
367.944	62.63
368.155	95.4
368.366	72.87
368.577	105.64
368.788	95.4
368.999	-15.19
369.209	23.72
369.42	160.94
369.631	89.26
369.842	46.25
370.053	81.07
370.264	146.6
370.474	44.2
370.685	58.54
370.896	3.24
371.107	58.54
371.317	72.87
371.528	50.35
371.739	128.17
371.95	5.29
372.16	50.35
372.371	-19.29
372.582	13.48
372.792	107.69
373.003	44.2
373.214	101.55
373.424	31.91
373.635	68.78
373.846	56.49
374.056	58.54
374.267	40.11
374.477	54.44
374.688	56.49
374.898	33.96
375.109	122.02
375.319	31.91
375.53	105.64
375.74	-41.81
375.951	-31.57
376.161	54.44
376.372	160.94
376.582	89.26
376.793	113.83
377.003	7.34
377.214	50.35
377.424	23.72
377.635	58.54
377.845	7.34
378.055	115.88
378.266	-7
378.476	72.87
378.686	56.49
378.897	56.49
379.107	132.26
379.317	122.02
379.528	23.72
379.738	107.69
379.948	101.55
380.158	91.31
380.369	79.02
380.579	13.48
380.789	50.35
380.999	91.31
381.21	70.83
381.42	115.88
381.63	138.41
381.84	95.4
382.05	91.31
382.261	70.83
382.471	144.55
382.681	126.12
382.891	115.88
383.101	64.68
383.311	7.34
383.521	5.29
383.731	72.87
383.941	111.78
384.151	23.72
384.361	154.79
384.571	89.26
384.781	46.25
384.991	58.54
385.201	111.78
385.411	87.21
385.621	95.4
385.831	136.36
386.041	33.96
386.251	44.2
386.461	144.55
386.671	111.78
386.881	85.16
387.091	91.31
387.301	74.92
387.511	72.87
387.72	-7
387.93	74.92
388.14	83.11
388.35	101.55
388.56	95.4
388.769	132.26
388.979	130.22
389.189	-9.05
389.399	-0.85
389.609	11.43
389.818	38.06
390.028	95.4
390.238	103.59
390.447	115.88
390.657	46.25
390.867	68.78
391.076	56.49
391.286	95.4
391.496	154.79
391.705	52.39
391.915	115.88
392.125	99.5
392.334	64.68
392.544	107.69
392.753	25.77
392.963	66.73
393.172	46.25
393.382	62.63
393.591	64.68
393.801	124.07
394.01	58.54
394.22	66.73
394.429	42.15
394.639	48.3
394.848	115.88
395.058	95.4
395.267	132.26
395.477	85.16
395.686	91.31
395.895	54.44
396.105	175.27
396.314	171.18
396.524	142.5
396.733	89.26
396.942	175.27
397.152	171.18
397.361	199.85
397.57	66.73
397.78	132.26
397.989	124.07
398.198	177.32
398.407	95.4
398.617	72.87
398.826	56.49
399.035	89.26
399.244	179.37
399.453	158.89
399.663	113.83
399.872	138.41
400.081	70.83
400.29	79.02
400.499	50.35
400.708	111.78
400.917	140.46
401.127	177.32
401.336	54.44
401.545	179.37
401.754	111.78
401.963	97.45
402.172	146.6
402.381	128.17
402.59	83.11
402.799	154.79
403.008	97.45
403.217	136.36
403.426	152.74
403.635	152.74
403.844	62.63
404.053	111.78
404.262	107.69
404.471	165.03
404.68	175.27
404.888	173.22
405.097	189.61
405.306	177.32
405.515	171.18
405.724	144.55
405.933	218.28
406.142	185.51
406.35	185.51
406.559	232.62
406.768	242.85
406.977	341.16
407.185	234.66
407.394	205.99
407.603	169.13
407.812	212.14
408.02	294.05
408.229	193.7
408.438	220.33
408.646	283.81
408.855	267.43
409.064	357.54
409.272	169.13
409.481	289.96
409.69	285.86
409.898	238.76
410.107	365.73
410.315	263.33
410.524	287.91
410.733	339.11
410.941	335.01
411.15	386.21
411.358	373.92
411.567	447.65
411.775	392.36
411.984	406.69
412.192	476.32
412.401	435.36
412.609	457.89
412.818	521.38
413.026	498.85
413.234	562.34
413.443	539.81
413.651	554.15
413.86	599.2
414.068	660.64
414.276	674.98
414.485	617.63
414.693	826.53
414.901	711.84
415.11	709.79
415.318	750.75
415.526	744.61
415.734	828.57
415.943	818.33
416.151	908.44
416.359	894.11
416.567	865.44
416.776	939.16
416.984	1053.85
417.192	969.88
417.4	988.32
417.608	996.51
417.817	1055.9
418.025	1176.73
418.233	1272.98
418.441	1221.78
418.649	1258.65
418.857	1213.59
419.065	1379.48
419.273	1303.7
419.481	1481.88
419.689	1488.02
419.897	1488.02
420.105	1658
420.313	1623.19
420.521	1571.99
420.729	1737.87
420.937	1750.16
421.145	1692.82
421.353	1901.71
421.561	2061.45
421.769	2143.37
421.977	2249.86
422.185	2143.37
422.393	2137.23
422.601	2473.09
422.809	2423.94
423.017	2331.78
423.224	2581.64
423.432	2608.26
423.64	2503.81
423.848	2841.73
424.056	2765.95
424.263	3064.96
424.471	2983.04
424.679	3054.72
424.887	3191.93
425.094	3159.16
425.302	3269.75
425.51	3331.19
425.718	3564.66
425.925	3626.1
426.133	3677.3
426.341	3845.23
426.548	4099.18
426.756	4134
426.964	4121.71
427.171	4394.09
427.379	4449.38
427.586	4420.71
427.794	4693.09
428.001	4871.26
428.209	4994.14
428.417	4965.47
428.624	5348.44
428.832	5307.48
429.039	5129.31
429.247	5274.71
429.454	5805.14
429.662	6179.92
429.869	5772.37
430.076	6255.69
430.284	5983.31
430.491	6173.77
430.699	6583.37
430.906	6493.26
431.114	6814.79
431.321	7042.11
431.528	7306.3
431.736	7666.74
431.943	7853.11
432.15	7343.16
432.358	7566.39
432.565	8256.56
432.772	8055.86
432.979	8510.5
433.187	8731.69
433.394	8617
433.601	9155.61
433.808	9255.97
434.016	8985.63
434.223	9372.7
434.43	10214.41
434.637	9866.26
434.844	10628.1
435.052	10525.71
435.259	10581
435.466	11041.79
435.673	10607.62
435.88	11594.75
436.087	12010.48
436.294	12004.34
436.501	11631.61
436.708	11959.28
436.915	12319.73
437.122	12776.42
437.329	12811.24
437.537	13646.81
437.743	13646.81
437.95	13073.38
438.157	13951.96
438.364	14420.94
438.571	14418.89
438.778	14447.57
438.985	15748.03
439.192	15107.01
439.399	15686.59
439.606	15459.26
439.813	16135.09
440.02	17058.73
440.227	16833.45
440.433	16688.04
440.64	17253.28
440.847	16939.94
441.054	17374.11
441.261	18727.82
441.467	18271.12
441.674	18813.84
441.881	19671.93
442.088	19317.64
442.294	19288.96
442.501	19864.44
442.708	20310.9
442.914	20863.85
443.121	21674.85
443.328	20771.69
443.534	22557.52
443.741	22068.06
443.948	21531.49
444.154	23458.63
444.361	23411.53
444.568	23614.27
444.774	23380.81
444.981	23481.16
445.187	24238.9
445.394	25199.4
445.6	24863.54
445.807	27261.71
446.013	26211.1
446.22	26618.64
446.426	27636.48
446.633	27724.55
446.839	28680.95
447.046	27566.85
447.252	29442.79
447.459	29297.39
447.665	28791.54
447.871	30331.61
448.078	31337.16
448.284	29977.31
448.491	30833.36
448.697	32047.81
448.903	32682.68
449.11	32961.2
449.316	32060.1
449.522	32776.89
449.728	33780.39
449.935	34171.55
450.141	34167.46
450.347	34392.73
450.553	33508.01
450.76	34007.72
450.966	34931.35
451.172	34548.38
451.378	35338.9
451.584	34921.11
451.791	36018.82
451.997	35437.2
452.203	35916.42
452.409	36205.19
452.615	35920.52
452.821	34874.01
453.027	34409.12
453.233	35773.06
453.44	34544.28
453.646	34775.7
453.852	35074.71
454.058	35758.73
454.264	34720.41
454.47	35154.58
454.676	34329.25
454.882	35574.41
455.088	32107.2
455.294	33131.19
455.5	33247.92
455.705	33669.8
455.911	32459.45
456.117	31892.16
456.323	31507.15
456.529	29594.34
456.735	30948.05
456.941	29668.07
457.147	29166.32
457.352	28549.88
457.558	28158.72
457.764	28398.33
457.97	27644.68
458.176	27329.29
458.381	26944.27
458.587	25793.31
458.793	25715.49
458.999	24425.27
459.204	26346.26
459.41	25404.2
459.616	23769.92
459.821	23755.58
460.027	23661.38
460.233	23184.2
460.438	22147.93
460.644	22291.29
460.85	21396.32
461.055	20775.79
461.261	20765.55
461.466	19200.9
461.672	18621.33
461.878	19745.66
462.083	18594.7
462.289	18326.42
462.494	18092.95
462.7	17200.04
462.905	16987.05
463.111	17603.49
463.316	17318.82
463.522	17028.01
463.727	17013.67
463.932	17013.67
464.138	16903.08
464.343	16905.13
464.549	16014.26
464.754	17001.38
464.959	16520.11
465.165	16554.93
465.37	15877.05
465.575	15469.5
465.781	16120.76
465.986	16348.08
466.191	15698.88
466.397	15147.97
466.602	14394.32
466.807	14900.17
467.012	14980.04
467.218	14791.62
467.423	14697.42
