Data from USB4F104151__213__14-33-32-246.txt Node

Date: Thu Mar 13 14:33:32 EDT 2025
User: louis
Spectrometer: USB4F10415
Trigger mode: 4
Integration Time (sec): 2.500000E-2
Scans to average: 1
Electric dark correction enabled: true
Nonlinearity correction enabled: false
Boxcar width: 0
XAxis mode: Wavelengths
Number of Pixels in Spectrum: 3648
>>>>>Begin Spectral Data<<<<<
178.204	-179.54
178.424	-179.54
178.644	-179.54
178.864	-200.02
179.084	-105.81
179.304	-13.65
179.524	8.87
179.744	-42.32
179.964	58.03
180.184	-36.18
180.404	74.41
180.624	33.45
180.844	-23.89
181.064	-27.99
181.283	-19.8
181.503	-5.46
181.723	-5.46
181.943	8.87
182.163	144.04
182.383	-3.41
182.602	103.08
182.822	74.41
183.042	17.07
183.262	-71
183.482	-9.56
183.701	21.16
183.921	-7.51
184.141	-7.51
184.361	117.42
184.58	12.97
184.8	66.22
185.02	-40.28
185.239	17.07
185.459	-17.75
185.679	-32.08
185.898	4.78
186.118	111.27
186.338	27.31
186.557	-7.51
186.777	25.26
186.997	17.07
187.216	-15.7
187.436	70.31
187.655	39.59
187.875	66.22
188.095	8.87
188.314	92.84
188.534	66.22
188.753	41.64
188.973	-7.51
189.192	74.41
189.412	86.7
189.631	8.87
189.851	41.64
190.07	33.45
190.29	12.97
190.509	41.64
190.729	66.22
190.948	58.03
191.168	189.1
191.387	101.03
191.607	-1.37
191.826	51.88
192.045	43.69
192.265	76.46
192.484	68.27
192.704	17.07
192.923	-7.51
193.142	123.56
193.362	25.26
193.581	70.31
193.8	82.6
194.02	-11.61
194.239	10.92
194.458	66.22
194.678	45.74
194.897	-21.84
195.116	-23.89
195.335	74.41
195.555	131.75
195.774	2.73
195.993	84.65
196.212	25.26
196.432	8.87
196.651	-7.51
196.87	107.18
197.089	90.79
197.308	72.36
197.528	27.31
197.747	6.83
197.966	68.27
198.185	152.23
198.404	-32.08
198.623	98.99
198.842	45.74
199.062	74.41
199.281	98.99
199.5	-7.51
199.719	78.51
199.938	49.83
200.157	27.31
200.376	33.45
200.595	86.7
200.814	117.42
201.033	8.87
201.252	74.41
201.471	2.73
201.69	17.07
201.909	25.26
202.128	23.21
202.347	107.18
202.566	51.88
202.785	-44.37
203.004	-27.99
203.223	141.99
203.442	35.5
203.661	12.97
203.879	8.87
204.098	62.12
204.317	41.64
204.536	82.6
204.755	29.35
204.974	58.03
205.193	121.51
205.411	144.04
205.63	41.64
205.849	107.18
206.068	6.83
206.287	10.92
206.505	92.84
206.724	15.02
206.943	94.89
207.162	58.03
207.381	60.07
207.599	51.88
207.818	6.83
208.037	12.97
208.255	51.88
208.474	27.31
208.693	74.41
208.911	82.6
209.13	25.26
209.349	101.03
209.567	21.16
209.786	105.13
210.005	41.64
210.223	47.79
210.442	-19.8
210.661	86.7
210.879	60.07
211.098	43.69
211.316	0.68
211.535	119.46
211.753	45.74
211.972	8.87
212.191	33.45
212.409	15.02
212.628	68.27
212.846	-32.08
213.065	53.93
213.283	90.79
213.502	0.68
213.72	72.36
213.938	45.74
214.157	66.22
214.375	-1.37
214.594	23.21
214.812	49.83
215.031	49.83
215.249	33.45
215.467	111.27
215.686	53.93
215.904	103.08
216.122	41.64
216.341	98.99
216.559	25.26
216.778	98.99
216.996	111.27
217.214	33.45
217.432	-7.51
217.651	-32.08
217.869	17.07
218.087	45.74
218.306	58.03
218.524	66.22
218.742	-27.99
218.96	84.65
219.179	25.26
219.397	55.98
219.615	47.79
219.833	37.55
220.051	-13.65
220.27	43.69
220.488	21.16
220.706	60.07
220.924	33.45
221.142	31.4
221.36	92.84
221.578	90.79
221.796	33.45
222.015	23.21
222.233	-3.41
222.451	109.23
222.669	-7.51
222.887	41.64
223.105	17.07
223.323	29.35
223.541	10.92
223.759	39.59
223.977	68.27
224.195	41.64
224.413	94.89
224.631	51.88
224.849	-34.13
225.067	92.84
225.285	-13.65
225.503	49.83
225.721	-77.14
225.939	53.93
226.157	31.4
226.375	94.89
226.592	0.68
226.81	21.16
227.028	35.5
227.246	78.51
227.464	141.99
227.682	43.69
227.9	35.5
228.117	47.79
228.335	17.07
228.553	66.22
228.771	82.6
228.989	29.35
229.206	115.37
229.424	127.66
229.642	-27.99
229.86	19.11
230.077	123.56
230.295	8.87
230.513	90.79
230.731	8.87
230.948	6.83
231.166	80.55
231.384	17.07
231.601	29.35
231.819	53.93
232.037	-11.61
232.254	12.97
232.472	60.07
232.689	15.02
232.907	84.65
233.125	94.89
233.342	17.07
233.56	0.68
233.777	74.41
233.995	-1.37
234.213	33.45
234.43	86.7
234.648	43.69
234.865	17.07
235.083	33.45
235.3	90.79
235.518	-11.61
235.735	8.87
235.953	66.22
236.17	4.78
236.388	-40.28
236.605	17.07
236.822	129.7
237.04	119.46
237.257	2.73
237.475	62.12
237.692	43.69
237.909	107.18
238.127	33.45
238.344	49.83
238.562	41.64
238.779	-5.46
238.996	8.87
239.214	35.5
239.431	27.31
239.648	-5.46
239.865	33.45
240.083	129.7
240.3	58.03
240.517	12.97
240.735	43.69
240.952	58.03
241.169	37.55
241.386	78.51
241.603	66.22
241.821	76.46
242.038	98.99
242.255	86.7
242.472	25.26
242.689	12.97
242.907	51.88
243.124	62.12
243.341	60.07
243.558	41.64
243.775	2.73
243.992	-36.18
244.209	66.22
244.426	43.69
244.643	41.64
244.86	27.31
245.078	107.18
245.295	51.88
245.512	53.93
245.729	15.02
245.946	45.74
246.163	43.69
246.38	58.03
246.597	55.98
246.814	-15.7
247.031	78.51
247.248	-3.41
247.464	41.64
247.681	27.31
247.898	-7.51
248.115	-9.56
248.332	-46.42
248.549	8.87
248.766	60.07
248.983	72.36
249.2	88.75
249.417	51.88
249.633	12.97
249.85	113.32
250.067	49.83
250.284	84.65
250.501	33.45
250.717	68.27
250.934	-21.84
251.151	-73.04
251.368	17.07
251.585	82.6
251.801	17.07
252.018	58.03
252.235	12.97
252.451	45.74
252.668	-23.89
252.885	4.78
253.102	35.5
253.318	66.22
253.535	15.02
253.752	0.68
253.968	60.07
254.185	-34.13
254.401	84.65
254.618	-30.04
254.835	-23.89
255.051	66.22
255.268	90.79
255.484	27.31
255.701	49.83
255.917	2.73
256.134	-34.13
256.351	10.92
256.567	66.22
256.784	162.47
257	-71
257.217	53.93
257.433	17.07
257.65	131.75
257.866	47.79
258.082	2.73
258.299	33.45
258.515	66.22
258.732	-21.84
258.948	35.5
259.165	45.74
259.381	29.35
259.597	74.41
259.814	76.46
260.03	0.68
260.246	35.5
260.463	107.18
260.679	17.07
260.895	-21.84
261.112	-1.37
261.328	72.36
261.544	49.83
261.761	53.93
261.977	4.78
262.193	-64.85
262.409	72.36
262.626	43.69
262.842	35.5
263.058	-11.61
263.274	15.02
263.49	47.79
263.707	-23.89
263.923	47.79
264.139	58.03
264.355	0.68
264.571	86.7
264.787	21.16
265.004	123.56
265.22	103.08
265.436	51.88
265.652	45.74
265.868	76.46
266.084	-25.94
266.3	19.11
266.516	-7.51
266.732	35.5
266.948	37.55
267.164	82.6
267.38	90.79
267.596	66.22
267.812	133.8
268.028	37.55
268.244	27.31
268.46	10.92
268.676	0.68
268.892	49.83
269.108	84.65
269.324	19.11
269.54	25.26
269.756	25.26
269.972	-5.46
270.188	66.22
270.403	51.88
270.619	60.07
270.835	-5.46
271.051	35.5
271.267	-15.7
271.483	23.21
271.698	43.69
271.914	33.45
272.13	49.83
272.346	-11.61
272.562	98.99
272.777	66.22
272.993	41.64
273.209	35.5
273.425	37.55
273.64	49.83
273.856	135.85
274.072	35.5
274.287	70.31
274.503	74.41
274.719	41.64
274.934	-7.51
275.15	-44.37
275.366	25.26
275.581	37.55
275.797	43.69
276.012	51.88
276.228	-40.28
276.444	70.31
276.659	0.68
276.875	37.55
277.09	10.92
277.306	-46.42
277.521	66.22
277.737	43.69
277.952	74.41
278.168	98.99
278.383	21.16
278.599	27.31
278.814	68.27
279.03	41.64
279.245	31.4
279.461	19.11
279.676	66.22
279.892	74.41
280.107	49.83
280.322	33.45
280.538	84.65
280.753	-54.61
280.969	84.65
281.184	25.26
281.399	68.27
281.615	35.5
281.83	62.12
282.045	41.64
282.26	78.51
282.476	2.73
282.691	90.79
282.906	-11.61
283.122	10.92
283.337	-15.7
283.552	82.6
283.767	-7.51
283.983	74.41
284.198	72.36
284.413	35.5
284.628	-9.56
284.843	107.18
285.058	98.99
285.274	-25.94
285.489	-23.89
285.704	78.51
285.919	47.79
286.134	-30.04
286.349	53.93
286.564	49.83
286.779	37.55
286.995	25.26
287.21	-7.51
287.425	78.51
287.64	82.6
287.855	45.74
288.07	-40.28
288.285	84.65
288.5	98.99
288.715	96.94
288.93	66.22
289.145	-7.51
289.36	148.14
289.575	60.07
289.79	68.27
290.004	37.55
290.219	66.22
290.434	62.12
290.649	41.64
290.864	41.64
291.079	78.51
291.294	43.69
291.509	92.84
291.724	37.55
291.938	-3.41
292.153	60.07
292.368	-73.04
292.583	98.99
292.798	51.88
293.012	49.83
293.227	37.55
293.442	78.51
293.657	107.18
293.871	125.61
294.086	17.07
294.301	49.83
294.516	37.55
294.73	88.75
294.945	6.83
295.16	127.66
295.374	29.35
295.589	98.99
295.804	-71
296.018	119.46
296.233	76.46
296.447	21.16
296.662	51.88
296.877	53.93
297.091	23.21
297.306	47.79
297.52	66.22
297.735	86.7
297.949	82.6
298.164	164.52
298.378	2.73
298.593	10.92
298.807	41.64
299.022	12.97
299.236	17.07
299.451	25.26
299.665	-48.47
299.88	17.07
300.094	103.08
300.309	88.75
300.523	82.6
300.737	58.03
300.952	27.31
301.166	58.03
301.381	23.21
301.595	68.27
301.809	-5.46
302.024	37.55
302.238	4.78
302.452	92.84
302.667	62.12
302.881	117.42
303.095	27.31
303.309	105.13
303.524	6.83
303.738	17.07
303.952	-30.04
304.166	103.08
304.381	-19.8
304.595	117.42
304.809	8.87
305.023	-7.51
305.237	55.98
305.452	29.35
305.666	45.74
305.88	84.65
306.094	49.83
306.308	107.18
306.522	58.03
306.736	66.22
306.95	66.22
307.164	25.26
307.379	25.26
307.593	123.56
307.807	10.92
308.021	101.03
308.235	27.31
308.449	8.87
308.663	17.07
308.877	101.03
309.091	41.64
309.305	62.12
309.519	-23.89
309.733	84.65
309.947	27.31
310.161	51.88
310.374	39.59
310.588	53.93
310.802	41.64
311.016	-1.37
311.23	49.83
311.444	10.92
311.658	62.12
311.872	78.51
312.085	86.7
312.299	154.28
312.513	62.12
312.727	90.79
312.941	39.59
313.154	62.12
313.368	41.64
313.582	98.99
313.796	58.03
314.009	49.83
314.223	62.12
314.437	60.07
314.651	82.6
314.864	74.41
315.078	84.65
315.292	25.26
315.505	74.41
315.719	4.78
315.933	23.21
316.146	105.13
316.36	35.5
316.573	98.99
316.787	8.87
317.001	-9.56
317.214	49.83
317.428	-23.89
317.641	12.97
317.855	103.08
318.068	-46.42
318.282	49.83
318.495	53.93
318.709	74.41
318.922	74.41
319.136	119.46
319.349	92.84
319.563	27.31
319.776	66.22
319.99	58.03
320.203	72.36
320.417	41.64
320.63	29.35
320.843	101.03
321.057	62.12
321.27	62.12
321.483	74.41
321.697	98.99
321.91	90.79
322.124	2.73
322.337	45.74
322.55	-7.51
322.763	55.98
322.977	-21.84
323.19	82.6
323.403	82.6
323.617	43.69
323.83	74.41
324.043	12.97
324.256	27.31
324.469	41.64
324.683	90.79
324.896	60.07
325.109	23.21
325.322	12.97
325.535	4.78
325.748	82.6
325.962	55.98
326.175	70.31
326.388	41.64
326.601	62.12
326.814	49.83
327.027	90.79
327.24	107.18
327.453	2.73
327.666	47.79
327.879	96.94
328.092	45.74
328.305	74.41
328.518	58.03
328.731	82.6
328.944	111.27
329.157	29.35
329.37	62.12
329.583	101.03
329.796	107.18
330.009	8.87
330.222	51.88
330.435	60.07
330.648	33.45
330.861	127.66
331.073	-48.47
331.286	98.99
331.499	90.79
331.712	-23.89
331.925	33.45
332.138	-36.18
332.35	23.21
332.563	51.88
332.776	86.7
332.989	-15.7
333.202	-30.04
333.414	82.6
333.627	12.97
333.84	35.5
334.053	49.83
334.265	17.07
334.478	37.55
334.691	25.26
334.903	35.5
335.116	43.69
335.329	51.88
335.541	41.64
335.754	47.79
335.966	60.07
336.179	49.83
336.392	33.45
336.604	66.22
336.817	107.18
337.029	62.12
337.242	29.35
337.454	78.51
337.667	78.51
337.88	131.75
338.092	58.03
338.305	72.36
338.517	123.56
338.729	-5.46
338.942	55.98
339.154	25.26
339.367	33.45
339.579	82.6
339.792	84.65
340.004	62.12
340.217	21.16
340.429	31.4
340.641	12.97
340.854	43.69
341.066	31.4
341.278	82.6
341.491	129.7
341.703	111.27
341.915	29.35
342.128	43.69
342.34	68.27
342.552	4.78
342.764	17.07
342.977	25.26
343.189	125.61
343.401	66.22
343.613	21.16
343.826	82.6
344.038	-11.61
344.25	-5.46
344.462	-11.61
344.674	12.97
344.886	53.93
345.099	29.35
345.311	39.59
345.523	-44.37
345.735	101.03
345.947	-1.37
346.159	2.73
346.371	-3.41
346.583	31.4
346.795	152.23
347.007	131.75
347.219	68.27
347.431	60.07
347.643	92.84
347.855	12.97
348.067	94.89
348.279	-48.47
348.491	10.92
348.703	86.7
348.915	35.5
349.127	123.56
349.339	66.22
349.551	19.11
349.763	111.27
349.975	84.65
350.187	33.45
350.399	113.32
350.61	98.99
350.822	35.5
351.034	2.73
351.246	84.65
351.458	43.69
351.669	119.46
351.881	-13.65
352.093	10.92
352.305	58.03
352.517	51.88
352.728	115.37
352.94	90.79
353.152	-13.65
353.363	35.5
353.575	33.45
353.787	33.45
353.999	125.61
354.21	33.45
354.422	53.93
354.633	115.37
354.845	2.73
355.057	53.93
355.268	66.22
355.48	62.12
355.692	33.45
355.903	76.46
356.115	12.97
356.326	-56.66
356.538	58.03
356.749	144.04
356.961	84.65
357.172	29.35
357.384	127.66
357.595	168.62
357.807	27.31
358.018	98.99
358.23	25.26
358.441	92.84
358.653	68.27
358.864	68.27
359.075	78.51
359.287	98.99
359.498	94.89
359.709	-19.8
359.921	66.22
360.132	105.13
360.344	43.69
360.555	12.97
360.766	4.78
360.977	49.83
361.189	51.88
361.4	31.4
361.611	158.38
361.823	139.94
362.034	133.8
362.245	-36.18
362.456	23.21
362.667	98.99
362.879	90.79
363.09	27.31
363.301	86.7
363.512	49.83
363.723	39.59
363.935	6.83
364.146	98.99
364.357	82.6
364.568	98.99
364.779	66.22
364.99	74.41
365.201	66.22
365.412	82.6
365.623	49.83
365.834	45.74
366.045	70.31
366.256	92.84
366.467	148.14
366.678	35.5
366.889	35.5
367.1	41.64
367.311	86.7
367.522	12.97
367.733	78.51
367.944	123.56
368.155	78.51
368.366	0.68
368.577	164.52
368.788	92.84
368.999	17.07
369.209	111.27
369.42	111.27
369.631	117.42
369.842	182.95
370.053	29.35
370.264	127.66
370.474	41.64
370.685	27.31
370.896	66.22
371.107	123.56
371.317	98.99
371.528	43.69
371.739	6.83
371.95	51.88
372.16	131.75
372.371	10.92
372.582	62.12
372.792	27.31
373.003	76.46
373.214	66.22
373.424	94.89
373.635	37.55
373.846	92.84
374.056	68.27
374.267	49.83
374.477	12.97
374.688	37.55
374.898	74.41
375.109	66.22
375.319	92.84
375.53	205.48
375.74	101.03
375.951	66.22
376.161	37.55
376.372	15.02
376.582	45.74
376.793	49.83
377.003	141.99
377.214	4.78
377.424	94.89
377.635	94.89
377.845	8.87
378.055	101.03
378.266	41.64
378.476	135.85
378.686	123.56
378.897	64.17
379.107	47.79
379.317	90.79
379.528	33.45
379.738	109.23
379.948	45.74
380.158	135.85
380.369	49.83
380.579	37.55
380.789	150.18
380.999	68.27
381.21	103.08
381.42	238.25
381.63	-3.41
381.84	131.75
382.05	62.12
382.261	189.1
382.471	35.5
382.681	-3.41
382.891	141.99
383.101	41.64
383.311	35.5
383.521	0.68
383.731	62.12
383.941	127.66
384.151	0.68
384.361	125.61
384.571	45.74
384.781	72.36
384.991	98.99
385.201	139.94
385.411	144.04
385.621	107.18
385.831	141.99
386.041	90.79
386.251	49.83
386.461	90.79
386.671	15.02
386.881	37.55
387.091	53.93
387.301	74.41
387.511	101.03
387.72	82.6
387.93	117.42
388.14	6.83
388.35	70.31
388.56	74.41
388.769	60.07
388.979	101.03
389.189	37.55
389.399	74.41
389.609	164.52
389.818	123.56
390.028	78.51
390.238	66.22
390.447	2.73
390.657	58.03
390.867	74.41
391.076	66.22
391.286	66.22
391.496	53.93
391.705	117.42
391.915	70.31
392.125	119.46
392.334	49.83
392.544	107.18
392.753	154.28
392.963	17.07
393.172	141.99
393.382	90.79
393.591	176.81
393.801	60.07
394.01	131.75
394.22	86.7
394.429	107.18
394.639	43.69
394.848	148.14
395.058	119.46
395.267	90.79
395.477	119.46
395.686	84.65
395.895	80.55
396.105	215.72
396.314	84.65
396.524	139.94
396.733	101.03
396.942	135.85
397.152	113.32
397.361	150.18
397.57	78.51
397.78	191.14
397.989	70.31
398.198	213.67
398.407	131.75
398.617	156.33
398.826	45.74
399.035	107.18
399.244	152.23
399.453	156.33
399.663	133.8
399.872	90.79
400.081	144.04
400.29	148.14
400.499	148.14
400.708	160.42
400.917	113.32
401.127	113.32
401.336	219.82
401.545	164.52
401.754	176.81
401.963	180.9
402.172	223.91
402.381	129.7
402.59	135.85
402.799	107.18
403.008	205.48
403.217	156.33
403.426	201.38
403.635	58.03
403.844	240.3
404.053	197.29
404.262	107.18
404.471	213.67
404.68	185
404.888	215.72
405.097	117.42
405.306	156.33
405.515	211.62
405.724	197.29
405.933	189.1
406.142	207.53
406.35	291.49
406.559	262.82
406.768	197.29
406.977	283.3
407.185	234.15
407.394	238.25
407.603	234.15
407.812	367.27
408.02	320.17
408.229	295.59
408.438	273.06
408.646	352.93
408.855	338.6
409.064	414.37
409.272	344.74
409.481	443.04
409.69	377.51
409.898	402.08
410.107	475.81
410.315	402.08
410.524	354.98
410.733	484
410.941	443.04
411.15	459.43
411.358	422.56
411.567	574.11
411.775	459.43
411.984	639.65
412.192	633.51
412.401	557.73
412.609	647.84
412.818	731.81
413.026	680.61
413.234	682.66
413.443	623.27
413.651	672.42
413.86	795.29
414.068	836.25
414.276	838.3
414.485	819.87
414.693	785.05
414.901	887.45
415.11	897.69
415.318	928.41
415.526	971.42
415.734	991.9
415.943	1010.33
416.151	1065.63
416.359	1114.78
416.567	1082.01
416.776	1192.6
416.984	1280.66
417.192	1274.52
417.4	1362.58
417.608	1258.14
417.817	1286.81
418.025	1426.07
418.233	1426.07
418.441	1426.07
418.649	1495.7
418.857	1684.11
419.065	1772.18
419.273	1647.25
419.481	1739.41
419.689	1806.99
419.897	1884.81
420.105	1933.97
420.313	2042.51
420.521	2085.51
420.729	2114.19
420.937	2222.73
421.145	2237.06
421.353	2364.04
421.561	2433.67
421.769	2435.72
421.977	2642.56
422.185	2663.04
422.393	2812.54
422.601	2941.57
422.809	2806.4
423.017	3056.25
423.224	3175.03
423.432	3148.41
423.64	3164.79
423.848	3672.69
424.056	3375.74
424.263	3783.28
424.471	3615.35
424.679	3732.08
424.887	3934.83
425.094	4113
425.302	4100.72
425.51	4280.94
425.718	4418.15
425.925	4524.65
426.133	4563.56
426.341	4827.74
426.548	4973.15
426.756	5057.12
426.964	5075.55
427.171	5423.7
427.379	5753.43
427.586	5741.14
427.794	5755.47
428.001	6140.49
428.209	6238.8
428.417	6201.93
428.624	6615.62
428.832	6758.98
429.039	6533.7
429.247	6769.22
429.454	7262.78
429.662	7705.14
429.869	7238.2
430.076	7909.94
430.284	7512.63
430.491	7903.79
430.699	8366.63
430.906	8313.39
431.114	8477.23
431.321	8800.8
431.528	8874.53
431.736	9519.64
431.943	10013.2
432.15	9656.86
432.358	9804.31
432.565	10218
432.772	10037.78
432.979	10641.93
433.187	10938.88
433.394	10961.41
433.601	11782.65
433.808	11592.19
434.016	11450.88
434.223	12012.02
434.43	12823.01
434.637	12681.71
434.844	13222.37
435.052	13715.93
435.259	13541.85
435.466	13844.95
435.673	13421.02
435.88	14428.62
436.087	15083.97
436.294	14985.67
436.501	14680.52
436.708	15032.77
436.915	15698.36
437.122	16171.44
437.329	16425.39
437.537	16648.62
437.743	16945.58
437.95	16998.82
438.157	17924.51
438.364	18340.24
438.571	18459.02
438.778	18338.19
438.985	20205.94
439.192	19251.59
439.399	19816.83
439.606	19454.34
439.813	20402.55
440.02	21825.89
440.227	21045.61
440.433	21111.14
440.64	21961.05
440.847	21711.2
441.054	21999.96
441.261	23572.8
441.467	23271.75
441.674	23961.92
441.881	24580.4
442.088	24670.51
442.294	24271.16
442.501	24719.67
442.708	25545
442.914	26456.34
443.121	27175.18
443.328	27037.97
443.534	28637.43
443.741	27750.66
443.948	27281.67
444.154	29841.64
444.361	29128.94
444.568	29241.58
444.774	29479.14
444.981	29841.64
445.187	30648.53
445.394	31797.45
445.6	31301.84
445.807	34461.85
446.013	32852.15
446.22	33573.03
446.426	35111.06
446.633	35436.69
446.839	36536.45
447.046	34834.58
447.252	36491.39
447.459	36690.04
447.665	36644.99
447.871	38357.09
448.078	39802.96
448.284	37834.86
448.491	38975.58
448.697	40425.54
448.903	41451.57
449.11	41504.82
449.316	40591.42
449.522	41168.95
449.728	42739.74
449.935	42952.73
450.141	42676.26
450.347	43892.75
450.553	42391.59
450.76	42946.59
450.966	44177.42
451.172	43763.73
451.378	44517.38
451.584	44017.68
451.791	45117.43
451.997	45309.94
452.203	46010.35
452.409	45463.54
452.615	45574.13
452.821	43819.02
453.027	43511.83
453.233	45496.31
453.44	43808.78
453.646	44331.01
453.852	44382.21
454.058	45393.91
454.264	43501.59
454.47	44478.47
454.676	43792.4
454.882	45078.52
455.088	41553.97
455.294	41891.88
455.5	42493.99
455.705	42979.35
455.911	41140.28
456.117	40648.77
456.323	40269.89
456.529	38002.79
456.735	39938.12
456.941	38285.41
457.147	38443.1
457.352	36952.18
457.558	36491.39
457.764	36790.39
457.97	35913.86
458.176	34859.16
458.381	34756.76
458.587	33718.44
458.793	33329.33
458.999	31785.16
459.204	33749.16
459.41	33114.29
459.616	30531.8
459.821	30875.86
460.027	30947.54
460.233	29931.75
460.438	28432.63
460.644	28872.95
460.85	27928.83
461.055	27099.41
461.261	27220.24
461.466	25100.59
461.672	23990.59
461.878	25989.41
462.083	24146.23
462.289	24078.65
462.494	23503.17
462.7	22602.07
462.905	21965.15
463.111	22456.66
463.316	22616.4
463.522	22339.93
463.727	22026.59
463.932	21938.52
464.138	21481.83
464.343	21891.42
464.549	21377.38
464.754	21971.29
464.959	21633.38
465.165	21037.42
465.37	20324.72
465.575	19947.9
465.781	20916.59
465.986	20758.89
466.191	20191.61
466.397	19657.09
466.602	18975.11
466.807	19618.18
