Data from USB4F104151__295__14-34-55-573.txt Node

Date: Thu Mar 13 14:34:55 EDT 2025
User: louis
Spectrometer: USB4F10415
Trigger mode: 4
Integration Time (sec): 2.500000E-2
Scans to average: 1
Electric dark correction enabled: true
Nonlinearity correction enabled: false
Boxcar width: 0
XAxis mode: Wavelengths
Number of Pixels in Spectrum: 3648
>>>>>Begin Spectral Data<<<<<
178.204	-148.65
178.424	-148.65
178.644	-148.65
178.864	-130.22
179.084	-136.36
179.304	-68.78
179.524	27.48
179.744	-44.2
179.964	54.1
180.184	-5.29
180.404	-17.58
180.624	19.29
180.844	15.19
181.064	-42.15
181.283	37.72
181.503	-27.82
181.723	52.05
181.943	-5.29
182.163	-5.29
182.383	-38.06
182.602	47.96
182.822	-33.96
183.042	35.67
183.262	19.29
183.482	-33.96
183.701	23.38
183.921	31.57
184.141	-3.24
184.361	70.48
184.58	56.15
184.8	88.92
185.02	47.96
185.239	15.19
185.459	-21.67
185.679	50
185.898	-5.29
186.118	31.57
186.338	25.43
186.557	7
186.777	-17.58
186.997	23.38
187.216	39.76
187.436	56.15
187.655	2.9
187.875	58.2
188.095	-1.19
188.314	33.62
188.534	90.96
188.753	33.62
188.973	11.09
189.192	19.29
189.412	56.15
189.631	33.62
189.851	45.91
190.07	58.2
190.29	7
190.509	-42.15
190.729	-17.58
190.948	66.39
191.168	156.5
191.387	50
191.607	-17.58
191.826	47.96
192.045	7
192.265	11.09
192.484	0.85
192.704	35.67
192.923	-7.34
193.142	39.76
193.362	-1.19
193.581	129.88
193.8	31.57
194.02	109.4
194.239	9.05
194.458	15.19
194.678	7
194.897	-19.63
195.116	58.2
195.335	-1.19
195.555	7
195.774	109.4
195.993	17.24
196.212	-38.06
196.432	-3.24
196.651	31.57
196.87	-23.72
197.089	148.31
197.308	-1.19
197.528	37.72
197.747	-19.63
197.966	47.96
198.185	11.09
198.404	-25.77
198.623	-1.19
198.842	-13.48
199.062	66.39
199.281	-17.58
199.5	58.2
199.719	-9.39
199.938	25.43
200.157	72.53
200.376	62.29
200.595	121.68
200.814	39.76
201.033	-15.53
201.252	105.3
201.471	7
201.69	82.77
201.909	-15.53
202.128	39.76
202.347	-5.29
202.566	25.43
202.785	-95.4
203.004	-17.58
203.223	101.2
203.442	47.96
203.661	76.63
203.879	9.05
204.098	97.11
204.317	-1.19
204.536	-1.19
204.755	52.05
204.974	43.86
205.193	47.96
205.411	97.11
205.63	88.92
205.849	11.09
206.068	-11.43
206.287	15.19
206.505	9.05
206.724	-23.72
206.943	29.52
207.162	27.48
207.381	43.86
207.599	-19.63
207.818	-27.82
208.037	-15.53
208.255	80.72
208.474	31.57
208.693	84.82
208.911	33.62
209.13	54.1
209.349	35.67
209.567	72.53
209.786	47.96
210.005	88.92
210.223	21.33
210.442	15.19
210.661	41.81
210.879	52.05
211.098	-25.77
211.316	-7.34
211.535	109.4
211.753	-38.06
211.972	-17.58
212.191	56.15
212.409	0.85
212.628	-7.34
212.846	-58.54
213.065	7
213.283	117.59
213.502	-21.67
213.72	39.76
213.938	47.96
214.157	0.85
214.375	-15.53
214.594	-17.58
214.812	56.15
215.031	15.19
215.249	-36.01
215.467	56.15
215.686	125.78
215.904	109.4
216.122	121.68
216.341	72.53
216.559	-9.39
216.778	64.34
216.996	33.62
217.214	35.67
217.432	-21.67
217.651	0.85
217.869	52.05
218.087	31.57
218.306	37.72
218.524	72.53
218.742	-15.53
218.96	15.19
219.179	47.96
219.397	7
219.615	101.2
219.833	-25.77
220.051	-1.19
220.27	39.76
220.488	58.2
220.706	-58.54
220.924	-19.63
221.142	15.19
221.36	17.24
221.578	123.73
221.796	-15.53
222.015	0.85
222.233	7
222.451	105.3
222.669	47.96
222.887	15.19
223.105	-15.53
223.323	60.24
223.541	-17.58
223.759	43.86
223.977	21.33
224.195	82.77
224.413	2.9
224.631	-25.77
224.849	39.76
225.067	29.52
225.285	15.19
225.503	4.95
225.721	-83.11
225.939	68.44
226.157	15.19
226.375	125.78
226.592	-42.15
226.81	23.38
227.028	35.67
227.246	31.57
227.464	27.48
227.682	56.15
227.9	64.34
228.117	39.76
228.335	-64.68
228.553	11.09
228.771	9.05
228.989	33.62
229.206	-9.39
229.424	-19.63
229.642	23.38
229.86	-58.54
230.077	43.86
230.295	47.96
230.513	107.35
230.731	74.58
230.948	68.44
231.166	33.62
231.384	27.48
231.601	11.09
231.819	113.49
232.037	39.76
232.254	-1.19
232.472	-25.77
232.689	-13.48
232.907	7
233.125	58.2
233.342	27.48
233.56	15.19
233.777	64.34
233.995	19.29
234.213	23.38
234.43	23.38
234.648	113.49
234.865	43.86
235.083	123.73
235.3	-48.3
235.518	64.34
235.735	11.09
235.953	107.35
236.17	68.44
236.388	56.15
236.605	-5.29
236.822	93.01
237.04	50
237.257	33.62
237.475	-23.72
237.692	21.33
237.909	-42.15
238.127	-13.48
238.344	-9.39
238.562	35.67
238.779	43.86
238.996	-64.68
239.214	47.96
239.431	43.86
239.648	-62.63
239.865	15.19
240.083	19.29
240.3	47.96
240.517	-13.48
240.735	74.58
240.952	72.53
241.169	76.63
241.386	41.81
241.603	-52.39
241.821	19.29
242.038	74.58
242.255	2.9
242.472	11.09
242.689	4.95
242.907	86.87
243.124	-5.29
243.341	17.24
243.558	19.29
243.775	0.85
243.992	-5.29
244.209	7
244.426	80.72
244.643	105.3
244.86	2.9
245.078	50
245.295	80.72
245.512	66.39
245.729	7
245.946	-7.34
246.163	-1.19
246.38	0.85
246.597	-29.87
246.814	27.48
247.031	-1.19
247.248	88.92
247.464	-9.39
247.681	7
247.898	82.77
248.115	27.48
248.332	19.29
248.549	113.49
248.766	97.11
248.983	80.72
249.2	88.92
249.417	7
249.633	-29.87
249.85	-5.29
250.067	-48.3
250.284	-31.91
250.501	-15.53
250.717	31.57
250.934	7
251.151	-33.96
251.368	2.9
251.585	66.39
251.801	72.53
252.018	41.81
252.235	29.52
252.451	15.19
252.668	-38.06
252.885	41.81
253.102	17.24
253.318	43.86
253.535	-19.63
253.752	-9.39
253.968	-56.49
254.185	7
254.401	4.95
254.618	17.24
254.835	7
255.051	101.2
255.268	39.76
255.484	64.34
255.701	47.96
255.917	19.29
256.134	15.19
256.351	4.95
256.567	27.48
256.784	43.86
257	-27.82
257.217	25.43
257.433	41.81
257.65	47.96
257.866	97.11
258.082	7
258.299	-40.11
258.515	43.86
258.732	52.05
258.948	43.86
259.165	23.38
259.381	15.19
259.597	50
259.814	37.72
260.03	13.14
260.246	66.39
260.463	11.09
260.679	52.05
260.895	31.57
261.112	-17.58
261.328	66.39
261.544	-1.19
261.761	64.34
261.977	-9.39
262.193	-38.06
262.409	35.67
262.626	23.38
262.842	50
263.058	11.09
263.274	52.05
263.49	-9.39
263.707	66.39
263.923	64.34
264.139	50
264.355	23.38
264.571	82.77
264.787	23.38
265.004	-9.39
265.22	68.44
265.436	2.9
265.652	29.52
265.868	64.34
266.084	-9.39
266.3	-31.91
266.516	-40.11
266.732	-23.72
266.948	68.44
267.164	-11.43
267.38	27.48
267.596	43.86
267.812	90.96
268.028	72.53
268.244	0.85
268.46	15.19
268.676	19.29
268.892	39.76
269.108	23.38
269.324	19.29
269.54	-66.73
269.756	58.2
269.972	-5.29
270.188	-15.53
270.403	41.81
270.619	50
270.835	50
271.051	47.96
271.267	11.09
271.483	9.05
271.698	68.44
271.914	105.3
272.13	-7.34
272.346	-21.67
272.562	39.76
272.777	70.48
272.993	-66.73
273.209	19.29
273.425	2.9
273.64	-38.06
273.856	50
274.072	9.05
274.287	54.1
274.503	146.26
274.719	41.81
274.934	17.24
275.15	-74.92
275.366	31.57
275.581	15.19
275.797	58.2
276.012	19.29
276.228	15.19
276.444	17.24
276.659	31.57
276.875	-9.39
277.09	15.19
277.306	43.86
277.521	66.39
277.737	27.48
277.952	15.19
278.168	27.48
278.383	23.38
278.599	43.86
278.814	56.15
279.03	11.09
279.245	15.19
279.461	-23.72
279.676	93.01
279.892	-7.34
280.107	11.09
280.322	-81.07
280.538	33.62
280.753	15.19
280.969	43.86
281.184	52.05
281.399	78.68
281.615	95.06
281.83	2.9
282.045	-48.3
282.26	-40.11
282.476	50
282.691	84.82
282.906	2.9
283.122	-40.11
283.337	-68.78
283.552	23.38
283.767	19.29
283.983	64.34
284.198	60.24
284.413	56.15
284.628	-31.91
284.843	15.19
285.058	47.96
285.274	-25.77
285.489	15.19
285.704	39.76
285.919	-42.15
286.134	43.86
286.349	41.81
286.564	7
286.779	52.05
286.995	64.34
287.21	-42.15
287.425	47.96
287.64	0.85
287.855	60.24
288.07	7
288.285	80.72
288.5	76.63
288.715	25.43
288.93	-17.58
289.145	9.05
289.36	-17.58
289.575	17.24
289.79	45.91
290.004	52.05
290.219	60.24
290.434	60.24
290.649	31.57
290.864	41.81
291.079	52.05
291.294	15.19
291.509	19.29
291.724	-1.19
291.938	-29.87
292.153	72.53
292.368	64.34
292.583	50
292.798	88.92
293.012	64.34
293.227	37.72
293.442	-3.24
293.657	47.96
293.871	41.81
294.086	-23.72
294.301	101.2
294.516	97.11
294.73	68.44
294.945	43.86
295.16	-25.77
295.374	47.96
295.589	105.3
295.804	54.1
296.018	39.76
296.233	62.29
296.447	72.53
296.662	41.81
296.877	-15.53
297.091	-17.58
297.306	7
297.52	33.62
297.735	31.57
297.949	72.53
298.164	41.81
298.378	58.2
298.593	-9.39
298.807	25.43
299.022	52.05
299.236	15.19
299.451	-21.67
299.665	9.05
299.88	23.38
300.094	45.91
300.309	-58.54
300.523	15.19
300.737	21.33
300.952	101.2
301.166	70.48
301.381	15.19
301.595	64.34
301.809	64.34
302.024	80.72
302.238	-9.39
302.452	64.34
302.667	-42.15
302.881	82.77
303.095	39.76
303.309	60.24
303.524	15.19
303.738	25.43
303.952	-21.67
304.166	50
304.381	-1.19
304.595	19.29
304.809	37.72
305.023	56.15
305.237	56.15
305.452	-21.67
305.666	-9.39
305.88	95.06
306.094	11.09
306.308	23.38
306.522	60.24
306.736	15.19
306.95	80.72
307.164	47.96
307.379	-5.29
307.593	31.57
307.807	27.48
308.021	109.4
308.235	-5.29
308.449	-1.19
308.663	41.81
308.877	64.34
309.091	43.86
309.305	60.24
309.519	-15.53
309.733	93.01
309.947	-46.25
310.161	43.86
310.374	52.05
310.588	113.49
310.802	-13.48
311.016	64.34
311.23	90.96
311.444	33.62
311.658	45.91
311.872	74.58
312.085	64.34
312.299	111.44
312.513	-7.34
312.727	60.24
312.941	50
313.154	27.48
313.368	-13.48
313.582	170.83
313.796	90.96
314.009	31.57
314.223	111.44
314.437	54.1
314.651	101.2
314.864	23.38
315.078	60.24
315.292	47.96
315.505	-13.48
315.719	35.67
315.933	93.01
316.146	-42.15
316.36	-15.53
316.573	185.17
316.787	-9.39
317.001	17.24
317.214	7
317.428	60.24
317.641	0.85
317.855	80.72
318.068	125.78
318.282	2.9
318.495	43.86
318.709	27.48
318.922	27.48
319.136	82.77
319.349	109.4
319.563	41.81
319.776	27.48
319.99	-21.67
320.203	15.19
320.417	-1.19
320.63	50
320.843	93.01
321.057	115.54
321.27	15.19
321.483	29.52
321.697	80.72
321.91	31.57
322.124	62.29
322.337	-15.53
322.55	82.77
322.763	-33.96
322.977	-11.43
323.19	39.76
323.403	39.76
323.617	47.96
323.83	64.34
324.043	41.81
324.256	-17.58
324.469	-3.24
324.683	66.39
324.896	56.15
325.109	23.38
325.322	33.62
325.535	17.24
325.748	60.24
325.962	37.72
326.175	64.34
326.388	82.77
326.601	74.58
326.814	47.96
327.027	76.63
327.24	105.3
327.453	7
327.666	-31.91
327.879	72.53
328.092	105.3
328.305	-33.96
328.518	72.53
328.731	-31.91
328.944	-17.58
329.157	19.29
329.37	50
329.583	107.35
329.796	88.92
330.009	-23.72
330.222	52.05
330.435	66.39
330.648	39.76
330.861	70.48
331.073	54.1
331.286	37.72
331.499	45.91
331.712	72.53
331.925	54.1
332.138	-1.19
332.35	121.68
332.563	-9.39
332.776	23.38
332.989	-5.29
333.202	-15.53
333.414	86.87
333.627	56.15
333.84	27.48
334.053	99.16
334.265	-64.68
334.478	15.19
334.691	-1.19
334.903	121.68
335.116	-9.39
335.329	-42.15
335.541	80.72
335.754	56.15
335.966	-87.21
336.179	-15.53
336.392	41.81
336.604	58.2
336.817	68.44
337.029	72.53
337.242	25.43
337.454	17.24
337.667	-25.77
337.88	105.3
338.092	115.54
338.305	64.34
338.517	41.81
338.729	39.76
338.942	121.68
339.154	88.92
339.367	-50.35
339.579	72.53
339.792	7
340.004	52.05
340.217	29.52
340.429	41.81
340.641	80.72
340.854	2.9
341.066	76.63
341.278	56.15
341.491	123.73
341.703	109.4
341.915	-42.15
342.128	88.92
342.34	-46.25
342.552	-15.53
342.764	19.29
342.977	23.38
343.189	58.2
343.401	105.3
343.613	58.2
343.826	27.48
344.038	29.52
344.25	19.29
344.462	7
344.674	-25.77
344.886	13.14
345.099	-7.34
345.311	-5.29
345.523	27.48
345.735	39.76
345.947	7
346.159	72.53
346.371	-7.34
346.583	9.05
346.795	66.39
347.007	64.34
347.219	74.58
347.431	74.58
347.643	125.78
347.855	-1.19
348.067	64.34
348.279	76.63
348.491	23.38
348.703	39.76
348.915	27.48
349.127	-7.34
349.339	113.49
349.551	9.05
349.763	117.59
349.975	52.05
350.187	99.16
350.399	64.34
350.61	33.62
350.822	50
351.034	43.86
351.246	56.15
351.458	111.44
351.669	50
351.881	97.11
352.093	107.35
352.305	68.44
352.517	76.63
352.728	117.59
352.94	97.11
353.152	84.82
353.363	25.43
353.575	58.2
353.787	74.58
353.999	27.48
354.21	33.62
354.422	66.39
354.633	70.48
354.845	66.39
355.057	-7.34
355.268	84.82
355.48	97.11
355.692	-54.44
355.903	80.72
356.115	0.85
356.326	-21.67
356.538	43.86
356.749	17.24
356.961	56.15
357.172	35.67
357.384	31.57
357.595	174.93
357.807	80.72
358.018	-5.29
358.23	-1.19
358.441	62.29
358.653	121.68
358.864	107.35
359.075	33.62
359.287	99.16
359.498	80.72
359.709	39.76
359.921	113.49
360.132	64.34
360.344	17.24
360.555	-17.58
360.766	86.87
360.977	-7.34
361.189	80.72
361.4	140.12
361.611	-1.19
361.823	66.39
362.034	93.01
362.245	-19.63
362.456	27.48
362.667	23.38
362.879	31.57
363.09	-1.19
363.301	7
363.512	47.96
363.723	58.2
363.935	52.05
364.146	97.11
364.357	58.2
364.568	101.2
364.779	27.48
364.99	13.14
365.201	31.57
365.412	107.35
365.623	-31.91
365.834	58.2
366.045	84.82
366.256	68.44
366.467	0.85
366.678	101.2
366.889	-5.29
367.1	82.77
367.311	113.49
367.522	31.57
367.733	93.01
367.944	-25.77
368.155	50
368.366	-1.19
368.577	58.2
368.788	43.86
368.999	15.19
369.209	82.77
369.42	146.26
369.631	43.86
369.842	68.44
370.053	31.57
370.264	90.96
370.474	-7.34
370.685	99.16
370.896	113.49
371.107	60.24
371.317	60.24
371.528	37.72
371.739	31.57
371.95	72.53
372.16	60.24
372.371	27.48
372.582	-29.87
372.792	41.81
373.003	56.15
373.214	47.96
373.424	95.06
373.635	47.96
373.846	47.96
374.056	90.96
374.267	47.96
374.477	76.63
374.688	-9.39
374.898	39.76
375.109	41.81
375.319	56.15
375.53	88.92
375.74	86.87
375.951	39.76
376.161	117.59
376.372	72.53
376.582	82.77
376.793	39.76
377.003	90.96
377.214	47.96
377.424	-5.29
377.635	-5.29
377.845	52.05
378.055	66.39
378.266	9.05
378.476	41.81
378.686	15.19
378.897	15.19
379.107	2.9
379.317	107.35
379.528	-9.39
379.738	93.01
379.948	35.67
380.158	86.87
380.369	82.77
380.579	52.05
380.789	82.77
380.999	105.3
381.21	39.76
381.42	80.72
381.63	27.48
381.84	68.44
382.05	101.2
382.261	39.76
382.471	133.97
382.681	45.91
382.891	115.54
383.101	66.39
383.311	33.62
383.521	21.33
383.731	115.54
383.941	31.57
384.151	45.91
384.361	39.76
384.571	93.01
384.781	119.64
384.991	129.88
385.201	74.58
385.411	31.57
385.621	88.92
385.831	-29.87
386.041	74.58
386.251	78.68
386.461	129.88
386.671	-23.72
386.881	88.92
387.091	64.34
387.301	47.96
387.511	66.39
387.72	80.72
387.93	17.24
388.14	-9.39
388.35	105.3
388.56	-33.96
388.769	162.64
388.979	74.58
389.189	64.34
389.399	64.34
389.609	82.77
389.818	90.96
390.028	125.78
390.238	154.45
390.447	35.67
390.657	133.97
390.867	-23.72
391.076	70.48
391.286	86.87
391.496	88.92
391.705	52.05
391.915	133.97
392.125	154.45
392.334	43.86
392.544	125.78
392.753	68.44
392.963	-3.24
393.172	54.1
393.382	35.67
393.591	125.78
393.801	41.81
394.01	154.45
394.22	88.92
394.429	17.24
394.639	72.53
394.848	88.92
395.058	88.92
395.267	115.54
395.477	43.86
395.686	82.77
395.895	80.72
396.105	236.37
396.314	183.12
396.524	138.07
396.733	58.2
396.942	131.92
397.152	129.88
397.361	99.16
397.57	121.68
397.78	105.3
397.989	162.64
398.198	203.6
398.407	68.44
398.617	99.16
398.826	127.83
399.035	146.26
399.244	189.27
399.453	148.31
399.663	133.97
399.872	154.45
400.081	121.68
400.29	162.64
400.499	101.2
400.708	154.45
400.917	78.68
401.127	146.26
401.336	138.07
401.545	207.7
401.754	201.55
401.963	158.55
402.172	123.73
402.381	113.49
402.59	138.07
402.799	158.55
403.008	174.93
403.217	170.83
403.426	195.41
403.635	179.03
403.844	76.63
404.053	203.6
404.262	150.36
404.471	244.56
404.68	199.51
404.888	101.2
405.097	246.61
405.306	219.99
405.515	179.03
405.724	187.22
405.933	289.62
406.142	244.56
406.35	269.14
406.559	222.03
406.768	205.65
406.977	258.9
407.185	267.09
407.394	236.37
407.603	195.41
407.812	279.38
408.02	293.71
408.229	299.86
408.438	310.1
408.646	314.19
408.855	301.9
409.064	342.86
409.272	379.73
409.481	320.34
409.69	318.29
409.898	342.86
410.107	404.3
410.315	361.3
410.524	342.86
410.733	408.4
410.941	498.51
411.15	523.09
411.358	500.56
411.567	574.28
411.775	465.74
411.984	533.33
412.192	619.34
412.401	580.43
412.609	693.07
412.818	615.24
413.026	746.31
413.234	641.87
413.443	645.96
413.651	744.27
413.86	815.94
414.068	957.25
414.276	854.86
414.485	744.27
414.693	875.34
414.901	932.68
415.11	795.47
415.318	920.39
415.526	998.21
415.734	1022.79
415.943	1082.18
416.151	1114.95
416.359	1123.14
416.567	1098.56
416.776	1203.01
416.984	1196.87
417.192	1274.69
417.4	1254.21
417.608	1358.66
417.817	1448.77
418.025	1422.14
418.233	1493.82
418.441	1528.64
418.649	1450.82
418.857	1817.4
419.065	1813.31
419.273	1708.86
419.481	1811.26
419.689	1887.03
419.897	2048.82
420.105	2009.91
420.313	2116.41
420.521	2100.02
420.729	2188.08
420.937	2308.91
421.145	2188.08
421.353	2460.46
421.561	2710.32
421.769	2603.82
421.977	2710.32
422.185	2749.23
422.393	2857.77
422.601	3013.42
422.809	3015.46
423.017	2943.78
423.224	3226.4
423.432	3226.4
423.64	3498.78
423.848	3638.05
424.056	3586.85
424.263	3865.37
424.471	3769.12
424.679	3937.05
424.887	3994.39
425.094	4209.43
425.302	4283.16
425.51	4283.16
425.718	4537.1
425.925	4557.58
426.133	4659.98
426.341	5042.95
426.548	5184.26
426.756	5104.39
426.964	5372.68
427.171	5552.9
427.379	5708.54
427.586	5804.8
427.794	5939.96
428.001	6177.53
428.209	6576.88
428.417	6466.29
428.624	6898.41
428.832	6859.5
429.039	6826.73
429.247	6906.6
429.454	7414.5
429.662	7887.58
429.869	7445.22
430.076	7860.96
430.284	7830.24
430.491	8100.57
430.699	8592.08
430.906	8665.81
431.114	8682.19
431.321	8995.53
431.528	9208.52
431.736	9777.86
431.943	10111.68
432.15	9945.79
432.358	9943.74
432.565	10511.03
432.772	10617.52
432.979	10883.76
433.187	11205.29
433.394	11211.43
433.601	12079.77
433.808	12266.14
434.016	11803.3
434.223	12550.81
434.43	13410.95
434.637	12913.3
434.844	13843.07
435.052	14180.99
435.259	13879.94
435.466	13904.51
435.673	13949.57
435.88	14629.49
436.087	15612.52
436.294	15551.08
436.501	15293.04
436.708	15325.8
436.915	16054.88
437.122	16585.3
437.329	16767.57
437.537	17244.75
437.743	17607.24
437.95	17234.51
438.157	18209.34
438.364	18813.49
438.571	18991.67
438.778	19132.98
438.985	20515.36
439.192	20013.6
439.399	20486.68
439.606	20199.97
439.813	21334.54
440.02	22626.81
440.227	21977.61
440.433	21748.23
440.64	22460.93
440.847	22344.19
441.054	22895.1
441.261	24367.59
441.467	24056.29
441.674	24599.01
441.881	25469.39
442.088	25459.15
442.294	25289.17
442.501	25729.48
442.708	26071.5
442.914	27251.13
443.121	28850.59
443.328	27584.94
443.534	29608.34
443.741	28936.6
443.948	28246.44
444.154	30421.38
444.361	29923.72
444.568	30427.53
444.774	30751.1
444.981	30861.69
445.187	31558
445.394	32868.7
445.6	32758.11
445.807	35651.89
446.013	33864.02
446.22	34775.36
446.426	36256.04
446.633	36466.98
446.839	37615.9
447.046	36454.7
447.252	38293.77
447.459	38181.13
447.665	38234.38
447.871	39667.96
448.078	41298.14
448.284	39237.89
448.491	40587.5
448.697	41699.55
448.903	42760.39
449.11	42801.35
449.316	42096.85
449.522	43036.87
449.728	43927.74
449.935	44155.06
450.141	43942.07
450.347	45068.45
450.553	43808.95
450.76	44333.23
450.966	45607.07
451.172	45371.55
451.378	46614.67
451.584	45404.32
451.791	46493.84
451.997	46649.49
452.203	47255.68
452.409	47005.83
452.615	47190.15
452.821	45150.37
453.027	44368.05
453.233	47403.14
453.44	45150.37
453.646	45467.81
453.852	45803.67
454.058	46487.7
454.264	45148.32
454.47	45922.46
454.676	45265.06
454.882	46227.6
455.088	42526.92
455.294	43040.96
455.5	44155.06
455.705	44040.37
455.911	42442.96
456.117	41677.02
456.323	40837.35
456.529	39047.43
456.735	40632.55
456.941	39792.89
457.147	38875.4
457.352	37533.98
457.558	37585.18
457.764	37957.91
457.97	36679.97
458.176	35828.02
458.381	35850.55
458.587	34169.16
458.793	34015.57
458.999	32420.2
459.204	34693.44
459.41	34134.35
459.616	31582.58
459.821	31822.19
460.027	31449.46
460.233	31074.68
460.438	29325.72
460.644	29667.73
460.85	28205.48
461.055	27703.73
461.261	27937.2
461.466	25596.37
461.672	24906.2
461.878	26409.41
462.083	24863.19
462.289	24484.32
462.494	24197.6
462.7	23093.75
462.905	22673.92
463.111	23128.56
463.316	23046.65
463.522	23101.94
463.727	22802.94
463.932	22637.05
464.138	22290.95
464.343	22546.94
464.549	21950.98
464.754	22659.58
464.959	22483.45
465.165	22243.84
465.37	21035.54
465.575	20738.58
465.781	21608.97
465.986	21594.64
466.191	20806.17
466.397	20341.28
466.602	19370.54
466.807	20304.42
467.012	20056.61
467.218	20146.72
467.423	19604.01
467.628	19943.97
467.833	20593.18
468.038	19913.25
