Data from USB4F104151__275__14-34-41-726.txt Node

Date: Thu Mar 13 14:34:41 EDT 2025
User: louis
Spectrometer: USB4F10415
Trigger mode: 4
Integration Time (sec): 2.500000E-2
Scans to average: 1
Electric dark correction enabled: true
Nonlinearity correction enabled: false
Boxcar width: 0
XAxis mode: Wavelengths
Number of Pixels in Spectrum: 3648
>>>>>Begin Spectral Data<<<<<
178.204	-102.4
178.424	-102.4
178.644	-102.4
178.864	-129.02
179.084	-137.21
179.304	16.38
179.524	16.38
179.744	6.14
179.964	104.45
180.184	10.24
180.404	-4.1
180.624	-73.73
180.844	-22.53
181.064	-24.58
181.283	2.05
181.503	-16.38
181.723	-14.34
181.943	-2.05
182.163	75.77
182.383	-36.86
182.602	-40.96
182.822	69.63
183.042	32.77
183.262	-51.2
183.482	59.39
183.701	6.14
183.921	8.19
184.141	8.19
184.361	51.2
184.58	-30.72
184.8	26.62
185.02	10.24
185.239	98.3
185.459	18.43
185.679	-16.38
185.898	-32.77
186.118	77.82
186.338	49.15
186.557	86.01
186.777	-12.29
186.997	32.77
187.216	34.82
187.436	61.44
187.655	26.62
187.875	45.06
188.095	57.34
188.314	-10.24
188.534	43.01
188.753	8.19
188.973	12.29
189.192	92.16
189.412	-4.1
189.631	8.19
189.851	32.77
190.07	98.3
190.29	24.58
190.509	2.05
190.729	8.19
190.948	120.83
191.168	182.27
191.387	-16.38
191.607	59.39
191.826	49.15
192.045	36.86
192.265	16.38
192.484	24.58
192.704	32.77
192.923	104.45
193.142	139.26
193.362	34.82
193.581	67.58
193.8	8.19
194.02	131.07
194.239	0
194.458	40.96
194.678	-49.15
194.897	24.58
195.116	-10.24
195.335	-30.72
195.555	61.44
195.774	86.01
195.993	51.2
196.212	-38.91
196.432	-16.38
196.651	-30.72
196.87	57.34
197.089	163.84
197.308	100.35
197.528	81.92
197.747	75.77
197.966	45.06
198.185	57.34
198.404	20.48
198.623	57.34
198.842	86.01
199.062	20.48
199.281	67.58
199.5	24.58
199.719	10.24
199.938	57.34
200.157	4.1
200.376	26.62
200.595	24.58
200.814	90.11
201.033	12.29
201.252	71.68
201.471	51.2
201.69	65.53
201.909	8.19
202.128	8.19
202.347	57.34
202.566	-6.14
202.785	20.48
203.004	32.77
203.223	106.49
203.442	34.82
203.661	51.2
203.879	28.67
204.098	69.63
204.317	-55.3
204.536	98.3
204.755	32.77
204.974	57.34
205.193	14.34
205.411	124.93
205.63	49.15
205.849	-6.14
206.068	-32.77
206.287	16.38
206.505	49.15
206.724	49.15
206.943	8.19
207.162	-32.77
207.381	47.1
207.599	4.1
207.818	55.3
208.037	-38.91
208.255	40.96
208.474	10.24
208.693	24.58
208.911	0
209.13	45.06
209.349	65.53
209.567	-12.29
209.786	49.15
210.005	102.4
210.223	43.01
210.442	28.67
210.661	59.39
210.879	10.24
211.098	-6.14
211.316	-16.38
211.535	83.97
211.753	34.82
211.972	65.53
212.191	20.48
212.409	8.19
212.628	81.92
212.846	0
213.065	14.34
213.283	57.34
213.502	8.19
213.72	77.82
213.938	90.11
214.157	12.29
214.375	98.3
214.594	51.2
214.812	32.77
215.031	81.92
215.249	-57.34
215.467	36.86
215.686	18.43
215.904	118.78
216.122	18.43
216.341	67.58
216.559	61.44
216.778	65.53
216.996	135.17
217.214	18.43
217.432	-28.67
217.651	-20.48
217.869	45.06
218.087	47.1
218.306	-6.14
218.524	32.77
218.742	16.38
218.96	34.82
219.179	-6.14
219.397	36.86
219.615	75.77
219.833	75.77
220.051	40.96
220.27	131.07
220.488	45.06
220.706	131.07
220.924	-53.25
221.142	12.29
221.36	51.2
221.578	114.69
221.796	61.44
222.015	-59.39
222.233	12.29
222.451	98.3
222.669	0
222.887	65.53
223.105	53.25
223.323	81.92
223.541	24.58
223.759	90.11
223.977	26.62
224.195	110.59
224.413	92.16
224.631	10.24
224.849	55.3
225.067	36.86
225.285	57.34
225.503	12.29
225.721	59.39
225.939	106.49
226.157	92.16
226.375	188.41
226.592	4.1
226.81	-32.77
227.028	28.67
227.246	122.88
227.464	-8.19
227.682	38.91
227.9	100.35
228.117	57.34
228.335	67.58
228.553	-49.15
228.771	-20.48
228.989	90.11
229.206	26.62
229.424	12.29
229.642	24.58
229.86	-4.1
230.077	-30.72
230.295	75.77
230.513	57.34
230.731	36.86
230.948	32.77
231.166	71.68
231.384	86.01
231.601	-6.14
231.819	75.77
232.037	-65.54
232.254	36.86
232.472	40.96
232.689	28.67
232.907	59.39
233.125	-36.86
233.342	-24.58
233.56	73.73
233.777	20.48
233.995	26.62
234.213	51.2
234.43	8.19
234.648	32.77
234.865	28.67
235.083	106.49
235.3	67.58
235.518	-32.77
235.735	57.34
235.953	73.73
236.17	30.72
236.388	2.05
236.605	8.19
236.822	16.38
237.04	106.49
237.257	57.34
237.475	10.24
237.692	43.01
237.909	26.62
238.127	-22.53
238.344	4.1
238.562	63.49
238.779	59.39
238.996	14.34
239.214	-69.63
239.431	40.96
239.648	65.53
239.865	77.82
240.083	98.3
240.3	53.25
240.517	14.34
240.735	8.19
240.952	59.39
241.169	32.77
241.386	-4.1
241.603	67.58
241.821	-4.1
242.038	53.25
242.255	16.38
242.472	43.01
242.689	0
242.907	102.4
243.124	24.58
243.341	43.01
243.558	32.77
243.775	69.63
243.992	20.48
244.209	86.01
244.426	8.19
244.643	92.16
244.86	-8.19
245.078	24.58
245.295	86.01
245.512	34.82
245.729	16.38
245.946	12.29
246.163	32.77
246.38	24.58
246.597	38.91
246.814	2.05
247.031	92.16
247.248	-28.67
247.464	67.58
247.681	75.77
247.898	49.15
248.115	-20.48
248.332	-12.29
248.549	57.34
248.766	75.77
248.983	88.06
249.2	22.53
249.417	32.77
249.633	-4.1
249.85	81.92
250.067	22.53
250.284	67.58
250.501	98.3
250.717	108.54
250.934	-16.38
251.151	67.58
251.368	59.39
251.585	51.2
251.801	-6.14
252.018	-30.72
252.235	4.1
252.451	32.77
252.668	8.19
252.885	18.43
253.102	26.62
253.318	49.15
253.535	26.62
253.752	2.05
253.968	-16.38
254.185	2.05
254.401	51.2
254.618	-16.38
254.835	0
255.051	36.86
255.268	-10.24
255.484	40.96
255.701	59.39
255.917	20.48
256.134	16.38
256.351	67.58
256.567	43.01
256.784	-8.19
257	-51.2
257.217	4.1
257.433	81.92
257.65	49.15
257.866	40.96
258.082	-36.86
258.299	-2.05
258.515	24.58
258.732	-8.19
258.948	20.48
259.165	24.58
259.381	-6.14
259.597	45.06
259.814	16.38
260.03	12.29
260.246	4.1
260.463	12.29
260.679	94.21
260.895	49.15
261.112	55.3
261.328	10.24
261.544	61.44
261.761	139.26
261.977	65.53
262.193	-51.2
262.409	34.82
262.626	-16.38
262.842	102.4
263.058	-40.96
263.274	2.05
263.49	-16.38
263.707	43.01
263.923	94.21
264.139	-77.82
264.355	22.53
264.571	69.63
264.787	63.49
265.004	40.96
265.22	-6.14
265.436	32.77
265.652	-30.72
265.868	0
266.084	0
266.3	57.34
266.516	-2.05
266.732	16.38
266.948	69.63
267.164	8.19
267.38	8.19
267.596	-28.67
267.812	0
268.028	32.77
268.244	47.1
268.46	51.2
268.676	12.29
268.892	57.34
269.108	-65.54
269.324	8.19
269.54	34.82
269.756	139.26
269.972	8.19
270.188	-36.86
270.403	-30.72
270.619	-4.1
270.835	24.58
271.051	86.01
271.267	0
271.483	20.48
271.698	59.39
271.914	34.82
272.13	-6.14
272.346	98.3
272.562	55.3
272.777	63.49
272.993	32.77
273.209	73.73
273.425	43.01
273.64	-8.19
273.856	94.21
274.072	32.77
274.287	49.15
274.503	10.24
274.719	34.82
274.934	30.72
275.15	20.48
275.366	-8.19
275.581	43.01
275.797	67.58
276.012	6.14
276.228	30.72
276.444	22.53
276.659	-6.14
276.875	-28.67
277.09	16.38
277.306	49.15
277.521	28.67
277.737	-4.1
277.952	18.43
278.168	47.1
278.383	14.34
278.599	-49.15
278.814	36.86
279.03	47.1
279.245	124.93
279.461	-4.1
279.676	16.38
279.892	47.1
280.107	-14.34
280.322	53.25
280.538	98.3
280.753	30.72
280.969	43.01
281.184	32.77
281.399	172.03
281.615	2.05
281.83	61.44
282.045	8.19
282.26	75.77
282.476	26.62
282.691	36.86
282.906	8.19
283.122	8.19
283.337	81.92
283.552	106.49
283.767	-2.05
283.983	77.82
284.198	34.82
284.413	40.96
284.628	36.86
284.843	20.48
285.058	83.97
285.274	4.1
285.489	49.15
285.704	53.25
285.919	24.58
286.134	24.58
286.349	90.11
286.564	24.58
286.779	104.45
286.995	51.2
287.21	45.06
287.425	98.3
287.64	86.01
287.855	-22.53
288.07	61.44
288.285	-16.38
288.5	110.59
288.715	65.53
288.93	-16.38
289.145	-38.91
289.36	49.15
289.575	20.48
289.79	135.17
290.004	0
290.219	49.15
290.434	-12.29
290.649	57.34
290.864	51.2
291.079	59.39
291.294	34.82
291.509	49.15
291.724	18.43
291.938	-2.05
292.153	57.34
292.368	26.62
292.583	-14.34
292.798	98.3
293.012	34.82
293.227	98.3
293.442	36.86
293.657	57.34
293.871	90.11
294.086	32.77
294.301	110.59
294.516	34.82
294.73	28.67
294.945	-28.67
295.16	49.15
295.374	51.2
295.589	49.15
295.804	-63.49
296.018	-28.67
296.233	65.53
296.447	47.1
296.662	0
296.877	18.43
297.091	32.77
297.306	12.29
297.52	61.44
297.735	12.29
297.949	40.96
298.164	38.91
298.378	28.67
298.593	81.92
298.807	83.97
299.022	-45.06
299.236	2.05
299.451	18.43
299.665	10.24
299.88	10.24
300.094	69.63
300.309	-20.48
300.523	10.24
300.737	-8.19
300.952	57.34
301.166	67.58
301.381	10.24
301.595	59.39
301.809	32.77
302.024	32.77
302.238	-20.48
302.452	10.24
302.667	-65.54
302.881	98.3
303.095	49.15
303.309	6.14
303.524	14.34
303.738	57.34
303.952	-40.96
304.166	8.19
304.381	-71.68
304.595	86.01
304.809	26.62
305.023	36.86
305.237	12.29
305.452	57.34
305.666	49.15
305.88	94.21
306.094	53.25
306.308	71.68
306.522	112.64
306.736	43.01
306.95	53.25
307.164	18.43
307.379	34.82
307.593	92.16
307.807	-6.14
308.021	43.01
308.235	-4.1
308.449	-45.06
308.663	20.48
308.877	129.02
309.091	16.38
309.305	81.92
309.519	-61.44
309.733	108.54
309.947	-45.06
310.161	94.21
310.374	-10.24
310.588	61.44
310.802	36.86
311.016	51.2
311.23	40.96
311.444	18.43
311.658	20.48
311.872	90.11
312.085	57.34
312.299	32.77
312.513	73.73
312.727	24.58
312.941	8.19
313.154	26.62
313.368	-43.01
313.582	40.96
313.796	-14.34
314.009	2.05
314.223	53.25
314.437	69.63
314.651	63.49
314.864	-67.58
315.078	24.58
315.292	65.53
315.505	-28.67
315.719	65.53
315.933	-18.43
316.146	65.53
316.36	-4.1
316.573	61.44
316.787	69.63
317.001	8.19
317.214	-20.48
317.428	75.77
317.641	4.1
317.855	2.05
318.068	4.1
318.282	12.29
318.495	51.2
318.709	73.73
318.922	40.96
319.136	49.15
319.349	77.82
319.563	55.3
319.776	57.34
319.99	-49.15
320.203	40.96
320.417	26.62
320.63	57.34
320.843	69.63
321.057	49.15
321.27	-24.58
321.483	-8.19
321.697	122.88
321.91	-20.48
322.124	24.58
322.337	16.38
322.55	36.86
322.763	49.15
322.977	18.43
323.19	-36.86
323.403	40.96
323.617	51.2
323.83	106.49
324.043	4.1
324.256	-6.14
324.469	4.1
324.683	90.11
324.896	24.58
325.109	77.82
325.322	18.43
325.535	67.58
325.748	69.63
325.962	24.58
326.175	67.58
326.388	49.15
326.601	141.31
326.814	40.96
327.027	73.73
327.24	61.44
327.453	36.86
327.666	4.1
327.879	131.07
328.092	73.73
328.305	67.58
328.518	53.25
328.731	43.01
328.944	26.62
329.157	81.92
329.37	8.19
329.583	55.3
329.796	96.25
330.009	-30.72
330.222	28.67
330.435	94.21
330.648	73.73
330.861	-47.1
331.073	-14.34
331.286	71.68
331.499	14.34
331.712	8.19
331.925	18.43
332.138	-14.34
332.35	98.3
332.563	24.58
332.776	43.01
332.989	-28.67
333.202	-88.06
333.414	36.86
333.627	4.1
333.84	73.73
334.053	55.3
334.265	24.58
334.478	2.05
334.691	24.58
334.903	67.58
335.116	18.43
335.329	32.77
335.541	38.91
335.754	-18.43
335.966	-6.14
336.179	-16.38
336.392	53.25
336.604	8.19
336.817	59.39
337.029	32.77
337.242	63.49
337.454	122.88
337.667	40.96
337.88	49.15
338.092	67.58
338.305	77.82
338.517	49.15
338.729	18.43
338.942	43.01
339.154	-8.19
339.367	-57.34
339.579	116.73
339.792	-4.1
340.004	40.96
340.217	20.48
340.429	16.38
340.641	8.19
340.854	8.19
341.066	4.1
341.278	67.58
341.491	75.77
341.703	61.44
341.915	-40.96
342.128	20.48
342.34	28.67
342.552	-2.05
342.764	65.53
342.977	0
343.189	16.38
343.401	75.77
343.613	16.38
343.826	98.3
344.038	-30.72
344.25	73.73
344.462	-24.58
344.674	49.15
344.886	22.53
345.099	18.43
345.311	16.38
345.523	40.96
345.735	-32.77
345.947	96.25
346.159	32.77
346.371	24.58
346.583	40.96
346.795	118.78
347.007	-20.48
347.219	57.34
347.431	38.91
347.643	10.24
347.855	-14.34
348.067	90.11
348.279	49.15
348.491	-34.82
348.703	135.17
348.915	40.96
349.127	-6.14
349.339	65.53
349.551	116.73
349.763	53.25
349.975	40.96
350.187	90.11
350.399	40.96
350.61	96.25
350.822	-12.29
351.034	81.92
351.246	18.43
351.458	38.91
351.669	77.82
351.881	51.2
352.093	24.58
352.305	55.3
352.517	24.58
352.728	110.59
352.94	71.68
353.152	65.53
353.363	-4.1
353.575	108.54
353.787	165.89
353.999	57.34
354.21	108.54
354.422	10.24
354.633	59.39
354.845	-32.77
355.057	88.06
355.268	59.39
355.48	-4.1
355.692	53.25
355.903	-22.53
356.115	-4.1
356.326	-32.77
356.538	53.25
356.749	114.69
356.961	40.96
357.172	8.19
357.384	-45.06
357.595	75.77
357.807	10.24
358.018	0
358.23	18.43
358.441	49.15
358.653	69.63
358.864	131.07
359.075	-26.62
359.287	67.58
359.498	49.15
359.709	126.97
359.921	49.15
360.132	-6.14
360.344	81.92
360.555	34.82
360.766	73.73
360.977	57.34
361.189	122.88
361.4	73.73
361.611	38.91
361.823	12.29
362.034	49.15
362.245	32.77
362.456	34.82
362.667	59.39
362.879	-24.58
363.09	108.54
363.301	-28.67
363.512	36.86
363.723	49.15
363.935	-14.34
364.146	81.92
364.357	20.48
364.568	122.88
364.779	73.73
364.99	24.58
365.201	34.82
365.412	94.21
365.623	51.2
365.834	69.63
366.045	67.58
366.256	102.4
366.467	22.53
366.678	4.1
366.889	59.39
367.1	43.01
367.311	51.2
367.522	49.15
367.733	28.67
367.944	67.58
368.155	92.16
368.366	55.3
368.577	43.01
368.788	100.35
368.999	36.86
369.209	-16.38
369.42	73.73
369.631	98.3
369.842	114.69
370.053	65.53
370.264	120.83
370.474	49.15
370.685	40.96
370.896	86.01
371.107	102.4
371.317	104.45
371.528	69.63
371.739	118.78
371.95	69.63
372.16	45.06
372.371	88.06
372.582	53.25
372.792	55.3
373.003	49.15
373.214	65.53
373.424	53.25
373.635	43.01
373.846	40.96
374.056	81.92
374.267	-10.24
374.477	32.77
374.688	24.58
374.898	63.49
375.109	18.43
375.319	45.06
375.53	108.54
375.74	57.34
375.951	73.73
376.161	45.06
376.372	75.77
376.582	-16.38
376.793	32.77
377.003	24.58
377.214	73.73
377.424	73.73
377.635	0
377.845	-30.72
378.055	45.06
378.266	110.59
378.476	92.16
378.686	18.43
378.897	0
379.107	110.59
379.317	53.25
379.528	-24.58
379.738	98.3
379.948	-6.14
380.158	122.88
380.369	10.24
380.579	98.3
380.789	51.2
380.999	176.13
381.21	133.12
381.42	122.88
381.63	-4.1
381.84	92.16
382.05	63.49
382.261	135.17
382.471	114.69
382.681	-16.38
382.891	73.73
383.101	18.43
383.311	12.29
383.521	47.1
383.731	40.96
383.941	92.16
384.151	59.39
384.361	49.15
384.571	71.68
384.781	94.21
384.991	133.12
385.201	73.73
385.411	2.05
385.621	92.16
385.831	83.97
386.041	57.34
386.251	57.34
386.461	108.54
386.671	75.77
386.881	102.4
387.091	-8.19
387.301	86.01
387.511	-40.96
387.72	32.77
387.93	71.68
388.14	-38.91
388.35	104.45
388.56	151.55
388.769	-6.14
388.979	61.44
389.189	110.59
389.399	-16.38
389.609	165.89
389.818	24.58
390.028	24.58
390.238	75.77
390.447	-28.67
390.657	36.86
390.867	-4.1
391.076	40.96
391.286	61.44
391.496	57.34
391.705	65.53
391.915	86.01
392.125	106.49
392.334	8.19
392.544	102.4
392.753	40.96
392.963	51.2
393.172	40.96
393.382	71.68
393.591	149.5
393.801	59.39
394.01	135.17
394.22	108.54
394.429	51.2
394.639	51.2
394.848	43.01
395.058	34.82
395.267	0
395.477	100.35
395.686	94.21
395.895	141.31
396.105	174.08
396.314	16.38
396.524	83.97
396.733	90.11
396.942	165.89
397.152	73.73
397.361	147.45
397.57	57.34
397.78	122.88
397.989	155.65
398.198	188.41
398.407	75.77
398.617	67.58
398.826	34.82
399.035	65.53
399.244	98.3
399.453	0
399.663	73.73
399.872	108.54
400.081	106.49
400.29	190.46
400.499	-8.19
400.708	81.92
400.917	77.82
401.127	98.3
401.336	53.25
401.545	116.73
401.754	114.69
401.963	110.59
402.172	114.69
402.381	145.41
402.59	51.2
402.799	174.08
403.008	151.55
403.217	110.59
403.426	106.49
403.635	190.46
403.844	106.49
404.053	86.01
404.262	133.12
404.471	231.42
404.68	137.21
404.888	180.22
405.097	180.22
405.306	147.45
405.515	206.84
405.724	147.45
405.933	126.97
406.142	163.84
406.35	174.08
406.559	204.8
406.768	159.74
406.977	235.52
407.185	241.66
407.394	190.46
407.603	182.27
407.812	258.04
408.02	249.85
408.229	288.76
408.438	194.56
408.646	245.76
408.855	157.69
409.064	313.34
409.272	229.37
409.481	296.96
409.69	268.28
409.898	264.19
410.107	303.1
410.315	321.53
410.524	256
410.733	348.15
410.941	393.21
411.15	348.15
411.358	327.67
411.567	466.94
411.775	423.93
411.984	352.25
412.192	405.5
412.401	495.61
412.609	454.65
412.818	548.86
413.026	446.46
413.234	518.14
413.443	563.19
413.651	575.48
413.86	511.99
414.068	647.16
414.276	712.69
414.485	614.39
414.693	673.78
414.901	767.99
415.11	778.23
415.318	753.65
415.526	753.65
415.734	786.42
415.943	827.38
416.151	827.38
416.359	872.43
416.567	1001.46
416.776	868.34
416.984	976.88
417.192	960.5
417.4	968.69
417.608	1030.13
417.817	1056.75
418.025	1153.01
418.233	1173.49
418.441	1183.73
418.649	1130.48
418.857	1306.6
419.065	1314.8
419.273	1273.84
419.481	1351.66
419.689	1495.02
419.897	1443.82
420.105	1525.74
420.313	1556.46
420.521	1619.94
420.729	1615.85
420.937	1763.3
421.145	1814.5
421.353	1873.89
421.561	1877.99
421.769	1957.86
421.977	2041.82
422.185	2113.5
422.393	2224.09
422.601	2326.49
422.809	2269.15
423.017	2342.88
423.224	2394.08
423.432	2605.02
423.64	2408.41
423.848	2719.7
424.056	2670.55
424.263	2873.3
424.471	2914.26
424.679	3014.61
424.887	3012.56
425.094	3061.71
425.302	3301.33
425.51	3409.87
425.718	3383.24
425.925	3461.07
426.133	3573.71
426.341	3694.54
426.548	3856.33
426.756	3751.88
426.964	4063.17
427.171	4194.24
427.379	4272.06
427.586	4364.22
427.794	4534.2
428.001	4689.85
428.209	4915.12
428.417	4872.12
428.624	5218.22
428.832	5019.57
429.039	5087.15
429.247	5212.08
429.454	5638.06
429.662	5998.5
429.869	5638.06
430.076	5947.3
430.284	5787.56
430.491	5978.02
430.699	6426.53
430.906	6545.31
431.114	6465.44
431.321	6895.51
431.528	6680.47
431.736	7268.24
431.943	7487.37
432.15	7452.56
432.358	7473.04
432.565	7966.6
432.772	7866.25
432.979	8429.44
433.187	8400.77
433.394	8337.28
433.601	8873.85
433.808	9086.84
434.016	8824.7
434.223	9305.97
434.43	10026.85
434.637	9783.15
434.844	10372.96
435.052	10514.27
435.259	10588
435.466	10448.74
435.673	10334.05
435.88	10905.43
436.087	11648.85
436.294	11575.12
436.501	11409.23
436.708	11519.82
436.915	12068.68
437.122	12451.65
437.329	12416.83
437.537	12863.29
437.743	13066.04
437.95	13233.97
438.157	13516.59
438.364	13981.48
438.571	13924.14
438.778	14147.37
438.985	15283.99
439.192	14632.74
439.399	15240.98
439.606	14778.14
439.813	16154.38
440.02	16733.95
440.227	16324.36
440.433	16133.9
440.64	16727.81
440.847	16606.98
441.054	17137.4
441.261	18390.76
441.467	17759.99
441.674	18527.97
441.881	19103.45
442.088	18898.66
442.294	18781.92
442.501	19347.16
442.708	19902.16
442.914	20100.81
443.121	21171.9
443.328	20645.57
443.534	22156.97
443.741	21632.69
443.948	21081.79
444.154	22853.28
444.361	22521.51
444.568	22458.03
444.774	22634.15
444.981	23103.14
445.187	23584.41
445.394	24749.7
445.6	24067.73
445.807	26787.43
446.013	25306.75
446.22	26156.66
446.426	27164.26
446.633	27334.24
446.839	28253.78
447.046	26711.66
447.252	28386.89
447.459	28603.98
447.665	28284.5
447.871	29654.59
448.078	30711.34
448.284	29685.31
448.491	30545.45
448.697	31258.15
448.903	31792.67
449.11	32011.8
449.316	31411.74
449.522	32351.76
449.728	33066.5
449.935	32865.8
450.141	33244.68
450.347	34006.52
450.553	33125.89
450.76	33680.89
450.966	34338.29
451.172	33809.92
451.378	34737.65
451.584	34180.6
451.791	35288.55
451.997	34893.29
452.203	35524.07
452.409	35534.31
452.615	35255.78
452.821	34113.02
453.027	33517.06
453.233	35499.49
453.44	33883.64
453.646	34117.11
453.852	34502.13
454.058	35089.9
454.264	33658.37
454.47	34803.18
454.676	33889.79
454.882	34805.23
455.088	32226.84
455.294	32079.38
455.5	32591.37
455.705	33015.3
455.911	31608.35
456.117	31163.94
456.323	30740.01
456.529	29224.51
456.735	30285.36
456.941	29474.37
457.147	29052.48
457.352	28016.21
457.558	27749.98
457.764	27633.24
457.97	27555.42
458.176	26676.84
458.381	26639.98
458.587	25689.72
458.793	25206.4
458.999	24131.22
459.204	25851.51
459.41	24862.34
459.616	23627.42
459.821	23756.44
460.027	23185.05
460.233	22914.72
460.438	21581.49
460.644	21614.26
460.85	21038.78
461.055	20430.54
461.261	20453.06
461.466	18968.29
461.672	18652.9
461.878	19756.75
462.083	18423.53
462.289	18013.93
462.494	17884.91
462.7	16934.65
462.905	16662.27
463.111	17014.52
463.316	17229.56
463.522	16776.96
463.727	16768.77
463.932	16762.62
464.138	16240.39
464.343	16416.52
464.549	16017.16
464.754	16662.27
464.959	16391.94
465.165	16494.34
465.37	15589.14
465.575	15263.51
465.781	15886.09
465.986	15660.82
466.191	15441.68
466.397	14751.52
466.602	14270.25
466.807	14991.13
467.012	14657.31
467.218	14585.63
467.423	14630.69
467.628	14724.9
467.833	15105.82
468.038	14606.11
468.244	14034.73
