Data from USB4F104151__240__14-34-08-936.txt Node

Date: Thu Mar 13 14:34:08 EDT 2025
User: louis
Spectrometer: USB4F10415
Trigger mode: 4
Integration Time (sec): 2.500000E-2
Scans to average: 1
Electric dark correction enabled: true
Nonlinearity correction enabled: false
Boxcar width: 0
XAxis mode: Wavelengths
Number of Pixels in Spectrum: 3648
>>>>>Begin Spectral Data<<<<<
178.204	-106.84
178.424	-106.84
178.644	-106.84
178.864	-104.79
179.084	-90.45
179.304	-6.49
179.524	11.95
179.744	-63.83
179.964	40.62
180.184	54.95
180.404	44.71
180.624	-29.01
180.844	-20.82
181.064	-14.68
181.283	-8.53
181.503	-4.44
181.723	-4.44
181.943	-37.2
182.163	44.71
182.383	-55.64
182.602	63.15
182.822	143.02
183.042	-12.63
183.262	59.05
183.482	93.87
183.701	7.85
183.921	81.58
184.141	-78.16
184.361	147.11
184.58	-6.49
184.8	-12.63
185.02	65.19
185.239	48.81
185.459	26.28
185.679	83.63
185.898	40.62
186.118	40.62
186.338	40.62
186.557	85.67
186.777	75.43
186.997	34.47
187.216	-63.83
187.436	97.96
187.655	69.29
187.875	75.43
188.095	-39.25
188.314	28.33
188.534	50.86
188.753	32.43
188.973	32.43
189.192	48.81
189.412	75.43
189.631	57
189.851	59.05
190.07	69.29
190.29	-0.34
190.509	9.9
190.729	1.71
190.948	77.48
191.168	204.46
191.387	22.19
191.607	-6.49
191.826	-33.11
192.045	3.75
192.265	61.1
192.484	16.04
192.704	106.15
192.923	-67.92
193.142	138.92
193.362	9.9
193.581	52.91
193.8	44.71
194.02	50.86
194.239	44.71
194.458	73.39
194.678	-16.73
194.897	59.05
195.116	63.15
195.335	28.33
195.555	77.48
195.774	57
195.993	91.82
196.212	32.43
196.432	52.91
196.651	16.04
196.87	42.67
197.089	149.16
197.308	116.39
197.528	73.39
197.747	-55.64
197.966	114.34
198.185	81.58
198.404	36.52
198.623	85.67
198.842	81.58
199.062	83.63
199.281	67.24
199.5	-14.68
199.719	59.05
199.938	42.67
200.157	26.28
200.376	159.4
200.595	32.43
200.814	42.67
201.033	34.47
201.252	-45.4
201.471	52.91
201.69	171.69
201.909	32.43
202.128	-14.68
202.347	-41.3
202.566	42.67
202.785	-2.39
203.004	-57.68
203.223	40.62
203.442	32.43
203.661	89.77
203.879	13.99
204.098	24.23
204.317	5.8
204.536	69.29
204.755	24.23
204.974	36.52
205.193	73.39
205.411	89.77
205.63	108.2
205.849	-53.59
206.068	46.76
206.287	93.87
206.505	20.14
206.724	48.81
206.943	40.62
207.162	-8.53
207.381	67.24
207.599	9.9
207.818	-29.01
208.037	108.2
208.255	28.33
208.474	34.47
208.693	20.14
208.911	-12.63
209.13	118.44
209.349	100.01
209.567	52.91
209.786	97.96
210.005	44.71
210.223	11.95
210.442	-33.11
210.661	52.91
210.879	69.29
211.098	44.71
211.316	79.53
211.535	32.43
211.753	-20.82
211.972	77.48
212.191	24.23
212.409	-0.34
212.628	65.19
212.846	48.81
213.065	97.96
213.283	24.23
213.502	7.85
213.72	9.9
213.938	24.23
214.157	28.33
214.375	16.04
214.594	32.43
214.812	89.77
215.031	28.33
215.249	48.81
215.467	42.67
215.686	11.95
215.904	34.47
216.122	5.8
216.341	40.62
216.559	36.52
216.778	18.09
216.996	42.67
217.214	-31.06
217.432	52.91
217.651	18.09
217.869	-29.01
218.087	34.47
218.306	24.23
218.524	73.39
218.742	59.05
218.96	67.24
219.179	-24.92
219.397	-37.2
219.615	128.68
219.833	24.23
220.051	24.23
220.27	79.53
220.488	42.67
220.706	65.19
220.924	-20.82
221.142	34.47
221.36	40.62
221.578	97.96
221.796	34.47
222.015	48.81
222.233	32.43
222.451	52.91
222.669	-53.59
222.887	32.43
223.105	-0.34
223.323	24.23
223.541	83.63
223.759	16.04
223.977	52.91
224.195	81.58
224.413	42.67
224.631	65.19
224.849	97.96
225.067	163.5
225.285	-26.96
225.503	16.04
225.721	-16.73
225.939	-24.92
226.157	34.47
226.375	126.63
226.592	20.14
226.81	61.1
227.028	100.01
227.246	102.06
227.464	52.91
227.682	28.33
227.9	36.52
228.117	-0.34
228.335	54.95
228.553	32.43
228.771	46.76
228.989	44.71
229.206	48.81
229.424	11.95
229.642	97.96
229.86	-29.01
230.077	34.47
230.295	63.15
230.513	120.49
230.731	93.87
230.948	73.39
231.166	75.43
231.384	-14.68
231.601	54.95
231.819	5.8
232.037	-20.82
232.254	81.58
232.472	57
232.689	-33.11
232.907	65.19
233.125	89.77
233.342	26.28
233.56	16.04
233.777	-16.73
233.995	30.38
234.213	65.19
234.43	7.85
234.648	18.09
234.865	-0.34
235.083	-20.82
235.3	36.52
235.518	20.14
235.735	110.25
235.953	-2.39
236.17	-8.53
236.388	93.87
236.605	13.99
236.822	73.39
237.04	130.73
237.257	57
237.475	-67.92
237.692	20.14
237.909	32.43
238.127	40.62
238.344	59.05
238.562	73.39
238.779	-6.49
238.996	9.9
239.214	3.75
239.431	89.77
239.648	5.8
239.865	114.34
240.083	52.91
240.3	16.04
240.517	24.23
240.735	38.57
240.952	36.52
241.169	73.39
241.386	73.39
241.603	-0.34
241.821	11.95
242.038	71.34
242.255	44.71
242.472	22.19
242.689	-6.49
242.907	81.58
243.124	85.67
243.341	63.15
243.558	-2.39
243.775	34.47
243.992	-6.49
244.209	140.97
244.426	73.39
244.643	24.23
244.86	9.9
245.078	122.54
245.295	81.58
245.512	-6.49
245.729	32.43
245.946	13.99
246.163	67.24
246.38	52.91
246.597	48.81
246.814	57
247.031	114.34
247.248	22.19
247.464	52.91
247.681	3.75
247.898	7.85
248.115	20.14
248.332	-41.3
248.549	67.24
248.766	42.67
248.983	48.81
249.2	134.82
249.417	-4.44
249.633	34.47
249.85	59.05
250.067	59.05
250.284	16.04
250.501	65.19
250.717	57
250.934	-82.26
251.151	32.43
251.368	85.67
251.585	28.33
251.801	42.67
252.018	1.71
252.235	65.19
252.451	-20.82
252.668	22.19
252.885	77.48
253.102	151.21
253.318	24.23
253.535	24.23
253.752	34.47
253.968	9.9
254.185	28.33
254.401	73.39
254.618	79.53
254.835	3.75
255.051	114.34
255.268	81.58
255.484	108.2
255.701	91.82
255.917	40.62
256.134	-2.39
256.351	7.85
256.567	-14.68
256.784	48.81
257	-16.73
257.217	38.57
257.433	11.95
257.65	69.29
257.866	100.01
258.082	3.75
258.299	36.52
258.515	65.19
258.732	-8.53
258.948	16.04
259.165	-16.73
259.381	24.23
259.597	61.1
259.814	42.67
260.03	73.39
260.246	75.43
260.463	77.48
260.679	106.15
260.895	77.48
261.112	59.05
261.328	48.81
261.544	20.14
261.761	116.39
261.977	-8.53
262.193	11.95
262.409	73.39
262.626	18.09
262.842	97.96
263.058	16.04
263.274	9.9
263.49	-12.63
263.707	63.15
263.923	-6.49
264.139	-74.07
264.355	11.95
264.571	85.67
264.787	32.43
265.004	132.78
265.22	-39.25
265.436	20.14
265.652	-0.34
265.868	59.05
266.084	-45.4
266.3	50.86
266.516	-61.78
266.732	48.81
266.948	32.43
267.164	36.52
267.38	81.58
267.596	26.28
267.812	196.26
268.028	75.43
268.244	138.92
268.46	73.39
268.676	48.81
268.892	59.05
269.108	-4.44
269.324	-8.53
269.54	69.29
269.756	91.82
269.972	18.09
270.188	13.99
270.403	-49.49
270.619	32.43
270.835	81.58
271.051	-24.92
271.267	3.75
271.483	18.09
271.698	28.33
271.914	93.87
272.13	65.19
272.346	22.19
272.562	67.24
272.777	61.1
272.993	42.67
273.209	48.81
273.425	77.48
273.64	59.05
273.856	52.91
274.072	81.58
274.287	34.47
274.503	73.39
274.719	89.77
274.934	50.86
275.15	24.23
275.366	67.24
275.581	-24.92
275.797	130.73
276.012	-37.2
276.228	67.24
276.444	13.99
276.659	108.2
276.875	50.86
277.09	16.04
277.306	-8.53
277.521	81.58
277.737	1.71
277.952	48.81
278.168	69.29
278.383	-0.34
278.599	32.43
278.814	73.39
279.03	40.62
279.245	138.92
279.461	28.33
279.676	140.97
279.892	44.71
280.107	24.23
280.322	59.05
280.538	34.47
280.753	40.62
280.969	102.06
281.184	61.1
281.399	104.11
281.615	-6.49
281.83	-24.92
282.045	34.47
282.26	9.9
282.476	-0.34
282.691	91.82
282.906	-14.68
283.122	26.28
283.337	-31.06
283.552	102.06
283.767	-16.73
283.983	65.19
284.198	75.43
284.413	89.77
284.628	24.23
284.843	59.05
285.058	38.57
285.274	44.71
285.489	11.95
285.704	20.14
285.919	-0.34
286.134	75.43
286.349	3.75
286.564	67.24
286.779	143.02
286.995	1.71
287.21	28.33
287.425	18.09
287.64	48.81
287.855	-4.44
288.07	-8.53
288.285	73.39
288.5	32.43
288.715	97.96
288.93	40.62
289.145	-18.77
289.36	52.91
289.575	9.9
289.79	24.23
290.004	69.29
290.219	73.39
290.434	-22.87
290.649	-22.87
290.864	102.06
291.079	-31.06
291.294	-33.11
291.509	-0.34
291.724	18.09
291.938	5.8
292.153	24.23
292.368	67.24
292.583	69.29
292.798	1.71
293.012	36.52
293.227	36.52
293.442	24.23
293.657	87.72
293.871	97.96
294.086	85.67
294.301	91.82
294.516	114.34
294.73	44.71
294.945	-24.92
295.16	3.75
295.374	54.95
295.589	69.29
295.804	1.71
296.018	65.19
296.233	134.82
296.447	65.19
296.662	26.28
296.877	48.81
297.091	40.62
297.306	-53.59
297.52	-24.92
297.735	26.28
297.949	93.87
298.164	83.63
298.378	57
298.593	18.09
298.807	32.43
299.022	50.86
299.236	83.63
299.451	50.86
299.665	7.85
299.88	38.57
300.094	28.33
300.309	48.81
300.523	32.43
300.737	73.39
300.952	50.86
301.166	7.85
301.381	48.81
301.595	65.19
301.809	7.85
302.024	85.67
302.238	-2.39
302.452	30.38
302.667	89.77
302.881	122.54
303.095	44.71
303.309	42.67
303.524	28.33
303.738	44.71
303.952	16.04
304.166	132.78
304.381	-86.36
304.595	102.06
304.809	44.71
305.023	65.19
305.237	7.85
305.452	20.14
305.666	122.54
305.88	106.15
306.094	3.75
306.308	48.81
306.522	149.16
306.736	73.39
306.95	52.91
307.164	61.1
307.379	32.43
307.593	114.34
307.807	34.47
308.021	44.71
308.235	81.58
308.449	-16.73
308.663	-29.01
308.877	132.78
309.091	13.99
309.305	-6.49
309.519	-29.01
309.733	75.43
309.947	-57.68
310.161	81.58
310.374	50.86
310.588	97.96
310.802	48.81
311.016	32.43
311.23	20.14
311.444	50.86
311.658	1.71
311.872	-41.3
312.085	89.77
312.299	112.3
312.513	-24.92
312.727	32.43
312.941	32.43
313.154	104.11
313.368	22.19
313.582	50.86
313.796	73.39
314.009	32.43
314.223	120.49
314.437	59.05
314.651	100.01
314.864	-12.63
315.078	32.43
315.292	67.24
315.505	46.76
315.719	57
315.933	91.82
316.146	-24.92
316.36	30.38
316.573	65.19
316.787	32.43
317.001	91.82
317.214	65.19
317.428	116.39
317.641	18.09
317.855	73.39
318.068	59.05
318.282	75.43
318.495	116.39
318.709	81.58
318.922	59.05
319.136	48.81
319.349	151.21
319.563	59.05
319.776	91.82
319.99	57
320.203	40.62
320.417	42.67
320.63	75.43
320.843	118.44
321.057	20.14
321.27	16.04
321.483	59.05
321.697	120.49
321.91	57
322.124	102.06
322.337	18.09
322.55	20.14
322.763	59.05
322.977	83.63
323.19	-45.4
323.403	24.23
323.617	57
323.83	48.81
324.043	24.23
324.256	32.43
324.469	-33.11
324.683	48.81
324.896	26.28
325.109	40.62
325.322	24.23
325.535	134.82
325.748	108.2
325.962	-24.92
326.175	52.91
326.388	114.34
326.601	67.24
326.814	91.82
327.027	48.81
327.24	73.39
327.453	7.85
327.666	-33.11
327.879	28.33
328.092	116.39
328.305	61.1
328.518	44.71
328.731	1.71
328.944	-14.68
329.157	69.29
329.37	32.43
329.583	24.23
329.796	138.92
330.009	110.25
330.222	48.81
330.435	73.39
330.648	77.48
330.861	46.76
331.073	69.29
331.286	91.82
331.499	110.25
331.712	40.62
331.925	-0.34
332.138	48.81
332.35	26.28
332.563	-8.53
332.776	128.68
332.989	20.14
333.202	32.43
333.414	83.63
333.627	32.43
333.84	20.14
334.053	24.23
334.265	24.23
334.478	124.58
334.691	24.23
334.903	28.33
335.116	50.86
335.329	24.23
335.541	83.63
335.754	59.05
335.966	83.63
336.179	83.63
336.392	97.96
336.604	85.67
336.817	73.39
337.029	16.04
337.242	81.58
337.454	100.01
337.667	65.19
337.88	143.02
338.092	65.19
338.305	93.87
338.517	-90.45
338.729	126.63
338.942	93.87
339.154	52.91
339.367	30.38
339.579	40.62
339.792	-4.44
340.004	24.23
340.217	91.82
340.429	73.39
340.641	22.19
340.854	18.09
341.066	155.3
341.278	108.2
341.491	106.15
341.703	52.91
341.915	26.28
342.128	57
342.34	50.86
342.552	40.62
342.764	69.29
342.977	18.09
343.189	65.19
343.401	-2.39
343.613	-39.25
343.826	-4.44
344.038	79.53
344.25	175.78
344.462	-4.44
344.674	104.11
344.886	40.62
345.099	44.71
345.311	1.71
345.523	-65.88
345.735	24.23
345.947	9.9
346.159	91.82
346.371	83.63
346.583	54.95
346.795	114.34
347.007	85.67
347.219	61.1
347.431	69.29
347.643	171.69
347.855	-6.49
348.067	93.87
348.279	-12.63
348.491	34.47
348.703	73.39
348.915	-16.73
349.127	26.28
349.339	26.28
349.551	24.23
349.763	130.73
349.975	83.63
350.187	48.81
350.399	24.23
350.61	24.23
350.822	-29.01
351.034	36.52
351.246	122.54
351.458	40.62
351.669	89.77
351.881	40.62
352.093	97.96
352.305	67.24
352.517	44.71
352.728	136.87
352.94	13.99
353.152	100.01
353.363	-20.82
353.575	95.91
353.787	157.35
353.999	61.1
354.21	9.9
354.422	93.87
354.633	65.19
354.845	118.44
355.057	153.26
355.268	-14.68
355.48	52.91
355.692	40.62
355.903	16.04
356.115	9.9
356.326	3.75
356.538	122.54
356.749	73.39
356.961	161.45
357.172	24.23
357.384	97.96
357.595	130.73
357.807	65.19
358.018	24.23
358.23	69.29
358.441	116.39
358.653	34.47
358.864	48.81
359.075	32.43
359.287	75.43
359.498	44.71
359.709	44.71
359.921	91.82
360.132	83.63
360.344	48.81
360.555	-57.68
360.766	32.43
360.977	-14.68
361.189	116.39
361.4	-8.53
361.611	79.53
361.823	52.91
362.034	-22.87
362.245	77.48
362.456	65.19
362.667	93.87
362.879	-31.06
363.09	75.43
363.301	16.04
363.512	1.71
363.723	59.05
363.935	32.43
364.146	116.39
364.357	73.39
364.568	3.75
364.779	18.09
364.99	67.24
365.201	-18.77
365.412	93.87
365.623	-29.01
365.834	-16.73
366.045	61.1
366.256	93.87
366.467	-16.73
366.678	59.05
366.889	75.43
367.1	3.75
367.311	89.77
367.522	57
367.733	85.67
367.944	118.44
368.155	75.43
368.366	104.11
368.577	114.34
368.788	87.72
368.999	-29.01
369.209	32.43
369.42	122.54
369.631	83.63
369.842	97.96
370.053	-16.73
370.264	67.24
370.474	9.9
370.685	-16.73
370.896	38.57
371.107	79.53
371.317	40.62
371.528	28.33
371.739	73.39
371.95	52.91
372.16	61.1
372.371	1.71
372.582	11.95
372.792	89.77
373.003	9.9
373.214	24.23
373.424	87.72
373.635	-14.68
373.846	106.15
374.056	95.91
374.267	81.58
374.477	97.96
374.688	71.34
374.898	61.1
375.109	93.87
375.319	48.81
375.53	81.58
375.74	122.54
375.951	30.38
376.161	81.58
376.372	97.96
376.582	34.47
376.793	-55.64
377.003	-24.92
377.214	52.91
377.424	57
377.635	18.09
377.845	24.23
378.055	126.63
378.266	3.75
378.476	-16.73
378.686	32.43
378.897	46.76
379.107	106.15
379.317	83.63
379.528	67.24
379.738	65.19
379.948	16.04
380.158	65.19
380.369	36.52
380.579	77.48
380.789	52.91
380.999	20.14
381.21	102.06
381.42	122.54
381.63	59.05
381.84	48.81
382.05	67.24
382.261	81.58
382.471	149.16
382.681	-10.58
382.891	91.82
383.101	81.58
383.311	61.1
383.521	-20.82
383.731	26.28
383.941	157.35
384.151	44.71
384.361	77.48
384.571	93.87
384.781	36.52
384.991	126.63
385.201	106.15
385.411	97.96
385.621	16.04
385.831	52.91
386.041	91.82
386.251	57
386.461	147.11
386.671	65.19
386.881	102.06
387.091	50.86
387.301	138.92
387.511	128.68
387.72	122.54
387.93	40.62
388.14	71.34
388.35	50.86
388.56	32.43
388.769	149.16
388.979	65.19
389.189	5.8
389.399	93.87
389.609	73.39
389.818	81.58
390.028	102.06
390.238	110.25
390.447	34.47
390.657	120.49
390.867	91.82
391.076	-8.53
391.286	124.58
391.496	116.39
391.705	40.62
391.915	165.54
392.125	91.82
392.334	44.71
392.544	87.72
392.753	50.86
392.963	89.77
393.172	77.48
393.382	108.2
393.591	122.54
393.801	179.88
394.01	97.96
394.22	59.05
394.429	91.82
394.639	95.91
394.848	163.5
395.058	42.67
395.267	-8.53
395.477	77.48
395.686	91.82
395.895	188.07
396.105	93.87
396.314	138.92
396.524	83.63
396.733	89.77
396.942	81.58
397.152	89.77
397.361	161.45
397.57	118.44
397.78	122.54
397.989	163.5
398.198	173.74
398.407	104.11
398.617	108.2
398.826	65.19
399.035	102.06
399.244	128.68
399.453	143.02
399.663	126.63
399.872	106.15
400.081	77.48
400.29	143.02
400.499	30.38
400.708	116.39
400.917	112.3
401.127	108.2
401.336	65.19
401.545	155.3
401.754	222.89
401.963	81.58
402.172	108.2
402.381	59.05
402.59	179.88
402.799	138.92
403.008	157.35
403.217	181.93
403.426	83.63
403.635	57
403.844	165.54
404.053	171.69
404.262	132.78
404.471	157.35
404.68	140.97
404.888	165.54
405.097	198.31
405.306	229.03
405.515	237.22
405.724	280.23
405.933	263.85
406.142	231.08
406.35	265.89
406.559	192.17
406.768	245.41
406.977	358.05
407.185	269.99
407.394	231.08
407.603	190.12
407.812	194.22
408.02	310.95
408.229	306.85
408.438	216.74
408.646	288.42
408.855	310.95
409.064	278.18
409.272	220.84
409.481	444.07
409.69	298.66
409.898	345.77
410.107	356.01
410.315	419.49
410.524	351.91
410.733	417.44
410.941	409.25
411.15	401.06
411.358	419.49
411.567	530.08
411.775	466.6
411.984	544.42
412.192	532.13
412.401	544.42
412.609	517.79
412.818	622.24
413.026	599.71
413.234	638.62
413.443	616.1
413.651	648.86
413.86	671.39
414.068	712.35
414.276	665.25
414.485	708.26
414.693	820.89
414.901	749.22
415.11	771.74
415.318	788.13
415.526	876.19
415.734	876.19
415.943	880.29
416.151	935.58
416.359	1025.69
416.567	1027.74
416.776	984.73
416.984	1101.47
417.192	1179.29
417.4	1207.96
417.608	1132.19
417.817	1277.59
418.025	1359.51
418.233	1400.47
418.441	1369.75
418.649	1410.71
418.857	1595.03
419.065	1582.74
419.273	1494.68
419.481	1642.13
419.689	1642.13
419.897	1818.25
420.105	1937.04
420.313	1844.88
420.521	1973.9
420.729	1947.28
420.937	1955.47
421.145	2129.55
421.353	2291.34
421.561	2399.88
421.769	2264.71
421.977	2465.41
422.185	2444.93
422.393	2498.18
422.601	2571.91
422.809	2662.02
423.017	2711.17
423.224	2729.6
423.432	3038.84
423.64	2975.36
423.848	3112.57
424.056	3208.83
424.263	3268.22
424.471	3522.16
424.679	3333.75
424.887	3751.54
425.094	3720.82
425.302	3821.17
425.51	3812.98
425.718	3907.18
425.925	4091.5
426.133	4189.8
426.341	4427.37
426.548	4529.77
426.756	4664.93
426.964	4587.11
427.171	4834.91
427.379	5203.55
427.586	5326.43
427.794	5252.7
428.001	5563.99
428.209	5721.68
428.417	5586.52
428.624	6155.85
428.832	6028.88
429.039	6217.29
429.247	5979.73
429.454	6487.62
429.662	7013.95
429.869	6483.53
430.076	7016
430.284	7032.38
430.491	7241.28
430.699	7509.56
430.906	7556.66
431.114	7745.08
431.321	8035.89
431.528	8240.68
431.736	8611.37
431.943	8961.57
432.15	8642.09
432.358	8801.83
432.565	9381.4
432.772	9336.35
432.979	9762.33
433.187	9946.64
433.394	9920.02
433.601	10481.16
433.808	10673.67
434.016	10618.38
434.223	11023.87
434.43	11888.12
434.637	11501.05
434.844	12117.49
435.052	12387.82
435.259	12336.62
435.466	12393.97
435.673	12279.28
435.88	13153.76
436.087	13940.18
436.294	13735.39
436.501	13434.33
436.708	13589.98
436.915	14202.32
437.122	14802.38
437.329	14702.03
437.537	15283.65
437.743	15289.79
437.95	15314.37
438.157	16092.6
438.364	16752.04
438.571	16551.34
438.778	16899.5
438.985	18279.83
439.192	17624.48
439.399	18083.22
439.606	17798.56
439.813	18867.59
440.02	19824
440.227	19494.27
440.433	19344.77
440.64	20051.32
440.847	19760.51
441.054	20374.9
441.261	21587.3
441.467	21235.05
441.674	21661.02
441.881	22363.48
442.088	22461.78
442.294	22351.19
442.501	22533.46
442.708	23393.61
442.914	24251.7
443.121	24941.87
443.328	24456.5
443.534	26529.05
443.741	25517.35
443.948	25185.58
444.154	27280.65
444.361	26950.93
444.568	26821.91
444.774	26791.19
444.981	27147.53
445.187	28140.8
445.394	29058.29
445.6	28974.32
445.807	31575.24
446.013	30467.29
446.22	30571.74
446.426	32269.5
446.633	32699.58
446.839	33428.65
447.046	31933.64
447.252	33561.77
447.459	34018.47
447.665	33602.73
447.871	35282.06
448.078	36592.76
448.284	35036.31
448.491	35785.86
448.697	36920.44
448.903	37854.31
449.11	38251.62
449.316	37303.41
449.522	38110.31
449.728	39035.99
449.935	39527.5
450.141	39500.88
450.347	40152.13
450.553	39103.57
450.76	39375.95
450.966	40594.5
451.172	40514.62
451.378	41360.44
451.584	40715.33
451.791	41735.21
451.997	41227.32
452.203	42013.74
452.409	41946.15
452.615	41741.36
452.821	40430.66
453.027	39906.38
453.233	42105.9
453.44	40240.2
453.646	40334.4
453.852	40870.97
454.058	41479.22
454.264	40201.29
454.47	41280.56
454.676	40252.48
454.882	41274.42
455.088	38233.19
455.294	38184.04
455.5	39367.76
455.705	39404.63
455.911	37979.24
456.117	37276.79
456.323	36574.33
456.529	34825.37
456.735	36283.52
456.941	35679.37
457.147	34477.21
457.352	33647.79
457.558	33023.15
457.764	33635.5
457.97	32586.94
458.176	31890.63
458.381	31890.63
458.587	30600.41
458.793	30338.27
458.999	28880.11
459.204	30870.74
459.41	30104.8
459.616	28024.06
459.821	28144.89
460.027	27940.1
460.233	27720.96
460.438	26039.58
460.644	26176.8
460.85	25148.71
461.055	24499.51
461.261	24677.68
461.466	22836.56
461.672	22109.53
461.878	23782.72
462.083	22281.56
462.289	21532
462.494	21433.7
462.7	20260.21
462.905	19973.5
463.111	20671.86
463.316	20942.19
463.522	20217.21
463.727	20426.1
463.932	20237.69
464.138	19727.74
464.343	20032.89
464.549	19647.87
464.754	19977.59
464.959	19813.76
465.165	19668.35
465.37	18699.66
465.575	18257.3
465.781	19060.1
465.986	19019.14
466.191	18460.05
466.397	18095.51
466.602	17188.26
466.807	17864.09
