Data from USB4F104151__39__14-29-45-886.txt Node

Date: Thu Mar 13 14:29:45 EDT 2025
User: louis
Spectrometer: USB4F10415
Trigger mode: 4
Integration Time (sec): 2.500000E-2
Scans to average: 1
Electric dark correction enabled: true
Nonlinearity correction enabled: false
Boxcar width: 0
XAxis mode: Wavelengths
Number of Pixels in Spectrum: 3648
>>>>>Begin Spectral Data<<<<<
178.204	-106.32
178.424	-106.32
178.644	-106.32
178.864	-118.61
179.084	-132.95
179.304	-44.88
179.524	-16.21
179.744	-26.45
179.964	45.23
180.184	-40.79
180.404	45.23
180.624	55.47
180.844	-18.26
181.064	-24.4
181.283	-28.5
181.503	20.65
181.723	32.94
181.943	4.27
182.163	69.8
182.383	8.36
182.602	106.67
182.822	43.18
183.042	-26.45
183.262	-22.36
183.482	6.31
183.701	61.61
183.921	26.79
184.141	-36.69
184.361	14.51
184.58	67.75
184.8	22.7
185.02	10.41
185.239	121
185.459	47.27
185.679	-1.88
185.898	8.36
186.118	73.9
186.338	16.55
186.557	53.42
186.777	75.95
186.997	65.71
187.216	-8.02
187.436	147.62
187.655	16.55
187.875	69.8
188.095	75.95
188.314	37.03
188.534	57.51
188.753	20.65
188.973	-8.02
189.192	88.23
189.412	12.46
189.631	4.27
189.851	30.89
190.07	108.71
190.29	-14.17
190.509	8.36
190.729	-28.5
190.948	104.62
191.168	151.72
191.387	121
191.607	86.19
191.826	77.99
192.045	37.03
192.265	14.51
192.484	45.23
192.704	92.33
192.923	20.65
193.142	178.34
193.362	118.95
193.581	55.47
193.8	18.6
194.02	45.23
194.239	92.33
194.458	86.19
194.678	53.42
194.897	39.08
195.116	30.89
195.335	61.61
195.555	86.19
195.774	67.75
195.993	49.32
196.212	77.99
196.432	57.51
196.651	61.61
196.87	-12.12
197.089	69.8
197.308	37.03
197.528	77.99
197.747	82.09
197.966	-26.45
198.185	53.42
198.404	12.46
198.623	86.19
198.842	61.61
199.062	63.66
199.281	106.67
199.5	61.61
199.719	63.66
199.938	147.62
200.157	96.43
200.376	96.43
200.595	125.1
200.814	32.94
201.033	22.7
201.252	63.66
201.471	20.65
201.69	63.66
201.909	20.65
202.128	61.61
202.347	63.66
202.566	6.31
202.785	20.65
203.004	55.47
203.223	80.04
203.442	-3.93
203.661	-12.12
203.879	28.84
204.098	96.43
204.317	69.8
204.536	24.75
204.755	8.36
204.974	45.23
205.193	34.99
205.411	121
205.63	30.89
205.849	18.6
206.068	16.55
206.287	53.42
206.505	104.62
206.724	39.08
206.943	53.42
207.162	45.23
207.381	69.8
207.599	10.41
207.818	28.84
208.037	18.6
208.255	24.75
208.474	73.9
208.693	73.9
208.911	39.08
209.13	53.42
209.349	110.76
209.567	88.23
209.786	63.66
210.005	94.38
210.223	20.65
210.442	8.36
210.661	45.23
210.879	151.72
211.098	73.9
211.316	92.33
211.535	90.28
211.753	102.57
211.972	49.32
212.191	45.23
212.409	41.13
212.628	28.84
212.846	20.65
213.065	49.32
213.283	69.8
213.502	43.18
213.72	-34.64
213.938	104.62
214.157	24.75
214.375	65.71
214.594	37.03
214.812	37.03
215.031	-24.4
215.249	4.27
215.467	-3.93
215.686	82.09
215.904	49.32
216.122	4.27
216.341	-20.31
216.559	47.27
216.778	34.99
216.996	67.75
217.214	39.08
217.432	4.27
217.651	-3.93
217.869	4.27
218.087	-20.31
218.306	71.85
218.524	86.19
218.742	61.61
218.96	22.7
219.179	-40.79
219.397	14.51
219.615	176.3
219.833	-12.12
220.051	65.71
220.27	94.38
220.488	26.79
220.706	114.86
220.924	67.75
221.142	37.03
221.36	102.57
221.578	49.32
221.796	20.65
222.015	12.46
222.233	20.65
222.451	32.94
222.669	-32.6
222.887	112.81
223.105	37.03
223.323	94.38
223.541	82.09
223.759	100.52
223.977	37.03
224.195	63.66
224.413	45.23
224.631	96.43
224.849	4.27
225.067	121
225.285	22.7
225.503	102.57
225.721	55.47
225.939	20.65
226.157	143.53
226.375	151.72
226.592	-36.69
226.81	65.71
227.028	100.52
227.246	127.14
227.464	39.08
227.682	110.76
227.9	112.81
228.117	47.27
228.335	57.51
228.553	22.7
228.771	73.9
228.989	77.99
229.206	55.47
229.424	49.32
229.642	30.89
229.86	22.7
230.077	28.84
230.295	-1.88
230.513	110.76
230.731	86.19
230.948	104.62
231.166	2.22
231.384	20.65
231.601	61.61
231.819	96.43
232.037	-69.46
232.254	53.42
232.472	20.65
232.689	-28.5
232.907	82.09
233.125	77.99
233.342	-44.88
233.56	59.56
233.777	-16.21
233.995	4.27
234.213	8.36
234.43	112.81
234.648	88.23
234.865	-26.45
235.083	16.55
235.3	69.8
235.518	145.58
235.735	184.49
235.953	86.19
236.17	16.55
236.388	47.27
236.605	94.38
236.822	69.8
237.04	-24.4
237.257	69.8
237.475	-34.64
237.692	45.23
237.909	90.28
238.127	47.27
238.344	30.89
238.562	61.61
238.779	4.27
238.996	-34.64
239.214	20.65
239.431	14.51
239.648	82.09
239.865	96.43
240.083	8.36
240.3	32.94
240.517	55.47
240.735	80.04
240.952	112.81
241.169	139.43
241.386	77.99
241.603	-16.21
241.821	12.46
242.038	39.08
242.255	61.61
242.472	-20.31
242.689	10.41
242.907	65.71
243.124	4.27
243.341	10.41
243.558	55.47
243.775	8.36
243.992	-57.17
244.209	-36.69
244.426	133.29
244.643	82.09
244.86	-1.88
245.078	94.38
245.295	80.04
245.512	88.23
245.729	41.13
245.946	166.06
246.163	16.55
246.38	41.13
246.597	110.76
246.814	2.22
247.031	16.55
247.248	4.27
247.464	104.62
247.681	71.85
247.898	98.47
248.115	137.38
248.332	84.14
248.549	102.57
248.766	112.81
248.983	71.85
249.2	30.89
249.417	57.51
249.633	118.95
249.85	41.13
250.067	28.84
250.284	69.8
250.501	61.61
250.717	37.03
250.934	-87.89
251.151	-16.21
251.368	-18.26
251.585	90.28
251.801	151.72
252.018	53.42
252.235	45.23
252.451	69.8
252.668	-44.88
252.885	131.24
253.102	51.37
253.318	47.27
253.535	26.79
253.752	-12.12
253.968	20.65
254.185	-34.64
254.401	102.57
254.618	6.31
254.835	108.71
255.051	63.66
255.268	80.04
255.484	4.27
255.701	-14.17
255.917	28.84
256.134	-16.21
256.351	63.66
256.567	14.51
256.784	14.51
257	53.42
257.217	71.85
257.433	73.9
257.65	127.14
257.866	55.47
258.082	-36.69
258.299	49.32
258.515	39.08
258.732	-20.31
258.948	53.42
259.165	86.19
259.381	-34.64
259.597	45.23
259.814	63.66
260.03	-71.51
260.246	65.71
260.463	104.62
260.679	53.42
260.895	71.85
261.112	118.95
261.328	45.23
261.544	-30.55
261.761	118.95
261.977	55.47
262.193	59.56
262.409	77.99
262.626	43.18
262.842	102.57
263.058	-102.23
263.274	61.61
263.49	129.19
263.707	86.19
263.923	125.1
264.139	67.75
264.355	-12.12
264.571	92.33
264.787	28.84
265.004	53.42
265.22	102.57
265.436	20.65
265.652	-8.02
265.868	59.56
266.084	39.08
266.3	-8.02
266.516	121
266.732	30.89
266.948	39.08
267.164	51.37
267.38	104.62
267.596	71.85
267.812	106.67
268.028	104.62
268.244	32.94
268.46	71.85
268.676	86.19
268.892	121
269.108	-3.93
269.324	49.32
269.54	-1.88
269.756	94.38
269.972	-53.08
270.188	82.09
270.403	12.46
270.619	88.23
270.835	37.03
271.051	80.04
271.267	-10.07
271.483	47.27
271.698	69.8
271.914	55.47
272.13	88.23
272.346	16.55
272.562	22.7
272.777	135.34
272.993	14.51
273.209	8.36
273.425	139.43
273.64	-42.84
273.856	114.86
274.072	41.13
274.287	14.51
274.503	30.89
274.719	94.38
274.934	16.55
275.15	22.7
275.366	-3.93
275.581	-1.88
275.797	30.89
276.012	-8.02
276.228	63.66
276.444	94.38
276.659	118.95
276.875	24.75
277.09	28.84
277.306	98.47
277.521	24.75
277.737	28.84
277.952	30.89
278.168	127.14
278.383	51.37
278.599	37.03
278.814	102.57
279.03	20.65
279.245	96.43
279.461	45.23
279.676	-1.88
279.892	37.03
280.107	80.04
280.322	61.61
280.538	98.47
280.753	45.23
280.969	96.43
281.184	82.09
281.399	69.8
281.615	61.61
281.83	55.47
282.045	22.7
282.26	69.8
282.476	18.6
282.691	20.65
282.906	82.09
283.122	41.13
283.337	-36.69
283.552	82.09
283.767	30.89
283.983	6.31
284.198	14.51
284.413	106.67
284.628	-12.12
284.843	53.42
285.058	67.75
285.274	90.28
285.489	14.51
285.704	73.9
285.919	55.47
286.134	90.28
286.349	-12.12
286.564	47.27
286.779	123.05
286.995	14.51
287.21	-77.65
287.425	135.34
287.64	75.95
287.855	12.46
288.07	53.42
288.285	151.72
288.5	110.76
288.715	73.9
288.93	92.33
289.145	-18.26
289.36	98.47
289.575	12.46
289.79	139.43
290.004	90.28
290.219	53.42
290.434	20.65
290.649	28.84
290.864	94.38
291.079	24.75
291.294	67.75
291.509	41.13
291.724	94.38
291.938	20.65
292.153	104.62
292.368	12.46
292.583	-12.12
292.798	47.27
293.012	22.7
293.227	22.7
293.442	86.19
293.657	49.32
293.871	69.8
294.086	73.9
294.301	108.71
294.516	71.85
294.73	-20.31
294.945	69.8
295.16	28.84
295.374	71.85
295.589	63.66
295.804	55.47
296.018	16.55
296.233	98.47
296.447	34.99
296.662	92.33
296.877	77.99
297.091	59.56
297.306	55.47
297.52	10.41
297.735	69.8
297.949	82.09
298.164	104.62
298.378	12.46
298.593	-34.64
298.807	59.56
299.022	43.18
299.236	51.37
299.451	-12.12
299.665	-40.79
299.88	49.32
300.094	16.55
300.309	12.46
300.523	45.23
300.737	45.23
300.952	86.19
301.166	47.27
301.381	55.47
301.595	102.57
301.809	22.7
302.024	41.13
302.238	57.51
302.452	86.19
302.667	12.46
302.881	127.14
303.095	57.51
303.309	61.61
303.524	-16.21
303.738	82.09
303.952	28.84
304.166	110.76
304.381	39.08
304.595	102.57
304.809	135.34
305.023	73.9
305.237	55.47
305.452	77.99
305.666	110.76
305.88	39.08
306.094	88.23
306.308	20.65
306.522	71.85
306.736	88.23
306.95	69.8
307.164	92.33
307.379	45.23
307.593	37.03
307.807	39.08
308.021	73.9
308.235	20.65
308.449	45.23
308.663	37.03
308.877	131.24
309.091	63.66
309.305	118.95
309.519	63.66
309.733	104.62
309.947	47.27
310.161	80.04
310.374	61.61
310.588	-3.93
310.802	88.23
311.016	45.23
311.23	37.03
311.444	24.75
311.658	32.94
311.872	88.23
312.085	82.09
312.299	121
312.513	80.04
312.727	45.23
312.941	20.65
313.154	98.47
313.368	8.36
313.582	96.43
313.796	32.94
314.009	51.37
314.223	127.14
314.437	51.37
314.651	-12.12
314.864	30.89
315.078	28.84
315.292	57.51
315.505	57.51
315.719	86.19
315.933	61.61
316.146	80.04
316.36	20.65
316.573	96.43
316.787	55.47
317.001	34.99
317.214	47.27
317.428	-10.07
317.641	47.27
317.855	57.51
318.068	77.99
318.282	102.57
318.495	200.87
318.709	94.38
318.922	-12.12
319.136	39.08
319.349	37.03
319.563	41.13
319.776	69.8
319.99	-26.45
320.203	47.27
320.417	57.51
320.63	82.09
320.843	63.66
321.057	65.71
321.27	94.38
321.483	77.99
321.697	135.34
321.91	69.8
322.124	104.62
322.337	96.43
322.55	80.04
322.763	34.99
322.977	51.37
323.19	28.84
323.403	8.36
323.617	47.27
323.83	100.52
324.043	-5.97
324.256	63.66
324.469	61.61
324.683	65.71
324.896	12.46
325.109	30.89
325.322	20.65
325.535	53.42
325.748	65.71
325.962	129.19
326.175	69.8
326.388	-10.07
326.601	63.66
326.814	14.51
327.027	45.23
327.24	127.14
327.453	-36.69
327.666	80.04
327.879	55.47
328.092	41.13
328.305	43.18
328.518	6.31
328.731	-12.12
328.944	26.79
329.157	49.32
329.37	200.87
329.583	110.76
329.796	73.9
330.009	-36.69
330.222	94.38
330.435	65.71
330.648	41.13
330.861	59.56
331.073	114.86
331.286	55.47
331.499	37.03
331.712	-20.31
331.925	47.27
332.138	69.8
332.35	55.47
332.563	-16.21
332.776	28.84
332.989	2.22
333.202	96.43
333.414	28.84
333.627	-3.93
333.84	20.65
334.053	88.23
334.265	28.84
334.478	20.65
334.691	-28.5
334.903	61.61
335.116	73.9
335.329	6.31
335.541	90.28
335.754	114.86
335.966	80.04
336.179	26.79
336.392	-8.02
336.604	47.27
336.817	24.75
337.029	0.17
337.242	37.03
337.454	57.51
337.667	22.7
337.88	112.81
338.092	53.42
338.305	41.13
338.517	32.94
338.729	86.19
338.942	176.3
339.154	45.23
339.367	63.66
339.579	37.03
339.792	-12.12
340.004	61.61
340.217	51.37
340.429	133.29
340.641	-1.88
340.854	-20.31
341.066	82.09
341.278	110.76
341.491	176.3
341.703	67.75
341.915	51.37
342.128	77.99
342.34	102.57
342.552	118.95
342.764	98.47
342.977	43.18
343.189	18.6
343.401	32.94
343.613	10.41
343.826	77.99
344.038	8.36
344.25	112.81
344.462	-1.88
344.674	151.72
344.886	-53.08
345.099	53.42
345.311	-69.46
345.523	26.79
345.735	61.61
345.947	96.43
346.159	45.23
346.371	59.56
346.583	77.99
346.795	137.38
347.007	73.9
347.219	63.66
347.431	69.8
347.643	143.53
347.855	80.04
348.067	172.2
348.279	67.75
348.491	49.32
348.703	127.14
348.915	39.08
349.127	20.65
349.339	4.27
349.551	45.23
349.763	73.9
349.975	53.42
350.187	45.23
350.399	20.65
350.61	90.28
350.822	24.75
351.034	61.61
351.246	94.38
351.458	112.81
351.669	73.9
351.881	155.82
352.093	37.03
352.305	94.38
352.517	59.56
352.728	69.8
352.94	55.47
353.152	98.47
353.363	37.03
353.575	0.17
353.787	53.42
353.999	118.95
354.21	123.05
354.422	30.89
354.633	28.84
354.845	45.23
355.057	45.23
355.268	20.65
355.48	92.33
355.692	-26.45
355.903	20.65
356.115	14.51
356.326	0.17
356.538	69.8
356.749	73.9
356.961	61.61
357.172	82.09
357.384	94.38
357.595	151.72
357.807	73.9
358.018	30.89
358.23	20.65
358.441	116.9
358.653	63.66
358.864	-8.02
359.075	53.42
359.287	24.75
359.498	26.79
359.709	20.65
359.921	24.75
360.132	106.67
360.344	16.55
360.555	178.34
360.766	12.46
360.977	69.8
361.189	84.14
361.4	0.17
361.611	61.61
361.823	123.05
362.034	45.23
362.245	-36.69
362.456	67.75
362.667	30.89
362.879	30.89
363.09	53.42
363.301	20.65
363.512	-8.02
363.723	57.51
363.935	102.57
364.146	102.57
364.357	12.46
364.568	18.6
364.779	80.04
364.99	90.28
365.201	98.47
365.412	121
365.623	-10.07
365.834	88.23
366.045	20.65
366.256	-34.64
366.467	104.62
366.678	75.95
366.889	90.28
367.1	32.94
367.311	86.19
367.522	84.14
367.733	159.91
367.944	69.8
368.155	34.99
368.366	106.67
368.577	45.23
368.788	114.86
368.999	80.04
369.209	-20.31
369.42	164.01
369.631	71.85
369.842	123.05
370.053	69.8
370.264	88.23
370.474	57.51
370.685	-48.98
370.896	55.47
371.107	84.14
371.317	96.43
371.528	24.75
371.739	69.8
371.95	28.84
372.16	28.84
372.371	4.27
372.582	-3.93
372.792	82.09
373.003	22.7
373.214	26.79
373.424	118.95
373.635	41.13
373.846	110.76
374.056	82.09
374.267	77.99
374.477	71.85
374.688	-12.12
374.898	-10.07
375.109	106.67
375.319	96.43
375.53	137.38
375.74	34.99
375.951	49.32
376.161	12.46
376.372	49.32
376.582	24.75
376.793	131.24
377.003	39.08
377.214	-10.07
377.424	94.38
377.635	47.27
377.845	16.55
378.055	88.23
378.266	53.42
378.476	82.09
378.686	77.99
378.897	45.23
379.107	112.81
379.317	90.28
379.528	71.85
379.738	71.85
379.948	77.99
380.158	121
380.369	65.71
380.579	69.8
380.789	39.08
380.999	59.56
381.21	112.81
381.42	100.52
381.63	16.55
381.84	145.58
382.05	96.43
382.261	174.25
382.471	96.43
382.681	65.71
382.891	98.47
383.101	129.19
383.311	86.19
383.521	102.57
383.731	55.47
383.941	112.81
384.151	82.09
384.361	57.51
384.571	32.94
384.781	86.19
384.991	104.62
385.201	123.05
385.411	82.09
385.621	67.75
385.831	14.51
386.041	90.28
386.251	80.04
386.461	53.42
386.671	135.34
386.881	59.56
387.091	112.81
387.301	37.03
387.511	-12.12
387.72	32.94
387.93	123.05
388.14	-36.69
388.35	116.9
388.56	172.2
388.769	53.42
388.979	86.19
389.189	86.19
389.399	80.04
389.609	98.47
389.818	86.19
390.028	102.57
390.238	73.9
390.447	47.27
390.657	55.47
390.867	77.99
391.076	12.46
391.286	71.85
391.496	112.81
391.705	118.95
391.915	121
392.125	123.05
392.334	112.81
392.544	137.38
392.753	102.57
392.963	92.33
393.172	118.95
393.382	131.24
393.591	131.24
393.801	0.17
394.01	88.23
394.22	71.85
394.429	28.84
394.639	92.33
394.848	96.43
395.058	77.99
395.267	16.55
395.477	153.77
395.686	139.43
395.895	161.96
396.105	155.82
396.314	172.2
396.524	104.62
396.733	73.9
396.942	176.3
397.152	209.06
397.361	110.76
397.57	149.67
397.78	86.19
397.989	102.57
398.198	161.96
398.407	41.13
398.617	161.96
398.826	143.53
399.035	71.85
399.244	102.57
399.453	98.47
399.663	161.96
399.872	114.86
400.081	37.03
400.29	118.95
400.499	114.86
400.708	215.21
400.917	151.72
401.127	75.95
401.336	192.68
401.545	192.68
401.754	170.15
401.963	118.95
402.172	82.09
402.381	92.33
402.59	65.71
402.799	69.8
403.008	123.05
403.217	131.24
403.426	202.92
403.635	47.27
403.844	209.06
404.053	86.19
404.262	168.1
404.471	209.06
404.68	143.53
404.888	96.43
405.097	176.3
405.306	172.2
405.515	293.03
405.724	166.06
405.933	151.72
406.142	172.2
406.35	151.72
406.559	200.87
406.768	241.83
406.977	276.65
407.185	221.35
407.394	219.3
407.603	155.82
407.812	233.64
408.02	290.98
408.229	190.63
408.438	278.69
408.646	250.02
408.855	266.41
409.064	282.79
409.272	309.41
409.481	336.04
409.69	276.65
409.898	311.46
410.107	256.17
410.315	362.66
410.524	254.12
410.733	356.52
410.941	282.79
411.15	458.92
411.358	385.19
411.567	528.55
411.775	340.13
411.984	426.15
412.192	512.16
412.401	499.88
412.609	520.35
412.818	514.21
413.026	506.02
413.234	561.31
413.443	522.4
413.651	471.2
413.86	569.51
414.068	645.28
414.276	651.42
414.485	577.7
414.693	698.53
414.901	714.91
415.11	712.86
415.318	768.16
415.526	725.15
415.734	860.32
415.943	823.45
416.151	950.43
416.359	929.95
416.567	929.95
416.776	958.62
416.984	946.33
417.192	1028.25
417.4	1058.97
417.608	948.38
417.817	1177.75
418.025	1153.18
418.233	1226.9
418.441	1259.67
418.649	1245.34
418.857	1265.82
419.065	1335.45
419.273	1339.54
419.481	1386.65
419.689	1489.04
419.897	1480.85
420.105	1585.3
420.313	1566.87
420.521	1654.93
420.729	1691.79
420.937	1790.1
421.145	1720.46
421.353	2023.56
421.561	2093.19
421.769	2027.66
421.977	2113.67
422.185	2121.87
422.393	2154.63
422.601	2392.2
422.809	2406.53
423.017	2404.49
423.224	2543.75
423.432	2574.47
423.64	2605.19
423.848	2777.22
424.056	2611.33
424.263	3018.88
424.471	2908.29
424.679	3004.54
424.887	3127.42
425.094	3332.22
425.302	3295.35
425.51	3373.18
425.718	3414.13
425.925	3440.76
426.133	3530.87
426.341	3813.49
426.548	3969.13
426.756	4085.87
426.964	4132.97
427.171	4296.81
427.379	4388.97
427.586	4427.88
427.794	4683.88
428.001	4669.54
428.209	5025.89
428.417	5044.32
428.624	5378.14
428.832	5337.18
429.039	5216.35
429.247	5195.87
429.454	5816.4
429.662	6174.8
429.869	5740.63
430.076	6068.3
430.284	6000.72
430.491	6176.84
430.699	6690.88
430.906	6625.35
431.114	6647.88
431.321	6852.67
431.528	7151.68
431.736	7485.5
431.943	7745.59
432.15	7581.75
432.358	7602.23
432.565	8167.47
432.772	7893.04
432.979	8517.67
433.187	8552.49
433.394	8495.15
433.601	9058.34
433.808	9246.75
434.016	9213.98
434.223	9596.95
434.43	10129.42
434.637	9953.3
434.844	10584.07
435.052	10774.53
435.259	10553.35
435.466	10725.38
435.673	10729.48
435.88	11325.44
436.087	12095.47
436.294	12029.94
436.501	11638.78
436.708	11751.42
436.915	12144.63
437.122	12785.64
437.329	12726.25
437.537	13031.4
437.743	13225.95
437.95	13264.86
438.157	13998.04
438.364	14292.94
438.571	14299.09
438.778	14507.98
438.985	15914.94
439.192	15110.08
439.399	15591.36
439.606	15404.99
439.813	16183.22
440.02	17285.03
440.227	16592.81
440.433	16480.18
440.64	17211.3
440.847	17145.77
441.054	17364.9
441.261	18503.57
441.467	18048.92
441.674	18685.84
441.881	19142.53
442.088	19433.35
442.294	19148.68
442.501	19541.89
442.708	19818.36
442.914	20954.99
443.121	21602.15
443.328	20907.88
443.534	22372.18
443.741	21876.57
443.948	21528.42
444.154	23641.92
444.361	22968.14
444.568	23123.79
444.774	22998.86
444.981	23318.34
445.187	24004.41
445.394	25030.44
445.6	24905.52
445.807	27260.68
446.013	25917.22
446.22	26523.41
446.426	27410.18
446.633	27729.67
446.839	28380.92
447.046	27068.17
447.252	28837.62
447.459	29210.35
447.665	28587.77
447.871	30140.13
448.078	31547.08
448.284	29877.99
448.491	30756.57
448.697	32095.94
448.903	32296.64
449.11	32624.31
449.316	31821.51
449.522	32583.35
449.728	33392.3
449.935	33611.43
450.141	33644.2
450.347	34266.78
450.553	33607.34
450.76	33775.27
450.966	34850.45
451.172	34598.55
451.378	34948.76
451.584	34524.83
451.791	35761.8
451.997	35321.49
452.203	36230.79
452.409	35970.69
452.615	35407.5
452.821	34512.54
453.027	33627.82
453.233	35749.51
453.44	34184.87
453.646	34596.51
453.852	34858.65
454.058	35389.07
454.264	34150.05
454.47	34827.93
454.676	33908.39
454.882	35061.4
455.088	32282.3
455.294	32695.99
455.5	33191.6
455.705	33158.83
455.911	32038.59
456.117	31428.3
456.323	31174.35
456.529	29605.61
456.735	30455.51
456.941	29910.75
457.147	29247.21
457.352	28382.97
457.558	28202.75
457.764	28499.7
457.97	27774.72
458.176	26906.38
458.381	27209.48
458.587	25595.68
458.793	25548.58
458.999	24092.48
459.204	26226.46
459.41	25229.1
459.616	23263.05
459.821	23801.66
460.027	23185.22
460.233	22978.38
460.438	21763.93
460.644	22103.9
460.85	21118.82
461.055	20944.75
461.261	20399.99
461.466	18880.39
461.672	18583.44
461.878	19773.31
462.083	18636.69
462.289	18159.51
462.494	17950.62
462.7	17344.42
462.905	16629.68
463.111	17352.61
463.316	17577.89
463.522	17037.22
463.727	16857
463.932	16938.92
464.138	16652.2
464.343	16709.55
464.549	16089.01
464.754	16787.37
464.959	16338.87
465.165	16615.34
465.37	15658.94
465.575	15513.53
465.781	15841.21
465.986	16058.29
466.191	15431.62
466.397	15216.58
466.602	14376.91
