Data from USB4F104151__237__14-34-06-112.txt Node

Date: Thu Mar 13 14:34:06 EDT 2025
User: louis
Spectrometer: USB4F10415
Trigger mode: 4
Integration Time (sec): 2.500000E-2
Scans to average: 1
Electric dark correction enabled: true
Nonlinearity correction enabled: false
Boxcar width: 0
XAxis mode: Wavelengths
Number of Pixels in Spectrum: 3648
>>>>>Begin Spectral Data<<<<<
178.204	-124.41
178.424	-124.41
178.644	-124.41
178.864	-239.1
179.084	-161.28
179.304	-34.3
179.524	-9.73
179.744	4.61
179.964	23.04
180.184	-3.58
180.404	6.66
180.624	33.28
180.844	35.33
181.064	-15.87
181.283	18.94
181.503	-26.11
181.723	-32.26
181.943	-26.11
182.163	133.63
182.383	27.14
182.602	82.43
182.822	104.96
183.042	88.57
183.262	-24.06
183.482	23.04
183.701	39.42
183.921	47.62
184.141	16.9
184.361	49.66
184.58	43.52
184.8	31.23
185.02	-19.97
185.239	72.19
185.459	43.52
185.679	14.85
185.898	-62.98
186.118	94.72
186.338	86.53
186.557	47.62
186.777	31.23
186.997	-73.21
187.216	-1.54
187.436	104.96
187.655	64
187.875	59.9
188.095	31.23
188.314	39.42
188.534	150.01
188.753	43.52
188.973	57.86
189.192	82.43
189.412	-1.54
189.631	23.04
189.851	88.57
190.07	129.53
190.29	66.05
190.509	51.71
190.729	-52.74
190.948	-1.54
191.168	145.92
191.387	49.66
191.607	51.71
191.826	12.8
192.045	14.85
192.265	-22.02
192.484	12.8
192.704	64
192.923	-26.11
193.142	72.19
193.362	98.81
193.581	84.48
193.8	14.85
194.02	39.42
194.239	10.75
194.458	-19.97
194.678	2.56
194.897	49.66
195.116	53.76
195.335	49.66
195.555	55.81
195.774	47.62
195.993	-13.82
196.212	-46.59
196.432	-46.59
196.651	-5.63
196.87	8.7
197.089	133.63
197.308	27.14
197.528	61.95
197.747	14.85
197.966	-71.17
198.185	14.85
198.404	-26.11
198.623	64
198.842	31.23
199.062	-7.68
199.281	88.57
199.5	53.76
199.719	-46.59
199.938	61.95
200.157	43.52
200.376	-1.54
200.595	92.67
200.814	14.85
201.033	25.09
201.252	23.04
201.471	4.61
201.69	43.52
201.909	14.85
202.128	31.23
202.347	72.19
202.566	170.49
202.785	-26.11
203.004	-40.45
203.223	88.57
203.442	29.18
203.661	55.81
203.879	49.66
204.098	84.48
204.317	-1.54
204.536	113.15
204.755	88.57
204.974	72.19
205.193	14.85
205.411	57.86
205.63	47.62
205.849	72.19
206.068	8.7
206.287	-34.3
206.505	80.38
206.724	55.81
206.943	2.56
207.162	64
207.381	23.04
207.599	23.04
207.818	25.09
208.037	39.42
208.255	16.9
208.474	23.04
208.693	59.9
208.911	-1.54
209.13	-5.63
209.349	-17.92
209.567	49.66
209.786	72.19
210.005	59.9
210.223	82.43
210.442	23.04
210.661	96.77
210.879	43.52
211.098	27.14
211.316	72.19
211.535	55.81
211.753	31.23
211.972	45.57
212.191	92.67
212.409	55.81
212.628	55.81
212.846	72.19
213.065	49.66
213.283	72.19
213.502	72.19
213.72	8.7
213.938	-1.54
214.157	64
214.375	23.04
214.594	64
214.812	64
215.031	33.28
215.249	29.18
215.467	39.42
215.686	-28.16
215.904	55.81
216.122	68.09
216.341	25.09
216.559	31.23
216.778	47.62
216.996	51.71
217.214	39.42
217.432	37.38
217.651	12.8
217.869	88.57
218.087	16.9
218.306	23.04
218.524	23.04
218.742	23.04
218.96	66.05
219.179	-26.11
219.397	-7.68
219.615	31.23
219.833	104.96
220.051	53.76
220.27	109.05
220.488	68.09
220.706	82.43
220.924	23.04
221.142	23.04
221.36	49.66
221.578	53.76
221.796	25.09
222.015	109.05
222.233	33.28
222.451	14.85
222.669	23.04
222.887	113.15
223.105	-1.54
223.323	12.8
223.541	31.23
223.759	96.77
223.977	88.57
224.195	84.48
224.413	31.23
224.631	23.04
224.849	25.09
225.067	84.48
225.285	39.42
225.503	14.85
225.721	-40.45
225.939	39.42
226.157	74.24
226.375	156.16
226.592	2.56
226.81	59.9
227.028	111.1
227.246	55.81
227.464	74.24
227.682	2.56
227.9	10.75
228.117	107.01
228.335	41.47
228.553	-5.63
228.771	66.05
228.989	-32.26
229.206	64
229.424	43.52
229.642	-15.87
229.86	-7.68
230.077	88.57
230.295	23.04
230.513	88.57
230.731	6.66
230.948	76.29
231.166	6.66
231.384	64
231.601	-17.92
231.819	43.52
232.037	16.9
232.254	-38.4
232.472	23.04
232.689	16.9
232.907	104.96
233.125	20.99
233.342	49.66
233.56	29.18
233.777	33.28
233.995	70.14
234.213	139.77
234.43	90.62
234.648	2.56
234.865	55.81
235.083	107.01
235.3	8.7
235.518	-13.82
235.735	12.8
235.953	18.94
236.17	29.18
236.388	10.75
236.605	-13.82
236.822	92.67
237.04	80.38
237.257	39.42
237.475	-62.98
237.692	88.57
237.909	107.01
238.127	6.66
238.344	66.05
238.562	64
238.779	10.75
238.996	90.62
239.214	23.04
239.431	123.39
239.648	-17.92
239.865	-9.73
240.083	49.66
240.3	-1.54
240.517	27.14
240.735	72.19
240.952	86.53
241.169	41.47
241.386	-15.87
241.603	6.66
241.821	12.8
242.038	168.45
242.255	111.1
242.472	-5.63
242.689	49.66
242.907	129.53
243.124	31.23
243.341	66.05
243.558	-17.92
243.775	-30.21
243.992	6.66
244.209	18.94
244.426	59.9
244.643	66.05
244.86	117.25
245.078	23.04
245.295	72.19
245.512	-9.73
245.729	14.85
245.946	61.95
246.163	72.19
246.38	-5.63
246.597	45.57
246.814	23.04
247.031	88.57
247.248	31.23
247.464	10.75
247.681	-26.11
247.898	96.77
248.115	31.23
248.332	12.8
248.549	80.38
248.766	41.47
248.983	80.38
249.2	35.33
249.417	125.44
249.633	14.85
249.85	100.86
250.067	-38.4
250.284	66.05
250.501	16.9
250.717	74.24
250.934	8.7
251.151	25.09
251.368	-3.58
251.585	6.66
251.801	39.42
252.018	59.9
252.235	78.33
252.451	49.66
252.668	8.7
252.885	72.19
253.102	6.66
253.318	18.94
253.535	-13.82
253.752	76.29
253.968	14.85
254.185	33.28
254.401	23.04
254.618	-34.3
254.835	-58.88
255.051	80.38
255.268	59.9
255.484	41.47
255.701	-54.78
255.917	98.81
256.134	10.75
256.351	74.24
256.567	16.9
256.784	23.04
257	49.66
257.217	45.57
257.433	57.86
257.65	131.58
257.866	117.25
258.082	82.43
258.299	66.05
258.515	88.57
258.732	25.09
258.948	12.8
259.165	39.42
259.381	23.04
259.597	31.23
259.814	12.8
260.03	86.53
260.246	20.99
260.463	41.47
260.679	84.48
260.895	-1.54
261.112	-42.5
261.328	55.81
261.544	-15.87
261.761	64
261.977	23.04
262.193	-26.11
262.409	35.33
262.626	57.86
262.842	64
263.058	55.81
263.274	84.48
263.49	25.09
263.707	64
263.923	27.14
264.139	6.66
264.355	-1.54
264.571	72.19
264.787	68.09
265.004	57.86
265.22	-34.3
265.436	2.56
265.652	-15.87
265.868	-7.68
266.084	6.66
266.3	-9.73
266.516	66.05
266.732	55.81
266.948	88.57
267.164	72.19
267.38	80.38
267.596	47.62
267.812	51.71
268.028	72.19
268.244	74.24
268.46	35.33
268.676	51.71
268.892	53.76
269.108	68.09
269.324	18.94
269.54	-3.58
269.756	43.52
269.972	-17.92
270.188	55.81
270.403	37.38
270.619	78.33
270.835	4.61
271.051	55.81
271.267	16.9
271.483	-5.63
271.698	92.67
271.914	47.62
272.13	121.34
272.346	14.85
272.562	23.04
272.777	39.42
272.993	51.71
273.209	80.38
273.425	80.38
273.64	-30.21
273.856	14.85
274.072	80.38
274.287	-95.74
274.503	47.62
274.719	94.72
274.934	57.86
275.15	-5.63
275.366	31.23
275.581	-15.87
275.797	96.77
276.012	88.57
276.228	-17.92
276.444	66.05
276.659	98.81
276.875	72.19
277.09	-5.63
277.306	82.43
277.521	88.57
277.737	47.62
277.952	68.09
278.168	6.66
278.383	113.15
278.599	96.77
278.814	96.77
279.03	-9.73
279.245	35.33
279.461	55.81
279.676	150.01
279.892	25.09
280.107	-17.92
280.322	47.62
280.538	47.62
280.753	35.33
280.969	205.31
281.184	-7.68
281.399	-5.63
281.615	64
281.83	4.61
282.045	57.86
282.26	39.42
282.476	45.57
282.691	113.15
282.906	59.9
283.122	57.86
283.337	-15.87
283.552	145.92
283.767	-58.88
283.983	57.86
284.198	-7.68
284.413	76.29
284.628	14.85
284.843	68.09
285.058	23.04
285.274	115.2
285.489	25.09
285.704	100.86
285.919	-24.06
286.134	8.7
286.349	66.05
286.564	6.66
286.779	88.57
286.995	6.66
287.21	-58.88
287.425	39.42
287.64	96.77
287.855	47.62
288.07	-26.11
288.285	8.7
288.5	43.52
288.715	31.23
288.93	27.14
289.145	18.94
289.36	-15.87
289.575	88.57
289.79	35.33
290.004	6.66
290.219	37.38
290.434	-7.68
290.649	-54.78
290.864	51.71
291.079	80.38
291.294	61.95
291.509	64
291.724	74.24
291.938	39.42
292.153	8.7
292.368	23.04
292.583	16.9
292.798	18.94
293.012	80.38
293.227	74.24
293.442	104.96
293.657	104.96
293.871	76.29
294.086	72.19
294.301	76.29
294.516	53.76
294.73	-13.82
294.945	6.66
295.16	-1.54
295.374	141.82
295.589	88.57
295.804	-30.21
296.018	72.19
296.233	55.81
296.447	66.05
296.662	-13.82
296.877	16.9
297.091	-1.54
297.306	90.62
297.52	0.51
297.735	-1.54
297.949	39.42
298.164	82.43
298.378	64
298.593	14.85
298.807	92.67
299.022	33.28
299.236	88.57
299.451	25.09
299.665	35.33
299.88	117.25
300.094	-34.3
300.309	100.86
300.523	41.47
300.737	23.04
300.952	104.96
301.166	78.33
301.381	57.86
301.595	31.23
301.809	12.8
302.024	-65.02
302.238	23.04
302.452	72.19
302.667	113.15
302.881	121.34
303.095	104.96
303.309	82.43
303.524	51.71
303.738	27.14
303.952	0.51
304.166	78.33
304.381	-48.64
304.595	76.29
304.809	104.96
305.023	74.24
305.237	8.7
305.452	18.94
305.666	51.71
305.88	39.42
306.094	14.85
306.308	80.38
306.522	76.29
306.736	31.23
306.95	96.77
307.164	107.01
307.379	68.09
307.593	51.71
307.807	68.09
308.021	14.85
308.235	80.38
308.449	-7.68
308.663	31.23
308.877	61.95
309.091	25.09
309.305	64
309.519	-42.5
309.733	96.77
309.947	39.42
310.161	145.92
310.374	107.01
310.588	49.66
310.802	47.62
311.016	-1.54
311.23	47.62
311.444	31.23
311.658	-15.87
311.872	39.42
312.085	6.66
312.299	23.04
312.513	47.62
312.727	84.48
312.941	6.66
313.154	6.66
313.368	-11.78
313.582	47.62
313.796	6.66
314.009	64
314.223	72.19
314.437	59.9
314.651	82.43
314.864	-28.16
315.078	70.14
315.292	74.24
315.505	66.05
315.719	88.57
315.933	-7.68
316.146	66.05
316.36	8.7
316.573	45.57
316.787	92.67
317.001	84.48
317.214	2.56
317.428	2.56
317.641	68.09
317.855	68.09
318.068	78.33
318.282	-34.3
318.495	121.34
318.709	100.86
318.922	49.66
319.136	59.9
319.349	107.01
319.563	109.05
319.776	68.09
319.99	14.85
320.203	31.23
320.417	18.94
320.63	104.96
320.843	6.66
321.057	72.19
321.27	41.47
321.483	55.81
321.697	-7.68
321.91	66.05
322.124	90.62
322.337	74.24
322.55	33.28
322.763	35.33
322.977	39.42
323.19	14.85
323.403	47.62
323.617	2.56
323.83	96.77
324.043	84.48
324.256	115.2
324.469	18.94
324.683	150.01
324.896	96.77
325.109	72.19
325.322	8.7
325.535	80.38
325.748	64
325.962	31.23
326.175	80.38
326.388	6.66
326.601	55.81
326.814	23.04
327.027	96.77
327.24	80.38
327.453	-26.11
327.666	31.23
327.879	53.76
328.092	80.38
328.305	39.42
328.518	98.81
328.731	6.66
328.944	47.62
329.157	107.01
329.37	-13.82
329.583	76.29
329.796	80.38
330.009	35.33
330.222	64
330.435	57.86
330.648	37.38
330.861	92.67
331.073	41.47
331.286	123.39
331.499	68.09
331.712	41.47
331.925	127.49
332.138	51.71
332.35	82.43
332.563	18.94
332.776	107.01
332.989	-5.63
333.202	47.62
333.414	27.14
333.627	0.51
333.84	29.18
334.053	18.94
334.265	64
334.478	96.77
334.691	45.57
334.903	74.24
335.116	6.66
335.329	72.19
335.541	80.38
335.754	111.1
335.966	43.52
336.179	49.66
336.392	78.33
336.604	43.52
336.817	74.24
337.029	-5.63
337.242	47.62
337.454	14.85
337.667	41.47
337.88	43.52
338.092	47.62
338.305	84.48
338.517	14.85
338.729	66.05
338.942	109.05
339.154	4.61
339.367	47.62
339.579	49.66
339.792	49.66
340.004	51.71
340.217	31.23
340.429	51.71
340.641	31.23
340.854	51.71
341.066	43.52
341.278	47.62
341.491	119.29
341.703	55.81
341.915	64
342.128	107.01
342.34	64
342.552	72.19
342.764	64
342.977	41.47
343.189	113.15
343.401	41.47
343.613	2.56
343.826	88.57
344.038	31.23
344.25	27.14
344.462	43.52
344.674	68.09
344.886	35.33
345.099	104.96
345.311	33.28
345.523	76.29
345.735	-7.68
345.947	55.81
346.159	45.57
346.371	80.38
346.583	23.04
346.795	96.77
347.007	2.56
347.219	59.9
347.431	2.56
347.643	-1.54
347.855	80.38
348.067	66.05
348.279	25.09
348.491	47.62
348.703	55.81
348.915	18.94
349.127	90.62
349.339	39.42
349.551	14.85
349.763	92.67
349.975	88.57
350.187	39.42
350.399	125.44
350.61	145.92
350.822	80.38
351.034	41.47
351.246	33.28
351.458	33.28
351.669	64
351.881	96.77
352.093	47.62
352.305	113.15
352.517	104.96
352.728	154.11
352.94	66.05
353.152	47.62
353.363	74.24
353.575	90.62
353.787	121.34
353.999	33.28
354.21	64
354.422	2.56
354.633	94.72
354.845	41.47
355.057	68.09
355.268	33.28
355.48	4.61
355.692	18.94
355.903	92.67
356.115	64
356.326	39.42
356.538	72.19
356.749	80.38
356.961	137.73
357.172	-1.54
357.384	57.86
357.595	147.97
357.807	-34.3
358.018	33.28
358.23	84.48
358.441	154.11
358.653	23.04
358.864	31.23
359.075	33.28
359.287	96.77
359.498	37.38
359.709	20.99
359.921	39.42
360.132	162.3
360.344	61.95
360.555	107.01
360.766	27.14
360.977	66.05
361.189	80.38
361.4	82.43
361.611	72.19
361.823	113.15
362.034	10.75
362.245	-13.82
362.456	100.86
362.667	104.96
362.879	10.75
363.09	35.33
363.301	47.62
363.512	49.66
363.723	41.47
363.935	16.9
364.146	33.28
364.357	141.82
364.568	59.9
364.779	31.23
364.99	109.05
365.201	64
365.412	104.96
365.623	-17.92
365.834	72.19
366.045	55.81
366.256	49.66
366.467	-26.11
366.678	49.66
366.889	41.47
367.1	6.66
367.311	31.23
367.522	57.86
367.733	64
367.944	92.67
368.155	39.42
368.366	39.42
368.577	121.34
368.788	55.81
368.999	86.53
369.209	33.28
369.42	147.97
369.631	145.92
369.842	100.86
370.053	6.66
370.264	2.56
370.474	23.04
370.685	147.97
370.896	72.19
371.107	37.38
371.317	188.93
371.528	72.19
371.739	72.19
371.95	72.19
372.16	127.49
372.371	-54.78
372.582	55.81
372.792	100.86
373.003	41.47
373.214	94.72
373.424	55.81
373.635	8.7
373.846	84.48
374.056	113.15
374.267	72.19
374.477	72.19
374.688	53.76
374.898	117.25
375.109	-7.68
375.319	84.48
375.53	64
375.74	51.71
375.951	39.42
376.161	117.25
376.372	102.91
376.582	88.57
376.793	76.29
377.003	57.86
377.214	115.2
377.424	61.95
377.635	39.42
377.845	-9.73
378.055	143.87
378.266	31.23
378.476	29.18
378.686	-1.54
378.897	55.81
379.107	213.5
379.317	92.67
379.528	55.81
379.738	162.3
379.948	-32.26
380.158	49.66
380.369	80.38
380.579	147.97
380.789	86.53
380.999	47.62
381.21	80.38
381.42	125.44
381.63	57.86
381.84	104.96
382.05	115.2
382.261	117.25
382.471	59.9
382.681	117.25
382.891	86.53
383.101	176.64
383.311	55.81
383.521	18.94
383.731	135.68
383.941	66.05
384.151	8.7
384.361	74.24
384.571	121.34
384.781	31.23
384.991	84.48
385.201	135.68
385.411	47.62
385.621	90.62
385.831	25.09
386.041	129.53
386.251	66.05
386.461	39.42
386.671	68.09
386.881	80.38
387.091	102.91
387.301	18.94
387.511	64
387.72	39.42
387.93	51.71
388.14	57.86
388.35	100.86
388.56	109.05
388.769	55.81
388.979	100.86
389.189	82.43
389.399	74.24
389.609	121.34
389.818	145.92
390.028	121.34
390.238	121.34
390.447	57.86
390.657	129.53
390.867	72.19
391.076	25.09
391.286	76.29
391.496	8.7
391.705	64
391.915	137.73
392.125	64
392.334	72.19
392.544	141.82
392.753	174.59
392.963	96.77
393.172	147.97
393.382	57.86
393.591	188.93
393.801	137.73
394.01	117.25
394.22	84.48
394.429	35.33
394.639	162.3
394.848	98.81
395.058	123.39
395.267	154.11
395.477	178.69
395.686	47.62
395.895	131.58
396.105	178.69
396.314	168.45
396.524	182.78
396.733	150.01
396.942	96.77
397.152	51.71
397.361	197.12
397.57	190.97
397.78	170.49
397.989	96.77
398.198	225.79
398.407	127.49
398.617	139.77
398.826	131.58
399.035	178.69
399.244	154.11
399.453	158.21
399.663	127.49
399.872	123.39
400.081	190.97
400.29	123.39
400.499	178.69
400.708	154.11
400.917	100.86
401.127	88.57
401.336	78.33
401.545	115.2
401.754	195.07
401.963	164.35
402.172	195.07
402.381	104.96
402.59	186.88
402.799	193.02
403.008	186.88
403.217	178.69
403.426	195.07
403.635	174.59
403.844	168.45
404.053	246.27
404.262	227.84
404.471	326.14
404.68	272.89
404.888	219.64
405.097	203.26
405.306	236.03
405.515	223.74
405.724	242.17
405.933	262.65
406.142	219.64
406.35	303.61
406.559	270.84
406.768	215.55
406.977	287.23
407.185	205.31
407.394	320
407.603	285.18
407.812	276.99
408.02	346.62
408.229	326.14
408.438	266.75
408.646	295.42
408.855	346.62
409.064	377.34
409.272	350.71
409.481	489.98
409.69	418.3
409.898	379.39
410.107	524.79
410.315	475.64
410.524	418.3
410.733	555.51
410.941	424.44
411.15	506.36
411.358	539.13
411.567	645.62
411.775	549.37
411.984	627.19
412.192	608.76
412.401	686.58
412.609	676.34
412.818	813.56
413.026	723.44
413.234	791.03
413.443	711.16
413.651	678.39
413.86	856.56
414.068	920.05
414.276	938.48
414.485	909.81
414.693	965.11
414.901	1087.98
415.11	1081.84
415.318	1077.74
415.526	1092.08
415.734	1098.22
415.943	1182.19
416.151	1274.35
416.359	1241.58
416.567	1323.5
416.776	1360.36
416.984	1366.51
417.192	1511.91
417.4	1432.04
417.608	1485.29
417.817	1530.34
418.025	1692.13
418.233	1786.34
418.441	1702.37
418.649	1778.15
418.857	1868.26
419.065	1917.41
419.273	1882.6
419.481	2007.52
419.689	2130.4
419.897	2253.28
420.105	2390.49
420.313	2367.96
420.521	2488.79
420.729	2554.33
420.937	2523.61
421.145	2574.81
421.353	2730.45
421.561	2939.35
421.769	2857.43
421.977	3004.88
422.185	2972.11
422.393	3328.46
422.601	3570.12
422.809	3506.63
423.017	3463.63
423.224	3557.83
423.432	3643.85
423.64	3768.77
423.848	3977.67
424.056	4024.77
424.263	4331.97
424.471	4370.88
424.679	4442.56
424.887	4565.43
425.094	4835.77
425.302	4823.48
425.51	4788.66
425.718	5226.93
425.925	5312.94
426.133	5433.77
426.341	5650.86
426.548	5800.36
426.756	5849.51
426.964	5929.38
427.171	6455.71
427.379	6474.14
427.586	6631.83
427.794	6723.99
428.001	6924.69
428.209	7385.49
428.417	7223.7
428.624	7661.96
428.832	7686.54
429.039	7836.04
429.247	7440.78
429.454	8456.57
429.662	8929.66
429.869	8380.8
430.076	8929.66
430.284	8784.25
430.491	9251.19
430.699	9607.53
430.906	9677.16
431.114	9716.08
431.321	10070.37
431.528	10348.9
431.736	10971.48
431.943	11573.58
432.15	11159.89
432.358	11346.26
432.565	11954.51
432.772	12173.64
432.979	12646.72
433.187	12702.01
433.394	12695.87
433.601	13672.75
433.808	13717.81
434.016	13449.52
434.223	13941.04
434.43	14825.76
434.637	14723.36
434.844	15694.1
435.052	15771.92
435.259	15784.21
435.466	15696.14
435.673	15857.93
435.88	16863.49
436.087	17869.04
436.294	17604.85
436.501	16984.32
436.708	17449.21
436.915	18122.99
437.122	18692.32
437.329	18960.61
437.537	19634.39
437.743	19771.6
437.95	19601.62
438.157	20822.21
438.364	21483.7
438.571	21156.03
438.778	21557.43
438.985	23312.54
439.192	22653.09
439.399	23312.54
439.606	22739.11
439.813	24049.81
440.02	25448.57
440.227	24715.4
440.433	24731.78
440.64	25514.11
440.847	25462.91
441.054	26095.73
441.261	27916.37
441.467	27254.88
441.674	28063.83
441.881	28887.11
442.088	28481.61
442.294	28571.72
442.501	29124.68
442.708	29890.62
442.914	30971.94
443.121	32165.91
443.328	31426.59
443.534	33722.37
443.741	32749.58
443.948	31928.34
444.154	34349.04
444.361	34402.29
444.568	34564.08
444.774	34363.38
444.981	34951.15
445.187	35440.61
445.394	37523.4
445.6	37019.6
445.807	40458.13
446.013	38447.03
446.22	39268.26
446.426	40794
446.633	41213.84
446.839	42497.91
447.046	40775.57
447.252	43159.41
447.459	43069.29
447.665	43220.84
447.871	45000.53
448.078	46280.51
448.284	44519.26
448.491	45371.21
448.697	47279.92
448.903	48363.29
449.11	48129.83
449.316	47345.45
449.522	48623.39
449.728	49704.71
449.935	49852.17
450.141	49420.05
450.347	50810.62
450.553	49442.57
450.76	49737.48
450.966	51873.51
451.172	51031.8
451.378	52223.72
451.584	51136.24
451.791	52598.49
451.997	52049.64
452.203	53368.53
452.409	53133.01
452.615	52799.19
452.821	50953.97
453.027	50470.65
453.233	53006.04
453.44	51105.52
453.646	51384.05
453.852	51660.52
454.058	52559.58
454.264	50810.62
454.47	52037.35
454.676	50636.54
454.882	52264.67
455.088	48301.85
455.294	48645.91
455.5	49676.04
455.705	49827.59
455.911	48164.64
456.117	47109.94
456.323	46710.58
456.529	44169.05
456.735	46153.54
456.941	45215.57
457.147	44427.1
457.352	43007.86
457.558	42022.78
457.764	42540.92
457.97	41457.54
458.176	40775.57
458.381	40740.75
458.587	38586.29
458.793	38825.9
458.999	36835.28
459.204	39086
459.41	38641.59
459.616	35809.25
459.821	36151.26
460.027	36028.38
460.233	35033.07
460.438	33171.46
460.644	33828.86
460.85	32292.88
461.055	31242.28
461.261	31668.25
461.466	29374.53
461.672	28461.13
461.878	30674.99
462.083	28323.92
462.289	27856.98
462.494	27619.42
462.7	26245.23
462.905	25964.66
463.111	26155.12
463.316	26636.39
463.522	25999.48
463.727	26081.39
463.932	25974.9
464.138	25622.65
464.343	25649.27
464.549	24993.92
464.754	25847.93
464.959	25385.08
465.165	25227.39
465.37	24221.84
465.575	23539.86
465.781	24377.48
465.986	24668.3
466.191	23853.2
466.397	23206.05
466.602	22364.33
466.807	22999.2
467.012	23048.35
467.218	22749.35
467.423	22646.95
467.628	22646.95
